SpectraSuite Data File
++++++++++++++++++++++++++++++++++++
Date: Fri Oct 25 10:47:05 EDT 2013
User: price-jones
Dark Spectrum Present: No
Reference Spectrum Present: No
Number of Sampled Component Spectra: 1
Spectrometers: USB2+H05261
Integration Time (usec): 100000 (USB2+H05261)
Spectra Averaged: 1 (USB2+H05261)
Boxcar Smoothing: 0 (USB2+H05261)
Correct for Electrical Dark: No (USB2+H05261)
Strobe/Lamp Enabled: No (USB2+H05261)
Correct for Detector Non-linearity: No (USB2+H05261)
Correct for Stray Light: No (USB2+H05261)
Number of Pixels in Processed Spectrum: 2048
>>>>>Begin Processed Spectral Data<<<<<
365.73	142.77
365.92	142.77
366.12	142.77
366.32	0.00
366.52	70.22
366.72	46.81
366.91	49.15
367.11	28.09
367.31	0.00
367.51	63.19
367.70	18.72
367.90	67.88
368.10	23.41
368.30	0.00
368.49	39.79
368.69	30.43
368.89	25.75
369.09	0.00
369.28	53.83
369.48	70.22
369.68	51.49
369.87	107.66
370.07	135.75
370.27	121.71
370.47	110.01
370.66	327.68
370.86	362.78
371.06	418.96
371.25	435.34
371.45	465.77
371.65	388.53
371.84	411.93
372.04	440.02
372.24	557.05
372.44	500.87
372.63	472.79
372.83	489.17
373.03	486.83
373.22	507.90
373.42	496.19
373.62	552.37
373.81	505.56
374.01	573.43
374.21	543.00
374.40	451.72
374.60	615.56
374.79	561.73
374.99	535.98
375.19	575.77
375.38	641.31
375.58	585.13
375.78	554.71
375.97	580.45
376.17	634.29
376.37	606.20
376.56	608.54
376.76	601.52
376.95	627.26
377.15	667.05
377.35	685.78
377.54	592.16
377.74	746.63
377.93	589.82
378.13	589.82
378.33	650.67
378.52	636.63
378.72	650.67
378.91	664.71
379.11	655.35
379.31	622.58
379.50	683.44
379.70	699.82
379.89	634.29
380.09	622.58
380.28	594.50
380.48	603.86
380.68	634.29
380.87	631.94
381.07	737.27
381.26	772.38
381.46	636.63
381.65	592.16
381.85	692.80
382.04	645.99
382.24	765.36
382.43	599.18
382.63	638.97
382.83	645.99
383.02	681.10
383.22	723.23
383.41	709.18
383.61	627.26
383.80	840.25
384.00	798.12
384.19	746.63
384.39	781.74
384.58	727.91
384.78	732.59
384.97	744.29
385.17	699.82
385.36	819.19
385.56	688.12
385.75	763.01
385.95	720.88
386.14	767.70
386.34	840.25
386.53	807.48
386.72	793.44
386.92	828.55
387.11	814.51
387.31	746.63
387.50	840.25
387.70	781.74
387.89	821.53
388.09	889.40
388.28	854.30
388.48	844.93
388.67	938.55
388.86	901.11
389.06	917.49
389.25	950.26
389.45	847.27
389.64	954.94
389.84	861.32
390.03	985.37
390.22	940.90
390.42	945.58
390.61	959.62
390.81	919.83
391.00	1011.11
391.19	947.92
391.39	994.73
391.58	985.37
391.78	1020.47
391.97	997.07
392.16	1050.90
392.36	966.64
392.55	943.24
392.75	1011.11
392.94	959.62
393.13	903.45
393.33	961.96
393.52	985.37
393.71	1015.79
393.91	1095.37
394.10	1029.84
394.29	1053.24
394.49	1029.84
394.68	1064.94
394.88	1144.52
395.07	1132.82
395.26	1167.93
395.46	1121.12
395.65	1142.18
395.84	1165.59
396.04	1177.29
396.23	1088.35
396.42	1036.86
396.62	1139.84
396.81	1167.93
397.00	1121.12
397.19	1259.21
397.39	1254.53
397.58	1245.16
397.77	1203.04
397.97	1282.61
398.16	1263.89
398.35	1291.98
398.55	1277.93
398.74	1362.19
398.93	1350.49
399.12	1308.36
399.32	1427.73
399.51	1371.55
399.70	1451.13
399.90	1430.07
400.09	1390.28
400.28	1430.07
400.47	1434.75
400.67	1451.13
400.86	1481.56
401.05	1444.11
401.24	1341.13
401.44	1535.39
401.63	1509.65
401.82	1579.86
402.01	1584.54
402.21	1542.41
402.40	1521.35
402.59	1535.39
402.78	1528.37
402.97	1579.86
403.17	1586.88
403.36	1528.37
403.55	1717.95
403.74	1673.48
403.93	1600.93
404.13	1579.86
404.32	1605.61
404.51	1682.85
404.70	1603.27
404.89	1727.32
405.09	1734.34
405.28	1797.53
405.47	1710.93
405.66	1769.44
405.85	1839.66
406.05	1708.59
406.24	1734.34
406.43	1844.34
406.62	1877.11
406.81	1994.14
407.00	2017.54
407.20	1785.83
407.39	1893.49
407.58	1851.36
407.77	1778.81
407.96	1975.41
408.15	1954.35
408.34	1947.33
408.54	2026.90
408.73	2026.90
408.92	2015.20
409.11	2064.35
409.30	2162.66
409.49	2040.95
409.68	2111.16
409.87	2038.61
410.07	2104.14
410.26	2122.87
410.45	2054.99
410.64	2235.21
410.83	2291.38
411.02	2251.60
411.21	2296.07
411.40	2338.20
411.59	2282.02
411.78	2244.57
411.98	2401.39
412.17	2387.35
412.36	2303.09
412.55	2438.84
412.74	2410.75
412.93	2448.20
413.12	2340.54
413.31	2520.76
413.50	2464.58
413.69	2523.10
413.88	2548.84
414.07	2537.14
414.26	2600.34
414.45	2597.99
414.64	2616.72
414.83	2658.85
415.02	2778.22
415.22	2883.54
415.41	2867.16
415.60	2897.58
415.79	2782.90
415.98	2953.76
416.17	2883.54
416.36	2918.65
416.55	2874.18
416.74	2991.20
416.93	2885.88
417.12	2946.73
417.31	3047.38
417.50	2986.52
417.69	3112.91
417.88	3000.57
418.07	3056.74
418.26	3094.19
418.45	3171.43
418.64	3218.24
418.83	3236.96
419.02	3211.22
419.21	3176.11
419.39	3215.90
419.58	3302.50
419.77	3246.32
419.96	3290.79
420.15	3208.87
420.34	3337.60
420.53	3339.94
420.72	3428.88
420.91	3393.78
421.10	3318.88
421.29	3403.14
421.48	3382.07
421.67	3459.31
421.86	3459.31
422.05	3459.31
422.24	3517.83
422.43	3485.06
422.61	3456.97
422.80	3552.93
422.99	3592.72
423.18	3531.87
423.37	3482.72
423.56	3604.42
423.75	3538.89
423.94	3522.51
424.13	3279.09
424.32	3426.54
424.50	3578.68
424.69	3595.06
424.88	3625.49
425.07	3545.91
425.26	3571.66
425.45	3494.42
425.64	3555.27
425.83	3506.12
426.01	3503.78
426.20	3548.25
426.39	3480.38
426.58	3669.96
426.77	3576.34
426.96	3555.27
427.15	3590.38
427.33	3616.13
427.52	3632.51
427.71	3756.56
427.90	3758.90
428.09	3815.07
428.28	3831.46
428.46	3824.44
428.65	3784.65
428.84	3833.80
429.03	3936.78
429.22	3786.99
429.40	3777.62
429.59	3796.35
429.78	3599.74
429.97	3562.30
430.16	3920.40
430.34	3840.82
430.53	3857.20
430.72	3866.56
430.91	3889.97
431.10	4021.04
431.28	4112.32
431.47	4114.66
431.66	4198.92
431.85	4060.83
432.03	4180.20
432.22	4409.57
432.41	4163.81
432.60	4138.07
432.79	4234.03
432.97	4358.08
433.16	4285.52
433.35	4173.18
433.54	4217.65
433.72	4290.20
433.91	4306.59
434.10	4337.01
434.28	4301.90
434.47	4428.29
434.66	4425.95
434.85	4337.01
435.03	4414.25
435.22	4334.67
435.41	4510.21
435.59	4554.68
435.78	4554.68
435.97	4557.02
436.16	4718.52
436.34	4596.81
436.53	4643.62
436.72	4800.44
436.90	4578.09
437.09	4746.61
437.28	4681.07
437.46	4774.69
437.65	4664.69
437.84	4816.82
438.02	4688.09
438.21	4798.10
438.40	4737.24
438.58	4854.27
438.77	4926.83
438.96	4770.01
439.14	4966.62
439.33	5144.50
439.52	5160.88
439.70	5118.75
439.89	5118.75
440.08	5163.22
440.26	5186.63
440.45	5160.88
440.63	5303.65
440.82	5275.57
441.01	5343.44
441.19	5378.55
441.38	5488.56
441.57	5495.58
441.75	5537.71
441.94	5607.92
442.12	5659.42
442.31	5710.91
442.50	5682.82
442.68	5664.10
442.87	5666.44
443.05	5694.52
443.24	5823.25
443.43	5757.72
443.61	5865.38
443.80	5877.09
443.98	5905.17
444.17	5668.78
444.35	5844.32
444.54	5963.68
444.73	5781.12
444.91	5811.55
445.10	5944.96
445.28	5727.29
445.47	5720.27
445.65	5825.59
445.84	6003.47
446.02	6022.20
446.21	5802.19
446.39	5837.30
446.58	5923.90
446.77	6054.97
446.95	6026.88
447.14	5966.03
447.32	6143.91
447.51	5959.00
447.69	6031.56
447.88	6052.63
448.06	5937.94
448.25	6038.58
448.43	6094.76
448.62	6064.33
448.80	6005.81
448.99	6005.81
449.17	6202.42
449.36	6160.29
449.54	6258.59
449.73	6202.42
449.91	6312.42
450.10	6356.90
450.28	6464.56
450.46	6520.73
450.65	6438.81
450.83	6600.31
451.02	6452.86
451.20	6459.88
451.39	6523.07
451.57	6712.66
451.76	6483.28
451.94	6656.48
452.13	6537.12
452.31	6567.54
452.49	6300.72
452.68	6492.65
452.86	6420.09
453.05	6586.27
453.23	6707.98
453.42	6672.87
453.60	6658.82
453.78	6700.95
453.97	6647.12
454.15	6686.91
454.34	6502.01
454.52	6794.58
454.70	6860.11
454.89	6731.38
455.07	6754.79
455.26	6878.83
455.44	6829.68
455.62	6878.83
455.81	7070.76
455.99	7073.10
456.17	7087.14
456.36	7138.63
456.54	7129.27
456.73	7220.55
456.91	7302.47
457.09	7309.49
457.28	7356.30
457.46	7155.02
457.64	7311.83
457.83	7220.55
458.01	7208.85
458.19	7349.28
458.38	7236.94
458.56	7536.52
458.74	7513.12
458.93	7342.26
459.11	7463.97
459.29	7492.05
459.48	7522.48
459.66	7531.84
459.84	7786.96
460.03	7667.60
460.21	7531.84
460.39	7639.51
460.57	7737.81
460.76	7602.06
460.94	7637.17
461.12	7786.96
461.31	7920.37
461.49	7765.90
461.67	7719.09
461.85	7978.89
462.04	7850.16
462.22	8402.52
462.40	8079.53
462.59	7974.21
462.77	8079.53
462.95	8133.36
463.13	8011.65
463.32	8114.64
463.50	8142.72
463.68	7978.89
463.86	8147.40
464.05	8114.64
464.23	8187.19
464.41	8234.00
464.59	8226.98
464.78	8278.47
464.96	8285.50
465.14	8306.56
465.32	8283.16
465.50	8585.08
465.69	8341.67
465.87	8393.16
466.05	8203.58
466.23	8264.43
466.41	8454.02
466.60	8641.26
466.78	8423.59
466.96	8468.06
467.14	8531.25
467.32	8423.59
467.51	8528.91
467.69	8437.63
467.87	8659.98
468.05	8610.83
468.23	8519.55
468.41	8540.61
468.60	8608.49
468.78	8737.22
468.96	8821.48
469.14	8812.12
469.32	8865.95
469.50	8777.01
469.69	8945.53
469.87	9036.81
470.05	9123.41
470.23	8798.07
470.41	8926.80
470.59	9202.99
470.77	9092.98
470.95	9116.39
471.14	9235.75
471.32	9074.26
471.50	9329.38
471.68	9270.86
471.86	9303.63
472.04	9673.43
472.22	9647.69
472.40	9380.87
472.58	9530.66
472.77	9397.25
472.95	9687.48
473.13	9909.83
473.31	9659.39
473.49	9390.23
473.67	9809.19
473.85	9666.41
474.03	10024.51
474.21	9863.02
474.39	10113.45
474.57	10019.83
474.75	10183.67
474.93	9954.30
475.12	10253.89
475.30	10424.75
475.48	10469.22
475.66	10434.11
475.84	10389.64
476.02	10471.56
476.20	10389.64
476.38	10539.43
476.56	10801.57
476.74	10981.79
476.92	10586.24
477.10	10733.70
477.28	10949.03
477.46	10970.09
477.64	11197.12
477.82	11246.27
478.00	11606.72
478.18	11492.03
478.36	11417.13
478.54	11468.62
478.72	11698.00
478.90	11758.85
479.08	11798.64
479.26	12044.40
479.44	12084.19
479.62	12166.10
479.80	12058.44
479.98	12297.17
480.16	12453.99
480.34	12336.96
480.52	12706.77
480.70	12540.59
480.88	12318.24
481.06	12624.85
481.24	12760.60
481.41	13144.45
481.59	13179.56
481.77	13217.01
481.95	13137.43
482.13	13415.95
482.31	13209.98
482.49	13738.94
482.67	13825.54
482.85	13621.92
483.03	13975.34
483.21	13895.76
483.39	14099.39
483.57	14080.66
483.74	14211.73
483.92	14333.44
484.10	14188.33
484.28	14544.09
484.46	14728.99
484.64	14862.40
484.82	14663.46
485.00	14993.47
485.18	14752.40
485.35	15356.25
485.53	15302.42
485.71	14986.45
485.89	15641.80
486.07	15286.04
486.25	15318.81
486.43	15730.74
486.61	15653.50
486.78	15840.75
486.96	16379.07
487.14	16456.31
487.32	16095.86
487.50	16489.07
487.68	16765.26
487.85	16826.11
488.03	17062.51
488.21	16982.93
488.39	17102.29
488.57	17233.36
488.75	17207.62
488.92	17769.35
489.10	17488.48
489.28	17982.34
489.46	17874.67
489.64	17977.65
489.81	18714.92
489.99	18443.42
490.17	18494.91
490.35	18867.06
490.53	18546.40
490.70	18827.27
490.88	19124.52
491.06	19215.80
491.24	19260.27
491.41	19360.91
491.59	19173.67
491.77	19204.10
491.95	19693.27
492.13	19726.04
492.30	20060.73
492.48	20152.01
492.66	20243.29
492.84	20042.01
493.01	20002.22
493.19	20278.40
493.37	20645.87
493.54	20767.57
493.72	20732.47
493.90	20875.24
494.08	20975.88
494.25	21242.70
494.43	21511.86
494.61	21605.49
494.79	21460.37
494.96	21350.37
495.14	21603.14
495.32	21804.43
495.49	22068.91
495.67	22209.34
495.85	22183.60
496.02	22593.19
496.20	22635.32
496.38	22338.07
496.55	22424.67
496.73	23101.09
496.91	22691.49
497.09	23005.13
497.26	22925.55
497.44	23311.74
497.62	23370.25
497.79	23772.82
497.97	23431.10
498.14	23676.86
498.32	23400.68
498.50	23644.09
498.67	24261.99
498.85	24229.23
499.03	24383.70
499.20	24334.55
499.38	24425.83
499.56	24449.24
499.73	24409.45
499.91	24479.66
500.08	24835.42
500.26	24636.48
500.44	24528.81
500.61	24865.85
500.79	24685.63
500.97	25067.14
501.14	25228.63
501.32	24985.22
501.49	25174.80
501.67	25458.01
501.84	25458.01
502.02	25490.77
502.20	25706.10
502.37	25568.01
502.55	25509.50
502.72	25776.32
502.90	26199.96
503.07	25970.58
503.25	26171.87
503.43	26237.41
503.60	26382.52
503.78	26291.24
503.95	26679.77
504.13	26813.18
504.30	26546.36
504.48	26742.96
504.65	27117.45
504.83	26934.88
505.01	27225.11
505.18	26923.18
505.36	27225.11
505.53	27625.34
505.71	27370.22
505.88	27805.56
506.06	27494.27
506.23	27800.88
506.41	27824.29
506.58	27445.12
506.76	27578.53
506.93	28112.17
507.11	27625.34
507.28	27946.00
507.46	28093.45
507.63	28013.87
507.81	28428.15
507.98	28002.17
508.16	28671.56
508.33	28463.25
508.50	28465.60
508.68	28830.72
508.85	29069.45
509.03	29160.73
509.20	28912.64
509.38	28968.81
509.55	29181.80
509.73	28896.25
509.90	29195.84
510.08	29560.97
510.25	29242.65
510.42	29528.20
510.60	29605.44
510.77	29752.89
510.95	29867.58
511.12	29860.55
511.30	30047.80
511.47	29907.37
511.64	30082.91
511.82	30492.50
511.99	30347.39
512.17	30368.45
512.34	30658.68
512.51	30520.59
512.69	30995.71
512.86	30654.00
513.04	30562.72
513.21	30635.27
513.38	30794.43
513.56	30939.54
513.73	30714.85
513.90	30913.80
514.08	30925.50
514.25	31143.17
514.43	30958.27
514.60	30890.39
514.77	31318.71
514.95	31192.32
515.12	31702.56
515.29	31569.15
515.47	31440.42
515.64	31964.70
515.81	31704.90
515.99	31627.66
516.16	31571.49
516.33	31772.77
516.51	31674.47
516.68	31714.26
516.85	31548.08
517.03	31971.72
517.20	32194.07
517.37	32226.84
517.54	32294.71
517.72	32210.45
517.89	32182.37
518.06	32446.85
518.24	32245.56
518.41	32432.80
518.58	32435.14
518.75	32233.86
518.93	32748.78
519.10	32994.53
519.27	32914.95
519.45	33317.53
519.62	33294.12
519.79	33593.71
519.96	33291.78
520.14	33469.66
520.31	33111.56
520.48	33310.50
520.65	33902.66
520.83	33905.00
521.00	33757.55
521.17	33551.58
521.34	33785.63
521.52	34017.35
521.69	34087.56
521.86	34497.16
522.03	33897.98
522.20	34265.44
522.38	34389.49
522.55	34122.67
522.72	34220.97
522.89	34436.30
523.07	34714.83
523.24	34366.09
523.41	34532.26
523.58	34768.66
523.75	34515.88
523.92	34946.54
524.10	35227.40
524.27	35239.11
524.44	35374.86
524.61	35386.56
524.78	35234.42
524.96	35299.96
525.13	35576.14
525.30	35969.35
525.47	35714.23
525.64	35484.86
525.81	35311.66
525.98	35477.84
526.16	35817.22
526.33	35321.02
526.50	36013.82
526.67	35363.15
526.84	35505.93
527.01	35412.31
527.18	36004.46
527.36	36203.41
527.53	36254.90
527.70	36439.80
527.87	36428.10
528.04	36374.27
528.21	36563.85
528.38	36231.49
528.55	36357.88
528.72	36446.82
528.89	36685.56
529.07	36779.18
529.24	36423.42
529.41	36346.18
529.58	36730.03
529.75	36446.82
529.92	36807.26
530.09	36966.42
530.26	37029.62
530.43	37139.62
530.60	36732.37
530.77	37427.51
530.94	37282.39
531.11	36919.61
531.28	37244.94
531.46	37296.44
531.63	37298.78
531.80	37053.02
531.97	37640.50
532.14	37628.79
532.31	37387.72
532.48	37591.34
532.65	37809.01
532.82	38089.88
532.99	37923.70
533.16	37298.78
533.33	37745.82
533.50	38141.37
533.67	38115.62
533.84	38073.49
534.01	38288.82
534.18	38202.22
534.35	38689.06
534.52	38162.43
534.69	38012.64
534.86	38345.00
535.03	38122.65
535.20	38611.82
535.37	38469.04
535.54	38885.66
535.71	38396.49
535.88	38103.92
536.05	38518.20
536.22	38574.37
536.38	38623.52
536.55	38497.13
536.72	38969.92
536.89	37764.54
537.06	38506.49
537.23	39002.69
537.40	39072.90
537.57	38747.57
537.74	39068.22
537.91	39140.78
538.08	38873.96
538.25	38890.34
538.42	39227.38
538.59	39281.21
538.75	39002.69
538.92	39229.72
539.09	39735.27
539.26	39236.74
539.43	39484.84
539.60	39632.29
539.77	39344.41
539.94	39407.60
540.11	39686.12
540.28	39222.70
540.44	39627.61
540.61	39737.62
540.78	39566.76
540.95	39690.80
541.12	39761.02
541.29	39798.47
541.46	39924.86
541.62	39360.79
541.79	40105.08
541.96	39629.95
542.13	40282.96
542.30	39892.09
542.47	40189.34
542.63	39903.79
542.80	40414.03
542.97	40432.75
543.14	40891.50
543.31	40622.34
543.48	40594.25
543.64	41015.55
543.81	40683.19
543.98	40737.02
544.15	40828.30
544.32	41120.87
544.48	41455.57
544.65	40584.89
544.82	40823.62
544.99	40737.02
545.16	40825.96
545.32	40907.88
545.49	41270.67
545.66	41130.23
545.83	40893.84
546.00	40917.25
546.16	41287.05
546.33	40776.81
546.50	40992.14
546.67	41256.62
546.83	41067.04
547.00	41509.40
547.17	41041.29
547.34	41092.79
547.50	41317.48
547.67	41883.89
547.84	41425.14
548.00	41343.22
548.17	41486.00
548.34	41820.69
548.51	41626.43
548.67	41701.32
548.84	42206.88
549.01	41998.57
549.18	41607.70
549.34	41324.50
549.51	42005.59
549.68	42012.62
549.84	41773.88
550.01	42167.09
550.18	41897.93
550.34	41710.69
550.51	41834.74
550.68	41965.81
550.84	41724.73
551.01	42108.58
551.18	42333.27
551.34	41769.20
551.51	42398.80
551.68	42181.13
551.84	42066.45
552.01	41954.10
552.18	42438.59
552.34	41874.52
552.51	42454.98
552.68	42466.68
552.84	42574.34
553.01	42789.67
553.18	42368.38
553.34	42550.94
553.51	42426.89
553.67	42398.80
553.84	43143.09
554.01	42770.95
554.17	43222.67
554.34	43461.41
554.51	43037.77
554.67	43140.75
554.84	42782.65
555.00	42752.23
555.17	42707.76
555.33	43136.07
555.50	43168.84
555.67	43320.98
555.83	42906.70
556.00	42937.13
556.16	43068.20
556.33	43386.51
556.50	42899.68
556.66	43217.99
556.83	43203.95
556.99	43445.02
557.16	43349.06
557.32	43414.60
557.49	43658.01
557.65	43395.87
557.82	42920.74
557.98	43093.94
558.15	43040.11
558.32	43608.86
558.48	43257.78
558.65	43093.94
558.81	43412.26
558.98	43562.05
559.14	43742.27
559.31	43182.88
559.47	43330.34
559.64	43910.79
559.80	43590.14
559.97	43828.87
560.13	43510.56
560.30	43255.44
560.46	43854.62
560.63	43473.11
560.79	43880.36
560.96	44409.32
561.12	43564.39
561.29	43983.35
561.45	44140.16
561.61	43639.29
561.78	43494.18
561.94	43875.68
562.11	43599.50
562.27	43686.10
562.44	43749.29
562.60	44231.44
562.77	44142.50
562.93	43885.04
563.10	44023.14
563.26	43548.01
563.42	43922.49
563.59	43880.36
563.75	44282.94
563.92	44130.80
564.08	44259.53
564.24	43988.03
564.41	43903.77
564.57	44238.47
564.74	44037.18
564.90	44643.38
565.07	44161.23
565.23	44374.22
565.39	44362.51
565.56	44058.24
565.72	43983.35
565.88	43665.03
566.05	44018.46
566.21	44065.27
566.38	43964.62
566.54	44271.23
566.70	44334.43
566.87	44414.01
567.03	44041.86
567.19	44619.97
567.36	44271.23
567.52	44004.41
567.68	44741.68
567.85	43938.88
568.01	44212.72
568.17	43863.98
568.34	44451.45
568.50	44428.05
568.66	43896.75
568.83	44446.77
568.99	44299.32
569.15	44566.14
569.32	44168.25
569.48	43894.41
569.64	44514.65
569.81	44737.00
569.97	44444.43
570.13	44509.97
570.30	44128.46
570.46	44385.92
570.62	43915.47
570.78	44418.69
570.95	44182.29
571.11	45109.14
571.27	44018.46
571.43	44034.84
571.60	44210.38
571.76	44402.30
571.92	44264.21
572.09	44353.15
572.25	44638.70
572.41	44608.27
572.57	44669.12
572.74	45125.53
572.90	44605.93
573.06	44622.31
573.22	44397.62
573.38	44320.38
573.55	44074.63
573.71	44444.43
573.87	44751.04
574.03	44507.63
574.20	44823.60
574.36	44519.33
574.52	44662.10
574.68	44535.71
574.84	44493.58
575.01	44453.79
575.17	44414.01
575.33	44069.95
575.49	44678.49
575.65	44891.48
575.82	45308.09
575.98	44652.74
576.14	45057.65
576.30	45008.50
576.46	44500.61
576.62	44388.26
576.79	44818.92
576.95	44294.64
577.11	44748.70
577.27	44608.27
577.43	44947.65
577.59	44091.01
577.75	44524.01
577.92	44437.41
578.08	44320.38
578.24	44460.82
578.40	44676.15
578.56	44292.30
578.72	44601.25
578.88	45092.76
579.04	44610.61
579.21	44931.26
579.37	44732.32
579.53	44563.80
579.69	44411.67
579.85	45076.38
580.01	44793.17
580.17	44486.56
580.33	44729.98
580.49	44598.91
580.65	44589.55
580.82	45167.66
580.98	44891.48
581.14	44762.75
581.30	45109.14
581.46	44814.24
581.62	44945.31
581.78	45001.48
581.94	45448.52
582.10	45029.57
582.26	44935.95
582.42	45277.66
582.58	44971.05
582.74	44395.28
582.90	44863.39
583.06	44821.26
583.22	45202.77
583.38	44636.36
583.54	44683.17
583.70	45298.73
583.86	44678.49
584.02	44617.63
584.18	44814.24
584.34	44980.42
584.50	45029.57
584.66	44547.42
584.82	44811.90
584.98	44722.96
585.14	45027.23
585.30	44772.11
585.46	44652.74
585.62	44729.98
585.78	44957.01
585.94	44165.91
586.10	44612.95
586.26	44683.17
586.42	44968.71
586.58	45153.62
586.74	44996.80
586.90	44783.81
587.06	44498.26
587.22	45186.38
587.38	44711.25
587.54	45301.07
587.70	45333.84
587.86	44832.96
588.02	45141.91
588.18	45174.68
588.34	44942.97
588.49	44411.67
588.65	44535.71
588.81	44444.43
588.97	44531.03
589.13	44584.86
589.29	44594.23
589.45	44603.59
589.61	44643.38
589.77	45144.25
589.93	45064.67
590.08	45102.12
590.24	45130.21
