SpectraSuite Data File
++++++++++++++++++++++++++++++++++++
Date: Fri Oct 25 10:43:57 EDT 2013
User: price-jones
Dark Spectrum Present: No
Reference Spectrum Present: No
Number of Sampled Component Spectra: 1
Spectrometers: USB2+H05261
Integration Time (usec): 100000 (USB2+H05261)
Spectra Averaged: 1 (USB2+H05261)
Boxcar Smoothing: 0 (USB2+H05261)
Correct for Electrical Dark: No (USB2+H05261)
Strobe/Lamp Enabled: No (USB2+H05261)
Correct for Detector Non-linearity: No (USB2+H05261)
Correct for Stray Light: No (USB2+H05261)
Number of Pixels in Processed Spectrum: 2048
>>>>>Begin Processed Spectral Data<<<<<
365.73	91.28
365.92	91.28
366.12	91.28
366.32	53.83
366.52	18.72
366.72	49.15
366.91	58.51
367.11	44.47
367.31	30.43
367.51	35.11
367.70	84.26
367.90	105.32
368.10	0.00
368.30	16.38
368.49	0.00
368.69	49.15
368.89	91.28
369.09	37.45
369.28	39.79
369.48	44.47
369.68	110.01
369.87	149.79
370.07	124.05
370.27	145.11
370.47	152.13
370.66	362.78
370.86	454.06
371.06	507.90
371.25	517.26
371.45	559.39
371.65	475.13
371.84	463.43
372.04	421.30
372.24	458.74
372.44	454.06
372.63	496.19
372.83	440.02
373.03	484.49
373.22	519.60
373.42	543.00
373.62	524.28
373.81	582.79
374.01	610.88
374.21	582.79
374.40	629.60
374.60	566.41
374.79	517.26
374.99	566.41
375.19	587.47
375.38	578.11
375.58	601.52
375.78	592.16
375.97	594.50
376.17	683.44
376.37	638.97
376.56	690.46
376.76	592.16
376.95	550.03
377.15	571.09
377.35	702.16
377.54	622.58
377.74	657.69
377.93	744.29
378.13	681.10
378.33	739.61
378.52	730.25
378.72	720.88
378.91	660.03
379.11	669.39
379.31	653.01
379.50	610.88
379.70	699.82
379.89	720.88
380.09	641.31
380.28	713.86
380.48	716.20
380.68	723.23
380.87	702.16
381.07	788.76
381.26	662.37
381.46	723.23
381.65	706.84
381.85	681.10
382.04	763.01
382.24	692.80
382.43	730.25
382.63	704.50
382.83	772.38
383.02	788.76
383.22	793.44
383.41	734.93
383.61	755.99
383.80	777.06
384.00	772.38
384.19	791.10
384.39	760.67
384.58	718.54
384.78	837.91
384.97	887.06
385.17	699.82
385.36	826.21
385.56	823.87
385.75	840.25
385.95	847.27
386.14	821.53
386.34	826.21
386.53	835.57
386.72	837.91
386.92	870.68
387.11	889.40
387.31	882.38
387.50	915.15
387.70	821.53
387.89	884.72
388.09	983.02
388.28	905.79
388.48	842.59
388.67	945.58
388.86	990.05
389.06	863.66
389.25	964.30
389.45	929.19
389.64	931.53
389.84	992.39
390.03	1006.43
390.22	964.30
390.42	1083.67
390.61	1067.28
390.81	1069.62
391.00	1102.39
391.19	1011.11
391.39	1069.62
391.58	1041.54
391.78	1046.22
391.97	1050.90
392.16	1011.11
392.36	1057.92
392.55	1109.41
392.75	1086.01
392.94	976.00
393.13	999.41
393.33	894.08
393.52	992.39
393.71	1165.59
393.91	1055.58
394.10	1081.33
394.29	1165.59
394.49	1174.95
394.68	1252.19
394.88	1287.29
395.07	1268.57
395.26	1217.08
395.46	1217.08
395.65	1291.98
395.84	1259.21
396.04	1252.19
396.23	1102.39
396.42	1102.39
396.62	1151.54
396.81	1240.48
397.00	1317.72
397.19	1341.13
397.39	1399.64
397.58	1287.29
397.77	1493.26
397.97	1462.83
398.16	1437.09
398.35	1479.22
398.55	1554.12
398.74	1568.16
398.93	1465.18
399.12	1493.26
399.32	1549.43
399.51	1568.16
399.70	1650.08
399.90	1600.93
400.09	1682.85
400.28	1643.06
400.47	1673.48
400.67	1713.27
400.86	1743.70
401.05	1650.08
401.24	1668.80
401.44	1851.36
401.63	1661.78
401.82	1724.97
402.01	1755.40
402.21	1788.17
402.40	1717.95
402.59	1746.04
402.78	1792.85
402.97	1795.19
403.17	1797.53
403.36	1919.24
403.55	1900.52
403.74	1944.99
403.93	1914.56
404.13	1884.13
404.32	1884.13
404.51	1851.36
404.70	1825.62
404.89	1998.82
405.09	1987.11
405.28	1966.05
405.47	2026.90
405.66	2015.20
405.85	1973.07
406.05	2101.80
406.24	2040.95
406.43	2033.93
406.62	2085.42
406.81	2160.31
407.00	2099.46
407.20	2024.56
407.39	2071.37
407.58	2120.53
407.77	2221.17
407.96	2256.28
408.15	2282.02
408.34	2211.81
408.54	2380.32
408.73	2352.24
408.92	2317.13
409.11	2286.70
409.30	2263.30
409.49	2338.20
409.68	2345.22
409.87	2279.68
410.07	2424.80
410.26	2326.49
410.45	2448.20
410.64	2497.35
410.83	2576.93
411.02	2520.76
411.21	2649.49
411.40	2588.63
411.59	2684.59
411.78	2654.17
411.98	2616.72
412.17	2738.43
412.36	2705.66
412.55	2799.28
412.74	2832.05
412.93	2764.17
413.12	2726.72
413.31	2932.69
413.50	2881.20
413.69	2895.24
413.88	2909.29
414.07	2899.92
414.26	3019.29
414.45	2965.46
414.64	3019.29
414.83	3049.72
415.02	3141.00
415.22	3157.38
415.41	3220.58
415.60	3131.64
415.79	3222.92
415.98	3370.37
416.17	3410.16
416.36	3396.12
416.55	3243.98
416.74	3389.10
416.93	3265.05
417.12	3375.05
417.31	3328.24
417.50	3494.42
417.69	3517.83
417.88	3433.57
418.07	3480.38
418.26	3496.76
418.45	3461.65
418.64	3782.31
418.83	3712.09
419.02	3541.23
419.21	3669.96
419.39	3644.21
419.58	3625.49
419.77	3662.94
419.96	3641.87
420.15	3763.58
420.34	3726.13
420.53	3878.27
420.72	3932.10
420.91	3691.02
421.10	4067.85
421.29	3985.93
421.48	3941.46
421.67	3964.87
421.86	3955.51
422.05	3911.04
422.24	3845.50
422.43	3901.67
422.61	3927.42
422.80	4053.81
422.99	3997.64
423.18	3969.55
423.37	4063.17
423.56	4074.87
423.75	4053.81
423.94	3957.85
424.13	3726.13
424.32	3894.65
424.50	3936.78
424.69	4145.09
424.88	4070.19
425.07	3929.76
425.26	4011.68
425.45	4049.13
425.64	4049.13
425.83	4051.47
426.01	4035.08
426.20	4152.11
426.39	4105.30
426.58	3950.82
426.77	3969.55
426.96	4081.89
427.15	4154.45
427.33	4046.79
427.52	4058.49
427.71	4161.47
427.90	4212.96
428.09	4131.05
428.28	4131.05
428.46	4177.86
428.65	4184.88
428.84	4440.00
429.03	4280.84
429.22	4166.15
429.40	4236.37
429.59	4238.71
429.78	4051.47
429.97	4053.81
430.16	4067.85
430.34	4060.83
430.53	4294.88
430.72	4264.46
430.91	4381.48
431.10	4418.93
431.28	4582.77
431.47	4781.71
431.66	4865.97
431.85	4676.39
432.03	4552.34
432.22	4695.11
432.41	4770.01
432.60	4833.21
432.79	4880.02
432.97	4823.84
433.16	4842.57
433.35	4615.54
433.54	4760.65
433.72	4762.99
433.91	4842.57
434.10	4805.12
434.28	4816.82
434.47	4798.10
434.66	4947.89
434.85	4997.04
435.03	5022.79
435.22	5043.85
435.41	5298.97
435.59	5263.86
435.78	5174.92
435.97	5132.79
436.16	5181.95
436.34	5172.58
436.53	5249.82
436.72	5434.72
436.90	5071.94
437.09	5324.72
437.28	5057.90
437.46	5219.39
437.65	5240.46
437.84	5188.97
438.02	5198.33
438.21	5256.84
438.40	5167.90
438.58	5418.34
438.77	5671.12
438.96	5458.13
439.14	5799.85
439.33	5792.83
439.52	5668.78
439.70	5664.10
439.89	5720.27
440.08	5788.14
440.26	5701.54
440.45	5750.70
440.63	5944.96
440.82	6181.35
441.01	5968.37
441.19	6188.38
441.38	6324.13
441.57	6303.06
441.75	6303.06
441.94	6368.60
442.12	6333.49
442.31	6394.34
442.50	6604.99
442.68	6471.58
442.87	6523.07
443.05	6459.88
443.24	6513.71
443.43	6534.78
443.61	6822.66
443.80	6693.93
443.98	6494.99
444.17	6394.34
444.35	6628.40
444.54	6703.29
444.73	6841.39
444.91	6541.80
445.10	6677.55
445.28	6649.46
445.47	6492.65
445.65	6497.33
445.84	6682.23
446.02	6801.60
446.21	6679.89
446.39	6668.19
446.58	6736.06
446.77	6848.41
446.95	6656.48
447.14	6820.32
447.32	6794.58
447.51	6836.70
447.69	6825.00
447.88	6864.79
448.06	6871.81
448.25	6867.13
448.43	6925.65
448.62	6855.43
448.80	6785.21
448.99	6958.41
449.17	6899.90
449.36	6799.26
449.54	7119.91
449.73	7162.04
449.91	7094.16
450.10	7220.55
450.28	7478.01
450.46	7349.28
450.65	7480.35
450.83	7269.70
451.02	7260.34
451.20	7403.11
451.39	7353.96
451.57	7241.62
451.76	7248.64
451.94	7255.66
452.13	7368.01
452.31	7241.62
452.49	7241.62
452.68	7494.40
452.86	7176.08
453.05	7414.82
453.23	7353.96
453.42	7293.11
453.60	7389.07
453.78	7550.57
453.97	7433.54
454.15	7688.66
454.34	7382.05
454.52	7648.87
454.70	7756.54
454.89	7808.03
455.07	7861.86
455.26	7712.07
455.44	7719.09
455.62	7707.38
455.81	7648.87
455.99	7948.46
456.17	8074.85
456.36	7927.39
456.54	7889.95
456.73	8236.35
456.91	8276.13
457.09	8365.07
457.28	8554.66
457.46	8152.09
457.64	8339.33
457.83	8299.54
458.01	8093.57
458.19	8315.92
458.38	8379.12
458.56	8451.67
458.74	8573.38
458.93	8463.38
459.11	8439.97
459.29	8456.36
459.48	8339.33
459.66	8538.27
459.84	8603.81
460.03	8753.60
460.21	8538.27
460.39	8538.27
460.57	8697.43
460.76	8636.58
460.94	8987.66
461.12	8940.85
461.31	8990.00
461.49	8863.61
461.67	8674.03
461.85	9008.72
462.04	8952.55
462.22	9261.50
462.40	9001.70
462.59	9212.35
462.77	9193.62
462.95	9092.98
463.13	9013.40
463.32	9268.52
463.50	9146.81
463.68	8931.48
463.86	9090.64
464.05	9076.60
464.23	9062.55
464.41	9305.97
464.59	8889.35
464.78	9317.67
464.96	9261.50
465.14	9132.77
465.32	9373.85
465.50	9462.79
465.69	9472.15
465.87	9362.14
466.05	9483.85
466.23	9212.35
466.41	9364.48
466.60	9563.43
466.78	9547.05
466.96	9364.48
467.14	9563.43
467.32	9853.66
467.51	9657.05
467.69	9284.91
467.87	9643.01
468.05	9605.56
468.23	9451.08
468.41	9596.20
468.60	9689.82
468.78	9848.97
468.96	9771.74
469.14	9720.24
469.32	9881.74
469.50	9584.49
469.69	9823.23
469.87	9792.80
470.05	10080.69
470.23	9980.04
470.41	10111.11
470.59	10120.48
470.77	10143.88
470.95	9982.38
471.14	10455.17
471.32	10253.89
471.50	10487.94
471.68	10541.77
471.86	10527.73
472.04	10448.15
472.22	10871.79
472.40	10349.85
472.58	10434.11
472.77	10621.35
472.95	10778.17
473.13	11077.76
473.31	10883.49
473.49	10824.98
473.67	10878.81
473.85	10981.79
474.03	11063.71
474.21	11318.83
474.39	11412.45
474.57	11356.28
474.75	11431.18
474.93	11363.30
475.12	11300.11
475.30	11421.81
475.48	11370.32
475.66	11517.78
475.84	11426.50
476.02	11679.27
476.20	11489.69
476.38	11744.81
476.56	12177.81
476.74	11892.26
476.92	11957.80
477.10	12147.38
477.28	12191.85
477.46	12388.46
477.64	12416.54
477.82	12486.76
478.00	12629.53
478.18	12762.94
478.36	12821.45
478.54	12695.07
478.72	12903.37
478.90	13259.13
479.08	13348.08
479.26	13312.97
479.44	13247.43
479.62	13500.21
479.80	13741.29
479.98	13785.76
480.16	14279.61
480.34	13607.87
480.52	13965.98
480.70	14094.71
480.88	13809.16
481.06	13879.38
481.24	14148.54
481.41	14534.73
481.59	14654.09
481.77	14427.06
481.95	14483.24
482.13	15152.63
482.31	14569.83
482.49	14906.87
482.67	15152.63
482.85	15173.69
483.03	15421.79
483.21	15625.42
483.39	15349.23
483.57	15398.38
483.74	15997.56
483.92	16053.73
484.10	15992.88
484.28	16006.92
484.46	16400.13
484.64	16521.84
484.82	16262.04
485.00	16460.99
485.18	16739.51
485.35	16559.29
485.53	16673.98
485.71	16449.28
485.89	16697.38
486.07	16776.96
486.25	17032.08
486.43	17013.35
486.61	17434.65
486.78	17525.93
486.96	17563.38
487.14	17624.23
487.32	18120.43
487.50	18188.30
487.68	18567.47
487.85	19016.85
488.03	18860.04
488.21	19047.28
488.39	18789.82
488.57	18888.12
488.75	19150.26
488.92	19435.81
489.10	19592.62
489.28	19700.29
489.46	20166.06
489.64	20091.16
489.81	20255.00
489.99	20809.70
490.17	20594.37
490.35	20704.38
490.53	20854.17
490.70	20917.37
490.88	20805.02
491.06	21441.65
491.24	20994.61
491.41	21048.44
491.59	21158.44
491.77	21238.02
491.95	21511.86
492.13	21366.75
492.30	21942.52
492.48	22085.30
492.66	22106.36
492.84	22040.82
493.01	22574.47
493.19	22183.60
493.37	22354.46
493.54	22764.05
493.72	22862.35
493.90	22970.02
494.08	23391.31
494.25	23709.63
494.43	23613.66
494.61	23686.22
494.79	24018.58
494.96	23779.84
495.14	23836.02
495.32	24142.63
495.49	24105.18
495.67	24175.39
495.85	24383.70
496.02	24706.70
496.20	24678.61
496.38	24709.04
496.55	25008.62
496.73	25303.53
496.91	25076.50
497.09	25338.64
497.26	25450.99
497.44	25788.02
497.62	25261.40
497.79	25893.35
497.97	25605.46
498.14	25830.15
498.32	25818.45
498.50	26197.62
498.67	26689.13
498.85	26518.27
499.03	26749.98
499.20	26574.44
499.38	26862.33
499.56	26703.17
499.73	26647.00
499.91	26855.31
500.08	27204.05
500.26	26892.76
500.44	27173.62
500.61	26827.22
500.79	27199.37
500.97	27571.51
501.14	27676.83
501.32	27571.51
501.49	27381.93
501.67	27707.26
501.84	27665.13
502.02	27758.75
502.20	28236.22
502.37	28418.78
502.55	28142.60
502.72	28229.20
502.90	28741.78
503.07	28519.43
503.25	28620.07
503.43	28472.62
503.60	28458.57
503.78	28552.20
503.95	28783.91
504.13	28587.30
504.30	29336.27
504.48	28978.17
504.65	29315.21
504.83	29481.39
505.01	29582.03
505.18	29862.90
505.36	30103.97
505.53	30068.86
505.71	30302.92
505.88	30155.46
506.06	30094.61
506.23	30281.85
506.41	30050.14
506.58	30129.72
506.76	30661.02
506.93	30974.65
507.11	30679.74
507.28	30780.39
507.46	29979.92
507.63	30595.48
507.81	30595.48
507.98	30443.35
508.16	30885.71
508.33	30672.72
508.50	31044.87
508.68	31276.58
508.85	31700.22
509.03	31704.90
509.20	31653.40
509.38	31707.24
509.55	31613.62
509.73	31999.80
509.90	31648.72
510.08	31723.62
510.25	31887.46
510.42	32044.27
510.60	31964.70
510.77	32301.73
510.95	32329.82
511.12	32465.57
511.30	32802.61
511.47	32926.66
511.64	33015.60
511.82	32835.38
511.99	32781.54
512.17	33226.24
512.34	33006.23
512.51	33226.24
512.69	33362.00
512.86	33022.62
513.04	33647.54
513.21	33050.70
513.38	33055.39
513.56	33364.34
513.73	33251.99
513.90	33439.23
514.08	33624.14
514.25	33975.22
514.43	33790.31
514.60	33830.10
514.77	33757.55
514.95	34188.21
515.12	33673.29
515.29	34202.25
515.47	34398.85
515.64	34504.18
515.81	34525.24
515.99	34314.59
516.16	33963.51
516.33	33736.48
516.51	34218.63
516.68	33776.27
516.85	33628.82
517.03	34148.42
517.20	33867.55
517.37	34873.98
517.54	35012.07
517.72	34733.55
517.89	34478.43
518.06	34431.62
518.24	34841.21
518.41	34785.04
518.58	34885.68
518.75	35042.50
518.93	35667.42
519.10	35246.13
519.27	35761.05
519.45	35772.75
519.62	35878.07
519.79	35569.12
519.96	35814.88
520.14	35721.26
520.31	35737.64
520.48	36306.39
520.65	35903.82
520.83	36577.89
521.00	35988.08
521.17	36282.98
521.34	36503.00
521.52	36732.37
521.69	36613.00
521.86	36835.35
522.03	36865.78
522.20	36823.65
522.38	36968.76
522.55	37120.90
522.72	36903.23
522.89	36650.45
523.07	37373.67
523.24	37404.10
523.41	37715.39
523.58	37453.25
523.75	38096.90
523.92	38029.02
524.10	37521.13
524.27	37930.72
524.44	38162.43
524.61	37930.72
524.78	38066.47
524.96	37991.58
525.13	37954.13
525.30	38403.51
525.47	38192.86
525.64	37865.19
525.81	38029.02
525.98	37813.70
526.16	38108.60
526.33	37972.85
526.50	37900.29
526.67	37703.69
526.84	37961.15
527.01	38359.04
527.18	38190.52
527.36	38799.06
527.53	39182.91
527.70	38880.98
527.87	38859.91
528.04	38717.14
528.21	38857.57
528.38	39267.17
528.55	39367.81
528.72	39564.42
528.89	39363.13
529.07	39257.81
529.24	39140.78
529.41	39606.55
529.58	38993.32
529.75	38974.60
529.92	39461.43
530.09	39445.05
530.26	39880.39
530.43	39943.58
530.60	39491.86
530.77	39889.75
530.94	40046.57
531.11	39910.82
531.28	40119.12
531.46	40032.52
531.63	40161.25
531.80	39927.20
531.97	39735.27
532.14	39995.07
532.31	39763.36
532.48	40072.31
532.65	40184.66
532.82	39976.35
532.99	40268.92
533.16	40360.20
533.33	40718.30
533.50	40765.11
533.67	40514.67
533.84	40435.10
534.01	40463.18
534.18	40732.34
534.35	40774.47
534.52	40746.39
534.69	40559.14
534.86	41221.52
535.03	40924.27
535.20	41581.96
535.37	41715.37
535.54	41596.00
535.71	40914.90
535.88	41326.84
536.05	41247.26
536.22	41113.85
536.38	41490.68
536.55	41617.07
536.72	41106.83
536.89	41471.95
537.06	40840.01
537.23	41509.40
537.40	41645.15
537.57	41586.64
537.74	41682.60
537.91	42146.03
538.08	41771.54
538.25	41701.32
538.42	42106.24
538.59	41923.68
538.75	41799.63
538.92	42014.96
539.09	42036.02
539.26	42302.84
539.43	42136.66
539.60	42192.84
539.77	41907.29
539.94	41926.02
540.11	41982.19
540.28	42251.35
540.44	41762.18
540.61	42059.43
540.78	41474.29
540.95	42014.96
541.12	42422.21
541.29	41956.44
541.46	42464.34
541.62	42314.55
541.79	42389.44
541.96	41883.89
542.13	42223.26
542.30	42714.78
542.47	42646.90
542.63	42483.06
542.80	42738.18
542.97	43072.88
543.14	43147.78
543.31	43019.05
543.48	43342.04
543.64	43786.74
543.81	43517.58
543.98	43634.61
544.15	43358.42
544.32	43234.38
544.48	43555.03
544.65	43522.26
544.82	43463.75
544.99	43026.07
545.16	43510.56
545.32	42686.69
545.49	43856.96
545.66	43636.95
545.83	43744.61
546.00	43805.47
546.16	43690.78
546.33	43697.80
546.50	43573.75
546.67	43826.53
546.83	43241.40
547.00	43718.87
547.17	43686.10
547.34	43737.59
547.50	44329.75
547.67	43880.36
547.84	44037.18
548.00	44421.03
548.17	44388.26
548.34	44486.56
548.51	44388.26
548.67	44308.68
548.84	44381.24
549.01	43959.94
549.18	44105.06
549.34	44219.74
549.51	44350.81
549.68	44161.23
549.84	44760.40
550.01	44704.23
550.18	44357.83
550.34	44430.39
550.51	44421.03
550.68	44458.48
550.84	44076.97
551.01	44559.12
551.18	44577.84
551.34	45024.89
551.51	45064.67
551.68	44989.78
551.84	44861.05
552.01	44371.88
552.18	44460.82
552.34	44390.60
552.51	44889.13
552.68	44744.02
552.84	44999.14
553.01	45036.59
553.18	44767.43
553.34	45425.12
553.51	44999.14
553.67	45052.97
553.84	45151.27
554.01	45333.84
554.17	45249.58
554.34	45165.32
554.51	45497.67
554.67	45235.53
554.84	45230.85
555.00	44811.90
555.17	44811.90
555.33	45535.12
555.50	45067.02
555.67	45052.97
555.83	45535.12
556.00	45591.30
556.16	45715.34
556.33	45331.50
556.50	44608.27
556.66	45460.23
556.83	45221.49
556.99	45450.86
557.16	45921.31
557.32	45893.22
557.49	45577.25
557.65	45530.44
557.82	45708.32
557.98	45649.81
558.15	45586.61
558.32	45743.43
558.48	45308.09
558.65	45226.17
558.81	45614.70
558.98	45357.24
559.14	45151.27
559.31	45743.43
559.47	45776.20
559.64	45525.76
559.80	45652.15
559.97	45940.04
560.13	45799.60
560.30	45502.35
560.46	45998.55
560.63	45806.62
560.79	46312.18
560.96	46141.32
561.12	46328.56
561.29	45778.54
561.45	45586.61
561.61	46047.70
561.78	45677.90
561.94	45750.45
562.11	45790.24
562.27	45897.91
562.44	45696.62
562.60	45961.10
562.77	46452.61
562.93	45710.66
563.10	45937.69
563.26	45865.14
563.42	46094.51
563.59	45879.18
563.75	46373.03
563.92	46363.67
564.08	46230.26
564.24	46241.96
564.41	46340.27
564.57	45790.24
564.74	46103.87
564.90	46138.98
565.07	46382.40
565.23	46415.16
565.39	45972.80
565.56	46316.86
565.72	46160.05
565.88	46246.65
566.05	46050.04
566.21	45757.47
566.38	46190.47
566.54	46227.92
566.70	46595.38
566.87	46466.66
567.03	46263.03
567.19	46305.16
567.36	45993.87
567.52	46553.26
567.68	46593.04
567.85	46356.65
568.01	46581.34
568.17	46153.02
568.34	46342.61
568.50	46618.79
568.66	45986.85
568.83	46305.16
568.99	45954.08
569.15	46188.13
569.32	45996.21
569.48	46136.64
569.64	46291.12
569.81	46431.55
569.97	46124.94
570.13	46129.62
570.30	45647.47
570.46	45727.05
570.62	46019.61
570.78	46136.64
570.95	45970.46
571.11	46684.33
571.27	46071.10
571.43	46337.93
571.60	46625.81
571.76	46096.85
571.92	46155.36
572.09	46679.64
572.25	46501.76
572.41	46522.83
572.57	46806.03
572.74	46789.65
572.90	46440.91
573.06	46653.90
573.22	46728.80
573.38	46490.06
573.55	46085.15
573.71	46719.43
573.87	46564.96
574.03	46733.48
574.20	46707.73
574.36	46347.29
574.52	46775.61
574.68	46777.95
574.84	46459.63
575.01	46478.36
575.17	46354.31
575.33	46019.61
575.49	46227.92
575.65	46780.29
575.82	46377.72
575.98	46810.71
576.14	46422.19
576.30	46597.73
576.46	46066.42
576.62	46560.28
576.79	46983.91
576.95	46532.19
577.11	46541.55
577.27	46696.03
577.43	46340.27
577.59	46227.92
577.75	46335.59
577.92	45984.51
578.08	45827.69
578.24	45914.29
578.40	46333.24
578.56	46171.75
578.72	46553.26
578.88	47016.68
579.04	46681.98
579.21	46614.11
579.37	46635.17
579.53	46239.62
579.69	46597.73
579.85	46745.18
580.01	46546.23
580.17	46579.00
580.33	46562.62
580.49	46902.00
580.65	46691.35
580.82	46859.87
580.98	46665.60
581.14	46588.36
581.30	47058.81
581.46	46789.65
581.62	46581.34
581.78	46321.54
581.94	47508.19
582.10	46583.68
582.26	46733.48
582.42	46515.81
582.58	47044.77
582.74	46302.82
582.90	46789.65
583.06	46754.54
583.22	46637.51
583.38	46967.53
583.54	46724.11
583.70	46983.91
583.86	46756.88
584.02	46569.64
584.18	46738.16
584.34	46480.70
584.50	46663.26
584.66	46508.79
584.82	46370.69
584.98	46651.56
585.14	46609.43
585.30	46396.44
585.46	46417.50
585.62	46174.09
585.78	46927.74
585.94	46120.26
586.10	46433.89
586.26	46192.81
586.42	46969.87
586.58	47044.77
586.74	46211.54
586.90	46801.35
587.06	46841.14
587.22	46728.80
587.38	46642.20
587.54	46298.14
587.70	46726.46
587.86	46808.37
588.02	46288.77
588.18	46848.16
588.34	46476.02
588.49	46199.83
588.65	45881.52
588.81	46536.87
588.97	46553.26
589.13	46546.23
589.29	46611.77
589.45	46960.51
589.61	46763.90
589.77	46834.12
589.93	46625.81
