SpectraSuite Data File
++++++++++++++++++++++++++++++++++++
Date: Fri Oct 25 11:23:59 EDT 2013
User: price-jones
Dark Spectrum Present: No
Reference Spectrum Present: No
Number of Sampled Component Spectra: 1
Spectrometers: USB2+H05261
Integration Time (usec): 100000 (USB2+H05261)
Spectra Averaged: 1 (USB2+H05261)
Boxcar Smoothing: 0 (USB2+H05261)
Correct for Electrical Dark: No (USB2+H05261)
Strobe/Lamp Enabled: No (USB2+H05261)
Correct for Detector Non-linearity: No (USB2+H05261)
Correct for Stray Light: No (USB2+H05261)
Number of Pixels in Processed Spectrum: 2048
>>>>>Begin Processed Spectral Data<<<<<
365.73	170.86
365.92	170.86
366.12	170.86
366.32	133.41
366.52	189.58
366.72	173.20
366.91	121.71
367.11	117.03
367.31	93.62
367.51	175.54
367.70	74.90
367.90	175.54
368.10	91.28
368.30	91.28
368.49	93.62
368.69	100.64
368.89	88.94
369.09	168.52
369.28	142.77
369.48	117.03
369.68	168.52
369.87	184.90
370.07	152.13
370.27	252.78
370.47	332.36
370.66	547.69
370.86	554.71
371.06	716.20
371.25	681.10
371.45	629.60
371.65	739.61
371.84	631.94
372.04	648.33
372.24	629.60
372.44	631.94
372.63	727.91
372.83	734.93
373.03	751.31
373.22	704.50
373.42	753.65
373.62	781.74
373.81	814.51
374.01	866.00
374.21	812.17
374.40	809.83
374.60	866.00
374.79	840.25
374.99	882.38
375.19	826.21
375.38	833.23
375.58	692.80
375.78	931.53
375.97	802.80
376.17	870.68
376.37	849.61
376.56	908.13
376.76	903.45
376.95	856.64
377.15	823.87
377.35	919.83
377.54	945.58
377.74	877.70
377.93	926.85
378.13	877.70
378.33	947.92
378.52	851.96
378.72	854.30
378.91	936.21
379.11	917.49
379.31	894.08
379.50	931.53
379.70	952.60
379.89	1001.75
380.09	983.02
380.28	968.98
380.48	973.66
380.68	1011.11
380.87	1043.88
381.07	947.92
381.26	1029.84
381.46	999.41
381.65	1090.69
381.85	1107.07
382.04	1001.75
382.24	1076.65
382.43	1064.94
382.63	983.02
382.83	1071.97
383.02	1090.69
383.22	1088.35
383.41	1027.50
383.61	1006.43
383.80	1151.54
384.00	1226.44
384.19	1041.54
384.39	1097.71
384.58	1062.60
384.78	1207.72
384.97	1167.93
385.17	1165.59
385.36	1170.27
385.56	1151.54
385.75	1139.84
385.95	1156.22
386.14	1170.27
386.34	1242.82
386.53	1118.78
386.72	1102.39
386.92	1275.59
387.11	1158.57
387.31	1275.59
387.50	1170.27
387.70	1343.47
387.89	1329.42
388.09	1324.74
388.28	1294.32
388.48	1233.46
388.67	1247.51
388.86	1371.55
389.06	1291.98
389.25	1249.85
389.45	1266.23
389.64	1345.81
389.84	1425.39
390.03	1352.83
390.22	1366.87
390.42	1364.53
390.61	1406.66
390.81	1357.51
391.00	1280.27
391.19	1366.87
391.39	1427.73
391.58	1540.07
391.78	1462.83
391.97	1486.24
392.16	1444.11
392.36	1549.43
392.55	1535.39
392.75	1511.99
392.94	1495.60
393.13	1486.24
393.33	1528.37
393.52	1549.43
393.71	1689.87
393.91	1678.16
394.10	1598.59
394.29	1664.12
394.49	1591.56
394.68	1603.27
394.88	1645.40
395.07	1699.23
395.26	1682.85
395.46	1743.70
395.65	1743.70
395.84	1703.91
396.04	1668.80
396.23	1664.12
396.42	1750.72
396.62	1743.70
396.81	1792.85
397.00	1825.62
397.19	1631.35
397.39	1769.44
397.58	1753.06
397.77	1778.81
397.97	1874.77
398.16	1844.34
398.35	1802.21
398.55	1912.22
398.74	2008.18
398.93	1952.01
399.12	1888.81
399.32	1905.20
399.51	1935.62
399.70	2083.08
399.90	2040.95
400.09	2015.20
400.28	2113.50
400.47	2026.90
400.67	2113.50
400.86	2143.93
401.05	2001.16
401.24	2085.42
401.44	2146.27
401.63	2092.44
401.82	2101.80
402.01	2204.78
402.21	2071.37
402.40	2249.25
402.59	2232.87
402.78	2225.85
402.97	2267.98
403.17	2209.47
403.36	2256.28
403.55	2289.04
403.74	2382.67
403.93	2335.85
404.13	2335.85
404.32	2345.22
404.51	2335.85
404.70	2471.61
404.89	2459.90
405.09	2513.74
405.28	2562.89
405.47	2544.16
405.66	2532.46
405.85	2518.42
406.05	2623.74
406.24	2614.38
406.43	2551.18
406.62	2654.17
406.81	2672.89
407.00	2672.89
407.20	2619.06
407.39	2642.46
407.58	2829.71
407.77	2607.36
407.96	2654.17
408.15	2801.62
408.34	2656.51
408.54	2883.54
408.73	2686.94
408.92	2820.35
409.11	2864.82
409.30	2841.41
409.49	2930.35
409.68	2869.50
409.87	2867.16
410.07	3007.59
410.26	3070.78
410.45	3082.49
410.64	3068.44
410.83	3119.93
411.02	3124.62
411.21	3155.04
411.40	3159.72
411.59	3356.33
411.78	3272.07
411.98	3262.71
412.17	3234.62
412.36	3321.22
412.55	3433.57
412.74	3468.67
412.93	3447.61
413.12	3421.86
413.31	3548.25
413.50	3613.79
413.69	3480.38
413.88	3478.04
414.07	3613.79
414.26	3742.52
414.45	3723.79
414.64	3684.00
414.83	3763.58
415.02	3918.06
415.22	3747.20
415.41	3815.07
415.60	3866.56
415.79	3955.51
415.98	3939.12
416.17	4004.66
416.36	3981.25
416.55	3936.78
416.74	4056.15
416.93	4131.05
417.12	4074.87
417.31	4189.56
417.50	4301.90
417.69	4337.01
417.88	4215.30
418.07	4271.48
418.26	4266.80
418.45	4339.35
418.64	4489.15
418.83	4379.14
419.02	4292.54
419.21	4421.27
419.39	4454.04
419.58	4425.95
419.77	4510.21
419.96	4493.83
420.15	4540.64
420.34	4706.82
420.53	4627.24
420.72	4657.67
420.91	4615.54
421.10	4711.50
421.29	4720.86
421.48	4631.92
421.67	4901.08
421.86	4837.89
422.05	4753.63
422.24	4816.82
422.43	5121.09
422.61	4992.36
422.80	5109.39
422.99	4863.63
423.18	4905.76
423.37	5085.98
423.56	4856.61
423.75	4971.30
423.94	4858.95
424.13	4608.51
424.32	4816.82
424.50	4975.98
424.69	5142.16
424.88	5029.81
425.07	4985.34
425.26	4940.87
425.45	5067.26
425.64	5050.88
425.83	4929.17
426.01	5041.51
426.20	5259.18
426.39	5093.01
426.58	5071.94
426.77	5060.24
426.96	5156.20
427.15	5296.63
427.33	5287.27
427.52	5102.37
427.71	5142.16
427.90	5275.57
428.09	5406.64
428.28	5359.83
428.46	5490.90
428.65	5434.72
428.84	5378.55
429.03	5451.11
429.22	5406.64
429.40	5481.53
429.59	5591.54
429.78	5273.23
429.97	5252.16
430.16	5467.49
430.34	5633.67
430.53	5589.20
430.72	5743.67
430.91	5703.89
431.10	5481.53
431.28	5753.04
431.47	5652.39
431.66	5860.70
431.85	5860.70
432.03	6129.86
432.22	6040.92
432.41	5856.02
432.60	5804.53
432.79	6092.41
432.97	5926.24
433.16	5919.21
433.35	6008.16
433.54	6099.44
433.72	6129.86
433.91	6209.44
434.10	6171.99
434.28	6094.76
434.47	6106.46
434.66	6183.70
434.85	6291.36
435.03	6218.80
435.22	6293.70
435.41	6509.03
435.59	6392.00
435.78	6314.77
435.97	6389.66
436.16	6523.07
436.34	6448.18
436.53	6621.38
436.72	6621.38
436.90	6628.40
437.09	6654.14
437.28	6637.76
437.46	6642.44
437.65	6553.50
437.84	6822.66
438.02	6733.72
438.21	6822.66
438.40	6649.46
438.58	6981.82
438.77	7012.24
438.96	6927.99
439.14	7089.48
439.33	7171.40
439.52	7145.66
439.70	7218.21
439.89	7297.79
440.08	7403.11
440.26	7424.18
440.45	7215.87
440.63	7583.34
440.82	7651.21
441.01	7506.10
441.19	7625.47
441.38	7885.26
441.57	7779.94
441.75	7878.24
441.94	7971.86
442.12	8006.97
442.31	8175.49
442.50	8262.09
442.68	8145.06
442.87	8023.36
443.05	8189.53
443.24	8079.53
443.43	8112.30
443.61	8248.05
443.80	8339.33
443.98	8273.79
444.17	7892.29
444.35	8081.87
444.54	8336.99
444.73	8353.37
444.91	8283.16
445.10	8262.09
445.28	8554.66
445.47	8231.66
445.65	8493.80
445.84	8465.72
446.02	8535.93
446.21	8432.95
446.39	8477.42
446.58	8624.87
446.77	8564.02
446.95	8168.47
447.14	8414.23
447.32	8699.77
447.51	8489.12
447.69	8472.74
447.88	8547.64
448.06	8629.56
448.25	8512.53
448.43	8671.68
448.62	8580.40
448.80	8617.85
448.99	8688.07
449.17	8777.01
449.36	8709.13
449.54	8908.08
449.73	8966.59
449.91	8961.91
450.10	8978.30
450.28	9242.78
450.46	8964.25
450.65	9088.30
450.83	8994.68
451.02	9174.90
451.20	9261.50
451.39	9212.35
451.57	9064.89
451.76	9034.47
451.94	9130.43
452.13	9352.78
452.31	9364.48
452.49	9366.82
452.68	9413.63
452.86	9448.74
453.05	9575.13
453.23	9378.53
453.42	9511.94
453.60	9277.88
453.78	9481.51
453.97	9481.51
454.15	9619.60
454.34	9472.15
454.52	9919.19
454.70	9600.88
454.89	9535.34
455.07	9809.19
455.26	9879.40
455.44	10099.41
455.62	9937.91
455.81	9900.47
455.99	9867.70
456.17	9916.85
456.36	10296.02
456.54	10251.55
456.73	10354.53
456.91	10637.73
457.09	10714.97
457.28	10413.04
457.46	10354.53
457.64	10476.24
457.83	10326.44
458.01	10305.38
458.19	10796.89
458.38	10532.41
458.56	10848.38
458.74	10654.12
458.93	10717.31
459.11	10808.59
459.29	10827.32
459.48	10855.40
459.66	10668.16
459.84	10937.32
460.03	11026.26
460.21	11059.03
460.39	11101.16
460.57	10984.13
460.76	11279.04
460.94	11059.03
461.12	11129.25
461.31	11290.74
461.49	11293.08
461.67	11094.14
461.85	11452.24
462.04	11449.90
462.22	11480.33
462.40	11681.61
462.59	11424.15
462.77	11690.98
462.95	11803.32
463.13	11630.12
463.32	11702.68
463.50	11714.38
463.68	12056.10
463.86	11995.25
464.05	11470.97
464.23	11852.47
464.41	11871.20
464.59	11627.78
464.78	12201.21
464.96	11934.39
465.14	12058.44
465.32	11918.01
465.50	12215.26
465.69	12184.83
465.87	12308.88
466.05	12175.47
466.23	12388.46
466.41	12175.47
466.60	12521.87
466.78	12182.49
466.96	12554.63
467.14	11983.54
467.32	12556.97
467.51	12788.69
467.69	12126.32
467.87	12535.91
468.05	12657.62
468.23	12648.26
468.41	12411.86
468.60	12601.44
468.78	12903.37
468.96	12582.72
469.14	12912.74
469.32	12901.03
469.50	12643.57
469.69	13219.35
469.87	13202.96
470.05	13081.25
470.23	13191.26
470.41	13373.82
470.59	13289.56
470.77	13319.99
470.95	13380.84
471.14	13654.69
471.32	13467.44
471.50	13736.60
471.68	13563.40
471.86	13804.48
472.04	13703.84
472.22	14071.30
472.40	13884.06
472.58	13823.20
472.77	14136.84
472.95	14134.50
473.13	14656.43
473.31	14052.58
473.49	14202.37
473.67	14054.92
473.85	14141.52
474.03	14829.63
474.21	14775.80
474.39	14630.69
474.57	14541.75
474.75	14771.12
474.93	15302.42
475.12	15026.24
475.30	15307.10
475.48	14960.70
475.66	15044.96
475.84	15124.54
476.02	15716.70
476.20	15367.96
476.38	15754.15
476.56	16325.24
476.74	15936.71
476.92	15910.96
477.10	15908.62
477.28	16079.48
477.46	16259.70
477.64	16552.27
477.82	16615.46
478.00	17043.78
478.18	16872.92
478.36	16805.05
478.54	17109.32
478.72	17165.49
478.90	17605.51
479.08	17532.95
479.26	17675.73
479.44	17853.61
479.62	17947.23
479.80	18228.09
479.98	18359.16
480.16	18593.22
480.34	18565.13
480.52	18565.13
480.70	18801.52
480.88	18352.14
481.06	18960.68
481.24	18909.19
481.41	18977.06
481.59	19302.40
481.77	19484.96
481.95	19601.99
482.13	19583.26
482.31	19866.47
482.49	20400.11
482.67	20322.87
482.85	20379.04
483.03	20622.46
483.21	20912.69
483.39	21036.74
483.57	20849.49
483.74	21404.20
483.92	21558.67
484.10	21415.90
484.28	21593.78
484.46	22092.32
484.64	22204.66
484.82	21909.75
485.00	22628.30
485.18	22740.64
485.35	23150.24
485.53	23129.17
485.71	23232.16
485.89	23688.56
486.07	23597.28
486.25	23274.29
486.43	23716.65
486.61	23840.70
486.78	24041.98
486.96	24547.54
487.14	24114.54
487.32	24865.85
487.50	24870.53
487.68	24812.02
487.85	25139.69
488.03	25373.75
488.21	25818.45
488.39	25886.32
488.57	26134.42
488.75	26373.16
488.92	26471.46
489.10	27105.74
489.28	26939.57
489.46	27505.98
489.64	26848.29
489.81	27438.10
489.99	27819.61
490.17	28044.30
490.35	28486.66
490.53	28456.23
490.70	28957.11
490.88	28360.27
491.06	29343.30
491.24	29022.64
491.41	29144.35
491.59	29638.20
491.77	29436.92
491.95	29415.85
492.13	30239.72
492.30	30216.32
492.48	30419.94
492.66	30518.25
492.84	30487.82
493.01	31101.04
493.19	30827.20
493.37	30981.67
493.54	31367.86
493.72	31604.25
493.90	31402.97
494.08	31807.88
494.25	32065.34
494.43	32182.37
494.61	32577.92
494.79	32383.65
494.96	32947.72
495.14	32608.34
495.32	33043.68
495.49	33039.00
495.67	33427.53
495.85	33661.58
496.02	33947.13
496.20	34239.70
496.38	34171.82
496.55	34319.28
496.73	35112.72
496.91	34637.59
497.09	34590.78
497.26	35068.25
497.44	35122.08
497.62	35243.79
497.79	35704.87
497.97	35363.15
498.14	36002.12
498.32	36191.70
498.50	36194.04
498.67	36849.39
498.85	36823.65
499.03	36886.84
499.20	36706.62
499.38	37010.89
499.56	37151.32
499.73	37123.24
499.91	37574.96
500.08	38000.94
500.26	37766.88
500.44	37865.19
500.61	37790.29
500.79	37764.54
500.97	38447.98
501.14	38686.71
501.32	39140.78
501.49	38742.89
501.67	39218.02
501.84	38878.64
502.02	39292.91
502.20	39405.26
502.37	39356.11
502.55	39283.55
502.72	39758.68
502.90	39985.71
503.07	39463.77
503.25	39831.24
503.43	39906.13
503.60	40002.10
503.78	40458.50
503.95	40451.48
504.13	40435.10
504.30	40650.42
504.48	40727.66
504.65	40945.33
504.83	40980.44
505.01	41581.96
505.18	41289.39
505.36	41364.29
505.53	41486.00
505.71	41921.34
505.88	41923.68
506.06	41588.98
506.23	42019.64
506.41	42305.18
506.58	42029.00
506.76	42143.69
506.93	43100.97
507.11	42279.44
507.28	42745.20
507.46	42794.36
507.63	42866.91
507.81	43208.63
507.98	42806.06
508.16	43206.29
508.33	43412.26
508.50	43655.67
508.68	43981.01
508.85	44474.86
509.03	43798.44
509.20	44304.00
509.38	44666.78
509.55	44458.48
509.73	44680.83
509.90	44898.50
510.08	44978.07
510.25	44678.49
510.42	44701.89
510.60	44945.31
510.77	45446.18
510.95	45626.40
511.12	45226.17
511.30	45212.13
511.47	45577.25
511.64	45701.30
511.82	46117.92
511.99	45743.43
512.17	45914.29
512.34	46120.26
512.51	45944.72
512.69	46459.63
512.86	46768.58
513.04	46813.05
513.21	46752.20
513.38	46740.50
513.56	47393.51
513.73	46934.76
513.90	47213.29
514.08	47131.37
514.25	47613.52
514.43	47494.15
514.60	47536.28
514.77	47433.30
514.95	47999.71
515.12	47840.55
515.29	47791.40
515.47	48378.87
515.64	48505.26
515.81	48163.54
515.99	48203.33
516.16	48477.18
516.33	48622.29
516.51	48825.92
516.68	49003.80
516.85	48861.02
517.03	48978.05
517.20	48889.11
517.37	49104.44
517.54	49031.88
517.72	48877.41
517.89	49078.69
518.06	49418.07
518.24	49230.83
518.41	49712.98
518.58	49691.91
518.75	49326.79
518.93	49830.01
519.10	49499.99
519.27	49682.55
519.45	49822.98
519.62	50302.79
519.79	50183.43
519.96	50431.52
520.14	50265.34
520.31	50361.31
520.48	50667.92
520.65	50600.04
520.83	50522.80
521.00	50962.82
521.17	50754.52
521.34	51103.26
521.52	50911.33
521.69	51250.71
521.86	51068.15
522.03	51065.81
522.20	51550.30
522.38	51679.03
522.55	51246.03
522.72	51477.74
522.89	51606.47
523.07	51718.82
523.24	51636.90
523.41	51819.46
523.58	51327.95
523.75	51774.99
523.92	51737.54
524.10	52296.93
524.27	52229.05
524.44	52097.98
524.61	52294.59
524.78	52376.51
524.96	52236.08
525.13	52488.85
525.30	52594.18
525.47	52526.30
525.64	52666.73
525.81	52774.40
525.98	53181.65
526.16	52779.08
526.33	52863.34
526.50	53226.12
526.67	52875.04
526.84	53116.12
527.01	52774.40
527.18	53141.86
527.36	53118.46
527.53	53031.86
527.70	53436.77
527.87	53378.26
528.04	53619.33
528.21	53492.94
528.38	53609.97
528.55	53759.76
528.72	53514.01
528.89	53642.74
529.07	53670.82
529.24	53420.39
529.41	53855.73
529.58	53947.01
529.75	53546.78
529.92	53961.05
530.09	54064.03
530.26	54040.63
530.43	54138.93
530.60	54096.80
530.77	53991.48
530.94	54363.62
531.11	54405.75
531.28	54035.95
531.46	54401.07
531.63	54497.03
531.80	54398.73
531.97	54459.58
532.14	54625.76
532.31	54445.54
532.48	54354.26
532.65	54773.22
532.82	54611.72
532.99	54693.64
533.16	54719.38
533.33	54939.39
533.50	55091.53
533.67	54721.72
533.84	54597.68
534.01	54981.52
534.18	55091.53
534.35	55561.98
534.52	55409.84
534.69	55512.83
534.86	55543.25
535.03	55114.94
535.20	55262.39
535.37	55299.84
535.54	55613.47
535.71	55313.88
535.88	55318.56
536.05	55473.04
536.22	55716.45
536.38	55908.38
536.55	55608.79
536.72	55693.05
536.89	55760.92
537.06	55814.76
537.23	56046.47
537.40	55606.45
537.57	55983.27
537.74	55987.95
537.91	56048.81
538.08	55950.51
538.25	55774.97
538.42	56079.24
538.59	56184.56
538.75	56058.17
538.92	56058.17
539.09	56200.94
539.26	56322.65
539.43	55992.64
539.60	56322.65
539.77	56341.38
539.94	56753.31
540.11	56479.47
540.28	56481.81
540.44	56425.64
540.61	56708.84
540.78	56287.54
540.95	56591.81
541.12	56367.12
541.29	56610.54
541.46	56666.71
541.62	56757.99
541.79	57038.86
541.96	56779.06
542.13	56673.73
542.30	57130.14
542.47	56978.00
542.63	57027.15
542.80	57008.43
542.97	57237.80
543.14	57165.24
543.31	57389.94
543.48	57361.85
543.64	57474.20
543.81	57724.63
543.98	57326.74
544.15	57345.47
544.32	57584.20
544.48	57769.10
544.65	57586.54
544.82	57619.31
544.99	57492.92
545.16	57673.14
545.32	57340.78
545.49	57930.60
545.66	57956.35
545.83	57813.57
546.00	57710.59
546.16	57750.38
546.33	57677.82
546.50	57490.58
546.67	57996.13
546.83	57612.29
547.00	57710.59
547.17	57963.37
547.34	57977.41
547.50	58005.50
547.67	58005.50
547.84	58103.80
548.00	58321.47
548.17	58174.02
548.34	58239.55
548.51	58499.35
548.67	58459.56
548.84	58314.45
549.01	58134.23
549.18	58344.87
549.34	58244.23
549.51	58394.03
549.68	58365.94
549.84	58482.97
550.01	58604.67
550.18	58199.76
550.34	58541.48
550.51	58543.82
550.68	58642.12
550.84	58344.87
551.01	58855.11
551.18	58590.63
551.34	58688.93
551.51	58489.99
551.68	58618.72
551.84	58752.13
552.01	58480.63
552.18	58925.33
552.34	58857.45
552.51	58939.37
552.68	58688.93
552.84	58726.38
553.01	59032.99
553.18	58951.07
553.34	58979.16
553.51	58798.94
553.67	59065.76
553.84	58820.00
554.01	59084.48
554.17	59194.49
554.34	58927.67
554.51	58993.20
554.67	59058.74
554.84	59407.48
555.00	59018.95
555.17	59114.91
555.33	59178.10
555.50	59002.56
555.67	59014.27
555.83	59166.40
556.00	59255.34
556.16	59674.30
556.33	59344.28
556.50	59320.88
556.66	59543.23
556.83	59386.41
556.99	59503.44
557.16	59627.49
557.32	59646.21
557.49	59817.07
557.65	59299.81
557.82	59440.24
557.98	59372.37
558.15	59395.77
558.32	59737.49
558.48	59334.92
558.65	59442.59
558.81	59627.49
558.98	59793.67
559.14	59887.29
559.31	59702.38
559.47	59730.47
559.64	59870.90
559.80	59964.52
559.97	59749.20
560.13	59807.71
560.30	59629.83
560.46	59817.07
560.63	59774.94
560.79	60013.68
560.96	60051.12
561.12	60041.76
561.29	60107.30
561.45	59999.63
561.61	60161.13
561.78	59934.10
561.94	60006.65
562.11	60067.51
562.27	60086.23
562.44	60214.96
562.60	60130.70
562.77	59966.87
562.93	59671.96
563.10	60097.94
563.26	59952.82
563.42	60324.97
563.59	60175.17
563.75	59906.01
563.92	60104.96
564.08	60051.12
564.24	60399.86
564.41	60135.38
564.57	60111.98
564.74	60193.90
564.90	60308.58
565.07	60191.56
565.23	60247.73
565.39	60214.96
565.56	60357.74
565.72	60207.94
565.88	60439.65
566.05	60268.79
566.21	60116.66
566.38	60392.84
566.54	60357.74
566.70	60676.05
566.87	60315.61
567.03	60217.30
567.19	60582.43
567.36	60526.25
567.52	60275.82
567.68	60633.92
567.85	60519.23
568.01	60626.90
568.17	60493.49
568.34	60554.34
568.50	60444.33
568.66	60533.28
568.83	60617.53
568.99	60456.04
569.15	60542.64
569.32	60502.85
569.48	60427.95
569.64	60767.33
569.81	60680.73
569.97	60542.64
570.13	60498.17
570.30	60561.36
570.46	60683.07
570.62	60549.66
570.78	60809.46
570.95	60657.32
571.11	60708.82
571.27	60615.19
571.43	60425.61
571.60	60800.10
571.76	60697.11
571.92	60851.59
572.09	60879.67
572.25	60631.58
572.41	60671.37
572.57	60598.81
572.74	61017.77
572.90	60678.39
573.06	60790.73
573.22	60706.47
573.38	60814.14
573.55	60858.61
573.71	60797.76
573.87	60837.54
574.03	60650.30
574.20	60774.35
574.36	60720.52
574.52	61050.53
574.68	60938.19
574.84	60931.17
575.01	60931.17
575.17	60781.37
575.33	60584.77
575.49	60802.44
575.65	60917.12
575.82	61034.15
575.98	60914.78
576.14	61132.45
576.30	60856.27
576.46	60963.93
576.62	60762.65
576.79	60839.89
576.95	60821.16
577.11	60942.87
577.27	60928.83
577.43	60891.38
577.59	60762.65
577.75	61001.38
577.92	60786.05
578.08	60973.30
578.24	60896.06
578.40	61034.15
578.56	61118.41
578.72	60931.17
578.88	60989.68
579.04	61172.24
579.21	61022.45
579.37	61052.87
579.53	61050.53
579.69	60680.73
579.85	60764.99
580.01	61052.87
580.17	60776.69
580.33	60786.05
580.49	61116.07
580.65	61130.11
580.82	61041.17
580.98	60931.17
581.14	60882.02
581.30	61153.52
581.46	61137.13
581.62	60954.57
581.78	60842.23
581.94	61286.93
582.10	61165.22
582.26	61001.38
582.42	60994.36
582.58	61162.88
582.74	61085.64
582.90	61123.09
583.06	61137.13
583.22	61059.90
583.38	61066.92
583.54	61087.98
583.70	61020.11
583.86	61048.19
584.02	60975.64
584.18	61130.11
584.34	61209.69
584.50	61146.50
584.66	60891.38
584.82	60996.70
584.98	61219.05
585.14	61183.94
585.30	61073.94
585.46	61024.79
585.62	61036.49
585.78	61310.33
585.94	60970.96
586.10	61169.90
586.26	61008.40
586.42	61319.70
586.58	61240.12
586.74	61022.45
586.90	61017.77
587.06	61179.26
587.22	61300.97
587.38	61134.79
587.54	61277.57
587.70	61291.61
587.86	61200.33
588.02	61183.94
588.18	61212.03
588.34	61020.11
588.49	61195.65
