SpectraSuite Data File
++++++++++++++++++++++++++++++++++++
Date: Fri Oct 25 10:43:34 EDT 2013
User: price-jones
Dark Spectrum Present: No
Reference Spectrum Present: No
Number of Sampled Component Spectra: 1
Spectrometers: USB2+H05261
Integration Time (usec): 100000 (USB2+H05261)
Spectra Averaged: 1 (USB2+H05261)
Boxcar Smoothing: 0 (USB2+H05261)
Correct for Electrical Dark: No (USB2+H05261)
Strobe/Lamp Enabled: No (USB2+H05261)
Correct for Detector Non-linearity: No (USB2+H05261)
Correct for Stray Light: No (USB2+H05261)
Number of Pixels in Processed Spectrum: 2048
>>>>>Begin Processed Spectral Data<<<<<
365.73	70.22
365.92	70.22
366.12	70.22
366.32	23.41
366.52	9.36
366.72	0.00
366.91	56.17
367.11	0.00
367.31	0.00
367.51	46.81
367.70	11.70
367.90	44.47
368.10	25.75
368.30	21.06
368.49	0.00
368.69	105.32
368.89	4.68
369.09	0.00
369.28	28.09
369.48	18.72
369.68	93.62
369.87	126.39
370.07	152.13
370.27	198.95
370.47	145.11
370.66	416.62
370.86	484.49
371.06	496.19
371.25	491.51
371.45	425.98
371.65	397.89
371.84	475.13
372.04	428.32
372.24	423.64
372.44	447.04
372.63	585.13
372.83	528.96
373.03	486.83
373.22	493.85
373.42	526.62
373.62	423.64
373.81	575.77
374.01	575.77
374.21	531.30
374.40	535.98
374.60	578.11
374.79	519.60
374.99	528.96
375.19	519.60
375.38	613.22
375.58	550.03
375.78	655.35
375.97	641.31
376.17	641.31
376.37	634.29
376.56	641.31
376.76	587.47
376.95	692.80
377.15	617.90
377.35	603.86
377.54	601.52
377.74	610.88
377.93	669.39
378.13	685.78
378.33	627.26
378.52	608.54
378.72	622.58
378.91	704.50
379.11	660.03
379.31	578.11
379.50	535.98
379.70	674.07
379.89	674.07
380.09	704.50
380.28	765.36
380.48	760.67
380.68	734.93
380.87	674.07
381.07	699.82
381.26	781.74
381.46	739.61
381.65	807.48
381.85	683.44
382.04	753.65
382.24	713.86
382.43	699.82
382.63	631.94
382.83	777.06
383.02	809.83
383.22	748.97
383.41	622.58
383.61	725.57
383.80	702.16
384.00	772.38
384.19	723.23
384.39	812.17
384.58	748.97
384.78	777.06
384.97	809.83
385.17	739.61
385.36	884.72
385.56	753.65
385.75	774.72
385.95	807.48
386.14	842.59
386.34	807.48
386.53	800.46
386.72	772.38
386.92	840.25
387.11	882.38
387.31	933.87
387.50	866.00
387.70	884.72
387.89	828.55
388.09	863.66
388.28	922.17
388.48	854.30
388.67	973.66
388.86	950.26
389.06	936.21
389.25	980.68
389.45	968.98
389.64	945.58
389.84	1022.81
390.03	983.02
390.22	1013.45
390.42	1022.81
390.61	971.32
390.81	1067.28
391.00	1093.03
391.19	1062.60
391.39	1069.62
391.58	1036.86
391.78	1006.43
391.97	1064.94
392.16	1081.33
392.36	1086.01
392.55	933.87
392.75	1020.47
392.94	985.37
393.13	1025.15
393.33	1022.81
393.52	1041.54
393.71	1076.65
393.91	1125.80
394.10	1088.35
394.29	1100.05
394.49	1139.84
394.68	1231.12
394.88	1165.59
395.07	1315.38
395.26	1263.89
395.46	1196.01
395.65	1273.25
395.84	1198.35
396.04	1268.57
396.23	1146.86
396.42	1193.67
396.62	1238.14
396.81	1158.57
397.00	1247.51
397.19	1238.14
397.39	1355.17
397.58	1343.47
397.77	1409.00
397.97	1324.74
398.16	1425.39
398.35	1511.99
398.55	1488.58
398.74	1490.92
398.93	1579.86
399.12	1493.26
399.32	1565.82
399.51	1643.06
399.70	1533.05
399.90	1568.16
400.09	1621.99
400.28	1629.01
400.47	1572.84
400.67	1661.78
400.86	1732.00
401.05	1675.82
401.24	1661.78
401.44	1741.36
401.63	1647.74
401.82	1804.55
402.01	1785.83
402.21	1811.57
402.40	1710.93
402.59	1790.51
402.78	1755.40
402.97	1832.64
403.17	1926.26
403.36	1856.04
403.55	1816.26
403.74	1820.94
403.93	1856.04
404.13	1778.81
404.32	1944.99
404.51	1858.39
404.70	1942.64
404.89	1886.47
405.09	1973.07
405.28	1977.75
405.47	1935.62
405.66	2047.97
405.85	1935.62
406.05	1935.62
406.24	1984.77
406.43	2064.35
406.62	2062.01
406.81	2239.89
407.00	2090.10
407.20	2012.86
407.39	2157.97
407.58	2172.02
407.77	2275.00
407.96	2303.09
408.15	2193.08
408.34	2225.85
408.54	2296.07
408.73	2218.83
408.92	2356.92
409.11	2319.47
409.30	2331.17
409.49	2335.85
409.68	2298.41
409.87	2417.77
410.07	2363.94
410.26	2406.07
410.45	2455.22
410.64	2476.29
410.83	2581.61
411.02	2579.27
411.21	2637.78
411.40	2623.74
411.59	2597.99
411.78	2562.89
411.98	2733.75
412.17	2633.10
412.36	2747.79
412.55	2818.00
412.74	2853.11
412.93	2757.15
413.12	2719.70
413.31	3000.57
413.50	2855.45
413.69	2967.80
413.88	3012.27
414.07	3082.49
414.26	2944.39
414.45	3009.93
414.64	3138.66
414.83	3159.72
415.02	3054.40
415.22	3033.33
415.41	3115.25
415.60	3133.98
415.79	3220.58
415.98	3328.24
416.17	3258.03
416.36	3234.62
416.55	3328.24
416.74	3290.79
416.93	3309.52
417.12	3372.71
417.31	3346.97
417.50	3396.12
417.69	3602.08
417.88	3508.46
418.07	3555.27
418.26	3403.14
418.45	3515.48
418.64	3672.30
418.83	3583.36
419.02	3674.64
419.21	3709.75
419.39	3576.34
419.58	3660.60
419.77	3646.55
419.96	3578.68
420.15	3705.07
420.34	3721.45
420.53	3772.94
420.72	3824.44
420.91	3854.86
421.10	3728.47
421.29	3929.76
421.48	3878.27
421.67	3852.52
421.86	3892.31
422.05	3801.03
422.24	3770.60
422.43	3887.63
422.61	3948.48
422.80	3948.48
422.99	3894.65
423.18	4028.06
423.37	4093.60
423.56	4007.00
423.75	3932.10
423.94	3999.98
424.13	3749.54
424.32	3815.07
424.50	3997.64
424.69	3838.48
424.88	4095.94
425.07	3983.59
425.26	3948.48
425.45	4037.42
425.64	3948.48
425.83	4002.32
426.01	4100.62
426.20	4042.11
426.39	4070.19
426.58	3999.98
426.77	4037.42
426.96	4023.38
427.15	4011.68
427.33	4121.68
427.52	4065.51
427.71	4147.43
427.90	4107.64
428.09	4159.13
428.28	4173.18
428.46	4304.25
428.65	4189.56
428.84	4259.78
429.03	4358.08
429.22	4102.96
429.40	4266.80
429.59	4133.39
429.78	3901.67
429.97	3936.78
430.16	4051.47
430.34	4140.41
430.53	4168.49
430.72	4255.09
430.91	4236.37
431.10	4266.80
431.28	4517.23
431.47	4690.43
431.66	4688.09
431.85	4547.66
432.03	4627.24
432.22	4678.73
432.41	4702.14
432.60	4662.35
432.79	4868.31
432.97	4983.00
433.16	4770.01
433.35	4695.11
433.54	4662.35
433.72	4669.37
433.91	4786.40
434.10	4655.33
434.28	4898.74
434.47	4915.12
434.66	4891.72
434.85	4968.96
435.03	4992.36
435.22	4985.34
435.41	5261.52
435.59	5179.61
435.78	5163.22
435.97	5259.18
436.16	5336.42
436.34	5151.52
436.53	5060.24
436.72	5268.55
436.90	5146.84
437.09	5240.46
437.28	4912.78
437.46	5320.04
437.65	5355.15
437.84	5350.46
438.02	5277.91
438.21	5287.27
438.40	5121.09
438.58	5458.13
438.77	5453.45
438.96	5479.19
439.14	5586.86
439.33	5685.16
439.52	5628.99
439.70	5654.73
439.89	5767.08
440.08	5741.33
440.26	5757.72
440.45	5687.50
440.63	6010.50
440.82	6122.84
441.01	5940.28
441.19	6050.28
441.38	6157.95
441.57	6167.31
441.75	6216.46
441.94	6331.15
442.12	6328.81
442.31	6581.59
442.50	6401.37
442.68	6429.45
442.87	6310.08
443.05	6312.42
443.24	6644.78
443.43	6464.56
443.61	6558.18
443.80	6588.61
443.98	6406.05
444.17	6256.25
444.35	6506.69
444.54	6738.40
444.73	6663.51
444.91	6499.67
445.10	6431.79
445.28	6466.90
445.47	6448.18
445.65	6558.18
445.84	6541.80
446.02	6654.14
446.21	6679.89
446.39	6658.82
446.58	6719.68
446.77	6815.64
446.95	6581.59
447.14	6857.77
447.32	6883.52
447.51	6848.41
447.69	6656.48
447.88	6780.53
448.06	6841.39
448.25	6806.28
448.43	6752.45
448.62	6644.78
448.80	6717.34
448.99	6958.41
449.17	6778.19
449.36	6932.67
449.54	6918.62
449.73	7073.10
449.91	7337.58
450.10	7286.09
450.28	7311.83
450.46	7274.38
450.65	7222.89
450.83	7360.98
451.02	7218.21
451.20	7386.73
451.39	7398.43
451.57	7405.46
451.76	7232.26
451.94	7281.41
452.13	7435.88
452.31	7330.56
452.49	7372.69
452.68	7211.19
452.86	7232.26
453.05	7211.19
453.23	7421.84
453.42	7276.73
453.60	7480.35
453.78	7639.51
453.97	7595.04
454.15	7379.71
454.34	7368.01
454.52	7569.29
454.70	7473.33
454.89	7463.97
455.07	7611.42
455.26	7683.98
455.44	7941.44
455.62	7845.48
455.81	7875.90
455.99	7840.79
456.17	7978.89
456.36	7843.14
456.54	8004.63
456.73	7990.59
456.91	8252.73
457.09	8114.64
457.28	8304.22
457.46	8109.96
457.64	8039.74
457.83	8262.09
458.01	8189.53
458.19	8339.33
458.38	8182.51
458.56	8512.53
458.74	8386.14
458.93	8449.33
459.11	8409.54
459.29	8374.44
459.48	8451.67
459.66	8578.06
459.84	8564.02
460.03	8599.13
460.21	8463.38
460.39	8606.15
460.57	8674.03
460.76	8791.05
460.94	8940.85
461.12	8655.30
461.31	8903.40
461.49	8676.37
461.67	8872.97
461.85	8959.57
462.04	8931.48
462.22	9486.19
462.40	9085.96
462.59	8997.02
462.77	8879.99
462.95	9036.81
463.13	9001.70
463.32	9092.98
463.50	8936.17
463.68	9062.55
463.86	9137.45
464.05	9015.74
464.23	9064.89
464.41	9277.88
464.59	8954.89
464.78	9254.48
464.96	9432.36
465.14	9090.64
465.32	9312.99
465.50	9341.08
465.69	9291.93
465.87	9231.07
466.05	9233.41
466.23	9144.47
466.41	9174.90
466.60	9535.34
466.78	9118.73
466.96	9329.38
467.14	9282.56
467.32	9348.10
467.51	9776.42
467.69	9511.94
467.87	9327.03
468.05	9638.33
468.23	9509.60
468.41	9540.02
468.60	9748.33
468.78	9528.32
468.96	9631.30
469.14	9921.53
469.32	9900.47
469.50	9528.32
469.69	9872.38
469.87	9813.87
470.05	9888.76
470.23	9881.74
470.41	9963.66
470.59	10099.41
470.77	9886.42
470.95	9961.32
471.14	10066.64
471.32	10087.71
471.50	10342.83
471.68	10305.38
471.86	10509.01
472.04	10424.75
472.22	10916.26
472.40	10256.23
472.58	10441.13
472.77	10501.98
472.95	10597.95
473.13	11068.39
473.31	10782.85
473.49	10544.11
473.67	10684.55
473.85	10808.59
474.03	11073.07
474.21	11126.91
474.39	11456.92
474.57	11236.91
474.75	10995.84
474.93	11307.13
475.12	11503.73
475.30	11255.64
475.48	11274.36
475.66	11410.11
475.84	11597.35
476.02	11599.70
476.20	11545.86
476.38	11857.15
476.56	11999.93
476.74	12116.95
476.92	11833.75
477.10	11939.07
477.28	11967.16
477.46	12182.49
477.64	12423.56
477.82	12512.50
478.00	12812.09
478.18	12521.87
478.36	12905.71
478.54	12823.80
478.72	12739.54
478.90	12896.35
479.08	13142.11
479.26	13214.66
479.44	13277.86
479.62	13420.63
479.80	13301.26
479.98	13549.36
480.16	13764.69
480.34	13853.63
480.52	13752.99
480.70	13944.91
480.88	13774.05
481.06	13982.36
481.24	14270.25
481.41	14406.00
481.59	14640.05
481.77	14508.98
481.95	14195.35
482.13	14551.11
482.31	14857.72
482.49	15356.25
482.67	15056.67
482.85	15222.84
483.03	15304.76
483.21	15367.96
483.39	15475.62
483.57	15461.58
483.74	15428.81
483.92	15683.93
484.10	15543.50
484.28	16042.03
484.46	16180.12
484.64	16432.90
484.82	15962.45
485.00	16402.47
485.18	16496.10
485.35	16901.01
485.53	16252.68
485.71	16280.77
485.89	16126.29
486.07	16608.44
486.25	17036.76
486.43	16912.71
486.61	17067.19
486.78	17312.94
486.96	17406.56
487.14	17788.07
487.32	17537.63
487.50	18146.17
487.68	18335.76
487.85	18293.63
488.03	18593.22
488.21	18607.26
488.39	18677.48
488.57	18455.12
488.75	18885.78
488.92	18862.38
489.10	19353.89
489.28	19676.88
489.46	19997.54
489.64	19999.88
489.81	20432.88
489.99	20198.82
490.17	20505.43
490.35	20769.91
490.53	20552.24
490.70	20608.42
490.88	20683.31
491.06	21071.84
491.24	20800.34
491.41	21219.30
491.59	21106.95
491.77	20898.64
491.95	21469.73
492.13	21465.05
492.30	21956.57
492.48	22150.83
492.66	21884.01
492.84	21984.65
493.01	22270.20
493.19	22132.11
493.37	22211.68
493.54	22424.67
493.72	22916.19
493.90	22871.72
494.08	23154.92
494.25	23536.43
494.43	23328.12
494.61	23431.10
494.79	23768.14
494.96	23997.51
495.14	23697.92
495.32	23852.40
495.49	23896.87
495.67	24194.12
495.85	24229.23
496.02	24327.53
496.20	24599.03
496.38	24709.04
496.55	24931.39
496.73	25149.06
496.91	24879.89
497.09	25172.46
497.26	25310.55
497.44	25249.70
497.62	25387.79
497.79	25659.29
497.97	25268.42
498.14	25514.18
498.32	26270.17
498.50	25579.71
498.67	26298.26
498.85	26380.18
499.03	26382.52
499.20	26490.18
499.38	26539.33
499.56	26824.88
499.73	26438.69
499.91	26597.85
500.08	26838.92
500.26	26845.94
500.44	26721.90
500.61	27042.55
500.79	26845.94
500.97	26778.07
501.14	27225.11
501.32	27489.59
501.49	27171.28
501.67	27307.03
501.84	27508.32
502.02	27529.38
502.20	27843.01
502.37	28051.32
502.55	28208.14
502.72	28009.19
502.90	27913.23
503.07	28266.65
503.25	28292.40
503.43	28142.60
503.60	28435.17
503.78	28397.72
503.95	28493.68
504.13	28524.11
504.30	28704.33
504.48	28854.12
504.65	29050.73
504.83	28912.64
505.01	29376.06
505.18	29163.08
505.36	29631.18
505.53	29366.70
505.71	29638.20
505.88	30153.12
506.06	29621.82
506.23	29823.11
506.41	29975.24
506.58	30291.21
506.76	30363.77
506.93	30305.26
507.11	29874.60
507.28	30066.52
507.46	30092.27
507.63	30590.80
507.81	30408.24
507.98	30204.61
508.16	30768.68
508.33	30822.51
508.50	31115.08
508.68	30845.92
508.85	31536.38
509.03	31346.79
509.20	31049.55
509.38	31569.15
509.55	31428.71
509.73	31583.19
509.90	31732.98
510.08	31611.28
510.25	31601.91
510.42	31882.78
510.60	31896.82
510.77	32161.30
510.95	32236.20
511.12	32271.31
511.30	32510.04
511.47	32512.38
511.64	32765.16
511.82	32659.84
511.99	32500.68
512.17	32364.93
512.34	32769.84
512.51	32809.63
512.69	32788.56
512.86	33141.99
513.04	32865.80
513.21	32950.06
513.38	33008.58
513.56	33266.03
513.73	33036.66
513.90	33518.81
514.08	33266.03
514.25	33593.71
514.43	33443.91
514.60	33362.00
514.77	33275.40
514.95	33663.93
515.12	33408.81
515.29	33577.33
515.47	34080.54
515.64	34071.18
515.81	34047.77
515.99	34024.37
516.16	33989.26
516.33	33425.19
516.51	33888.62
516.68	33668.61
516.85	33677.97
517.03	33539.88
517.20	34202.25
517.37	34543.97
517.54	34471.41
517.72	34534.60
517.89	34225.65
518.06	34122.67
518.24	34291.19
518.41	34295.87
518.58	34391.83
518.75	34494.82
518.93	34979.31
519.10	34733.55
519.27	34991.01
519.45	35098.67
519.62	35873.39
519.79	35828.92
519.96	35606.57
520.14	35377.20
520.31	35218.04
520.48	35512.95
520.65	35367.84
520.83	36449.16
521.00	35997.44
521.17	36327.45
521.34	36477.25
521.52	36215.11
521.69	36428.10
521.86	36215.11
522.03	36325.11
522.20	36278.30
522.38	36357.88
522.55	36570.87
522.72	36397.67
522.89	36549.81
523.07	36996.85
523.24	36872.80
523.41	37495.38
523.58	36978.12
523.75	37937.74
523.92	37188.77
524.10	37425.17
524.27	37755.18
524.44	37109.19
524.61	37535.17
524.78	37633.47
524.96	37366.65
525.13	37823.06
525.30	37432.19
525.47	37907.32
525.64	37764.54
525.81	37972.85
525.98	37467.30
526.16	37581.98
526.33	37280.05
526.50	37394.74
526.67	37333.89
526.84	37500.06
527.01	37729.44
527.18	37682.62
527.36	38204.56
527.53	38387.13
527.70	38321.59
527.87	38658.63
528.04	38368.40
528.21	38300.53
528.38	38869.28
528.55	38651.61
528.72	39182.91
528.89	39419.30
529.07	39171.21
529.24	38691.40
529.41	39110.35
529.58	38981.62
529.75	39026.09
529.92	38998.01
530.09	39414.62
530.26	39756.34
530.43	39538.67
530.60	39365.47
530.77	39856.98
530.94	39721.23
531.11	39681.44
531.28	39683.78
531.46	39676.76
531.63	39728.25
531.80	39328.02
531.97	39601.86
532.14	39728.25
532.31	39365.47
532.48	39632.29
532.65	39754.00
532.82	39702.51
532.99	39959.97
533.16	39835.92
533.33	40362.54
533.50	40231.47
533.67	40334.45
533.84	39985.71
534.01	40261.90
534.18	39955.29
534.35	40612.98
534.52	40168.27
534.69	40559.14
534.86	40961.72
535.03	40645.74
535.20	40903.20
535.37	40793.20
535.54	41380.67
535.71	40772.13
535.88	40818.94
536.05	41137.26
536.22	41177.04
536.38	41111.51
536.55	40921.93
536.72	40971.08
536.89	40612.98
537.06	40737.02
537.23	41095.13
537.40	40905.54
537.57	41174.70
537.74	41441.53
537.91	42085.17
538.08	41226.20
538.25	41085.76
538.42	41170.02
538.59	41385.35
538.75	41422.80
538.92	41535.15
539.09	41687.28
539.26	41603.02
539.43	41727.07
539.60	41703.67
539.77	41296.41
539.94	41530.47
540.11	41258.96
540.28	41706.01
540.44	41478.97
540.61	41837.08
540.78	41144.28
540.95	41769.20
541.12	41787.92
541.29	41839.42
541.46	42244.33
541.62	41680.26
541.79	42239.65
541.96	41911.97
542.13	42153.05
542.30	42073.47
542.47	42171.77
542.63	42087.51
542.80	42038.36
542.97	42824.78
543.14	42993.30
543.31	42656.26
543.48	42735.84
543.64	42953.51
543.81	42918.40
543.98	42932.45
544.15	42639.88
544.32	43524.60
544.48	43473.11
544.65	42880.95
544.82	42873.93
544.99	42625.84
545.16	42714.78
545.32	43021.39
545.49	43576.09
545.66	43360.76
545.83	43473.11
546.00	43615.88
546.16	43292.89
546.33	42972.24
546.50	42806.06
546.67	43627.59
546.83	43175.86
547.00	43365.45
547.17	43164.16
547.34	43229.69
547.50	43225.01
547.67	43566.73
547.84	43648.65
548.00	44421.03
548.17	43866.32
548.34	43384.17
548.51	44605.93
548.67	44002.07
548.84	43688.44
549.01	43676.74
549.18	43655.67
549.34	43782.06
549.51	44194.00
549.68	44065.27
549.84	43868.66
550.01	44320.38
550.18	43838.23
550.34	44257.19
550.51	44128.46
550.68	43800.79
550.84	43475.45
551.01	44210.38
551.18	44025.48
551.34	43978.67
551.51	44116.76
551.68	44179.95
551.84	44259.53
552.01	43866.32
552.18	44198.68
552.34	44147.18
552.51	44179.95
552.68	44208.04
552.84	44720.62
553.01	44947.65
553.18	44711.25
553.34	44580.18
553.51	44318.04
553.67	44809.56
553.84	45291.71
554.01	44748.70
554.17	44692.53
554.34	44971.05
554.51	45099.78
554.67	45340.86
554.84	44636.36
555.00	44568.48
555.17	44790.83
555.33	44861.05
555.50	45280.00
555.67	45130.21
555.83	45214.47
556.00	44706.57
556.16	45041.27
556.33	45233.19
556.50	45333.84
556.66	45148.93
556.83	44486.56
556.99	45256.60
557.16	45193.40
557.32	45244.90
557.49	45106.80
557.65	44842.32
557.82	45425.12
557.98	45406.39
558.15	44926.58
558.32	45326.81
558.48	44882.11
558.65	45422.78
558.81	45024.89
558.98	45401.71
559.14	44652.74
559.31	45291.71
559.47	45319.79
559.64	44996.80
559.80	45390.01
559.97	45237.87
560.13	44903.18
560.30	45022.54
560.46	45687.26
560.63	45485.97
560.79	46101.53
560.96	45710.66
561.12	45165.32
561.29	45242.56
561.45	45432.14
561.61	45572.57
561.78	45233.19
561.94	45457.88
562.11	45104.46
562.27	45331.50
562.44	45359.58
562.60	45633.42
562.77	45752.79
562.93	45535.12
563.10	45804.28
563.26	45308.09
563.42	45897.91
563.59	45469.59
563.75	45780.88
563.92	45846.41
564.08	45965.78
564.24	45659.17
564.41	45722.37
564.57	45689.60
564.74	45705.98
564.90	45649.81
565.07	45682.58
565.23	45998.55
565.39	45713.00
565.56	45663.85
565.72	45659.17
565.88	45528.10
566.05	45570.23
566.21	45785.56
566.38	45837.05
566.54	45771.52
566.70	45904.93
566.87	46134.30
567.03	45654.49
567.19	46003.23
567.36	45947.06
567.52	45385.33
567.68	45647.47
567.85	46000.89
568.01	46127.28
568.17	45956.42
568.34	46164.73
568.50	45883.86
568.66	45867.48
568.83	45947.06
568.99	45703.64
569.15	45783.22
569.32	45439.16
569.48	46225.58
569.64	45799.60
569.81	45811.31
569.97	45961.10
570.13	45890.88
570.30	45469.59
570.46	45542.14
570.62	45907.27
570.78	45715.34
570.95	45418.10
571.11	46202.18
571.27	45427.46
571.43	46010.25
571.60	46134.30
571.76	46036.00
571.92	46089.83
572.09	45886.20
572.25	46017.27
572.41	46171.75
572.57	45937.69
572.74	46445.59
572.90	46075.79
573.06	45942.38
573.22	46108.55
573.38	45731.73
573.55	46190.47
573.71	46347.29
573.87	46284.09
574.03	46052.38
574.20	45790.24
574.36	46038.34
574.52	46246.65
574.68	45961.10
574.84	46085.15
575.01	45851.09
575.17	46028.98
575.33	45713.00
575.49	45879.18
575.65	46405.80
575.82	46103.87
575.98	46099.19
576.14	46539.21
576.30	46504.10
576.46	45890.88
576.62	45865.14
576.79	46124.94
576.95	46099.19
577.11	45879.18
577.27	45907.27
577.43	46052.38
577.59	45947.06
577.75	45558.53
577.92	46014.93
578.08	45783.22
578.24	46274.73
578.40	45708.32
578.56	46146.00
578.72	46075.79
578.88	46305.16
579.04	46241.96
579.21	45940.04
579.37	46028.98
579.53	46429.21
579.69	46138.98
579.85	46260.69
580.01	46052.38
580.17	46141.32
580.33	46248.99
580.49	46164.73
580.65	45968.12
580.82	46064.08
580.98	46136.64
581.14	45694.28
581.30	46234.94
581.46	46358.99
581.62	46270.05
581.78	46099.19
581.94	46597.73
582.10	46071.10
582.26	46363.67
582.42	46361.33
582.58	46122.60
582.74	46265.37
582.90	46403.46
583.06	46527.51
583.22	46227.92
583.38	46550.91
583.54	46347.29
583.70	46302.82
583.86	46082.81
584.02	46234.94
584.18	46040.68
584.34	46305.16
584.50	46459.63
584.66	46274.73
584.82	45600.66
584.98	46258.35
585.14	46548.57
585.30	46265.37
585.46	46185.79
585.62	46113.23
585.78	45794.92
585.94	46075.79
586.10	45830.03
586.26	45921.31
586.42	46445.59
586.58	46260.69
586.74	46506.44
586.90	46183.45
587.06	46286.43
587.22	46356.65
587.38	46176.43
587.54	46066.42
587.70	46443.25
587.86	46438.57
588.02	46010.25
588.18	46424.53
588.34	46040.68
588.49	45682.58
588.65	45528.10
588.81	45844.07
588.97	45853.44
589.13	45689.60
589.29	45743.43
589.45	45757.47
589.61	46270.05
589.77	46602.41
589.93	46305.16
