SpectraSuite Data File
++++++++++++++++++++++++++++++++++++
Date: Fri Oct 25 11:22:52 EDT 2013
User: price-jones
Dark Spectrum Present: No
Reference Spectrum Present: No
Number of Sampled Component Spectra: 1
Spectrometers: USB2+H05261
Integration Time (usec): 100000 (USB2+H05261)
Spectra Averaged: 1 (USB2+H05261)
Boxcar Smoothing: 0 (USB2+H05261)
Correct for Electrical Dark: No (USB2+H05261)
Strobe/Lamp Enabled: No (USB2+H05261)
Correct for Detector Non-linearity: No (USB2+H05261)
Correct for Stray Light: No (USB2+H05261)
Number of Pixels in Processed Spectrum: 2048
>>>>>Begin Processed Spectral Data<<<<<
365.73	198.95
365.92	198.95
366.12	198.95
366.32	145.11
366.52	28.09
366.72	140.43
366.91	114.69
367.11	163.84
367.31	74.90
367.51	119.37
367.70	131.07
367.90	154.48
368.10	156.82
368.30	107.66
368.49	84.26
368.69	126.39
368.89	173.20
369.09	74.90
369.28	114.69
369.48	138.09
369.68	220.01
369.87	205.97
370.07	217.67
370.27	201.29
370.47	320.65
370.66	538.32
370.86	599.18
371.06	657.69
371.25	678.76
371.45	723.23
371.65	671.73
371.84	699.82
372.04	758.33
372.24	671.73
372.44	674.07
372.63	709.18
372.83	739.61
373.03	884.72
373.22	716.20
373.42	753.65
373.62	760.67
373.81	737.27
374.01	784.08
374.21	748.97
374.40	837.91
374.60	751.31
374.79	823.87
374.99	793.44
375.19	828.55
375.38	809.83
375.58	809.83
375.78	861.32
375.97	809.83
376.17	905.79
376.37	858.98
376.56	847.27
376.76	819.19
376.95	844.93
377.15	814.51
377.35	849.61
377.54	884.72
377.74	929.19
377.93	858.98
378.13	882.38
378.33	957.28
378.52	851.96
378.72	924.51
378.91	997.07
379.11	919.83
379.31	912.81
379.50	884.72
379.70	884.72
379.89	997.07
380.09	950.26
380.28	870.68
380.48	1086.01
380.68	929.19
380.87	1025.15
381.07	1022.81
381.26	1109.41
381.46	1008.77
381.65	997.07
381.85	1064.94
382.04	997.07
382.24	1135.16
382.43	1074.31
382.63	1100.05
382.83	1067.28
383.02	1057.92
383.22	1060.26
383.41	1057.92
383.61	1128.14
383.80	1090.69
384.00	1137.50
384.19	1116.44
384.39	1139.84
384.58	1151.54
384.78	1151.54
384.97	1151.54
385.17	1210.06
385.36	1151.54
385.56	1139.84
385.75	1203.04
385.95	1146.86
386.14	1221.76
386.34	1186.65
386.53	1163.25
386.72	1186.65
386.92	1294.32
387.11	1235.80
387.31	1301.34
387.50	1207.72
387.70	1203.04
387.89	1273.25
388.09	1338.79
388.28	1315.38
388.48	1296.66
388.67	1416.02
388.86	1294.32
389.06	1324.74
389.25	1366.87
389.45	1334.11
389.64	1329.42
389.84	1348.15
390.03	1385.60
390.22	1453.47
390.42	1390.28
390.61	1465.18
390.81	1282.61
391.00	1380.92
391.19	1444.11
391.39	1458.15
391.58	1451.13
391.78	1556.46
391.97	1563.48
392.16	1467.52
392.36	1547.09
392.55	1479.22
392.75	1547.09
392.94	1486.24
393.13	1504.96
393.33	1511.99
393.52	1537.73
393.71	1603.27
393.91	1575.18
394.10	1582.20
394.29	1671.14
394.49	1717.95
394.68	1577.52
394.88	1589.22
395.07	1661.78
395.26	1694.55
395.46	1701.57
395.65	1717.95
395.84	1739.02
396.04	1713.27
396.23	1675.82
396.42	1706.25
396.62	1820.94
396.81	1856.04
397.00	1834.98
397.19	1806.89
397.39	1834.98
397.58	1839.66
397.77	1736.68
397.97	1818.60
398.16	1870.09
398.35	1872.43
398.55	1732.00
398.74	1933.28
398.93	1952.01
399.12	1863.07
399.32	1937.96
399.51	1900.52
399.70	1956.69
399.90	1970.73
400.09	1914.56
400.28	2188.40
400.47	1989.46
400.67	2106.48
400.86	2022.22
401.05	2115.84
401.24	2047.97
401.44	2101.80
401.63	2174.36
401.82	2228.19
402.01	2118.18
402.21	2132.23
402.40	2157.97
402.59	2188.40
402.78	2216.49
402.97	2204.78
403.17	2179.04
403.36	2223.51
403.55	2310.11
403.74	2459.90
403.93	2387.35
404.13	2431.82
404.32	2277.34
404.51	2431.82
404.70	2483.31
404.89	2483.31
405.09	2537.14
405.28	2333.51
405.47	2502.03
405.66	2408.41
405.85	2553.52
406.05	2480.97
406.24	2532.46
406.43	2530.12
406.62	2773.53
406.81	2553.52
407.00	2469.27
407.20	2516.08
407.39	2764.17
407.58	2822.69
407.77	2792.26
407.96	2885.88
408.15	2759.49
408.34	2630.76
408.54	2738.43
408.73	2710.34
408.92	2843.75
409.11	2904.60
409.30	2951.42
409.49	2970.14
409.68	2939.71
409.87	3012.27
410.07	2970.14
410.26	2986.52
410.45	2972.48
410.64	3052.06
410.83	3141.00
411.02	3096.53
411.21	3192.49
411.40	3138.66
411.59	3229.94
411.78	3218.24
411.98	3110.57
412.17	3243.98
412.36	3286.11
412.55	3438.25
412.74	3435.91
412.93	3405.48
413.12	3421.86
413.31	3609.11
413.50	3550.59
413.69	3473.36
413.88	3702.73
414.07	3648.90
414.26	3698.05
414.45	3695.71
414.64	3723.79
414.83	3754.22
415.02	3719.11
415.22	3789.33
415.41	3915.72
415.60	3918.06
415.79	3913.38
415.98	4072.53
416.17	3812.73
416.36	3899.33
416.55	3904.01
416.74	4086.58
416.93	4070.19
417.12	4266.80
417.31	4236.37
417.50	4222.33
417.69	4264.46
417.88	4280.84
418.07	4269.14
418.26	4287.86
418.45	4304.25
418.64	4526.60
418.83	4421.27
419.02	4514.89
419.21	4603.83
419.39	4652.98
419.58	4517.23
419.77	4493.83
419.96	4479.79
420.15	4571.07
420.34	4603.83
420.53	4636.60
420.72	4730.22
420.91	4826.18
421.10	4755.97
421.29	4699.80
421.48	4760.65
421.67	4854.27
421.86	4648.30
422.05	4812.14
422.24	4723.20
422.43	4830.87
422.61	4910.44
422.80	4863.63
422.99	4798.10
423.18	5081.30
423.37	4987.68
423.56	5114.07
423.75	5034.49
423.94	4882.36
424.13	4617.88
424.32	4798.10
424.50	4994.70
424.69	5198.33
424.88	5256.84
425.07	5053.22
425.26	5032.15
425.45	4863.63
425.64	4985.34
425.83	4964.28
426.01	5043.85
426.20	5165.56
426.39	5013.43
426.58	4933.85
426.77	5109.39
426.96	5261.52
427.15	4997.04
427.33	5231.10
427.52	5205.35
427.71	5221.74
427.90	5282.59
428.09	5362.17
428.28	5530.69
428.46	5320.04
428.65	5366.85
428.84	5565.79
429.03	5547.07
429.22	5378.55
429.40	5446.43
429.59	5549.41
429.78	5294.29
429.97	5268.55
430.16	5558.77
430.34	5605.58
430.53	5872.40
430.72	5575.16
430.91	5659.42
431.10	5650.05
431.28	5783.46
431.47	5731.97
431.66	5930.92
431.85	5839.64
432.03	5977.73
432.22	5973.05
432.41	6106.46
432.60	5886.45
432.79	6040.92
432.97	6073.69
433.16	6008.16
433.35	6015.18
433.54	6223.48
433.72	6342.85
433.91	6186.04
434.10	5998.79
434.28	6080.71
434.47	6251.57
434.66	6300.72
434.85	6289.02
435.03	6317.11
435.22	6359.24
435.41	6558.18
435.59	6590.95
435.78	6494.99
435.97	6516.05
436.16	6537.12
436.34	6523.07
436.53	6576.91
436.72	6551.16
436.90	6349.87
437.09	6705.63
437.28	6476.26
437.46	6509.03
437.65	6773.51
437.84	6890.54
438.02	6700.95
438.21	6981.82
438.40	6839.05
438.58	6977.14
438.77	7030.97
438.96	6932.67
439.14	7152.68
439.33	7157.36
439.52	7218.21
439.70	7328.22
439.89	7403.11
440.08	7346.94
440.26	7337.58
440.45	7318.86
440.63	7314.17
440.82	7557.59
441.01	7683.98
441.19	7625.47
441.38	7817.39
441.57	7772.92
441.75	7819.73
441.94	7985.91
442.12	8049.10
442.31	8079.53
442.50	7908.67
442.68	8149.75
442.87	8081.87
443.05	8152.09
443.24	8341.67
443.43	8121.66
443.61	8201.24
443.80	8498.49
443.98	8030.38
444.17	7873.56
444.35	8191.88
444.54	8322.94
444.73	8329.97
444.91	8400.18
445.10	8318.26
445.28	8446.99
445.47	8329.97
445.65	8383.80
445.84	8470.40
446.02	8472.74
446.21	8454.02
446.39	8292.52
446.58	8397.84
446.77	8559.34
446.95	8276.13
447.14	8617.85
447.32	8746.58
447.51	8505.51
447.69	8514.87
447.88	8723.18
448.06	8636.58
448.25	8528.91
448.43	8777.01
448.62	8882.33
448.80	8713.81
448.99	8674.03
449.17	8620.19
449.36	8716.16
449.54	8926.80
449.73	9043.83
449.91	9123.41
450.10	8856.59
450.28	9158.52
450.46	9123.41
450.65	9198.31
450.83	9270.86
451.02	9303.63
451.20	9397.25
451.39	9097.66
451.57	9132.77
451.76	9060.21
451.94	9359.80
452.13	9551.73
452.31	9380.87
452.49	9329.38
452.68	9561.09
452.86	9465.13
453.05	9441.72
453.23	9638.33
453.42	9254.48
453.60	9399.59
453.78	9554.07
453.97	9720.24
454.15	9652.37
454.34	9561.09
454.52	9664.07
454.70	9579.81
454.89	9919.19
455.07	10026.86
455.26	9879.40
455.44	9987.07
455.62	9731.95
455.81	9951.96
455.99	10090.05
456.17	10015.15
456.36	10057.28
456.54	10338.15
456.73	10300.70
456.91	10321.76
457.09	10628.37
457.28	10509.01
457.46	10387.30
457.64	10686.89
457.83	10551.14
458.01	10436.45
458.19	10714.97
458.38	10595.61
458.56	11075.42
458.74	10721.99
458.93	10778.17
459.11	10630.71
459.29	10619.01
459.48	10871.79
459.66	10965.41
459.84	11052.01
460.03	11131.59
460.21	11147.97
460.39	11190.10
460.57	11145.63
460.76	11028.60
460.94	11440.54
461.12	11339.90
461.31	11571.61
461.49	11129.25
461.67	11253.30
461.85	11513.10
462.04	11477.99
462.22	11740.13
462.40	11623.10
462.59	11442.88
462.77	11580.97
462.95	11557.57
463.13	11637.14
463.32	11826.73
463.50	11705.02
463.68	11955.46
463.86	11737.79
464.05	11908.65
464.23	11618.42
464.41	11950.78
464.59	11726.08
464.78	12114.61
464.96	12145.04
465.14	11772.89
465.32	12266.75
465.50	12353.35
465.69	12077.16
465.87	12276.11
466.05	12264.41
466.23	12233.98
466.41	12276.11
466.60	12535.91
466.78	12348.67
466.96	12145.04
467.14	12269.09
467.32	12491.44
467.51	12762.94
467.69	12236.32
467.87	12545.27
468.05	12931.46
468.23	12554.63
468.41	12603.78
468.60	12781.67
468.78	12659.96
468.96	12678.68
469.14	13029.76
469.32	13298.92
469.50	12652.94
469.69	13158.49
469.87	13238.07
470.05	13067.21
470.23	13317.65
470.41	13301.26
470.59	13469.78
470.77	13474.46
470.95	13544.68
471.14	13605.53
471.32	13170.19
471.50	13411.27
471.68	13708.52
471.86	13778.73
472.04	13898.10
472.22	14160.24
472.40	13809.16
472.58	13891.08
472.77	14155.56
472.95	14113.43
473.13	14621.33
473.31	14260.88
473.49	14181.31
473.67	14068.96
473.85	14438.76
474.03	14691.54
474.21	14621.33
474.39	14946.66
474.57	14757.08
474.75	15241.57
474.93	15171.35
475.12	15152.63
475.30	15562.22
475.48	15250.93
475.66	15288.38
475.84	15276.68
476.02	15536.48
476.20	15513.07
476.38	15962.45
476.56	16184.80
476.74	16126.29
476.92	15733.08
477.10	15838.41
477.28	16264.38
477.46	16395.45
477.64	16500.78
477.82	16570.99
478.00	16891.65
478.18	16978.25
478.36	17238.05
478.54	17200.60
478.72	17289.54
478.90	17502.53
479.08	17516.57
479.26	17586.79
479.44	17947.23
479.62	17958.93
479.80	18132.13
479.98	18396.61
480.16	18682.16
480.34	18363.84
480.52	18794.50
480.70	18979.40
480.88	18691.52
481.06	18939.62
481.24	18895.14
481.41	19297.72
481.59	19487.30
481.77	19695.61
481.95	19847.74
482.13	19772.85
482.31	19693.27
482.49	20329.89
482.67	20535.86
482.85	20269.04
483.03	20793.32
483.21	21083.55
483.39	21041.42
483.57	21010.99
483.74	21296.53
483.92	21467.39
484.10	21418.24
484.28	21923.80
484.46	22272.54
484.64	22754.69
484.82	21935.50
485.00	22745.33
485.18	23054.28
485.35	23183.01
485.53	22925.55
485.71	23089.38
485.89	23583.24
486.07	23508.34
486.25	23765.80
486.43	23718.99
486.61	24299.44
486.78	24107.52
486.96	24346.25
487.14	24760.53
487.32	24863.51
487.50	24893.94
487.68	25373.75
487.85	25635.89
488.03	25495.46
488.21	26008.03
488.39	25830.15
488.57	26375.50
488.75	26370.82
488.92	26541.68
489.10	26579.12
489.28	26918.50
489.46	27484.91
489.64	27281.28
489.81	27681.52
489.99	27871.10
490.17	28187.07
490.35	28549.85
490.53	28304.10
490.70	28725.39
490.88	28407.08
491.06	29111.58
491.24	29116.26
491.41	29195.84
491.59	29394.79
491.77	29479.05
491.95	29998.65
492.13	29876.94
492.30	30405.90
492.48	30099.29
492.66	30389.52
492.84	30506.54
493.01	31124.44
493.19	30548.67
493.37	31463.82
493.54	31204.02
493.72	31660.43
493.90	31903.84
494.08	31903.84
494.25	32304.07
494.43	32346.20
494.61	32512.38
494.79	32657.49
494.96	32676.22
495.14	33198.16
495.32	33570.30
495.49	33050.70
495.67	33277.74
495.85	33741.16
496.02	33996.28
496.20	34487.79
496.38	34621.20
496.55	34476.09
496.73	35243.79
496.91	35093.99
497.09	34590.78
497.26	35075.27
497.44	35597.21
497.62	35742.32
497.79	36194.04
497.97	35810.20
498.14	36252.56
498.32	36416.40
498.50	36708.96
498.67	36762.79
498.85	36765.14
499.03	37237.92
499.20	37193.45
499.38	37397.08
499.56	37067.06
499.73	37336.23
499.91	37675.60
500.08	37867.53
500.26	37656.88
500.44	37972.85
500.61	38148.39
500.79	38019.66
500.97	38099.24
501.14	38817.78
501.32	39056.52
501.49	38670.33
501.67	38848.21
501.84	39423.98
502.02	38923.11
502.20	39611.23
502.37	39840.60
502.55	39585.48
502.72	39737.62
502.90	39945.92
503.07	39681.44
503.25	40474.88
503.43	39983.37
503.60	40498.29
503.78	40390.62
503.95	40655.11
504.13	40903.20
504.30	40797.88
504.48	40975.76
504.65	41048.32
504.83	41411.10
505.01	41792.61
505.18	41471.95
505.36	41490.68
505.53	41708.35
505.71	41853.46
505.88	41633.45
506.06	41811.33
506.23	42625.84
506.41	41989.21
506.58	42574.34
506.76	42351.99
506.93	43356.08
507.11	42738.18
507.28	42742.86
507.46	42930.11
507.63	43625.25
507.81	43463.75
507.98	43175.86
508.16	43653.33
508.33	43702.48
508.50	43739.93
508.68	43936.54
508.85	43807.81
509.03	43824.19
509.20	44327.41
509.38	44898.50
509.55	44732.32
509.73	44769.77
509.90	45031.91
510.08	44779.13
510.25	45031.91
510.42	45298.73
510.60	45244.90
510.77	45572.57
510.95	45736.41
511.12	45743.43
511.30	45460.23
511.47	45492.99
511.64	45862.80
511.82	46146.00
511.99	45907.27
512.17	46075.79
512.34	46019.61
512.51	46745.18
512.69	46532.19
512.86	46614.11
513.04	46995.62
513.21	46703.05
513.38	46574.32
513.56	47061.15
513.73	47370.10
513.90	47370.10
514.08	47061.15
514.25	47604.16
514.43	47360.74
514.60	48023.11
514.77	47547.98
514.95	47929.49
515.12	48147.16
515.29	47360.74
515.47	48191.63
515.64	48383.55
515.81	48657.40
515.99	48484.20
516.16	48736.98
516.33	48664.42
516.51	48758.04
516.68	48643.35
516.85	48549.73
517.03	49298.70
517.20	48893.79
517.37	48956.99
517.54	49139.55
517.72	49387.64
517.89	49233.17
518.06	49631.06
518.24	49291.68
518.41	49511.69
518.58	50171.72
518.75	49375.94
518.93	49872.14
519.10	49572.55
519.27	49942.35
519.45	49944.69
519.62	50443.23
519.79	50403.44
519.96	50527.48
520.14	50265.34
520.31	50459.61
520.48	50607.06
520.65	50358.97
520.83	50471.31
521.00	51000.27
521.17	51016.66
521.34	50923.04
521.52	51154.75
521.69	50981.55
521.86	51276.46
522.03	51344.33
522.20	51409.87
522.38	51625.20
522.55	51419.23
522.72	51611.15
522.89	51395.82
523.07	51777.33
523.24	51910.74
523.41	51779.67
523.58	51774.99
523.75	52294.59
523.92	51812.44
524.10	52353.10
524.27	52231.40
524.44	52027.77
524.61	52308.63
524.78	52416.30
524.96	52533.32
525.13	52523.96
525.30	52603.54
525.47	52786.10
525.64	52807.17
525.81	52891.43
525.98	53001.43
526.16	52949.94
526.33	52935.90
526.50	53577.20
526.67	53109.10
526.84	52790.78
527.01	53191.01
527.18	53396.98
527.36	53076.33
527.53	53380.60
527.70	53710.61
527.87	53511.67
528.04	53284.64
528.21	53722.32
528.38	53588.91
528.55	53602.95
528.72	53570.18
528.89	53645.08
529.07	53792.53
529.24	53752.74
529.41	53935.30
529.58	53895.52
529.75	53939.99
529.92	54071.06
530.09	54176.38
530.26	54281.70
530.43	54342.56
530.60	54101.48
530.77	54218.51
530.94	54417.46
531.11	54365.96
531.28	54405.75
531.46	54557.89
531.63	54611.72
531.80	54396.39
531.97	54700.66
532.14	54766.20
532.31	54740.45
532.48	54728.75
532.65	54609.38
532.82	54745.13
532.99	54801.30
533.16	54660.87
533.33	55056.42
533.50	55166.43
533.67	55119.62
533.84	54923.01
534.01	55044.72
534.18	55227.28
534.35	55405.16
534.52	55405.16
534.69	55463.67
534.86	55538.57
535.03	55110.25
535.20	55440.27
535.37	55374.73
535.54	55676.66
535.71	55573.68
535.88	55503.46
536.05	55723.47
536.22	55550.27
536.38	56004.34
536.55	55749.22
536.72	55854.54
536.89	55789.01
537.06	55955.19
537.23	56034.77
537.40	55655.60
537.57	55870.93
537.74	55931.78
537.91	56107.32
538.08	55969.23
538.25	55821.78
538.42	56072.21
538.59	56348.40
538.75	56062.85
538.92	56317.97
539.09	56577.77
539.26	56442.02
539.43	56364.78
539.60	56512.23
539.77	56273.50
539.94	56664.37
540.11	56355.42
540.28	56591.81
540.44	56666.71
540.61	56683.09
540.78	56456.06
540.95	56659.69
541.12	56685.43
541.29	56566.07
541.46	56718.20
541.62	56657.35
541.79	56786.08
541.96	56580.11
542.13	56772.03
542.30	57045.88
542.47	57059.92
542.63	57233.12
542.80	57233.12
542.97	57336.10
543.14	57420.36
543.31	57265.89
543.48	57338.44
543.64	57750.38
543.81	57560.79
543.98	57415.68
544.15	57371.21
544.32	57771.44
544.48	57832.30
544.65	57602.92
544.82	57516.32
544.99	57614.63
545.16	57499.94
545.32	57577.18
545.49	57848.68
545.66	58000.82
545.83	57820.59
546.00	57965.71
546.16	57755.06
546.33	57738.68
546.50	57455.47
546.67	57874.43
546.83	57542.07
547.00	58141.25
547.17	57883.79
547.34	57907.19
547.50	57909.53
547.67	58206.78
547.84	58251.25
548.00	58291.04
548.17	58480.63
548.34	58307.43
548.51	58436.16
548.67	58384.66
548.84	58251.25
549.01	58253.59
549.18	58316.79
549.34	58445.52
549.51	58506.37
549.68	58501.69
549.84	58492.33
550.01	58571.91
550.18	58305.09
550.34	58450.20
550.51	58801.28
550.68	58670.21
550.84	58438.50
551.01	58911.28
551.18	58859.79
551.34	58972.14
551.51	58768.51
551.68	58824.68
551.84	58794.26
552.01	58796.60
552.18	58841.07
552.34	58770.85
552.51	59068.10
552.68	58899.58
552.84	58890.22
553.01	59152.36
553.18	59014.27
553.34	59096.19
553.51	58880.86
553.67	59117.25
553.84	59135.98
554.01	59353.65
554.17	59250.66
554.34	59290.45
554.51	59187.47
554.67	59267.05
554.84	59182.79
555.00	59187.47
555.17	59147.68
555.33	59154.70
555.50	58948.73
555.67	59297.47
555.83	59157.04
556.00	59475.35
556.16	59503.44
556.33	59372.37
556.50	59545.57
556.66	59463.65
556.83	59243.64
556.99	59793.67
557.16	59660.26
557.32	59615.79
557.49	59721.11
557.65	59557.27
557.82	59547.91
557.98	59468.33
558.15	59671.96
558.32	59473.01
558.48	59341.94
558.65	59657.91
558.81	59573.66
558.98	59821.75
559.14	59849.84
559.31	59913.03
559.47	59669.62
559.64	60060.49
559.80	59964.52
559.97	60027.72
560.13	59512.80
560.30	59889.63
560.46	59702.38
560.63	60109.64
560.79	59903.67
560.96	60119.00
561.12	60196.24
561.29	59927.08
561.45	59952.82
561.61	60041.76
561.78	60161.13
561.94	59994.95
562.11	60090.91
562.27	59934.10
562.44	60193.90
562.60	60097.94
562.77	60310.92
562.93	60039.42
563.10	60097.94
563.26	59943.46
563.42	60374.12
563.59	60095.60
563.75	60299.22
563.92	60074.53
564.08	60238.37
564.24	60453.70
564.41	60350.71
564.57	60247.73
564.74	60348.37
564.90	60273.48
565.07	60322.63
565.23	60296.88
565.39	60186.88
565.56	60334.33
565.72	60343.69
565.88	60409.23
566.05	60306.24
566.21	60238.37
566.38	60299.22
566.54	60072.19
566.70	60514.55
566.87	60484.12
567.03	60163.47
567.19	60566.04
567.36	60509.87
567.52	60486.46
567.68	60779.03
567.85	60355.39
568.01	60657.32
568.17	60374.12
568.34	60467.74
568.50	60507.53
568.66	60336.67
568.83	60598.81
568.99	60484.12
569.15	60434.97
569.32	60528.59
569.48	60615.19
569.64	60790.73
569.81	60835.20
569.97	60411.57
570.13	60432.63
570.30	60568.38
570.46	60566.04
570.62	60767.33
570.78	60736.90
570.95	60636.26
571.11	60830.52
571.27	60760.31
571.43	60720.52
571.60	61057.56
571.76	60762.65
571.92	60722.86
572.09	60786.05
572.25	60734.56
572.41	60729.88
572.57	60720.52
572.74	60893.72
572.90	60781.37
573.06	60631.58
573.22	60924.14
573.38	60832.86
573.55	60743.92
573.71	60980.32
573.87	60816.48
574.03	60633.92
574.20	60807.12
574.36	60706.47
574.52	60580.09
574.68	60860.95
574.84	60926.49
575.01	60858.61
575.17	60727.54
575.33	60898.40
575.49	60788.39
575.65	61043.51
575.82	60884.36
575.98	60865.63
576.14	61116.07
576.30	61034.15
576.46	60823.50
576.62	60816.48
576.79	60858.61
576.95	60821.16
577.11	61095.00
577.27	61036.49
577.43	61076.28
577.59	61038.83
577.75	60945.21
577.92	60863.29
578.08	61031.81
578.24	61010.74
578.40	60933.51
578.56	61010.74
578.72	60933.51
578.88	60973.30
579.04	61254.16
579.21	60924.14
579.37	61195.65
579.53	61095.00
579.69	60776.69
579.85	60931.17
580.01	61151.18
580.17	60788.39
580.33	61048.19
580.49	61216.71
580.65	60956.91
580.82	60814.14
580.98	61052.87
581.14	60956.91
581.30	61242.46
581.46	61008.40
581.62	61048.19
581.78	61017.77
581.94	61181.60
582.10	61020.11
582.26	61116.07
582.42	61080.96
582.58	61141.81
582.74	61010.74
582.90	61078.62
583.06	61062.24
583.22	60851.59
583.38	61214.37
583.54	61284.59
583.70	61095.00
583.86	61279.91
584.02	61071.60
584.18	61305.65
584.34	61120.75
584.50	61368.85
584.66	61087.98
584.82	61034.15
584.98	61268.20
585.14	61270.54
585.30	61277.57
585.46	61249.48
585.62	61226.07
585.78	61242.46
585.94	60954.57
586.10	61174.58
586.26	61319.70
586.42	61293.95
586.58	61214.37
586.74	61256.50
586.90	61237.78
587.06	60961.59
587.22	61319.70
587.38	61235.44
587.54	61401.61
587.70	61429.70
587.86	61179.26
588.02	61277.57
588.18	61418.00
588.34	61230.75
588.49	61233.10
