SpectraSuite Data File
++++++++++++++++++++++++++++++++++++
Date: Fri Oct 25 10:47:46 EDT 2013
User: price-jones
Dark Spectrum Present: No
Reference Spectrum Present: No
Number of Sampled Component Spectra: 1
Spectrometers: USB2+H05261
Integration Time (usec): 100000 (USB2+H05261)
Spectra Averaged: 1 (USB2+H05261)
Boxcar Smoothing: 0 (USB2+H05261)
Correct for Electrical Dark: No (USB2+H05261)
Strobe/Lamp Enabled: No (USB2+H05261)
Correct for Detector Non-linearity: No (USB2+H05261)
Correct for Stray Light: No (USB2+H05261)
Number of Pixels in Processed Spectrum: 2048
>>>>>Begin Processed Spectral Data<<<<<
365.73	177.88
365.92	177.88
366.12	177.88
366.32	72.56
366.52	93.62
366.72	110.01
366.91	9.36
367.11	58.51
367.31	0.00
367.51	70.22
367.70	121.71
367.90	46.81
368.10	72.56
368.30	4.68
368.49	95.96
368.69	39.79
368.89	70.22
369.09	9.36
369.28	88.94
369.48	53.83
369.68	98.30
369.87	91.28
370.07	128.73
370.27	154.48
370.47	231.71
370.66	397.89
370.86	468.11
371.06	411.93
371.25	486.83
371.45	402.57
371.65	386.19
371.84	477.47
372.04	447.04
372.24	414.27
372.44	458.74
372.63	477.47
372.83	493.85
373.03	533.64
373.22	592.16
373.42	519.60
373.62	571.09
373.81	500.87
374.01	550.03
374.21	507.90
374.40	507.90
374.60	592.16
374.79	547.69
374.99	587.47
375.19	533.64
375.38	540.66
375.58	585.13
375.78	634.29
375.97	507.90
376.17	587.47
376.37	578.11
376.56	608.54
376.76	550.03
376.95	627.26
377.15	526.62
377.35	617.90
377.54	561.73
377.74	587.47
377.93	648.33
378.13	648.33
378.33	507.90
378.52	606.20
378.72	643.65
378.91	624.92
379.11	587.47
379.31	638.97
379.50	634.29
379.70	613.22
379.89	683.44
380.09	723.23
380.28	554.71
380.48	713.86
380.68	681.10
380.87	697.48
381.07	643.65
381.26	716.20
381.46	617.90
381.65	704.50
381.85	638.97
382.04	713.86
382.24	770.04
382.43	730.25
382.63	709.18
382.83	685.78
383.02	711.52
383.22	821.53
383.41	727.91
383.61	709.18
383.80	669.39
384.00	660.03
384.19	709.18
384.39	833.23
384.58	786.42
384.78	819.19
384.97	807.48
385.17	711.52
385.36	767.70
385.56	781.74
385.75	688.12
385.95	730.25
386.14	821.53
386.34	788.76
386.53	800.46
386.72	751.31
386.92	798.12
387.11	786.42
387.31	798.12
387.50	772.38
387.70	746.63
387.89	844.93
388.09	833.23
388.28	842.59
388.48	795.78
388.67	905.79
388.86	847.27
389.06	873.02
389.25	840.25
389.45	903.45
389.64	880.04
389.84	903.45
390.03	983.02
390.22	861.32
390.42	894.08
390.61	912.81
390.81	931.53
391.00	973.66
391.19	1022.81
391.39	894.08
391.58	922.17
391.78	929.19
391.97	978.34
392.16	968.98
392.36	997.07
392.55	1018.13
392.75	926.85
392.94	856.64
393.13	917.49
393.33	980.68
393.52	1001.75
393.71	990.05
393.91	1015.79
394.10	1004.09
394.29	1055.58
394.49	1086.01
394.68	1214.74
394.88	1114.10
395.07	1095.37
395.26	1139.84
395.46	1100.05
395.65	1160.91
395.84	1125.80
396.04	1212.40
396.23	1196.01
396.42	1111.75
396.62	1048.56
396.81	1156.22
397.00	1083.67
397.19	1151.54
397.39	1226.44
397.58	1121.12
397.77	1149.20
397.97	1207.72
398.16	1233.46
398.35	1373.89
398.55	1315.38
398.74	1341.13
398.93	1437.09
399.12	1254.53
399.32	1294.32
399.51	1261.55
399.70	1366.87
399.90	1401.98
400.09	1359.85
400.28	1441.77
400.47	1420.71
400.67	1453.47
400.86	1537.73
401.05	1460.49
401.24	1584.54
401.44	1530.71
401.63	1476.88
401.82	1490.92
402.01	1394.96
402.21	1511.99
402.40	1509.65
402.59	1526.03
402.78	1554.12
402.97	1586.88
403.17	1629.01
403.36	1614.97
403.55	1563.48
403.74	1584.54
403.93	1621.99
404.13	1638.38
404.32	1696.89
404.51	1713.27
404.70	1785.83
404.89	1769.44
405.09	1703.91
405.28	1706.25
405.47	1729.66
405.66	1820.94
405.85	1701.57
406.05	1664.12
406.24	1834.98
406.43	1781.15
406.62	1837.32
406.81	1928.60
407.00	1877.11
407.20	1825.62
407.39	1771.79
407.58	1919.24
407.77	1956.69
407.96	1877.11
408.15	1933.28
408.34	1982.43
408.54	1902.86
408.73	1956.69
408.92	1930.94
409.11	2054.99
409.30	1944.99
409.49	1994.14
409.68	2087.76
409.87	1954.35
410.07	2036.27
410.26	2143.93
410.45	2186.06
410.64	2167.34
410.83	2111.16
411.02	2244.57
411.21	2193.08
411.40	2237.55
411.59	2331.17
411.78	2260.96
411.98	2324.15
412.17	2342.88
412.36	2338.20
412.55	2354.58
412.74	2363.94
412.93	2469.27
413.12	2417.77
413.31	2544.16
413.50	2436.50
413.69	2504.37
413.88	2504.37
414.07	2581.61
414.26	2506.71
414.45	2630.76
414.64	2736.09
414.83	2665.87
415.02	2612.04
415.22	2787.58
415.41	2841.41
415.60	2799.28
415.79	2675.23
415.98	2883.54
416.17	2860.13
416.36	2883.54
416.55	2888.22
416.74	2708.00
416.93	2876.52
417.12	2911.63
417.31	2888.22
417.50	3002.91
417.69	3129.30
417.88	3066.10
418.07	2925.67
418.26	3056.74
418.45	3173.77
418.64	3141.00
418.83	3267.39
419.02	3007.59
419.21	3166.74
419.39	3169.09
419.58	3162.06
419.77	3232.28
419.96	3199.51
420.15	3386.76
420.34	3276.75
420.53	3239.30
420.72	3293.13
420.91	3300.16
421.10	3468.67
421.29	3414.84
421.48	3386.76
421.67	3475.70
421.86	3398.46
422.05	3541.23
422.24	3475.70
422.43	3449.95
422.61	3545.91
422.80	3599.74
422.99	3403.14
423.18	3557.61
423.37	3485.06
423.56	3496.76
423.75	3419.52
423.94	3543.57
424.13	3328.24
424.32	3342.28
424.50	3571.66
424.69	3641.87
424.88	3646.55
425.07	3424.20
425.26	3538.89
425.45	3599.74
425.64	3550.59
425.83	3487.40
426.01	3691.02
426.20	3538.89
426.39	3702.73
426.58	3576.34
426.77	3520.17
426.96	3562.30
427.15	3585.70
427.33	3805.71
427.52	3719.11
427.71	3665.28
427.90	3702.73
428.09	3838.48
428.28	3765.92
428.46	3878.27
428.65	3719.11
428.84	3880.61
429.03	3737.84
429.22	3705.07
429.40	3768.26
429.59	3625.49
429.78	3538.89
429.97	3672.30
430.16	3794.01
430.34	3868.91
430.53	3716.77
430.72	3985.93
430.91	4011.68
431.10	4058.49
431.28	4067.85
431.47	4112.32
431.66	4224.67
431.85	4016.36
432.03	4121.68
432.22	4173.18
432.41	4210.62
432.60	4173.18
432.79	4224.67
432.97	4360.42
433.16	4248.07
433.35	4102.96
433.54	4348.72
433.72	4236.37
433.91	4320.63
434.10	4306.59
434.28	4301.90
434.47	4325.31
434.66	4461.06
434.85	4472.76
435.03	4414.25
435.22	4432.97
435.41	4545.32
435.59	4585.11
435.78	4465.74
435.97	4622.56
436.16	4402.55
436.34	4566.39
436.53	4695.11
436.72	4660.01
436.90	4587.45
437.09	4629.58
437.28	4491.49
437.46	4643.62
437.65	4758.31
437.84	4842.57
438.02	4697.46
438.21	4699.80
438.40	4688.09
438.58	4903.42
438.77	4908.10
438.96	4690.43
439.14	4999.38
439.33	5095.35
439.52	5100.03
439.70	4971.30
439.89	5067.26
440.08	5203.01
440.26	5226.42
440.45	5198.33
440.63	5331.74
440.82	5401.96
441.01	5207.69
441.19	5444.09
441.38	5568.13
441.57	5472.17
441.75	5495.58
441.94	5516.64
442.12	5493.24
442.31	5596.22
442.50	5746.02
442.68	5591.54
442.87	5673.46
443.05	5652.39
443.24	5790.49
443.43	5738.99
443.61	5722.61
443.80	5846.66
443.98	5708.57
444.17	5755.38
444.35	5795.17
444.54	5987.09
444.73	5923.90
444.91	5898.15
445.10	5893.47
445.28	5799.85
445.47	5753.04
445.65	5790.49
445.84	5907.51
446.02	6050.28
446.21	5748.36
446.39	5921.56
446.58	5916.87
446.77	5975.39
446.95	5921.56
447.14	5970.71
447.32	6136.88
447.51	5954.32
447.69	5905.17
447.88	5933.26
448.06	6090.07
448.25	5933.26
448.43	5776.44
448.62	6113.48
448.80	6022.20
448.99	5996.45
449.17	6171.99
449.36	6045.60
449.54	6303.06
449.73	6249.23
449.91	6171.99
450.10	6279.66
450.28	6345.19
450.46	6368.60
450.65	6387.32
450.83	6417.75
451.02	6396.68
451.20	6452.86
451.39	6422.43
451.57	6174.33
451.76	6312.42
451.94	6623.72
452.13	6544.14
452.31	6530.09
452.49	6504.35
452.68	6485.62
452.86	6633.08
453.05	6810.96
453.23	6586.27
453.42	6431.79
453.60	6558.18
453.78	6761.81
453.97	6492.65
454.15	6619.04
454.34	6600.31
454.52	6705.63
454.70	6752.45
454.89	6757.13
455.07	6799.26
455.26	6782.87
455.44	6883.52
455.62	6825.00
455.81	7002.88
455.99	6913.94
456.17	7042.67
456.36	7098.84
456.54	7119.91
456.73	7052.03
456.91	7449.93
457.09	7424.18
457.28	7489.71
457.46	7150.34
457.64	7335.24
457.83	7225.23
458.01	7290.77
458.19	7506.10
458.38	7426.52
458.56	7307.15
458.74	7360.98
458.93	7421.84
459.11	7377.37
459.29	7463.97
459.48	7592.70
459.66	7492.05
459.84	7428.86
460.03	7868.88
460.21	7641.85
460.39	7676.96
460.57	7573.97
460.76	7763.56
460.94	7831.43
461.12	7737.81
461.31	7749.51
461.49	7850.16
461.67	7819.73
461.85	7784.62
462.04	8037.40
462.22	8287.84
462.40	7985.91
462.59	7737.81
462.77	8044.42
462.95	8070.17
463.13	8124.00
463.32	7967.18
463.50	8013.99
463.68	8173.15
463.86	8170.81
464.05	7887.61
464.23	7936.76
464.41	8175.49
464.59	8009.31
464.78	8294.86
464.96	8259.75
465.14	8217.62
465.32	8217.62
465.50	8271.45
465.69	8344.01
465.87	8217.62
466.05	8322.94
466.23	8269.11
466.41	8444.65
466.60	8367.42
466.78	8332.31
466.96	8444.65
467.14	8526.57
467.32	8468.06
467.51	8545.30
467.69	8418.91
467.87	8582.74
468.05	8575.72
468.23	8564.02
468.41	8573.38
468.60	8657.64
468.78	8828.50
468.96	8552.32
469.14	8718.50
469.32	8987.66
469.50	8657.64
469.69	8594.45
469.87	8882.33
470.05	8814.46
470.23	8847.22
470.41	8856.59
470.59	9092.98
470.77	8844.88
470.95	9067.24
471.14	9184.26
471.32	8992.34
471.50	9268.52
471.68	9160.86
471.86	9322.35
472.04	9263.84
472.22	9577.47
472.40	9242.78
472.58	9490.87
472.77	9476.83
472.95	9643.01
473.13	9621.94
473.31	9378.53
473.49	9542.36
473.67	9699.18
473.85	9635.99
474.03	9893.44
474.21	9832.59
474.39	9841.95
474.57	9914.51
474.75	10153.24
474.93	10090.05
475.12	10031.54
475.30	9949.62
475.48	10270.27
475.66	10338.15
475.84	10228.14
476.02	10298.36
476.20	10448.15
476.38	10597.95
476.56	10874.13
476.74	10506.66
476.92	10614.33
477.10	10829.66
477.28	11019.24
477.46	10876.47
477.64	11094.14
477.82	11087.12
478.00	11255.64
478.18	11250.96
478.36	11421.81
478.54	11541.18
478.72	11587.99
478.90	11637.14
479.08	11800.98
479.26	12051.42
479.44	11721.40
479.62	11992.90
479.80	12259.73
479.98	12196.53
480.16	12184.83
480.34	12290.15
480.52	12512.50
480.70	12507.82
480.88	12259.73
481.06	12540.59
481.24	12561.66
481.41	12800.39
481.59	12968.91
481.77	13001.68
481.95	13081.25
482.13	13352.76
482.31	13205.30
482.49	13476.80
482.67	13392.55
482.85	13635.96
483.03	13703.84
483.21	13944.91
483.39	14022.15
483.57	13914.48
483.74	14059.60
483.92	14120.45
484.10	13965.98
484.28	14406.00
484.46	14904.53
484.64	14686.86
484.82	14417.70
485.00	14710.27
485.18	14927.94
485.35	14958.36
485.53	15115.18
485.71	15147.95
485.89	15159.65
486.07	15136.24
486.25	15419.45
486.43	15484.98
486.61	15470.94
486.78	15885.22
486.96	15772.87
487.14	16177.78
487.32	16313.53
487.50	16458.65
487.68	16692.70
487.85	16816.75
488.03	17153.79
488.21	16858.88
488.39	16837.81
488.57	16961.86
488.75	16992.29
488.92	17664.02
489.10	17462.74
489.28	17467.42
489.46	18024.47
489.64	17879.35
489.81	18515.98
489.99	18485.55
490.17	18574.49
490.35	18590.88
490.53	18506.62
490.70	18871.74
490.88	18892.80
491.06	18878.76
491.24	18934.93
491.41	19136.22
491.59	19119.84
491.77	19154.94
491.95	19419.42
492.13	19618.37
492.30	19672.20
492.48	19847.74
492.66	19901.58
492.84	19924.98
493.01	20109.88
493.19	20034.99
493.37	20542.88
493.54	20336.91
493.72	20730.12
493.90	20439.90
494.08	21165.46
494.25	21083.55
494.43	21242.70
494.61	21319.94
494.79	21352.71
494.96	21336.32
495.14	21642.93
495.32	21738.90
495.49	21582.08
495.67	21954.22
495.85	21940.18
496.02	22195.30
496.20	22267.86
496.38	22473.82
496.55	22487.87
496.73	22958.31
496.91	22785.12
497.09	22995.76
497.26	22918.53
497.44	23077.68
497.62	23157.26
497.79	23225.14
497.97	23136.20
498.14	23707.29
498.32	23573.88
498.50	23784.52
498.67	23922.62
498.85	24016.24
499.03	23922.62
499.20	24161.35
499.38	24285.40
499.56	24311.14
499.73	24318.17
499.91	24526.47
500.08	24673.93
500.26	24484.34
500.44	24886.92
500.61	25127.99
500.79	24912.66
500.97	24655.20
501.14	25296.51
501.32	24982.88
501.49	24833.08
501.67	25296.51
501.84	25158.42
502.02	25230.98
502.20	25883.98
502.37	25853.56
502.55	25497.80
502.72	25865.26
502.90	25881.64
503.07	26096.97
503.25	26036.12
503.43	25848.88
503.60	26473.80
503.78	25944.84
503.95	26183.57
504.13	26546.36
504.30	26555.72
504.48	26670.40
504.65	26544.02
504.83	27028.51
505.01	27068.30
505.18	26492.52
505.36	27154.90
505.53	27201.71
505.71	27625.34
505.88	27435.76
506.06	27278.94
506.23	27520.02
506.41	27304.69
506.58	27580.87
506.76	27285.97
506.93	27562.15
507.11	27913.23
507.28	27978.76
507.46	27655.77
507.63	27885.14
507.81	28236.22
507.98	27913.23
508.16	28140.26
508.33	28458.57
508.50	28371.97
508.68	28608.37
508.85	28720.71
509.03	28720.71
509.20	28463.25
509.38	28851.78
509.55	29263.72
509.73	28774.55
509.90	29076.48
510.08	28739.44
510.25	29207.55
510.42	29521.18
510.60	29111.58
510.77	29397.13
510.95	29802.04
511.12	29415.85
511.30	29883.96
511.47	29633.52
511.64	30249.08
511.82	30080.56
511.99	29879.28
512.17	30139.08
512.34	30134.40
512.51	30008.01
512.69	30094.61
512.86	30600.16
513.04	30433.99
513.21	30398.88
513.38	30567.40
513.56	30483.14
513.73	30740.60
513.90	30745.28
514.08	30717.19
514.25	31335.09
514.43	31009.76
514.60	30843.58
514.77	30934.86
514.95	31234.45
515.12	31035.50
515.29	31353.82
515.47	31641.70
515.64	31592.55
515.81	31363.18
515.99	31777.45
516.16	31267.22
516.33	31735.32
516.51	31718.94
516.68	31644.04
516.85	31669.79
517.03	31997.46
517.20	31821.92
517.37	32025.55
517.54	32215.13
517.72	32044.27
517.89	32474.93
518.06	31967.04
518.24	32144.92
518.41	32486.64
518.58	32271.31
518.75	32013.85
518.93	33020.28
519.10	32863.46
519.27	32856.44
519.45	33163.05
519.62	33034.32
519.79	33305.82
519.96	33144.33
520.14	33617.11
520.31	32842.40
520.48	33455.62
520.65	33216.88
520.83	33354.97
521.00	33790.31
521.17	33553.92
521.34	33731.80
521.52	33741.16
521.69	33546.90
521.86	34068.84
522.03	34110.97
522.20	33895.64
522.38	34157.78
522.55	34415.24
522.72	33968.19
522.89	34345.02
523.07	34349.70
523.24	34059.48
523.41	34382.47
523.58	34415.24
523.75	35093.99
523.92	34878.66
524.10	34831.85
524.27	34731.21
524.44	34829.51
524.61	34855.26
524.78	35138.46
524.96	35515.29
525.13	35297.62
525.30	34864.62
525.47	35538.69
525.64	35601.89
525.81	35384.22
525.98	35374.86
526.16	35367.84
526.33	34888.03
526.50	35358.47
526.67	35285.92
526.84	35393.58
527.01	35096.33
527.18	35690.83
527.36	35849.99
527.53	35892.12
527.70	35952.97
527.87	36402.35
528.04	35845.30
528.21	36182.34
528.38	36067.66
528.55	36547.47
528.72	36720.66
528.89	36727.69
529.07	36339.16
529.24	36505.34
529.41	36285.33
529.58	36423.42
529.75	36584.91
529.92	36687.90
530.09	36636.41
530.26	37338.57
530.43	37064.72
530.60	36442.14
530.77	37067.06
530.94	37301.12
531.11	36879.82
531.28	37205.16
531.46	37273.03
531.63	36980.46
531.80	36872.80
531.97	37139.62
532.14	37385.38
532.31	37310.48
532.48	36928.97
532.65	37642.84
532.82	37347.93
532.99	37612.41
533.16	36985.15
533.33	37574.96
533.50	37944.76
533.67	37949.45
533.84	37759.86
534.01	37574.96
534.18	38150.73
534.35	38260.74
534.52	37996.26
534.69	38267.76
534.86	38361.38
535.03	37729.44
535.20	38485.43
535.37	38576.71
535.54	38588.41
535.71	38279.46
535.88	38197.54
536.05	38113.28
536.22	38635.22
536.38	38644.59
536.55	38455.00
536.72	38541.60
536.89	38387.13
537.06	38539.26
537.23	38604.80
537.40	38705.44
537.57	38686.71
537.74	38480.75
537.91	38993.32
538.08	38965.24
538.25	38532.24
538.42	38787.36
538.59	39519.95
538.75	38974.60
538.92	38836.51
539.09	39700.17
539.26	39227.38
539.43	39122.05
539.60	39089.29
539.77	39089.29
539.94	39250.78
540.11	38913.75
540.28	39271.85
540.44	39407.60
540.61	39489.52
540.78	39388.88
540.95	39526.97
541.12	39526.97
541.29	39587.82
541.46	39878.05
541.62	39751.66
541.79	39943.58
541.96	39601.86
542.13	39487.18
542.30	39669.74
542.47	40002.10
542.63	40025.50
542.80	39723.57
542.97	39910.82
543.14	40914.90
543.31	40201.04
543.48	40369.56
543.64	40781.49
543.81	40673.83
543.98	40521.69
544.15	40306.37
544.32	40999.16
544.48	40858.73
544.65	40832.99
544.82	40781.49
544.99	40126.14
545.16	41055.34
545.32	40863.41
545.49	41488.34
545.66	41275.35
545.83	40896.18
546.00	41001.50
546.16	40987.46
546.33	41099.81
546.50	40769.79
546.67	41532.81
546.83	40697.24
547.00	41071.72
547.17	41523.44
547.34	41155.98
547.50	41017.89
547.67	41462.59
547.84	40898.52
548.00	41464.93
548.17	41488.34
548.34	41748.14
548.51	41570.25
548.67	41834.74
548.84	41635.79
549.01	41425.14
549.18	41846.44
549.34	41710.69
549.51	41523.44
549.68	42040.70
549.84	41425.14
550.01	42017.30
550.18	41436.84
550.34	41731.75
550.51	41860.48
550.68	41427.48
550.84	41954.10
551.01	42010.28
551.18	41986.87
551.34	42047.72
551.51	42368.38
551.68	42038.36
551.84	42260.71
552.01	42078.15
552.18	42602.43
552.34	42239.65
552.51	42487.74
552.68	42574.34
552.84	42628.18
553.01	42799.04
553.18	42220.92
553.34	42286.46
553.51	42220.92
553.67	42658.60
553.84	42459.66
554.01	42614.13
554.17	42761.59
554.34	43377.15
554.51	42398.80
554.67	43007.34
554.84	42782.65
555.00	42759.25
555.17	42328.59
555.33	42689.03
555.50	42656.26
555.67	42749.88
555.83	43122.03
556.00	42799.04
556.16	43344.38
556.33	42923.08
556.50	42883.30
556.66	42911.38
556.83	42663.28
556.99	42890.32
557.16	42887.98
557.32	42691.37
557.49	43442.68
557.65	42712.44
557.82	42630.52
557.98	42904.36
558.15	42810.74
558.32	43641.63
558.48	43028.41
558.65	43129.05
558.81	43367.79
558.98	43533.96
559.14	43519.92
559.31	43346.72
559.47	43676.74
559.64	43634.61
559.80	43739.93
559.97	43480.13
560.13	43220.33
560.30	43634.61
560.46	43660.35
560.63	43236.72
560.79	43807.81
560.96	43557.37
561.12	43372.47
561.29	43475.45
561.45	43494.18
561.61	43620.56
561.78	43800.79
561.94	43466.09
562.11	43517.58
562.27	43690.78
562.44	43936.54
562.60	43730.57
562.77	43714.19
562.93	43669.72
563.10	43948.24
563.26	43704.82
563.42	43789.08
563.59	43676.74
563.75	44013.77
563.92	43875.68
564.08	43934.20
564.24	44079.31
564.41	44116.76
564.57	43665.03
564.74	43838.23
564.90	44336.77
565.07	44027.82
565.23	44048.88
565.39	44245.49
565.56	43796.10
565.72	44217.40
565.88	44083.99
566.05	43723.55
566.21	43896.75
566.38	43988.03
566.54	43798.44
566.70	44034.84
566.87	44067.61
567.03	43920.15
567.19	44353.15
567.36	43573.75
567.52	44130.80
567.68	44280.60
567.85	43971.64
568.01	44172.93
568.17	44261.87
568.34	44273.57
568.50	44252.51
568.66	43856.96
568.83	44168.25
568.99	43840.57
569.15	44006.75
569.32	43880.36
569.48	43896.75
569.64	44465.50
569.81	44252.51
569.97	44341.45
570.13	43913.13
570.30	43948.24
570.46	44184.63
570.62	44308.68
570.78	44245.49
570.95	43957.60
571.11	44659.76
571.27	44278.25
571.43	44151.87
571.60	44194.00
571.76	44346.13
571.92	44339.11
572.09	44257.19
572.25	43929.51
572.41	44399.96
572.57	44945.31
572.74	45088.08
572.90	44341.45
573.06	44524.01
573.22	44711.25
573.38	44505.29
573.55	44051.22
573.71	44397.62
573.87	44240.81
574.03	44257.19
574.20	44418.69
574.36	44215.06
574.52	44179.95
574.68	44402.30
574.84	45212.13
575.01	44652.74
575.17	44421.03
575.33	44179.95
575.49	43990.37
575.65	44907.86
575.82	44444.43
575.98	44385.92
576.14	44893.82
576.30	44512.31
576.46	44449.11
576.62	44437.41
576.79	44411.67
576.95	44072.29
577.11	44264.21
577.27	44421.03
577.43	44472.52
577.59	44266.55
577.75	44126.12
577.92	44432.73
578.08	44540.39
578.24	44329.75
578.40	43931.86
578.56	44470.18
578.72	44481.88
578.88	44926.58
579.04	44491.24
579.21	44524.01
579.37	44140.16
579.53	44488.90
579.69	44811.90
579.85	44577.84
580.01	44626.99
580.17	44669.12
580.33	45029.57
580.49	44732.32
580.65	44809.56
580.82	44587.21
580.98	44360.17
581.14	44514.65
581.30	44561.46
581.46	44273.57
581.62	44481.88
581.78	44449.11
581.94	45116.17
582.10	44343.79
582.26	44847.00
582.42	44816.58
582.58	44678.49
582.74	44645.72
582.90	44734.66
583.06	44999.14
583.22	44563.80
583.38	45020.20
583.54	45090.42
583.70	44477.20
583.86	44793.17
584.02	44191.65
584.18	44573.16
584.34	44552.10
584.50	44521.67
584.66	44854.03
584.82	44631.68
584.98	44304.00
585.14	44495.92
585.30	44545.08
585.46	44919.56
585.62	44521.67
585.78	44790.83
585.94	44626.99
586.10	44587.21
586.26	44561.46
586.42	45074.04
586.58	44957.01
586.74	44521.67
586.90	44378.90
587.06	44495.92
587.22	44786.15
587.38	44603.59
587.54	45633.42
587.70	44837.64
587.86	45059.99
588.02	44854.03
588.18	45092.76
588.34	44938.29
588.49	44376.56
588.65	44737.00
588.81	43966.96
588.97	44449.11
589.13	44376.56
589.29	44554.44
589.45	44879.77
589.61	44781.47
589.77	44980.42
589.93	45010.84
590.08	45067.02
590.24	44889.13
