SpectraSuite Data File
++++++++++++++++++++++++++++++++++++
Date: Fri Oct 25 10:44:06 EDT 2013
User: price-jones
Dark Spectrum Present: No
Reference Spectrum Present: No
Number of Sampled Component Spectra: 1
Spectrometers: USB2+H05261
Integration Time (usec): 100000 (USB2+H05261)
Spectra Averaged: 1 (USB2+H05261)
Boxcar Smoothing: 0 (USB2+H05261)
Correct for Electrical Dark: No (USB2+H05261)
Strobe/Lamp Enabled: No (USB2+H05261)
Correct for Detector Non-linearity: No (USB2+H05261)
Correct for Stray Light: No (USB2+H05261)
Number of Pixels in Processed Spectrum: 2048
>>>>>Begin Processed Spectral Data<<<<<
365.73	114.69
365.92	114.69
366.12	114.69
366.32	42.13
366.52	0.00
366.72	16.38
366.91	72.56
367.11	0.00
367.31	0.00
367.51	21.06
367.70	0.00
367.90	4.68
368.10	0.00
368.30	0.00
368.49	16.38
368.69	16.38
368.89	46.81
369.09	88.94
369.28	81.92
369.48	133.41
369.68	119.37
369.87	70.22
370.07	0.00
370.27	159.16
370.47	238.73
370.66	430.66
370.86	320.65
371.06	433.00
371.25	531.30
371.45	468.11
371.65	458.74
371.84	341.72
372.04	456.40
372.24	472.79
372.44	437.68
372.63	442.36
372.83	512.58
373.03	521.94
373.22	587.47
373.42	507.90
373.62	489.17
373.81	465.77
374.01	589.82
374.21	601.52
374.40	573.43
374.60	629.60
374.79	596.84
374.99	603.86
375.19	589.82
375.38	664.71
375.58	617.90
375.78	589.82
375.97	575.77
376.17	634.29
376.37	540.66
376.56	582.79
376.76	571.09
376.95	568.75
377.15	613.22
377.35	648.33
377.54	655.35
377.74	685.78
377.93	662.37
378.13	683.44
378.33	671.73
378.52	664.71
378.72	653.01
378.91	667.05
379.11	592.16
379.31	608.54
379.50	617.90
379.70	697.48
379.89	674.07
380.09	734.93
380.28	711.52
380.48	723.23
380.68	748.97
380.87	709.18
381.07	725.57
381.26	725.57
381.46	702.16
381.65	755.99
381.85	685.78
382.04	634.29
382.24	636.63
382.43	678.76
382.63	688.12
382.83	730.25
383.02	744.29
383.22	730.25
383.41	734.93
383.61	753.65
383.80	744.29
384.00	814.51
384.19	821.53
384.39	786.42
384.58	772.38
384.78	744.29
384.97	760.67
385.17	828.55
385.36	798.12
385.56	858.98
385.75	779.40
385.95	842.59
386.14	868.34
386.34	819.19
386.53	840.25
386.72	753.65
386.92	931.53
387.11	854.30
387.31	931.53
387.50	912.81
387.70	833.23
387.89	915.15
388.09	894.08
388.28	985.37
388.48	891.74
388.67	964.30
388.86	905.79
389.06	929.19
389.25	954.94
389.45	966.64
389.64	971.32
389.84	971.32
390.03	1053.24
390.22	1053.24
390.42	1048.56
390.61	1018.13
390.81	1004.09
391.00	1062.60
391.19	1076.65
391.39	1006.43
391.58	1123.46
391.78	1067.28
391.97	1137.50
392.16	1034.52
392.36	997.07
392.55	1064.94
392.75	1114.10
392.94	990.05
393.13	1034.52
393.33	1081.33
393.52	1111.75
393.71	1076.65
393.91	1060.26
394.10	1060.26
394.29	1142.18
394.49	1196.01
394.68	1252.19
394.88	1261.55
395.07	1219.42
395.26	1263.89
395.46	1160.91
395.65	1315.38
395.84	1235.80
396.04	1256.87
396.23	1303.68
396.42	1174.95
396.62	1212.40
396.81	1167.93
397.00	1284.95
397.19	1266.23
397.39	1256.87
397.58	1413.68
397.77	1397.30
397.97	1315.38
398.16	1409.00
398.35	1378.58
398.55	1467.52
398.74	1509.65
398.93	1495.60
399.12	1502.62
399.32	1526.03
399.51	1535.39
399.70	1603.27
399.90	1497.94
400.09	1547.09
400.28	1612.63
400.47	1675.82
400.67	1724.97
400.86	1675.82
401.05	1652.42
401.24	1703.91
401.44	1710.93
401.63	1748.38
401.82	1739.02
402.01	1666.46
402.21	1832.64
402.40	1802.21
402.59	1593.90
402.78	1710.93
402.97	1636.03
403.17	1881.79
403.36	1809.23
403.55	1952.01
403.74	1914.56
403.93	1898.17
404.13	1874.77
404.32	1952.01
404.51	1928.60
404.70	1919.24
404.89	2012.86
405.09	1998.82
405.28	2064.35
405.47	1905.20
405.66	2031.58
405.85	1944.99
406.05	1977.75
406.24	1895.83
406.43	1961.37
406.62	2012.86
406.81	2146.27
407.00	2001.16
407.20	1933.28
407.39	2092.44
407.58	2150.95
407.77	2172.02
407.96	2232.87
408.15	2317.13
408.34	2228.19
408.54	2282.02
408.73	2242.23
408.92	2235.21
409.11	2394.37
409.30	2359.26
409.49	2134.57
409.68	2298.41
409.87	2345.22
410.07	2293.72
410.26	2366.28
410.45	2448.20
410.64	2459.90
410.83	2455.22
411.02	2455.22
411.21	2614.38
411.40	2712.68
411.59	2689.28
411.78	2696.30
411.98	2579.27
412.17	2703.32
412.36	2558.21
412.55	2761.83
412.74	2792.26
412.93	2668.21
413.12	2684.59
413.31	2757.15
413.50	2944.39
413.69	2911.63
413.88	2780.56
414.07	2796.94
414.26	2897.58
414.45	3028.65
414.64	3063.76
414.83	3089.51
415.02	3052.06
415.22	3148.02
415.41	3152.70
415.60	3131.64
415.79	3328.24
415.98	3164.40
416.17	3283.77
416.36	3262.71
416.55	3318.88
416.74	3281.43
416.93	3267.39
417.12	3377.39
417.31	3255.69
417.50	3318.88
417.69	3471.01
417.88	3480.38
418.07	3424.20
418.26	3440.59
418.45	3468.67
418.64	3478.04
418.83	3468.67
419.02	3503.78
419.21	3569.32
419.39	3487.40
419.58	3510.80
419.77	3630.17
419.96	3550.59
420.15	3630.17
420.34	3641.87
420.53	3728.47
420.72	3908.69
420.91	3777.62
421.10	3859.54
421.29	3901.67
421.48	3829.12
421.67	3794.01
421.86	3906.35
422.05	3868.91
422.24	3934.44
422.43	3880.61
422.61	3992.95
422.80	3918.06
422.99	3969.55
423.18	3880.61
423.37	3936.78
423.56	3808.05
423.75	3974.23
423.94	3852.52
424.13	3747.20
424.32	3840.82
424.50	3948.48
424.69	4044.45
424.88	4081.89
425.07	3990.61
425.26	4023.38
425.45	3885.29
425.64	3866.56
425.83	3955.51
426.01	4219.99
426.20	4021.04
426.39	4154.45
426.58	3878.27
426.77	3904.01
426.96	3997.64
427.15	3899.33
427.33	4084.23
427.52	4128.70
427.71	4175.52
427.90	4154.45
428.09	4198.92
428.28	4156.79
428.46	4252.75
428.65	4117.00
428.84	4315.95
429.03	4306.59
429.22	4189.56
429.40	4117.00
429.59	4166.15
429.78	4009.34
429.97	3927.42
430.16	4072.53
430.34	4278.50
430.53	4355.74
430.72	4107.64
430.91	4128.70
431.10	4306.59
431.28	4542.98
431.47	4695.11
431.66	4573.41
431.85	4542.98
432.03	4589.79
432.22	4732.56
432.41	4571.07
432.60	4692.77
432.79	4685.75
432.97	4760.65
433.16	4751.29
433.35	4652.98
433.54	4638.94
433.72	4559.36
433.91	4627.24
434.10	4802.78
434.28	4706.82
434.47	4868.31
434.66	4915.12
434.85	4997.04
435.03	4887.04
435.22	4830.87
435.41	5121.09
435.59	5100.03
435.78	5139.82
435.97	5060.24
436.16	5144.50
436.34	5050.88
436.53	5163.22
436.72	5266.21
436.90	5008.75
437.09	5210.03
437.28	5100.03
437.46	5261.52
437.65	5203.01
437.84	5135.14
438.02	5153.86
438.21	5214.71
438.40	5149.18
438.58	5334.08
438.77	5420.68
438.96	5537.71
439.14	5446.43
439.33	5603.24
439.52	5666.44
439.70	5607.92
439.89	5628.99
440.08	5631.33
440.26	5708.57
440.45	5692.18
440.63	5919.21
440.82	6076.03
441.01	5914.53
441.19	5975.39
441.38	6249.23
441.57	6200.08
441.75	6141.57
441.94	6286.68
442.12	6321.79
442.31	6251.57
442.50	6377.96
442.68	6480.94
442.87	6310.08
443.05	6427.11
443.24	6675.21
443.43	6504.35
443.61	6537.12
443.80	6766.49
443.98	6455.20
444.17	6359.24
444.35	6478.60
444.54	6658.82
444.73	6619.04
444.91	6555.84
445.10	6525.41
445.28	6544.14
445.47	6303.06
445.65	6459.88
445.84	6628.40
446.02	6663.51
446.21	6738.40
446.39	6705.63
446.58	6722.02
446.77	6626.06
446.95	6773.51
447.14	6607.33
447.32	6633.08
447.51	6771.17
447.69	6698.61
447.88	6867.13
448.06	6712.66
448.25	6684.57
448.43	6904.58
448.62	6918.62
448.80	6848.41
448.99	6827.34
449.17	6946.71
449.36	6719.68
449.54	7061.40
449.73	7073.10
449.91	7218.21
450.10	7229.91
450.28	7211.19
450.46	7248.64
450.65	7435.88
450.83	7265.02
451.02	7372.69
451.20	7325.88
451.39	7300.13
451.57	7185.44
451.76	7159.70
451.94	7349.28
452.13	7342.26
452.31	7204.17
452.49	7045.01
452.68	7325.88
452.86	7288.43
453.05	7396.09
453.23	7377.37
453.42	7272.04
453.60	7398.43
453.78	7585.68
453.97	7335.24
454.15	7248.64
454.34	7407.80
454.52	7604.40
454.70	7602.06
454.89	7480.35
455.07	7520.14
455.26	7573.97
455.44	7857.18
455.62	7815.05
455.81	7592.70
455.99	7868.88
456.17	7784.62
456.36	8013.99
456.54	8032.72
456.73	8234.00
456.91	8166.13
457.09	7899.31
457.28	8262.09
457.46	8257.41
457.64	8301.88
457.83	8081.87
458.01	8138.04
458.19	8411.89
458.38	8161.45
458.56	8234.00
458.74	8236.35
458.93	8255.07
459.11	8287.84
459.29	8358.05
459.48	8292.52
459.66	8390.82
459.84	8423.59
460.03	8437.63
460.21	8624.87
460.39	8540.61
460.57	8627.21
460.76	8528.91
460.94	8608.49
461.12	8613.17
461.31	8774.67
461.49	8643.60
461.67	8641.26
461.85	8854.25
462.04	8718.50
462.22	9245.12
462.40	9036.81
462.59	8819.14
462.77	9048.51
462.95	8910.42
463.13	8887.01
463.32	9076.60
463.50	9053.19
463.68	8917.44
463.86	9046.17
464.05	9039.15
464.23	8905.74
464.41	8999.36
464.59	8898.72
464.78	9153.84
464.96	9135.11
465.14	9006.38
465.32	9296.61
465.50	9547.05
465.69	9373.85
465.87	9076.60
466.05	9338.74
466.23	9240.44
466.41	9247.46
466.60	9383.21
466.78	9291.93
466.96	9310.65
467.14	9383.21
467.32	9432.36
467.51	9652.37
467.69	9125.75
467.87	9434.70
468.05	9525.98
468.23	9586.83
468.41	9558.75
468.60	9729.61
468.78	9612.58
468.96	9551.73
469.14	9797.48
469.32	9816.21
469.50	9685.14
469.69	9834.93
469.87	9783.44
470.05	9865.36
470.23	9989.41
470.41	9736.63
470.59	9954.30
470.77	10026.86
470.95	10083.03
471.14	10244.52
471.32	10001.11
471.50	10544.11
471.68	10342.83
471.86	10338.15
472.04	10534.75
472.22	10504.32
472.40	10204.74
472.58	10721.99
472.77	10504.32
472.95	10640.08
473.13	10993.50
473.31	10558.16
473.49	10471.56
473.67	10686.89
473.85	10768.80
474.03	10977.11
474.21	11180.74
474.39	11061.37
474.57	11199.46
474.75	11197.12
474.93	11300.11
475.12	11108.18
475.30	11517.78
475.48	11377.34
475.66	11454.58
475.84	11225.21
476.02	11480.33
476.20	11550.54
476.38	11630.12
476.56	12037.38
476.74	11880.56
476.92	11810.34
477.10	11976.52
477.28	12163.76
477.46	12035.03
477.64	12285.47
477.82	12395.48
478.00	12821.45
478.18	12800.39
478.36	12601.44
478.54	12910.40
478.72	12910.40
478.90	13001.68
479.08	13015.72
479.26	13284.88
479.44	13542.34
479.62	13383.18
479.80	13612.56
479.98	13549.36
480.16	13584.47
480.34	13551.70
480.52	13907.46
480.70	13809.16
480.88	13813.84
481.06	13987.04
481.24	14057.26
481.41	14431.74
481.59	14497.28
481.77	14398.98
481.95	14501.96
482.13	14647.07
482.31	14487.92
482.49	15021.56
482.67	15103.48
482.85	15126.88
483.03	15164.33
483.21	15374.98
483.39	15651.16
483.57	15393.70
483.74	15686.27
483.92	15789.25
484.10	15529.45
484.28	15917.98
484.46	16278.43
484.64	16561.63
484.82	16334.60
485.00	16493.76
485.18	16830.79
485.35	16636.53
485.53	16547.59
485.71	16128.63
485.89	16842.50
486.07	16563.97
486.25	16851.86
486.43	16999.31
486.61	17055.48
486.78	17256.77
486.96	17701.47
487.14	17855.95
487.32	17694.45
487.50	17909.78
487.68	18267.88
487.85	18506.62
488.03	18642.37
488.21	18480.87
488.39	18799.18
488.57	18768.76
488.75	18831.95
488.92	19021.53
489.10	19087.07
489.28	19440.49
489.46	19637.09
489.64	19896.89
489.81	20526.50
489.99	20093.50
490.17	20243.29
490.35	20556.93
490.53	20655.23
490.70	20575.65
490.88	20868.22
491.06	20987.58
491.24	20814.38
491.41	20961.84
491.59	20781.62
491.77	20638.84
491.95	21235.68
492.13	21621.87
492.30	21537.61
492.48	21881.67
492.66	21717.83
492.84	21813.79
493.01	22235.09
493.19	22146.15
493.37	22424.67
493.54	22405.95
493.72	22724.26
493.90	22757.03
494.08	23332.80
494.25	23199.39
494.43	23536.43
494.61	23608.98
494.79	23627.71
494.96	23674.52
495.14	23515.36
495.32	23618.35
495.49	23857.08
495.67	24044.32
495.85	24219.86
496.02	24290.08
496.20	24446.90
496.38	24666.91
496.55	24563.92
496.73	25296.51
496.91	24924.36
497.09	25177.14
497.26	25500.14
497.44	25057.78
497.62	25020.33
497.79	25914.41
497.97	25647.59
498.14	25858.24
498.32	25516.52
498.50	25816.11
498.67	25956.54
498.85	26190.59
499.03	26120.38
499.20	26478.48
499.38	26764.03
499.56	26513.59
499.73	26520.61
499.91	26986.38
500.08	26700.83
500.26	26635.30
500.44	26588.49
500.61	26801.47
500.79	26871.69
500.97	26986.38
501.14	27379.59
501.32	27510.66
501.49	27309.37
501.67	27676.83
501.84	27583.21
502.02	27496.61
502.20	27859.40
502.37	27934.29
502.55	28212.82
502.72	28163.67
502.90	28196.43
503.07	28156.64
503.25	28374.31
503.43	28315.80
503.60	28266.65
503.78	28636.45
503.95	28395.38
504.13	28711.35
504.30	29041.37
504.48	28666.88
504.65	29186.48
504.83	29263.72
505.01	29312.87
505.18	29223.93
505.36	29708.42
505.53	29455.64
505.71	29685.01
505.88	30040.78
506.06	29380.74
506.23	30118.01
506.41	29603.10
506.58	29776.30
506.76	30050.14
506.93	30258.45
507.11	30146.10
507.28	30558.03
507.46	30459.73
507.63	29947.15
507.81	30316.96
507.98	30089.93
508.16	30508.88
508.33	30719.53
508.50	30962.95
508.68	31136.15
508.85	31398.29
509.03	31281.26
509.20	31681.49
509.38	31417.01
509.55	31248.49
509.73	31257.85
509.90	31819.58
510.08	31704.90
510.25	31580.85
510.42	31889.80
510.60	31833.63
510.77	31732.98
510.95	32381.31
511.12	31976.40
511.30	32711.33
511.47	32610.68
511.64	32463.23
511.82	32388.33
511.99	32360.25
512.17	32371.95
512.34	32631.75
512.51	32671.54
512.69	32985.17
512.86	33469.66
513.04	33106.88
513.21	32954.74
513.38	32954.74
513.56	32863.46
513.73	32503.02
513.90	33312.84
514.08	33277.74
514.25	33408.81
514.43	33369.02
514.60	33764.57
514.77	33872.23
514.95	33752.87
515.12	33535.20
515.29	33851.17
515.47	33914.36
515.64	34108.63
515.81	33780.95
515.99	34185.86
516.16	34019.69
516.33	33692.01
516.51	33900.32
516.68	33684.99
516.85	33450.94
517.03	34373.11
517.20	34169.48
517.37	34368.43
517.54	34230.33
517.72	34129.69
517.89	33827.76
518.06	34450.35
518.24	34588.44
518.41	34380.13
518.58	34583.76
518.75	34408.22
518.93	35367.84
519.10	35063.57
519.27	35133.78
519.45	34930.16
519.62	35330.39
519.79	35377.20
519.96	35461.46
520.14	35248.47
520.31	35239.11
520.48	35599.55
520.65	35702.53
520.83	36430.44
521.00	36098.08
521.17	35892.12
521.34	36051.27
521.52	36474.91
521.69	36395.33
521.86	36900.89
522.03	36397.67
522.20	36362.56
522.38	36245.54
522.55	36931.31
522.72	36624.70
522.89	36737.05
523.07	36758.11
523.24	36093.40
523.41	37057.70
523.58	37200.47
523.75	37757.52
523.92	37364.31
524.10	37717.73
524.27	37581.98
524.44	37832.42
524.61	37621.77
524.78	37539.85
524.96	37338.57
525.13	37862.85
525.30	38094.56
525.47	38033.71
525.64	37963.49
525.81	37844.12
525.98	37778.59
526.16	37511.77
526.33	37684.97
526.50	38174.14
526.67	37727.10
526.84	37659.22
527.01	37560.92
527.18	38263.08
527.36	38309.89
527.53	38642.24
527.70	38775.66
527.87	38731.18
528.04	38525.22
528.21	38506.49
528.38	38642.24
528.55	39229.72
528.72	39536.33
528.89	39641.65
529.07	39096.31
529.24	38944.17
529.41	39473.13
529.58	39386.54
529.75	38754.59
529.92	39246.10
530.09	39538.67
530.26	39056.52
530.43	39367.81
530.60	39541.01
530.77	39342.06
530.94	39683.78
531.11	39416.96
531.28	39634.63
531.46	39714.21
531.63	40219.77
531.80	39817.19
531.97	39828.90
532.14	39622.93
532.31	39510.58
532.48	39569.10
532.65	39887.41
532.82	39746.98
532.99	40041.88
533.16	40081.67
533.33	40332.11
533.50	40444.46
533.67	40421.05
533.84	39992.73
534.01	40514.67
534.18	40299.34
534.35	40605.95
534.52	40535.74
534.69	40985.12
534.86	40439.78
535.03	40931.29
535.20	41284.71
535.37	40886.82
535.54	41097.47
535.71	40865.75
535.88	40996.82
536.05	40928.95
536.22	40875.12
536.38	40755.75
536.55	41029.59
536.72	41209.81
536.89	40711.28
537.06	40825.96
537.23	41413.44
537.40	41581.96
537.57	41401.74
537.74	41523.44
537.91	41797.29
538.08	41205.13
538.25	41228.54
538.42	41897.93
538.59	41926.02
538.75	41275.35
538.92	41694.30
539.09	42153.05
539.26	41642.81
539.43	41656.85
539.60	41982.19
539.77	41766.86
539.94	41661.54
540.11	41787.92
540.28	41998.57
540.44	41579.62
540.61	41425.14
540.78	41619.41
540.95	41713.03
541.12	41806.65
541.29	41769.20
541.46	42082.83
541.62	42478.38
541.79	42457.32
541.96	42050.06
542.13	42052.41
542.30	42181.13
542.47	42337.95
542.63	42384.76
542.80	42328.59
542.97	42925.42
543.14	43147.78
543.31	42553.28
543.48	43122.03
543.64	43580.78
543.81	43498.86
543.98	43180.54
544.15	43150.12
544.32	43267.14
544.48	43260.12
544.65	43482.47
544.82	42773.29
544.99	43044.79
545.16	43086.92
545.32	43250.76
545.49	43824.19
545.66	43831.21
545.83	43789.08
546.00	43739.93
546.16	43374.81
546.33	43164.16
546.50	42857.55
546.67	43540.99
546.83	43316.29
547.00	43498.86
547.17	43351.40
547.34	43793.76
547.50	43335.02
547.67	44025.48
547.84	43772.70
548.00	43487.15
548.17	43875.68
548.34	44201.02
548.51	44439.75
548.67	44163.57
548.84	43779.72
549.01	43885.04
549.18	44158.89
549.34	43938.88
549.51	44304.00
549.68	44701.89
549.84	44278.25
550.01	44664.44
550.18	43859.30
550.34	44383.58
550.51	44486.56
550.68	43999.73
550.84	44121.44
551.01	44343.79
551.18	44191.65
551.34	44535.71
551.51	44758.06
551.68	45160.64
551.84	44566.14
552.01	44605.93
552.18	44378.90
552.34	44399.96
552.51	44690.19
552.68	44662.10
552.84	44938.29
553.01	45109.14
553.18	44715.93
553.34	44973.39
553.51	44509.97
553.67	44650.40
553.84	45020.20
554.01	44924.24
554.17	45317.45
554.34	45034.25
554.51	45024.89
554.67	44938.29
554.84	45242.56
555.00	44865.73
555.17	44708.91
555.33	45336.18
555.50	45146.59
555.67	45067.02
555.83	44978.07
556.00	45195.74
556.16	45181.70
556.33	45092.76
556.50	45146.59
556.66	44924.24
556.83	45090.42
556.99	45759.81
557.16	45291.71
557.32	45640.45
557.49	45186.38
557.65	45024.89
557.82	45485.97
557.98	45198.09
558.15	45375.97
558.32	45387.67
558.48	45099.78
558.65	45111.49
558.81	45399.37
558.98	45013.18
559.14	45404.05
559.31	45333.84
559.47	45530.44
559.64	45385.33
559.80	45530.44
559.97	45993.87
560.13	45125.53
560.30	45160.64
560.46	45755.13
560.63	45979.82
560.79	45595.98
560.96	45879.18
561.12	45837.05
561.29	45570.23
561.45	45635.77
561.61	45834.71
561.78	46087.49
561.94	45708.32
562.11	45539.80
562.27	45670.87
562.44	45631.08
562.60	45909.61
562.77	45734.07
562.93	45986.85
563.10	46164.73
563.26	45420.44
563.42	45925.99
563.59	45509.38
563.75	45823.01
563.92	46120.26
564.08	46174.09
564.24	45687.26
564.41	46078.13
564.57	46183.45
564.74	45764.49
564.90	45982.16
565.07	45984.51
565.23	45970.46
565.39	45757.47
565.56	45797.26
565.72	45680.24
565.88	46337.93
566.05	46188.13
566.21	45518.74
566.38	45961.10
566.54	46176.43
566.70	46181.11
566.87	46316.86
567.03	46040.68
567.19	46506.44
567.36	46251.33
567.52	46216.22
567.68	46534.53
567.85	46272.39
568.01	46298.14
568.17	45577.25
568.34	46146.00
568.50	46094.51
568.66	46089.83
568.83	46366.01
568.99	45904.93
569.15	45862.80
569.32	45773.86
569.48	46157.70
569.64	46447.93
569.81	46649.22
569.97	46230.26
570.13	46366.01
570.30	45808.96
570.46	45666.19
570.62	45993.87
570.78	46380.06
570.95	45759.81
571.11	46082.81
571.27	45858.12
571.43	46199.83
571.60	46120.26
571.76	46043.02
571.92	46469.00
572.09	46005.57
572.25	46082.81
572.41	46454.95
572.57	46447.93
572.74	46738.16
572.90	46429.21
573.06	46429.21
573.22	46368.35
573.38	45954.08
573.55	46176.43
573.71	46621.13
573.87	46260.69
574.03	46071.10
574.20	46202.18
574.36	46080.47
574.52	46241.96
574.68	46375.37
574.84	46305.16
575.01	46354.31
575.17	45872.16
575.33	45830.03
575.49	46028.98
575.65	46265.37
575.82	46248.99
575.98	46258.35
576.14	46440.91
576.30	46307.50
576.46	46593.04
576.62	46211.54
576.79	46183.45
576.95	46415.16
577.11	46630.49
577.27	46724.11
577.43	46431.55
577.59	45783.22
577.75	46356.65
577.92	46298.14
578.08	46068.76
578.24	46368.35
578.40	45928.33
578.56	46082.81
578.72	46117.92
578.88	46726.46
579.04	46794.33
579.21	46340.27
579.37	46286.43
579.53	46642.20
579.69	46349.63
579.85	46408.14
580.01	46389.42
580.17	46518.15
580.33	46396.44
580.49	46457.29
580.65	46787.31
580.82	46487.72
580.98	45872.16
581.14	46536.87
581.30	46546.23
581.46	46176.43
581.62	46649.22
581.78	46618.79
581.94	46724.11
582.10	46302.82
582.26	46513.47
582.42	46281.75
582.58	46887.95
582.74	46754.54
582.90	46698.37
583.06	46876.25
583.22	46267.71
583.38	46918.38
583.54	46445.59
583.70	46384.74
583.86	46679.64
584.02	46279.41
584.18	46401.12
584.34	46270.05
584.50	46787.31
584.66	46398.78
584.82	46525.17
584.98	46766.24
585.14	46625.81
585.30	46394.10
585.46	46532.19
585.62	46574.32
585.78	46174.09
585.94	46197.49
586.10	46349.63
586.26	46302.82
586.42	47084.56
586.58	46618.79
586.74	46876.25
586.90	46057.06
587.06	46581.34
587.22	46546.23
587.38	46050.04
587.54	46347.29
587.70	46370.69
587.86	46660.92
588.02	46843.48
588.18	46267.71
588.34	46384.74
588.49	46078.13
588.65	45846.41
588.81	45844.07
588.97	46026.63
589.13	45785.56
589.29	46316.86
589.45	46539.21
589.61	46398.78
589.77	46740.50
589.93	46733.48
