SpectraSuite Data File
++++++++++++++++++++++++++++++++++++
Date: Fri Oct 25 11:33:45 EDT 2013
User: price-jones
Dark Spectrum Present: No
Reference Spectrum Present: No
Number of Sampled Component Spectra: 1
Spectrometers: USB2+H05261
Integration Time (usec): 100000 (USB2+H05261)
Spectra Averaged: 1 (USB2+H05261)
Boxcar Smoothing: 0 (USB2+H05261)
Correct for Electrical Dark: No (USB2+H05261)
Strobe/Lamp Enabled: No (USB2+H05261)
Correct for Detector Non-linearity: No (USB2+H05261)
Correct for Stray Light: No (USB2+H05261)
Number of Pixels in Processed Spectrum: 2048
>>>>>Begin Processed Spectral Data<<<<<
365.73	301.93
365.92	301.93
366.12	301.93
366.32	196.60
366.52	180.22
366.72	259.80
366.91	241.08
367.11	210.65
367.31	180.22
367.51	168.52
367.70	257.46
367.90	145.11
368.10	250.44
368.30	159.16
368.49	177.88
368.69	159.16
368.89	187.24
369.09	152.13
369.28	184.90
369.48	266.82
369.68	339.38
369.87	318.31
370.07	224.69
370.27	236.39
370.47	362.78
370.66	414.27
370.86	489.17
371.06	493.85
371.25	580.45
371.45	613.22
371.65	564.07
371.84	550.03
372.04	571.09
372.24	615.56
372.44	585.13
372.63	678.76
372.83	575.77
373.03	578.11
373.22	589.82
373.42	589.82
373.62	578.11
373.81	613.22
374.01	638.97
374.21	617.90
374.40	662.37
374.60	606.20
374.79	695.14
374.99	676.41
375.19	697.48
375.38	706.84
375.58	655.35
375.78	641.31
375.97	741.95
376.17	674.07
376.37	599.18
376.56	631.94
376.76	671.73
376.95	671.73
377.15	627.26
377.35	699.82
377.54	655.35
377.74	638.97
377.93	704.50
378.13	638.97
378.33	730.25
378.52	669.39
378.72	830.89
378.91	723.23
379.11	690.46
379.31	711.52
379.50	660.03
379.70	763.01
379.89	601.52
380.09	713.86
380.28	697.48
380.48	755.99
380.68	734.93
380.87	723.23
381.07	667.05
381.26	751.31
381.46	767.70
381.65	866.00
381.85	800.46
382.04	798.12
382.24	746.63
382.43	751.31
382.63	748.97
382.83	807.48
383.02	746.63
383.22	741.95
383.41	795.78
383.61	814.51
383.80	877.70
384.00	910.47
384.19	800.46
384.39	805.14
384.58	760.67
384.78	868.34
384.97	798.12
385.17	828.55
385.36	816.85
385.56	919.83
385.75	868.34
385.95	926.85
386.14	866.00
386.34	809.83
386.53	887.06
386.72	917.49
386.92	875.36
387.11	891.74
387.31	919.83
387.50	891.74
387.70	894.08
387.89	898.77
388.09	966.64
388.28	861.32
388.48	861.32
388.67	891.74
388.86	976.00
389.06	915.15
389.25	912.81
389.45	990.05
389.64	912.81
389.84	964.30
390.03	922.17
390.22	1146.86
390.42	954.94
390.61	978.34
390.81	1015.79
391.00	1004.09
391.19	1043.88
391.39	1006.43
391.58	1001.75
391.78	1015.79
391.97	1004.09
392.16	1039.20
392.36	1086.01
392.55	1055.58
392.75	999.41
392.94	1067.28
393.13	1158.57
393.33	980.68
393.52	1116.44
393.71	1135.16
393.91	1034.52
394.10	1090.69
394.29	1135.16
394.49	1235.80
394.68	1210.06
394.88	1153.88
395.07	1181.97
395.26	1146.86
395.46	1107.07
395.65	1170.27
395.84	1174.95
396.04	1170.27
396.23	1224.10
396.42	1210.06
396.62	1163.25
396.81	1196.01
397.00	1149.20
397.19	1179.63
397.39	1266.23
397.58	1196.01
397.77	1210.06
397.97	1249.85
398.16	1226.44
398.35	1336.45
398.55	1256.87
398.74	1387.94
398.93	1359.85
399.12	1240.48
399.32	1315.38
399.51	1275.59
399.70	1317.72
399.90	1310.70
400.09	1404.32
400.28	1383.26
400.47	1371.55
400.67	1411.34
400.86	1446.45
401.05	1430.07
401.24	1355.17
401.44	1497.94
401.63	1465.18
401.82	1416.02
402.01	1406.66
402.21	1392.62
402.40	1511.99
402.59	1521.35
402.78	1514.33
402.97	1582.20
403.17	1558.80
403.36	1549.43
403.55	1369.21
403.74	1572.84
403.93	1650.08
404.13	1701.57
404.32	1647.74
404.51	1584.54
404.70	1722.63
404.89	1626.67
405.09	1687.53
405.28	1746.04
405.47	1722.63
405.66	1680.50
405.85	1685.19
406.05	1687.53
406.24	1764.76
406.43	1699.23
406.62	1809.23
406.81	1856.04
407.00	1771.79
407.20	1778.81
407.39	1774.13
407.58	1914.56
407.77	1881.79
407.96	1893.49
408.15	1863.07
408.34	1961.37
408.54	1928.60
408.73	1809.23
408.92	1940.30
409.11	1980.09
409.30	2064.35
409.49	2045.63
409.68	1991.80
409.87	1947.33
410.07	2031.58
410.26	1977.75
410.45	2008.18
410.64	2038.61
410.83	2148.61
411.02	2188.40
411.21	2204.78
411.40	2221.17
411.59	2218.83
411.78	2129.89
411.98	2186.06
412.17	2258.62
412.36	2293.72
412.55	2375.64
412.74	2293.72
412.93	2293.72
413.12	2354.58
413.31	2511.39
413.50	2375.64
413.69	2293.72
413.88	2502.03
414.07	2492.67
414.26	2464.58
414.45	2626.08
414.64	2558.21
414.83	2590.97
415.02	2562.89
415.22	2518.42
415.41	2654.17
415.60	2722.04
415.79	2712.68
415.98	2663.53
416.17	2677.57
416.36	2717.36
416.55	2726.72
416.74	2799.28
416.93	2675.23
417.12	2780.56
417.31	2857.79
417.50	2888.22
417.69	2935.03
417.88	2956.10
418.07	2944.39
418.26	2839.07
418.45	3033.33
418.64	3227.60
418.83	3089.51
419.02	3019.29
419.21	3199.51
419.39	3021.63
419.58	3061.42
419.77	3052.06
419.96	3201.85
420.15	3136.32
420.34	3201.85
420.53	3082.49
420.72	3157.38
420.91	3274.41
421.10	3403.14
421.29	3218.24
421.48	3229.94
421.67	3330.58
421.86	3227.60
422.05	3225.26
422.24	3302.50
422.43	3314.20
422.61	3489.74
422.80	3456.97
422.99	3431.23
423.18	3419.52
423.37	3431.23
423.56	3400.80
423.75	3459.31
423.94	3421.86
424.13	3325.90
424.32	3206.53
424.50	3447.61
424.69	3529.53
424.88	3452.29
425.07	3384.41
425.26	3398.46
425.45	3365.69
425.64	3421.86
425.83	3405.48
426.01	3538.89
426.20	3475.70
426.39	3466.33
426.58	3562.30
426.77	3562.30
426.96	3592.72
427.15	3517.83
427.33	3578.68
427.52	3641.87
427.71	3634.85
427.90	3632.51
428.09	3688.68
428.28	3733.15
428.46	3681.66
428.65	3705.07
428.84	3740.18
429.03	3798.69
429.22	3681.66
429.40	3819.75
429.59	3744.86
429.78	3672.30
429.97	3623.15
430.16	3791.67
430.34	3866.56
430.53	3885.29
430.72	3918.06
430.91	3889.97
431.10	3967.21
431.28	3868.91
431.47	3845.50
431.66	4128.70
431.85	3985.93
432.03	3957.85
432.22	4117.00
432.41	4093.60
432.60	4142.75
432.79	4098.28
432.97	4044.45
433.16	4100.62
433.35	4227.01
433.54	4152.11
433.72	4156.79
433.91	4086.58
434.10	4180.20
434.28	4306.59
434.47	4292.54
434.66	4332.33
434.85	4264.46
435.03	4470.42
435.22	4325.31
435.41	4393.19
435.59	4542.98
435.78	4477.44
435.97	4393.19
436.16	4290.20
436.34	4353.40
436.53	4449.36
436.72	4592.13
436.90	4458.72
437.09	4496.17
437.28	4432.97
437.46	4521.92
437.65	4671.71
437.84	4678.73
438.02	4580.43
438.21	4631.92
438.40	4512.55
438.58	4788.74
438.77	4737.24
438.96	4758.31
439.14	4870.65
439.33	4861.29
439.52	5057.90
439.70	4896.40
439.89	5067.26
440.08	4990.02
440.26	5163.22
440.45	4957.25
440.63	5128.11
440.82	5235.78
441.01	5027.47
441.19	5313.02
441.38	5301.31
441.57	5205.35
441.75	5324.72
441.94	5474.51
442.12	5313.02
442.31	5451.11
442.50	5472.17
442.68	5476.85
442.87	5357.49
443.05	5343.44
443.24	5579.84
443.43	5500.26
443.61	5526.00
443.80	5680.48
443.98	5458.13
444.17	5397.28
444.35	5640.69
444.54	5572.82
444.73	5612.60
444.91	5806.87
445.10	5685.16
445.28	5636.01
445.47	5610.26
445.65	5551.75
445.84	5687.50
446.02	5816.23
446.21	5764.74
446.39	5664.10
446.58	5799.85
446.77	5790.49
446.95	5586.86
447.14	5591.54
447.32	5968.37
447.51	5668.78
447.69	5671.12
447.88	5633.67
448.06	5806.87
448.25	5797.51
448.43	5973.05
448.62	5919.21
448.80	5743.67
448.99	5912.19
449.17	5944.96
449.36	5954.32
449.54	6099.44
449.73	6094.76
449.91	6143.91
450.10	5994.11
450.28	6094.76
450.46	6097.10
450.65	6150.93
450.83	6139.23
451.02	6289.02
451.20	6279.66
451.39	6120.50
451.57	6057.31
451.76	6232.85
451.94	6169.65
452.13	6333.49
452.31	6396.68
452.49	6270.30
452.68	6392.00
452.86	6403.71
453.05	6434.13
453.23	6576.91
453.42	6356.90
453.60	6267.95
453.78	6586.27
453.97	6366.26
454.15	6462.22
454.34	6370.94
454.52	6597.97
454.70	6668.19
454.89	6710.32
455.07	6480.94
455.26	6590.95
455.44	6864.79
455.62	6597.97
455.81	6630.74
455.99	6726.70
456.17	6689.25
456.36	6736.06
456.54	6780.53
456.73	6792.23
456.91	6965.43
457.09	7164.38
457.28	7152.68
457.46	6874.15
457.64	7047.35
457.83	7021.61
458.01	7042.67
458.19	7187.79
458.38	7061.40
458.56	7267.36
458.74	7096.50
458.93	7155.02
459.11	7267.36
459.29	7304.81
459.48	7454.61
459.66	7529.50
459.84	7349.28
460.03	7625.47
460.21	7426.52
460.39	7304.81
460.57	7417.16
460.76	7529.50
460.94	7557.59
461.12	7555.25
461.31	7543.55
461.49	7492.05
461.67	7482.69
461.85	7733.13
462.04	7503.76
462.22	7941.44
462.40	7698.02
462.59	7740.15
462.77	7623.12
462.95	7901.65
463.13	7887.61
463.32	7765.90
463.50	7939.10
463.68	7840.79
463.86	7936.76
464.05	7976.55
464.23	7810.37
464.41	8004.63
464.59	7801.01
464.78	8166.13
464.96	8011.65
465.14	7885.26
465.32	8079.53
465.50	8084.21
465.69	8271.45
465.87	8102.93
466.05	8102.93
466.23	8095.91
466.41	8135.70
466.60	8390.82
466.78	8226.98
466.96	8299.54
467.14	8407.20
467.32	8414.23
467.51	8425.93
467.69	8306.56
467.87	8414.23
468.05	8489.12
468.23	8374.44
468.41	8212.94
468.60	8351.03
468.78	8507.85
468.96	8535.93
469.14	8470.40
469.32	8620.19
469.50	8650.62
469.69	8582.74
469.87	8716.16
470.05	8802.75
470.23	8903.40
470.41	8762.97
470.59	8812.12
470.77	8784.03
470.95	8863.61
471.14	8947.87
471.32	8706.79
471.50	8961.91
471.68	8901.06
471.86	9149.15
472.04	9184.26
472.22	9226.39
472.40	9160.86
472.58	9247.46
472.77	9329.38
472.95	9420.66
473.13	9729.61
473.31	9404.27
473.49	9465.13
473.67	9378.53
473.85	9628.96
474.03	9771.74
474.21	9764.72
474.39	9745.99
474.57	9734.29
474.75	9951.96
474.93	9593.86
475.12	9996.43
475.30	10263.25
475.48	10078.35
475.66	10200.05
475.84	10267.93
476.02	10406.02
476.20	10286.65
476.38	10558.16
476.56	10345.17
476.74	10583.90
476.92	10560.50
477.10	10544.11
477.28	10754.76
477.46	10590.92
477.64	10832.00
477.82	10991.16
478.00	11295.43
478.18	11302.45
478.36	11335.21
478.54	11290.74
478.72	11391.39
478.90	11679.27
479.08	11723.74
479.26	11831.41
479.44	11822.05
479.62	11555.22
479.80	11808.00
479.98	11969.50
480.16	12496.12
480.34	12084.19
480.52	12250.36
480.70	12400.16
480.88	12049.08
481.06	12437.61
481.24	12524.21
481.41	12666.98
481.59	12624.85
481.77	12861.24
481.95	13118.70
482.13	13135.09
482.31	13156.15
482.49	13238.07
482.67	13593.83
482.85	13399.57
483.03	13532.98
483.21	13743.63
483.39	13652.34
483.57	13778.73
483.74	13743.63
483.92	14134.50
484.10	14071.30
484.28	14436.42
484.46	14494.94
484.64	14897.51
484.82	14558.13
485.00	14930.28
485.18	14743.03
485.35	15255.61
485.53	14855.38
485.71	15084.75
485.89	15477.96
486.07	15414.77
486.25	15382.00
486.43	15630.10
486.61	15721.38
486.78	15990.54
486.96	16035.01
487.14	15955.43
487.32	16301.83
487.50	16332.26
487.68	16472.69
487.85	16776.96
488.03	16744.19
488.21	16744.19
488.39	16905.69
488.57	17153.79
488.75	17200.60
488.92	17635.94
489.10	17584.44
489.28	17537.63
489.46	17722.54
489.64	17771.69
489.81	18127.45
489.99	18195.32
490.17	17958.93
490.35	18412.99
490.53	18684.50
490.70	18855.36
490.88	18822.59
491.06	18906.85
491.24	18794.50
491.41	19009.83
491.59	19246.23
491.77	18890.46
491.95	19550.49
492.13	19843.06
492.30	19466.24
492.48	19501.34
492.66	19822.00
492.84	19601.99
493.01	20638.84
493.19	20135.63
493.37	20264.36
493.54	20702.04
493.72	20664.59
493.90	20769.91
494.08	20783.96
494.25	21399.52
494.43	21113.97
494.61	21125.68
494.79	21249.72
494.96	21322.28
495.14	21774.00
495.32	21851.24
495.49	21820.81
495.67	21659.32
495.85	21940.18
496.02	22225.73
496.20	22412.97
496.38	22443.40
496.55	22508.93
496.73	23101.09
496.91	22801.50
497.09	22803.84
497.26	23119.81
497.44	23054.28
497.62	23042.57
497.79	23501.32
497.97	23431.10
498.14	23513.02
498.32	23644.09
498.50	23772.82
498.67	23913.25
498.85	23889.85
499.03	24144.97
499.20	24126.24
499.38	24182.42
499.56	23946.02
499.73	24257.31
499.91	24446.90
500.08	24900.96
500.26	24805.00
500.44	24648.18
500.61	24940.75
500.79	24573.28
500.97	25238.00
501.14	25399.49
501.32	25275.45
501.49	25270.76
501.67	25553.97
501.84	25685.04
502.02	25687.38
502.20	25373.75
502.37	25483.75
502.55	25645.25
502.72	25851.22
502.90	25954.20
503.07	25785.68
503.25	26015.05
503.43	26164.85
503.60	26422.31
503.78	26944.25
503.95	26333.37
504.13	26352.09
504.30	26576.78
504.48	27005.10
504.65	27220.43
504.83	27309.37
505.01	27349.16
505.18	27072.98
505.36	27321.07
505.53	27292.99
505.71	27222.77
505.88	27255.54
506.06	27374.91
506.23	27768.12
506.41	27459.16
506.58	27695.56
506.76	27908.55
506.93	28297.08
507.11	28261.97
507.28	27971.74
507.46	28224.52
507.63	28507.72
507.81	28299.42
507.98	28730.08
508.16	28212.82
508.33	28690.29
508.50	28844.76
508.68	28814.34
508.85	29226.27
509.03	29088.18
509.20	29263.72
509.38	29338.62
509.55	29387.77
509.73	29436.92
509.90	29509.47
510.08	29589.05
510.25	29406.49
510.42	29605.44
510.60	30075.88
510.77	29853.53
510.95	30338.02
511.12	29834.81
511.30	29741.19
511.47	30621.23
511.64	30057.16
511.82	30555.69
511.99	30520.59
512.17	30644.63
512.34	30405.90
512.51	30836.56
512.69	31044.87
512.86	30712.51
513.04	30946.56
513.21	30920.82
513.38	31204.02
513.56	31449.78
513.73	31168.91
513.90	31185.30
514.08	30927.84
514.25	31398.29
514.43	31639.36
514.60	31484.89
514.77	31562.12
514.95	31796.18
515.12	31686.17
515.29	31791.50
515.47	31821.92
515.64	32322.80
515.81	31742.35
515.99	32280.67
516.16	32290.03
516.33	32245.56
516.51	32872.82
516.68	32601.32
516.85	32428.12
517.03	32547.49
517.20	32821.33
517.37	32517.06
517.54	32620.05
517.72	32823.67
517.89	33219.22
518.06	32861.12
518.24	32921.98
518.41	33186.46
518.58	33296.46
518.75	32982.83
518.93	33476.68
519.10	33322.21
519.27	33455.62
519.45	33448.60
519.62	33645.20
519.79	33647.54
519.96	33472.00
520.14	33935.43
520.31	33837.12
520.48	34277.15
520.65	34270.12
520.83	34527.58
521.00	34817.81
521.17	34321.62
521.34	34511.20
521.52	34387.15
521.69	34780.36
521.86	34707.80
522.03	34658.65
522.20	34515.88
522.38	35393.58
522.55	35290.60
522.72	35051.86
522.89	35257.83
523.07	35299.96
523.24	35545.72
523.41	35555.08
523.58	35412.31
523.75	35777.43
523.92	35276.55
524.10	35480.18
524.27	35798.49
524.44	35826.58
524.61	35578.48
524.78	35761.05
524.96	36282.98
525.13	35906.16
525.30	36034.89
525.47	35962.33
525.64	36058.29
525.81	36210.43
525.98	36620.02
526.16	36638.75
526.33	36114.47
526.50	36917.27
526.67	36517.04
526.84	36671.51
527.01	36156.60
527.18	36683.22
527.36	36917.27
527.53	37141.96
527.70	37226.22
527.87	37074.09
528.04	37181.75
528.21	37102.17
528.38	37233.24
528.55	37343.25
528.72	37205.16
528.89	37415.80
529.07	37696.67
529.24	37453.25
529.41	37689.65
529.58	37778.59
529.75	37329.20
529.92	37390.06
530.09	37682.62
530.26	37539.85
530.43	38010.30
530.60	37722.41
530.77	37479.00
530.94	37942.42
531.11	37841.78
531.28	37764.54
531.46	38075.84
531.63	38246.69
531.80	38546.28
531.97	38216.27
532.14	38380.10
532.31	38342.66
532.48	38541.60
532.65	38550.96
532.82	38251.38
532.99	38628.20
533.16	38698.42
533.33	38787.36
533.50	39187.59
533.67	38520.54
533.84	38749.91
534.01	38714.80
534.18	39229.72
534.35	39651.02
534.52	39012.05
534.69	39367.81
534.86	39318.66
535.03	39037.80
535.20	39489.52
535.37	39718.89
535.54	39608.89
535.71	39819.53
535.88	39693.15
536.05	39892.09
536.22	39962.31
536.38	40006.78
536.55	39901.45
536.72	39555.05
536.89	39679.10
537.06	39718.89
537.23	40491.27
537.40	40285.30
537.57	39835.92
537.74	40044.23
537.91	40304.02
538.08	40282.96
538.25	40060.61
538.42	39927.20
538.59	40704.26
538.75	40154.23
538.92	40451.48
539.09	40694.89
539.26	40634.04
539.43	40554.46
539.60	40999.16
539.77	40903.20
539.94	41134.92
540.11	40718.30
540.28	40886.82
540.44	40971.08
540.61	40940.65
540.78	41074.06
540.95	41109.17
541.12	40758.09
541.29	40964.06
541.46	41352.58
541.62	41256.62
541.79	41563.23
541.96	40926.61
542.13	40868.09
542.30	41467.27
542.47	41265.99
542.63	41504.72
542.80	41696.64
542.97	41923.68
543.14	41963.46
543.31	41813.67
543.48	42000.91
543.64	42382.42
543.81	42515.83
543.98	41666.22
544.15	42019.64
544.32	42305.18
544.48	42698.39
544.65	42192.84
544.82	42417.53
544.99	42279.44
545.16	42171.77
545.32	42176.45
545.49	42597.75
545.66	42904.36
545.83	42590.73
546.00	42515.83
546.16	42359.02
546.33	42859.89
546.50	42335.61
546.67	42941.81
546.83	42426.89
547.00	42241.99
547.17	42817.76
547.34	42806.06
547.50	43196.93
547.67	43498.86
547.84	42995.64
548.00	43098.62
548.17	43281.19
548.34	43210.97
548.51	43063.52
548.67	43442.68
548.84	43620.56
549.01	43531.62
549.18	42979.26
549.34	43157.14
549.51	43728.23
549.68	43838.23
549.84	43227.35
550.01	43540.99
550.18	43505.88
550.34	43533.96
550.51	43601.84
550.68	43662.69
550.84	43323.32
551.01	44044.20
551.18	43606.52
551.34	43751.63
551.51	44339.11
551.68	43735.25
551.84	44278.25
552.01	43672.06
552.18	44004.41
552.34	44083.99
552.51	44004.41
552.68	43892.07
552.84	44065.27
553.01	44273.57
553.18	44437.41
553.34	44584.86
553.51	43988.03
553.67	44388.26
553.84	44341.45
554.01	44123.78
554.17	44395.28
554.34	44304.00
554.51	44797.85
554.67	44774.45
554.84	44390.60
555.00	44912.54
555.17	44025.48
555.33	44650.40
555.50	44301.66
555.67	44903.18
555.83	44657.42
556.00	44596.57
556.16	45422.78
556.33	44694.87
556.50	45315.11
556.66	44898.50
556.83	44425.71
556.99	44896.16
557.16	45528.10
557.32	45195.74
557.49	45518.74
557.65	44912.54
557.82	45106.80
557.98	45408.73
558.15	44905.52
558.32	45745.77
558.48	45038.93
558.65	45322.13
558.81	45057.65
558.98	45467.25
559.14	45132.55
559.31	45188.72
559.47	45221.49
559.64	45170.00
559.80	44973.39
559.97	45205.11
560.13	45420.44
560.30	45050.63
560.46	45689.60
560.63	45612.36
560.79	45649.81
560.96	45766.84
561.12	45703.64
561.29	45883.86
561.45	45727.05
561.61	45385.33
561.78	45734.07
561.94	45780.88
562.11	46071.10
562.27	45701.30
562.44	46019.61
562.60	45806.62
562.77	46017.27
562.93	45251.92
563.10	46064.08
563.26	45933.01
563.42	46522.83
563.59	45883.86
563.75	45883.86
563.92	46167.07
564.08	46082.81
564.24	46256.01
564.41	45645.13
564.57	46272.39
564.74	46412.82
564.90	46256.01
565.07	46237.28
565.23	46028.98
565.39	46258.35
565.56	46590.70
565.72	46052.38
565.88	46110.89
566.05	46553.26
566.21	46148.34
566.38	46377.72
566.54	46412.82
566.70	45937.69
566.87	46050.04
567.03	45942.38
567.19	46417.50
567.36	46314.52
567.52	46347.29
567.68	46815.40
567.85	46864.55
568.01	46700.71
568.17	46272.39
568.34	46717.09
568.50	46651.56
568.66	46223.24
568.83	46227.92
568.99	46471.34
569.15	46759.22
569.32	46777.95
569.48	46927.74
569.64	46621.13
569.81	46841.14
569.97	46883.27
570.13	47056.47
570.30	46377.72
570.46	46646.88
570.62	46548.57
570.78	46560.28
570.95	46843.48
571.11	46799.01
571.27	46880.93
571.43	46667.94
571.60	46855.18
571.76	46529.85
571.92	46265.37
572.09	47084.56
572.25	46789.65
572.41	46438.57
572.57	46707.73
572.74	47384.15
572.90	46600.07
573.06	47028.38
573.22	46857.52
573.38	47033.07
573.55	47257.76
573.71	47278.82
573.87	47171.16
574.03	46836.46
574.20	47325.63
574.36	46960.51
574.52	47175.84
574.68	47089.24
574.84	47318.61
575.01	47447.34
575.17	47030.72
575.33	47482.45
575.49	47049.45
575.65	46962.85
575.82	47000.30
575.98	46686.67
576.14	47391.17
576.30	47248.39
576.46	47475.43
576.62	47004.98
576.79	47358.40
576.95	46960.51
577.11	46944.12
577.27	47068.17
577.43	46766.24
577.59	47351.38
577.75	46752.20
577.92	46658.58
578.08	47004.98
578.24	47164.14
578.40	46983.91
578.56	47100.94
578.72	47473.09
578.88	47229.67
579.04	47054.13
579.21	47012.00
579.37	46920.72
579.53	47257.76
579.69	46794.33
579.85	46976.89
580.01	47173.50
580.17	47332.65
580.33	47416.91
580.49	47419.25
580.65	47290.52
580.82	47068.17
580.98	47222.65
581.14	47084.56
581.30	47409.89
581.46	46490.06
581.62	47470.75
581.78	47473.09
581.94	47110.30
582.10	47285.84
582.26	47440.32
582.42	47545.64
582.58	47388.83
582.74	47100.94
582.90	47547.98
583.06	47604.16
583.22	47246.05
583.38	47196.90
583.54	47519.90
583.70	47936.51
583.86	47674.37
584.02	47119.66
584.18	47391.17
584.34	47704.80
584.50	47449.68
584.66	47634.58
584.82	47264.78
584.98	47746.93
585.14	47442.66
585.30	47461.38
585.46	47232.01
585.62	46997.96
585.78	47405.21
585.94	47522.24
586.10	47388.83
586.26	47236.69
586.42	47297.55
586.58	47316.27
586.74	47349.04
586.90	47192.22
587.06	47749.27
587.22	47964.60
587.38	47578.41
587.54	47569.05
587.70	47833.53
587.86	47578.41
588.02	47440.32
588.18	47278.82
588.34	47283.50
588.49	47402.87
588.65	47257.76
588.81	47760.97
588.97	47653.31
589.13	47707.14
589.29	47353.72
589.45	48006.73
589.61	47732.89
589.77	47772.67
589.93	47917.79
