SpectraSuite Data File
++++++++++++++++++++++++++++++++++++
Date: Fri Oct 25 10:47:19 EDT 2013
User: price-jones
Dark Spectrum Present: No
Reference Spectrum Present: No
Number of Sampled Component Spectra: 1
Spectrometers: USB2+H05261
Integration Time (usec): 100000 (USB2+H05261)
Spectra Averaged: 1 (USB2+H05261)
Boxcar Smoothing: 0 (USB2+H05261)
Correct for Electrical Dark: No (USB2+H05261)
Strobe/Lamp Enabled: No (USB2+H05261)
Correct for Detector Non-linearity: No (USB2+H05261)
Correct for Stray Light: No (USB2+H05261)
Number of Pixels in Processed Spectrum: 2048
>>>>>Begin Processed Spectral Data<<<<<
365.73	110.01
365.92	110.01
366.12	110.01
366.32	32.77
366.52	18.72
366.72	70.22
366.91	49.15
367.11	42.13
367.31	98.30
367.51	51.49
367.70	0.00
367.90	35.11
368.10	56.17
368.30	23.41
368.49	0.00
368.69	107.66
368.89	58.51
369.09	4.68
369.28	102.98
369.48	39.79
369.68	58.51
369.87	117.03
370.07	37.45
370.27	163.84
370.47	128.73
370.66	337.04
370.86	430.66
371.06	454.06
371.25	472.79
371.45	442.36
371.65	482.15
371.84	421.30
372.04	416.62
372.24	440.02
372.44	484.49
372.63	519.60
372.83	500.87
373.03	463.43
373.22	447.04
373.42	486.83
373.62	463.43
373.81	538.32
374.01	601.52
374.21	519.60
374.40	514.92
374.60	575.77
374.79	510.24
374.99	533.64
375.19	573.43
375.38	638.97
375.58	535.98
375.78	589.82
375.97	624.92
376.17	641.31
376.37	568.75
376.56	571.09
376.76	573.43
376.95	521.94
377.15	479.81
377.35	521.94
377.54	521.94
377.74	533.64
377.93	543.00
378.13	571.09
378.33	620.24
378.52	615.56
378.72	524.28
378.91	648.33
379.11	568.75
379.31	627.26
379.50	545.34
379.70	636.63
379.89	732.59
380.09	608.54
380.28	594.50
380.48	667.05
380.68	629.60
380.87	685.78
381.07	662.37
381.26	634.29
381.46	599.18
381.65	648.33
381.85	674.07
382.04	678.76
382.24	622.58
382.43	645.99
382.63	706.84
382.83	702.16
383.02	650.67
383.22	723.23
383.41	634.29
383.61	704.50
383.80	697.48
384.00	716.20
384.19	802.80
384.39	730.25
384.58	753.65
384.78	734.93
384.97	730.25
385.17	713.86
385.36	716.20
385.56	718.54
385.75	758.33
385.95	730.25
386.14	816.85
386.34	805.14
386.53	807.48
386.72	685.78
386.92	821.53
387.11	844.93
387.31	699.82
387.50	765.36
387.70	800.46
387.89	800.46
388.09	774.72
388.28	758.33
388.48	732.59
388.67	763.01
388.86	823.87
389.06	765.36
389.25	828.55
389.45	847.27
389.64	821.53
389.84	844.93
390.03	814.51
390.22	968.98
390.42	882.38
390.61	823.87
390.81	823.87
391.00	945.58
391.19	891.74
391.39	957.28
391.58	894.08
391.78	931.53
391.97	968.98
392.16	875.36
392.36	1034.52
392.55	884.72
392.75	976.00
392.94	915.15
393.13	912.81
393.33	854.30
393.52	1053.24
393.71	1011.11
393.91	1036.86
394.10	915.15
394.29	959.62
394.49	999.41
394.68	1104.73
394.88	1071.97
395.07	994.73
395.26	1107.07
395.46	1041.54
395.65	1060.26
395.84	1074.31
396.04	1125.80
396.23	1104.73
396.42	1029.84
396.62	1013.45
396.81	1167.93
397.00	1090.69
397.19	1238.14
397.39	1146.86
397.58	1170.27
397.77	1104.73
397.97	1191.33
398.16	1191.33
398.35	1226.44
398.55	1270.91
398.74	1275.59
398.93	1277.93
399.12	1291.98
399.32	1294.32
399.51	1280.27
399.70	1240.48
399.90	1313.04
400.09	1399.64
400.28	1359.85
400.47	1399.64
400.67	1364.53
400.86	1430.07
401.05	1420.71
401.24	1451.13
401.44	1378.58
401.63	1301.34
401.82	1369.21
402.01	1462.83
402.21	1460.49
402.40	1458.15
402.59	1413.68
402.78	1437.09
402.97	1458.15
403.17	1479.22
403.36	1575.18
403.55	1629.01
403.74	1577.52
403.93	1533.05
404.13	1579.86
404.32	1591.56
404.51	1511.99
404.70	1605.61
404.89	1540.07
405.09	1582.20
405.28	1643.06
405.47	1652.42
405.66	1795.19
405.85	1689.87
406.05	1619.65
406.24	1668.80
406.43	1739.02
406.62	1769.44
406.81	1802.21
407.00	1680.50
407.20	1753.06
407.39	1654.76
407.58	1837.32
407.77	1820.94
407.96	1872.43
408.15	1842.00
408.34	1912.22
408.54	1809.23
408.73	1865.41
408.92	1914.56
409.11	1961.37
409.30	1921.58
409.49	1900.52
409.68	1940.30
409.87	1921.58
410.07	1928.60
410.26	1977.75
410.45	2143.93
410.64	2003.50
410.83	2197.76
411.02	2094.78
411.21	2165.00
411.40	2127.55
411.59	2129.89
411.78	2120.53
411.98	2101.80
412.17	2251.60
412.36	2253.94
412.55	2249.25
412.74	2251.60
412.93	2380.32
413.12	2305.43
413.31	2321.81
413.50	2370.96
413.69	2438.84
413.88	2408.41
414.07	2476.29
414.26	2487.99
414.45	2511.39
414.64	2431.82
414.83	2640.12
415.02	2621.40
415.22	2635.44
415.41	2551.18
415.60	2609.70
415.79	2647.15
415.98	2670.55
416.17	2715.02
416.36	2801.62
416.55	2771.19
416.74	2820.35
416.93	2862.48
417.12	2878.86
417.31	2928.01
417.50	2916.31
417.69	3002.91
417.88	2902.26
418.07	2883.54
418.26	2993.55
418.45	2986.52
418.64	3038.02
418.83	3028.65
419.02	3066.10
419.21	3124.62
419.39	3096.53
419.58	3021.63
419.77	3021.63
419.96	3098.87
420.15	3091.85
420.34	3229.94
420.53	3110.57
420.72	3192.49
420.91	3171.43
421.10	3307.18
421.29	3435.91
421.48	3159.72
421.67	3297.81
421.86	3262.71
422.05	3332.92
422.24	3187.81
422.43	3262.71
422.61	3389.10
422.80	3272.07
422.99	3424.20
423.18	3344.63
423.37	3459.31
423.56	3356.33
423.75	3386.76
423.94	3335.26
424.13	3236.96
424.32	3234.62
424.50	3372.71
424.69	3492.08
424.88	3361.01
425.07	3332.92
425.26	3440.59
425.45	3353.99
425.64	3332.92
425.83	3396.12
426.01	3494.42
426.20	3506.12
426.39	3435.91
426.58	3318.88
426.77	3545.91
426.96	3510.80
427.15	3501.44
427.33	3492.08
427.52	3492.08
427.71	3501.44
427.90	3597.40
428.09	3611.45
428.28	3630.17
428.46	3595.06
428.65	3555.27
428.84	3709.75
429.03	3798.69
429.22	3620.81
429.40	3768.26
429.59	3833.80
429.78	3496.76
429.97	3609.11
430.16	3681.66
430.34	3784.65
430.53	3892.31
430.72	3833.80
430.91	3761.24
431.10	3943.80
431.28	3976.57
431.47	3929.76
431.66	4025.72
431.85	3950.82
432.03	3957.85
432.22	3971.89
432.41	4056.15
432.60	4142.75
432.79	3997.64
432.97	4018.70
433.16	4088.92
433.35	4016.36
433.54	4014.02
433.72	4060.83
433.91	4032.74
434.10	4168.49
434.28	4081.89
434.47	4219.99
434.66	4222.33
434.85	4184.88
435.03	4287.86
435.22	4276.16
435.41	4542.98
435.59	4271.48
435.78	4465.74
435.97	4416.59
436.16	4271.48
436.34	4269.14
436.53	4299.56
436.72	4468.08
436.90	4484.47
437.09	4491.49
437.28	4519.57
437.46	4355.74
437.65	4313.61
437.84	4521.92
438.02	4521.92
438.21	4538.30
438.40	4507.87
438.58	4552.34
438.77	4786.40
438.96	4608.51
439.14	4793.42
439.33	5001.72
439.52	4889.38
439.70	4898.74
439.89	4959.60
440.08	4912.78
440.26	4936.19
440.45	5008.75
440.63	4983.00
440.82	4950.23
441.01	5039.17
441.19	5261.52
441.38	5228.76
441.57	5078.96
441.75	5151.52
441.94	5390.25
442.12	5343.44
442.31	5495.58
442.50	5448.77
442.68	5432.38
442.87	5420.68
443.05	5516.64
443.24	5479.19
443.43	5437.06
443.61	5568.13
443.80	5813.89
443.98	5446.43
444.17	5423.02
444.35	5593.88
444.54	5533.03
444.73	5689.84
444.91	5514.30
445.10	5600.90
445.28	5556.43
445.47	5467.49
445.65	5654.73
445.84	5729.63
446.02	5692.18
446.21	5504.94
446.39	5598.56
446.58	5785.80
446.77	5760.06
446.95	5621.97
447.14	5614.95
447.32	5701.54
447.51	5783.46
447.69	5666.44
447.88	5959.00
448.06	5636.01
448.25	5785.80
448.43	5584.52
448.62	5760.06
448.80	5661.76
448.99	5806.87
449.17	5849.00
449.36	5849.00
449.54	5893.47
449.73	6113.48
449.91	6005.81
450.10	5994.11
450.28	6328.81
450.46	6010.50
450.65	6061.99
450.83	6139.23
451.02	6092.41
451.20	6122.84
451.39	6258.59
451.57	6134.54
451.76	6127.52
451.94	6125.18
452.13	6279.66
452.31	6340.51
452.49	6143.91
452.68	6214.12
452.86	6139.23
453.05	6291.36
453.23	6363.92
453.42	6253.91
453.60	6389.66
453.78	6335.83
453.97	6197.74
454.15	6349.87
454.34	6380.30
454.52	6352.21
454.70	6539.46
454.89	6466.90
455.07	6551.16
455.26	6520.73
455.44	6642.44
455.62	6616.69
455.81	6668.19
455.99	6827.34
456.17	6832.02
456.36	6623.72
456.54	6801.60
456.73	6782.87
456.91	7068.42
457.09	6841.39
457.28	7063.74
457.46	6881.18
457.64	7080.12
457.83	7077.78
458.01	6923.30
458.19	7169.06
458.38	6974.80
458.56	6916.28
458.74	7166.72
458.93	7101.19
459.11	7297.79
459.29	7194.81
459.48	7197.15
459.66	7101.19
459.84	7417.16
460.03	7222.89
460.21	7328.22
460.39	7344.60
460.57	7314.17
460.76	7419.50
460.94	7541.21
461.12	7503.76
461.31	7386.73
461.49	7543.55
461.67	7470.99
461.85	7578.65
462.04	7536.52
462.22	8042.08
462.40	7676.96
462.59	7749.51
462.77	7658.23
462.95	7625.47
463.13	7637.17
463.32	7613.76
463.50	7691.00
463.68	7815.05
463.86	7679.30
464.05	7674.62
464.23	7726.11
464.41	7789.30
464.59	7653.55
464.78	7939.10
464.96	8011.65
465.14	7733.13
465.32	7946.12
465.50	7967.18
465.69	8173.15
465.87	8032.72
466.05	8018.68
466.23	8042.08
466.41	7866.54
466.60	8299.54
466.78	7950.80
466.96	7992.93
467.14	8107.62
467.32	8102.93
467.51	8348.69
467.69	8002.29
467.87	8124.00
468.05	8259.75
468.23	8238.69
468.41	8304.22
468.60	8313.58
468.78	8411.89
468.96	8379.12
469.14	8334.65
469.32	8512.53
469.50	8325.29
469.69	8484.44
469.87	8470.40
470.05	8486.78
470.23	8449.33
470.41	8629.56
470.59	8741.90
470.77	8674.03
470.95	8669.34
471.14	8805.10
471.32	8781.69
471.50	8964.25
471.68	9060.21
471.86	8842.54
472.04	8863.61
472.22	9228.73
472.40	8994.68
472.58	8933.82
472.77	9048.51
472.95	9343.42
473.13	9502.58
473.31	9095.32
473.49	9474.49
473.67	9331.72
473.85	9500.23
474.03	9696.84
474.21	9565.77
474.39	9769.40
474.57	9858.34
474.75	9731.95
474.93	9816.21
475.12	9830.25
475.30	9853.66
475.48	9790.46
475.66	9977.70
475.84	9877.06
476.02	10148.56
476.20	9832.59
476.38	10347.51
476.56	10497.30
476.74	10501.98
476.92	10284.31
477.10	10310.06
477.28	10478.58
477.46	10279.63
477.64	10682.20
477.82	10864.77
478.00	11070.73
478.18	11042.65
478.36	10949.03
478.54	11344.58
478.72	11096.48
478.90	11339.90
479.08	11363.30
479.26	11501.39
479.44	11262.66
479.62	11529.48
479.80	11536.50
479.98	11871.20
480.16	12105.25
480.34	12006.95
480.52	11910.99
480.70	12067.80
480.88	11981.20
481.06	12133.34
481.24	12325.26
481.41	12372.07
481.59	12655.28
481.77	12521.87
481.95	12704.43
482.13	12858.90
482.31	12744.22
482.49	12994.65
482.67	13172.54
482.85	13188.92
483.03	13451.06
483.21	13315.31
483.39	13345.73
483.57	13537.66
483.74	13668.73
483.92	13973.00
484.10	13729.58
484.28	13884.06
484.46	14115.77
484.64	14490.26
484.82	14094.71
485.00	14443.45
485.18	14455.15
485.35	14719.63
485.53	14256.20
485.71	14651.75
485.89	15019.22
486.07	14937.30
486.25	15126.88
486.43	14970.07
486.61	15140.93
486.78	15550.52
486.96	15335.19
487.14	15749.46
487.32	15749.46
487.50	15847.77
487.68	15974.16
487.85	16287.79
488.03	16341.62
488.21	16255.02
488.39	16365.03
488.57	16624.83
488.75	16559.29
488.92	16936.12
489.10	17137.40
489.28	17216.98
489.46	17252.09
489.64	17282.52
489.81	17816.16
489.99	18054.89
490.17	18143.83
490.35	18057.23
490.53	17914.46
490.70	18258.52
490.88	18242.14
491.06	18567.47
491.24	18249.16
491.41	18354.48
491.59	18661.09
491.77	18537.04
491.95	18979.40
492.13	19225.16
492.30	19229.84
492.48	18953.66
492.66	19398.36
492.84	19321.12
493.01	19742.42
493.19	19506.02
493.37	19861.79
493.54	20285.42
493.72	20049.03
493.90	20180.10
494.08	20348.62
494.25	20498.41
494.43	20411.81
494.61	20638.84
494.79	20737.15
494.96	20369.68
495.14	20917.37
495.32	21163.12
495.49	21032.05
495.67	21371.43
495.85	21488.46
496.02	21528.25
496.20	21532.93
496.38	21640.59
496.55	21771.66
496.73	21961.25
496.91	22190.62
497.09	22347.44
497.26	22384.88
497.44	22499.57
497.62	22174.24
497.79	22553.40
497.97	22604.89
498.14	23035.55
498.32	23007.47
498.50	22845.97
498.67	23236.84
498.85	23311.74
499.03	23555.15
499.20	23470.89
499.38	23655.79
499.56	23576.22
499.73	23981.13
499.91	23761.12
500.08	23910.91
500.26	23946.02
500.44	24203.48
500.61	23903.89
500.79	24161.35
500.97	24535.84
501.14	24383.70
501.32	24056.03
501.49	24570.94
501.67	24762.87
501.84	24709.04
502.02	24428.17
502.20	24800.32
502.37	25109.27
502.55	25193.53
502.72	24931.39
502.90	25137.35
503.07	25116.29
503.25	25493.12
503.43	25378.43
503.60	25916.75
503.78	25666.31
503.95	25689.72
504.13	25692.06
504.30	25979.95
504.48	25762.28
504.65	25907.39
504.83	26246.77
505.01	26136.76
505.18	26347.41
505.36	26242.09
505.53	26525.29
505.71	26574.44
505.88	26623.59
506.06	26522.95
506.23	26731.26
506.41	26501.89
506.58	27150.21
506.76	26838.92
506.93	27087.02
507.11	26808.50
507.28	27075.32
507.46	27124.47
507.63	27019.14
507.81	27571.51
507.98	27538.74
508.16	27630.02
508.33	27517.68
508.50	27597.26
508.68	27740.03
508.85	28180.05
509.03	28137.92
509.20	27711.94
509.38	28313.46
509.55	27981.10
509.73	28402.40
509.90	28086.43
510.08	28208.14
510.25	28325.16
510.42	28479.64
510.60	28474.96
510.77	28879.87
510.95	29172.44
511.12	28379.00
511.30	28985.19
511.47	29343.30
511.64	28847.10
511.82	29179.46
511.99	29050.73
512.17	29352.66
512.34	29104.56
512.51	29771.61
512.69	29762.25
512.86	29631.18
513.04	30068.86
513.21	29893.32
513.38	29741.19
513.56	29876.94
513.73	29668.63
513.90	30204.61
514.08	29818.42
514.25	30396.54
514.43	30225.68
514.60	30031.41
514.77	30235.04
514.95	30164.82
515.12	30424.62
515.29	30433.99
515.47	30543.99
515.64	30611.87
515.81	30658.68
515.99	30668.04
516.16	30672.72
516.33	30920.82
516.51	30920.82
516.68	30724.21
516.85	30590.80
517.03	31094.02
517.20	31204.02
517.37	31243.81
517.54	31463.82
517.72	31552.76
517.89	31599.57
518.06	31482.55
518.24	31807.88
518.41	31433.39
518.58	31311.69
518.75	31721.28
518.93	31922.57
519.10	31784.48
519.27	31679.15
519.45	32414.08
519.62	31948.31
519.79	32170.66
519.96	32510.04
520.14	33207.52
520.31	32444.51
520.48	32758.14
520.65	32554.51
520.83	32879.85
521.00	32685.58
521.17	33219.22
521.34	33350.29
521.52	33001.55
521.69	33181.77
521.86	33230.93
522.03	33055.39
522.20	33633.50
522.38	33177.09
522.55	33539.88
522.72	33525.83
522.89	33401.79
523.07	33354.97
523.24	33652.22
523.41	33858.19
523.58	33326.89
523.75	33984.58
523.92	33944.79
524.10	33689.67
524.27	33860.53
524.44	34169.48
524.61	34206.93
524.78	34019.69
524.96	34443.32
525.13	34469.07
525.30	34588.44
525.47	34483.11
525.64	34693.76
525.81	35119.74
525.98	34855.26
526.16	34541.63
526.33	34644.61
526.50	35124.42
526.67	34738.23
526.84	34700.78
527.01	34459.71
527.18	34712.49
527.36	34906.75
527.53	35037.82
527.70	35927.22
527.87	35456.78
528.04	35030.80
528.21	35103.35
528.38	35281.24
528.55	35688.49
528.72	35599.55
528.89	35957.65
529.07	35763.39
529.24	35646.36
529.41	35562.10
529.58	35676.79
529.75	35651.04
529.92	35737.64
530.09	36154.26
530.26	36053.61
530.43	36053.61
530.60	35976.37
530.77	35871.05
530.94	36613.00
531.11	36154.26
531.28	36238.51
531.46	36348.52
531.63	36353.20
531.80	36428.10
531.97	36320.43
532.14	36142.55
532.31	36514.70
532.48	36889.18
532.65	37083.45
532.82	36605.98
532.99	36531.08
533.16	36243.20
533.33	36664.49
533.50	36931.31
533.67	36907.91
533.84	36676.19
534.01	36964.08
534.18	36825.99
534.35	37532.83
534.52	37275.37
534.69	37163.03
534.86	37401.76
535.03	37422.83
535.20	37368.99
535.37	37649.86
535.54	37825.40
535.71	37429.85
535.88	37827.74
536.05	37640.50
536.22	37961.15
536.38	37825.40
536.55	37869.87
536.72	37984.55
536.89	37776.25
537.06	37801.99
537.23	37764.54
537.40	37886.25
537.57	38031.36
537.74	38029.02
537.91	38286.48
538.08	38349.68
538.25	38185.84
538.42	38192.86
538.59	38501.81
538.75	38029.02
538.92	38218.61
539.09	38171.80
539.26	38447.98
539.43	38504.15
539.60	38370.74
539.77	38433.94
539.94	38888.00
540.11	38401.17
540.28	38855.23
540.44	38031.36
540.61	38522.88
540.78	38497.13
540.95	38623.52
541.12	38529.90
541.29	38658.63
541.46	38579.05
541.62	39030.77
541.79	39409.94
541.96	38520.54
542.13	39185.25
542.30	38658.63
542.47	39133.76
542.63	39068.22
542.80	39522.29
542.97	39519.95
543.14	40023.16
543.31	39828.90
543.48	39658.04
543.64	40203.38
543.81	39791.45
543.98	39604.20
544.15	39768.04
544.32	40240.83
544.48	40027.84
544.65	40018.48
544.82	40350.84
544.99	39538.67
545.16	40121.46
545.32	39725.91
545.49	40350.84
545.66	39983.37
545.83	39887.41
546.00	40371.90
546.16	40486.59
546.33	40287.64
546.50	39735.27
546.67	40409.35
546.83	40182.32
547.00	40722.98
547.17	40285.30
547.34	40140.19
547.50	40570.85
547.67	40816.60
547.84	40781.49
548.00	40495.95
548.17	40987.46
548.34	40865.75
548.51	41081.08
548.67	40877.46
548.84	41139.60
549.01	41361.95
549.18	41078.74
549.34	41076.40
549.51	41453.23
549.68	41263.64
549.84	40931.29
550.01	41045.97
550.18	41048.32
550.34	41055.34
550.51	41095.13
550.68	41109.17
550.84	40652.76
551.01	40975.76
551.18	41097.47
551.34	41029.59
551.51	41710.69
551.68	41766.86
551.84	41673.24
552.01	41383.01
552.18	41535.15
552.34	41263.64
552.51	41588.98
552.68	41626.43
552.84	42073.47
553.01	41521.10
553.18	41598.34
553.34	41584.30
553.51	41331.52
553.67	41558.55
553.84	42113.26
554.01	41937.72
554.17	42073.47
554.34	42178.79
554.51	42534.56
554.67	42146.03
554.84	42014.96
555.00	41624.09
555.17	41830.05
555.33	41858.14
555.50	41893.25
555.67	41886.23
555.83	41881.55
556.00	42447.96
556.16	43016.71
556.33	42405.83
556.50	42314.55
556.66	42546.26
556.83	41848.78
556.99	42602.43
557.16	42398.80
557.32	42616.47
557.49	42487.74
557.65	42536.90
557.82	42389.44
557.98	41916.65
558.15	42752.23
558.32	42541.58
558.48	42366.04
558.65	42450.30
558.81	42473.70
558.98	43014.37
559.14	42534.56
559.31	42644.56
559.47	42747.54
559.64	42869.25
559.80	42733.50
559.97	43115.01
560.13	42190.50
560.30	43112.67
560.46	42967.55
560.63	42864.57
560.79	42574.34
560.96	43028.41
561.12	42597.75
561.29	42923.08
561.45	42880.95
561.61	43005.00
561.78	43093.94
561.94	42773.29
562.11	42796.70
562.27	42834.14
562.44	42721.80
562.60	43044.79
562.77	43349.06
562.93	42728.82
563.10	43178.20
563.26	43089.26
563.42	43096.28
563.59	42927.77
563.75	43021.39
563.92	43058.84
564.08	43030.75
564.24	43578.43
564.41	43173.52
564.57	43110.33
564.74	43342.04
564.90	43438.00
565.07	43077.56
565.23	43105.65
565.39	43239.06
565.56	43372.47
565.72	43269.48
565.88	43009.68
566.05	43409.92
566.21	43143.09
566.38	43140.75
566.54	43400.55
566.70	43697.80
566.87	43372.47
567.03	43442.68
567.19	44114.42
567.36	43732.91
567.52	43147.78
567.68	43625.25
567.85	43316.29
568.01	43519.92
568.17	43175.86
568.34	43658.01
568.50	43873.34
568.66	43178.20
568.83	43658.01
568.99	43571.41
569.15	43274.16
569.32	43140.75
569.48	43096.28
569.64	43833.55
569.81	43693.12
569.97	43400.55
570.13	43257.78
570.30	43264.80
570.46	43227.35
570.62	43313.95
570.78	43449.70
570.95	43381.83
571.11	43835.89
571.27	43435.66
571.43	43246.08
571.60	43735.25
571.76	43569.07
571.92	43566.73
572.09	43445.02
572.25	44053.56
572.41	43466.09
572.57	43667.37
572.74	44334.43
572.90	43796.10
573.06	43264.80
573.22	43838.23
573.38	43753.97
573.55	43688.44
573.71	43995.05
573.87	43725.89
574.03	43789.08
574.20	43529.28
574.36	43737.59
574.52	43702.48
574.68	44332.09
574.84	43882.70
575.01	43643.97
575.17	43744.61
575.33	43725.89
575.49	43168.84
575.65	44140.16
575.82	44587.21
575.98	43950.58
576.14	43924.83
576.30	43885.04
576.46	44100.37
576.62	43503.54
576.79	43931.86
576.95	43468.43
577.11	43580.78
577.27	43938.88
577.43	43955.26
577.59	43810.15
577.75	44102.71
577.92	43952.92
578.08	43632.27
578.24	43606.52
578.40	44020.80
578.56	43819.51
578.72	44140.16
578.88	44149.53
579.04	43885.04
579.21	44037.18
579.37	43629.93
579.53	43480.13
579.69	43634.61
579.85	44020.80
580.01	44142.50
580.17	44215.06
580.33	44278.25
580.49	44446.77
580.65	44154.21
580.82	43950.58
580.98	44313.36
581.14	44018.46
581.30	43873.34
581.46	44184.63
581.62	44065.27
581.78	43697.80
581.94	44315.70
582.10	44133.14
582.26	43985.69
582.42	43988.03
582.58	43826.53
582.74	43959.94
582.90	44243.15
583.06	44137.82
583.22	44055.90
583.38	44388.26
583.54	44147.18
583.70	43519.92
583.86	44388.26
584.02	43573.75
584.18	44098.03
584.34	44182.29
584.50	44067.61
584.66	44072.29
584.82	44179.95
584.98	44638.70
585.14	44325.07
585.30	43917.81
585.46	43732.91
585.62	44013.77
585.78	44142.50
585.94	43491.83
586.10	43983.35
586.26	44264.21
586.42	44119.10
586.58	44109.74
586.74	44392.94
586.90	44116.76
587.06	43618.22
587.22	44186.97
587.38	43709.50
587.54	44306.34
587.70	44383.58
587.86	44362.51
588.02	44133.14
588.18	44428.05
588.34	44243.15
588.49	43962.28
588.65	43552.69
588.81	43854.62
588.97	44222.08
589.13	43826.53
589.29	44332.09
589.45	44502.95
589.61	44311.02
589.77	44168.25
589.93	44399.96
590.08	44437.41
590.24	44456.14
590.40	44364.85
