SpectraSuite Data File
++++++++++++++++++++++++++++++++++++
Date: Fri Oct 25 11:34:45 EDT 2013
User: price-jones
Dark Spectrum Present: No
Reference Spectrum Present: No
Number of Sampled Component Spectra: 1
Spectrometers: USB2+H05261
Integration Time (usec): 100000 (USB2+H05261)
Spectra Averaged: 1 (USB2+H05261)
Boxcar Smoothing: 0 (USB2+H05261)
Correct for Electrical Dark: No (USB2+H05261)
Strobe/Lamp Enabled: No (USB2+H05261)
Correct for Detector Non-linearity: No (USB2+H05261)
Correct for Stray Light: No (USB2+H05261)
Number of Pixels in Processed Spectrum: 2048
>>>>>Begin Processed Spectral Data<<<<<
365.73	255.12
365.92	255.12
366.12	255.12
366.32	203.63
366.52	245.76
366.72	152.13
366.91	154.48
367.11	159.16
367.31	161.50
367.51	205.97
367.70	154.48
367.90	196.60
368.10	170.86
368.30	224.69
368.49	220.01
368.69	159.16
368.89	243.42
369.09	184.90
369.28	191.92
369.48	297.25
369.68	262.14
369.87	278.52
370.07	241.08
370.27	262.14
370.47	367.46
370.66	484.49
370.86	465.77
371.06	505.56
371.25	552.37
371.45	575.77
371.65	559.39
371.84	528.96
372.04	566.41
372.24	524.28
372.44	545.34
372.63	564.07
372.83	648.33
373.03	575.77
373.22	531.30
373.42	559.39
373.62	596.84
373.81	608.54
374.01	620.24
374.21	620.24
374.40	681.10
374.60	587.47
374.79	685.78
374.99	655.35
375.19	671.73
375.38	676.41
375.58	718.54
375.78	638.97
375.97	716.20
376.17	702.16
376.37	676.41
376.56	667.05
376.76	617.90
376.95	631.94
377.15	664.71
377.35	711.52
377.54	697.48
377.74	709.18
377.93	704.50
378.13	629.60
378.33	697.48
378.52	655.35
378.72	723.23
378.91	711.52
379.11	681.10
379.31	650.67
379.50	638.97
379.70	720.88
379.89	751.31
380.09	655.35
380.28	690.46
380.48	660.03
380.68	660.03
380.87	671.73
381.07	695.14
381.26	767.70
381.46	765.36
381.65	713.86
381.85	730.25
382.04	784.08
382.24	737.27
382.43	751.31
382.63	786.42
382.83	697.48
383.02	779.40
383.22	772.38
383.41	699.82
383.61	685.78
383.80	746.63
384.00	739.61
384.19	793.44
384.39	816.85
384.58	753.65
384.78	870.68
384.97	793.44
385.17	709.18
385.36	744.29
385.56	800.46
385.75	821.53
385.95	861.32
386.14	755.99
386.34	835.57
386.53	795.78
386.72	837.91
386.92	809.83
387.11	877.70
387.31	952.60
387.50	807.48
387.70	854.30
387.89	887.06
388.09	903.45
388.28	833.23
388.48	840.25
388.67	943.24
388.86	947.92
389.06	884.72
389.25	880.04
389.45	912.81
389.64	917.49
389.84	889.40
390.03	959.62
390.22	844.93
390.42	957.28
390.61	940.90
390.81	971.32
391.00	863.66
391.19	959.62
391.39	978.34
391.58	987.71
391.78	1004.09
391.97	1008.77
392.16	931.53
392.36	1018.13
392.55	973.66
392.75	943.24
392.94	992.39
393.13	1053.24
393.33	1013.45
393.52	1097.71
393.71	1097.71
393.91	978.34
394.10	1083.67
394.29	1043.88
394.49	1046.22
394.68	1100.05
394.88	1071.97
395.07	1111.75
395.26	1043.88
395.46	1135.16
395.65	1086.01
395.84	1139.84
396.04	1160.91
396.23	1207.72
396.42	1128.14
396.62	1114.10
396.81	1163.25
397.00	1196.01
397.19	1282.61
397.39	1219.42
397.58	1151.54
397.77	1142.18
397.97	1193.67
398.16	1196.01
398.35	1200.69
398.55	1306.02
398.74	1259.21
398.93	1259.21
399.12	1228.78
399.32	1275.59
399.51	1261.55
399.70	1261.55
399.90	1280.27
400.09	1352.83
400.28	1320.06
400.47	1282.61
400.67	1418.36
400.86	1366.87
401.05	1282.61
401.24	1343.47
401.44	1369.21
401.63	1420.71
401.82	1411.34
402.01	1341.13
402.21	1401.98
402.40	1441.77
402.59	1355.17
402.78	1481.56
402.97	1394.96
403.17	1481.56
403.36	1537.73
403.55	1469.86
403.74	1528.37
403.93	1523.69
404.13	1549.43
404.32	1570.50
404.51	1540.07
404.70	1465.18
404.89	1528.37
405.09	1631.35
405.28	1638.38
405.47	1526.03
405.66	1746.04
405.85	1678.16
406.05	1600.93
406.24	1605.61
406.43	1603.27
406.62	1741.36
406.81	1804.55
407.00	1689.87
407.20	1640.72
407.39	1666.46
407.58	1736.68
407.77	1788.17
407.96	1774.13
408.15	1699.23
408.34	1774.13
408.54	1893.49
408.73	1827.96
408.92	1886.47
409.11	1921.58
409.30	1994.14
409.49	1954.35
409.68	1900.52
409.87	1907.54
410.07	1937.96
410.26	2031.58
410.45	1952.01
410.64	1916.90
410.83	2045.63
411.02	2026.90
411.21	2036.27
411.40	2108.82
411.59	2090.10
411.78	2146.27
411.98	2052.65
412.17	2190.74
412.36	2122.87
412.55	2221.17
412.74	2214.15
412.93	2237.55
413.12	2197.76
413.31	2275.00
413.50	2202.44
413.69	2331.17
413.88	2291.38
414.07	2310.11
414.26	2415.43
414.45	2415.43
414.64	2417.77
414.83	2438.84
415.02	2459.90
415.22	2459.90
415.41	2649.49
415.60	2537.14
415.79	2553.52
415.98	2487.99
416.17	2541.82
416.36	2630.76
416.55	2663.53
416.74	2743.11
416.93	2637.78
417.12	2668.21
417.31	2747.79
417.50	2600.34
417.69	2778.22
417.88	2841.41
418.07	2787.58
418.26	2813.32
418.45	2764.17
418.64	2843.75
418.83	2860.13
419.02	2890.56
419.21	2916.31
419.39	3042.70
419.58	2904.60
419.77	3007.59
419.96	3110.57
420.15	3094.19
420.34	2902.26
420.53	3059.08
420.72	2988.86
420.91	3042.70
421.10	3075.46
421.29	3150.36
421.48	3059.08
421.67	3211.22
421.86	3150.36
422.05	3110.57
422.24	3059.08
422.43	3073.12
422.61	3117.59
422.80	3276.75
422.99	3169.09
423.18	3199.51
423.37	3316.54
423.56	3183.13
423.75	3222.92
423.94	3094.19
424.13	3108.23
424.32	3126.96
424.50	3300.16
424.69	3103.55
424.88	3325.90
425.07	3288.45
425.26	3236.96
425.45	3241.64
425.64	3199.51
425.83	3295.47
426.01	3201.85
426.20	3183.13
426.39	3318.88
426.58	3391.44
426.77	3513.14
426.96	3440.59
427.15	3375.05
427.33	3440.59
427.52	3328.24
427.71	3475.70
427.90	3419.52
428.09	3485.06
428.28	3398.46
428.46	3653.58
428.65	3487.40
428.84	3494.42
429.03	3410.16
429.22	3541.23
429.40	3510.80
429.59	3492.08
429.78	3442.93
429.97	3421.86
430.16	3665.28
430.34	3653.58
430.53	3798.69
430.72	3756.56
430.91	3623.15
431.10	3541.23
431.28	3662.94
431.47	3655.92
431.66	3892.31
431.85	3775.28
432.03	3904.01
432.22	3873.59
432.41	3815.07
432.60	3784.65
432.79	3796.35
432.97	3740.18
433.16	3857.20
433.35	4035.08
433.54	3943.80
433.72	4009.34
433.91	4056.15
434.10	3985.93
434.28	4070.19
434.47	3885.29
434.66	4046.79
434.85	4128.70
435.03	4072.53
435.22	3960.19
435.41	4131.05
435.59	4245.73
435.78	4180.20
435.97	4063.17
436.16	4093.60
436.34	4154.45
436.53	4299.56
436.72	4390.84
436.90	4102.96
437.09	4231.69
437.28	4079.55
437.46	4264.46
437.65	4196.58
437.84	4346.37
438.02	4208.28
438.21	4381.48
438.40	4418.93
438.58	4500.85
438.77	4575.75
438.96	4329.99
439.14	4521.92
439.33	4533.62
439.52	4713.84
439.70	4648.30
439.89	4748.95
440.08	4795.76
440.26	4755.97
440.45	4589.79
440.63	4784.06
440.82	4908.10
441.01	4784.06
441.19	4992.36
441.38	4908.10
441.57	4985.34
441.75	5191.31
441.94	5165.56
442.12	5020.45
442.31	5107.05
442.50	5074.28
442.68	5172.58
442.87	5125.77
443.05	5266.21
443.24	5376.21
443.43	5235.78
443.61	5291.95
443.80	5305.99
443.98	5186.63
444.17	5174.92
444.35	5270.89
444.54	5371.53
444.73	5423.02
444.91	5364.51
445.10	5231.10
445.28	5481.53
445.47	5359.83
445.65	5247.48
445.84	5394.93
446.02	5481.53
446.21	5404.30
446.39	5322.38
446.58	5479.19
446.77	5439.40
446.95	5526.00
447.14	5467.49
447.32	5495.58
447.51	5371.53
447.69	5441.75
447.88	5495.58
448.06	5495.58
448.25	5460.47
448.43	5401.96
448.62	5427.70
448.80	5521.32
448.99	5523.66
449.17	5575.16
449.36	5507.28
449.54	5526.00
449.73	5717.93
449.91	5818.57
450.10	5706.23
450.28	5898.15
450.46	5874.74
450.65	5738.99
450.83	5837.30
451.02	5830.27
451.20	5806.87
451.39	5893.47
451.57	5785.80
451.76	5858.36
451.94	5806.87
452.13	6017.52
452.31	5820.91
452.49	5898.15
452.68	5909.85
452.86	5994.11
453.05	6024.54
453.23	5970.71
453.42	5916.87
453.60	6001.13
453.78	6246.89
453.97	6012.84
454.15	6094.76
454.34	6092.41
454.52	6155.61
454.70	6195.40
454.89	6338.17
455.07	6256.25
455.26	6361.58
455.44	6249.23
455.62	6422.43
455.81	6401.37
455.99	6466.90
456.17	6525.41
456.36	6347.53
456.54	6347.53
456.73	6539.46
456.91	6619.04
457.09	6768.83
457.28	6815.64
457.46	6525.41
457.64	6724.36
457.83	6539.46
458.01	6808.62
458.19	6848.41
458.38	6768.83
458.56	6871.81
458.74	6808.62
458.93	6541.80
459.11	6881.18
459.29	6867.13
459.48	6909.26
459.66	6778.19
459.84	6981.82
460.03	7016.93
460.21	7176.08
460.39	6902.24
460.57	6885.86
460.76	7030.97
460.94	7190.13
461.12	7138.63
461.31	7110.55
461.49	7098.84
461.67	7070.76
461.85	7119.91
462.04	7309.49
462.22	7463.97
462.40	7253.32
462.59	7297.79
462.77	7360.98
462.95	7445.24
463.13	7279.07
463.32	7372.69
463.50	7314.17
463.68	7564.61
463.86	7489.71
464.05	7386.73
464.23	7398.43
464.41	7431.20
464.59	7466.31
464.78	7672.28
464.96	7648.87
465.14	7527.16
465.32	7674.62
465.50	7721.43
465.69	7749.51
465.87	7566.95
466.05	7838.45
466.23	7676.96
466.41	7779.94
466.60	8121.66
466.78	7707.38
466.96	7810.37
467.14	7761.22
467.32	7756.54
467.51	7901.65
467.69	7782.28
467.87	7838.45
468.05	7906.33
468.23	7812.71
468.41	7911.01
468.60	7985.91
468.78	8051.44
468.96	7941.44
469.14	8156.77
469.32	8376.78
469.50	8105.28
469.69	8205.92
469.87	8290.18
470.05	8280.82
470.23	8313.58
470.41	8271.45
470.59	8542.96
470.77	8301.88
470.95	8285.50
471.14	8418.91
471.32	8255.07
471.50	8379.12
471.68	8493.80
471.86	8470.40
472.04	8575.72
472.22	8793.39
472.40	8716.16
472.58	8863.61
472.77	8896.38
472.95	9111.71
473.13	9097.66
473.31	9029.79
473.49	8936.17
473.67	9092.98
473.85	8973.61
474.03	9245.12
474.21	9114.05
474.39	9224.05
474.57	9062.55
474.75	9151.49
474.93	9432.36
475.12	9270.86
475.30	9441.72
475.48	9217.03
475.66	9544.70
475.84	9547.05
476.02	9518.96
476.20	9504.92
476.38	9790.46
476.56	10064.30
476.74	10019.83
476.92	9951.96
477.10	10010.47
477.28	10038.56
477.46	10235.16
477.64	10270.27
477.82	10438.79
478.00	10562.84
478.18	10525.39
478.36	10553.48
478.54	10677.52
478.72	10682.20
478.90	10855.40
479.08	10853.06
479.26	11016.90
479.44	10925.62
479.62	11005.20
479.80	10972.43
479.98	11365.64
480.16	11440.54
480.34	11332.87
480.52	11651.19
480.70	11482.67
480.88	11522.46
481.06	11569.27
481.24	11573.95
481.41	11580.97
481.59	12121.63
481.77	11999.93
481.95	12219.94
482.13	12358.03
482.31	12231.64
482.49	12617.83
482.67	12540.59
482.85	12482.08
483.03	13046.15
483.21	12936.14
483.39	12992.31
483.57	12877.63
483.74	13359.78
483.92	13420.63
484.10	13179.56
484.28	13401.91
484.46	13596.17
484.64	13846.61
484.82	13495.53
485.00	13790.44
485.18	13937.89
485.35	14221.10
485.53	14171.94
485.71	14244.50
485.89	14494.94
486.07	14167.26
486.25	14523.02
486.43	14743.03
486.61	14609.62
486.78	15002.83
486.96	14913.89
487.14	15197.10
487.32	15290.72
487.50	15164.33
487.68	15508.39
487.85	15672.23
488.03	15772.87
488.21	15946.07
488.39	15866.49
488.57	16149.70
488.75	16203.53
488.92	16526.52
489.10	16432.90
489.28	16432.90
489.46	16896.33
489.64	16699.72
489.81	17048.46
489.99	17371.46
490.17	17376.14
490.35	17373.80
490.53	17308.26
490.70	17343.37
490.88	17441.67
491.06	17710.83
491.24	17743.60
491.41	17696.79
491.59	18230.43
491.77	18192.98
491.95	18251.50
492.13	18293.63
492.30	18368.52
492.48	18497.25
492.66	18567.47
492.84	18672.79
493.01	19068.34
493.19	18860.04
493.37	19248.57
493.54	19328.14
493.72	19632.41
493.90	19454.53
494.08	19489.64
494.25	19407.72
494.43	19665.18
494.61	19826.68
494.79	19932.00
494.96	19770.51
495.14	20116.90
495.32	20271.38
495.49	20631.82
495.67	20290.10
495.85	20725.44
496.02	20929.07
496.20	21144.40
496.38	21223.98
496.55	21046.10
496.73	21434.63
496.91	21509.52
497.09	21771.66
497.26	21792.73
497.44	21481.44
497.62	21984.65
497.79	22202.32
497.97	22085.30
498.14	22129.77
498.32	22328.71
498.50	22317.01
498.67	22412.97
498.85	22384.88
499.03	22553.40
499.20	22871.72
499.38	22871.72
499.56	22984.06
499.73	22766.39
499.91	23255.56
500.08	23241.52
500.26	23152.58
500.44	23311.74
500.61	23407.70
500.79	23559.83
500.97	23634.73
501.14	23812.61
501.32	23927.30
501.49	23960.06
501.67	23828.99
501.84	24032.62
502.02	24261.99
502.20	23770.48
502.37	24039.64
502.55	24219.86
502.72	24301.78
502.90	24304.12
503.07	24203.48
503.25	24491.37
503.43	24622.44
503.60	24694.99
503.78	25097.56
503.95	25153.74
504.13	25287.15
504.30	25010.96
504.48	25238.00
504.65	25343.32
504.83	25600.78
505.01	25359.70
505.18	25575.03
505.36	25582.06
505.53	25654.61
505.71	25755.26
505.88	25626.53
506.06	25589.08
506.23	25851.22
506.41	26324.01
506.58	26338.05
506.76	26391.88
506.93	26621.25
507.11	26398.90
507.28	26616.57
507.46	26441.03
507.63	26714.87
507.81	26731.26
507.98	26511.25
508.16	26494.86
508.33	27281.28
508.50	26890.41
508.68	27278.94
508.85	27386.61
509.03	26906.80
509.20	27227.45
509.38	27487.25
509.55	27381.93
509.73	27360.86
509.90	27555.13
510.08	27618.32
510.25	28203.46
510.42	27662.79
510.60	27992.81
510.77	27955.36
510.95	28294.74
511.12	27754.07
511.30	28173.03
511.47	28481.98
511.64	28381.34
511.82	28510.07
511.99	28638.80
512.17	28968.81
512.34	28910.30
512.51	28999.24
512.69	29202.86
512.86	29036.69
513.04	29214.57
513.21	28978.17
513.38	29472.03
513.56	29457.98
513.73	29366.70
513.90	29233.29
514.08	29287.12
514.25	29504.79
514.43	29617.14
514.60	29820.77
514.77	29912.05
514.95	29773.95
515.12	29799.70
515.29	29830.13
515.47	30195.25
515.64	29961.20
515.81	29729.48
515.99	30501.86
516.16	30553.35
516.33	30548.67
516.51	30548.67
516.68	30457.39
516.85	30356.75
517.03	30735.92
517.20	30445.69
517.37	30735.92
517.54	30801.45
517.72	31173.60
517.89	31023.80
518.06	31330.41
518.24	31180.62
518.41	30965.29
518.58	31527.02
518.75	31173.60
518.93	31307.01
519.10	31182.96
519.27	31274.24
519.45	31508.29
519.62	31613.62
519.79	31971.72
519.96	31604.25
520.14	31969.38
520.31	31466.16
520.48	31927.25
520.65	32074.70
520.83	32084.06
521.00	32154.28
521.17	32378.97
521.34	32238.54
521.52	32580.26
521.69	32275.99
521.86	32517.06
522.03	32503.02
522.20	32603.66
522.38	32645.79
522.55	32900.91
522.72	32973.47
522.89	33062.41
523.07	33184.12
523.24	33097.52
523.41	33331.57
523.58	33024.96
523.75	33633.50
523.92	33219.22
524.10	33359.66
524.27	33596.05
524.44	33577.33
524.61	33656.90
524.78	33652.22
524.96	33656.90
525.13	34003.30
525.30	34089.90
525.47	34218.63
525.64	34176.50
525.81	34153.10
525.98	34361.40
526.16	34223.31
526.33	33682.65
526.50	34492.47
526.67	33993.94
526.84	34651.63
527.01	34539.29
527.18	34108.63
527.36	34597.80
527.53	34794.40
527.70	34876.32
527.87	35049.52
528.04	34508.86
528.21	34838.87
528.38	34897.39
528.55	35145.48
528.72	34735.89
528.89	35061.22
529.07	35005.05
529.24	34780.36
529.41	35517.63
529.58	35218.04
529.75	35470.82
529.92	35613.59
530.09	35842.96
530.26	35590.19
530.43	35835.94
530.60	35452.09
530.77	35239.11
530.94	35566.78
531.11	35311.66
531.28	35798.49
531.46	36044.25
531.63	36287.67
531.80	36322.77
531.97	36259.58
532.14	35660.40
532.31	36119.15
532.48	36503.00
532.65	36650.45
532.82	36542.78
532.99	36327.45
533.16	35707.21
533.33	36624.70
533.50	36484.27
533.67	36116.81
533.84	36479.59
534.01	36807.26
534.18	36446.82
534.35	37024.93
534.52	36732.37
534.69	37380.70
534.86	37022.59
535.03	37027.28
535.20	37233.24
535.37	37350.27
535.54	37340.91
535.71	37067.06
535.88	37462.61
536.05	37305.80
536.22	37883.91
536.38	37261.33
536.55	37448.57
536.72	37233.24
536.89	37184.09
537.06	37493.04
537.23	37778.59
537.40	37324.52
537.57	37083.45
537.74	37366.65
537.91	37937.74
538.08	37596.03
538.25	37280.05
538.42	37425.17
538.59	38363.72
538.75	37958.81
538.92	38139.03
539.09	38721.82
539.26	38462.02
539.43	38148.39
539.60	38440.96
539.77	38349.68
539.94	38237.33
540.11	38312.23
540.28	38003.28
540.44	38660.97
540.61	38382.45
540.78	38326.27
540.95	38513.52
541.12	38169.46
541.29	38504.15
541.46	38752.25
541.62	38829.49
541.79	38513.52
541.96	38611.82
542.13	38597.77
542.30	38721.82
542.47	38831.83
542.63	38625.86
542.80	39016.73
542.97	39328.02
543.14	39543.35
543.31	39222.70
543.48	39281.21
543.64	39871.03
543.81	39927.20
543.98	39791.45
544.15	39871.03
544.32	39447.39
544.48	39688.46
544.65	39896.77
544.82	39910.82
544.99	39662.72
545.16	40027.84
545.32	40280.62
545.49	40311.05
545.66	40254.87
545.83	40013.80
546.00	40203.38
546.16	40011.46
546.33	39873.37
546.50	39728.25
546.67	40430.41
546.83	40236.15
547.00	40409.35
547.17	40194.02
547.34	40627.02
547.50	40582.55
547.67	40350.84
547.84	40589.57
548.00	40212.74
548.17	40753.41
548.34	40849.37
548.51	40996.82
548.67	40942.99
548.84	40683.19
549.01	40809.58
549.18	40727.66
549.34	40748.73
549.51	41106.83
549.68	41235.56
549.84	40722.98
550.01	40732.34
550.18	41294.07
550.34	40844.69
550.51	41383.01
550.68	41214.49
550.84	40622.34
551.01	41453.23
551.18	41163.00
551.34	41212.15
551.51	41081.08
551.68	41378.33
551.84	41691.96
552.01	41003.85
552.18	41478.97
552.34	41020.23
552.51	41427.48
552.68	41628.77
552.84	41500.04
553.01	41736.43
553.18	41830.05
553.34	42019.64
553.51	41158.32
553.67	41918.99
553.84	42117.94
554.01	41701.32
554.17	41532.81
554.34	42031.34
554.51	41666.22
554.67	42480.72
554.84	41951.76
555.00	42059.43
555.17	42511.15
555.33	42040.70
555.50	42078.15
555.67	41738.77
555.83	41874.52
556.00	42424.55
556.16	42745.20
556.33	42429.23
556.50	42546.26
556.66	42134.32
556.83	42117.94
556.99	42529.87
557.16	42520.51
557.32	42745.20
557.49	42742.86
557.65	42288.80
557.82	42735.84
557.98	42454.98
558.15	42029.00
558.32	42873.93
558.48	42354.33
558.65	42604.77
558.81	42483.06
558.98	42637.54
559.14	42649.24
559.31	42761.59
559.47	42972.24
559.64	42934.79
559.80	42529.87
559.97	42766.27
560.13	42787.33
560.30	42642.22
560.46	42953.51
560.63	43276.51
560.79	43335.02
560.96	43613.54
561.12	42761.59
561.29	43042.45
561.45	43545.67
561.61	42628.18
561.78	43138.41
561.94	43100.97
562.11	43110.33
562.27	42948.83
562.44	43409.92
562.60	43477.79
562.77	43129.05
562.93	42974.58
563.10	43578.43
563.26	42897.34
563.42	43688.44
563.59	42904.36
563.75	43484.81
563.92	43798.44
564.08	43182.88
564.24	43592.48
564.41	43021.39
564.57	43566.73
564.74	43210.97
564.90	43503.54
565.07	43419.28
565.23	43138.41
565.39	43583.12
565.56	43704.82
565.72	43438.00
565.88	43646.31
566.05	43948.24
566.21	43566.73
566.38	43613.54
566.54	43938.88
566.70	43529.28
566.87	43669.72
567.03	43641.63
567.19	44004.41
567.36	43372.47
567.52	43770.36
567.68	44746.36
567.85	43915.47
568.01	43906.11
568.17	43665.03
568.34	43943.56
568.50	44102.71
568.66	43592.48
568.83	43990.37
568.99	43803.13
569.15	43856.96
569.32	44062.93
569.48	43906.11
569.64	44107.40
569.81	44027.82
569.97	43950.58
570.13	44245.49
570.30	43962.28
570.46	44081.65
570.62	43990.37
570.78	44133.14
570.95	43730.57
571.11	44350.81
571.27	44044.20
571.43	43964.62
571.60	44566.14
571.76	43608.86
571.92	44002.07
572.09	44116.76
572.25	44224.42
572.41	43903.77
572.57	44065.27
572.74	44687.85
572.90	44151.87
573.06	44278.25
573.22	44446.77
573.38	44563.80
573.55	44538.05
573.71	44526.35
573.87	44467.84
574.03	44355.49
574.20	44495.92
574.36	44175.27
574.52	44381.24
574.68	44615.29
574.84	44704.23
575.01	44634.02
575.17	44776.79
575.33	44205.70
575.49	44575.50
575.65	44591.89
575.82	44612.95
575.98	44357.83
576.14	44612.95
576.30	44964.03
576.46	44509.97
576.62	44250.17
576.79	44563.80
576.95	44168.25
577.11	43908.45
577.27	44535.71
577.43	44362.51
577.59	44311.02
577.75	44053.56
577.92	44289.96
578.08	44191.65
578.24	44453.79
578.40	45022.54
578.56	44809.56
578.72	44488.90
578.88	44708.91
579.04	44648.06
579.21	44486.56
579.37	44306.34
579.53	45326.81
579.69	44343.79
579.85	44498.26
580.01	44889.13
580.17	44610.61
580.33	44652.74
580.49	44357.83
580.65	44418.69
580.82	44500.61
580.98	43810.15
581.14	44313.36
581.30	44877.43
581.46	44329.75
581.62	44861.05
581.78	44641.04
581.94	44800.19
582.10	44474.86
582.26	44802.53
582.42	44961.69
582.58	44554.44
582.74	44692.53
582.90	44521.67
583.06	44795.51
583.22	44524.01
583.38	44807.22
583.54	44786.15
583.70	44758.06
583.86	45184.04
584.02	44521.67
584.18	45303.41
584.34	44973.39
584.50	44905.52
584.66	44741.68
584.82	44765.09
584.98	45120.85
585.14	45354.90
585.30	44481.88
585.46	44776.79
585.62	44203.36
585.78	44662.10
585.94	44339.11
586.10	44479.54
586.26	44549.76
586.42	44945.31
586.58	44912.54
586.74	44980.42
586.90	44577.84
587.06	44952.33
587.22	44872.75
587.38	44568.48
587.54	45045.95
587.70	45361.92
587.86	44795.51
588.02	44694.87
588.18	44566.14
588.34	45350.22
588.49	45289.37
588.65	44535.71
588.81	44697.21
588.97	44907.86
589.13	45200.43
589.29	45188.72
589.45	45036.59
589.61	44992.12
589.77	45303.41
589.93	45167.66
590.08	44971.05
