SpectraSuite Data File
++++++++++++++++++++++++++++++++++++
Date: Fri Oct 25 11:25:13 EDT 2013
User: price-jones
Dark Spectrum Present: No
Reference Spectrum Present: No
Number of Sampled Component Spectra: 1
Spectrometers: USB2+H05261
Integration Time (usec): 100000 (USB2+H05261)
Spectra Averaged: 1 (USB2+H05261)
Boxcar Smoothing: 0 (USB2+H05261)
Correct for Electrical Dark: No (USB2+H05261)
Strobe/Lamp Enabled: No (USB2+H05261)
Correct for Detector Non-linearity: No (USB2+H05261)
Correct for Stray Light: No (USB2+H05261)
Number of Pixels in Processed Spectrum: 2048
>>>>>Begin Processed Spectral Data<<<<<
365.73	212.99
365.92	212.99
366.12	212.99
366.32	168.52
366.52	184.90
366.72	145.11
366.91	180.22
367.11	168.52
367.31	147.45
367.51	152.13
367.70	194.26
367.90	93.62
368.10	126.39
368.30	93.62
368.49	159.16
368.69	166.18
368.89	142.77
369.09	149.79
369.28	170.86
369.48	142.77
369.68	159.16
369.87	175.54
370.07	217.67
370.27	236.39
370.47	285.55
370.66	564.07
370.86	543.00
371.06	582.79
371.25	671.73
371.45	720.88
371.65	674.07
371.84	727.91
372.04	587.47
372.24	746.63
372.44	798.12
372.63	720.88
372.83	737.27
373.03	732.59
373.22	676.41
373.42	688.12
373.62	798.12
373.81	746.63
374.01	763.01
374.21	819.19
374.40	800.46
374.60	821.53
374.79	828.55
374.99	884.72
375.19	952.60
375.38	884.72
375.58	807.48
375.78	898.77
375.97	819.19
376.17	919.83
376.37	812.17
376.56	866.00
376.76	898.77
376.95	961.96
377.15	945.58
377.35	910.47
377.54	870.68
377.74	943.24
377.93	915.15
378.13	849.61
378.33	1022.81
378.52	929.19
378.72	917.49
378.91	966.64
379.11	870.68
379.31	908.13
379.50	1015.79
379.70	997.07
379.89	971.32
380.09	961.96
380.28	987.71
380.48	999.41
380.68	961.96
380.87	966.64
381.07	976.00
381.26	1034.52
381.46	1057.92
381.65	1011.11
381.85	1064.94
382.04	1022.81
382.24	1048.56
382.43	1053.24
382.63	994.73
382.83	978.34
383.02	1074.31
383.22	1144.52
383.41	1100.05
383.61	1149.20
383.80	1095.37
384.00	1151.54
384.19	1179.63
384.39	1107.07
384.58	1032.18
384.78	1104.73
384.97	1151.54
385.17	1146.86
385.36	1107.07
385.56	1149.20
385.75	1116.44
385.95	1128.14
386.14	1137.50
386.34	1177.29
386.53	1088.35
386.72	1231.12
386.92	1224.10
387.11	1167.93
387.31	1266.23
387.50	1165.59
387.70	1254.53
387.89	1301.34
388.09	1214.74
388.28	1217.08
388.48	1277.93
388.67	1329.42
388.86	1291.98
389.06	1261.55
389.25	1348.15
389.45	1299.00
389.64	1256.87
389.84	1373.89
390.03	1406.66
390.22	1404.32
390.42	1313.04
390.61	1387.94
390.81	1462.83
391.00	1427.73
391.19	1425.39
391.39	1411.34
391.58	1390.28
391.78	1383.26
391.97	1490.92
392.16	1469.86
392.36	1586.88
392.55	1500.28
392.75	1535.39
392.94	1504.96
393.13	1535.39
393.33	1514.33
393.52	1577.52
393.71	1516.67
393.91	1558.80
394.10	1668.80
394.29	1689.87
394.49	1603.27
394.68	1589.22
394.88	1586.88
395.07	1666.46
395.26	1682.85
395.46	1668.80
395.65	1769.44
395.84	1650.08
396.04	1764.76
396.23	1799.87
396.42	1746.04
396.62	1823.28
396.81	1811.57
397.00	1750.72
397.19	1727.32
397.39	1774.13
397.58	1863.07
397.77	1797.53
397.97	1750.72
398.16	1732.00
398.35	1867.75
398.55	1797.53
398.74	1877.11
398.93	1984.77
399.12	1947.33
399.32	1891.15
399.51	1940.30
399.70	1968.39
399.90	1961.37
400.09	1900.52
400.28	1942.64
400.47	1994.14
400.67	2050.31
400.86	2073.71
401.05	2001.16
401.24	1966.05
401.44	1994.14
401.63	2094.78
401.82	2120.53
402.01	1952.01
402.21	2153.29
402.40	2129.89
402.59	2188.40
402.78	2209.47
402.97	2153.29
403.17	2225.85
403.36	2291.38
403.55	2218.83
403.74	2347.56
403.93	2363.94
404.13	2242.23
404.32	2284.36
404.51	2305.43
404.70	2373.30
404.89	2338.20
405.09	2422.45
405.28	2459.90
405.47	2420.11
405.66	2455.22
405.85	2565.23
406.05	2525.44
406.24	2509.05
406.43	2502.03
406.62	2560.55
406.81	2630.76
407.00	2642.46
407.20	2616.72
407.39	2511.39
407.58	2670.55
407.77	2633.10
407.96	2731.41
408.15	2710.34
408.34	2684.59
408.54	2689.28
408.73	2895.24
408.92	2766.51
409.11	2829.71
409.30	2792.26
409.49	2855.45
409.68	2857.79
409.87	2834.39
410.07	2949.08
410.26	2946.73
410.45	2874.18
410.64	3042.70
410.83	3119.93
411.02	3063.76
411.21	3073.12
411.40	3218.24
411.59	3197.17
411.78	3194.83
411.98	3262.71
412.17	3248.66
412.36	3201.85
412.55	3208.87
412.74	3349.31
412.93	3323.56
413.12	3220.58
413.31	3510.80
413.50	3442.93
413.69	3447.61
413.88	3588.04
414.07	3552.93
414.26	3599.74
414.45	3632.51
414.64	3693.37
414.83	3688.68
415.02	3768.26
415.22	3728.47
415.41	3688.68
415.60	3810.39
415.79	3791.67
415.98	3978.91
416.17	3918.06
416.36	3864.22
416.55	4053.81
416.74	4058.49
416.93	3962.53
417.12	4318.29
417.31	4039.76
417.50	4215.30
417.69	4299.56
417.88	4311.27
418.07	4273.82
418.26	4187.22
418.45	4266.80
418.64	4372.12
418.83	4404.89
419.02	4559.36
419.21	4550.00
419.39	4531.28
419.58	4353.40
419.77	4465.74
419.96	4421.27
420.15	4428.29
420.34	4681.07
420.53	4557.02
420.72	4486.81
420.91	4596.81
421.10	4840.23
421.29	4704.48
421.48	4699.80
421.67	4720.86
421.86	4652.98
422.05	4889.38
422.24	4744.27
422.43	4830.87
422.61	4851.93
422.80	4856.61
422.99	4901.08
423.18	4823.84
423.37	4931.51
423.56	4795.76
423.75	4924.49
423.94	4877.68
424.13	4514.89
424.32	4727.88
424.50	4802.78
424.69	5067.26
424.88	4999.38
425.07	4884.70
425.26	4779.37
425.45	4889.38
425.64	4873.00
425.83	4985.34
426.01	4947.89
426.20	4903.42
426.39	5011.09
426.58	5018.11
426.77	4990.02
426.96	5020.45
427.15	5053.22
427.33	5146.84
427.52	5118.75
427.71	5210.03
427.90	5104.71
428.09	5156.20
428.28	5252.16
428.46	5376.21
428.65	5282.59
428.84	5472.17
429.03	5568.13
429.22	5441.75
429.40	5355.15
429.59	5423.02
429.78	5259.18
429.97	5177.26
430.16	5352.81
430.34	5650.05
430.53	5640.69
430.72	5554.09
430.91	5474.51
431.10	5406.64
431.28	5671.12
431.47	5706.23
431.66	5844.32
431.85	5727.29
432.03	5832.62
432.22	5795.17
432.41	5937.94
432.60	6052.63
432.79	5944.96
432.97	5870.06
433.16	5977.73
433.35	5930.92
433.54	6038.58
433.72	6029.22
433.91	6043.26
434.10	6146.25
434.28	6026.88
434.47	6106.46
434.66	5949.64
434.85	6368.60
435.03	6134.54
435.22	6239.87
435.41	6480.94
435.59	6272.64
435.78	6431.79
435.97	6399.02
436.16	6394.34
436.34	6356.90
436.53	6452.86
436.72	6525.41
436.90	6485.62
437.09	6766.49
437.28	6518.39
437.46	6675.21
437.65	6604.99
437.84	6738.40
438.02	6619.04
438.21	6806.28
438.40	6614.35
438.58	7005.22
438.77	6998.20
438.96	6890.54
439.14	7148.00
439.33	7005.22
439.52	7197.15
439.70	7159.70
439.89	7119.91
440.08	7339.92
440.26	7119.91
440.45	7218.21
440.63	7400.77
440.82	7550.57
441.01	7517.80
441.19	7363.33
441.38	7660.57
441.57	7803.35
441.75	7667.60
441.94	7669.94
442.12	7765.90
442.31	7817.39
442.50	7943.78
442.68	7758.88
442.87	8002.29
443.05	8037.40
443.24	7974.21
443.43	8077.19
443.61	8271.45
443.80	8159.11
443.98	7925.05
444.17	7836.11
444.35	8086.55
444.54	8322.94
444.73	8250.39
444.91	8131.02
445.10	8210.60
445.28	8210.60
445.47	8348.69
445.65	8346.35
445.84	8531.25
446.02	8365.07
446.21	8416.57
446.39	8367.42
446.58	8299.54
446.77	8360.39
446.95	8161.45
447.14	8360.39
447.32	8603.81
447.51	8395.50
447.69	8400.18
447.88	8416.57
448.06	8285.50
448.25	8552.32
448.43	8603.81
448.62	8367.42
448.80	8493.80
448.99	8428.27
449.17	8746.58
449.36	8786.37
449.54	8760.63
449.73	8802.75
449.91	9001.70
450.10	8716.16
450.28	8954.89
450.46	8823.82
450.65	8968.93
450.83	9114.05
451.02	9048.51
451.20	9041.49
451.39	9100.00
451.57	9118.73
451.76	8971.27
451.94	9116.39
452.13	9233.41
452.31	9142.13
452.49	9025.11
452.68	9217.03
452.86	9156.18
453.05	9235.75
453.23	9310.65
453.42	9104.68
453.60	9397.25
453.78	9383.21
453.97	9350.44
454.15	9533.00
454.34	9259.16
454.52	9540.02
454.70	9603.22
454.89	9682.80
455.07	9760.03
455.26	9750.67
455.44	9867.70
455.62	9809.19
455.81	9846.63
455.99	9895.78
456.17	9933.23
456.36	9865.36
456.54	9940.26
456.73	10249.21
456.91	10197.71
457.09	10024.51
457.28	10167.29
457.46	10328.78
457.64	10537.09
457.83	10459.85
458.01	10326.44
458.19	10511.35
458.38	10438.79
458.56	10747.74
458.74	10422.41
458.93	10567.52
459.11	10663.48
459.29	10595.61
459.48	10633.05
459.66	10871.79
459.84	10642.42
460.03	10806.25
460.21	10937.32
460.39	10916.26
460.57	11028.60
460.76	11297.77
460.94	11145.63
461.12	10930.30
461.31	11122.23
461.49	10981.79
461.67	11066.05
461.85	11288.40
462.04	11276.70
462.22	11447.56
462.40	11618.42
462.59	11229.89
462.77	11110.52
462.95	11681.61
463.13	11590.33
463.32	11358.62
463.50	11770.55
463.68	11517.78
463.86	11655.87
464.05	11634.80
464.23	11625.44
464.41	11796.30
464.59	11688.64
464.78	11885.24
464.96	11896.94
465.14	11550.54
465.32	11758.85
465.50	12210.57
465.69	12107.59
465.87	12032.69
466.05	12112.27
466.23	11999.93
466.41	12238.66
466.60	12318.24
466.78	12196.53
466.96	12170.79
467.14	11978.86
467.32	12217.60
467.51	12617.83
467.69	11873.54
467.87	12463.35
468.05	12533.57
468.23	12336.96
468.41	12088.87
468.60	12425.90
468.78	12776.98
468.96	12545.27
469.14	12549.95
469.32	12856.56
469.50	12856.56
469.69	12636.55
469.87	12989.97
470.05	13069.55
470.23	13268.50
470.41	12989.97
470.59	13181.90
470.77	13081.25
470.95	13111.68
471.14	13390.20
471.32	12940.82
471.50	13540.00
471.68	13312.97
471.86	13666.39
472.04	13624.26
472.22	13912.14
472.40	13495.53
472.58	13682.77
472.77	13933.21
472.95	14064.28
473.13	14530.05
473.31	13951.93
473.49	14008.11
473.67	14340.46
473.85	14073.64
474.03	14487.92
474.21	14441.11
474.39	14595.58
474.57	14464.51
474.75	14635.37
474.93	14831.97
475.12	14829.63
475.30	15000.49
475.48	15044.96
475.66	15063.69
475.84	14906.87
476.02	15363.28
476.20	15201.78
476.38	15466.26
476.56	15606.69
476.74	15873.51
476.92	15892.24
477.10	15634.78
477.28	16004.58
477.46	16070.12
477.64	16032.67
477.82	16159.06
478.00	16973.56
478.18	16479.71
478.36	16673.98
478.54	16961.86
478.72	17245.07
478.90	17247.41
479.08	17158.47
479.26	17369.12
479.44	17397.20
479.62	17727.22
479.80	18001.06
479.98	18008.08
480.16	18469.17
480.34	18356.82
480.52	18560.45
480.70	18396.61
480.88	18471.51
481.06	18654.07
481.24	18539.38
481.41	18424.70
481.59	19133.88
481.77	19489.64
481.95	19632.41
482.13	19735.40
482.31	19435.81
482.49	19719.01
482.67	19983.49
482.85	20252.66
483.03	20601.40
483.21	20762.89
483.39	20535.86
483.57	20563.95
483.74	20980.56
483.92	21006.31
484.10	21186.53
484.28	21495.48
484.46	21516.54
484.64	22192.96
484.82	21324.62
485.00	22101.68
485.18	22445.74
485.35	22778.09
485.53	22551.06
485.71	22555.74
485.89	23398.34
486.07	23033.21
486.25	23049.60
486.43	23180.67
486.61	23721.33
486.78	23974.11
486.96	23924.96
487.14	23960.06
487.32	24531.15
487.50	24442.21
487.68	24451.58
487.85	25099.90
488.03	24959.47
488.21	25177.14
488.39	25666.31
488.57	25706.10
488.75	26120.38
488.92	26246.77
489.10	26551.04
489.28	26560.40
489.46	26602.53
489.64	26927.86
489.81	27587.89
489.99	27751.73
490.17	27503.64
490.35	27761.09
490.53	27695.56
490.70	28163.67
490.88	28002.17
491.06	28458.57
491.24	28552.20
491.41	28638.80
491.59	28940.72
491.77	29090.52
491.95	29055.41
492.13	29481.39
492.30	29612.46
492.48	29474.37
492.66	29780.98
492.84	30120.35
493.01	30455.05
493.19	30244.40
493.37	30611.87
493.54	30494.84
493.72	31463.82
493.90	31285.94
494.08	31782.13
494.25	31571.49
494.43	32112.15
494.61	31695.53
494.79	32278.33
494.96	32507.70
495.14	32280.67
495.32	32755.80
495.49	33092.83
495.67	32716.01
495.85	33188.80
496.02	33404.13
496.20	33551.58
496.38	33855.85
496.55	33905.00
496.73	34771.00
496.91	33881.60
497.09	34630.57
497.26	34639.93
497.44	34684.40
497.62	35103.35
497.79	35426.35
497.97	35218.04
498.14	35739.98
498.32	35571.46
498.50	35903.82
498.67	35950.63
498.85	36311.07
499.03	36175.32
499.20	36517.04
499.38	36510.02
499.56	36580.23
499.73	36369.58
499.91	37188.77
500.08	37488.36
500.26	37029.62
500.44	36933.65
500.61	37247.29
500.79	37483.68
500.97	37673.26
501.14	38052.43
501.32	38213.93
501.49	38295.85
501.67	38373.08
501.84	38630.54
502.02	38766.29
502.20	38937.15
502.37	38752.25
502.55	38689.06
502.72	39192.27
502.90	39693.15
503.07	39346.75
503.25	39210.99
503.43	39356.11
503.60	39742.30
503.78	39849.96
503.95	39438.03
504.13	39955.29
504.30	40364.88
504.48	40011.46
504.65	40095.72
504.83	40299.34
505.01	41144.28
505.18	40669.15
505.36	41111.51
505.53	40935.97
505.71	41275.35
505.88	41766.86
506.06	40844.69
506.23	41834.74
506.41	41375.99
506.58	41471.95
506.76	41584.30
506.93	41979.85
507.11	41436.84
507.28	41797.29
507.46	42337.95
507.63	42550.94
507.81	42686.69
507.98	42485.40
508.16	42916.06
508.33	43023.73
508.50	43091.60
508.68	43269.48
508.85	43669.72
509.03	43454.39
509.20	43583.12
509.38	43920.15
509.55	44009.09
509.73	44292.30
509.90	44524.01
510.08	43871.00
510.25	44355.49
510.42	44095.69
510.60	44704.23
510.77	44350.81
510.95	44905.52
511.12	45275.32
511.30	44615.29
511.47	45237.87
511.64	44772.11
511.82	45453.20
511.99	44889.13
512.17	45443.84
512.34	45563.21
512.51	45776.20
512.69	46052.38
512.86	45970.46
513.04	46031.32
513.21	46394.10
513.38	46487.72
513.56	46674.96
513.73	46642.20
513.90	46609.43
514.08	46454.95
514.25	46747.52
514.43	46780.29
514.60	46621.13
514.77	47051.79
514.95	47290.52
515.12	47423.93
515.29	47133.71
515.47	47517.56
515.64	47856.93
515.81	47519.90
515.99	47772.67
516.16	48083.97
516.33	48107.37
516.51	48535.69
516.68	48165.88
516.85	47990.34
517.03	48189.29
517.20	48481.86
517.37	47997.37
517.54	48732.29
517.72	48905.49
517.89	49055.29
518.06	48917.20
518.24	48699.53
518.41	48603.56
518.58	48938.26
518.75	49251.89
518.93	49198.06
519.10	49298.70
519.27	49574.89
519.45	49481.27
519.62	49862.77
519.79	49518.71
519.96	49593.61
520.14	49965.76
520.31	49783.19
520.48	50068.74
520.65	50010.23
520.83	50096.83
521.00	50225.56
521.17	50368.33
521.34	50382.37
521.52	50597.70
521.69	50539.19
521.86	50590.68
522.03	51154.75
522.20	51070.49
522.38	51014.32
522.55	51063.47
522.72	51028.36
522.89	51068.15
523.07	51601.79
523.24	51070.49
523.41	51559.66
523.58	51196.88
523.75	51662.64
523.92	51564.34
524.10	51849.89
524.27	51854.57
524.44	51814.78
524.61	51969.26
524.78	51723.50
524.96	51732.86
525.13	52121.39
525.30	52282.89
525.47	52470.13
525.64	52140.11
525.81	52191.61
525.98	52186.92
526.16	52378.85
526.33	52196.29
526.50	52772.06
526.67	52622.26
526.84	52662.05
527.01	52453.75
527.18	52697.16
527.36	52367.15
527.53	52502.90
527.70	53092.71
527.87	52755.68
528.04	52863.34
528.21	52947.60
528.38	53144.20
528.55	53111.44
528.72	52928.87
528.89	53368.90
529.07	53265.91
529.24	53181.65
529.41	53331.45
529.58	53619.33
529.75	53322.08
529.92	53462.52
530.09	53385.28
530.26	53708.27
530.43	53605.29
530.60	53481.24
530.77	53734.02
530.94	53900.20
531.11	53745.72
531.28	53879.13
531.46	53808.92
531.63	54000.84
531.80	54017.22
531.97	54171.70
532.14	54160.00
532.31	54202.13
532.48	54298.09
532.65	54560.23
532.82	54246.60
532.99	54440.86
533.16	54291.07
533.33	54443.20
533.50	54660.87
533.67	54733.43
533.84	54398.73
534.01	54780.24
534.18	54522.78
534.35	55061.10
534.52	54688.96
534.69	54941.74
534.86	54923.01
535.03	54611.72
535.20	54986.21
535.37	54913.65
535.54	54941.74
535.71	55054.08
535.88	55147.70
536.05	55042.38
536.22	55224.94
536.38	55402.82
536.55	55306.86
536.72	55540.91
536.89	55451.97
537.06	55309.20
537.23	55758.58
537.40	55365.37
537.57	55414.52
537.74	55505.80
537.91	55800.71
538.08	55735.18
538.25	55398.14
538.42	55496.44
538.59	55812.41
538.75	55711.77
538.92	55592.40
539.09	56072.21
539.26	55805.39
539.43	56184.56
539.60	56067.53
539.77	56245.41
539.94	56170.52
540.11	56238.39
540.28	56203.28
540.44	55976.25
540.61	56214.99
540.78	56191.58
540.95	56231.37
541.12	56151.79
541.29	56163.50
541.46	56184.56
541.62	56329.67
541.79	56451.38
541.96	56147.11
542.13	56404.57
542.30	56420.95
542.47	56687.78
542.63	56671.39
542.80	56512.23
542.97	56989.70
543.14	56863.32
543.31	57036.51
543.48	57090.35
543.64	57249.50
543.81	57099.71
543.98	57041.20
544.15	56975.66
544.32	56907.79
544.48	57268.23
544.65	57104.39
544.82	57254.18
544.99	56884.38
545.16	57310.36
545.32	57146.52
545.49	57326.74
545.66	57490.58
545.83	57279.93
546.00	57551.43
546.16	57322.06
546.33	57495.26
546.50	57258.87
546.67	57542.07
546.83	57153.54
547.00	57553.77
547.17	57509.30
547.34	57511.64
547.50	57504.62
547.67	57794.85
547.84	57832.30
548.00	58120.18
548.17	57942.30
548.34	57937.62
548.51	57909.53
548.67	57851.02
548.84	58003.16
549.01	57822.93
549.18	57996.13
549.34	58232.53
549.51	58157.63
549.68	58096.78
549.84	58085.07
550.01	58274.66
550.18	58042.95
550.34	58206.78
550.51	58040.60
550.68	58113.16
550.84	57895.49
551.01	58232.53
551.18	58307.43
551.34	58312.11
551.51	58171.67
551.68	58422.11
551.84	58365.94
552.01	58202.10
552.18	58321.47
552.34	58534.46
552.51	58401.05
552.68	58506.37
552.84	58550.84
553.01	58592.97
553.18	58459.56
553.34	58763.83
553.51	58450.20
553.67	58719.36
553.84	58546.16
554.01	58616.38
554.17	58557.86
554.34	58801.28
554.51	58728.72
554.67	58733.40
554.84	58857.45
555.00	58897.24
555.17	58822.34
555.33	58827.02
555.50	58747.45
555.67	58852.77
555.83	58857.45
556.00	59000.22
556.16	59084.48
556.33	59107.89
556.50	59168.74
556.66	59185.13
556.83	58934.69
556.99	59124.27
557.16	59283.43
557.32	59119.59
557.49	59449.61
557.65	58962.78
557.82	59262.36
557.98	58997.88
558.15	59119.59
558.32	59253.00
558.48	59278.75
558.65	59208.53
558.81	59262.36
558.98	59313.86
559.14	59468.33
559.31	59407.48
559.47	59437.90
559.64	59461.31
559.80	59416.84
559.97	59568.97
560.13	59220.23
560.30	59470.67
560.46	59531.53
560.63	59533.87
560.79	59435.56
560.96	59643.87
561.12	59725.79
561.29	59693.02
561.45	59700.04
561.61	59709.41
561.78	59580.68
561.94	59601.74
562.11	59571.32
562.27	59671.96
562.44	59700.04
562.60	59927.08
562.77	59791.33
562.93	59655.57
563.10	59910.69
563.26	59852.18
563.42	60001.97
563.59	59835.80
563.75	59730.47
563.92	59887.29
564.08	59910.69
564.24	60004.31
564.41	59728.13
564.57	59913.03
564.74	59803.03
564.90	59906.01
565.07	59997.29
565.23	59994.95
565.39	59868.56
565.56	60032.40
565.72	60065.17
565.88	59922.40
566.05	59842.82
566.21	59917.71
566.38	59922.40
566.54	60034.74
566.70	60409.23
566.87	60161.13
567.03	59924.74
567.19	60123.68
567.36	59976.23
567.52	59833.46
567.68	60226.66
567.85	60100.28
568.01	60219.64
568.17	60013.68
568.34	60278.16
568.50	60287.52
568.66	60051.12
568.83	60292.20
568.99	60060.49
569.15	60161.13
569.32	60200.92
569.48	60133.04
569.64	60350.71
569.81	60184.54
569.97	60144.75
570.13	60243.05
570.30	60076.87
570.46	59985.59
570.62	60310.92
570.78	60301.56
570.95	60161.13
571.11	60423.27
571.27	60172.83
571.43	60111.98
571.60	60341.35
571.76	60463.06
571.92	60360.08
572.09	60280.50
572.25	60327.31
572.41	60310.92
572.57	60509.87
572.74	60603.49
572.90	60322.63
573.06	60439.65
573.22	60355.39
573.38	60495.83
573.55	60444.33
573.71	60638.60
573.87	60451.36
574.03	60395.18
574.20	60481.78
574.36	60535.62
574.52	60629.24
574.68	60402.21
574.84	60587.11
575.01	60633.92
575.17	60439.65
575.33	60523.91
575.49	60498.17
575.65	60596.47
575.82	60671.37
575.98	60591.79
576.14	60748.60
576.30	60683.07
576.46	60552.00
576.62	60643.28
576.79	60575.40
576.95	60346.03
577.11	60479.44
577.27	60624.56
577.43	60516.89
577.59	60516.89
577.75	60491.15
577.92	60427.95
578.08	60573.06
578.24	60699.45
578.40	60793.07
578.56	60652.64
578.72	60741.58
578.88	60734.56
579.04	60767.33
579.21	60654.98
579.37	60828.18
579.53	60893.72
579.69	60324.97
579.85	60556.68
580.01	60743.92
580.17	60322.63
580.33	60591.79
580.49	60711.16
580.65	60783.71
580.82	60903.08
580.98	60645.62
581.14	60617.53
581.30	60858.61
581.46	60664.35
581.62	60825.84
581.78	60601.15
581.94	60797.76
582.10	60732.22
582.26	60690.09
582.42	60804.78
582.58	60732.22
582.74	60720.52
582.90	60676.05
583.06	60697.11
583.22	60470.08
583.38	60830.52
583.54	60729.88
583.70	60926.49
583.86	60823.50
584.02	60568.38
584.18	60776.69
584.34	60750.94
584.50	60772.01
584.66	60596.47
584.82	60596.47
584.98	60896.06
585.14	61045.85
585.30	60559.02
585.46	60793.07
585.62	60928.83
585.78	60830.52
585.94	60736.90
586.10	60856.27
586.26	60856.27
586.42	60942.87
586.58	60753.29
586.74	60783.71
586.90	60767.33
587.06	60793.07
587.22	60973.30
587.38	60884.36
587.54	61099.68
587.70	60858.61
587.86	60797.76
588.02	60832.86
588.18	60772.01
588.34	60748.60
588.49	60907.76
