SpectraSuite Data File
++++++++++++++++++++++++++++++++++++
Date: Fri Oct 25 10:48:20 EDT 2013
User: price-jones
Dark Spectrum Present: No
Reference Spectrum Present: No
Number of Sampled Component Spectra: 1
Spectrometers: USB2+H05261
Integration Time (usec): 100000 (USB2+H05261)
Spectra Averaged: 1 (USB2+H05261)
Boxcar Smoothing: 0 (USB2+H05261)
Correct for Electrical Dark: No (USB2+H05261)
Strobe/Lamp Enabled: No (USB2+H05261)
Correct for Detector Non-linearity: No (USB2+H05261)
Correct for Stray Light: No (USB2+H05261)
Number of Pixels in Processed Spectrum: 2048
>>>>>Begin Processed Spectral Data<<<<<
365.73	166.18
365.92	166.18
366.12	166.18
366.32	149.79
366.52	28.09
366.72	0.00
366.91	35.11
367.11	28.09
367.31	0.00
367.51	25.75
367.70	49.15
367.90	67.88
368.10	117.03
368.30	74.90
368.49	11.70
368.69	107.66
368.89	53.83
369.09	88.94
369.28	18.72
369.48	77.24
369.68	84.26
369.87	112.35
370.07	81.92
370.27	110.01
370.47	196.60
370.66	414.27
370.86	449.38
371.06	489.17
371.25	514.92
371.45	449.38
371.65	493.85
371.84	425.98
372.04	484.49
372.24	496.19
372.44	566.41
372.63	503.22
372.83	528.96
373.03	512.58
373.22	493.85
373.42	564.07
373.62	573.43
373.81	561.73
374.01	573.43
374.21	535.98
374.40	613.22
374.60	610.88
374.79	566.41
374.99	592.16
375.19	664.71
375.38	587.47
375.58	645.99
375.78	706.84
375.97	678.76
376.17	671.73
376.37	725.57
376.56	636.63
376.76	699.82
376.95	772.38
377.15	662.37
377.35	662.37
377.54	753.65
377.74	734.93
377.93	734.93
378.13	664.71
378.33	695.14
378.52	697.48
378.72	744.29
378.91	681.10
379.11	650.67
379.31	763.01
379.50	706.84
379.70	739.61
379.89	882.38
380.09	709.18
380.28	746.63
380.48	772.38
380.68	697.48
380.87	734.93
381.07	697.48
381.26	774.72
381.46	718.54
381.65	709.18
381.85	704.50
382.04	744.29
382.24	765.36
382.43	739.61
382.63	788.76
382.83	805.14
383.02	821.53
383.22	755.99
383.41	800.46
383.61	755.99
383.80	809.83
384.00	784.08
384.19	835.57
384.39	786.42
384.58	915.15
384.78	898.77
384.97	894.08
385.17	795.78
385.36	905.79
385.56	931.53
385.75	779.40
385.95	910.47
386.14	919.83
386.34	929.19
386.53	919.83
386.72	887.06
386.92	985.37
387.11	964.30
387.31	968.98
387.50	973.66
387.70	912.81
387.89	772.38
388.09	950.26
388.28	896.43
388.48	887.06
388.67	933.87
388.86	961.96
389.06	1013.45
389.25	1018.13
389.45	954.94
389.64	1090.69
389.84	1074.31
390.03	1050.90
390.22	1081.33
390.42	999.41
390.61	1025.15
390.81	1011.11
391.00	1111.75
391.19	1137.50
391.39	1146.86
391.58	1174.95
391.78	1163.25
391.97	1121.12
392.16	1093.03
392.36	1191.33
392.55	1025.15
392.75	1053.24
392.94	1004.09
393.13	1163.25
393.33	1090.69
393.52	1128.14
393.71	1156.22
393.91	1102.39
394.10	1156.22
394.29	1132.82
394.49	1203.04
394.68	1289.64
394.88	1221.76
395.07	1366.87
395.26	1284.95
395.46	1296.66
395.65	1296.66
395.84	1247.51
396.04	1296.66
396.23	1245.16
396.42	1179.63
396.62	1343.47
396.81	1266.23
397.00	1226.44
397.19	1352.83
397.39	1413.68
397.58	1427.73
397.77	1563.48
397.97	1537.73
398.16	1474.54
398.35	1528.37
398.55	1577.52
398.74	1577.52
398.93	1626.67
399.12	1537.73
399.32	1603.27
399.51	1554.12
399.70	1626.67
399.90	1689.87
400.09	1708.59
400.28	1661.78
400.47	1666.46
400.67	1781.15
400.86	1790.51
401.05	1790.51
401.24	1748.38
401.44	1781.15
401.63	1820.94
401.82	1846.68
402.01	1783.49
402.21	1923.92
402.40	1776.47
402.59	1830.30
402.78	1961.37
402.97	1823.28
403.17	1874.77
403.36	1907.54
403.55	1891.15
403.74	1923.92
403.93	1940.30
404.13	2050.31
404.32	1907.54
404.51	2012.86
404.70	2186.06
404.89	2062.01
405.09	1970.73
405.28	2059.67
405.47	1994.14
405.66	2162.66
405.85	2078.40
406.05	2054.99
406.24	2165.00
406.43	2108.82
406.62	2172.02
406.81	2136.91
407.00	2225.85
407.20	2153.29
407.39	2132.23
407.58	2291.38
407.77	2352.24
407.96	2319.47
408.15	2422.45
408.34	2349.90
408.54	2359.26
408.73	2413.09
408.92	2441.18
409.11	2436.50
409.30	2342.88
409.49	2317.13
409.68	2490.33
409.87	2317.13
410.07	2483.31
410.26	2408.41
410.45	2485.65
410.64	2642.46
410.83	2635.44
411.02	2705.66
411.21	2693.96
411.40	2696.30
411.59	2705.66
411.78	2724.38
411.98	2708.00
412.17	2708.00
412.36	2850.77
412.55	2747.79
412.74	2796.94
412.93	2862.48
413.12	2867.16
413.31	3040.36
413.50	3038.02
413.69	3012.27
413.88	3073.12
414.07	3101.21
414.26	2991.20
414.45	3063.76
414.64	3082.49
414.83	3194.83
415.02	3145.68
415.22	3180.79
415.41	3260.37
415.60	3393.78
415.79	3199.51
415.98	3400.80
416.17	3487.40
416.36	3358.67
416.55	3447.61
416.74	3471.01
416.93	3400.80
417.12	3363.35
417.31	3578.68
417.50	3471.01
417.69	3616.13
417.88	3646.55
418.07	3501.44
418.26	3592.72
418.45	3578.68
418.64	3737.84
418.83	3772.94
419.02	3794.01
419.21	3756.56
419.39	3735.50
419.58	3669.96
419.77	3665.28
419.96	3955.51
420.15	3866.56
420.34	3864.22
420.53	3887.63
420.72	3911.04
420.91	3997.64
421.10	4077.21
421.29	4058.49
421.48	4007.00
421.67	4135.73
421.86	3840.82
422.05	3894.65
422.24	3929.76
422.43	3999.98
422.61	3995.29
422.80	4196.58
422.99	3990.61
423.18	4112.32
423.37	4067.85
423.56	4009.34
423.75	4219.99
423.94	3939.12
424.13	3861.88
424.32	3892.31
424.50	4198.92
424.69	4194.24
424.88	4322.97
425.07	4149.77
425.26	4156.79
425.45	4084.23
425.64	4173.18
425.83	4152.11
426.01	4271.48
426.20	4255.09
426.39	4208.28
426.58	4093.60
426.77	3955.51
426.96	4053.81
427.15	4109.98
427.33	4109.98
427.52	4133.39
427.71	4367.44
427.90	4355.74
428.09	4205.94
428.28	4304.25
428.46	4365.10
428.65	4245.73
428.84	4325.31
429.03	4468.08
429.22	4259.78
429.40	4248.07
429.59	4250.41
429.78	4219.99
429.97	4102.96
430.16	4290.20
430.34	4393.19
430.53	4271.48
430.72	4465.74
430.91	4517.23
431.10	4748.95
431.28	4594.47
431.47	4788.74
431.66	4975.98
431.85	4737.24
432.03	4741.93
432.22	4968.96
432.41	4842.57
432.60	4833.21
432.79	4957.25
432.97	5004.07
433.16	4954.91
433.35	4770.01
433.54	4751.29
433.72	4908.10
433.91	4924.49
434.10	4938.53
434.28	5078.96
434.47	5071.94
434.66	5121.09
434.85	5259.18
435.03	5172.58
435.22	5193.65
435.41	5233.44
435.59	5455.79
435.78	5416.00
435.97	5284.93
436.16	5334.08
436.34	5146.84
436.53	5350.46
436.72	5493.24
436.90	5263.86
437.09	5413.66
437.28	5540.05
437.46	5296.63
437.65	5408.98
437.84	5544.73
438.02	5469.83
438.21	5320.04
438.40	5348.12
438.58	5652.39
438.77	5526.00
438.96	5741.33
439.14	5760.06
439.33	5884.11
439.52	5811.55
439.70	5858.36
439.89	5830.27
440.08	5729.63
440.26	5933.26
440.45	5991.77
440.63	6200.08
440.82	6253.91
441.01	6270.30
441.19	6324.13
441.38	6384.98
441.57	6256.25
441.75	6497.33
441.94	6560.52
442.12	6647.12
442.31	6562.86
442.50	6567.54
442.68	6532.44
442.87	6555.84
443.05	6644.78
443.24	6686.91
443.43	6764.15
443.61	6745.42
443.80	6874.15
443.98	6712.66
444.17	6534.78
444.35	6874.15
444.54	6939.69
444.73	6942.03
444.91	6693.93
445.10	6846.07
445.28	6789.89
445.47	6729.04
445.65	6752.45
445.84	6794.58
446.02	6911.60
446.21	6846.07
446.39	6771.17
446.58	6984.16
446.77	6883.52
446.95	6897.56
447.14	7077.78
447.32	7082.46
447.51	6871.81
447.69	6984.16
447.88	6911.60
448.06	6930.33
448.25	7117.57
448.43	7040.33
448.62	6878.83
448.80	7035.65
448.99	7098.84
449.17	7171.40
449.36	7035.65
449.54	7131.61
449.73	7323.54
449.91	7442.90
450.10	7304.81
450.28	7449.93
450.46	7454.61
450.65	7492.05
450.83	7569.29
451.02	7501.42
451.20	7576.31
451.39	7485.03
451.57	7489.71
451.76	7494.40
451.94	7550.57
452.13	7485.03
452.31	7599.72
452.49	7426.52
452.68	7634.83
452.86	7648.87
453.05	7478.01
453.23	7679.30
453.42	7538.87
453.60	7449.93
453.78	7824.41
453.97	7730.79
454.15	7616.10
454.34	7630.15
454.52	7810.37
454.70	7843.14
454.89	7782.28
455.07	7906.33
455.26	8102.93
455.44	8018.68
455.62	8079.53
455.81	7943.78
455.99	8105.28
456.17	8114.64
456.36	8149.75
456.54	8245.71
456.73	8088.89
456.91	8521.89
457.09	8533.59
457.28	8578.06
457.46	8320.60
457.64	8496.14
457.83	8404.86
458.01	8299.54
458.19	8610.83
458.38	8713.81
458.56	8435.29
458.74	8524.23
458.93	8416.57
459.11	8716.16
459.29	8559.34
459.48	8664.66
459.66	8709.13
459.84	8585.08
460.03	8814.46
460.21	8875.31
460.39	8800.41
460.57	8748.92
460.76	8786.37
460.94	8887.01
461.12	8971.27
461.31	9100.00
461.49	9074.26
461.67	8959.57
461.85	9186.60
462.04	8971.27
462.22	9577.47
462.40	9554.07
462.59	9266.18
462.77	9308.31
462.95	9390.23
463.13	9418.32
463.32	9284.91
463.50	9404.27
463.68	9322.35
463.86	9277.88
464.05	9273.20
464.23	9310.65
464.41	9476.83
464.59	9235.75
464.78	9619.60
464.96	9593.86
465.14	9158.52
465.32	9570.45
465.50	9635.99
465.69	9607.90
465.87	9666.41
466.05	9624.28
466.23	9408.95
466.41	9633.64
466.60	9884.08
466.78	9589.17
466.96	9495.55
467.14	9797.48
467.32	9554.07
467.51	9935.57
467.69	9680.46
467.87	9848.97
468.05	9961.32
468.23	9856.00
468.41	9638.33
468.60	9973.02
468.78	9834.93
468.96	9877.06
469.14	9933.23
469.32	10045.58
469.50	9802.16
469.69	10101.75
469.87	10132.18
470.05	10207.08
470.23	10274.95
470.41	10171.97
470.59	10331.12
470.77	10197.71
470.95	10256.23
471.14	10586.24
471.32	10363.89
471.50	10707.95
471.68	10633.05
471.86	10628.37
472.04	10700.93
472.22	11124.57
472.40	10682.20
472.58	10649.44
472.77	10810.93
472.95	10883.49
473.13	11349.26
473.31	10956.05
473.49	10970.09
473.67	10888.17
473.85	11119.89
474.03	11482.67
474.21	11396.07
474.39	11351.60
474.57	11393.73
474.75	11510.75
474.93	11435.86
475.12	11569.27
475.30	11957.80
475.48	11770.55
475.66	11660.55
475.84	11576.29
476.02	11920.35
476.20	11681.61
476.38	12009.29
476.56	12184.83
476.74	12482.08
476.92	12430.59
477.10	12444.63
477.28	12311.22
477.46	12477.40
477.64	12720.81
477.82	12905.71
478.00	13071.89
478.18	12901.03
478.36	12964.23
478.54	13252.11
478.72	13090.62
478.90	13373.82
479.08	13493.19
479.26	13994.06
479.44	13675.75
479.62	13818.52
479.80	14005.77
479.98	13914.48
480.16	14328.76
480.34	14015.13
480.52	14146.20
480.70	14314.72
480.88	14061.94
481.06	14459.83
481.24	14443.45
481.41	14780.48
481.59	14909.21
481.77	15061.35
481.95	14773.46
482.13	15075.39
482.31	15096.46
482.49	15454.56
482.67	15653.50
482.85	15576.27
483.03	15403.07
483.21	15946.07
483.39	15976.50
483.57	15772.87
483.74	15939.05
483.92	16400.13
484.10	16362.69
484.28	16535.88
484.46	16744.19
484.64	17095.27
484.82	16683.34
485.00	16652.91
485.18	17001.65
485.35	17184.21
485.53	16945.48
485.71	16610.78
485.89	17008.67
486.07	17153.79
486.25	17200.60
486.43	17544.66
486.61	17715.51
486.78	17827.86
486.96	18192.98
487.14	18394.27
487.32	18087.66
487.50	18469.17
487.68	18878.76
487.85	18967.70
488.03	19145.58
488.21	19559.86
488.39	19035.58
488.57	19379.64
488.75	19407.72
488.92	19630.07
489.10	19913.28
489.28	19997.54
489.46	20357.98
489.64	20269.04
489.81	21055.46
489.99	21064.82
490.17	20863.54
490.35	21556.33
490.53	20912.69
490.70	21387.82
490.88	21640.59
491.06	21413.56
491.24	21404.20
491.41	21553.99
491.59	21514.20
491.77	21720.17
491.95	21823.16
492.13	22015.08
492.30	22574.47
492.48	22537.02
492.66	22572.13
492.84	22735.96
493.01	23400.68
493.19	22890.44
493.37	23058.96
493.54	23096.41
493.72	23047.26
493.90	23859.42
494.08	23793.89
494.25	24081.77
494.43	23906.23
494.61	24236.25
494.79	24327.53
494.96	24702.01
495.14	24067.73
495.32	24575.62
495.49	24889.26
495.67	25001.60
495.85	25151.40
496.02	25479.07
496.20	25458.01
496.38	25268.42
496.55	25296.51
496.73	26080.59
496.91	25645.25
497.09	26031.44
497.26	26401.24
497.44	25876.96
497.62	26176.55
497.79	26174.21
497.97	26038.46
498.14	26115.70
498.32	26724.24
498.50	26581.46
498.67	27023.83
498.85	26927.86
499.03	27016.80
499.20	27243.84
499.38	27246.18
499.56	27370.22
499.73	27615.98
499.91	27255.54
500.08	27421.72
500.26	27288.31
500.44	27438.10
500.61	27744.71
500.79	27597.26
500.97	27838.33
501.14	28137.92
501.32	27833.65
501.49	28306.44
501.67	28177.71
501.84	28545.17
502.02	28430.49
502.20	29036.69
502.37	28821.36
502.55	29024.98
502.72	28980.51
502.90	29104.56
503.07	29153.71
503.25	29163.08
503.43	28851.78
503.60	29301.17
503.78	29099.88
503.95	29457.98
504.13	29371.38
504.30	29795.02
504.48	29898.00
504.65	30120.35
504.83	30071.20
505.01	30504.20
505.18	30094.61
505.36	30651.66
505.53	30771.02
505.71	30661.02
505.88	30525.27
506.06	30370.79
506.23	30511.22
506.41	30719.53
506.58	31021.46
506.76	30801.45
506.93	31232.11
507.11	31386.58
507.28	31243.81
507.46	31370.20
507.63	31393.61
507.81	31321.05
507.98	31417.01
508.16	31683.83
508.33	31758.73
508.50	31997.46
508.68	32079.38
508.85	32004.49
509.03	32112.15
509.20	32484.30
509.38	32463.23
509.55	32416.42
509.73	32479.61
509.90	32442.17
510.08	32589.62
510.25	32552.17
510.42	32554.51
510.60	32842.40
510.77	33141.99
510.95	33277.74
511.12	32987.51
511.30	33432.21
511.47	33223.90
511.64	33383.06
511.82	33635.84
511.99	33481.36
512.17	33645.20
512.34	33219.22
512.51	33890.96
512.69	33764.57
512.86	33876.91
513.04	33963.51
513.21	33998.62
513.38	33851.17
513.56	33865.21
513.73	33823.08
513.90	34050.11
514.08	34054.79
514.25	34022.03
514.43	34307.57
514.60	34513.54
514.77	34359.06
514.95	34700.78
515.12	34579.07
515.29	34546.31
515.47	34981.65
515.64	35063.57
515.81	34974.63
515.99	34911.43
516.16	34843.56
516.33	34490.13
516.51	34529.92
516.68	34312.25
516.85	34504.18
517.03	34705.46
517.20	35044.84
517.37	35412.31
517.54	35386.56
517.72	35042.50
517.89	35358.47
518.06	35131.44
518.24	35124.42
518.41	35288.26
518.58	35817.22
518.75	35517.63
518.93	35936.59
519.10	36561.51
519.27	36369.58
519.45	36355.54
519.62	36453.84
519.79	36701.94
519.96	36641.09
520.14	36594.28
520.31	36437.46
520.48	36706.62
520.65	36788.54
520.83	37312.82
521.00	37092.81
521.17	37317.50
521.34	37273.03
521.52	37713.05
521.69	37537.51
521.86	37820.72
522.03	37015.57
522.20	37535.17
522.38	37509.43
522.55	37361.97
522.72	37266.01
522.89	37886.25
523.07	37734.12
523.24	37804.33
523.41	37930.72
523.58	38031.36
523.75	38314.57
523.92	38656.29
524.10	38888.00
524.27	38609.48
524.44	38513.52
524.61	38340.32
524.78	38759.27
524.96	38710.12
525.13	38890.34
525.30	39098.65
525.47	39552.71
525.64	38653.95
525.81	38637.56
525.98	39117.37
526.16	38574.37
526.33	38658.63
526.50	38752.25
526.67	38452.66
526.84	38806.08
527.01	38824.81
527.18	39208.65
527.36	39510.58
527.53	39143.12
527.70	39473.13
527.87	39824.22
528.04	39494.20
528.21	39632.29
528.38	39721.23
528.55	39878.05
528.72	39866.34
528.89	40542.76
529.07	39934.22
529.24	39924.86
529.41	40151.89
529.58	40086.36
529.75	40163.59
529.92	40533.40
530.09	40381.26
530.26	40355.52
530.43	40825.96
530.60	40123.80
530.77	40430.41
530.94	41207.47
531.11	40491.27
531.28	41095.13
531.46	41188.75
531.63	40538.08
531.80	40514.67
531.97	40666.81
532.14	40596.59
532.31	40432.75
532.48	40732.34
532.65	41549.19
532.82	40961.72
532.99	41125.55
533.16	41165.34
533.33	41202.79
533.50	41343.22
533.67	41359.61
533.84	41282.37
534.01	41195.77
534.18	41186.41
534.35	41797.29
534.52	41694.30
534.69	41956.44
534.86	41841.76
535.03	41521.10
535.20	41832.39
535.37	42223.26
535.54	42167.09
535.71	41865.16
535.88	42232.63
536.05	41986.87
536.22	42335.61
536.38	42092.19
536.55	41694.30
536.72	41727.07
536.89	41954.10
537.06	42220.92
537.23	42356.67
537.40	42099.22
537.57	42398.80
537.74	42143.69
537.91	42637.54
538.08	42728.82
538.25	42398.80
538.42	42810.74
538.59	43091.60
538.75	42478.38
538.92	42574.34
539.09	42815.42
539.26	42845.85
539.43	42787.33
539.60	42951.17
539.77	42607.11
539.94	42719.46
540.11	42909.04
540.28	42562.64
540.44	42960.53
540.61	42696.05
540.78	42932.45
540.95	43239.06
541.12	42799.04
541.29	43093.94
541.46	43119.69
541.62	42796.70
541.79	43297.57
541.96	42965.21
542.13	43522.26
542.30	43262.46
542.47	43538.65
542.63	43473.11
542.80	43779.72
542.97	43501.20
543.14	43908.45
543.31	43840.57
543.48	44027.82
543.64	44329.75
543.81	44512.31
543.98	44128.46
544.15	44189.31
544.32	44083.99
544.48	44559.12
544.65	44301.66
544.82	44591.89
544.99	43920.15
545.16	44296.98
545.32	44540.39
545.49	44406.98
545.66	44957.01
545.83	44622.31
546.00	44919.56
546.16	44112.08
546.33	44526.35
546.50	44102.71
546.67	44563.80
546.83	44201.02
547.00	44339.11
547.17	44568.48
547.34	44355.49
547.50	44587.21
547.67	44624.65
547.84	44900.84
548.00	44781.47
548.17	44870.41
548.34	44687.85
548.51	45368.94
548.67	45038.93
548.84	45406.39
549.01	45076.38
549.18	45191.06
549.34	45364.26
549.51	45111.49
549.68	45139.57
549.84	45193.40
550.01	45385.33
550.18	45118.51
550.34	45188.72
550.51	45130.21
550.68	45043.61
550.84	45312.77
551.01	45659.17
551.18	45539.80
551.34	45270.64
551.51	45778.54
551.68	45851.09
551.84	45675.55
552.01	45343.20
552.18	45179.36
552.34	45565.55
552.51	45916.63
552.68	45832.37
552.84	45722.37
553.01	45869.82
553.18	45565.55
553.34	45680.24
553.51	45429.80
553.67	45488.31
553.84	46073.45
554.01	45930.67
554.17	46447.93
554.34	46146.00
554.51	45832.37
554.67	46473.68
554.84	45837.05
555.00	45986.85
555.17	46138.98
555.33	46344.95
555.50	46106.21
555.67	46047.70
555.83	46466.66
556.00	46326.22
556.16	46218.56
556.33	46307.50
556.50	46106.21
556.66	46454.95
556.83	46291.12
556.99	46351.97
557.16	46787.31
557.32	46328.56
557.49	46497.08
557.65	46227.92
557.82	45947.06
557.98	46358.99
558.15	46356.65
558.32	46461.97
558.48	46094.51
558.65	46550.91
558.81	46417.50
558.98	46319.20
559.14	46396.44
559.31	46307.50
559.47	46202.18
559.64	46899.65
559.80	46883.27
559.97	46962.85
560.13	46024.29
560.30	46337.93
560.46	46557.94
560.63	46609.43
560.79	46506.44
560.96	46719.43
561.12	46789.65
561.29	46569.64
561.45	46506.44
561.61	46473.68
561.78	46843.48
561.94	46319.20
562.11	46520.49
562.27	46864.55
562.44	46960.51
562.60	47342.02
562.77	46923.06
562.93	46932.42
563.10	47185.20
563.26	46689.01
563.42	47171.16
563.59	46679.64
563.75	46817.74
563.92	46817.74
564.08	47117.32
564.24	47103.28
564.41	47110.30
564.57	46834.12
564.74	46997.96
564.90	47285.84
565.07	47288.18
565.23	46855.18
565.39	47070.51
565.56	47253.08
565.72	47168.82
565.88	47140.73
566.05	47002.64
566.21	47189.88
566.38	46892.63
566.54	47278.82
566.70	47054.13
566.87	47716.50
567.03	47299.89
567.19	47365.42
567.36	47131.37
567.52	47437.98
567.68	47306.91
567.85	47140.73
568.01	47367.76
568.17	47107.96
568.34	47166.48
568.50	47110.30
568.66	46958.17
568.83	47442.66
568.99	47065.83
569.15	47019.02
569.32	47229.67
569.48	47262.44
569.64	47416.91
569.81	47152.43
569.97	46990.94
570.13	47217.97
570.30	47107.96
570.46	46738.16
570.62	47047.11
570.78	46932.42
570.95	47288.18
571.11	47313.93
571.27	47030.72
571.43	47084.56
571.60	47161.79
571.76	46656.24
571.92	47131.37
572.09	47400.53
572.25	47068.17
572.41	47213.29
572.57	47388.83
572.74	47913.11
572.90	47753.95
573.06	47459.04
573.22	47615.86
573.38	47416.91
573.55	47281.16
573.71	47290.52
573.87	47508.19
574.03	46799.01
574.20	47353.72
574.36	47040.09
574.52	47276.48
574.68	47290.52
574.84	47224.99
575.01	47185.20
575.17	47351.38
575.33	47150.09
575.49	47136.05
575.65	47384.15
575.82	47398.19
575.98	47416.91
576.14	47700.12
576.30	47278.82
576.46	47334.99
576.62	47023.70
576.79	47269.46
576.95	46962.85
577.11	47407.55
577.27	47515.22
577.43	47437.98
577.59	46883.27
577.75	47009.66
577.92	47054.13
578.08	46667.94
578.24	47122.01
578.40	47327.97
578.56	47379.46
578.72	47295.21
578.88	47868.64
579.04	47718.84
579.21	47545.64
579.37	47466.06
579.53	47641.60
579.69	47192.22
579.85	47388.83
580.01	47213.29
580.17	47351.38
580.33	47555.00
580.49	47454.36
580.65	47423.93
580.82	47732.89
580.98	47487.13
581.14	47234.35
581.30	47416.91
581.46	47929.49
581.62	47681.39
581.78	47440.32
581.94	47992.68
582.10	47711.82
582.26	48037.16
582.42	47789.06
582.58	47613.52
582.74	47674.37
582.90	47580.75
583.06	47662.67
583.22	47526.92
583.38	47882.68
583.54	47723.52
583.70	47391.17
583.86	47379.46
584.02	47295.21
584.18	47433.30
584.34	47606.50
584.50	47505.85
584.66	47365.42
584.82	47157.11
584.98	47508.19
585.14	47547.98
585.30	47641.60
585.46	47562.03
585.62	47526.92
585.78	47112.64
585.94	46951.15
586.10	47379.46
586.26	47384.15
586.42	47646.29
586.58	47810.12
586.74	47779.70
586.90	47194.56
587.06	47510.53
587.22	47316.27
587.38	47639.26
587.54	47763.31
587.70	47590.11
587.86	47232.01
588.02	47716.50
588.18	47767.99
588.34	47428.62
588.49	46873.91
588.65	46962.85
588.81	46993.28
588.97	47327.97
589.13	46810.71
589.29	46782.63
589.45	47370.10
589.61	47145.41
589.77	48126.10
