SpectraSuite Data File
++++++++++++++++++++++++++++++++++++
Date: Fri Oct 25 11:22:33 EDT 2013
User: price-jones
Dark Spectrum Present: No
Reference Spectrum Present: No
Number of Sampled Component Spectra: 1
Spectrometers: USB2+H05261
Integration Time (usec): 100000 (USB2+H05261)
Spectra Averaged: 1 (USB2+H05261)
Boxcar Smoothing: 0 (USB2+H05261)
Correct for Electrical Dark: No (USB2+H05261)
Strobe/Lamp Enabled: No (USB2+H05261)
Correct for Detector Non-linearity: No (USB2+H05261)
Correct for Stray Light: No (USB2+H05261)
Number of Pixels in Processed Spectrum: 2048
>>>>>Begin Processed Spectral Data<<<<<
365.73	175.54
365.92	175.54
366.12	175.54
366.32	72.56
366.52	147.45
366.72	126.39
366.91	0.00
367.11	126.39
367.31	133.41
367.51	102.98
367.70	98.30
367.90	149.79
368.10	140.43
368.30	88.94
368.49	98.30
368.69	117.03
368.89	119.37
369.09	77.24
369.28	152.13
369.48	117.03
369.68	138.09
369.87	175.54
370.07	110.01
370.27	166.18
370.47	306.61
370.66	622.58
370.86	660.03
371.06	664.71
371.25	695.14
371.45	683.44
371.65	725.57
371.84	545.34
372.04	603.86
372.24	692.80
372.44	690.46
372.63	744.29
372.83	671.73
373.03	767.70
373.22	805.14
373.42	730.25
373.62	751.31
373.81	779.40
374.01	816.85
374.21	744.29
374.40	779.40
374.60	784.08
374.79	784.08
374.99	819.19
375.19	809.83
375.38	903.45
375.58	805.14
375.78	807.48
375.97	849.61
376.17	931.53
376.37	868.34
376.56	903.45
376.76	896.43
376.95	961.96
377.15	938.55
377.35	861.32
377.54	919.83
377.74	940.90
377.93	898.77
378.13	905.79
378.33	910.47
378.52	952.60
378.72	1008.77
378.91	926.85
379.11	912.81
379.31	971.32
379.50	861.32
379.70	1025.15
379.89	1022.81
380.09	961.96
380.28	992.39
380.48	1011.11
380.68	978.34
380.87	1057.92
381.07	1008.77
381.26	1004.09
381.46	1062.60
381.65	1062.60
381.85	1029.84
382.04	1011.11
382.24	1029.84
382.43	1057.92
382.63	1097.71
382.83	1062.60
383.02	1050.90
383.22	1095.37
383.41	1100.05
383.61	1100.05
383.80	1172.61
384.00	1125.80
384.19	1170.27
384.39	1174.95
384.58	1102.39
384.78	1118.78
384.97	1125.80
385.17	1158.57
385.36	1153.88
385.56	1128.14
385.75	1139.84
385.95	1196.01
386.14	1205.38
386.34	1109.41
386.53	1172.61
386.72	1128.14
386.92	1181.97
387.11	1181.97
387.31	1212.40
387.50	1254.53
387.70	1249.85
387.89	1235.80
388.09	1291.98
388.28	1266.23
388.48	1196.01
388.67	1357.51
388.86	1394.96
389.06	1369.21
389.25	1324.74
389.45	1263.89
389.64	1310.70
389.84	1310.70
390.03	1362.19
390.22	1469.86
390.42	1404.32
390.61	1416.02
390.81	1418.36
391.00	1497.94
391.19	1441.77
391.39	1390.28
391.58	1462.83
391.78	1460.49
391.97	1526.03
392.16	1502.62
392.36	1465.18
392.55	1465.18
392.75	1596.25
392.94	1476.88
393.13	1614.97
393.33	1516.67
393.52	1570.50
393.71	1535.39
393.91	1474.54
394.10	1657.10
394.29	1624.33
394.49	1617.31
394.68	1610.29
394.88	1699.23
395.07	1776.47
395.26	1647.74
395.46	1701.57
395.65	1624.33
395.84	1671.14
396.04	1825.62
396.23	1764.76
396.42	1757.74
396.62	1792.85
396.81	1774.13
397.00	1802.21
397.19	1687.53
397.39	1893.49
397.58	1923.92
397.77	1842.00
397.97	1825.62
398.16	1935.62
398.35	1933.28
398.55	1844.34
398.74	1881.79
398.93	1858.39
399.12	1865.41
399.32	1966.05
399.51	1968.39
399.70	2005.84
399.90	1921.58
400.09	1961.37
400.28	2033.93
400.47	1994.14
400.67	2066.69
400.86	2078.40
401.05	2104.14
401.24	2097.12
401.44	2169.68
401.63	2162.66
401.82	2216.49
402.01	2101.80
402.21	2263.30
402.40	2162.66
402.59	2228.19
402.78	2326.49
402.97	2258.62
403.17	2352.24
403.36	2244.57
403.55	2305.43
403.74	2448.20
403.93	2366.28
404.13	2492.67
404.32	2366.28
404.51	2321.81
404.70	2394.37
404.89	2434.16
405.09	2504.37
405.28	2483.31
405.47	2427.14
405.66	2614.38
405.85	2567.57
406.05	2576.93
406.24	2579.27
406.43	2569.91
406.62	2628.42
406.81	2789.92
407.00	2815.66
407.20	2567.57
407.39	2661.19
407.58	2782.90
407.77	2719.70
407.96	2850.77
408.15	2750.13
408.34	2605.02
408.54	2827.37
408.73	2832.05
408.92	2841.41
409.11	2937.37
409.30	3012.27
409.49	2939.71
409.68	3047.38
409.87	2986.52
410.07	3019.29
410.26	3108.23
410.45	3152.70
410.64	3152.70
410.83	3049.72
411.02	3199.51
411.21	3117.59
411.40	3143.34
411.59	3229.94
411.78	3297.81
411.98	3283.77
412.17	3428.88
412.36	3323.56
412.55	3396.12
412.74	3534.21
412.93	3438.25
413.12	3361.01
413.31	3658.26
413.50	3524.85
413.69	3466.33
413.88	3648.90
414.07	3583.36
414.26	3669.96
414.45	3602.08
414.64	3700.39
414.83	3719.11
415.02	3756.56
415.22	3913.38
415.41	3840.82
415.60	3850.18
415.79	4065.51
415.98	4028.06
416.17	4004.66
416.36	3976.57
416.55	4021.04
416.74	4009.34
416.93	4065.51
417.12	4147.43
417.31	4056.15
417.50	4119.34
417.69	4475.10
417.88	4308.93
418.07	4339.35
418.26	4418.93
418.45	4381.48
418.64	4578.09
418.83	4414.25
419.02	4472.76
419.21	4566.39
419.39	4620.22
419.58	4482.13
419.77	4592.13
419.96	4601.49
420.15	4706.82
420.34	4669.37
420.53	4617.88
420.72	4830.87
420.91	4826.18
421.10	4737.24
421.29	4856.61
421.48	4748.95
421.67	4947.89
421.86	4873.00
422.05	4915.12
422.24	4910.44
422.43	4959.60
422.61	4940.87
422.80	5083.64
422.99	5053.22
423.18	4910.44
423.37	5195.99
423.56	4891.72
423.75	4849.59
423.94	4943.21
424.13	4699.80
424.32	4908.10
424.50	5128.11
424.69	5025.13
424.88	5041.51
425.07	5060.24
425.26	5020.45
425.45	5100.03
425.64	4924.49
425.83	5135.14
426.01	5069.60
426.20	5067.26
426.39	5156.20
426.58	4992.36
426.77	5191.31
426.96	5210.03
427.15	5081.30
427.33	5284.93
427.52	5268.55
427.71	5406.64
427.90	5305.99
428.09	5334.08
428.28	5514.30
428.46	5408.98
428.65	5411.32
428.84	5572.82
429.03	5596.22
429.22	5329.40
429.40	5373.87
429.59	5479.19
429.78	5338.76
429.97	5305.99
430.16	5568.13
430.34	5462.81
430.53	5820.91
430.72	5664.10
430.91	5827.93
431.10	5799.85
431.28	5769.42
431.47	5916.87
431.66	5827.93
431.85	5849.00
432.03	6122.84
432.22	6008.16
432.41	5849.00
432.60	5984.75
432.79	5914.53
432.97	6221.14
433.16	6143.91
433.35	6033.90
433.54	6059.65
433.72	6195.40
433.91	6188.38
434.10	6225.82
434.28	6218.80
434.47	6239.87
434.66	6282.00
434.85	6389.66
435.03	6604.99
435.22	6291.36
435.41	6590.95
435.59	6553.50
435.78	6602.65
435.97	6621.38
436.16	6443.49
436.34	6518.39
436.53	6387.32
436.72	6672.87
436.90	6459.88
437.09	6712.66
437.28	6590.95
437.46	6612.01
437.65	6752.45
437.84	6803.94
438.02	6773.51
438.21	6806.28
438.40	6691.59
438.58	7138.63
438.77	7045.01
438.96	7187.79
439.14	7288.43
439.33	7353.96
439.52	7077.78
439.70	7300.13
439.89	7435.88
440.08	7456.95
440.26	7295.45
440.45	7412.48
440.63	7520.14
440.82	7840.79
441.01	7634.83
441.19	7595.04
441.38	7700.36
441.57	7817.39
441.75	7946.12
441.94	8109.96
442.12	8182.51
442.31	8067.83
442.50	8152.09
442.68	8138.04
442.87	8212.94
443.05	8138.04
443.24	8299.54
443.43	8327.63
443.61	8210.60
443.80	8603.81
443.98	8065.49
444.17	7918.03
444.35	8182.51
444.54	8503.17
444.73	8252.73
444.91	8336.99
445.10	8451.67
445.28	8386.14
445.47	8503.17
445.65	8322.94
445.84	8671.68
446.02	8662.32
446.21	8580.40
446.39	8552.32
446.58	8655.30
446.77	8615.51
446.95	8320.60
447.14	8645.94
447.32	8606.15
447.51	8519.55
447.69	8535.93
447.88	8678.71
448.06	8575.72
448.25	8507.85
448.43	8645.94
448.62	8674.03
448.80	8699.77
448.99	8713.81
449.17	8847.22
449.36	8924.46
449.54	8793.39
449.73	9036.81
449.91	9193.62
450.10	8971.27
450.28	9074.26
450.46	9170.22
450.65	9006.38
450.83	9266.18
451.02	9107.02
451.20	9261.50
451.39	9193.62
451.57	9392.57
451.76	9359.80
451.94	9320.01
452.13	9589.17
452.31	9413.63
452.49	9301.29
452.68	9420.66
452.86	9423.00
453.05	9591.52
453.23	9582.15
453.42	9500.23
453.60	9207.67
453.78	9652.37
453.97	9619.60
454.15	9565.77
454.34	9579.81
454.52	9884.08
454.70	9565.77
454.89	9909.83
455.07	10080.69
455.26	9989.41
455.44	10064.30
455.62	10078.35
455.81	10026.86
455.99	10214.10
456.17	10265.59
456.36	10176.65
456.54	10373.25
456.73	10326.44
456.91	10511.35
457.09	10588.58
457.28	10665.82
457.46	10534.75
457.64	10555.82
457.83	10654.12
458.01	10586.24
458.19	10747.74
458.38	10736.04
458.56	10871.79
458.74	10824.98
458.93	10810.93
459.11	10942.00
459.29	11005.20
459.48	10841.36
459.66	10970.09
459.84	11131.59
460.03	11449.90
460.21	11112.86
460.39	11098.82
460.57	11133.93
460.76	11042.65
460.94	11136.27
461.12	11250.96
461.31	11375.00
461.49	11250.96
461.67	11293.08
461.85	11592.67
462.04	11466.28
462.22	12051.42
462.40	11733.11
462.59	11487.35
462.77	11737.79
462.95	11864.18
463.13	11599.70
463.32	11793.96
463.50	11847.79
463.68	11932.05
463.86	11878.22
464.05	11632.46
464.23	11978.86
464.41	12280.79
464.59	11913.33
464.78	12308.88
464.96	11974.18
465.14	11934.39
465.32	12297.17
465.50	12325.26
465.69	12404.84
465.87	12173.13
466.05	12304.20
466.23	12346.33
466.41	12489.10
466.60	12664.64
466.78	12425.90
466.96	12367.39
467.14	12503.14
467.32	12690.38
467.51	12751.24
467.69	12318.24
467.87	12655.28
468.05	12950.18
468.23	12571.02
468.41	12685.70
468.60	12772.30
468.78	12863.58
468.96	12837.84
469.14	12884.65
469.32	13013.38
469.50	12685.70
469.69	13179.56
469.87	13331.69
470.05	13348.08
470.23	13437.02
470.41	13493.19
470.59	13385.52
470.77	13422.97
470.95	13376.16
471.14	13874.70
471.32	13224.03
471.50	14073.64
471.68	13619.58
471.86	13642.98
472.04	13963.64
472.22	14429.40
472.40	14073.64
472.58	14033.85
472.77	14094.71
472.95	14429.40
473.13	14623.67
473.31	14169.60
473.49	14150.88
473.67	14246.84
473.85	14572.18
474.03	14644.73
474.21	14829.63
474.39	14867.08
474.57	14827.29
474.75	15194.76
474.93	15049.64
475.12	15108.16
475.30	15332.85
475.48	15133.90
475.66	15585.63
475.84	15431.15
476.02	15878.19
476.20	15651.16
476.38	15754.15
476.56	16020.97
476.74	16348.64
476.92	16177.78
477.10	15796.28
477.28	16121.61
477.46	16496.10
477.64	16589.72
477.82	16776.96
478.00	17130.38
478.18	16964.20
478.36	17385.50
478.54	17495.50
478.72	17525.93
478.90	17708.49
479.08	17671.04
479.26	18036.17
479.44	18001.06
479.62	18185.96
479.80	18590.88
479.98	18380.23
480.16	18302.99
480.34	18464.49
480.52	18934.93
480.70	18675.13
480.88	18455.12
481.06	19070.68
481.24	18963.02
481.41	19559.86
481.59	19726.04
481.77	19765.82
481.95	19967.11
482.13	19831.36
482.31	19906.26
482.49	20706.72
482.67	20711.40
482.85	20624.80
483.03	20816.72
483.21	21151.42
483.39	21397.18
483.57	20978.22
483.74	21277.81
483.92	21364.41
484.10	21750.60
484.28	21965.93
484.46	22223.39
484.64	22689.15
484.82	22202.32
485.00	22682.13
485.18	23136.20
485.35	23234.50
485.53	23407.70
485.71	23021.51
485.89	23807.93
486.07	23826.65
486.25	23812.61
486.43	23833.68
486.61	24465.62
486.78	24348.59
486.96	24519.45
487.14	24802.66
487.32	25078.84
487.50	25249.70
487.68	25214.59
487.85	25795.04
488.03	25631.21
488.21	26625.93
488.39	26457.42
488.57	26651.68
488.75	26246.77
488.92	26892.76
489.10	27199.37
489.28	26962.97
489.46	27466.19
489.64	27201.71
489.81	28170.69
489.99	28315.80
490.17	27587.89
490.35	28339.21
490.53	28425.81
490.70	29099.88
490.88	28783.91
491.06	29724.80
491.24	29097.54
491.41	29095.20
491.59	29830.13
491.77	29757.57
491.95	30047.80
492.13	30354.41
492.30	30199.93
492.48	30412.92
492.66	30728.89
492.84	30333.34
493.01	30986.35
493.19	31147.85
493.37	31295.30
493.54	31618.30
493.72	32112.15
493.90	32046.62
494.08	31948.31
494.25	32559.19
494.43	32290.03
494.61	32882.19
494.79	32730.05
494.96	32828.35
495.14	33219.22
495.32	33532.86
495.49	33628.82
495.67	33663.93
495.85	34103.95
496.02	34176.50
496.20	34382.47
496.38	34611.84
496.55	34579.07
496.73	34932.50
496.91	34855.26
497.09	35105.70
497.26	34976.97
497.44	35538.69
497.62	35999.78
497.79	36236.17
497.97	35988.08
498.14	36306.39
498.32	36924.29
498.50	36818.97
498.67	37254.31
498.85	36935.99
499.03	37270.69
499.20	37495.38
499.38	36996.85
499.56	37806.67
499.73	37535.17
499.91	38167.12
500.08	38064.13
500.26	38040.73
500.44	38415.21
500.61	38445.64
500.79	38302.87
500.97	38586.07
501.14	39035.45
501.32	38972.26
501.49	39274.19
501.67	39309.30
501.84	39466.11
502.02	39241.42
502.20	39393.56
502.37	39622.93
502.55	40004.44
502.72	39831.24
502.90	40196.36
503.07	40095.72
503.25	40470.20
503.43	40851.71
503.60	40140.19
503.78	40734.68
503.95	41067.04
504.13	40910.22
504.30	41195.77
504.48	41045.97
504.65	41418.12
504.83	41703.67
505.01	42031.34
505.18	41762.18
505.36	42094.53
505.53	41387.69
505.71	41715.37
505.88	42412.85
506.06	42195.18
506.23	42443.27
506.41	42466.68
506.58	42342.63
506.76	42696.05
506.93	42682.01
507.11	42923.08
507.28	43178.20
507.46	42885.64
507.63	43522.26
507.81	44102.71
507.98	43145.44
508.16	43377.15
508.33	43761.00
508.50	43737.59
508.68	44112.08
508.85	44219.74
509.03	44495.92
509.20	44870.41
509.38	44912.54
509.55	45228.51
509.73	44816.58
509.90	45223.83
510.08	45132.55
510.25	45462.57
510.42	45382.99
510.60	45338.52
510.77	45411.07
510.95	45675.55
511.12	45783.22
511.30	46021.95
511.47	45925.99
511.64	46094.51
511.82	46511.13
511.99	45731.73
512.17	46684.33
512.34	46630.49
512.51	46649.22
512.69	46677.30
512.86	46742.84
513.04	47306.91
513.21	47524.58
513.38	47557.35
513.56	47215.63
513.73	47304.57
513.90	47445.00
514.08	47484.79
514.25	47688.42
514.43	47929.49
514.60	48116.73
514.77	47924.81
514.95	48069.92
515.12	48020.77
515.29	47810.12
515.47	48601.22
515.64	48776.76
515.81	48435.05
515.99	48673.78
516.16	48809.53
516.33	48879.75
516.51	48762.72
516.68	48952.30
516.85	49258.91
517.03	49485.95
517.20	49544.46
517.37	49787.88
517.54	49918.95
517.72	49406.37
517.89	49509.35
518.06	49633.40
518.24	49837.03
518.41	49947.03
518.58	49958.73
518.75	49698.94
518.93	49947.03
519.10	50042.99
519.27	49949.37
519.45	50628.13
519.62	50337.90
519.79	50321.52
519.96	50611.74
520.14	50616.43
520.31	50452.59
520.48	51002.61
520.65	50621.11
520.83	51316.25
521.00	51119.64
521.17	51231.99
521.34	51159.43
521.52	51306.88
521.69	51044.74
521.86	51393.48
522.03	51370.08
522.20	51938.83
522.38	51810.10
522.55	51725.84
522.72	51976.28
522.89	51634.56
523.07	52025.43
523.24	51760.95
523.41	52191.61
523.58	51936.49
523.75	52264.16
523.92	52097.98
524.10	52301.61
524.27	52612.90
524.44	52556.73
524.61	52648.01
524.78	52446.72
524.96	52713.55
525.13	52507.58
525.30	52680.78
525.47	52992.07
525.64	53073.99
525.81	53130.16
525.98	53261.23
526.16	52942.92
526.33	53125.48
526.50	53450.81
526.67	53073.99
526.84	53460.18
527.01	53350.17
527.18	53228.46
527.36	53518.69
527.53	53474.22
527.70	53609.97
527.87	53715.29
528.04	53474.22
528.21	53712.95
528.38	53757.42
528.55	53918.92
528.72	53535.07
528.89	53783.17
529.07	53691.89
529.24	53790.19
529.41	54136.59
529.58	54049.99
529.75	53970.41
529.92	54113.19
530.09	54291.07
530.26	54480.65
530.43	54595.34
530.60	54312.13
530.77	54326.17
530.94	54246.60
531.11	54478.31
531.28	54600.02
531.46	54686.62
531.63	54604.70
531.80	54761.51
531.97	54976.84
532.14	54899.61
532.31	54784.92
532.48	55178.13
532.65	55154.72
532.82	54831.73
532.99	55056.42
533.16	55009.61
533.33	55166.43
533.50	55182.81
533.67	55126.64
533.84	55086.85
534.01	55440.27
534.18	55313.88
534.35	55501.12
534.52	55316.22
534.69	55501.12
534.86	55760.92
535.03	55519.85
535.20	55564.32
535.37	55627.51
535.54	55585.38
535.71	55807.73
535.88	55828.80
536.05	55760.92
536.22	55824.12
536.38	55784.33
536.55	55997.32
536.72	55906.04
536.89	55908.38
537.06	56002.00
537.23	55985.61
537.40	55985.61
537.57	56034.77
537.74	56214.99
537.91	56404.57
538.08	56112.00
538.25	55941.14
538.42	56245.41
538.59	56446.70
538.75	56296.91
538.92	56545.00
539.09	56779.06
539.26	56458.40
539.43	56535.64
539.60	56474.79
539.77	56662.03
539.94	56655.01
540.11	56617.56
540.28	56617.56
540.44	56736.93
540.61	56692.46
540.78	56708.84
540.95	56835.23
541.12	56720.54
541.29	57069.28
541.46	56954.60
541.62	56949.92
541.79	57151.20
541.96	56858.63
542.13	56980.34
542.30	57099.71
542.47	57298.65
542.63	57317.38
542.80	57109.07
542.97	57418.02
543.14	57490.58
543.31	57268.23
543.48	57820.59
543.64	57867.40
543.81	57457.81
543.98	57602.92
544.15	57528.03
544.32	58061.67
544.48	57827.62
544.65	57616.97
544.82	57626.33
544.99	57778.46
545.16	57836.98
545.32	58033.58
545.49	58087.42
545.66	57989.11
545.83	57677.82
546.00	58101.46
546.16	57991.45
546.33	57783.15
546.50	57946.98
546.67	58017.20
546.83	57743.36
547.00	58159.97
547.17	58159.97
547.34	58197.42
547.50	58115.50
547.67	58436.16
547.84	58408.07
548.00	58190.40
548.17	58611.70
548.34	58464.24
548.51	58330.83
548.67	58651.48
548.84	58504.03
549.01	58382.32
549.18	58447.86
549.34	58597.65
549.51	58679.57
549.68	58595.31
549.84	58705.32
550.01	58731.06
550.18	58705.32
550.34	58749.79
550.51	58899.58
550.68	58773.19
550.84	58672.55
551.01	58993.20
551.18	58969.80
551.34	58803.62
551.51	58864.47
551.68	58857.45
551.84	59061.08
552.01	58822.34
552.18	59096.19
552.34	59110.23
552.51	59154.70
552.68	59089.16
552.84	59047.04
553.01	59264.70
553.18	59061.08
553.34	59150.02
553.51	59018.95
553.67	59173.42
553.84	59248.32
554.01	59325.56
554.17	59124.27
554.34	59248.32
554.51	59192.15
554.67	59271.73
554.84	59363.01
555.00	59416.84
555.17	59355.99
555.33	59236.62
555.50	59269.39
555.67	59313.86
555.83	59213.21
556.00	59442.59
556.16	59756.22
556.33	59803.03
556.50	59526.84
556.66	59903.67
556.83	59489.40
556.99	59786.64
557.16	59835.80
557.32	59842.82
557.49	59889.63
557.65	59568.97
557.82	59538.55
557.98	59650.89
558.15	59824.09
558.32	59887.29
558.48	59564.29
558.65	59805.37
558.81	59955.16
558.98	59877.93
559.14	59896.65
559.31	60009.00
559.47	60196.24
559.64	59987.93
559.80	60081.55
559.97	60207.94
560.13	60046.44
560.30	60055.81
560.46	60200.92
560.63	60020.70
560.79	60023.04
560.96	59980.91
561.12	60346.03
561.29	60161.13
561.45	60278.16
561.61	60182.19
561.78	60072.19
561.94	59948.14
562.11	59910.69
562.27	60200.92
562.44	60287.52
562.60	60317.95
562.77	60308.58
562.93	60224.32
563.10	60303.90
563.26	60317.95
563.42	60535.62
563.59	60313.26
563.75	60196.24
563.92	60566.04
564.08	60200.92
564.24	60626.90
564.41	60411.57
564.57	60491.15
564.74	60495.83
564.90	60465.40
565.07	60367.10
565.23	60357.74
565.39	60491.15
565.56	60383.48
565.72	60441.99
565.88	60640.94
566.05	60479.44
566.21	60390.50
566.38	60397.52
566.54	60598.81
566.70	60650.30
566.87	60786.05
567.03	60327.31
567.19	60692.43
567.36	60664.35
567.52	60561.36
567.68	60903.08
567.85	60647.96
568.01	60818.82
568.17	60596.47
568.34	60662.00
568.50	60654.98
568.66	60706.47
568.83	60764.99
568.99	60626.90
569.15	60764.99
569.32	60746.26
569.48	60694.77
569.64	60982.66
569.81	60877.33
569.97	60666.69
570.13	60718.18
570.30	60715.84
570.46	60734.56
570.62	60940.53
570.78	60893.72
570.95	60722.86
571.11	60956.91
571.27	60732.22
571.43	60882.02
571.60	60999.04
571.76	60989.68
571.92	60893.72
572.09	60809.46
572.25	60842.23
572.41	60804.78
572.57	61055.21
572.74	61207.35
572.90	61024.79
573.06	60828.18
573.22	60933.51
573.38	60940.53
573.55	61087.98
573.71	61080.96
573.87	60931.17
574.03	60786.05
574.20	60893.72
574.36	60945.21
574.52	61027.13
574.68	60942.87
574.84	61066.92
575.01	60959.25
575.17	61118.41
575.33	61083.30
575.49	61132.45
575.65	61190.97
575.82	61116.07
575.98	60996.70
576.14	61354.80
576.30	61244.80
576.46	60989.68
576.62	61141.81
576.79	61057.56
576.95	61123.09
577.11	61296.29
577.27	61001.38
577.43	61190.97
577.59	60940.53
577.75	60985.00
577.92	61015.43
578.08	61109.05
578.24	60966.27
578.40	61282.25
578.56	61106.71
578.72	61066.92
578.88	61305.65
579.04	61275.22
579.21	61357.14
579.37	61310.33
579.53	61165.22
579.69	61158.20
579.85	61109.05
580.01	61160.54
580.17	61123.09
580.33	61312.67
580.49	61188.63
580.65	61085.64
580.82	61106.71
580.98	61073.94
581.14	61071.60
581.30	61326.72
581.46	61167.56
581.62	61106.71
581.78	61380.55
581.94	61378.21
582.10	61167.56
582.26	61277.57
582.42	61221.39
582.58	61277.57
582.74	61298.63
582.90	61265.86
583.06	61310.33
583.22	61172.24
583.38	61394.59
583.54	61242.46
583.70	61460.13
583.86	61478.85
584.02	61001.38
584.18	61310.33
584.34	61425.02
584.50	61286.93
584.66	61324.38
584.82	61158.20
584.98	61577.15
585.14	61324.38
585.30	61256.50
585.46	61387.57
585.62	61205.01
585.78	61200.33
585.94	61251.82
586.10	61317.35
586.26	61385.23
586.42	61352.46
586.58	61284.59
586.74	61425.02
586.90	61387.57
587.06	61214.37
587.22	61310.33
587.38	61326.72
587.54	61476.51
587.70	61425.02
587.86	61403.95
588.02	61474.17
588.18	61427.36
588.34	61317.35
