SpectraSuite Data File
++++++++++++++++++++++++++++++++++++
Date: Fri Oct 25 11:25:02 EDT 2013
User: price-jones
Dark Spectrum Present: No
Reference Spectrum Present: No
Number of Sampled Component Spectra: 1
Spectrometers: USB2+H05261
Integration Time (usec): 100000 (USB2+H05261)
Spectra Averaged: 1 (USB2+H05261)
Boxcar Smoothing: 0 (USB2+H05261)
Correct for Electrical Dark: No (USB2+H05261)
Strobe/Lamp Enabled: No (USB2+H05261)
Correct for Detector Non-linearity: No (USB2+H05261)
Correct for Stray Light: No (USB2+H05261)
Number of Pixels in Processed Spectrum: 2048
>>>>>Begin Processed Spectral Data<<<<<
365.73	252.78
365.92	252.78
366.12	252.78
366.32	180.22
366.52	131.07
366.72	156.82
366.91	77.24
367.11	166.18
367.31	119.37
367.51	126.39
367.70	138.09
367.90	147.45
368.10	161.50
368.30	184.90
368.49	70.22
368.69	191.92
368.89	163.84
369.09	166.18
369.28	175.54
369.48	257.46
369.68	142.77
369.87	126.39
370.07	208.31
370.27	229.37
370.47	339.38
370.66	575.77
370.86	641.31
371.06	589.82
371.25	699.82
371.45	678.76
371.65	667.05
371.84	699.82
372.04	681.10
372.24	718.54
372.44	671.73
372.63	713.86
372.83	753.65
373.03	753.65
373.22	683.44
373.42	685.78
373.62	802.80
373.81	777.06
374.01	753.65
374.21	847.27
374.40	800.46
374.60	758.33
374.79	734.93
374.99	779.40
375.19	814.51
375.38	732.59
375.58	884.72
375.78	910.47
375.97	917.49
376.17	826.21
376.37	964.30
376.56	880.04
376.76	891.74
376.95	821.53
377.15	947.92
377.35	968.98
377.54	983.02
377.74	866.00
377.93	945.58
378.13	912.81
378.33	901.11
378.52	861.32
378.72	983.02
378.91	919.83
379.11	898.77
379.31	910.47
379.50	1011.11
379.70	929.19
379.89	976.00
380.09	950.26
380.28	1006.43
380.48	1025.15
380.68	940.90
380.87	1006.43
381.07	1032.18
381.26	1006.43
381.46	1036.86
381.65	1032.18
381.85	1041.54
382.04	1053.24
382.24	1004.09
382.43	1057.92
382.63	1128.14
382.83	994.73
383.02	1135.16
383.22	1071.97
383.41	1086.01
383.61	1100.05
383.80	1139.84
384.00	1088.35
384.19	1142.18
384.39	1060.26
384.58	1156.22
384.78	1158.57
384.97	1193.67
385.17	1235.80
385.36	1093.03
385.56	1151.54
385.75	1174.95
385.95	1233.46
386.14	1256.87
386.34	1200.69
386.53	1165.59
386.72	1217.08
386.92	1273.25
387.11	1249.85
387.31	1256.87
387.50	1177.29
387.70	1247.51
387.89	1275.59
388.09	1306.02
388.28	1226.44
388.48	1233.46
388.67	1413.68
388.86	1291.98
389.06	1409.00
389.25	1320.06
389.45	1322.40
389.64	1357.51
389.84	1458.15
390.03	1376.24
390.22	1322.40
390.42	1301.34
390.61	1409.00
390.81	1467.52
391.00	1359.85
391.19	1453.47
391.39	1430.07
391.58	1446.45
391.78	1446.45
391.97	1488.58
392.16	1502.62
392.36	1533.05
392.55	1479.22
392.75	1497.94
392.94	1516.67
393.13	1516.67
393.33	1537.73
393.52	1519.01
393.71	1556.46
393.91	1558.80
394.10	1540.07
394.29	1540.07
394.49	1507.30
394.68	1680.50
394.88	1563.48
395.07	1589.22
395.26	1675.82
395.46	1680.50
395.65	1715.61
395.84	1689.87
396.04	1776.47
396.23	1830.30
396.42	1722.63
396.62	1788.17
396.81	1839.66
397.00	1734.34
397.19	1834.98
397.39	1701.57
397.58	1844.34
397.77	1830.30
397.97	1755.40
398.16	1886.47
398.35	1834.98
398.55	1912.22
398.74	1837.32
398.93	1944.99
399.12	1863.07
399.32	1935.62
399.51	1900.52
399.70	2064.35
399.90	1865.41
400.09	1849.02
400.28	2024.56
400.47	1975.41
400.67	2113.50
400.86	2057.33
401.05	2005.84
401.24	2083.08
401.44	2230.53
401.63	2069.03
401.82	2202.44
402.01	2085.42
402.21	2141.59
402.40	2139.25
402.59	2225.85
402.78	2204.78
402.97	2270.32
403.17	2197.76
403.36	2214.15
403.55	2277.34
403.74	2380.32
403.93	2321.81
404.13	2396.71
404.32	2314.79
404.51	2375.64
404.70	2434.16
404.89	2385.01
405.09	2410.75
405.28	2401.39
405.47	2530.12
405.66	2511.39
405.85	2471.61
406.05	2562.89
406.24	2609.70
406.43	2605.02
406.62	2682.25
406.81	2654.17
407.00	2553.52
407.20	2623.74
407.39	2637.78
407.58	2635.44
407.77	2764.17
407.96	2689.28
408.15	2712.68
408.34	2682.25
408.54	2883.54
408.73	2792.26
408.92	2846.09
409.11	2902.26
409.30	2902.26
409.49	2867.16
409.68	2869.50
409.87	2881.20
410.07	2974.82
410.26	2904.60
410.45	3066.10
410.64	3019.29
410.83	2981.84
411.02	3143.34
411.21	3033.33
411.40	2963.12
411.59	3215.90
411.78	3197.17
411.98	3297.81
412.17	3318.88
412.36	3311.86
412.55	3300.16
412.74	3431.23
412.93	3475.70
413.12	3307.18
413.31	3449.95
413.50	3433.57
413.69	3468.67
413.88	3501.44
414.07	3513.14
414.26	3651.24
414.45	3669.96
414.64	3777.62
414.83	3803.37
415.02	3847.84
415.22	3810.39
415.41	3791.67
415.60	3920.40
415.79	3880.61
415.98	3859.54
416.17	3885.29
416.36	4007.00
416.55	4049.13
416.74	4023.38
416.93	3955.51
417.12	4084.23
417.31	4264.46
417.50	4224.67
417.69	4290.20
417.88	4128.70
418.07	4238.71
418.26	4351.06
418.45	4266.80
418.64	4320.63
418.83	4430.63
419.02	4437.66
419.21	4496.17
419.39	4571.07
419.58	4454.04
419.77	4425.95
419.96	4580.43
420.15	4610.86
420.34	4730.22
420.53	4557.02
420.72	4648.30
420.91	4648.30
421.10	4695.11
421.29	4727.88
421.48	4500.85
421.67	4875.34
421.86	4643.62
422.05	4718.52
422.24	4746.61
422.43	4816.82
422.61	4762.99
422.80	4908.10
422.99	4793.42
423.18	5071.94
423.37	5004.07
423.56	4968.96
423.75	4901.08
423.94	4798.10
424.13	4634.26
424.32	4732.56
424.50	5078.96
424.69	5083.64
424.88	5050.88
425.07	4910.44
425.26	5020.45
425.45	4873.00
425.64	4933.85
425.83	4844.91
426.01	5027.47
426.20	4868.31
426.39	5034.49
426.58	5032.15
426.77	4964.28
426.96	5057.90
427.15	5064.92
427.33	5226.42
427.52	5130.45
427.71	5245.14
427.90	5181.95
428.09	5282.59
428.28	5357.49
428.46	5327.06
428.65	5432.38
428.84	5277.91
429.03	5411.32
429.22	5170.24
429.40	5544.73
429.59	5495.58
429.78	5392.59
429.97	5130.45
430.16	5401.96
430.34	5507.28
430.53	5504.94
430.72	5647.71
430.91	5483.88
431.10	5439.40
431.28	5750.70
431.47	5795.17
431.66	5816.23
431.85	5647.71
432.03	5959.00
432.22	5753.04
432.41	5902.83
432.60	6017.52
432.79	5823.25
432.97	5940.28
433.16	6078.37
433.35	6015.18
433.54	6097.10
433.72	6012.84
433.91	6127.52
434.10	6001.13
434.28	5977.73
434.47	6331.15
434.66	6310.08
434.85	6195.40
435.03	6274.98
435.22	6155.61
435.41	6471.58
435.59	6324.13
435.78	6258.59
435.97	6399.02
436.16	6373.28
436.34	6366.26
436.53	6518.39
436.72	6434.13
436.90	6511.37
437.09	6665.85
437.28	6483.28
437.46	6473.92
437.65	6719.68
437.84	6675.21
438.02	6604.99
438.21	6932.67
438.40	6607.33
438.58	6876.49
438.77	7005.22
438.96	6874.15
439.14	7073.10
439.33	7185.44
439.52	7126.93
439.70	7197.15
439.89	7286.09
440.08	7220.55
440.26	7267.36
440.45	7269.70
440.63	7309.49
440.82	7648.87
441.01	7304.81
441.19	7618.44
441.38	7595.04
441.57	7632.49
441.75	7609.08
441.94	7894.63
442.12	7901.65
442.31	8009.31
442.50	7943.78
442.68	7985.91
442.87	8124.00
443.05	8133.36
443.24	8222.30
443.43	8252.73
443.61	8098.25
443.80	8571.04
443.98	8102.93
444.17	7913.35
444.35	8135.70
444.54	8177.83
444.73	8271.45
444.91	8161.45
445.10	8339.33
445.28	8159.11
445.47	8255.07
445.65	7957.82
445.84	8407.20
446.02	8404.86
446.21	8395.50
446.39	8585.08
446.58	8521.89
446.77	8360.39
446.95	8226.98
447.14	8360.39
447.32	8390.82
447.51	8559.34
447.69	8386.14
447.88	8594.45
448.06	8369.76
448.25	8564.02
448.43	8524.23
448.62	8596.79
448.80	8411.89
448.99	8613.17
449.17	8807.44
449.36	8606.15
449.54	8748.92
449.73	8943.19
449.91	9146.81
450.10	8793.39
450.28	9083.62
450.46	8929.14
450.65	9036.81
450.83	8877.65
451.02	9078.94
451.20	9287.25
451.39	9041.49
451.57	8994.68
451.76	9107.02
451.94	9107.02
452.13	9446.40
452.31	9345.76
452.49	9163.20
452.68	9453.42
452.86	9214.69
453.05	9415.98
453.23	9497.89
453.42	9511.94
453.60	9348.10
453.78	9516.62
453.97	9516.62
454.15	9540.02
454.34	9551.73
454.52	9591.52
454.70	9533.00
454.89	9633.64
455.07	9582.15
455.26	9841.95
455.44	9792.80
455.62	9645.35
455.81	9626.62
455.99	9734.29
456.17	10143.88
456.36	9980.04
456.54	10097.07
456.73	10068.98
456.91	10516.03
457.09	10209.42
457.28	10569.86
457.46	10143.88
457.64	10434.11
457.83	10415.38
458.01	10164.95
458.19	10607.31
458.38	10572.20
458.56	10663.48
458.74	10513.69
458.93	10581.56
459.11	10717.31
459.29	10927.96
459.48	10883.49
459.66	10682.20
459.84	10906.90
460.03	11049.67
460.21	11152.65
460.39	10916.26
460.57	11030.94
460.76	11077.76
460.94	11030.94
461.12	10881.15
461.31	11059.03
461.49	11173.72
461.67	11197.12
461.85	11463.94
462.04	11253.30
462.22	11934.39
462.40	11604.38
462.59	11482.67
462.77	11618.42
462.95	11440.54
463.13	11562.25
463.32	11520.12
463.50	11517.78
463.68	11850.13
463.86	11740.13
464.05	11552.88
464.23	11702.68
464.41	11990.56
464.59	11709.70
464.78	11995.25
464.96	11836.09
465.14	11903.96
465.32	12126.32
465.50	12119.29
465.69	12215.26
465.87	12166.10
466.05	12086.53
466.23	11768.21
466.41	12079.50
466.60	12489.10
466.78	12093.55
466.96	11964.82
467.14	12290.15
467.32	12458.67
467.51	12568.68
467.69	12135.68
467.87	12388.46
468.05	12475.06
468.23	12400.16
468.41	12409.52
468.60	12676.34
468.78	12704.43
468.96	12493.78
469.14	12692.73
469.32	13039.12
469.50	12552.29
469.69	12568.68
469.87	13050.83
470.05	13298.92
470.23	13207.64
470.41	13062.53
470.59	13343.39
470.77	13240.41
470.95	13034.44
471.14	13317.65
471.32	13207.64
471.50	13582.13
471.68	13486.17
471.86	13575.11
472.04	13523.62
472.22	14019.81
472.40	13680.43
472.58	13664.05
472.77	14097.05
472.95	14054.92
473.13	14389.61
473.31	14141.52
473.49	14279.61
473.67	14019.81
473.85	14305.35
474.03	14572.18
474.21	14537.07
474.39	14775.80
474.57	14567.49
474.75	14677.50
474.93	14941.98
475.12	14766.44
475.30	15140.93
475.48	14998.15
475.66	15150.29
475.84	15253.27
476.02	15337.53
476.20	15339.87
476.38	15660.52
476.56	15784.57
476.74	15807.98
476.92	15777.55
477.10	15627.76
477.28	16051.39
477.46	15941.39
477.64	16212.89
477.82	16608.44
478.00	17067.19
478.18	16924.41
478.36	16592.06
478.54	17036.76
478.72	16896.33
478.90	17193.58
479.08	17308.26
479.26	17366.78
479.44	17577.42
479.62	17869.99
479.80	17701.47
479.98	18019.78
480.16	18490.23
480.34	18284.26
480.52	18644.71
480.70	18551.09
480.88	18450.44
481.06	18572.15
481.24	18663.43
481.41	18941.96
481.59	18984.09
481.77	19660.50
481.95	19335.17
482.13	19716.67
482.31	19690.93
482.49	20276.06
482.67	20056.05
482.85	20472.67
483.03	20917.37
483.21	20460.96
483.39	20732.47
483.57	20510.11
483.74	21029.71
483.92	21493.14
484.10	21062.48
484.28	21661.66
484.46	21589.10
484.64	22377.86
484.82	21818.47
485.00	22094.66
485.18	22459.78
485.35	23007.47
485.53	22394.25
485.71	22918.53
485.89	23250.88
486.07	23140.88
486.25	23353.87
486.43	23669.84
486.61	23915.59
486.78	23674.52
486.96	24261.99
487.14	24636.48
487.32	24584.99
487.50	24805.00
487.68	24685.63
487.85	25064.80
488.03	25216.93
488.21	25759.94
488.39	25453.33
488.57	25989.31
488.75	26038.46
488.92	26410.60
489.10	26663.38
489.28	26661.04
489.46	27243.84
489.64	26946.59
489.81	27311.71
489.99	27328.10
490.17	27868.76
490.35	27770.46
490.53	28226.86
490.70	28030.26
490.88	27938.97
491.06	28807.31
491.24	28671.56
491.41	28823.70
491.59	29270.74
491.77	28980.51
491.95	29584.37
492.13	29570.33
492.30	29692.04
492.48	29778.64
492.66	29872.26
492.84	30190.57
493.01	30567.40
493.19	30501.86
493.37	30941.88
493.54	30768.68
493.72	31243.81
493.90	31370.20
494.08	31632.34
494.25	31730.64
494.43	31775.11
494.61	32198.75
494.79	32664.52
494.96	31875.76
495.14	32563.87
495.32	32601.32
495.49	32959.42
495.67	33099.86
495.85	33277.74
496.02	33502.43
496.20	33736.48
496.38	33755.21
496.55	33731.80
496.73	34873.98
496.91	34518.22
497.09	34560.35
497.26	34859.94
497.44	34763.98
497.62	34965.26
497.79	35676.79
497.97	34878.66
498.14	35765.73
498.32	35854.67
498.50	35936.59
498.67	36622.36
498.85	36215.11
499.03	36795.56
499.20	36835.35
499.38	36617.68
499.56	36935.99
499.73	36795.56
499.91	36996.85
500.08	37141.96
500.26	37205.16
500.44	37277.71
500.61	38169.46
500.79	37235.58
500.97	37996.26
501.14	38417.55
501.32	38232.65
501.49	38394.15
501.67	38553.30
501.84	38883.32
502.02	38539.26
502.20	39126.74
502.37	38939.49
502.55	38822.47
502.72	39538.67
502.90	39126.74
503.07	39028.43
503.25	40020.82
503.43	39782.09
503.60	39557.39
503.78	40177.64
503.95	40161.25
504.13	40456.16
504.30	40360.20
504.48	40037.20
504.65	40760.43
504.83	40896.18
505.01	40954.69
505.18	41120.87
505.36	41734.09
505.53	40966.40
505.71	41015.55
505.88	41530.47
506.06	41041.29
506.23	41895.59
506.41	42101.56
506.58	41993.89
506.76	41907.29
506.93	42438.59
507.11	42087.51
507.28	42529.87
507.46	42660.94
507.63	42637.54
507.81	43344.38
507.98	42525.19
508.16	42911.38
508.33	42958.19
508.50	43072.88
508.68	43335.02
508.85	43756.32
509.03	43491.83
509.20	43810.15
509.38	44250.17
509.55	44172.93
509.73	44327.41
509.90	44158.89
510.08	43903.77
510.25	44231.44
510.42	44428.05
510.60	44676.15
510.77	44858.71
510.95	45626.40
511.12	44921.90
511.30	45205.11
511.47	45127.87
511.64	45312.77
511.82	45691.94
511.99	45336.18
512.17	46110.89
512.34	45818.33
512.51	46064.08
512.69	46216.22
512.86	46129.62
513.04	46581.34
513.21	46403.46
513.38	46424.53
513.56	46946.47
513.73	46312.18
513.90	46656.24
514.08	46663.26
514.25	46972.21
514.43	47269.46
514.60	47229.67
514.77	47196.90
514.95	47482.45
515.12	47627.56
515.29	47803.10
515.47	47487.13
515.64	48325.04
515.81	47945.87
515.99	48018.43
516.16	47838.21
516.33	48200.99
516.51	48404.62
516.68	48322.70
516.85	48685.48
517.03	48877.41
517.20	48760.38
517.37	48903.15
517.54	48701.87
517.72	48629.31
517.89	49013.16
518.06	49109.12
518.24	49132.53
518.41	49230.83
518.58	49256.57
518.75	49490.63
518.93	49333.81
519.10	49471.90
519.27	49261.26
519.45	49858.09
519.62	49715.32
519.79	50073.42
519.96	49801.92
520.14	50103.85
520.31	50148.32
520.48	50684.30
520.65	50017.25
520.83	50370.67
521.00	50436.20
521.17	50450.25
521.34	50684.30
521.52	50784.94
521.69	50473.65
521.86	50679.62
522.03	51011.98
522.20	51208.58
522.38	51206.24
522.55	51299.86
522.72	51180.49
522.89	51089.21
523.07	51398.16
523.24	51318.59
523.41	51459.02
523.58	51463.70
523.75	51728.18
523.92	51606.47
524.10	51838.18
524.27	51906.06
524.44	51723.50
524.61	51686.05
524.78	52172.88
524.96	51845.21
525.13	52329.70
525.30	52224.37
525.47	52519.28
525.64	51973.94
525.81	52418.64
525.98	52589.50
526.16	52320.34
526.33	52369.49
526.50	52942.92
526.67	52500.56
526.84	52783.76
527.01	52563.75
527.18	52945.26
527.36	53017.82
527.53	52493.54
527.70	53354.85
527.87	53315.06
528.04	53013.13
528.21	53425.07
528.38	53132.50
528.55	53453.15
528.72	53214.42
528.89	53382.94
529.07	53118.46
529.24	52891.43
529.41	53722.32
529.58	53268.25
529.75	53645.08
529.92	53837.00
530.09	53715.29
530.26	53656.78
530.43	53846.36
530.60	53399.32
530.77	53794.87
530.94	53954.03
531.11	53790.19
531.28	54082.76
531.46	53947.01
531.63	54019.56
531.80	53928.28
531.97	54199.79
532.14	54368.30
532.31	54508.74
532.48	54361.28
532.65	54532.14
532.82	53998.50
532.99	54660.87
533.16	54560.23
533.33	54611.72
533.50	54653.85
533.67	54471.29
533.84	54602.36
534.01	54784.92
534.18	54951.10
534.35	55243.66
534.52	54719.38
534.69	55049.40
534.86	55150.04
535.03	55231.96
535.20	55199.19
535.37	55433.25
535.54	55084.51
535.71	55154.72
535.88	55171.11
536.05	55337.29
536.22	55505.80
536.38	55604.11
536.55	55447.29
536.72	55267.07
536.89	55554.96
537.06	55356.01
537.23	55269.41
537.40	55550.27
537.57	55554.96
537.74	55725.81
537.91	55842.84
538.08	55667.30
538.25	55519.85
538.42	56025.40
538.59	55936.46
538.75	55613.47
538.92	55908.38
539.09	55948.17
539.26	56090.94
539.43	55842.84
539.60	56156.47
539.77	56266.48
539.94	56214.99
540.11	56292.22
540.28	56289.88
540.44	56346.06
540.61	56528.62
540.78	56126.05
540.95	56090.94
541.12	56088.60
541.29	56116.68
541.46	56486.49
541.62	56409.25
541.79	56643.30
541.96	56151.79
542.13	56643.30
542.30	56484.15
542.47	56622.24
542.63	56694.80
542.80	56846.93
542.97	56828.21
543.14	57169.93
543.31	56889.06
543.48	57141.84
543.64	57286.95
543.81	57055.24
543.98	57097.37
544.15	57179.29
544.32	57380.57
544.48	57219.08
544.65	57230.78
544.82	57460.15
544.99	57055.24
545.16	57418.02
545.32	57228.44
545.49	57394.62
545.66	57577.18
545.83	57469.51
546.00	57696.55
546.16	57499.94
546.33	57258.87
546.50	57429.72
546.67	57719.95
546.83	57247.16
547.00	57689.52
547.17	57605.26
547.34	57616.97
547.50	57806.55
547.67	58054.65
547.84	57815.91
548.00	58085.07
548.17	57916.56
548.34	58082.73
548.51	58103.80
548.67	58092.10
548.84	58028.90
549.01	57825.28
549.18	58075.71
549.34	57844.00
549.51	58192.74
549.68	58225.51
549.84	58047.63
550.01	58387.00
550.18	58019.54
550.34	58295.72
550.51	58377.64
550.68	58190.40
550.84	58164.65
551.01	58527.44
551.18	58438.50
551.34	58459.56
551.51	58532.12
551.68	58279.34
551.84	58515.73
552.01	58291.04
552.18	58522.76
552.34	58351.90
552.51	58791.92
552.68	58337.85
552.84	58258.27
553.01	58656.17
553.18	58841.07
553.34	58770.85
553.51	58492.33
553.67	58677.23
553.84	59004.91
554.01	58915.96
554.17	59004.91
554.34	58688.93
554.51	58843.41
554.67	58997.88
554.84	58922.99
555.00	58911.28
555.17	58932.35
555.33	59143.00
555.50	58855.11
555.67	58794.26
555.83	58911.28
556.00	59009.59
556.16	59159.38
556.33	59004.91
556.50	59049.38
556.66	59255.34
556.83	59054.06
556.99	59224.92
557.16	59355.99
557.32	59444.93
557.49	59475.35
557.65	59152.36
557.82	59224.92
557.98	59334.92
558.15	59344.28
558.32	59487.06
558.48	59330.24
558.65	59182.79
558.81	59344.28
558.98	59290.45
559.14	59554.93
559.31	59386.41
559.47	59613.44
559.64	59735.15
559.80	59552.59
559.97	59543.23
560.13	59465.99
560.30	59622.81
560.46	59756.22
560.63	59632.17
560.79	59695.36
560.96	59884.95
561.12	59814.73
561.29	59798.35
561.45	59576.00
561.61	59580.68
561.78	59524.50
561.94	59781.96
562.11	59545.57
562.27	59676.64
562.44	59842.82
562.60	59695.36
562.77	59929.42
562.93	59714.09
563.10	59948.14
563.26	59739.83
563.42	59980.91
563.59	59704.73
563.75	59957.50
563.92	60055.81
564.08	59978.57
564.24	59934.10
564.41	60126.02
564.57	60343.69
564.74	59927.08
564.90	59971.55
565.07	60053.47
565.23	60294.54
565.39	59976.23
565.56	60130.70
565.72	60018.36
565.88	59870.90
566.05	60011.34
566.21	60048.78
566.38	60224.32
566.54	60060.49
566.70	60395.18
566.87	60243.05
567.03	59929.42
567.19	60535.62
567.36	60317.95
567.52	60088.57
567.68	60355.39
567.85	60247.73
568.01	60172.83
568.17	60200.92
568.34	60233.69
568.50	60320.29
568.66	60271.14
568.83	60381.14
568.99	60243.05
569.15	60231.35
569.32	60236.03
569.48	60418.59
569.64	60549.66
569.81	60331.99
569.97	60149.43
570.13	60236.03
570.30	60264.11
570.46	60238.37
570.62	60411.57
570.78	60212.62
570.95	60243.05
571.11	60540.30
571.27	60371.78
571.43	60346.03
571.60	60467.74
571.76	60388.16
571.92	60610.51
572.09	60580.09
572.25	60470.08
572.41	60212.62
572.57	60397.52
572.74	60629.24
572.90	60402.21
573.06	60715.84
573.22	60411.57
573.38	60584.77
573.55	60472.42
573.71	60615.19
573.87	60547.32
574.03	60444.33
574.20	60561.36
574.36	60406.89
574.52	60711.16
574.68	60528.59
574.84	60764.99
575.01	60615.19
575.17	60596.47
575.33	60678.39
575.49	60444.33
575.65	60732.22
575.82	60676.05
575.98	60669.03
576.14	60893.72
576.30	60746.26
576.46	60671.37
576.62	60509.87
576.79	60608.17
576.95	60523.91
577.11	60727.54
577.27	60849.25
577.43	60914.78
577.59	60643.28
577.75	60509.87
577.92	60573.06
578.08	60722.86
578.24	60657.32
578.40	60872.65
578.56	60741.58
578.72	60783.71
578.88	60889.04
579.04	60872.65
579.21	60779.03
579.37	60874.99
579.53	60809.46
579.69	60715.84
579.85	60657.32
580.01	60676.05
580.17	60788.39
580.33	60750.94
580.49	60769.67
580.65	60973.30
580.82	60687.75
580.98	60664.35
581.14	60928.83
581.30	60947.55
581.46	60891.38
581.62	60877.33
581.78	60498.17
581.94	60828.18
582.10	60924.14
582.26	60580.09
582.42	60743.92
582.58	60903.08
582.74	60779.03
582.90	60832.86
583.06	60956.91
583.22	60704.13
583.38	60851.59
583.54	60640.94
583.70	61041.17
583.86	60804.78
584.02	60856.27
584.18	61008.40
584.34	60933.51
584.50	60842.23
584.66	60734.56
584.82	60800.10
584.98	61099.68
585.14	60886.70
585.30	60767.33
585.46	60996.70
585.62	60816.48
585.78	61219.05
585.94	60683.07
586.10	60816.48
586.26	60863.29
586.42	60921.80
586.58	61052.87
586.74	60701.79
586.90	60945.21
587.06	60844.57
587.22	60900.74
587.38	60928.83
587.54	61226.07
587.70	61097.34
587.86	60968.61
588.02	60973.30
588.18	61298.63
588.34	60977.98
588.49	60973.30
