SpectraSuite Data File
++++++++++++++++++++++++++++++++++++
Date: Fri Oct 25 11:23:54 EDT 2013
User: price-jones
Dark Spectrum Present: No
Reference Spectrum Present: No
Number of Sampled Component Spectra: 1
Spectrometers: USB2+H05261
Integration Time (usec): 100000 (USB2+H05261)
Spectra Averaged: 1 (USB2+H05261)
Boxcar Smoothing: 0 (USB2+H05261)
Correct for Electrical Dark: No (USB2+H05261)
Strobe/Lamp Enabled: No (USB2+H05261)
Correct for Detector Non-linearity: No (USB2+H05261)
Correct for Stray Light: No (USB2+H05261)
Number of Pixels in Processed Spectrum: 2048
>>>>>Begin Processed Spectral Data<<<<<
365.73	308.95
365.92	308.95
366.12	308.95
366.32	117.03
366.52	107.66
366.72	100.64
366.91	107.66
367.11	56.17
367.31	152.13
367.51	161.50
367.70	110.01
367.90	187.24
368.10	93.62
368.30	102.98
368.49	180.22
368.69	170.86
368.89	173.20
369.09	177.88
369.28	126.39
369.48	175.54
369.68	184.90
369.87	276.18
370.07	217.67
370.27	210.65
370.47	280.86
370.66	596.84
370.86	655.35
371.06	678.76
371.25	709.18
371.45	681.10
371.65	716.20
371.84	645.99
372.04	685.78
372.24	798.12
372.44	699.82
372.63	851.96
372.83	739.61
373.03	746.63
373.22	795.78
373.42	791.10
373.62	826.21
373.81	858.98
374.01	795.78
374.21	784.08
374.40	805.14
374.60	758.33
374.79	690.46
374.99	767.70
375.19	837.91
375.38	926.85
375.58	882.38
375.78	889.40
375.97	851.96
376.17	880.04
376.37	844.93
376.56	875.36
376.76	882.38
376.95	940.90
377.15	840.25
377.35	938.55
377.54	882.38
377.74	887.06
377.93	873.02
378.13	931.53
378.33	990.05
378.52	915.15
378.72	919.83
378.91	887.06
379.11	861.32
379.31	926.85
379.50	882.38
379.70	1027.50
379.89	929.19
380.09	931.53
380.28	1015.79
380.48	990.05
380.68	957.28
380.87	1041.54
381.07	1053.24
381.26	959.62
381.46	1034.52
381.65	1090.69
381.85	1043.88
382.04	1039.20
382.24	1006.43
382.43	1036.86
382.63	1013.45
382.83	1076.65
383.02	1146.86
383.22	1149.20
383.41	1097.71
383.61	1086.01
383.80	1078.99
384.00	1095.37
384.19	1095.37
384.39	1179.63
384.58	1210.06
384.78	1071.97
384.97	1097.71
385.17	1153.88
385.36	1125.80
385.56	1149.20
385.75	1179.63
385.95	1280.27
386.14	1179.63
386.34	1139.84
386.53	1146.86
386.72	1296.66
386.92	1177.29
387.11	1291.98
387.31	1193.67
387.50	1240.48
387.70	1282.61
387.89	1226.44
388.09	1203.04
388.28	1254.53
388.48	1348.15
388.67	1275.59
388.86	1371.55
389.06	1280.27
389.25	1284.95
389.45	1282.61
389.64	1352.83
389.84	1373.89
390.03	1327.08
390.22	1306.02
390.42	1369.21
390.61	1336.45
390.81	1249.85
391.00	1341.13
391.19	1430.07
391.39	1462.83
391.58	1481.56
391.78	1476.88
391.97	1633.69
392.16	1509.65
392.36	1416.02
392.55	1521.35
392.75	1591.56
392.94	1549.43
393.13	1558.80
393.33	1537.73
393.52	1624.33
393.71	1495.60
393.91	1593.90
394.10	1591.56
394.29	1647.74
394.49	1598.59
394.68	1746.04
394.88	1593.90
395.07	1579.86
395.26	1696.89
395.46	1664.12
395.65	1652.42
395.84	1666.46
396.04	1724.97
396.23	1785.83
396.42	1668.80
396.62	1825.62
396.81	1755.40
397.00	1717.95
397.19	1839.66
397.39	1767.10
397.58	1825.62
397.77	1856.04
397.97	1863.07
398.16	1923.92
398.35	1884.13
398.55	1818.60
398.74	1863.07
398.93	1952.01
399.12	1909.88
399.32	1872.43
399.51	2022.22
399.70	2064.35
399.90	1970.73
400.09	2090.10
400.28	2010.52
400.47	1987.11
400.67	2076.06
400.86	2143.93
401.05	2122.87
401.24	2052.65
401.44	2120.53
401.63	2176.70
401.82	2150.95
402.01	2148.61
402.21	2207.13
402.40	2193.08
402.59	2097.12
402.78	2223.51
402.97	2188.40
403.17	2307.77
403.36	2249.25
403.55	2244.57
403.74	2298.41
403.93	2307.77
404.13	2282.02
404.32	2326.49
404.51	2361.60
404.70	2452.88
404.89	2401.39
405.09	2324.15
405.28	2420.11
405.47	2511.39
405.66	2541.82
405.85	2520.76
406.05	2558.21
406.24	2537.14
406.43	2541.82
406.62	2614.38
406.81	2743.11
407.00	2649.49
407.20	2640.12
407.39	2562.89
407.58	2708.00
407.77	2719.70
407.96	2738.43
408.15	2733.75
408.34	2825.03
408.54	2815.66
408.73	2822.69
408.92	2860.13
409.11	2855.45
409.30	2897.58
409.49	2911.63
409.68	2843.75
409.87	2911.63
410.07	2923.33
410.26	2909.29
410.45	2946.73
410.64	2988.86
410.83	3007.59
411.02	3070.78
411.21	3272.07
411.40	3178.45
411.59	3204.19
411.78	3056.74
411.98	3183.13
412.17	3236.96
412.36	3421.86
412.55	3328.24
412.74	3527.19
412.93	3344.63
413.12	3426.54
413.31	3557.61
413.50	3342.28
413.69	3508.46
413.88	3585.70
414.07	3499.10
414.26	3583.36
414.45	3646.55
414.64	3623.15
414.83	3702.73
415.02	3758.90
415.22	3934.44
415.41	3915.72
415.60	3906.35
415.79	3824.44
415.98	3974.23
416.17	3983.59
416.36	3808.05
416.55	4011.68
416.74	4030.40
416.93	4058.49
417.12	4198.92
417.31	4224.67
417.50	4248.07
417.69	4285.52
417.88	4297.22
418.07	4301.90
418.26	4201.26
418.45	4400.21
418.64	4365.10
418.83	4315.95
419.02	4372.12
419.21	4442.34
419.39	4482.13
419.58	4423.61
419.77	4498.51
419.96	4468.08
420.15	4519.57
420.34	4606.17
420.53	4622.56
420.72	4774.69
420.91	4718.52
421.10	4657.67
421.29	4713.84
421.48	4634.26
421.67	4830.87
421.86	4681.07
422.05	4676.39
422.24	4901.08
422.43	4847.25
422.61	4828.53
422.80	4931.51
422.99	4809.80
423.18	4828.53
423.37	5062.58
423.56	4739.58
423.75	4912.78
423.94	4952.57
424.13	4660.01
424.32	4903.42
424.50	5132.79
424.69	5118.75
424.88	5046.20
425.07	5029.81
425.26	4826.18
425.45	4936.19
425.64	4891.72
425.83	4901.08
426.01	4973.64
426.20	5158.54
426.39	5034.49
426.58	5036.83
426.77	5053.22
426.96	5001.72
427.15	5069.60
427.33	5233.44
427.52	5107.05
427.71	5357.49
427.90	5329.40
428.09	5327.06
428.28	5467.49
428.46	5453.45
428.65	5275.57
428.84	5490.90
429.03	5488.56
429.22	5399.62
429.40	5369.19
429.59	5518.98
429.78	5357.49
429.97	5268.55
430.16	5270.89
430.34	5479.19
430.53	5687.50
430.72	5724.95
430.91	5760.06
431.10	5760.06
431.28	5694.52
431.47	5844.32
431.66	5930.92
431.85	5837.30
432.03	5844.32
432.22	5984.75
432.41	5872.40
432.60	5809.21
432.79	5898.15
432.97	6040.92
433.16	5994.11
433.35	6008.16
433.54	6047.94
433.72	6171.99
433.91	6115.82
434.10	6078.37
434.28	6174.33
434.47	6181.35
434.66	6382.64
434.85	6291.36
435.03	6441.15
435.22	6209.44
435.41	6431.79
435.59	6399.02
435.78	6324.13
435.97	6431.79
436.16	6368.60
436.34	6541.80
436.53	6527.75
436.72	6679.89
436.90	6401.37
437.09	6576.91
437.28	6590.95
437.46	6555.84
437.65	6597.97
437.84	6820.32
438.02	6703.29
438.21	6794.58
438.40	6738.40
438.58	6897.56
438.77	6897.56
438.96	6906.92
439.14	7222.89
439.33	7173.74
439.52	7215.87
439.70	7164.38
439.89	7325.88
440.08	7368.01
440.26	7321.20
440.45	7283.75
440.63	7379.71
440.82	7639.51
441.01	7576.31
441.19	7581.00
441.38	7817.39
441.57	7630.15
441.75	7641.85
441.94	7761.22
442.12	7887.61
442.31	7957.82
442.50	8128.68
442.68	7943.78
442.87	8079.53
443.05	7990.59
443.24	8243.37
443.43	8131.02
443.61	8142.72
443.80	8531.25
443.98	8262.09
444.17	7726.11
444.35	8217.62
444.54	8336.99
444.73	8252.73
444.91	8463.38
445.10	8243.37
445.28	8222.30
445.47	8114.64
445.65	8304.22
445.84	8358.05
446.02	8519.55
446.21	8463.38
446.39	8411.89
446.58	8554.66
446.77	8636.58
446.95	8449.33
447.14	8325.29
447.32	8477.42
447.51	8489.12
447.69	8538.27
447.88	8479.76
448.06	8685.73
448.25	8606.15
448.43	8446.99
448.62	8821.48
448.80	8613.17
448.99	8638.92
449.17	8793.39
449.36	8552.32
449.54	8819.14
449.73	9114.05
449.91	8973.61
450.10	8854.25
450.28	9034.47
450.46	8896.38
450.65	8987.66
450.83	9097.66
451.02	8868.29
451.20	9275.54
451.39	9210.01
451.57	9165.54
451.76	8978.30
451.94	9160.86
452.13	9291.93
452.31	9434.70
452.49	9268.52
452.68	9212.35
452.86	9320.01
453.05	9366.82
453.23	9568.11
453.42	9413.63
453.60	9394.91
453.78	9671.09
453.97	9645.35
454.15	9577.47
454.34	9462.79
454.52	9713.22
454.70	9685.14
454.89	9734.29
455.07	9654.71
455.26	9905.15
455.44	9961.32
455.62	9867.70
455.81	9781.10
455.99	10099.41
456.17	9949.62
456.36	10054.94
456.54	10125.16
456.73	10143.88
456.91	10448.15
457.09	10516.03
457.28	10604.97
457.46	10193.03
457.64	10539.43
457.83	10455.17
458.01	10401.34
458.19	10569.86
458.38	10576.88
458.56	10743.06
458.74	10759.44
458.93	10761.78
459.11	10822.64
459.29	10775.83
459.48	10906.90
459.66	10869.45
459.84	10972.43
460.03	11215.85
460.21	10920.94
460.39	11009.88
460.57	10892.85
460.76	10951.37
460.94	11105.84
461.12	11063.71
461.31	11042.65
461.49	11098.82
461.67	11424.15
461.85	11379.68
462.04	11269.68
462.22	11513.10
462.40	11688.64
462.59	11501.39
462.77	11580.97
462.95	11723.74
463.13	11716.72
463.32	11665.23
463.50	11779.92
463.68	11585.65
463.86	12006.95
464.05	11611.40
464.23	11754.17
464.41	11838.43
464.59	11580.97
464.78	11981.20
464.96	12081.85
465.14	11609.06
465.32	12102.91
465.50	12107.59
465.69	12236.32
465.87	12011.63
466.05	12070.14
466.23	12119.29
466.41	12290.15
466.60	12484.42
466.78	12196.53
466.96	12035.03
467.14	12343.99
467.32	12374.41
467.51	12351.01
467.69	12166.10
467.87	12493.78
468.05	12655.28
468.23	12409.52
468.41	12585.06
468.60	12564.00
468.78	12627.19
468.96	12688.04
469.14	12854.22
469.32	13083.59
469.50	12657.62
469.69	12791.03
469.87	13242.75
470.05	13217.01
470.23	13315.31
470.41	13074.23
470.59	13336.37
470.77	13001.68
470.95	13357.44
471.14	13404.25
471.32	13317.65
471.50	13692.13
471.68	13762.35
471.86	13626.60
472.04	13930.87
472.22	14059.60
472.40	13799.80
472.58	13928.53
472.77	13785.76
472.95	14064.28
473.13	14860.06
473.31	14345.14
473.49	14228.12
473.67	13942.57
473.85	14354.51
474.03	14771.12
474.21	14626.01
474.39	14614.30
474.57	14712.61
474.75	14899.85
474.93	15246.25
475.12	15096.46
475.30	14949.00
475.48	15073.05
475.66	15374.98
475.84	15304.76
476.02	15475.62
476.20	15382.00
476.38	15903.94
476.56	15857.13
476.74	15922.66
476.92	15779.89
477.10	15744.78
477.28	16156.72
477.46	16201.19
477.64	16362.69
477.82	16599.08
478.00	16924.41
478.18	16858.88
478.36	16957.18
478.54	17212.30
478.72	17006.33
478.90	17378.48
479.08	17703.81
479.26	17626.57
479.44	17832.54
479.62	18080.64
479.80	17811.48
479.98	18101.70
480.16	18691.52
480.34	18382.57
480.52	18906.85
480.70	18822.59
480.88	18532.36
481.06	18794.50
481.24	18871.74
481.41	19037.92
481.59	19323.46
481.77	19330.48
481.95	19566.88
482.13	19922.64
482.31	19463.90
482.49	20091.16
482.67	19920.30
482.85	20599.05
483.03	20840.13
483.21	20348.62
483.39	21137.38
483.57	21006.31
483.74	21319.94
483.92	21177.17
484.10	21469.73
484.28	21504.84
484.46	21884.01
484.64	22511.27
484.82	22108.70
485.00	22317.01
485.18	22733.62
485.35	22745.33
485.53	22862.35
485.71	23084.70
485.89	23428.76
486.07	23201.73
486.25	23541.11
486.43	23674.52
486.61	23777.50
486.78	24032.62
486.96	24287.74
487.14	24414.13
487.32	24477.32
487.50	25069.48
487.68	25081.18
487.85	25240.34
488.03	25795.04
488.21	25865.26
488.39	25738.87
488.57	25961.22
488.75	26417.63
488.92	26958.29
489.10	26511.25
489.28	26766.37
489.46	27182.98
489.64	27164.26
489.81	27496.61
489.99	27393.63
490.17	27938.97
490.35	28034.94
490.53	28128.56
490.70	28629.43
490.88	28423.47
491.06	28879.87
491.24	28917.32
491.41	29247.33
491.59	29289.46
491.77	29408.83
491.95	29677.99
492.13	29689.70
492.30	29879.28
492.48	29762.25
492.66	29975.24
492.84	30504.20
493.01	30588.46
493.19	30859.96
493.37	31133.81
493.54	30972.31
493.72	31571.49
493.90	31351.48
494.08	31866.39
494.25	32158.96
494.43	32175.34
494.61	32503.02
494.79	32496.00
494.96	32411.74
495.14	32788.56
495.32	33462.64
495.49	33139.65
495.67	32912.61
495.85	33352.63
496.02	33516.47
496.20	34073.52
496.38	33897.98
496.55	33996.28
496.73	34967.60
496.91	34689.08
497.09	34684.40
497.26	34742.91
497.44	34717.17
497.62	35056.54
497.79	35791.47
497.97	35775.09
498.14	35569.12
498.32	36203.41
498.50	35880.41
498.67	36147.23
498.85	36638.75
499.03	36690.24
499.20	36680.88
499.38	37071.75
499.56	37518.79
499.73	36933.65
499.91	37591.34
500.08	37464.96
500.26	37244.94
500.44	37757.52
500.61	37720.07
500.79	37394.74
500.97	37935.40
501.14	38209.25
501.32	38623.52
501.49	38990.98
501.67	38288.82
501.84	39091.63
502.02	38780.34
502.20	39136.10
502.37	39143.12
502.55	39178.23
502.72	39480.16
502.90	39662.72
503.07	40016.14
503.25	39782.09
503.43	39915.50
503.60	40694.89
503.78	40243.17
503.95	40177.64
504.13	40453.82
504.30	40353.18
504.48	40760.43
504.65	40715.96
504.83	40772.13
505.01	41202.79
505.18	41116.19
505.36	41588.98
505.53	41460.25
505.71	41911.97
505.88	41813.67
506.06	41790.27
506.23	41963.46
506.41	41579.62
506.58	42225.60
506.76	42127.30
506.93	42930.11
507.11	42492.43
507.28	42679.67
507.46	43033.09
507.63	42817.76
507.81	43157.14
507.98	42829.46
508.16	43599.50
508.33	43686.10
508.50	43838.23
508.68	43559.71
508.85	43955.26
509.03	43833.55
509.20	44100.37
509.38	44907.86
509.55	44624.65
509.73	44360.17
509.90	44526.35
510.08	44402.30
510.25	44545.08
510.42	45275.32
510.60	45074.04
510.77	44980.42
510.95	45280.00
511.12	45205.11
511.30	45464.91
511.47	45469.59
511.64	45521.08
511.82	45619.38
511.99	45537.46
512.17	46117.92
512.34	45989.19
512.51	46230.26
512.69	46373.03
512.86	46574.32
513.04	46302.82
513.21	46461.97
513.38	47152.43
513.56	46628.15
513.73	46550.91
513.90	47161.79
514.08	47098.60
514.25	46969.87
514.43	47437.98
514.60	47496.49
514.77	47597.13
514.95	47955.24
515.12	47353.72
515.29	47398.19
515.47	48011.41
515.64	48076.94
515.81	47819.49
515.99	48736.98
516.16	48619.95
516.33	48301.64
516.51	48617.61
516.68	48587.18
516.85	48339.08
517.03	49045.93
517.20	49038.90
517.37	48797.83
517.54	48800.17
517.72	48701.87
517.89	48949.96
518.06	49572.55
518.24	49193.38
518.41	49202.74
518.58	49579.57
518.75	49481.27
518.93	49612.34
519.10	49600.63
519.27	49717.66
519.45	49682.55
519.62	50375.35
519.79	50295.77
519.96	50138.96
520.14	49855.75
520.31	50167.04
520.48	50447.91
520.65	50398.76
520.83	50583.66
521.00	50679.62
521.17	50539.19
521.34	50684.30
521.52	50616.43
521.69	50986.23
521.86	51072.83
522.03	51037.72
522.20	51437.95
522.38	51901.38
522.55	51550.30
522.72	51316.25
522.89	51629.88
523.07	51426.25
523.24	51573.70
523.41	51650.94
523.58	51735.20
523.75	51917.76
523.92	51796.06
524.10	51880.31
524.27	52051.17
524.44	52196.29
524.61	52170.54
524.78	52205.65
524.96	52315.65
525.13	52224.37
525.30	52554.39
525.47	52638.65
525.64	52378.85
525.81	52685.46
525.98	52765.04
526.16	52708.86
526.33	52519.28
526.50	53031.86
526.67	52832.91
526.84	52882.06
527.01	52926.53
527.18	52816.53
527.36	52963.98
527.53	52980.37
527.70	53294.00
527.87	53263.57
528.04	53329.11
528.21	53577.20
528.38	53137.18
528.55	53509.33
528.72	53282.30
528.89	53394.64
529.07	53441.45
529.24	53982.12
529.41	53860.41
529.58	53663.80
529.75	53605.29
529.92	53525.71
530.09	54021.90
530.26	53895.52
530.43	54260.64
530.60	53865.09
530.77	53883.81
530.94	54340.22
531.11	54218.51
531.28	54190.42
531.46	54309.79
531.63	54298.09
531.80	54335.54
531.97	54593.00
532.14	54377.67
532.31	54539.16
532.48	54616.40
532.65	54637.47
532.82	54401.07
532.99	54920.67
533.16	54658.53
533.33	54899.61
533.50	55121.96
533.67	54740.45
533.84	54553.21
534.01	54735.77
534.18	55084.51
534.35	55271.75
534.52	54960.46
534.69	55068.12
534.86	55330.26
535.03	54901.95
535.20	55030.68
535.37	55330.26
535.54	55318.56
535.71	55224.94
535.88	55580.70
536.05	55391.12
536.22	55594.74
536.38	55529.21
536.55	55531.55
536.72	55800.71
536.89	55374.73
537.06	55451.97
537.23	55781.99
537.40	55746.88
537.57	55758.58
537.74	55627.51
537.91	56116.68
538.08	55948.17
538.25	55938.80
538.42	56041.79
538.59	56437.34
538.75	55880.29
538.92	56119.02
539.09	56247.75
539.26	55831.14
539.43	55992.64
539.60	56324.99
539.77	56200.94
539.94	56645.65
540.11	56247.75
540.28	56413.93
540.44	56292.22
540.61	56470.11
540.78	56479.47
540.95	56563.73
541.12	56402.23
541.29	56596.49
541.46	56547.34
541.62	56669.05
541.79	56708.84
541.96	56247.75
542.13	56676.07
542.30	56872.68
542.47	56655.01
542.63	57031.83
542.80	56884.38
542.97	57109.07
543.14	57113.75
543.31	57308.02
543.48	56931.19
543.64	57434.41
543.81	57448.45
543.98	57382.91
544.15	57378.23
544.32	57270.57
544.48	57654.42
544.65	57205.03
544.82	57439.09
544.99	57301.00
545.16	57509.30
545.32	57455.47
545.49	57612.29
545.66	58031.24
545.83	57602.92
546.00	57844.00
546.16	57738.68
546.33	57626.33
546.50	57649.74
546.67	57808.89
546.83	57635.69
547.00	57612.29
547.17	57822.93
547.34	57724.63
547.50	57822.93
547.67	58279.34
547.84	57930.60
548.00	58230.19
548.17	58246.57
548.34	58101.46
548.51	58288.70
548.67	58152.95
548.84	58223.17
549.01	57989.11
549.18	58253.59
549.34	58293.38
549.51	58171.67
549.68	58485.31
549.84	58480.63
550.01	58583.61
550.18	58190.40
550.34	58417.43
550.51	58525.10
550.68	58536.80
550.84	58274.66
551.01	58714.68
551.18	58536.80
551.34	58656.17
551.51	58688.93
551.68	58796.60
551.84	58438.50
552.01	58585.95
552.18	58862.13
552.34	58323.81
552.51	58869.15
552.68	58585.95
552.84	58747.45
553.01	59135.98
553.18	58803.62
553.34	58805.96
553.51	58684.25
553.67	58878.52
553.84	59077.46
554.01	58841.07
554.17	58864.47
554.34	58871.49
554.51	58974.48
554.67	58944.05
554.84	59164.06
555.00	59049.38
555.17	58939.37
555.33	58979.16
555.50	59044.69
555.67	59126.61
555.83	58927.67
556.00	59234.28
556.16	59487.06
556.33	59253.00
556.50	59311.52
556.66	59372.37
556.83	59227.26
556.99	59700.04
557.16	59557.27
557.32	59320.88
557.49	59639.19
557.65	59599.40
557.82	59309.18
557.98	59381.73
558.15	59550.25
558.32	59573.66
558.48	59456.63
558.65	59625.15
558.81	59491.74
558.98	59412.16
559.14	59688.34
559.31	59751.54
559.47	59840.48
559.64	59704.73
559.80	59770.26
559.97	59709.41
560.13	59772.60
560.30	59819.41
560.46	59737.49
560.63	59681.32
560.79	59786.64
560.96	59721.11
561.12	59838.14
561.29	59950.48
561.45	59676.64
561.61	59700.04
561.78	59891.97
561.94	59817.07
562.11	59999.63
562.27	60088.57
562.44	59971.55
562.60	60151.77
562.77	60324.97
562.93	59880.27
563.10	60238.37
563.26	59973.89
563.42	60254.75
563.59	59945.80
563.75	59973.89
563.92	60165.81
564.08	60111.98
564.24	60362.42
564.41	59863.88
564.57	60191.56
564.74	60128.36
564.90	60154.11
565.07	60154.11
565.23	60128.36
565.39	60301.56
565.56	60233.69
565.72	60081.55
565.88	60128.36
566.05	60102.62
566.21	60165.81
566.38	60210.28
566.54	60470.08
566.70	60214.96
566.87	60406.89
567.03	60060.49
567.19	60619.88
567.36	60453.70
567.52	60324.97
567.68	60535.62
567.85	60566.04
568.01	60498.17
568.17	60266.45
568.34	60584.77
568.50	60357.74
568.66	60383.48
568.83	60521.57
568.99	60238.37
569.15	60528.59
569.32	60498.17
569.48	60484.12
569.64	60554.34
569.81	60441.99
569.97	60491.15
570.13	60605.83
570.30	60423.27
570.46	60416.25
570.62	60734.56
570.78	60388.16
570.95	60434.97
571.11	60699.45
571.27	60339.01
571.43	60439.65
571.60	60624.56
571.76	60547.32
571.92	60669.03
572.09	60865.63
572.25	60540.30
572.41	60741.58
572.57	60533.28
572.74	60844.57
572.90	60437.31
573.06	60683.07
573.22	60575.40
573.38	60870.31
573.55	60704.13
573.71	60961.59
573.87	60491.15
574.03	60493.49
574.20	60779.03
574.36	60633.92
574.52	60566.04
574.68	60917.12
574.84	60910.10
575.01	60673.71
575.17	60708.82
575.33	60603.49
575.49	60711.16
575.65	60867.97
575.82	60835.20
575.98	60884.36
576.14	61104.37
576.30	60865.63
576.46	60713.50
576.62	60619.88
576.79	60853.93
576.95	60790.73
577.11	60783.71
577.27	60842.23
577.43	60725.20
577.59	60921.80
577.75	60790.73
577.92	60683.07
578.08	60673.71
578.24	60860.95
578.40	60996.70
578.56	60977.98
578.72	60807.12
578.88	61048.19
579.04	61048.19
579.21	60732.22
579.37	61174.58
579.53	61186.28
579.69	60711.16
579.85	60713.50
580.01	60828.18
580.17	60874.99
580.33	60919.46
580.49	61050.53
580.65	60917.12
580.82	60790.73
580.98	60662.00
581.14	60821.16
581.30	60828.18
581.46	60865.63
581.62	60853.93
581.78	61001.38
581.94	60963.93
582.10	60940.53
582.26	60945.21
582.42	60914.78
582.58	61113.73
582.74	61027.13
582.90	60825.84
583.06	60877.33
583.22	60856.27
583.38	60889.04
583.54	60987.34
583.70	60940.53
583.86	61006.06
584.02	60963.93
584.18	61055.21
584.34	61069.26
584.50	61055.21
584.66	61052.87
584.82	60933.51
584.98	61167.56
585.14	60980.32
585.30	60877.33
585.46	61200.33
585.62	61003.72
585.78	61317.35
585.94	61041.17
586.10	61066.92
586.26	61087.98
586.42	61153.52
586.58	61249.48
586.74	61017.77
586.90	60966.27
587.06	61017.77
587.22	61036.49
587.38	61092.66
587.54	61221.39
587.70	61141.81
587.86	61132.45
588.02	61104.37
588.18	61137.13
588.34	61120.75
588.49	61132.45
