SpectraSuite Data File
++++++++++++++++++++++++++++++++++++
Date: Fri Oct 25 11:25:33 EDT 2013
User: price-jones
Dark Spectrum Present: No
Reference Spectrum Present: No
Number of Sampled Component Spectra: 1
Spectrometers: USB2+H05261
Integration Time (usec): 100000 (USB2+H05261)
Spectra Averaged: 1 (USB2+H05261)
Boxcar Smoothing: 0 (USB2+H05261)
Correct for Electrical Dark: No (USB2+H05261)
Strobe/Lamp Enabled: No (USB2+H05261)
Correct for Detector Non-linearity: No (USB2+H05261)
Correct for Stray Light: No (USB2+H05261)
Number of Pixels in Processed Spectrum: 2048
>>>>>Begin Processed Spectral Data<<<<<
365.73	252.78
365.92	252.78
366.12	252.78
366.32	112.35
366.52	39.79
366.72	72.56
366.91	37.45
367.11	147.45
367.31	126.39
367.51	163.84
367.70	170.86
367.90	168.52
368.10	42.13
368.30	114.69
368.49	93.62
368.69	163.84
368.89	168.52
369.09	177.88
369.28	166.18
369.48	163.84
369.68	184.90
369.87	187.24
370.07	166.18
370.27	252.78
370.47	315.97
370.66	589.82
370.86	643.65
371.06	648.33
371.25	669.39
371.45	688.12
371.65	711.52
371.84	753.65
372.04	716.20
372.24	727.91
372.44	704.50
372.63	645.99
372.83	674.07
373.03	723.23
373.22	744.29
373.42	760.67
373.62	849.61
373.81	812.17
374.01	748.97
374.21	774.72
374.40	802.80
374.60	826.21
374.79	875.36
374.99	791.10
375.19	837.91
375.38	826.21
375.58	894.08
375.78	844.93
375.97	814.51
376.17	875.36
376.37	828.55
376.56	767.70
376.76	760.67
376.95	877.70
377.15	908.13
377.35	866.00
377.54	947.92
377.74	912.81
377.93	924.51
378.13	922.17
378.33	964.30
378.52	957.28
378.72	856.64
378.91	908.13
379.11	947.92
379.31	945.58
379.50	922.17
379.70	971.32
379.89	997.07
380.09	978.34
380.28	889.40
380.48	971.32
380.68	1071.97
380.87	1032.18
381.07	1029.84
381.26	1006.43
381.46	1046.22
381.65	1090.69
381.85	1137.50
382.04	990.05
382.24	1100.05
382.43	1081.33
382.63	1100.05
382.83	1055.58
383.02	1109.41
383.22	1193.67
383.41	1184.31
383.61	1095.37
383.80	1083.67
384.00	1086.01
384.19	1088.35
384.39	1130.48
384.58	1139.84
384.78	1076.65
384.97	1095.37
385.17	1076.65
385.36	1188.99
385.56	1163.25
385.75	1231.12
385.95	1139.84
386.14	1198.35
386.34	1146.86
386.53	1172.61
386.72	1200.69
386.92	1249.85
387.11	1191.33
387.31	1242.82
387.50	1315.38
387.70	1181.97
387.89	1280.27
388.09	1212.40
388.28	1334.11
388.48	1240.48
388.67	1380.92
388.86	1409.00
389.06	1357.51
389.25	1406.66
389.45	1387.94
389.64	1317.72
389.84	1441.77
390.03	1373.89
390.22	1432.41
390.42	1315.38
390.61	1373.89
390.81	1411.34
391.00	1490.92
391.19	1434.75
391.39	1483.90
391.58	1502.62
391.78	1383.26
391.97	1486.24
392.16	1385.60
392.36	1556.46
392.55	1504.96
392.75	1556.46
392.94	1523.69
393.13	1521.35
393.33	1523.69
393.52	1547.09
393.71	1500.28
393.91	1523.69
394.10	1636.03
394.29	1516.67
394.49	1526.03
394.68	1657.10
394.88	1659.44
395.07	1659.44
395.26	1675.82
395.46	1654.76
395.65	1689.87
395.84	1783.49
396.04	1830.30
396.23	1785.83
396.42	1764.76
396.62	1713.27
396.81	1696.89
397.00	1795.19
397.19	1717.95
397.39	1715.61
397.58	1750.72
397.77	1863.07
397.97	1865.41
398.16	1851.36
398.35	1867.75
398.55	1881.79
398.74	1898.17
398.93	2019.88
399.12	1846.68
399.32	1863.07
399.51	1900.52
399.70	2047.97
399.90	1912.22
400.09	1994.14
400.28	1928.60
400.47	1963.71
400.67	2071.37
400.86	2050.31
401.05	2062.01
401.24	2052.65
401.44	2176.70
401.63	2092.44
401.82	2069.03
402.01	2101.80
402.21	2125.21
402.40	2211.81
402.59	2249.25
402.78	2263.30
402.97	2286.70
403.17	2143.93
403.36	2207.13
403.55	2289.04
403.74	2279.68
403.93	2249.25
404.13	2303.09
404.32	2270.32
404.51	2326.49
404.70	2420.11
404.89	2340.54
405.09	2579.27
405.28	2370.96
405.47	2429.48
405.66	2530.12
405.85	2546.50
406.05	2523.10
406.24	2513.74
406.43	2513.74
406.62	2616.72
406.81	2663.53
407.00	2567.57
407.20	2499.69
407.39	2527.78
407.58	2700.98
407.77	2759.49
407.96	2722.04
408.15	2813.32
408.34	2691.62
408.54	2841.41
408.73	2820.35
408.92	2843.75
409.11	2869.50
409.30	2871.84
409.49	2909.29
409.68	2958.44
409.87	3035.67
410.07	2925.67
410.26	2981.84
410.45	3026.31
410.64	2963.12
410.83	3049.72
411.02	3063.76
411.21	3143.34
411.40	2965.46
411.59	3180.79
411.78	3260.37
411.98	3258.03
412.17	3157.38
412.36	3321.22
412.55	3267.39
412.74	3454.63
412.93	3445.27
413.12	3274.41
413.31	3555.27
413.50	3459.31
413.69	3403.14
413.88	3545.91
414.07	3559.95
414.26	3669.96
414.45	3581.02
414.64	3719.11
414.83	3627.83
415.02	3777.62
415.22	3700.39
415.41	3871.25
415.60	3768.26
415.79	3913.38
415.98	3904.01
416.17	3976.57
416.36	4053.81
416.55	3950.82
416.74	4133.39
416.93	3969.55
417.12	4021.04
417.31	4191.90
417.50	4051.47
417.69	4173.18
417.88	4250.41
418.07	4212.96
418.26	4334.67
418.45	4365.10
418.64	4440.00
418.83	4372.12
419.02	4507.87
419.21	4545.32
419.39	4503.19
419.58	4479.79
419.77	4411.91
419.96	4557.02
420.15	4531.28
420.34	4507.87
420.53	4535.96
420.72	4681.07
420.91	4744.27
421.10	4762.99
421.29	4849.59
421.48	4660.01
421.67	4627.24
421.86	4786.40
422.05	4898.74
422.24	4809.80
422.43	4683.41
422.61	4938.53
422.80	4894.06
422.99	4795.76
423.18	4917.47
423.37	4919.81
423.56	4891.72
423.75	4877.68
423.94	4816.82
424.13	4617.88
424.32	4620.22
424.50	4940.87
424.69	5158.54
424.88	4990.02
425.07	4945.55
425.26	4985.34
425.45	4882.36
425.64	4889.38
425.83	5095.35
426.01	5029.81
426.20	5078.96
426.39	5130.45
426.58	4933.85
426.77	5004.07
426.96	5172.58
427.15	5118.75
427.33	5114.07
427.52	5114.07
427.71	5177.26
427.90	5270.89
428.09	5301.31
428.28	5308.34
428.46	5423.02
428.65	5446.43
428.84	5575.16
429.03	5563.45
429.22	5366.85
429.40	5399.62
429.59	5376.21
429.78	5233.44
429.97	5240.46
430.16	5413.66
430.34	5540.05
430.53	5636.01
430.72	5612.60
430.91	5731.97
431.10	5603.24
431.28	5696.86
431.47	5685.16
431.66	5905.17
431.85	5806.87
432.03	5994.11
432.22	5895.81
432.41	5832.62
432.60	5973.05
432.79	5916.87
432.97	5762.40
433.16	6125.18
433.35	5940.28
433.54	5909.85
433.72	6122.84
433.91	6059.65
434.10	6061.99
434.28	5846.66
434.47	6122.84
434.66	6141.57
434.85	6368.60
435.03	6324.13
435.22	6197.74
435.41	6298.38
435.59	6345.19
435.78	6272.64
435.97	6471.58
436.16	6335.83
436.34	6427.11
436.53	6363.92
436.72	6483.28
436.90	6303.06
437.09	6539.46
437.28	6420.09
437.46	6532.44
437.65	6644.78
437.84	6782.87
438.02	6825.00
438.21	6712.66
438.40	6621.38
438.58	6939.69
438.77	7033.31
438.96	6881.18
439.14	7052.03
439.33	7073.10
439.52	7187.79
439.70	7129.27
439.89	7250.98
440.08	7274.38
440.26	7360.98
440.45	7375.03
440.63	7482.69
440.82	7527.16
441.01	7353.96
441.19	7407.80
441.38	7662.91
441.57	7527.16
441.75	7810.37
441.94	7803.35
442.12	7978.89
442.31	8112.30
442.50	7962.50
442.68	7833.77
442.87	7826.75
443.05	7981.23
443.24	8159.11
443.43	8100.59
443.61	8021.02
443.80	8299.54
443.98	8187.19
444.17	7850.16
444.35	8306.56
444.54	8451.67
444.73	8170.81
444.91	7971.86
445.10	8173.15
445.28	8245.71
445.47	8285.50
445.65	8301.88
445.84	8442.31
446.02	8395.50
446.21	8322.94
446.39	8315.92
446.58	8711.47
446.77	8482.10
446.95	8168.47
447.14	8432.95
447.32	8538.27
447.51	8395.50
447.69	8297.20
447.88	8315.92
448.06	8559.34
448.25	8557.00
448.43	8491.46
448.62	8575.72
448.80	8554.66
448.99	8496.14
449.17	8697.43
449.36	8585.08
449.54	8812.12
449.73	8931.48
449.91	8816.80
450.10	8879.99
450.28	8987.66
450.46	9100.00
450.65	8973.61
450.83	8929.14
451.02	9013.40
451.20	9343.42
451.39	9123.41
451.57	9191.28
451.76	9132.77
451.94	9212.35
452.13	9483.85
452.31	9167.88
452.49	9083.62
452.68	9345.76
452.86	9390.23
453.05	9275.54
453.23	9500.23
453.42	9188.94
453.60	9357.46
453.78	9364.48
453.97	9493.21
454.15	9392.57
454.34	9413.63
454.52	9764.72
454.70	9525.98
454.89	9720.24
455.07	9558.75
455.26	9837.27
455.44	9863.02
455.62	9926.21
455.81	9736.63
455.99	9958.98
456.17	9856.00
456.36	10050.26
456.54	10026.86
456.73	10001.11
456.91	10368.57
457.09	10361.55
457.28	10457.51
457.46	10312.40
457.64	10422.41
457.83	10553.48
458.01	10265.59
458.19	10637.73
458.38	10469.22
458.56	10656.46
458.74	10665.82
458.93	10455.17
459.11	10544.11
459.29	10686.89
459.48	10757.10
459.66	10822.64
459.84	10714.97
460.03	10895.19
460.21	10693.91
460.39	10813.28
460.57	10979.45
460.76	11147.97
460.94	11061.37
461.12	11218.19
461.31	11265.00
461.49	10925.62
461.67	10998.18
461.85	11339.90
462.04	11246.27
462.22	11899.28
462.40	11627.78
462.59	11304.79
462.77	11627.78
462.95	11524.80
463.13	11489.69
463.32	11660.55
463.50	11658.21
463.68	11831.41
463.86	11698.00
464.05	11489.69
464.23	11644.17
464.41	11983.54
464.59	11669.91
464.78	12287.81
464.96	11866.52
465.14	11681.61
465.32	12032.69
465.50	12283.13
465.69	12142.70
465.87	12100.57
466.05	11840.77
466.23	12042.06
466.41	12037.38
466.60	12449.31
466.78	12105.25
466.96	12093.55
467.14	12189.51
467.32	12531.23
467.51	12585.06
467.69	12088.87
467.87	12517.18
468.05	12650.60
468.23	12416.54
468.41	12208.23
468.60	12423.56
468.78	12753.58
468.96	12425.90
469.14	12695.07
469.32	12545.27
469.50	12564.00
469.69	13095.30
469.87	13011.04
470.05	13167.85
470.23	13050.83
470.41	13221.69
470.59	13060.19
470.77	13296.58
470.95	13221.69
471.14	13418.29
471.32	13099.98
471.50	13446.38
471.68	13427.65
471.86	13734.26
472.04	13699.16
472.22	14043.21
472.40	13579.79
472.58	13701.50
472.77	14090.02
472.95	13949.59
473.13	14305.35
473.31	14071.30
473.49	14174.28
473.67	14090.02
473.85	14492.60
474.03	14602.60
474.21	14696.22
474.39	14820.27
474.57	14787.50
474.75	14576.86
474.93	14724.31
475.12	14991.13
475.30	15206.46
475.48	14808.57
475.66	15190.08
475.84	14967.73
476.02	15297.74
476.20	15374.98
476.38	15449.88
476.56	15859.47
476.74	15815.00
476.92	15857.13
477.10	15632.44
477.28	15953.09
477.46	16060.76
477.64	16271.40
477.82	16367.37
478.00	16964.20
478.18	16758.24
478.36	16908.03
478.54	17027.40
478.72	17003.99
478.90	17305.92
479.08	17802.11
479.26	17558.70
479.44	17479.12
479.62	17839.56
479.80	17987.02
479.98	18188.30
480.16	18436.40
480.34	18059.57
480.52	18410.65
480.70	18565.13
480.88	18094.68
481.06	18384.91
481.24	18806.20
481.41	18986.43
481.59	19225.16
481.77	19655.82
481.95	19515.39
482.13	19529.43
482.31	19536.45
482.49	20084.14
482.67	20271.38
482.85	20133.29
483.03	20592.03
483.21	20449.26
483.39	20931.41
483.57	20774.60
483.74	20837.79
483.92	21235.68
484.10	20929.07
484.28	21443.99
484.46	21844.22
484.64	22670.43
484.82	21994.01
485.00	22104.02
485.18	22382.54
485.35	23026.19
485.53	22541.70
485.71	22803.84
485.89	22974.70
486.07	23234.50
486.25	23117.47
486.43	23393.65
486.61	23674.52
486.78	24135.60
486.96	24409.45
487.14	24507.75
487.32	24594.35
487.50	24526.47
487.68	24896.28
487.85	25116.29
488.03	25509.50
488.21	25633.55
488.39	25514.18
488.57	26181.23
488.75	26253.79
488.92	26202.30
489.10	26487.84
489.28	26593.17
489.46	26998.08
489.64	26609.55
489.81	27477.89
489.99	27667.47
490.17	27601.94
490.35	28053.66
490.53	28215.16
490.70	28100.47
490.88	28095.79
491.06	28898.59
491.24	28875.19
491.41	28973.49
491.59	29104.56
491.77	29177.12
491.95	29682.67
492.13	29633.52
492.30	29792.68
492.48	30038.44
492.66	30235.04
492.84	30555.69
493.01	30541.65
493.19	30466.75
493.37	30635.27
493.54	30822.51
493.72	31168.91
493.90	31316.37
494.08	31452.12
494.25	31840.65
494.43	31913.20
494.61	31878.10
494.79	32224.50
494.96	32294.71
495.14	32407.06
495.32	33031.98
495.49	33186.46
495.67	32708.99
495.85	33352.63
496.02	33731.80
496.20	34099.26
496.38	34022.03
496.55	33525.83
496.73	34714.83
496.91	33823.08
497.09	34389.49
497.26	34904.41
497.44	34958.24
497.62	35271.87
497.79	35702.53
497.97	35227.40
498.14	35997.44
498.32	35889.77
498.50	35658.06
498.67	36203.41
498.85	36215.11
499.03	36591.94
499.20	36484.27
499.38	36772.16
499.56	37471.98
499.73	36961.74
499.91	37376.01
500.08	37734.12
500.26	37167.71
500.44	37476.66
500.61	37511.77
500.79	37172.39
500.97	37727.10
501.14	38274.78
501.32	38260.74
501.49	38375.42
501.67	38162.43
501.84	38808.42
502.02	39026.09
502.20	38869.28
502.37	39145.46
502.55	39391.22
502.72	39091.63
502.90	39468.45
503.07	39168.87
503.25	39335.04
503.43	39229.72
503.60	39810.17
503.78	40135.51
503.95	39854.64
504.13	40350.84
504.30	40528.72
504.48	40481.91
504.65	40304.02
504.83	40985.12
505.01	40975.76
505.18	40610.64
505.36	41481.31
505.53	40954.69
505.71	41612.38
505.88	41752.82
506.06	41354.93
506.23	41970.49
506.41	41708.35
506.58	41834.74
506.76	42211.56
506.93	42518.17
507.11	42227.95
507.28	42291.14
507.46	42611.79
507.63	42813.08
507.81	43257.78
507.98	42948.83
508.16	42855.21
508.33	43063.52
508.50	43517.58
508.68	43407.58
508.85	43906.11
509.03	43763.34
509.20	43861.64
509.38	43995.05
509.55	44100.37
509.73	44458.48
509.90	44189.31
510.08	44568.48
510.25	44811.90
510.42	44601.25
510.60	44830.62
510.77	45104.46
510.95	45684.92
511.12	45134.89
511.30	45207.45
511.47	45443.84
511.64	45495.33
511.82	45741.09
511.99	45497.67
512.17	46295.80
512.34	45366.60
512.51	46380.06
512.69	46204.52
512.86	46234.94
513.04	46700.71
513.21	46223.24
513.38	46429.21
513.56	46681.98
513.73	46878.59
513.90	46447.93
514.08	46522.83
514.25	47023.70
514.43	47332.65
514.60	47070.51
514.77	47332.65
514.95	47437.98
515.12	47220.31
515.29	47480.11
515.47	47885.02
515.64	47847.57
515.81	47667.35
515.99	47920.13
516.16	48229.08
516.33	48432.71
516.51	48301.64
516.68	47922.47
516.85	48236.10
517.03	48439.73
517.20	49078.69
517.37	48484.20
517.54	48624.63
517.72	48552.07
517.89	48978.05
518.06	49408.71
518.24	48863.36
518.41	49366.58
518.58	49198.06
518.75	49261.26
518.93	49640.42
519.10	49172.31
519.27	49631.06
519.45	49345.51
519.62	49708.30
519.79	49743.41
519.96	49605.31
520.14	49928.31
520.31	50005.55
520.48	50162.36
520.65	49874.48
520.83	50450.25
521.00	50452.59
521.17	50520.46
521.34	50611.74
521.52	50578.98
521.69	50602.38
521.86	50820.05
522.03	50801.33
522.20	50990.91
522.38	51253.05
522.55	51353.69
522.72	51171.13
522.89	50941.76
523.07	51395.82
523.24	51395.82
523.41	51618.17
523.58	51435.61
523.75	51760.95
523.92	51452.00
524.10	51491.79
524.27	51999.68
524.44	51716.48
524.61	51910.74
524.78	52140.11
524.96	52069.90
525.13	51861.59
525.30	52198.63
525.47	52294.59
525.64	52105.01
525.81	52367.15
525.98	52411.62
526.16	52465.45
526.33	52533.32
526.50	53125.48
526.67	52428.00
526.84	52772.06
527.01	52472.47
527.18	52530.98
527.36	52947.60
527.53	53315.06
527.70	53343.15
527.87	53181.65
528.04	53085.69
528.21	53134.84
528.38	53230.80
528.55	53305.70
528.72	53270.59
528.89	53254.21
529.07	53443.79
529.24	53167.61
529.41	53633.38
529.58	53539.75
529.75	53488.26
529.92	53708.27
530.09	53874.45
530.26	53975.09
530.43	53935.30
530.60	53415.71
530.77	53813.60
530.94	54092.12
531.11	53996.16
531.28	53794.87
531.46	54007.86
531.63	54045.31
531.80	54206.81
531.97	54169.36
532.14	54410.43
532.31	54466.61
532.48	54333.20
532.65	54370.64
532.82	54216.17
532.99	54347.24
533.16	54412.77
533.33	54646.83
533.50	54815.35
533.67	54658.53
533.84	54492.35
534.01	54635.13
534.18	54813.01
534.35	54925.35
534.52	54852.80
534.69	55426.23
534.86	55091.53
535.03	54976.84
535.20	55136.00
535.37	55337.29
535.54	55075.15
535.71	55238.98
535.88	55143.02
536.05	55243.66
536.22	55599.43
536.38	55573.68
536.55	55428.57
536.72	55461.33
536.89	55248.35
537.06	55451.97
537.23	55494.10
537.40	55458.99
537.57	55693.05
537.74	55510.49
537.91	55800.71
538.08	55777.31
538.25	55564.32
538.42	55749.22
538.59	55767.94
538.75	55985.61
538.92	56002.00
539.09	56184.56
539.26	56058.17
539.43	55868.59
539.60	55962.21
539.77	56411.59
539.94	56214.99
540.11	56165.84
540.28	56479.47
540.44	56137.75
540.61	56179.88
540.78	56067.53
540.95	56238.39
541.12	56332.01
541.29	56324.99
541.46	56669.05
541.62	56633.94
541.79	56779.06
541.96	56348.40
542.13	56495.85
542.30	56439.68
542.47	56875.02
542.63	56631.60
542.80	56809.48
542.97	57031.83
543.14	57158.22
543.31	56893.74
543.48	56949.92
543.64	57284.61
543.81	57282.27
543.98	57165.24
544.15	57183.97
544.32	57291.63
544.48	57570.16
544.65	57319.72
544.82	57474.20
544.99	57279.93
545.16	57303.34
545.32	57167.58
545.49	57741.02
545.66	57701.23
545.83	57476.54
546.00	57513.98
546.16	57729.31
546.33	57382.91
546.50	57223.76
546.67	57490.58
546.83	57389.94
547.00	57488.24
547.17	57336.10
547.34	57623.99
547.50	57998.48
547.67	57970.39
547.84	57939.96
548.00	58078.05
548.17	58045.29
548.34	57970.39
548.51	58185.72
548.67	57932.94
548.84	58239.55
549.01	57951.66
549.18	58080.39
549.34	58298.06
549.51	58251.25
549.68	58239.55
549.84	58155.29
550.01	58265.30
550.18	58047.63
550.34	58410.41
550.51	58363.60
550.68	58372.96
550.84	58033.58
551.01	58494.67
551.18	58426.79
551.34	58597.65
551.51	58312.11
551.68	58555.52
551.84	58433.81
552.01	58347.21
552.18	58583.61
552.34	58475.94
552.51	58611.70
552.68	58412.75
552.84	58457.22
553.01	58873.84
553.18	58534.46
553.34	59065.76
553.51	58424.45
553.67	58827.02
553.84	59037.67
554.01	58728.72
554.17	58749.79
554.34	58852.77
554.51	58880.86
554.67	58838.73
554.84	58862.13
555.00	58831.71
555.17	58883.20
555.33	58798.94
555.50	58710.00
555.67	58941.71
555.83	58925.33
556.00	59110.23
556.16	59297.47
556.33	59227.26
556.50	59150.02
556.66	59433.22
556.83	59194.49
556.99	59363.01
557.16	59199.17
557.32	59374.71
557.49	59505.78
557.65	59309.18
557.82	59634.51
557.98	59519.82
558.15	59384.07
558.32	59276.41
558.48	59217.89
558.65	59391.09
558.81	59573.66
558.98	59657.91
559.14	59426.20
559.31	59447.27
559.47	59519.82
559.64	59573.66
559.80	59571.32
559.97	59781.96
560.13	59536.21
560.30	59648.55
560.46	59620.47
560.63	59746.86
560.79	59648.55
560.96	59709.41
561.12	59650.89
561.29	59767.92
561.45	59695.36
561.61	59678.98
561.78	59678.98
561.94	59873.24
562.11	59707.07
562.27	59859.20
562.44	59901.33
562.60	59934.10
562.77	59908.35
562.93	59765.58
563.10	60060.49
563.26	59573.66
563.42	60097.94
563.59	59877.93
563.75	59938.78
563.92	59948.14
564.08	59945.80
564.24	60275.82
564.41	60104.96
564.57	59943.46
564.74	60158.79
564.90	60067.51
565.07	60074.53
565.23	59966.87
565.39	60006.65
565.56	60067.51
565.72	60109.64
565.88	60041.76
566.05	60081.55
566.21	60142.41
566.38	60053.47
566.54	60229.01
566.70	60184.54
566.87	60107.30
567.03	60090.91
567.19	60322.63
567.36	60193.90
567.52	60140.07
567.68	60404.55
567.85	60219.64
568.01	60355.39
568.17	60210.28
568.34	60320.29
568.50	60364.76
568.66	60367.10
568.83	60271.14
568.99	60348.37
569.15	60346.03
569.32	60268.79
569.48	60149.43
569.64	60348.37
569.81	60177.51
569.97	60266.45
570.13	60282.84
570.30	60116.66
570.46	60224.32
570.62	60324.97
570.78	60259.43
570.95	60406.89
571.11	60467.74
571.27	60229.01
571.43	60500.51
571.60	60647.96
571.76	60224.32
571.92	60650.30
572.09	60441.99
572.25	60395.18
572.41	60250.07
572.57	60535.62
572.74	60507.53
572.90	60423.27
573.06	60568.38
573.22	60554.34
573.38	60519.23
573.55	60465.40
573.71	60790.73
573.87	60598.81
574.03	60470.08
574.20	60535.62
574.36	60444.33
574.52	60615.19
574.68	60589.45
574.84	60683.07
575.01	60701.79
575.17	60434.97
575.33	60533.28
575.49	60336.67
575.65	60643.28
575.82	60598.81
575.98	60685.41
576.14	60807.12
576.30	60872.65
576.46	60793.07
576.62	60491.15
576.79	60584.77
576.95	60552.00
577.11	60591.79
577.27	60692.43
577.43	60741.58
577.59	60727.54
577.75	60692.43
577.92	60505.19
578.08	60692.43
578.24	60729.88
578.40	60858.61
578.56	60598.81
578.72	60729.88
578.88	60851.59
579.04	60977.98
579.21	60856.27
579.37	60919.46
579.53	60989.68
579.69	60734.56
579.85	60629.24
580.01	60652.64
580.17	60654.98
580.33	61050.53
580.49	60800.10
580.65	60872.65
580.82	60872.65
580.98	60694.77
581.14	60481.78
581.30	60882.02
581.46	60818.82
581.62	61001.38
581.78	60647.96
581.94	60893.72
582.10	60640.94
582.26	60762.65
582.42	60624.56
582.58	60732.22
582.74	60790.73
582.90	60783.71
583.06	60912.44
583.22	60680.73
583.38	60912.44
583.54	60692.43
583.70	60713.50
583.86	60942.87
584.02	60832.86
584.18	60994.36
584.34	60846.91
584.50	60823.50
584.66	60734.56
584.82	60566.04
584.98	61123.09
585.14	60945.21
585.30	60748.60
585.46	61057.56
585.62	60711.16
585.78	61034.15
585.94	60617.53
586.10	61120.75
586.26	61001.38
586.42	60987.34
586.58	61017.77
586.74	61041.17
586.90	60987.34
587.06	60947.55
587.22	60968.61
587.38	60828.18
587.54	60949.89
587.70	61263.52
587.86	61176.92
588.02	60977.98
588.18	61186.28
588.34	60772.01
588.49	60800.10
