SpectraSuite Data File
++++++++++++++++++++++++++++++++++++
Date: Fri Oct 25 10:44:49 EDT 2013
User: price-jones
Dark Spectrum Present: No
Reference Spectrum Present: No
Number of Sampled Component Spectra: 1
Spectrometers: USB2+H05261
Integration Time (usec): 100000 (USB2+H05261)
Spectra Averaged: 1 (USB2+H05261)
Boxcar Smoothing: 0 (USB2+H05261)
Correct for Electrical Dark: No (USB2+H05261)
Strobe/Lamp Enabled: No (USB2+H05261)
Correct for Detector Non-linearity: No (USB2+H05261)
Correct for Stray Light: No (USB2+H05261)
Number of Pixels in Processed Spectrum: 2048
>>>>>Begin Processed Spectral Data<<<<<
365.73	135.75
365.92	135.75
366.12	135.75
366.32	95.96
366.52	51.49
366.72	0.00
366.91	7.02
367.11	39.79
367.31	0.00
367.51	0.00
367.70	46.81
367.90	37.45
368.10	32.77
368.30	32.77
368.49	0.00
368.69	0.00
368.89	79.58
369.09	79.58
369.28	58.51
369.48	86.60
369.68	37.45
369.87	93.62
370.07	140.43
370.27	131.07
370.47	182.56
370.66	322.99
370.86	416.62
371.06	423.64
371.25	437.68
371.45	479.81
371.65	435.34
371.84	409.59
372.04	353.42
372.24	468.11
372.44	486.83
372.63	533.64
372.83	449.38
373.03	482.15
373.22	512.58
373.42	552.37
373.62	482.15
373.81	472.79
374.01	475.13
374.21	613.22
374.40	535.98
374.60	552.37
374.79	493.85
374.99	582.79
375.19	491.51
375.38	477.47
375.58	571.09
375.78	535.98
375.97	573.43
376.17	578.11
376.37	566.41
376.56	585.13
376.76	547.69
376.95	538.32
377.15	580.45
377.35	585.13
377.54	521.94
377.74	613.22
377.93	566.41
378.13	578.11
378.33	587.47
378.52	561.73
378.72	566.41
378.91	702.16
379.11	533.64
379.31	545.34
379.50	599.18
379.70	690.46
379.89	641.31
380.09	561.73
380.28	601.52
380.48	638.97
380.68	638.97
380.87	531.30
381.07	648.33
381.26	692.80
381.46	681.10
381.65	617.90
381.85	692.80
382.04	634.29
382.24	683.44
382.43	692.80
382.63	669.39
382.83	610.88
383.02	716.20
383.22	660.03
383.41	711.52
383.61	650.67
383.80	711.52
384.00	732.59
384.19	788.76
384.39	720.88
384.58	737.27
384.78	748.97
384.97	739.61
385.17	770.04
385.36	739.61
385.56	788.76
385.75	732.59
385.95	739.61
386.14	786.42
386.34	816.85
386.53	821.53
386.72	739.61
386.92	821.53
387.11	812.17
387.31	781.74
387.50	873.02
387.70	851.96
387.89	760.67
388.09	786.42
388.28	774.72
388.48	807.48
388.67	786.42
388.86	842.59
389.06	983.02
389.25	851.96
389.45	868.34
389.64	828.55
389.84	917.49
390.03	858.98
390.22	854.30
390.42	945.58
390.61	931.53
390.81	905.79
391.00	922.17
391.19	929.19
391.39	999.41
391.58	1027.50
391.78	961.96
391.97	997.07
392.16	959.62
392.36	1060.26
392.55	947.92
392.75	947.92
392.94	861.32
393.13	1004.09
393.33	973.66
393.52	976.00
393.71	990.05
393.91	1025.15
394.10	992.39
394.29	1053.24
394.49	1104.73
394.68	1109.41
394.88	1011.11
395.07	1132.82
395.26	1053.24
395.46	1062.60
395.65	1139.84
395.84	1226.44
396.04	1174.95
396.23	1167.93
396.42	1149.20
396.62	1142.18
396.81	1146.86
397.00	1198.35
397.19	1177.29
397.39	1200.69
397.58	1184.31
397.77	1128.14
397.97	1280.27
398.16	1252.19
398.35	1259.21
398.55	1238.14
398.74	1329.42
398.93	1334.11
399.12	1289.64
399.32	1301.34
399.51	1284.95
399.70	1432.41
399.90	1306.02
400.09	1451.13
400.28	1341.13
400.47	1413.68
400.67	1397.30
400.86	1373.89
401.05	1458.15
401.24	1472.20
401.44	1523.69
401.63	1488.58
401.82	1467.52
402.01	1586.88
402.21	1577.52
402.40	1460.49
402.59	1465.18
402.78	1589.22
402.97	1526.03
403.17	1533.05
403.36	1638.38
403.55	1570.50
403.74	1664.12
403.93	1603.27
404.13	1657.10
404.32	1734.34
404.51	1647.74
404.70	1792.85
404.89	1746.04
405.09	1750.72
405.28	1741.36
405.47	1722.63
405.66	1790.51
405.85	1816.26
406.05	1790.51
406.24	1799.87
406.43	1844.34
406.62	1858.39
406.81	1898.17
407.00	1750.72
407.20	1776.47
407.39	1844.34
407.58	1956.69
407.77	1991.80
407.96	1940.30
408.15	1987.11
408.34	1961.37
408.54	1984.77
408.73	1905.20
408.92	2026.90
409.11	1952.01
409.30	2069.03
409.49	2015.20
409.68	2022.22
409.87	2090.10
410.07	2090.10
410.26	2080.74
410.45	2090.10
410.64	2125.21
410.83	2244.57
411.02	2298.41
411.21	2282.02
411.40	2338.20
411.59	2265.64
411.78	2176.70
411.98	2392.03
412.17	2303.09
412.36	2303.09
412.55	2382.67
412.74	2431.82
412.93	2361.60
413.12	2406.07
413.31	2614.38
413.50	2478.63
413.69	2576.93
413.88	2619.06
414.07	2558.21
414.26	2705.66
414.45	2724.38
414.64	2736.09
414.83	2719.70
415.02	2792.26
415.22	2738.43
415.41	2787.58
415.60	2780.56
415.79	2846.09
415.98	2925.67
416.17	2960.78
416.36	2869.50
416.55	2857.79
416.74	3038.02
416.93	2780.56
417.12	2963.12
417.31	2876.52
417.50	2944.39
417.69	3012.27
417.88	3028.65
418.07	3007.59
418.26	3059.08
418.45	3073.12
418.64	3155.04
418.83	3162.06
419.02	3281.43
419.21	3115.25
419.39	3138.66
419.58	3229.94
419.77	3218.24
419.96	3356.33
420.15	3321.22
420.34	3178.45
420.53	3398.46
420.72	3428.88
420.91	3428.88
421.10	3433.57
421.29	3452.29
421.48	3361.01
421.67	3485.06
421.86	3335.26
422.05	3496.76
422.24	3389.10
422.43	3459.31
422.61	3475.70
422.80	3449.95
422.99	3377.39
423.18	3391.44
423.37	3576.34
423.56	3492.08
423.75	3534.21
423.94	3515.48
424.13	3215.90
424.32	3384.41
424.50	3452.29
424.69	3538.89
424.88	3695.71
425.07	3548.25
425.26	3499.10
425.45	3599.74
425.64	3550.59
425.83	3520.17
426.01	3660.60
426.20	3726.13
426.39	3630.17
426.58	3609.11
426.77	3534.21
426.96	3592.72
427.15	3606.77
427.33	3632.51
427.52	3606.77
427.71	3641.87
427.90	3676.98
428.09	3810.39
428.28	3786.99
428.46	3702.73
428.65	3901.67
428.84	3768.26
429.03	3824.44
429.22	3805.71
429.40	3742.52
429.59	3763.58
429.78	3749.54
429.97	3637.19
430.16	3709.75
430.34	3845.50
430.53	4025.72
430.72	3871.25
430.91	3796.35
431.10	3934.44
431.28	4170.83
431.47	4154.45
431.66	4212.96
431.85	4093.60
432.03	4180.20
432.22	4219.99
432.41	4189.56
432.60	4212.96
432.79	4212.96
432.97	4344.03
433.16	4198.92
433.35	4313.61
433.54	4283.18
433.72	4248.07
433.91	4191.90
434.10	4245.73
434.28	4236.37
434.47	4341.69
434.66	4400.21
434.85	4341.69
435.03	4559.36
435.22	4409.57
435.41	4568.73
435.59	4578.09
435.78	4599.15
435.97	4601.49
436.16	4482.13
436.34	4514.89
436.53	4655.33
436.72	4772.35
436.90	4662.35
437.09	4727.88
437.28	4573.41
437.46	4779.37
437.65	4685.75
437.84	4706.82
438.02	4559.36
438.21	4791.08
438.40	4674.05
438.58	4868.31
438.77	4858.95
438.96	4880.02
439.14	5057.90
439.33	4971.30
439.52	4884.70
439.70	5123.43
439.89	5074.28
440.08	5254.50
440.26	5062.58
440.45	5256.84
440.63	5212.37
440.82	5430.04
441.01	5261.52
441.19	5376.21
441.38	5331.74
441.57	5425.36
441.75	5408.98
441.94	5741.33
442.12	5570.48
442.31	5526.00
442.50	5584.52
442.68	5659.42
442.87	5544.73
443.05	5673.46
443.24	5755.38
443.43	5778.78
443.61	5806.87
443.80	5937.94
443.98	5736.65
444.17	5549.41
444.35	5912.19
444.54	5823.25
444.73	5884.11
444.91	5769.42
445.10	5820.91
445.28	5907.51
445.47	5666.44
445.65	5874.74
445.84	5959.00
446.02	5951.98
446.21	5851.34
446.39	5930.92
446.58	6071.35
446.77	5909.85
446.95	5966.03
447.14	6134.54
447.32	6061.99
447.51	5872.40
447.69	5909.85
447.88	6029.22
448.06	6193.06
448.25	5951.98
448.43	5970.71
448.62	5947.30
448.80	5884.11
448.99	6150.93
449.17	5961.34
449.36	6076.03
449.54	6223.48
449.73	6366.26
449.91	6328.81
450.10	6200.08
450.28	6581.59
450.46	6366.26
450.65	6431.79
450.83	6303.06
451.02	6431.79
451.20	6459.88
451.39	6600.31
451.57	6483.28
451.76	6399.02
451.94	6445.84
452.13	6527.75
452.31	6471.58
452.49	6452.86
452.68	6457.54
452.86	6443.49
453.05	6499.67
453.23	6778.19
453.42	6635.42
453.60	6513.71
453.78	6710.32
453.97	6656.48
454.15	6832.02
454.34	6729.04
454.52	6930.33
454.70	6820.32
454.89	6927.99
455.07	6689.25
455.26	6998.20
455.44	6953.73
455.62	6827.34
455.81	7030.97
455.99	6909.26
456.17	7330.56
456.36	7122.25
456.54	7098.84
456.73	7077.78
456.91	7400.77
457.09	7286.09
457.28	7360.98
457.46	7162.04
457.64	7358.64
457.83	7311.83
458.01	7307.15
458.19	7407.80
458.38	7279.07
458.56	7581.00
458.74	7522.48
458.93	7459.29
459.11	7590.36
459.29	7513.12
459.48	7454.61
459.66	7644.19
459.84	7424.18
460.03	7723.77
460.21	7758.88
460.39	7693.34
460.57	7728.45
460.76	7611.42
460.94	7789.30
461.12	7698.02
461.31	7754.19
461.49	7978.89
461.67	7805.69
461.85	7901.65
462.04	7911.01
462.22	8135.70
462.40	8021.02
462.59	8016.33
462.77	8081.87
462.95	7983.57
463.13	8182.51
463.32	8098.25
463.50	8290.18
463.68	7927.39
463.86	8133.36
464.05	8299.54
464.23	8042.08
464.41	8098.25
464.59	8203.58
464.78	8320.60
464.96	8313.58
465.14	8152.09
465.32	8376.78
465.50	8336.99
465.69	8521.89
465.87	8292.52
466.05	8311.24
466.23	8360.39
466.41	8528.91
466.60	8374.44
466.78	8348.69
466.96	8528.91
467.14	8489.12
467.32	8622.53
467.51	8723.18
467.69	8393.16
467.87	8568.70
468.05	8631.90
468.23	8674.03
468.41	8575.72
468.60	8531.25
468.78	8767.65
468.96	8692.75
469.14	8903.40
469.32	8861.27
469.50	8561.68
469.69	8872.97
469.87	9039.15
470.05	8898.72
470.23	8788.71
470.41	8968.93
470.59	9011.06
470.77	9043.83
470.95	9188.94
471.14	9118.73
471.32	8863.61
471.50	9415.98
471.68	9334.06
471.86	9235.75
472.04	9331.72
472.22	9729.61
472.40	9441.72
472.58	9394.91
472.77	9500.23
472.95	9633.64
473.13	9940.26
473.31	9518.96
473.49	9577.47
473.67	9476.83
473.85	9762.37
474.03	9930.89
474.21	10019.83
474.39	10104.09
474.57	10019.83
474.75	10204.74
474.93	10174.31
475.12	10216.44
475.30	10331.12
475.48	10143.88
475.66	10345.17
475.84	10045.58
476.02	10597.95
476.20	10499.64
476.38	10459.85
476.56	10747.74
476.74	10839.02
476.92	10696.25
477.10	10750.08
477.28	10949.03
477.46	11201.80
477.64	11213.51
477.82	11133.93
478.00	11709.70
478.18	11330.53
478.36	11459.26
478.54	11452.24
478.72	11798.64
478.90	11712.04
479.08	11775.24
479.26	11871.20
479.44	11880.56
479.62	11761.19
479.80	12159.08
479.98	11894.60
480.16	12446.97
480.34	12215.26
480.52	12507.82
480.70	12358.03
480.88	12294.83
481.06	12758.26
481.24	12657.62
481.41	12877.63
481.59	13111.68
481.77	12926.78
481.95	13118.70
482.13	13273.18
482.31	13109.34
482.49	13792.78
482.67	13568.09
482.85	13820.86
483.03	13888.74
483.21	13994.06
483.39	13996.40
483.57	14132.15
483.74	14157.90
483.92	14539.41
484.10	14193.01
484.28	14375.57
484.46	14588.56
484.64	14930.28
484.82	14675.16
485.00	14876.44
485.18	15147.95
485.35	15248.59
485.53	15117.52
485.71	14897.51
485.89	15536.48
486.07	15297.74
486.25	15459.24
486.43	15393.70
486.61	16105.23
486.78	15772.87
486.96	15997.56
487.14	16367.37
487.32	16510.14
487.50	16276.09
487.68	16444.60
487.85	16772.28
488.03	17139.74
488.21	17102.29
488.39	17153.79
488.57	17046.12
488.75	17399.54
488.92	17502.53
489.10	17621.89
489.28	17582.10
489.46	18333.42
489.64	17975.31
489.81	18520.66
489.99	18487.89
490.17	18483.21
490.35	18848.33
490.53	18810.89
490.70	18869.40
490.88	18824.93
491.06	19374.95
491.24	19192.39
491.41	19370.27
491.59	19082.39
491.77	18810.89
491.95	19199.41
492.13	19552.84
492.30	20002.22
492.48	20095.84
492.66	20215.21
492.84	19978.81
493.01	20322.87
493.19	20243.29
493.37	20744.17
493.54	20491.39
493.72	20748.85
493.90	20629.48
494.08	21085.89
494.25	21359.73
494.43	21352.71
494.61	21692.08
494.79	21699.11
494.96	21532.93
495.14	21745.92
495.32	21781.03
495.49	22022.10
495.67	21895.71
495.85	22288.92
496.02	22452.76
496.20	22185.94
496.38	22328.71
496.55	22544.04
496.73	23030.87
496.91	22675.11
497.09	23014.49
497.26	23049.60
497.44	23042.57
497.62	23459.19
497.79	23477.91
497.97	23447.49
498.14	23344.50
498.32	23616.01
498.50	23770.48
498.67	24056.03
498.85	23901.55
499.03	24156.67
499.20	24100.50
499.38	24030.28
499.56	24336.89
499.73	24716.06
499.91	24664.57
500.08	24613.07
500.26	24404.77
500.44	24301.78
500.61	24982.88
500.79	24734.78
500.97	24599.03
501.14	25450.99
501.32	24903.30
501.49	25076.50
501.67	25088.20
501.84	25228.63
502.02	25640.57
502.20	25888.67
502.37	25689.72
502.55	25518.86
502.72	26169.53
502.90	26068.89
503.07	26017.40
503.25	26171.87
503.43	25858.24
503.60	26249.11
503.78	25750.57
503.95	26185.91
504.13	26380.18
504.30	26387.20
504.48	26551.04
504.65	26827.22
504.83	26841.26
505.01	27466.19
505.18	26916.16
505.36	27325.75
505.53	27271.92
505.71	27571.51
505.88	27452.14
506.06	27318.73
506.23	27564.49
506.41	27393.63
506.58	27709.60
506.76	27648.75
506.93	27880.46
507.11	27758.75
507.28	27878.12
507.46	28446.87
507.63	28149.62
507.81	28261.97
507.98	27976.42
508.16	28203.46
508.33	28421.13
508.50	28781.57
508.68	29163.08
508.85	28774.55
509.03	28599.01
509.20	29055.41
509.38	29188.82
509.55	29329.25
509.73	29130.31
509.90	28730.08
510.08	29022.64
510.25	29205.20
510.42	29329.25
510.60	29460.32
510.77	29151.37
510.95	29797.36
511.12	29839.49
511.30	29750.55
511.47	30338.02
511.64	30242.06
511.82	29914.39
511.99	29888.64
512.17	30417.60
512.34	29895.66
512.51	30305.26
512.69	30143.76
512.86	30749.96
513.04	30862.30
513.21	30649.32
513.38	30354.41
513.56	30721.87
513.73	30443.35
513.90	30902.09
514.08	30672.72
514.25	31276.58
514.43	31152.53
514.60	31201.68
514.77	30881.03
514.95	31335.09
515.12	31215.72
515.29	31470.84
515.47	31630.00
515.64	31634.68
515.81	31880.44
515.99	31550.42
516.16	31695.53
516.33	31665.11
516.51	31800.86
516.68	31597.23
516.85	31302.32
517.03	31644.04
517.20	31892.14
517.37	32360.25
517.54	32435.14
517.72	32357.91
517.89	31915.54
518.06	32119.17
518.24	32418.76
518.41	32456.21
518.58	32634.09
518.75	32503.02
518.93	32760.48
519.10	32215.13
519.27	32826.01
519.45	32624.73
519.62	32861.12
519.79	33053.05
519.96	33221.56
520.14	33652.22
520.31	32938.36
520.48	33453.28
520.65	33287.10
520.83	33439.23
521.00	33628.82
521.17	33584.35
521.34	33802.02
521.52	33523.49
521.69	34068.84
521.86	34363.75
522.03	34143.74
522.20	34080.54
522.38	34073.52
522.55	34047.77
522.72	34160.12
522.89	34218.63
523.07	34569.71
523.24	33963.51
523.41	34504.18
523.58	34705.46
523.75	34962.92
523.92	34644.61
524.10	35065.91
524.27	35229.74
524.44	34918.45
524.61	35257.83
524.78	35381.88
524.96	35173.57
525.13	35112.72
525.30	35218.04
525.47	35910.84
525.64	35510.61
525.81	35416.99
525.98	35749.34
526.16	35239.11
526.33	35367.84
526.50	35541.03
526.67	35255.49
526.84	35365.49
527.01	35283.58
527.18	35335.07
527.36	35725.94
527.53	36577.89
527.70	36308.73
527.87	36264.26
528.04	36233.83
528.21	35945.95
528.38	35747.00
528.55	36596.62
528.72	36194.04
528.89	36683.22
529.07	36184.68
529.24	36243.20
529.41	36402.35
529.58	36648.11
529.75	36687.90
529.92	36971.10
530.09	37038.98
530.26	36847.05
530.43	37013.23
530.60	36582.57
530.77	36666.83
530.94	37251.97
531.11	37275.37
531.28	37017.91
531.46	37387.72
531.63	37818.38
531.80	37116.22
531.97	37301.12
532.14	36992.17
532.31	37282.39
532.48	37184.09
532.65	37191.11
532.82	37577.30
532.99	37441.55
533.16	37415.80
533.33	37914.34
533.50	38403.51
533.67	38029.02
533.84	37464.96
534.01	37942.42
534.18	37888.59
534.35	38024.34
534.52	38078.18
534.69	38611.82
534.86	38197.54
535.03	37937.74
535.20	38401.17
535.37	38518.20
535.54	38735.87
535.71	38457.34
535.88	38375.42
536.05	38464.36
536.22	38639.90
536.38	38813.10
536.55	38396.49
536.72	38742.89
536.89	38419.89
537.06	38698.42
537.23	38740.55
537.40	38534.58
537.57	38993.32
537.74	39061.20
537.91	39339.72
538.08	38958.22
538.25	38993.32
538.42	39028.43
538.59	39208.65
538.75	38817.78
538.92	38883.32
539.09	38873.96
539.26	39332.70
539.43	38981.62
539.60	39526.97
539.77	39487.18
539.94	39274.19
540.11	39154.82
540.28	39250.78
540.44	39721.23
540.61	39672.08
540.78	39433.35
540.95	39339.72
541.12	39105.67
541.29	39400.58
541.46	39648.68
541.62	40058.27
541.79	39929.54
541.96	39548.03
542.13	39732.93
542.30	39714.21
542.47	39564.42
542.63	39871.03
542.80	39924.86
542.97	40334.45
543.14	40673.83
543.31	40416.37
543.48	40547.44
543.64	40748.73
543.81	41151.30
543.98	40851.71
544.15	40378.92
544.32	40786.18
544.48	40919.59
544.65	40488.93
544.82	41003.85
544.99	40748.73
545.16	40739.36
545.32	41003.85
545.49	41013.21
545.66	41495.36
545.83	41226.20
546.00	41298.75
546.16	41280.03
546.33	40842.35
546.50	40378.92
546.67	40840.01
546.83	40676.17
547.00	40872.78
547.17	40973.42
547.34	40868.09
547.50	41570.25
547.67	41860.48
547.84	41151.30
548.00	41635.79
548.17	41794.95
548.34	41537.49
548.51	42122.62
548.67	42043.04
548.84	41661.54
549.01	41333.86
549.18	41406.42
549.34	41675.58
549.51	41420.46
549.68	41567.91
549.84	42066.45
550.01	41897.93
550.18	41741.11
550.34	42127.30
550.51	41794.95
550.68	41785.58
550.84	41876.86
551.01	42438.59
551.18	41738.77
551.34	41811.33
551.51	42424.55
551.68	42209.22
551.84	42045.38
552.01	41970.49
552.18	42202.20
552.34	42188.16
552.51	42251.35
552.68	42113.26
552.84	42813.08
553.01	42808.40
553.18	42574.34
553.34	42534.56
553.51	42211.56
553.67	42284.12
553.84	42445.62
554.01	42934.79
554.17	42522.85
554.34	42253.69
554.51	42508.81
554.67	42817.76
554.84	43208.63
555.00	42487.74
555.17	43044.79
555.33	42763.93
555.50	42433.91
555.67	43447.36
555.83	42382.42
556.00	42864.57
556.16	42988.62
556.33	42939.47
556.50	42813.08
556.66	43147.78
556.83	42911.38
556.99	42749.88
557.16	43473.11
557.32	43012.02
557.49	43222.67
557.65	43047.13
557.82	43084.58
557.98	43494.18
558.15	43049.47
558.32	43164.16
558.48	42920.74
558.65	43210.97
558.81	42871.59
558.98	43386.51
559.14	43236.72
559.31	43508.22
559.47	43489.49
559.64	43426.30
559.80	43566.73
559.97	43428.64
560.13	43182.88
560.30	43115.01
560.46	43208.63
560.63	43922.49
560.79	43650.99
560.96	44027.82
561.12	43650.99
561.29	43676.74
561.45	43601.84
561.61	43805.47
561.78	43473.11
561.94	43452.05
562.11	43861.64
562.27	43873.34
562.44	43646.31
562.60	43915.47
562.77	44165.91
562.93	43468.43
563.10	43676.74
563.26	43320.98
563.42	43821.85
563.59	43723.55
563.75	43672.06
563.92	44327.41
564.08	43917.81
564.24	43931.86
564.41	44114.42
564.57	44023.14
564.74	43653.33
564.90	43459.07
565.07	43871.00
565.23	43674.40
565.39	43995.05
565.56	44098.03
565.72	43473.11
565.88	43917.81
566.05	43791.42
566.21	44018.46
566.38	43569.07
566.54	43723.55
566.70	44261.87
566.87	44343.79
567.03	44114.42
567.19	44327.41
567.36	44247.83
567.52	43966.96
567.68	44495.92
567.85	43693.12
568.01	44332.09
568.17	43969.30
568.34	44079.31
568.50	43807.81
568.66	44088.67
568.83	44102.71
568.99	43793.76
569.15	43903.77
569.32	44011.43
569.48	43819.51
569.64	44095.69
569.81	44189.31
569.97	44509.97
570.13	44521.67
570.30	43971.64
570.46	43716.53
570.62	44184.63
570.78	43775.04
570.95	44027.82
571.11	44037.18
571.27	44023.14
571.43	44268.89
571.60	44191.65
571.76	43990.37
571.92	44406.98
572.09	44271.23
572.25	44219.74
572.41	44179.95
572.57	44009.09
572.74	44257.19
572.90	44563.80
573.06	44559.12
573.22	44257.19
573.38	44641.04
573.55	44222.08
573.71	44315.70
573.87	44488.90
574.03	44348.47
574.20	44425.71
574.36	44102.71
574.52	44502.95
574.68	44367.20
574.84	44177.61
575.01	44189.31
575.17	44088.67
575.33	44210.38
575.49	44100.37
575.65	44236.12
575.82	44648.06
575.98	44252.51
576.14	44460.82
576.30	43985.69
576.46	44311.02
576.62	44697.21
576.79	44266.55
576.95	44456.14
577.11	44519.33
577.27	44343.79
577.43	44549.76
577.59	44289.96
577.75	44423.37
577.92	43981.01
578.08	44257.19
578.24	44257.19
578.40	44568.48
578.56	44339.11
578.72	44226.76
578.88	44645.72
579.04	44800.19
579.21	44626.99
579.37	44561.46
579.53	44699.55
579.69	44140.16
579.85	44364.85
580.01	44388.26
580.17	44142.50
580.33	44519.33
580.49	44842.32
580.65	44458.48
580.82	44673.81
580.98	44502.95
581.14	44362.51
581.30	44928.92
581.46	44720.62
581.62	44601.25
581.78	44680.83
581.94	44594.23
582.10	44746.36
582.26	44409.32
582.42	44423.37
582.58	44329.75
582.74	44257.19
582.90	44858.71
583.06	44722.96
583.22	44645.72
583.38	44868.07
583.54	45249.58
583.70	44648.06
583.86	44481.88
584.02	44154.21
584.18	44774.45
584.34	44381.24
584.50	44259.53
584.66	44816.58
584.82	43992.71
584.98	44624.65
585.14	44299.32
585.30	44516.99
585.46	44287.62
585.62	44542.74
585.78	44828.28
585.94	43913.13
586.10	44575.50
586.26	44278.25
586.42	44715.93
586.58	44748.70
586.74	44673.81
586.90	44666.78
587.06	44444.43
587.22	44521.67
587.38	44456.14
587.54	44301.66
587.70	44802.53
587.86	44865.73
588.02	44421.03
588.18	44816.58
588.34	44893.82
588.49	44428.05
588.65	43878.02
588.81	44561.46
588.97	44212.72
589.13	44863.39
589.29	44729.98
589.45	44999.14
589.61	44809.56
589.77	44870.41
589.93	44657.42
590.08	45010.84
590.24	44942.97
