SpectraSuite Data File
++++++++++++++++++++++++++++++++++++
Date: Fri Oct 25 11:33:30 EDT 2013
User: price-jones
Dark Spectrum Present: No
Reference Spectrum Present: No
Number of Sampled Component Spectra: 1
Spectrometers: USB2+H05261
Integration Time (usec): 100000 (USB2+H05261)
Spectra Averaged: 1 (USB2+H05261)
Boxcar Smoothing: 0 (USB2+H05261)
Correct for Electrical Dark: No (USB2+H05261)
Strobe/Lamp Enabled: No (USB2+H05261)
Correct for Detector Non-linearity: No (USB2+H05261)
Correct for Stray Light: No (USB2+H05261)
Number of Pixels in Processed Spectrum: 2048
>>>>>Begin Processed Spectral Data<<<<<
365.73	330.02
365.92	330.02
366.12	330.02
366.32	154.48
366.52	145.11
366.72	220.01
366.91	86.60
367.11	142.77
367.31	142.77
367.51	191.92
367.70	161.50
367.90	203.63
368.10	175.54
368.30	215.33
368.49	135.75
368.69	159.16
368.89	220.01
369.09	224.69
369.28	217.67
369.48	198.95
369.68	184.90
369.87	257.46
370.07	236.39
370.27	292.57
370.47	327.68
370.66	437.68
370.86	498.53
371.06	594.50
371.25	573.43
371.45	505.56
371.65	585.13
371.84	505.56
372.04	585.13
372.24	580.45
372.44	557.05
372.63	580.45
372.83	596.84
373.03	622.58
373.22	589.82
373.42	592.16
373.62	573.43
373.81	578.11
374.01	645.99
374.21	620.24
374.40	669.39
374.60	699.82
374.79	634.29
374.99	678.76
375.19	617.90
375.38	638.97
375.58	678.76
375.78	641.31
375.97	641.31
376.17	699.82
376.37	660.03
376.56	648.33
376.76	613.22
376.95	603.86
377.15	702.16
377.35	669.39
377.54	688.12
377.74	692.80
377.93	690.46
378.13	695.14
378.33	739.61
378.52	699.82
378.72	678.76
378.91	744.29
379.11	739.61
379.31	667.05
379.50	695.14
379.70	725.57
379.89	765.36
380.09	734.93
380.28	695.14
380.48	725.57
380.68	706.84
380.87	734.93
381.07	788.76
381.26	770.04
381.46	779.40
381.65	746.63
381.85	765.36
382.04	791.10
382.24	819.19
382.43	718.54
382.63	767.70
382.83	774.72
383.02	807.48
383.22	821.53
383.41	774.72
383.61	819.19
383.80	781.74
384.00	784.08
384.19	828.55
384.39	807.48
384.58	758.33
384.78	830.89
384.97	732.59
385.17	779.40
385.36	706.84
385.56	856.64
385.75	866.00
385.95	863.66
386.14	866.00
386.34	856.64
386.53	835.57
386.72	887.06
386.92	964.30
387.11	917.49
387.31	908.13
387.50	863.66
387.70	844.93
387.89	908.13
388.09	919.83
388.28	819.19
388.48	908.13
388.67	978.34
388.86	877.70
389.06	940.90
389.25	922.17
389.45	910.47
389.64	976.00
389.84	968.98
390.03	968.98
390.22	999.41
390.42	1039.20
390.61	945.58
390.81	994.73
391.00	931.53
391.19	894.08
391.39	1018.13
391.58	971.32
391.78	983.02
391.97	1039.20
392.16	994.73
392.36	1097.71
392.55	1083.67
392.75	1109.41
392.94	1039.20
393.13	1095.37
393.33	1067.28
393.52	1048.56
393.71	1093.03
393.91	1125.80
394.10	1062.60
394.29	1088.35
394.49	1081.33
394.68	1151.54
394.88	1100.05
395.07	1107.07
395.26	1160.91
395.46	1062.60
395.65	1170.27
395.84	1167.93
396.04	1130.48
396.23	1095.37
396.42	1160.91
396.62	1102.39
396.81	1210.06
397.00	1219.42
397.19	1191.33
397.39	1203.04
397.58	1219.42
397.77	1191.33
397.97	1217.08
398.16	1411.34
398.35	1310.70
398.55	1245.16
398.74	1327.08
398.93	1357.51
399.12	1219.42
399.32	1313.04
399.51	1284.95
399.70	1329.42
399.90	1362.19
400.09	1291.98
400.28	1338.79
400.47	1247.51
400.67	1352.83
400.86	1357.51
401.05	1364.53
401.24	1411.34
401.44	1439.43
401.63	1427.73
401.82	1486.24
402.01	1495.60
402.21	1439.43
402.40	1439.43
402.59	1502.62
402.78	1427.73
402.97	1437.09
403.17	1523.69
403.36	1526.03
403.55	1497.94
403.74	1551.78
403.93	1511.99
404.13	1652.42
404.32	1657.10
404.51	1488.58
404.70	1619.65
404.89	1579.86
405.09	1673.48
405.28	1638.38
405.47	1680.50
405.66	1720.29
405.85	1675.82
406.05	1706.25
406.24	1724.97
406.43	1783.49
406.62	1687.53
406.81	1853.70
407.00	1734.34
407.20	1668.80
407.39	1771.79
407.58	1870.09
407.77	1762.42
407.96	1900.52
408.15	1898.17
408.34	1900.52
408.54	1940.30
408.73	1870.09
408.92	1795.19
409.11	1905.20
409.30	2015.20
409.49	1973.07
409.68	2071.37
409.87	1916.90
410.07	2012.86
410.26	2057.33
410.45	2146.27
410.64	2111.16
410.83	2085.42
411.02	2118.18
411.21	2167.34
411.40	2181.38
411.59	2296.07
411.78	2200.10
411.98	2183.72
412.17	2340.54
412.36	2282.02
412.55	2265.64
412.74	2352.24
412.93	2431.82
413.12	2305.43
413.31	2431.82
413.50	2377.98
413.69	2399.05
413.88	2380.32
414.07	2483.31
414.26	2497.35
414.45	2427.14
414.64	2546.50
414.83	2597.99
415.02	2415.43
415.22	2546.50
415.41	2628.42
415.60	2588.63
415.79	2651.83
415.98	2630.76
416.17	2764.17
416.36	2700.98
416.55	2719.70
416.74	2827.37
416.93	2853.11
417.12	2909.29
417.31	2920.99
417.50	2871.84
417.69	2953.76
417.88	2970.14
418.07	2935.03
418.26	2998.23
418.45	2923.33
418.64	3040.36
418.83	3056.74
419.02	3030.99
419.21	3007.59
419.39	3143.34
419.58	3166.74
419.77	3115.25
419.96	3166.74
420.15	3218.24
420.34	3155.04
420.53	3218.24
420.72	3159.72
420.91	3211.22
421.10	3232.28
421.29	3251.00
421.48	3283.77
421.67	3351.65
421.86	3318.88
422.05	3363.35
422.24	3272.07
422.43	3241.64
422.61	3321.22
422.80	3290.79
422.99	3456.97
423.18	3351.65
423.37	3557.61
423.56	3328.24
423.75	3258.03
423.94	3335.26
424.13	3133.98
424.32	3302.50
424.50	3431.23
424.69	3435.91
424.88	3508.46
425.07	3428.88
425.26	3403.14
425.45	3412.50
425.64	3445.27
425.83	3405.48
426.01	3466.33
426.20	3435.91
426.39	3417.18
426.58	3431.23
426.77	3494.42
426.96	3447.61
427.15	3482.72
427.33	3555.27
427.52	3478.04
427.71	3669.96
427.90	3648.90
428.09	3693.37
428.28	3634.85
428.46	3693.37
428.65	3637.19
428.84	3761.24
429.03	3707.41
429.22	3634.85
429.40	3777.62
429.59	3749.54
429.78	3672.30
429.97	3569.32
430.16	3695.71
430.34	3894.65
430.53	3786.99
430.72	3885.29
430.91	3864.22
431.10	3805.71
431.28	3922.74
431.47	3978.91
431.66	3932.10
431.85	3962.53
432.03	3913.38
432.22	4060.83
432.41	4131.05
432.60	4121.68
432.79	4037.42
432.97	4154.45
433.16	4152.11
433.35	4004.66
433.54	4243.39
433.72	4252.75
433.91	4124.02
434.10	4084.23
434.28	4180.20
434.47	4215.30
434.66	4273.82
434.85	4060.83
435.03	4161.47
435.22	4245.73
435.41	4484.47
435.59	4219.99
435.78	4402.55
435.97	4306.59
436.16	4355.74
436.34	4461.06
436.53	4414.25
436.72	4430.63
436.90	4456.38
437.09	4652.98
437.28	4458.72
437.46	4568.73
437.65	4554.68
437.84	4688.09
438.02	4655.33
438.21	4559.36
438.40	4566.39
438.58	4809.80
438.77	4943.21
438.96	4585.11
439.14	4793.42
439.33	4781.71
439.52	4882.36
439.70	4875.34
439.89	5060.24
440.08	4973.64
440.26	5144.50
440.45	4894.06
440.63	4980.66
440.82	5114.07
441.01	5107.05
441.19	5088.32
441.38	5170.24
441.57	5078.96
441.75	5266.21
441.94	5387.91
442.12	5486.22
442.31	5378.55
442.50	5448.77
442.68	5460.47
442.87	5296.63
443.05	5551.75
443.24	5584.52
443.43	5558.77
443.61	5540.05
443.80	5713.25
443.98	5558.77
444.17	5310.68
444.35	5542.39
444.54	5675.80
444.73	5703.89
444.91	5593.88
445.10	5511.96
445.28	5640.69
445.47	5621.97
445.65	5668.78
445.84	5762.40
446.02	5811.55
446.21	5619.63
446.39	5568.13
446.58	5624.31
446.77	5774.10
446.95	5430.04
447.14	5650.05
447.32	5792.83
447.51	5755.38
447.69	5841.98
447.88	5717.93
448.06	5916.87
448.25	5849.00
448.43	5678.14
448.62	5846.66
448.80	5888.79
448.99	5823.25
449.17	5884.11
449.36	5963.68
449.54	5846.66
449.73	5937.94
449.91	6012.84
450.10	6094.76
450.28	6146.25
450.46	6054.97
450.65	6132.20
450.83	6029.22
451.02	6001.13
451.20	6237.53
451.39	6167.31
451.57	6263.27
451.76	6080.71
451.94	6225.82
452.13	6326.47
452.31	6406.05
452.49	6249.23
452.68	6293.70
452.86	6204.76
453.05	6272.64
453.23	6345.19
453.42	6300.72
453.60	6300.72
453.78	6516.05
453.97	6452.86
454.15	6298.38
454.34	6363.92
454.52	6532.44
454.70	6490.31
454.89	6509.03
455.07	6487.96
455.26	6565.20
455.44	6773.51
455.62	6745.42
455.81	6588.61
455.99	6691.59
456.17	6801.60
456.36	6700.95
456.54	6761.81
456.73	6906.92
456.91	7155.02
457.09	6935.01
457.28	6953.73
457.46	6963.09
457.64	7023.95
457.83	6984.16
458.01	7166.72
458.19	7108.21
458.38	7021.61
458.56	7178.42
458.74	7075.44
458.93	7295.45
459.11	7073.10
459.29	7316.51
459.48	7080.12
459.66	7206.51
459.84	7426.52
460.03	7466.31
460.21	7421.84
460.39	7396.09
460.57	7382.05
460.76	7658.23
460.94	7475.67
461.12	7461.63
461.31	7433.54
461.49	7562.27
461.67	7274.38
461.85	7599.72
462.04	7452.27
462.22	7686.32
462.40	7756.54
462.59	7674.62
462.77	7648.87
462.95	7948.46
463.13	7875.90
463.32	7700.36
463.50	7854.84
463.68	7941.44
463.86	7969.52
464.05	7885.26
464.23	7740.15
464.41	7885.26
464.59	7819.73
464.78	8128.68
464.96	7978.89
465.14	7887.61
465.32	8224.64
465.50	8098.25
465.69	8086.55
465.87	8255.07
466.05	8189.53
466.23	8194.22
466.41	8079.53
466.60	8414.23
466.78	8116.98
466.96	8161.45
467.14	8182.51
467.32	8320.60
467.51	8329.97
467.69	8224.64
467.87	8173.15
468.05	8313.58
468.23	8376.78
468.41	8297.20
468.60	8390.82
468.78	8425.93
468.96	8381.46
469.14	8664.66
469.32	8664.66
469.50	8533.59
469.69	8676.37
469.87	8711.47
470.05	8608.49
470.23	8709.13
470.41	8798.07
470.59	8833.18
470.77	8578.06
470.95	8725.52
471.14	9008.72
471.32	8622.53
471.50	9053.19
471.68	9109.36
471.86	9083.62
472.04	9081.28
472.22	9252.14
472.40	9062.55
472.58	9053.19
472.77	9298.95
472.95	9439.38
473.13	9727.27
473.31	9420.66
473.49	9437.04
473.67	9437.04
473.85	9640.67
474.03	9729.61
474.21	9577.47
474.39	9717.90
474.57	9743.65
474.75	9900.47
474.93	9769.40
475.12	9776.42
475.30	10127.50
475.48	10019.83
475.66	10080.69
475.84	10040.90
476.02	10270.27
476.20	10115.80
476.38	10523.05
476.56	10736.04
476.74	10485.60
476.92	10548.79
477.10	10249.21
477.28	10635.39
477.46	10778.17
477.64	10731.36
477.82	10923.28
478.00	11356.28
478.18	10993.50
478.36	11162.01
478.54	11513.10
478.72	11538.84
478.90	11269.68
479.08	11648.85
479.26	11779.92
479.44	11775.24
479.62	11660.55
479.80	11889.92
479.98	11742.47
480.16	12135.68
480.34	11901.62
480.52	12194.19
480.70	12339.30
480.88	12353.35
481.06	12353.35
481.24	12521.87
481.41	12568.68
481.59	12659.96
481.77	12833.16
481.95	12933.80
482.13	12762.94
482.31	12917.42
482.49	13062.53
482.67	13114.02
482.85	13413.61
483.03	13479.15
483.21	13418.29
483.39	13551.70
483.57	13675.75
483.74	13809.16
483.92	14015.13
484.10	13858.31
484.28	14424.72
484.46	14565.15
484.64	14616.65
484.82	14424.72
485.00	14621.33
485.18	14937.30
485.35	15007.52
485.53	15087.09
485.71	15176.03
485.89	15180.71
486.07	15398.38
486.25	15124.54
486.43	15655.84
486.61	15679.25
486.78	15613.71
486.96	15723.72
487.14	16245.66
487.32	16128.63
487.50	16133.31
487.68	16407.16
487.85	16599.08
488.03	16662.27
488.21	16931.44
488.39	17041.44
488.57	17034.42
488.75	17240.39
488.92	17305.92
489.10	17493.16
489.28	16952.50
489.46	17582.10
489.64	17727.22
489.81	17884.03
489.99	17923.82
490.17	18157.88
490.35	18429.38
490.53	18249.16
490.70	19000.47
490.88	18644.71
491.06	18658.75
491.24	18930.25
491.41	19023.87
491.59	19140.90
491.77	18925.57
491.95	19257.93
492.13	19604.33
492.30	19672.20
492.48	19583.26
492.66	19716.67
492.84	19693.27
493.01	19971.79
493.19	20247.97
493.37	20182.44
493.54	20467.98
493.72	20414.15
493.90	20617.78
494.08	20938.43
494.25	21083.55
494.43	21186.53
494.61	21060.14
494.79	21474.42
494.96	21319.94
495.14	21383.13
495.32	21649.96
495.49	21797.41
495.67	21788.05
495.85	21919.12
496.02	21937.84
496.20	22366.16
496.38	22136.79
496.55	22160.19
496.73	22932.57
496.91	22164.87
497.09	22899.80
497.26	23012.15
497.44	22813.20
497.62	22895.12
497.79	23534.09
497.97	23208.75
498.14	23838.36
498.32	23796.23
498.50	23569.19
498.67	23740.05
498.85	23843.04
499.03	24006.87
499.20	24025.60
499.38	24217.52
499.56	24159.01
499.73	24542.86
499.91	24514.77
500.08	24657.54
500.26	24479.66
500.44	24648.18
500.61	25064.80
500.79	24723.08
500.97	25039.05
501.14	25174.80
501.32	25619.50
501.49	24980.54
501.67	25153.74
501.84	25565.67
502.02	25617.16
502.20	25467.37
502.37	25773.98
502.55	25893.35
502.72	25752.91
502.90	25666.31
503.07	25656.95
503.25	26277.19
503.43	25963.56
503.60	26279.54
503.78	26735.94
503.95	26019.74
504.13	26167.19
504.30	26972.33
504.48	26394.22
504.65	26698.49
504.83	26815.52
505.01	27211.07
505.18	27513.00
505.36	27374.91
505.53	27005.10
505.71	27580.87
505.88	27608.96
506.06	27405.33
506.23	27618.32
506.41	27260.22
506.58	27508.32
506.76	27800.88
506.93	27480.23
507.11	27733.01
507.28	28166.01
507.46	27686.20
507.63	27960.04
507.81	28617.73
507.98	28261.97
508.16	28407.08
508.33	28540.49
508.50	28917.32
508.68	29022.64
508.85	28891.57
509.03	28308.78
509.20	29193.50
509.38	29425.22
509.55	29411.17
509.73	29406.49
509.90	29329.25
510.08	29104.56
510.25	29720.12
510.42	29509.47
510.60	29586.71
510.77	29652.25
510.95	30265.47
511.12	30045.46
511.30	30005.67
511.47	30300.58
511.64	29898.00
511.82	30312.28
511.99	30263.13
512.17	30602.50
512.34	30511.22
512.51	30654.00
512.69	30775.70
512.86	30855.28
513.04	30703.15
513.21	30834.22
513.38	31274.24
513.56	31660.43
513.73	31077.63
513.90	31049.55
514.08	31241.47
514.25	31260.20
514.43	31850.01
514.60	31564.46
514.77	31503.61
514.95	31681.49
515.12	31737.66
515.29	31672.13
515.47	31957.67
515.64	31377.22
515.81	31545.74
515.99	32264.28
516.16	32201.09
516.33	32283.01
516.51	32505.36
516.68	32266.63
516.85	32297.05
517.03	32664.52
517.20	32940.70
517.37	32608.34
517.54	32545.15
517.72	32826.01
517.89	32779.20
518.06	32893.89
518.24	32854.10
518.41	32748.78
518.58	32849.42
518.75	32914.95
518.93	33619.46
519.10	33118.58
519.27	33064.75
519.45	33509.45
519.62	33612.43
519.79	33656.90
519.96	33427.53
520.14	33701.37
520.31	33736.48
520.48	33963.51
520.65	34253.74
520.83	34157.78
521.00	34171.82
521.17	34440.98
521.34	34270.12
521.52	34771.00
521.69	34174.16
521.86	34534.60
522.03	34885.68
522.20	34836.53
522.38	34995.69
522.55	35063.57
522.72	34932.50
522.89	35185.27
523.07	35105.70
523.24	35337.41
523.41	35309.32
523.58	35065.91
523.75	35587.85
523.92	35646.36
524.10	35655.72
524.27	35627.63
524.44	35864.03
524.61	35494.22
524.78	35709.55
524.96	36032.55
525.13	36144.89
525.30	36009.14
525.47	36409.37
525.64	36467.89
525.81	36503.00
525.98	36098.08
526.16	36163.62
526.33	36032.55
526.50	36077.02
526.67	36079.36
526.84	36491.29
527.01	36290.01
527.18	36542.78
527.36	36713.64
527.53	36844.71
527.70	36701.94
527.87	36833.01
528.04	37120.90
528.21	37202.82
528.38	36627.04
528.55	37132.60
528.72	37273.03
528.89	37282.39
529.07	36891.52
529.24	37212.18
529.41	37383.04
529.58	37481.34
529.75	37565.60
529.92	37619.43
530.09	37680.28
530.26	37572.62
530.43	37479.00
530.60	37947.11
530.77	37521.13
530.94	37982.21
531.11	37876.89
531.28	38012.64
531.46	38096.90
531.63	38305.21
531.80	38256.06
531.97	38597.77
532.14	38609.48
532.31	38211.59
532.48	38550.96
532.65	38239.67
532.82	38710.12
532.99	38408.19
533.16	38464.36
533.33	38295.85
533.50	38958.22
533.67	38492.45
533.84	38256.06
534.01	38455.00
534.18	38974.60
534.35	39250.78
534.52	39086.95
534.69	39421.64
534.86	39210.99
535.03	39384.19
535.20	39260.15
535.37	39700.17
535.54	39393.56
535.71	39442.71
535.88	39585.48
536.05	40058.27
536.22	39856.98
536.38	39351.43
536.55	39941.24
536.72	40018.48
536.89	39433.35
537.06	39985.71
537.23	40069.97
537.40	39604.20
537.57	39566.76
537.74	39379.51
537.91	40278.28
538.08	39985.71
538.25	39852.30
538.42	40273.60
538.59	40697.24
538.75	40016.14
538.92	40072.31
539.09	40722.98
539.26	40179.98
539.43	40439.78
539.60	40928.95
539.77	40306.37
539.94	40746.39
540.11	40512.33
540.28	40767.45
540.44	40421.05
540.61	40823.62
540.78	40603.61
540.95	41074.06
541.12	40559.14
541.29	40369.56
541.46	40486.59
541.62	41043.63
541.79	40999.16
541.96	40823.62
542.13	40935.97
542.30	41055.34
542.47	41352.58
542.63	41237.90
542.80	41364.29
542.97	41591.32
543.14	41881.55
543.31	41567.91
543.48	41703.67
543.64	41696.64
543.81	41832.39
543.98	41687.28
544.15	41979.85
544.32	42066.45
544.48	42419.87
544.65	41883.89
544.82	42693.71
544.99	41872.18
545.16	42085.17
545.32	42040.70
545.49	42759.25
545.66	42794.36
545.83	42569.66
546.00	42567.32
546.16	42600.09
546.33	42586.05
546.50	42508.81
546.67	42770.95
546.83	42302.84
547.00	42497.11
547.17	42873.93
547.34	42962.87
547.50	42946.49
547.67	43536.30
547.84	42808.40
548.00	42969.90
548.17	43199.27
548.34	43084.58
548.51	42925.42
548.67	43536.30
548.84	43243.74
549.01	42876.27
549.18	42866.91
549.34	43292.89
549.51	43470.77
549.68	43381.83
549.84	43131.39
550.01	43739.93
550.18	43040.11
550.34	43363.11
550.51	43566.73
550.68	43674.40
550.84	43325.66
551.01	43510.56
551.18	43416.94
551.34	44069.95
551.51	43835.89
551.68	43910.79
551.84	44016.11
552.01	43688.44
552.18	44289.96
552.34	43667.37
552.51	44072.29
552.68	43454.39
552.84	43730.57
553.01	44144.84
553.18	44341.45
553.34	44170.59
553.51	43915.47
553.67	44119.10
553.84	44556.78
554.01	44706.57
554.17	44657.42
554.34	44603.59
554.51	44694.87
554.67	44739.34
554.84	44697.21
555.00	44346.13
555.17	44610.61
555.33	44638.70
555.50	44741.68
555.67	44404.64
555.83	44744.02
556.00	44519.33
556.16	45258.94
556.33	44931.26
556.50	44790.83
556.66	44919.56
556.83	44388.26
556.99	45544.48
557.16	45303.41
557.32	45015.52
557.49	45006.16
557.65	44926.58
557.82	44626.99
557.98	45162.98
558.15	45017.86
558.32	45132.55
558.48	44949.99
558.65	44781.47
558.81	45188.72
558.98	45095.10
559.14	44837.64
559.31	45394.69
559.47	45385.33
559.64	45462.57
559.80	45240.21
559.97	44989.78
560.13	45481.29
560.30	45591.30
560.46	45595.98
560.63	45930.67
560.79	45727.05
560.96	45886.20
561.12	45507.04
561.29	45607.68
561.45	45434.48
561.61	45413.41
561.78	45509.38
561.94	45715.34
562.11	45874.50
562.27	45284.68
562.44	45918.97
562.60	45895.56
562.77	45783.22
562.93	45806.62
563.10	45872.16
563.26	45563.21
563.42	46368.35
563.59	45745.77
563.75	45251.92
563.92	45528.10
564.08	45605.34
564.24	46267.71
564.41	45947.06
564.57	46021.95
564.74	45684.92
564.90	45804.28
565.07	45661.51
565.23	46099.19
565.39	45996.21
565.56	46003.23
565.72	46003.23
565.88	46330.90
566.05	46302.82
566.21	46347.29
566.38	46120.26
566.54	45935.35
566.70	46410.48
566.87	46494.74
567.03	46211.54
567.19	46358.99
567.36	46595.38
567.52	46230.26
567.68	46522.83
567.85	46557.94
568.01	46497.08
568.17	46204.52
568.34	46445.59
568.50	46440.91
568.66	46356.65
568.83	46419.84
568.99	46803.69
569.15	46511.13
569.32	46101.53
569.48	46670.28
569.64	46745.18
569.81	46185.79
569.97	46616.45
570.13	47049.45
570.30	46244.30
570.46	46681.98
570.62	46937.10
570.78	46497.08
570.95	46637.51
571.11	47140.73
571.27	46583.68
571.43	46590.70
571.60	46504.10
571.76	46806.03
571.92	46887.95
572.09	46576.66
572.25	46433.89
572.41	46595.38
572.57	46738.16
572.74	47009.66
572.90	46557.94
573.06	46894.97
573.22	46852.84
573.38	47175.84
573.55	46438.57
573.71	47320.95
573.87	47040.09
574.03	47189.88
574.20	46845.82
574.36	46836.46
574.52	47166.48
574.68	47269.46
574.84	47253.08
575.01	47288.18
575.17	46927.74
575.33	46698.37
575.49	46717.09
575.65	47220.31
575.82	46906.68
575.98	46717.09
576.14	47157.11
576.30	47192.22
576.46	46997.96
576.62	46892.63
576.79	47084.56
576.95	46747.52
577.11	46735.82
577.27	46593.04
577.43	46651.56
577.59	46780.29
577.75	46955.83
577.92	46525.17
578.08	46735.82
578.24	47234.35
578.40	46923.06
578.56	47164.14
578.72	46883.27
578.88	46754.54
579.04	46962.85
579.21	47133.71
579.37	47379.46
579.53	47192.22
579.69	47325.63
579.85	47000.30
580.01	46829.44
580.17	46869.23
580.33	47215.63
580.49	47147.75
580.65	47353.72
580.82	47166.48
580.98	46700.71
581.14	46712.41
581.30	47037.75
581.46	47061.15
581.62	46920.72
581.78	47091.58
581.94	47250.74
582.10	46918.38
582.26	47105.62
582.42	47241.37
582.58	47147.75
582.74	47536.28
582.90	47143.07
583.06	47421.59
583.22	46906.68
583.38	47269.46
583.54	47175.84
583.70	47683.73
583.86	47367.76
584.02	47124.35
584.18	47461.38
584.34	47526.92
584.50	47585.43
584.66	47164.14
584.82	47590.11
584.98	47828.85
585.14	47681.39
585.30	47283.50
585.46	47152.43
585.62	47391.17
585.78	47365.42
585.94	47096.26
586.10	47334.99
586.26	47234.35
586.42	47388.83
586.58	47524.58
586.74	46941.78
586.90	47217.97
587.06	47442.66
587.22	47749.27
587.38	47412.23
587.54	47665.01
587.70	47842.89
587.86	46948.81
588.02	47037.75
588.18	47262.44
588.34	47332.65
588.49	47463.72
588.65	47491.81
588.81	47587.77
588.97	47353.72
589.13	47615.86
589.29	47442.66
589.45	47737.57
589.61	47760.97
589.77	47519.90
589.93	47510.53
590.08	47777.36
