SpectraSuite Data File
++++++++++++++++++++++++++++++++++++
Date: Fri Oct 25 10:47:31 EDT 2013
User: price-jones
Dark Spectrum Present: No
Reference Spectrum Present: No
Number of Sampled Component Spectra: 1
Spectrometers: USB2+H05261
Integration Time (usec): 100000 (USB2+H05261)
Spectra Averaged: 1 (USB2+H05261)
Boxcar Smoothing: 0 (USB2+H05261)
Correct for Electrical Dark: No (USB2+H05261)
Strobe/Lamp Enabled: No (USB2+H05261)
Correct for Detector Non-linearity: No (USB2+H05261)
Correct for Stray Light: No (USB2+H05261)
Number of Pixels in Processed Spectrum: 2048
>>>>>Begin Processed Spectral Data<<<<<
365.73	170.86
365.92	170.86
366.12	170.86
366.32	86.60
366.52	0.00
366.72	49.15
366.91	0.00
367.11	46.81
367.31	42.13
367.51	0.00
367.70	23.41
367.90	72.56
368.10	93.62
368.30	140.43
368.49	18.72
368.69	84.26
368.89	58.51
369.09	98.30
369.28	0.00
369.48	128.73
369.68	81.92
369.87	117.03
370.07	149.79
370.27	117.03
370.47	187.24
370.66	330.02
370.86	400.23
371.06	397.89
371.25	496.19
371.45	470.45
371.65	538.32
371.84	482.15
372.04	470.45
372.24	479.81
372.44	444.70
372.63	437.68
372.83	531.30
373.03	472.79
373.22	533.64
373.42	517.26
373.62	531.30
373.81	510.24
374.01	594.50
374.21	482.15
374.40	580.45
374.60	573.43
374.79	383.85
374.99	547.69
375.19	580.45
375.38	503.22
375.58	580.45
375.78	552.37
375.97	533.64
376.17	599.18
376.37	624.92
376.56	657.69
376.76	599.18
376.95	601.52
377.15	610.88
377.35	620.24
377.54	533.64
377.74	613.22
377.93	559.39
378.13	547.69
378.33	692.80
378.52	599.18
378.72	615.56
378.91	608.54
379.11	634.29
379.31	685.78
379.50	561.73
379.70	629.60
379.89	763.01
380.09	660.03
380.28	608.54
380.48	655.35
380.68	641.31
380.87	648.33
381.07	629.60
381.26	638.97
381.46	690.46
381.65	737.27
381.85	660.03
382.04	634.29
382.24	709.18
382.43	690.46
382.63	622.58
382.83	608.54
383.02	784.08
383.22	720.88
383.41	645.99
383.61	671.73
383.80	751.31
384.00	791.10
384.19	688.12
384.39	737.27
384.58	744.29
384.78	653.01
384.97	765.36
385.17	699.82
385.36	741.95
385.56	763.01
385.75	772.38
385.95	702.16
386.14	835.57
386.34	758.33
386.53	739.61
386.72	821.53
386.92	734.93
387.11	898.77
387.31	854.30
387.50	741.95
387.70	805.14
387.89	767.70
388.09	800.46
388.28	826.21
388.48	844.93
388.67	763.01
388.86	830.89
389.06	882.38
389.25	889.40
389.45	809.83
389.64	875.36
389.84	863.66
390.03	856.64
390.22	889.40
390.42	840.25
390.61	877.70
390.81	861.32
391.00	950.26
391.19	950.26
391.39	940.90
391.58	896.43
391.78	987.71
391.97	926.85
392.16	952.60
392.36	964.30
392.55	938.55
392.75	964.30
392.94	976.00
393.13	978.34
393.33	889.40
393.52	1046.22
393.71	1020.47
393.91	1022.81
394.10	1015.79
394.29	980.68
394.49	1001.75
394.68	1053.24
394.88	1097.71
395.07	1118.78
395.26	1160.91
395.46	1128.14
395.65	1078.99
395.84	1076.65
396.04	1160.91
396.23	1116.44
396.42	1029.84
396.62	1121.12
396.81	1142.18
397.00	1034.52
397.19	1118.78
397.39	1191.33
397.58	1214.74
397.77	1203.04
397.97	1245.16
398.16	1212.40
398.35	1249.85
398.55	1226.44
398.74	1224.10
398.93	1352.83
399.12	1247.51
399.32	1324.74
399.51	1291.98
399.70	1401.98
399.90	1399.64
400.09	1331.76
400.28	1397.30
400.47	1336.45
400.67	1345.81
400.86	1352.83
401.05	1366.87
401.24	1366.87
401.44	1369.21
401.63	1462.83
401.82	1479.22
402.01	1474.54
402.21	1540.07
402.40	1427.73
402.59	1502.62
402.78	1516.67
402.97	1575.18
403.17	1535.39
403.36	1509.65
403.55	1540.07
403.74	1617.31
403.93	1572.84
404.13	1500.28
404.32	1533.05
404.51	1647.74
404.70	1629.01
404.89	1610.29
405.09	1668.80
405.28	1626.67
405.47	1603.27
405.66	1652.42
405.85	1699.23
406.05	1886.47
406.24	1797.53
406.43	1750.72
406.62	1806.89
406.81	1832.64
407.00	1762.42
407.20	1809.23
407.39	1732.00
407.58	1776.47
407.77	1930.94
407.96	1886.47
408.15	1923.92
408.34	1919.24
408.54	1991.80
408.73	1872.43
408.92	1996.48
409.11	1923.92
409.30	2012.86
409.49	1966.05
409.68	1963.71
409.87	1961.37
410.07	2043.29
410.26	2001.16
410.45	2106.48
410.64	2097.12
410.83	2127.55
411.02	2118.18
411.21	2125.21
411.40	2167.34
411.59	2202.44
411.78	2183.72
411.98	2232.87
412.17	2340.54
412.36	2267.98
412.55	2335.85
412.74	2312.45
412.93	2406.07
413.12	2312.45
413.31	2457.56
413.50	2457.56
413.69	2399.05
413.88	2476.29
414.07	2504.37
414.26	2586.29
414.45	2478.63
414.64	2523.10
414.83	2544.16
415.02	2567.57
415.22	2595.65
415.41	2782.90
415.60	2635.44
415.79	2640.12
415.98	2810.98
416.17	2768.85
416.36	2813.32
416.55	2820.35
416.74	2939.71
416.93	2785.24
417.12	2761.83
417.31	2836.73
417.50	2832.05
417.69	3002.91
417.88	2892.90
418.07	3026.31
418.26	3059.08
418.45	2986.52
418.64	3119.93
418.83	3199.51
419.02	3180.79
419.21	3073.12
419.39	3145.68
419.58	3166.74
419.77	2925.67
419.96	3169.09
420.15	3213.56
420.34	3119.93
420.53	3192.49
420.72	3258.03
420.91	3201.85
421.10	3321.22
421.29	3225.26
421.48	3339.94
421.67	3236.96
421.86	3187.81
422.05	3370.37
422.24	3377.39
422.43	3356.33
422.61	3321.22
422.80	3314.20
422.99	3328.24
423.18	3456.97
423.37	3426.54
423.56	3492.08
423.75	3440.59
423.94	3274.41
424.13	3234.62
424.32	3372.71
424.50	3456.97
424.69	3442.93
424.88	3552.93
425.07	3485.06
425.26	3468.67
425.45	3405.48
425.64	3468.67
425.83	3442.93
426.01	3595.06
426.20	3531.87
426.39	3442.93
426.58	3389.10
426.77	3480.38
426.96	3424.20
427.15	3531.87
427.33	3590.38
427.52	3534.21
427.71	3602.08
427.90	3433.57
428.09	3581.02
428.28	3471.01
428.46	3721.45
428.65	3665.28
428.84	3847.84
429.03	3794.01
429.22	3770.60
429.40	3719.11
429.59	3775.28
429.78	3627.83
429.97	3623.15
430.16	3698.05
430.34	3794.01
430.53	3786.99
430.72	3737.84
430.91	3751.88
431.10	3843.16
431.28	3871.25
431.47	3911.04
431.66	4091.26
431.85	4060.83
432.03	4102.96
432.22	4067.85
432.41	4049.13
432.60	4255.09
432.79	4138.07
432.97	4086.58
433.16	4154.45
433.35	4011.68
433.54	4084.23
433.72	4212.96
433.91	4196.58
434.10	4102.96
434.28	4159.13
434.47	4329.99
434.66	4315.95
434.85	4315.95
435.03	4369.78
435.22	4362.76
435.41	4259.78
435.59	4376.80
435.78	4414.25
435.97	4278.50
436.16	4447.02
436.34	4582.77
436.53	4589.79
436.72	4610.86
436.90	4432.97
437.09	4531.28
437.28	4297.22
437.46	4540.64
437.65	4610.86
437.84	4578.09
438.02	4535.96
438.21	4638.94
438.40	4484.47
438.58	4709.16
438.77	4718.52
438.96	4812.14
439.14	4739.58
439.33	4947.89
439.52	4947.89
439.70	4985.34
439.89	4971.30
440.08	5172.58
440.26	5107.05
440.45	4992.36
440.63	5039.17
440.82	5165.56
441.01	5022.79
441.19	5289.61
441.38	5355.15
441.57	5305.99
441.75	5369.19
441.94	5310.68
442.12	5408.98
442.31	5523.66
442.50	5408.98
442.68	5394.93
442.87	5509.62
443.05	5540.05
443.24	5713.25
443.43	5694.52
443.61	5692.18
443.80	5729.63
443.98	5617.29
444.17	5420.68
444.35	5720.27
444.54	5839.64
444.73	5767.08
444.91	5746.02
445.10	5774.10
445.28	5640.69
445.47	5605.58
445.65	5654.73
445.84	5783.46
446.02	5678.14
446.21	5657.07
446.39	5738.99
446.58	5858.36
446.77	5535.37
446.95	5680.48
447.14	5767.08
447.32	5870.06
447.51	5755.38
447.69	5806.87
447.88	5846.66
448.06	5935.60
448.25	5696.86
448.43	5832.62
448.62	5834.96
448.80	5729.63
448.99	5865.38
449.17	6010.50
449.36	5877.09
449.54	6064.33
449.73	6120.50
449.91	6085.39
450.10	6181.35
450.28	6291.36
450.46	6230.51
450.65	6232.85
450.83	6160.29
451.02	6167.31
451.20	6209.44
451.39	6394.34
451.57	6202.42
451.76	6408.39
451.94	6200.08
452.13	6303.06
452.31	6223.48
452.49	6155.61
452.68	6300.72
452.86	6384.98
453.05	6413.07
453.23	6345.19
453.42	6291.36
453.60	6415.41
453.78	6583.93
453.97	6375.62
454.15	6324.13
454.34	6335.83
454.52	6544.14
454.70	6494.99
454.89	6640.10
455.07	6478.60
455.26	6696.27
455.44	6647.12
455.62	6705.63
455.81	6775.85
455.99	6764.15
456.17	6743.08
456.36	6670.53
456.54	6956.07
456.73	6960.75
456.91	7190.13
457.09	7136.29
457.28	7201.83
457.46	7087.14
457.64	7005.22
457.83	7037.99
458.01	7026.29
458.19	7089.48
458.38	7035.65
458.56	7274.38
458.74	7344.60
458.93	7091.82
459.11	7164.38
459.29	7152.68
459.48	7311.83
459.66	7211.19
459.84	7232.26
460.03	7372.69
460.21	7328.22
460.39	7424.18
460.57	7379.71
460.76	7564.61
460.94	7730.79
461.12	7391.41
461.31	7597.38
461.49	7398.43
461.67	7316.51
461.85	7742.49
462.04	7641.85
462.22	8313.58
462.40	8018.68
462.59	7833.77
462.77	7847.82
462.95	7726.11
463.13	7765.90
463.32	7700.36
463.50	8074.85
463.68	7922.71
463.86	7749.51
464.05	7740.15
464.23	7758.88
464.41	7911.01
464.59	7896.97
464.78	8032.72
464.96	8060.80
465.14	7941.44
465.32	8131.02
465.50	8124.00
465.69	8088.89
465.87	8084.21
466.05	8131.02
466.23	8021.02
466.41	8152.09
466.60	8339.33
466.78	8301.88
466.96	8086.55
467.14	8311.24
467.32	8428.27
467.51	8409.54
467.69	8170.81
467.87	8395.50
468.05	8442.31
468.23	8451.67
468.41	8250.39
468.60	8341.67
468.78	8376.78
468.96	8341.67
469.14	8594.45
469.32	8559.34
469.50	8367.42
469.69	8727.86
469.87	8709.13
470.05	8709.13
470.23	8594.45
470.41	8681.05
470.59	8868.29
470.77	8849.57
470.95	8854.25
471.14	9041.49
471.32	8652.96
471.50	9067.24
471.68	9048.51
471.86	9153.84
472.04	9212.35
472.22	9282.56
472.40	9069.58
472.58	9139.79
472.77	9413.63
472.95	9369.16
473.13	9504.92
473.31	9369.16
473.49	9298.95
473.67	9345.76
473.85	9418.32
474.03	9612.58
474.21	9626.62
474.39	9863.02
474.57	9724.93
474.75	9856.00
474.93	9884.08
475.12	9980.04
475.30	9947.28
475.48	9958.98
475.66	9940.26
475.84	9994.09
476.02	10106.43
476.20	10026.86
476.38	10370.91
476.56	10764.12
476.74	10448.15
476.92	10420.06
477.10	10415.38
477.28	10726.68
477.46	10677.52
477.64	10707.95
477.82	10841.36
478.00	11063.71
478.18	10906.90
478.36	11115.20
478.54	11370.32
478.72	11295.43
478.90	11370.32
479.08	11595.01
479.26	11475.65
479.44	11707.36
479.62	11843.11
479.80	12058.44
479.98	11960.14
480.16	11953.12
480.34	11915.67
480.52	12402.50
480.70	12182.49
480.88	12128.66
481.06	12327.60
481.24	12269.09
481.41	12734.85
481.59	12776.98
481.77	12755.92
481.95	12723.15
482.13	12753.58
482.31	12664.64
482.49	13408.93
482.67	13408.93
482.85	13502.55
483.03	13310.63
483.21	13650.00
483.39	13650.00
483.57	13809.16
483.74	13696.82
483.92	13813.84
484.10	13757.67
484.28	14073.64
484.46	14326.42
484.64	14410.68
484.82	14326.42
485.00	14714.95
485.18	14618.99
485.35	14651.75
485.53	14747.72
485.71	14958.36
485.89	15080.07
486.07	15009.86
486.25	15232.21
486.43	15232.21
486.61	15501.37
486.78	15620.74
486.96	15517.75
487.14	15920.32
487.32	15920.32
487.50	16175.44
487.68	16334.60
487.85	16489.07
488.03	16283.11
488.21	16774.62
488.39	16547.59
488.57	16933.78
488.75	17041.44
488.92	17352.73
489.10	17146.76
489.28	17135.06
489.46	17425.29
489.64	17516.57
489.81	17771.69
489.99	17940.21
490.17	17898.08
490.35	18412.99
490.53	17919.14
490.70	18618.96
490.88	17998.72
491.06	18647.05
491.24	18452.78
491.41	18649.39
491.59	18803.86
491.77	18703.22
491.95	19061.32
492.13	19133.88
492.30	19405.38
492.48	19599.65
492.66	19749.44
492.84	19641.78
493.01	20119.24
493.19	19920.30
493.37	20177.76
493.54	20278.40
493.72	20299.47
493.90	20238.61
494.08	20875.24
494.25	20716.08
494.43	20816.72
494.61	21139.72
494.79	20994.61
494.96	20982.90
495.14	21095.25
495.32	21170.15
495.49	21315.26
495.67	21401.86
495.85	21476.76
496.02	21537.61
496.20	22033.80
496.38	21888.69
496.55	22171.89
496.73	22354.46
496.91	22099.34
497.09	22354.46
497.26	22647.02
497.44	22286.58
497.62	22537.02
497.79	22780.43
497.97	22464.46
498.14	22874.06
498.32	23065.98
498.50	22960.66
498.67	23358.55
498.85	23325.78
499.03	23428.76
499.20	23700.26
499.38	23686.22
499.56	23810.27
499.73	23836.02
499.91	23950.70
500.08	24409.45
500.26	23917.93
500.44	24390.72
500.61	24112.20
500.79	23936.66
500.97	24582.65
501.14	24725.42
501.32	25036.71
501.49	24643.50
501.67	24802.66
501.84	24828.40
502.02	24966.49
502.20	25209.91
502.37	25266.08
502.55	25200.55
502.72	25944.84
502.90	25502.48
503.07	25118.63
503.25	25067.14
503.43	25352.68
503.60	25827.81
503.78	25813.77
503.95	25720.15
504.13	26195.28
504.30	26068.89
504.48	25752.91
504.65	26345.07
504.83	26403.58
505.01	26492.52
505.18	26080.59
505.36	26387.20
505.53	26916.16
505.71	26733.60
505.88	26410.60
506.06	26785.09
506.23	26757.00
506.41	26916.16
506.58	27002.76
506.76	27072.98
506.93	27292.99
507.11	27108.08
507.28	27606.62
507.46	27346.82
507.63	27318.73
507.81	27428.74
507.98	27234.47
508.16	27751.73
508.33	28144.94
508.50	28177.71
508.68	27793.86
508.85	28144.94
509.03	28229.20
509.20	28404.74
509.38	28587.30
509.55	28559.22
509.73	28460.91
509.90	28680.92
510.08	28510.07
510.25	28449.21
510.42	28844.76
510.60	29078.82
510.77	29165.42
510.95	29022.64
511.12	29259.04
511.30	29352.66
511.47	29308.19
511.64	29483.73
511.82	29619.48
511.99	29057.75
512.17	29542.24
512.34	29511.81
512.51	29898.00
512.69	29895.66
512.86	29907.37
513.04	30045.46
513.21	30101.63
513.38	29879.28
513.56	30132.06
513.73	29963.54
513.90	30120.35
514.08	30078.22
514.25	30408.24
514.43	30581.44
514.60	30616.55
514.77	30787.41
514.95	30979.33
515.12	30773.36
515.29	30871.67
515.47	30927.84
515.64	31154.87
515.81	30824.86
515.99	31070.61
516.16	30871.67
516.33	30955.93
516.51	31494.25
516.68	31047.21
516.85	31122.10
517.03	31414.67
517.20	31419.35
517.37	31388.92
517.54	31452.12
517.72	32137.90
517.89	31515.31
518.06	31325.73
518.24	31576.17
518.41	31632.34
518.58	31592.55
518.75	32016.19
518.93	32283.01
519.10	31903.84
519.27	32648.13
519.45	32025.55
519.62	32496.00
519.79	32025.55
519.96	32596.64
520.14	32907.93
520.31	32568.55
520.48	32907.93
520.65	32318.12
520.83	33167.73
521.00	33181.77
521.17	32905.59
521.34	32739.41
521.52	33640.52
521.69	33523.49
521.86	33631.16
522.03	33310.50
522.20	33312.84
522.38	33738.82
522.55	33687.33
522.72	33750.52
522.89	33787.97
523.07	33968.19
523.24	33406.47
523.41	34005.64
523.58	33825.42
523.75	34146.08
523.92	34345.02
524.10	34274.80
524.27	34326.30
524.44	34394.17
524.61	34433.96
524.78	34586.10
524.96	34672.70
525.13	34462.05
525.30	34824.83
525.47	34621.20
525.64	34838.87
525.81	34714.83
525.98	34665.67
526.16	34714.83
526.33	34742.91
526.50	34555.67
526.67	34838.87
526.84	34939.52
527.01	34665.67
527.18	35161.87
527.36	35440.39
527.53	35468.48
527.70	36112.13
527.87	35536.35
528.04	35751.68
528.21	35580.82
528.38	35271.87
528.55	36212.77
528.72	35770.41
528.89	36170.64
529.07	35634.66
529.24	35501.25
529.41	36364.90
529.58	36044.25
529.75	35903.82
529.92	36187.02
530.09	36308.73
530.26	36392.99
530.43	36203.41
530.60	36385.97
530.77	36306.39
530.94	36432.78
531.11	36222.13
531.28	36940.68
531.46	36343.84
531.63	36746.41
531.80	36460.87
531.97	36575.55
532.14	36507.68
532.31	37127.92
532.48	36708.96
532.65	36919.61
532.82	36882.16
532.99	37069.40
533.16	36400.01
533.33	36837.69
533.50	37113.87
533.67	37081.11
533.84	37228.56
534.01	37156.00
534.18	37158.34
534.35	37961.15
534.52	37675.60
534.69	37130.26
534.86	37823.06
535.03	37443.89
535.20	37600.71
535.37	37687.31
535.54	38071.15
535.71	37794.97
535.88	37809.01
536.05	37888.59
536.22	38155.41
536.38	37944.76
536.55	38239.67
536.72	37900.29
536.89	37785.61
537.06	37893.27
537.23	38043.07
537.40	38024.34
537.57	37872.21
537.74	38546.28
537.91	38998.01
538.08	38635.22
538.25	38443.30
538.42	38581.39
538.59	38227.97
538.75	38085.20
538.92	38321.59
539.09	38567.35
539.26	38909.07
539.43	38199.88
539.60	38904.38
539.77	39115.03
539.94	38939.49
540.11	38506.49
540.28	38658.63
540.44	38492.45
540.61	38824.81
540.78	38880.98
540.95	39201.63
541.12	38410.53
541.29	38639.90
541.46	38852.89
541.62	38742.89
541.79	39381.85
541.96	38787.36
542.13	38888.00
542.30	39288.23
542.47	39634.63
542.63	38988.64
542.80	39711.87
542.97	39761.02
543.14	39580.80
543.31	39735.27
543.48	39723.57
543.64	40175.30
543.81	40055.93
543.98	39894.43
544.15	39580.80
544.32	39845.28
544.48	40362.54
544.65	40353.18
544.82	40275.94
544.99	39562.08
545.16	40212.74
545.32	40140.19
545.49	40610.64
545.66	40568.51
545.83	40456.16
546.00	40732.34
546.16	40832.99
546.33	40512.33
546.50	40048.91
546.67	40809.58
546.83	40147.21
547.00	40961.72
547.17	40659.79
547.34	40275.94
547.50	40566.16
547.67	40573.19
547.84	40788.52
548.00	40657.45
548.17	40818.94
548.34	40753.41
548.51	40690.21
548.67	41219.17
548.84	41315.14
549.01	40980.44
549.18	40865.75
549.34	41209.81
549.51	41530.47
549.68	41254.28
549.84	41556.21
550.01	41453.23
550.18	40779.15
550.34	41261.30
550.51	41270.67
550.68	41155.98
550.84	40882.14
551.01	41144.28
551.18	41404.08
551.34	41734.09
551.51	41881.55
551.68	41605.36
551.84	41755.16
552.01	41170.02
552.18	41352.58
552.34	41448.55
552.51	41806.65
552.68	41586.64
552.84	41605.36
553.01	41933.04
553.18	41930.70
553.34	42038.36
553.51	41556.21
553.67	42185.82
553.84	41933.04
554.01	42588.39
554.17	42047.72
554.34	42277.10
554.51	42188.16
554.67	42272.42
554.84	42384.76
555.00	42050.06
555.17	41986.87
555.33	42401.14
555.50	42129.64
555.67	42377.74
555.83	42103.90
556.00	42258.37
556.16	42745.20
556.33	42792.01
556.50	42106.24
556.66	42574.34
556.83	42351.99
556.99	42677.33
557.16	42747.54
557.32	42522.85
557.49	42822.44
557.65	41949.42
557.82	42693.71
557.98	42529.87
558.15	42398.80
558.32	42483.06
558.48	42848.19
558.65	42656.26
558.81	42658.60
558.98	42803.72
559.14	42866.91
559.31	42850.53
559.47	42862.23
559.64	43110.33
559.80	42836.48
559.97	43091.60
560.13	42663.28
560.30	42436.25
560.46	43140.75
560.63	42887.98
560.79	43339.70
560.96	43449.70
561.12	42621.16
561.29	43096.28
561.45	42768.61
561.61	43192.25
561.78	43016.71
561.94	42932.45
562.11	42857.55
562.27	43508.22
562.44	43210.97
562.60	43065.86
562.77	43517.58
562.93	43140.75
563.10	43257.78
563.26	43328.00
563.42	43236.72
563.59	43316.29
563.75	43367.79
563.92	43421.62
564.08	43283.53
564.24	43650.99
564.41	43475.45
564.57	43475.45
564.74	43379.49
564.90	43246.08
565.07	43686.10
565.23	43185.22
565.39	42857.55
565.56	43571.41
565.72	43089.26
565.88	43267.14
566.05	43278.85
566.21	43037.77
566.38	43349.06
566.54	43552.69
566.70	43852.28
566.87	43426.30
567.03	43831.21
567.19	43892.07
567.36	43590.14
567.52	43735.25
567.68	43957.60
567.85	43782.06
568.01	43636.95
568.17	43863.98
568.34	44032.50
568.50	43655.67
568.66	43281.19
568.83	44020.80
568.99	43414.60
569.15	43482.47
569.32	43564.39
569.48	43704.82
569.64	44208.04
569.81	43531.62
569.97	43543.33
570.13	43988.03
570.30	43789.08
570.46	43248.42
570.62	43349.06
570.78	43578.43
570.95	43320.98
571.11	43805.47
571.27	43730.57
571.43	43849.94
571.60	44236.12
571.76	43885.04
571.92	43920.15
572.09	43742.27
572.25	43161.82
572.41	43650.99
572.57	43871.00
572.74	44275.91
572.90	44105.06
573.06	43737.59
573.22	44041.86
573.38	43840.57
573.55	43428.64
573.71	43686.10
573.87	43669.72
574.03	43311.61
574.20	43573.75
574.36	43950.58
574.52	44034.84
574.68	43812.49
574.84	44032.50
575.01	43973.98
575.17	44119.10
575.33	44196.34
575.49	43686.10
575.65	44177.61
575.82	44149.53
575.98	44182.29
576.14	44280.60
576.30	44039.52
576.46	43950.58
576.62	43973.98
576.79	43861.64
576.95	43529.28
577.11	44128.46
577.27	43826.53
577.43	44032.50
577.59	44011.43
577.75	44163.57
577.92	43510.56
578.08	43927.17
578.24	43966.96
578.40	43959.94
578.56	44201.02
578.72	44196.34
578.88	43772.70
579.04	44130.80
579.21	44350.81
579.37	43931.86
579.53	43920.15
579.69	43625.25
579.85	43868.66
580.01	43981.01
580.17	44156.55
580.33	44116.76
580.49	44320.38
580.65	44149.53
580.82	44175.27
580.98	44170.59
581.14	43920.15
581.30	44100.37
581.46	44245.49
581.62	44023.14
581.78	44191.65
581.94	44528.69
582.10	43873.34
582.26	44245.49
582.42	44114.42
582.58	43761.00
582.74	43730.57
582.90	44313.36
583.06	44528.69
583.22	44009.09
583.38	44245.49
583.54	44516.99
583.70	43945.90
583.86	44142.50
584.02	43753.97
584.18	44341.45
584.34	44105.06
584.50	43955.26
584.66	43835.89
584.82	43978.67
584.98	44760.40
585.14	44378.90
585.30	44177.61
585.46	44212.72
585.62	44011.43
585.78	44289.96
585.94	43690.78
586.10	44428.05
586.26	44114.42
586.42	44383.58
586.58	44385.92
586.74	44041.86
586.90	44051.22
587.06	44055.90
587.22	43997.39
587.38	44009.09
587.54	44596.57
587.70	45095.10
587.86	44652.74
588.02	44383.58
588.18	44577.84
588.34	44032.50
588.49	43941.22
588.65	43971.64
588.81	44472.52
588.97	43929.51
589.13	44147.18
589.29	44158.89
589.45	44451.45
589.61	44509.97
589.77	44467.84
589.93	44683.17
590.08	44648.06
590.24	44992.12
590.40	44795.51
