SpectraSuite Data File
++++++++++++++++++++++++++++++++++++
Date: Fri Oct 25 11:24:01 EDT 2013
User: price-jones
Dark Spectrum Present: No
Reference Spectrum Present: No
Number of Sampled Component Spectra: 1
Spectrometers: USB2+H05261
Integration Time (usec): 100000 (USB2+H05261)
Spectra Averaged: 1 (USB2+H05261)
Boxcar Smoothing: 0 (USB2+H05261)
Correct for Electrical Dark: No (USB2+H05261)
Strobe/Lamp Enabled: No (USB2+H05261)
Correct for Detector Non-linearity: No (USB2+H05261)
Correct for Stray Light: No (USB2+H05261)
Number of Pixels in Processed Spectrum: 2048
>>>>>Begin Processed Spectral Data<<<<<
365.73	203.63
365.92	203.63
366.12	203.63
366.32	133.41
366.52	163.84
366.72	131.07
366.91	133.41
367.11	168.52
367.31	70.22
367.51	67.88
367.70	163.84
367.90	203.63
368.10	140.43
368.30	154.48
368.49	84.26
368.69	245.76
368.89	124.05
369.09	184.90
369.28	234.05
369.48	173.20
369.68	220.01
369.87	208.31
370.07	191.92
370.27	285.55
370.47	283.20
370.66	578.11
370.86	662.37
371.06	671.73
371.25	748.97
371.45	690.46
371.65	685.78
371.84	643.65
372.04	674.07
372.24	608.54
372.44	713.86
372.63	727.91
372.83	711.52
373.03	758.33
373.22	779.40
373.42	791.10
373.62	807.48
373.81	767.70
374.01	835.57
374.21	858.98
374.40	826.21
374.60	861.32
374.79	786.42
374.99	835.57
375.19	887.06
375.38	851.96
375.58	884.72
375.78	840.25
375.97	898.77
376.17	868.34
376.37	903.45
376.56	847.27
376.76	863.66
376.95	915.15
377.15	959.62
377.35	952.60
377.54	936.21
377.74	938.55
377.93	894.08
378.13	898.77
378.33	908.13
378.52	954.94
378.72	1015.79
378.91	1022.81
379.11	912.81
379.31	854.30
379.50	854.30
379.70	926.85
379.89	1015.79
380.09	938.55
380.28	959.62
380.48	957.28
380.68	1050.90
380.87	1090.69
381.07	978.34
381.26	1011.11
381.46	994.73
381.65	999.41
381.85	1048.56
382.04	1020.47
382.24	1123.46
382.43	1062.60
382.63	1121.12
382.83	1069.62
383.02	1111.75
383.22	1046.22
383.41	1071.97
383.61	1090.69
383.80	1078.99
384.00	1090.69
384.19	1212.40
384.39	1090.69
384.58	1181.97
384.78	1228.78
384.97	1165.59
385.17	1121.12
385.36	1107.07
385.56	1144.52
385.75	1125.80
385.95	1165.59
386.14	1212.40
386.34	1203.04
386.53	1137.50
386.72	1177.29
386.92	1249.85
387.11	1242.82
387.31	1193.67
387.50	1224.10
387.70	1235.80
387.89	1263.89
388.09	1242.82
388.28	1369.21
388.48	1247.51
388.67	1275.59
388.86	1303.68
389.06	1366.87
389.25	1385.60
389.45	1357.51
389.64	1334.11
389.84	1348.15
390.03	1306.02
390.22	1401.98
390.42	1336.45
390.61	1315.38
390.81	1378.58
391.00	1448.79
391.19	1427.73
391.39	1434.75
391.58	1547.09
391.78	1476.88
391.97	1523.69
392.16	1486.24
392.36	1521.35
392.55	1537.73
392.75	1542.41
392.94	1533.05
393.13	1533.05
393.33	1490.92
393.52	1577.52
393.71	1460.49
393.91	1586.88
394.10	1591.56
394.29	1682.85
394.49	1675.82
394.68	1664.12
394.88	1652.42
395.07	1650.08
395.26	1591.56
395.46	1619.65
395.65	1668.80
395.84	1741.36
396.04	1788.17
396.23	1689.87
396.42	1797.53
396.62	1783.49
396.81	1713.27
397.00	1825.62
397.19	1785.83
397.39	1891.15
397.58	1823.28
397.77	1802.21
397.97	1865.41
398.16	1863.07
398.35	1928.60
398.55	1888.81
398.74	1942.64
398.93	1933.28
399.12	1968.39
399.32	1891.15
399.51	2036.27
399.70	1921.58
399.90	1959.03
400.09	2003.50
400.28	2040.95
400.47	2015.20
400.67	2106.48
400.86	2092.44
401.05	2092.44
401.24	2118.18
401.44	2036.27
401.63	2230.53
401.82	2094.78
402.01	2146.27
402.21	2167.34
402.40	2251.60
402.59	2155.63
402.78	2183.72
402.97	2296.07
403.17	2319.47
403.36	2272.66
403.55	2263.30
403.74	2429.48
403.93	2347.56
404.13	2352.24
404.32	2450.54
404.51	2347.56
404.70	2361.60
404.89	2368.62
405.09	2434.16
405.28	2532.46
405.47	2457.56
405.66	2553.52
405.85	2525.44
406.05	2487.99
406.24	2607.36
406.43	2630.76
406.62	2532.46
406.81	2736.09
407.00	2537.14
407.20	2532.46
407.39	2675.23
407.58	2691.62
407.77	2759.49
407.96	2782.90
408.15	2736.09
408.34	2752.47
408.54	2757.15
408.73	2745.45
408.92	2857.79
409.11	2871.84
409.30	2806.30
409.49	2864.82
409.68	2923.33
409.87	2935.03
410.07	2960.78
410.26	3016.95
410.45	2958.44
410.64	2984.18
410.83	3157.38
411.02	3169.09
411.21	3248.66
411.40	3243.98
411.59	3150.36
411.78	3248.66
411.98	3145.68
412.17	3248.66
412.36	3321.22
412.55	3419.52
412.74	3541.23
412.93	3447.61
413.12	3358.67
413.31	3550.59
413.50	3578.68
413.69	3522.51
413.88	3648.90
414.07	3609.11
414.26	3576.34
414.45	3634.85
414.64	3705.07
414.83	3698.05
415.02	3786.99
415.22	3829.12
415.41	3866.56
415.60	3950.82
415.79	3936.78
415.98	3995.29
416.17	4021.04
416.36	3857.20
416.55	3927.42
416.74	4067.85
416.93	3974.23
417.12	4056.15
417.31	4091.26
417.50	4124.02
417.69	4346.37
417.88	4311.27
418.07	4301.90
418.26	4395.53
418.45	4360.42
418.64	4575.75
418.83	4550.00
419.02	4491.49
419.21	4496.17
419.39	4655.33
419.58	4545.32
419.77	4573.41
419.96	4629.58
420.15	4531.28
420.34	4667.03
420.53	4559.36
420.72	4547.66
420.91	4571.07
421.10	4919.81
421.29	4781.71
421.48	4833.21
421.67	4690.43
421.86	4868.31
422.05	4802.78
422.24	4910.44
422.43	4830.87
422.61	4980.66
422.80	4924.49
422.99	4814.48
423.18	4947.89
423.37	5004.07
423.56	4915.12
423.75	5015.77
423.94	4971.30
424.13	4601.49
424.32	4798.10
424.50	4861.29
424.69	5093.01
424.88	5121.09
425.07	4931.51
425.26	4882.36
425.45	5071.94
425.64	4933.85
425.83	5001.72
426.01	5020.45
426.20	5100.03
426.39	5193.65
426.58	5186.63
426.77	5025.13
426.96	5102.37
427.15	5177.26
427.33	5231.10
427.52	5242.80
427.71	5252.16
427.90	5191.31
428.09	5359.83
428.28	5343.44
428.46	5240.46
428.65	5275.57
428.84	5504.94
429.03	5479.19
429.22	5277.91
429.40	5682.82
429.59	5549.41
429.78	5165.56
429.97	5268.55
430.16	5542.39
430.34	5624.31
430.53	5549.41
430.72	5626.65
430.91	5596.22
431.10	5537.71
431.28	5659.42
431.47	5947.30
431.66	5736.65
431.85	5657.07
432.03	5987.09
432.22	5998.79
432.41	5919.21
432.60	5940.28
432.79	5937.94
432.97	6101.78
433.16	6066.67
433.35	6087.73
433.54	6209.44
433.72	6012.84
433.91	6127.52
434.10	6207.10
434.28	6174.33
434.47	6342.85
434.66	6314.77
434.85	5987.09
435.03	6347.53
435.22	6256.25
435.41	6448.18
435.59	6363.92
435.78	6436.47
435.97	6490.31
436.16	6562.86
436.34	6326.47
436.53	6408.39
436.72	6752.45
436.90	6600.31
437.09	6722.02
437.28	6555.84
437.46	6441.15
437.65	6597.97
437.84	6731.38
438.02	6647.12
438.21	6738.40
438.40	6785.21
438.58	6995.86
438.77	7049.69
438.96	7000.54
439.14	7049.69
439.33	7199.49
439.52	7281.41
439.70	7213.53
439.89	7431.20
440.08	7494.40
440.26	7466.31
440.45	7454.61
440.63	7557.59
440.82	7562.27
441.01	7545.89
441.19	7707.38
441.38	7784.62
441.57	7742.49
441.75	7822.07
441.94	8032.72
442.12	7985.91
442.31	7868.88
442.50	8051.44
442.68	7946.12
442.87	8126.34
443.05	8180.17
443.24	8180.17
443.43	8180.17
443.61	8212.94
443.80	8411.89
443.98	8049.10
444.17	7882.92
444.35	8095.91
444.54	8245.71
444.73	8255.07
444.91	8454.02
445.10	8449.33
445.28	8299.54
445.47	8470.40
445.65	8414.23
445.84	8365.07
446.02	8512.53
446.21	8582.74
446.39	8484.44
446.58	8472.74
446.77	8486.78
446.95	8311.24
447.14	8620.19
447.32	8585.08
447.51	8638.92
447.69	8336.99
447.88	8374.44
448.06	8631.90
448.25	8535.93
448.43	8636.58
448.62	8535.93
448.80	8599.13
448.99	8692.75
449.17	8741.90
449.36	8732.54
449.54	8854.25
449.73	8952.55
449.91	9008.72
450.10	8945.53
450.28	9121.07
450.46	9156.18
450.65	9104.68
450.83	9100.00
451.02	9041.49
451.20	9254.48
451.39	9228.73
451.57	9048.51
451.76	9060.21
451.94	9287.25
452.13	9453.42
452.31	9446.40
452.49	9057.87
452.68	9394.91
452.86	9357.46
453.05	9572.79
453.23	9586.83
453.42	9603.22
453.60	9305.97
453.78	9701.52
453.97	9427.68
454.15	9334.06
454.34	9598.54
454.52	9645.35
454.70	9734.29
454.89	9699.18
455.07	9844.29
455.26	9783.44
455.44	9968.34
455.62	10001.11
455.81	10033.88
455.99	9956.64
456.17	9909.83
456.36	10122.82
456.54	10373.25
456.73	10340.49
456.91	10506.66
457.09	10672.84
457.28	10497.30
457.46	10434.11
457.64	10501.98
457.83	10380.28
458.01	10345.17
458.19	10616.67
458.38	10590.92
458.56	10609.65
458.74	10689.23
458.93	10775.83
459.11	10855.40
459.29	10881.15
459.48	10878.81
459.66	10864.77
459.84	11009.88
460.03	11150.31
460.21	11047.33
460.39	10892.85
460.57	10885.83
460.76	11087.12
460.94	11253.30
461.12	11138.61
461.31	11068.39
461.49	10977.11
461.67	11300.11
461.85	11487.35
462.04	11328.19
462.22	11609.06
462.40	11639.48
462.59	11618.42
462.77	11407.77
462.95	11871.20
463.13	11679.27
463.32	11786.94
463.50	11719.06
463.68	11929.71
463.86	11962.48
464.05	11754.17
464.23	11719.06
464.41	11950.78
464.59	11672.25
464.78	12109.93
464.96	12049.08
465.14	12140.36
465.32	12205.89
465.50	12294.83
465.69	12259.73
465.87	11974.18
466.05	11978.86
466.23	12175.47
466.41	12252.70
466.60	12463.35
466.78	12400.16
466.96	12233.98
467.14	12245.68
467.32	12552.29
467.51	12498.46
467.69	12217.60
467.87	12526.55
468.05	12461.01
468.23	12491.44
468.41	12587.40
468.60	12652.94
468.78	12798.05
468.96	12709.11
469.14	12896.35
469.32	12929.12
469.50	12549.95
469.69	12926.78
469.87	13245.09
470.05	13137.43
470.23	13139.77
470.41	13359.78
470.59	13298.92
470.77	13207.64
470.95	13437.02
471.14	13689.79
471.32	13118.70
471.50	13586.81
471.68	13652.34
471.86	13572.77
472.04	13638.30
472.22	14221.10
472.40	13673.41
472.58	13984.70
472.77	13980.02
472.95	14579.20
473.13	14916.23
473.31	14083.00
473.49	14295.99
473.67	14160.24
473.85	14310.04
474.03	14497.28
474.21	14743.03
474.39	14846.02
474.57	14796.87
474.75	14853.04
474.93	14857.72
475.12	15063.69
475.30	15070.71
475.48	14750.06
475.66	15426.47
475.84	15108.16
476.02	15407.75
476.20	15489.67
476.38	15906.28
476.56	16074.80
476.74	15974.16
476.92	15920.32
477.10	15990.54
477.28	16238.64
477.46	16156.72
477.64	16402.47
477.82	16659.93
478.00	16943.14
478.18	17053.14
478.36	17085.91
478.54	17025.06
478.72	16978.25
478.90	17631.26
479.08	17816.16
479.26	17752.96
479.44	17678.07
479.62	17860.63
479.80	18052.55
479.98	18136.81
480.16	18394.27
480.34	18359.16
480.52	18916.21
480.70	18817.91
480.88	18614.28
481.06	18600.24
481.24	18752.37
481.41	19115.16
481.59	19470.92
481.77	19536.45
481.95	19456.87
482.13	19714.33
482.31	19711.99
482.49	20322.87
482.67	20240.95
482.85	19976.47
483.03	20610.76
483.21	20877.58
483.39	20924.39
483.57	20856.51
483.74	21296.53
483.92	21441.65
484.10	21343.35
484.28	21781.03
484.46	21961.25
484.64	22597.87
484.82	22361.48
485.00	22342.75
485.18	22485.53
485.35	23000.44
485.53	23016.83
485.71	22991.08
485.89	23548.13
486.07	23431.10
486.25	23709.63
486.43	23470.89
486.61	23946.02
486.78	24194.12
486.96	24276.04
487.14	24535.84
487.32	24882.24
487.50	25092.88
487.68	25352.68
487.85	25067.14
488.03	25490.77
488.21	26064.21
488.39	25762.28
488.57	26237.41
488.75	26525.29
488.92	26309.96
489.10	26899.78
489.28	27098.72
489.46	27164.26
489.64	27030.85
489.81	27873.44
489.99	27594.92
490.17	27974.08
490.35	28299.42
490.53	28130.90
490.70	28287.71
490.88	28521.77
491.06	28755.82
491.24	29048.39
491.41	29511.81
491.59	29415.85
491.77	29661.61
491.95	30040.78
492.13	29860.55
492.30	29488.41
492.48	30265.47
492.66	30218.66
492.84	30506.54
493.01	30686.76
493.19	30567.40
493.37	30993.37
493.54	31150.19
493.72	31842.99
493.90	31901.50
494.08	31716.60
494.25	31981.08
494.43	32219.81
494.61	32357.91
494.79	32208.11
494.96	32666.86
495.14	33116.24
495.32	33170.07
495.49	33259.01
495.67	33453.28
495.85	33741.16
496.02	34054.79
496.20	34380.13
496.38	34059.48
496.55	34155.44
496.73	35215.70
496.91	34740.57
497.09	34773.34
497.26	35079.95
497.44	35154.85
497.62	35622.95
497.79	35754.02
497.97	35627.63
498.14	35892.12
498.32	36872.80
498.50	36357.88
498.67	36613.00
498.85	36893.86
499.03	36624.70
499.20	36975.78
499.38	37399.42
499.56	37481.34
499.73	37177.07
499.91	37312.82
500.08	37682.62
500.26	37624.11
500.44	37923.70
500.61	38181.16
500.79	37766.88
500.97	38616.50
501.14	38796.72
501.32	38316.91
501.49	38899.70
501.67	38918.43
501.84	39304.62
502.02	38555.64
502.20	38983.96
502.37	39456.75
502.55	39325.68
502.72	40039.54
502.90	39498.88
503.07	39562.08
503.25	39859.32
503.43	40079.33
503.60	40067.63
503.78	40460.84
503.95	40346.15
504.13	40830.65
504.30	40994.48
504.48	40931.29
504.65	40772.13
504.83	41092.79
505.01	41347.90
505.18	41385.35
505.36	41958.78
505.53	41338.54
505.71	41734.09
505.88	41633.45
506.06	41462.59
506.23	41991.55
506.41	41757.50
506.58	42206.88
506.76	42436.25
506.93	42384.76
507.11	42836.48
507.28	42454.98
507.46	42595.41
507.63	43236.72
507.81	43297.57
507.98	43061.18
508.16	43154.80
508.33	43648.65
508.50	43367.79
508.68	43693.12
508.85	44404.64
509.03	44013.77
509.20	44116.76
509.38	44657.42
509.55	44456.14
509.73	44446.77
509.90	44811.90
510.08	44655.08
510.25	44734.66
510.42	44821.26
510.60	45287.03
510.77	45345.54
510.95	45059.99
511.12	45474.27
511.30	45443.84
511.47	45481.29
511.64	46040.68
511.82	46092.17
511.99	45682.58
512.17	46389.42
512.34	45998.55
512.51	46401.12
512.69	46384.74
512.86	46532.19
513.04	46571.98
513.21	46579.00
513.38	46754.54
513.56	47033.07
513.73	47157.11
513.90	46923.06
514.08	46693.69
514.25	47756.29
514.43	47807.78
514.60	47522.24
514.77	47327.97
514.95	47737.57
515.12	47856.93
515.29	47435.64
515.47	48172.91
515.64	48493.56
515.81	47840.55
515.99	48147.16
516.16	48603.56
516.33	48575.48
516.51	48868.05
516.68	48837.62
516.85	48423.34
517.03	48964.01
517.20	49029.54
517.37	48903.15
517.54	48903.15
517.72	49490.63
517.89	49642.76
518.06	49389.98
518.24	49560.84
518.41	49474.24
518.58	49488.29
518.75	49715.32
518.93	49315.09
519.10	49485.95
519.27	49897.88
519.45	49935.33
519.62	49895.54
519.79	49881.50
519.96	49986.82
520.14	50459.61
520.31	50298.11
520.48	50337.90
520.65	50227.90
520.83	50527.48
521.00	50571.96
521.17	50953.46
521.34	50632.81
521.52	51065.81
521.69	50925.38
521.86	51437.95
522.03	51283.48
522.20	51559.66
522.38	51222.62
522.55	51201.56
522.72	51484.76
522.89	51419.23
523.07	51629.88
523.24	51583.07
523.41	51826.48
523.58	51377.10
523.75	52142.45
523.92	52048.83
524.10	52032.45
524.27	51957.55
524.44	52215.01
524.61	52294.59
524.78	52371.83
524.96	52378.85
525.13	52198.63
525.30	52584.82
525.47	52533.32
525.64	52886.74
525.81	52327.36
525.98	53041.22
526.16	52804.83
526.33	52795.46
526.50	52989.73
526.67	52907.81
526.84	52886.74
527.01	52718.23
527.18	53195.70
527.36	52971.00
527.53	53406.34
527.70	53532.73
527.87	53059.94
528.04	53375.92
528.21	53488.26
528.38	53298.68
528.55	53886.15
528.72	53504.65
528.89	53537.41
529.07	53574.86
529.24	53544.44
529.41	53668.48
529.58	53689.55
529.75	53848.71
529.92	53890.83
530.09	53918.92
530.26	53982.12
530.43	54363.62
530.60	53947.01
530.77	54115.53
530.94	54152.97
531.11	54057.01
531.28	54190.42
531.46	54417.46
531.63	54309.79
531.80	54415.11
531.97	54419.80
532.14	54756.83
532.31	54569.59
532.48	54747.47
532.65	54705.34
532.82	54583.63
532.99	54703.00
533.16	54567.25
533.33	54993.23
533.50	54948.76
533.67	54658.53
533.84	54653.85
534.01	54766.20
534.18	54822.37
534.35	55414.52
534.52	55138.34
534.69	55072.81
534.86	55426.23
535.03	55182.81
535.20	55447.29
535.37	55255.37
535.54	55384.10
535.71	55243.66
535.88	55449.63
536.05	55517.51
536.22	55735.18
536.38	55873.27
536.55	55360.69
536.72	55730.50
536.89	55676.66
537.06	55922.42
537.23	55798.37
537.40	55702.41
537.57	55831.14
537.74	55711.77
537.91	55889.65
538.08	55994.98
538.25	55676.66
538.42	55997.32
538.59	56020.72
538.75	56119.02
538.92	56079.24
539.09	56240.73
539.26	56278.18
539.43	56240.73
539.60	56376.48
539.77	56264.14
539.94	56521.60
540.11	56542.66
540.28	56722.88
540.44	56701.82
540.61	56502.87
540.78	56516.92
540.95	56488.83
541.12	56495.85
541.29	56638.62
541.46	56479.47
541.62	56741.61
541.79	56816.50
541.96	56484.15
542.13	56687.78
542.30	56772.03
542.47	56821.19
542.63	57078.64
542.80	56942.89
542.97	57389.94
543.14	57352.49
543.31	57132.48
543.48	57661.44
543.64	57511.64
543.81	57467.17
543.98	57406.32
544.15	57647.39
544.32	57595.90
544.48	57677.82
544.65	57532.71
544.82	57694.21
544.99	57331.42
545.16	57684.84
545.32	57502.28
545.49	57858.04
545.66	57806.55
545.83	57895.49
546.00	57724.63
546.16	57598.24
546.33	57705.91
546.50	57518.67
546.67	57996.13
546.83	57677.82
547.00	57790.17
547.17	57773.78
547.34	57914.22
547.50	58024.22
547.67	58054.65
547.84	58227.85
548.00	58106.14
548.17	58251.25
548.34	58005.50
548.51	58213.80
548.67	58468.92
548.84	58347.21
549.01	58401.05
549.18	58253.59
549.34	58387.00
549.51	58377.64
549.68	58482.97
549.84	58583.61
550.01	58461.90
550.18	58424.45
550.34	58691.27
550.51	58719.36
550.68	58438.50
550.84	58241.89
551.01	58646.80
551.18	58672.55
551.34	58539.14
551.51	58646.80
551.68	58550.84
551.84	58499.35
552.01	58602.33
552.18	58756.81
552.34	58653.82
552.51	58759.15
552.68	58712.34
552.84	58780.21
553.01	59049.38
553.18	58801.28
553.34	58965.12
553.51	58784.90
553.67	58937.03
553.84	59077.46
554.01	59007.25
554.17	59070.44
554.34	59143.00
554.51	59147.68
554.67	59199.17
554.84	59105.55
555.00	59276.41
555.17	59330.24
555.33	59096.19
555.50	59178.10
555.67	59056.40
555.83	59236.62
556.00	59327.90
556.16	59573.66
556.33	59075.12
556.50	59229.60
556.66	59435.56
556.83	59168.74
556.99	59526.84
557.16	59686.00
557.32	59545.57
557.49	59735.15
557.65	59381.73
557.82	59615.79
557.98	59655.57
558.15	59597.06
558.32	59508.12
558.48	59529.19
558.65	59473.01
558.81	59552.59
558.98	59669.62
559.14	59700.04
559.31	59852.18
559.47	59999.63
559.64	59840.48
559.80	59929.42
559.97	59746.86
560.13	59627.49
560.30	59796.01
560.46	59880.27
560.63	59938.78
560.79	59760.90
560.96	59962.18
561.12	59945.80
561.29	59952.82
561.45	59920.05
561.61	59861.54
561.78	59786.64
561.94	59880.27
562.11	60135.38
562.27	59882.61
562.44	60154.11
562.60	60100.28
562.77	60102.62
562.93	59901.33
563.10	59838.14
563.26	60137.72
563.42	60308.58
563.59	59964.52
563.75	60212.62
563.92	60037.08
564.08	59920.05
564.24	60214.96
564.41	60027.72
564.57	60226.66
564.74	60184.54
564.90	60179.85
565.07	60065.17
565.23	60233.69
565.39	60210.28
565.56	60313.26
565.72	60219.64
565.88	60224.32
566.05	59929.42
566.21	60371.78
566.38	60149.43
566.54	60175.17
566.70	60463.06
566.87	60441.99
567.03	60205.60
567.19	60467.74
567.36	60224.32
567.52	60219.64
567.68	60615.19
567.85	60292.20
568.01	60460.72
568.17	60285.18
568.34	60640.94
568.50	60250.07
568.66	60498.17
568.83	60512.21
568.99	60423.27
569.15	60533.28
569.32	60385.82
569.48	60636.26
569.64	60502.85
569.81	60360.08
569.97	60381.14
570.13	60477.10
570.30	60474.76
570.46	60769.67
570.62	60743.92
570.78	60479.44
570.95	60535.62
571.11	60722.86
571.27	60439.65
571.43	60615.19
571.60	60839.89
571.76	60533.28
571.92	60720.52
572.09	60729.88
572.25	60809.46
572.41	60498.17
572.57	60701.79
572.74	60938.19
572.90	60509.87
573.06	60701.79
573.22	60636.26
573.38	60722.86
573.55	60598.81
573.71	60739.24
573.87	60739.24
574.03	60638.60
574.20	60903.08
574.36	60608.17
574.52	60715.84
574.68	60790.73
574.84	60863.29
575.01	60753.29
575.17	60736.90
575.33	60704.13
575.49	60706.47
575.65	60947.55
575.82	61036.49
575.98	60940.53
576.14	60980.32
576.30	60966.27
576.46	60823.50
576.62	60954.57
576.79	60884.36
576.95	60783.71
577.11	60874.99
577.27	60938.19
577.43	60982.66
577.59	60736.90
577.75	60947.55
577.92	60786.05
578.08	60804.78
578.24	60910.10
578.40	61022.45
578.56	61045.85
578.72	60779.03
578.88	60961.59
579.04	61141.81
579.21	61099.68
579.37	61038.83
579.53	61085.64
579.69	60846.91
579.85	61001.38
580.01	61167.56
580.17	60774.35
580.33	61092.66
580.49	61052.87
580.65	61057.56
580.82	61020.11
580.98	60877.33
581.14	60786.05
581.30	60980.32
581.46	60807.12
581.62	60896.06
581.78	60945.21
581.94	61422.68
582.10	60882.02
582.26	61132.45
582.42	61155.86
582.58	61095.00
582.74	61031.81
582.90	61071.60
583.06	60994.36
583.22	60874.99
583.38	61043.51
583.54	61066.92
583.70	61080.96
583.86	61181.60
584.02	60886.70
584.18	61228.41
584.34	60921.80
584.50	61144.16
584.66	60963.93
584.82	60959.25
584.98	61329.06
585.14	60959.25
585.30	61059.90
585.46	61141.81
585.62	61155.86
585.78	61085.64
585.94	60814.14
586.10	61041.17
586.26	61148.84
586.42	61106.71
586.58	61247.14
586.74	61382.89
586.90	61148.84
587.06	60940.53
587.22	61247.14
587.38	61104.37
587.54	61310.33
587.70	61427.36
587.86	61001.38
588.02	60952.23
588.18	61338.42
588.34	60970.96
588.49	61153.52
