SpectraSuite Data File
++++++++++++++++++++++++++++++++++++
Date: Fri Oct 25 10:44:16 EDT 2013
User: price-jones
Dark Spectrum Present: No
Reference Spectrum Present: No
Number of Sampled Component Spectra: 1
Spectrometers: USB2+H05261
Integration Time (usec): 100000 (USB2+H05261)
Spectra Averaged: 1 (USB2+H05261)
Boxcar Smoothing: 0 (USB2+H05261)
Correct for Electrical Dark: No (USB2+H05261)
Strobe/Lamp Enabled: No (USB2+H05261)
Correct for Detector Non-linearity: No (USB2+H05261)
Correct for Stray Light: No (USB2+H05261)
Number of Pixels in Processed Spectrum: 2048
>>>>>Begin Processed Spectral Data<<<<<
365.73	105.32
365.92	105.32
366.12	105.32
366.32	25.75
366.52	0.00
366.72	37.45
366.91	18.72
367.11	39.79
367.31	0.00
367.51	14.04
367.70	145.11
367.90	77.24
368.10	9.36
368.30	110.01
368.49	21.06
368.69	11.70
368.89	67.88
369.09	77.24
369.28	0.00
369.48	4.68
369.68	133.41
369.87	88.94
370.07	117.03
370.27	180.22
370.47	198.95
370.66	400.23
370.86	435.34
371.06	477.47
371.25	580.45
371.45	491.51
371.65	449.38
371.84	411.93
372.04	442.36
372.24	433.00
372.44	454.06
372.63	482.15
372.83	571.09
373.03	547.69
373.22	505.56
373.42	493.85
373.62	486.83
373.81	524.28
374.01	589.82
374.21	554.71
374.40	603.86
374.60	526.62
374.79	533.64
374.99	585.13
375.19	543.00
375.38	582.79
375.58	573.43
375.78	615.56
375.97	585.13
376.17	667.05
376.37	603.86
376.56	599.18
376.76	617.90
376.95	624.92
377.15	634.29
377.35	674.07
377.54	755.99
377.74	594.50
377.93	657.69
378.13	627.26
378.33	664.71
378.52	657.69
378.72	657.69
378.91	631.94
379.11	655.35
379.31	667.05
379.50	692.80
379.70	683.44
379.89	678.76
380.09	676.41
380.28	709.18
380.48	681.10
380.68	667.05
380.87	737.27
381.07	737.27
381.26	730.25
381.46	739.61
381.65	739.61
381.85	683.44
382.04	737.27
382.24	695.14
382.43	713.86
382.63	739.61
382.83	706.84
383.02	788.76
383.22	809.83
383.41	765.36
383.61	828.55
383.80	805.14
384.00	770.04
384.19	828.55
384.39	781.74
384.58	802.80
384.78	821.53
384.97	830.89
385.17	784.08
385.36	774.72
385.56	835.57
385.75	840.25
385.95	854.30
386.14	894.08
386.34	840.25
386.53	887.06
386.72	924.51
386.92	887.06
387.11	828.55
387.31	910.47
387.50	819.19
387.70	800.46
387.89	828.55
388.09	891.74
388.28	854.30
388.48	901.11
388.67	947.92
388.86	903.45
389.06	936.21
389.25	1029.84
389.45	943.24
389.64	952.60
389.84	973.66
390.03	994.73
390.22	973.66
390.42	997.07
390.61	1039.20
390.81	1029.84
391.00	1090.69
391.19	1074.31
391.39	1008.77
391.58	1086.01
391.78	1027.50
391.97	1025.15
392.16	1083.67
392.36	985.37
392.55	964.30
392.75	1032.18
392.94	1022.81
393.13	1006.43
393.33	973.66
393.52	1006.43
393.71	1067.28
393.91	980.68
394.10	1074.31
394.29	1165.59
394.49	1219.42
394.68	1181.97
394.88	1245.16
395.07	1245.16
395.26	1224.10
395.46	1184.31
395.65	1198.35
395.84	1224.10
396.04	1193.67
396.23	1114.10
396.42	1146.86
396.62	1270.91
396.81	1186.65
397.00	1074.31
397.19	1289.64
397.39	1364.53
397.58	1514.33
397.77	1327.08
397.97	1380.92
398.16	1441.77
398.35	1394.96
398.55	1500.28
398.74	1448.79
398.93	1474.54
399.12	1444.11
399.32	1476.88
399.51	1500.28
399.70	1533.05
399.90	1495.60
400.09	1586.88
400.28	1476.88
400.47	1526.03
400.67	1694.55
400.86	1668.80
401.05	1666.46
401.24	1633.69
401.44	1710.93
401.63	1792.85
401.82	1621.99
402.01	1703.91
402.21	1589.22
402.40	1729.66
402.59	1741.36
402.78	1781.15
402.97	1767.10
403.17	1792.85
403.36	1900.52
403.55	1902.86
403.74	1870.09
403.93	1863.07
404.13	1851.36
404.32	1790.51
404.51	1893.49
404.70	1942.64
404.89	1944.99
405.09	2005.84
405.28	1867.75
405.47	1947.33
405.66	1968.39
405.85	1987.11
406.05	1984.77
406.24	2005.84
406.43	2003.50
406.62	1994.14
406.81	2200.10
407.00	2136.91
407.20	2083.08
407.39	2094.78
407.58	2253.94
407.77	2200.10
407.96	2141.59
408.15	2200.10
408.34	2235.21
408.54	2202.44
408.73	2326.49
408.92	2307.77
409.11	2352.24
409.30	2415.43
409.49	2249.25
409.68	2249.25
409.87	2354.58
410.07	2239.89
410.26	2401.39
410.45	2366.28
410.64	2406.07
410.83	2513.74
411.02	2422.45
411.21	2593.31
411.40	2555.86
411.59	2595.65
411.78	2668.21
411.98	2619.06
412.17	2607.36
412.36	2614.38
412.55	2703.32
412.74	2778.22
412.93	2738.43
413.12	2920.99
413.31	2806.30
413.50	2750.13
413.69	2780.56
413.88	2911.63
414.07	2956.10
414.26	2897.58
414.45	2949.08
414.64	2967.80
414.83	3000.57
415.02	3080.14
415.22	3173.77
415.41	3126.96
415.60	3105.89
415.79	3143.34
415.98	3166.74
416.17	3131.64
416.36	3141.00
416.55	3155.04
416.74	3290.79
416.93	3262.71
417.12	3403.14
417.31	3302.50
417.50	3281.43
417.69	3361.01
417.88	3440.59
418.07	3428.88
418.26	3485.06
418.45	3361.01
418.64	3646.55
418.83	3548.25
419.02	3503.78
419.21	3625.49
419.39	3620.81
419.58	3510.80
419.77	3552.93
419.96	3559.95
420.15	3662.94
420.34	3609.11
420.53	3634.85
420.72	3871.25
420.91	3810.39
421.10	3775.28
421.29	3922.74
421.48	3726.13
421.67	3803.37
421.86	3873.59
422.05	3824.44
422.24	3817.41
422.43	3779.97
422.61	3936.78
422.80	3864.22
422.99	3964.87
423.18	3861.88
423.37	3969.55
423.56	4014.02
423.75	3962.53
423.94	3758.90
424.13	3637.19
424.32	3749.54
424.50	3943.80
424.69	4023.38
424.88	3960.19
425.07	3904.01
425.26	3967.21
425.45	4007.00
425.64	3971.89
425.83	3950.82
426.01	3950.82
426.20	4039.76
426.39	3992.95
426.58	4018.70
426.77	3941.46
426.96	3913.38
427.15	3955.51
427.33	4063.17
427.52	4142.75
427.71	4100.62
427.90	4135.73
428.09	4163.81
428.28	4184.88
428.46	4121.68
428.65	4337.01
428.84	4219.99
429.03	4322.97
429.22	4238.71
429.40	4208.28
429.59	4131.05
429.78	3889.97
429.97	3892.31
430.16	4049.13
430.34	4060.83
430.53	4067.85
430.72	4086.58
430.91	4236.37
431.10	4397.87
431.28	4470.42
431.47	4592.13
431.66	4671.71
431.85	4603.83
432.03	4622.56
432.22	4655.33
432.41	4709.16
432.60	4683.41
432.79	4744.27
432.97	4936.19
433.16	4706.82
433.35	4657.67
433.54	4706.82
433.72	4720.86
433.91	4737.24
434.10	4788.74
434.28	4758.31
434.47	4842.57
434.66	4968.96
434.85	4837.89
435.03	4919.81
435.22	4983.00
435.41	5097.69
435.59	5144.50
435.78	5160.88
435.97	5156.20
436.16	5069.60
436.34	5074.28
436.53	5100.03
436.72	5315.36
436.90	5060.24
437.09	5167.90
437.28	5053.22
437.46	5210.03
437.65	5018.11
437.84	5160.88
438.02	5224.08
438.21	5181.95
438.40	5142.16
438.58	5329.40
438.77	5336.42
438.96	5352.81
439.14	5511.96
439.33	5518.98
439.52	5542.39
439.70	5570.48
439.89	5797.51
440.08	5724.95
440.26	5734.31
440.45	5591.54
440.63	5895.81
440.82	5806.87
441.01	5881.77
441.19	6045.60
441.38	6197.74
441.57	6239.87
441.75	6146.25
441.94	6265.61
442.12	6244.55
442.31	6392.00
442.50	6541.80
442.68	6242.21
442.87	6462.22
443.05	6326.47
443.24	6562.86
443.43	6431.79
443.61	6534.78
443.80	6745.42
443.98	6396.68
444.17	6232.85
444.35	6565.20
444.54	6527.75
444.73	6527.75
444.91	6581.59
445.10	6408.39
445.28	6399.02
445.47	6459.88
445.65	6382.64
445.84	6511.37
446.02	6462.22
446.21	6640.10
446.39	6548.82
446.58	6640.10
446.77	6686.91
446.95	6485.62
447.14	6672.87
447.32	6654.14
447.51	6572.22
447.69	6544.14
447.88	6782.87
448.06	6630.74
448.25	6691.59
448.43	6789.89
448.62	6743.08
448.80	6668.19
448.99	6768.83
449.17	6815.64
449.36	6621.38
449.54	6836.70
449.73	7068.42
449.91	7110.55
450.10	7197.15
450.28	7274.38
450.46	7192.47
450.65	7187.79
450.83	7281.41
451.02	7169.06
451.20	7281.41
451.39	7066.08
451.57	7173.74
451.76	6993.52
451.94	7283.75
452.13	7148.00
452.31	7117.57
452.49	7304.81
452.68	7035.65
452.86	7159.70
453.05	7300.13
453.23	7255.66
453.42	7295.45
453.60	7428.86
453.78	7346.94
453.97	7384.39
454.15	7407.80
454.34	7393.75
454.52	7552.91
454.70	7562.27
454.89	7646.53
455.07	7655.89
455.26	7541.21
455.44	7742.49
455.62	7569.29
455.81	7761.22
455.99	7801.01
456.17	8079.53
456.36	7885.26
456.54	7892.29
456.73	8042.08
456.91	7967.18
457.09	7971.86
457.28	8128.68
457.46	8021.02
457.64	8297.20
457.83	8163.79
458.01	7927.39
458.19	8229.32
458.38	8236.35
458.56	8271.45
458.74	8196.56
458.93	8355.71
459.11	8507.85
459.29	8325.29
459.48	8250.39
459.66	8372.10
459.84	8404.86
460.03	8533.59
460.21	8538.27
460.39	8477.42
460.57	8477.42
460.76	8610.83
460.94	8451.67
461.12	8475.08
461.31	8695.09
461.49	8554.66
461.67	8711.47
461.85	8772.33
462.04	8725.52
462.22	9107.02
462.40	9046.17
462.59	9064.89
462.77	8716.16
462.95	8905.74
463.13	8875.31
463.32	9036.81
463.50	8856.59
463.68	9050.85
463.86	8903.40
464.05	8844.88
464.23	8877.65
464.41	9025.11
464.59	8908.08
464.78	9217.03
464.96	9144.47
465.14	8999.36
465.32	9238.09
465.50	9210.01
465.69	9406.61
465.87	9383.21
466.05	9174.90
466.23	9062.55
466.41	9018.08
466.60	9352.78
466.78	9378.53
466.96	9320.01
467.14	9212.35
467.32	9188.94
467.51	9577.47
467.69	9081.28
467.87	9212.35
468.05	9462.79
468.23	9331.72
468.41	9390.23
468.60	9525.98
468.78	9621.94
468.96	9661.73
469.14	9729.61
469.32	9666.41
469.50	9467.47
469.69	9591.52
469.87	9703.86
470.05	9708.54
470.23	9895.78
470.41	9863.02
470.59	10050.26
470.77	9902.81
470.95	10157.92
471.14	10244.52
471.32	9921.53
471.50	10349.85
471.68	10443.47
471.86	10291.34
472.04	10314.74
472.22	10544.11
472.40	10406.02
472.58	10579.22
472.77	10698.59
472.95	10532.41
473.13	10878.81
473.31	10619.01
473.49	10410.70
473.67	10614.33
473.85	10827.32
474.03	11033.29
474.21	11023.92
474.39	11026.26
474.57	11143.29
474.75	11180.74
474.93	11206.48
475.12	11110.52
475.30	11414.79
475.48	11164.36
475.66	11295.43
475.84	11222.87
476.02	11482.67
476.20	11487.35
476.38	11878.22
476.56	11967.16
476.74	11913.33
476.92	11592.67
477.10	11896.94
477.28	12308.88
477.46	11999.93
477.64	12231.64
477.82	12407.18
478.00	12652.94
478.18	12575.70
478.36	12592.08
478.54	12727.83
478.72	12842.52
478.90	12830.82
479.08	12854.22
479.26	13069.55
479.44	13111.68
479.62	13348.08
479.80	13317.65
479.98	13315.31
480.16	13862.99
480.34	13579.79
480.52	13610.22
480.70	13851.29
480.88	13624.26
481.06	13734.26
481.24	14057.26
481.41	14345.14
481.59	14340.46
481.77	14427.06
481.95	14527.71
482.13	14717.29
482.31	14750.06
482.49	14579.20
482.67	14757.08
482.85	14979.43
483.03	15253.27
483.21	15374.98
483.39	15576.27
483.57	15461.58
483.74	15400.72
483.92	15627.76
484.10	15620.74
484.28	15707.34
484.46	16327.58
484.64	16100.55
484.82	16154.38
485.00	16332.26
485.18	16355.66
485.35	16835.47
485.53	16236.30
485.71	16285.45
485.89	16566.31
486.07	16395.45
486.25	16695.04
486.43	16748.87
486.61	16891.65
486.78	17242.73
486.96	17439.33
487.14	17841.90
487.32	17610.19
487.50	17949.57
487.68	18366.18
487.85	18520.66
488.03	18476.19
488.21	18452.78
488.39	18677.48
488.57	18789.82
488.75	18927.91
488.92	18845.99
489.10	19461.55
489.28	19506.02
489.46	19700.29
489.64	19969.45
489.81	20119.24
489.99	20034.99
490.17	19985.83
490.35	20442.24
490.53	20175.42
490.70	20606.08
490.88	20524.16
491.06	20776.94
491.24	21022.69
491.41	21067.16
491.59	20877.58
491.77	20528.84
491.95	21025.03
492.13	21465.05
492.30	21708.47
492.48	21577.40
492.66	21699.11
492.84	21935.50
493.01	22342.75
493.19	22071.25
493.37	22089.98
493.54	22616.60
493.72	22499.57
493.90	22443.40
494.08	22948.95
494.25	22981.72
494.43	23496.64
494.61	23679.20
494.79	23655.79
494.96	23365.57
495.14	23269.61
495.32	23403.02
495.49	23810.27
495.67	23676.86
495.85	23978.79
496.02	24458.60
496.20	24587.33
496.38	24507.75
496.55	24514.77
496.73	24835.42
496.91	24910.32
497.09	25067.14
497.26	25331.62
497.44	25039.05
497.62	25106.93
497.79	25113.95
497.97	24926.71
498.14	25500.14
498.32	25458.01
498.50	25675.68
498.67	25844.20
498.85	26185.91
499.03	26363.79
499.20	26256.13
499.38	26492.52
499.56	26125.06
499.73	26429.33
499.91	26309.96
500.08	26651.68
500.26	26359.11
500.44	26478.48
500.61	26485.50
500.79	26623.59
500.97	27044.89
501.14	27283.62
501.32	27143.19
501.49	27283.62
501.67	27370.22
501.84	27082.34
502.02	27328.10
502.20	27433.42
502.37	28107.49
502.55	27550.45
502.72	28151.96
502.90	28215.16
503.07	27782.16
503.25	28304.10
503.43	28252.61
503.60	28107.49
503.78	28259.63
503.95	28268.99
504.13	28669.22
504.30	28989.88
504.48	28725.39
504.65	28900.94
504.83	29055.41
505.01	29401.81
505.18	28900.94
505.36	29481.39
505.53	29418.19
505.71	29579.69
505.88	29542.24
506.06	29551.60
506.23	29933.11
506.41	29516.50
506.58	29649.91
506.76	29710.76
506.93	30361.43
507.11	30305.26
507.28	30445.69
507.46	30054.82
507.63	30096.95
507.81	30487.82
507.98	30249.08
508.16	30448.03
508.33	30534.63
508.50	30904.43
508.68	30855.28
508.85	31110.40
509.03	30682.08
509.20	30911.46
509.38	31225.09
509.55	31096.36
509.73	31473.18
509.90	31400.63
510.08	31569.15
510.25	31548.08
510.42	31754.05
510.60	31826.60
510.77	32149.60
510.95	32009.17
511.12	32308.76
511.30	32643.45
511.47	32341.52
511.64	32713.67
511.82	32329.82
511.99	32343.86
512.17	32215.13
512.34	32437.48
512.51	32481.95
512.69	32788.56
512.86	32720.69
513.04	32652.81
513.21	32863.46
513.38	32865.80
513.56	32666.86
513.73	32826.01
513.90	33048.36
514.08	32952.40
514.25	33069.43
514.43	33418.17
514.60	33656.90
514.77	33242.63
514.95	33731.80
515.12	33975.22
515.29	33720.10
515.47	33895.64
515.64	33797.34
515.81	33876.91
515.99	33865.21
516.16	33872.23
516.33	33654.56
516.51	34328.64
516.68	33504.77
516.85	33022.62
517.03	33401.79
517.20	33949.47
517.37	34244.38
517.54	34558.01
517.72	34139.05
517.89	34141.39
518.06	34401.19
518.24	34623.54
518.41	34197.57
518.58	34742.91
518.75	34511.20
518.93	34801.43
519.10	34862.28
519.27	35180.59
519.45	35374.86
519.62	35072.93
519.79	35206.34
519.96	35875.73
520.14	35707.21
520.31	35590.19
520.48	35732.96
520.65	35496.56
520.83	36212.77
521.00	36194.04
521.17	35938.93
521.34	35690.83
521.52	36219.79
521.69	36385.97
521.86	36786.20
522.03	36060.63
522.20	36287.67
522.38	36147.23
522.55	36591.94
522.72	36252.56
522.89	36287.67
523.07	37010.89
523.24	36128.51
523.41	36603.64
523.58	36715.98
523.75	37074.09
523.92	37394.74
524.10	37338.57
524.27	37303.46
524.44	37308.14
524.61	37174.73
524.78	37663.90
524.96	38014.98
525.13	37649.86
525.30	37708.37
525.47	38171.80
525.64	37993.92
525.81	37560.92
525.98	37680.28
526.16	37792.63
526.33	37111.53
526.50	37542.19
526.67	37731.78
526.84	37331.54
527.01	37319.84
527.18	38139.03
527.36	38178.82
527.53	38204.56
527.70	38609.48
527.87	38272.44
528.04	38457.34
528.21	38359.04
528.38	38529.90
528.55	39412.28
528.72	38857.57
528.89	39124.40
529.07	38845.87
529.24	38780.34
529.41	38948.85
529.58	38995.67
529.75	39051.84
529.92	39281.21
530.09	39250.78
530.26	39615.91
530.43	39068.22
530.60	39299.94
530.77	39356.11
530.94	39292.91
531.11	39761.02
531.28	39959.97
531.46	39765.70
531.63	39718.89
531.80	39119.71
531.97	39435.69
532.14	39381.85
532.31	39423.98
532.48	39627.61
532.65	39735.27
532.82	39538.67
532.99	40226.79
533.16	40172.96
533.33	39964.65
533.50	40392.97
533.67	40039.54
533.84	40194.02
534.01	40313.39
534.18	39885.07
534.35	40430.41
534.52	40580.21
534.69	40650.42
534.86	40849.37
535.03	40612.98
535.20	40935.97
535.37	41308.11
535.54	40950.01
535.71	40315.73
535.88	40900.86
536.05	40596.59
536.22	41069.38
536.38	40950.01
536.55	41010.87
536.72	40533.40
536.89	40722.98
537.06	40882.14
537.23	41141.94
537.40	41109.17
537.57	41230.88
537.74	41493.02
537.91	41813.67
538.08	41375.99
538.25	41277.69
538.42	41425.14
538.59	41209.81
538.75	40825.96
538.92	41380.67
539.09	41605.36
539.26	41441.53
539.43	41322.16
539.60	41434.50
539.77	41434.50
539.94	41331.52
540.11	41102.15
540.28	41326.84
540.44	41961.12
540.61	41474.29
540.78	41518.76
540.95	41600.68
541.12	41698.98
541.29	41937.72
541.46	41584.30
541.62	42277.10
541.79	42206.88
541.96	41918.99
542.13	42162.41
542.30	42333.27
542.47	41897.93
542.63	42593.07
542.80	42139.00
542.97	42447.96
543.14	42630.52
543.31	42792.01
543.48	42408.17
543.64	42927.77
543.81	43047.13
543.98	42726.48
544.15	42897.34
544.32	43150.12
544.48	43786.74
544.65	43138.41
544.82	42965.21
544.99	42930.11
545.16	42934.79
545.32	42974.58
545.49	43849.94
545.66	43709.50
545.83	43054.15
546.00	43557.37
546.16	42955.85
546.33	43145.44
546.50	42902.02
546.67	43543.33
546.83	43367.79
547.00	43367.79
547.17	43515.24
547.34	43810.15
547.50	43452.05
547.67	43676.74
547.84	43419.28
548.00	43426.30
548.17	43854.62
548.34	43604.18
548.51	43938.88
548.67	43955.26
548.84	43770.36
549.01	43826.53
549.18	44201.02
549.34	43861.64
549.51	44233.78
549.68	44184.63
549.84	43828.87
550.01	43887.39
550.18	44163.57
550.34	43966.96
550.51	44051.22
550.68	44091.01
550.84	43721.21
551.01	44105.06
551.18	44114.42
551.34	44006.75
551.51	44341.45
551.68	44683.17
551.84	44662.10
552.01	43990.37
552.18	44428.05
552.34	44112.08
552.51	44811.90
552.68	44278.25
552.84	44720.62
553.01	44240.81
553.18	44240.81
553.34	44268.89
553.51	44505.29
553.67	44933.60
553.84	44987.44
554.01	45221.49
554.17	44872.75
554.34	45001.48
554.51	44999.14
554.67	45310.43
554.84	45308.09
555.00	45048.29
555.17	44903.18
555.33	44727.64
555.50	44783.81
555.67	44800.19
555.83	44706.57
556.00	45137.23
556.16	44952.33
556.33	45013.18
556.50	44832.96
556.66	44961.69
556.83	44786.15
556.99	45755.13
557.16	45254.26
557.32	45429.80
557.49	45654.49
557.65	45392.35
557.82	45165.32
557.98	45015.52
558.15	45357.24
558.32	45305.75
558.48	44942.97
558.65	45453.20
558.81	45216.81
558.98	45104.46
559.14	45291.71
559.31	45207.45
559.47	45382.99
559.64	45420.44
559.80	45570.23
559.97	45357.24
560.13	45291.71
560.30	45691.94
560.46	45464.91
560.63	45787.90
560.79	46050.04
560.96	45720.02
561.12	45280.00
561.29	45605.34
561.45	45635.77
561.61	45813.65
561.78	45640.45
561.94	45336.18
562.11	45256.60
562.27	45200.43
562.44	45666.19
562.60	45769.18
562.77	45975.14
562.93	45897.91
563.10	45865.14
563.26	45357.24
563.42	45797.26
563.59	45443.84
563.75	45525.76
563.92	45696.62
564.08	45727.05
564.24	45986.85
564.41	45586.61
564.57	45476.61
564.74	45600.66
564.90	45928.33
565.07	46010.25
565.23	45303.41
565.39	45865.14
565.56	45858.12
565.72	45352.56
565.88	45736.41
566.05	45558.53
566.21	45839.39
566.38	45462.57
566.54	45949.40
566.70	46103.87
566.87	46569.64
567.03	46218.56
567.19	46646.88
567.36	45869.82
567.52	46024.29
567.68	46415.16
567.85	45968.12
568.01	46487.72
568.17	45935.35
568.34	46483.04
568.50	45614.70
568.66	45818.33
568.83	45846.41
568.99	45544.48
569.15	45918.97
569.32	45991.53
569.48	46089.83
569.64	46274.73
569.81	46089.83
569.97	46047.70
570.13	45968.12
570.30	45911.95
570.46	45673.21
570.62	45832.37
570.78	45455.54
570.95	45907.27
571.11	46368.35
571.27	45766.84
571.43	46148.34
571.60	46162.39
571.76	46028.98
571.92	45642.79
572.09	46178.77
572.25	46108.55
572.41	45930.67
572.57	46174.09
572.74	46351.97
572.90	46595.38
573.06	46342.61
573.22	46316.86
573.38	46134.30
573.55	46274.73
573.71	46323.88
573.87	46160.05
574.03	46204.52
574.20	46146.00
574.36	46108.55
574.52	45862.80
574.68	45776.20
574.84	46335.59
575.01	46164.73
575.17	46246.65
575.33	45591.30
575.49	46000.89
575.65	46351.97
575.82	46141.32
575.98	45916.63
576.14	46398.78
576.30	46398.78
576.46	46185.79
576.62	45715.34
576.79	46021.95
576.95	46534.53
577.11	46244.30
577.27	46101.53
577.43	46307.50
577.59	46244.30
577.75	46169.41
577.92	46028.98
578.08	46061.74
578.24	46014.93
578.40	46155.36
578.56	46148.34
578.72	45961.10
578.88	46239.62
579.04	45963.44
579.21	46244.30
579.37	46600.07
579.53	46464.32
579.69	45724.71
579.85	46169.41
580.01	46490.06
580.17	45879.18
580.33	46258.35
580.49	46773.27
580.65	46302.82
580.82	46295.80
580.98	46150.68
581.14	46113.23
581.30	46902.00
581.46	46749.86
581.62	46480.70
581.78	46487.72
581.94	47164.14
582.10	46115.58
582.26	46686.67
582.42	46195.15
582.58	46003.23
582.74	46150.68
582.90	46597.73
583.06	46403.46
583.22	46593.04
583.38	46684.33
583.54	46583.68
583.70	46876.25
583.86	46492.40
584.02	46347.29
584.18	46358.99
584.34	46314.52
584.50	46043.02
584.66	46146.00
584.82	46192.81
584.98	46696.03
585.14	46288.77
585.30	45933.01
585.46	46188.13
585.62	45881.52
585.78	46136.64
585.94	45909.61
586.10	46522.83
586.26	46099.19
586.42	46478.36
586.58	46234.94
586.74	46408.14
586.90	46326.22
587.06	46237.28
587.22	46653.90
587.38	45886.20
587.54	46349.63
587.70	46330.90
587.86	46394.10
588.02	46270.05
588.18	46155.36
588.34	46286.43
588.49	45755.13
588.65	45560.87
588.81	45305.75
588.97	46078.13
589.13	45799.60
589.29	45668.53
589.45	46101.53
589.61	46099.19
589.77	45895.56
589.93	46122.60
