SpectraSuite Data File
++++++++++++++++++++++++++++++++++++
Date: Fri Oct 25 11:26:07 EDT 2013
User: price-jones
Dark Spectrum Present: No
Reference Spectrum Present: No
Number of Sampled Component Spectra: 1
Spectrometers: USB2+H05261
Integration Time (usec): 100000 (USB2+H05261)
Spectra Averaged: 1 (USB2+H05261)
Boxcar Smoothing: 0 (USB2+H05261)
Correct for Electrical Dark: No (USB2+H05261)
Strobe/Lamp Enabled: No (USB2+H05261)
Correct for Detector Non-linearity: No (USB2+H05261)
Correct for Stray Light: No (USB2+H05261)
Number of Pixels in Processed Spectrum: 2048
>>>>>Begin Processed Spectral Data<<<<<
365.73	271.50
365.92	271.50
366.12	271.50
366.32	236.39
366.52	159.16
366.72	196.60
366.91	159.16
367.11	149.79
367.31	147.45
367.51	114.69
367.70	84.26
367.90	177.88
368.10	189.58
368.30	135.75
368.49	138.09
368.69	156.82
368.89	177.88
369.09	142.77
369.28	124.05
369.48	180.22
369.68	184.90
369.87	304.27
370.07	203.63
370.27	285.55
370.47	334.70
370.66	650.67
370.86	594.50
371.06	638.97
371.25	622.58
371.45	650.67
371.65	739.61
371.84	748.97
372.04	699.82
372.24	681.10
372.44	713.86
372.63	697.48
372.83	809.83
373.03	746.63
373.22	706.84
373.42	772.38
373.62	784.08
373.81	828.55
374.01	819.19
374.21	882.38
374.40	711.52
374.60	842.59
374.79	889.40
374.99	772.38
375.19	903.45
375.38	891.74
375.58	826.21
375.78	816.85
375.97	830.89
376.17	894.08
376.37	884.72
376.56	877.70
376.76	873.02
376.95	814.51
377.15	877.70
377.35	1001.75
377.54	823.87
377.74	919.83
377.93	873.02
378.13	835.57
378.33	908.13
378.52	891.74
378.72	968.98
378.91	926.85
379.11	908.13
379.31	931.53
379.50	990.05
379.70	961.96
379.89	973.66
380.09	924.51
380.28	983.02
380.48	938.55
380.68	985.37
380.87	938.55
381.07	992.39
381.26	1008.77
381.46	964.30
381.65	1041.54
381.85	971.32
382.04	1083.67
382.24	1060.26
382.43	1095.37
382.63	1053.24
382.83	1057.92
383.02	1118.78
383.22	1170.27
383.41	1043.88
383.61	1095.37
383.80	1184.31
384.00	1107.07
384.19	1086.01
384.39	1090.69
384.58	1083.67
384.78	1078.99
384.97	1109.41
385.17	1191.33
385.36	1151.54
385.56	1142.18
385.75	1111.75
385.95	1167.93
386.14	1114.10
386.34	1135.16
386.53	1219.42
386.72	1184.31
386.92	1252.19
387.11	1219.42
387.31	1273.25
387.50	1289.64
387.70	1254.53
387.89	1299.00
388.09	1273.25
388.28	1268.57
388.48	1277.93
388.67	1341.13
388.86	1385.60
389.06	1336.45
389.25	1315.38
389.45	1373.89
389.64	1291.98
389.84	1329.42
390.03	1352.83
390.22	1397.30
390.42	1357.51
390.61	1397.30
390.81	1329.42
391.00	1394.96
391.19	1460.49
391.39	1392.62
391.58	1418.36
391.78	1469.86
391.97	1486.24
392.16	1556.46
392.36	1530.71
392.55	1427.73
392.75	1507.30
392.94	1528.37
393.13	1591.56
393.33	1472.20
393.52	1540.07
393.71	1526.03
393.91	1556.46
394.10	1614.97
394.29	1629.01
394.49	1605.61
394.68	1582.20
394.88	1624.33
395.07	1605.61
395.26	1750.72
395.46	1664.12
395.65	1706.25
395.84	1717.95
396.04	1778.81
396.23	1755.40
396.42	1729.66
396.62	1746.04
396.81	1727.32
397.00	1776.47
397.19	1781.15
397.39	1813.92
397.58	1863.07
397.77	1755.40
397.97	1874.77
398.16	1823.28
398.35	1989.46
398.55	1811.57
398.74	1830.30
398.93	1980.09
399.12	1870.09
399.32	1975.41
399.51	1935.62
399.70	2008.18
399.90	1984.77
400.09	2043.29
400.28	2026.90
400.47	2012.86
400.67	2092.44
400.86	2111.16
401.05	2029.24
401.24	2101.80
401.44	2057.33
401.63	2022.22
401.82	2073.71
402.01	2113.50
402.21	2228.19
402.40	2235.21
402.59	2209.47
402.78	2125.21
402.97	2335.85
403.17	2230.53
403.36	2286.70
403.55	2392.03
403.74	2335.85
403.93	2392.03
404.13	2377.98
404.32	2303.09
404.51	2457.56
404.70	2509.05
404.89	2394.37
405.09	2469.27
405.28	2406.07
405.47	2448.20
405.66	2457.56
405.85	2387.35
406.05	2544.16
406.24	2480.97
406.43	2459.90
406.62	2649.49
406.81	2731.41
407.00	2635.44
407.20	2672.89
407.39	2654.17
407.58	2712.68
407.77	2715.02
407.96	2747.79
408.15	2792.26
408.34	2747.79
408.54	2722.04
408.73	2726.72
408.92	2801.62
409.11	2857.79
409.30	2853.11
409.49	2883.54
409.68	2848.43
409.87	2913.97
410.07	3063.76
410.26	2965.46
410.45	2949.08
410.64	3073.12
410.83	3119.93
411.02	3054.40
411.21	3136.32
411.40	3049.72
411.59	3166.74
411.78	3192.49
411.98	3178.45
412.17	3215.90
412.36	3262.71
412.55	3272.07
412.74	3302.50
412.93	3339.94
413.12	3335.26
413.31	3585.70
413.50	3377.39
413.69	3447.61
413.88	3515.48
414.07	3461.65
414.26	3585.70
414.45	3503.78
414.64	3667.62
414.83	3726.13
415.02	3751.88
415.22	3805.71
415.41	3843.16
415.60	3836.14
415.79	3948.48
415.98	4070.19
416.17	3948.48
416.36	4018.70
416.55	3871.25
416.74	3868.91
416.93	4053.81
417.12	4119.34
417.31	4259.78
417.50	4166.15
417.69	4362.76
417.88	4250.41
418.07	4257.43
418.26	4311.27
418.45	4145.09
418.64	4491.49
418.83	4348.72
419.02	4374.46
419.21	4650.64
419.39	4526.60
419.58	4435.32
419.77	4468.08
419.96	4554.68
420.15	4667.03
420.34	4606.17
420.53	4650.64
420.72	4697.46
420.91	4741.93
421.10	4727.88
421.29	4727.88
421.48	4552.34
421.67	4802.78
421.86	4699.80
422.05	4924.49
422.24	4854.27
422.43	4774.69
422.61	4767.67
422.80	4903.42
422.99	4821.50
423.18	4910.44
423.37	4978.32
423.56	4931.51
423.75	4959.60
423.94	4814.48
424.13	4702.14
424.32	4716.18
424.50	5081.30
424.69	5095.35
424.88	5029.81
425.07	4931.51
425.26	4779.37
425.45	5018.11
425.64	4985.34
425.83	4847.25
426.01	5102.37
426.20	4994.70
426.39	4994.70
426.58	5039.17
426.77	5043.85
426.96	4999.38
427.15	5060.24
427.33	5221.74
427.52	5146.84
427.71	5282.59
427.90	5331.74
428.09	5324.72
428.28	5397.28
428.46	5437.06
428.65	5308.34
428.84	5504.94
429.03	5626.65
429.22	5284.93
429.40	5404.30
429.59	5540.05
429.78	5523.66
429.97	5273.23
430.16	5617.29
430.34	5521.32
430.53	5682.82
430.72	5736.65
430.91	5647.71
431.10	5626.65
431.28	5729.63
431.47	5631.33
431.66	5959.00
431.85	5832.62
432.03	5951.98
432.22	5865.38
432.41	5837.30
432.60	5874.74
432.79	5895.81
432.97	5994.11
433.16	5879.43
433.35	5743.67
433.54	6026.88
433.72	6057.31
433.91	6122.84
434.10	6031.56
434.28	6118.16
434.47	6139.23
434.66	6237.53
434.85	6193.06
435.03	6284.34
435.22	6279.66
435.41	6518.39
435.59	6525.41
435.78	6541.80
435.97	6562.86
436.16	6389.66
436.34	6392.00
436.53	6597.97
436.72	6677.55
436.90	6534.78
437.09	6642.44
437.28	6377.96
437.46	6677.55
437.65	6642.44
437.84	6658.82
438.02	6829.68
438.21	6686.91
438.40	6600.31
438.58	7042.67
438.77	6993.52
438.96	6937.35
439.14	7213.53
439.33	7213.53
439.52	7091.82
439.70	6977.14
439.89	7117.57
440.08	7403.11
440.26	7386.73
440.45	7393.75
440.63	7442.90
440.82	7803.35
441.01	7541.21
441.19	7625.47
441.38	7768.24
441.57	7808.03
441.75	7819.73
441.94	7875.90
442.12	7889.95
442.31	8095.91
442.50	7957.82
442.68	7915.69
442.87	8112.30
443.05	8126.34
443.24	8205.92
443.43	8046.76
443.61	7950.80
443.80	8259.75
443.98	8063.15
444.17	7716.75
444.35	8173.15
444.54	8386.14
444.73	8294.86
444.91	8332.31
445.10	8404.86
445.28	8278.47
445.47	8358.05
445.65	8208.26
445.84	8505.51
446.02	8599.13
446.21	8271.45
446.39	8322.94
446.58	8491.46
446.77	8472.74
446.95	8173.15
447.14	8332.31
447.32	8554.66
447.51	8402.52
447.69	8552.32
447.88	8538.27
448.06	8421.25
448.25	8491.46
448.43	8491.46
448.62	8645.94
448.80	8503.17
448.99	8692.75
449.17	8613.17
449.36	8713.81
449.54	8667.00
449.73	9088.30
449.91	8997.02
450.10	9163.20
450.28	8947.87
450.46	9116.39
450.65	9130.43
450.83	9043.83
451.02	9034.47
451.20	9359.80
451.39	9142.13
451.57	9202.99
451.76	8952.55
451.94	9217.03
452.13	9233.41
452.31	9308.31
452.49	9057.87
452.68	9551.73
452.86	9469.81
453.05	9514.28
453.23	9322.35
453.42	9352.78
453.60	9385.55
453.78	9479.17
453.97	9385.55
454.15	9322.35
454.34	9252.14
454.52	9628.96
454.70	9900.47
454.89	9717.90
455.07	9757.69
455.26	9879.40
455.44	9795.14
455.62	9886.42
455.81	9940.26
455.99	10052.60
456.17	10083.03
456.36	10059.62
456.54	9994.09
456.73	10176.65
456.91	10361.55
457.09	10420.06
457.28	10628.37
457.46	10317.08
457.64	10464.54
457.83	10438.79
458.01	10321.76
458.19	10740.72
458.38	10548.79
458.56	10771.15
458.74	10719.65
458.93	10443.47
459.11	10733.70
459.29	10848.38
459.48	10595.61
459.66	11037.97
459.84	10885.83
460.03	11063.71
460.21	10920.94
460.39	11033.29
460.57	10967.75
460.76	11145.63
460.94	11070.73
461.12	11133.93
461.31	11091.80
461.49	11164.36
461.67	11164.36
461.85	11377.34
462.04	11136.27
462.22	11747.15
462.40	11681.61
462.59	11733.11
462.77	11463.94
462.95	11515.44
463.13	11508.41
463.32	11566.93
463.50	11747.15
463.68	11749.49
463.86	11784.60
464.05	11618.42
464.23	11700.34
464.41	11850.13
464.59	11590.33
464.78	11981.20
464.96	11960.14
465.14	11826.73
465.32	11789.28
465.50	12067.80
465.69	12028.01
465.87	12297.17
466.05	11936.73
466.23	12297.17
466.41	12184.83
466.60	12681.02
466.78	12308.88
466.96	12257.39
467.14	12353.35
467.32	12142.70
467.51	12439.95
467.69	11978.86
467.87	12453.99
468.05	12531.23
468.23	12355.69
468.41	12278.45
468.60	12662.30
468.78	12540.59
468.96	12498.46
469.14	12552.29
469.32	12734.85
469.50	12723.15
469.69	12975.93
469.87	13008.70
470.05	13048.49
470.23	13177.22
470.41	13128.06
470.59	13268.50
470.77	13336.37
470.95	13275.52
471.14	13385.52
471.32	13282.54
471.50	13497.87
471.68	13434.68
471.86	13710.86
472.04	13715.54
472.22	14085.34
472.40	13572.77
472.58	13621.92
472.77	13996.40
472.95	14038.53
473.13	14403.66
473.31	13975.34
473.49	14312.38
473.67	14272.59
473.85	14150.88
474.03	14473.87
474.21	14705.59
474.39	14757.08
474.57	14569.83
474.75	14857.72
474.93	15197.10
475.12	14904.53
475.30	15082.41
475.48	15105.82
475.66	15103.48
475.84	15192.42
476.02	15454.56
476.20	15229.87
476.38	15644.14
476.56	15981.18
476.74	15756.49
476.92	15784.57
477.10	15901.60
477.28	15829.04
477.46	16318.22
477.64	16170.76
477.82	16603.76
478.00	16807.39
478.18	16772.28
478.36	16727.81
478.54	17121.02
478.72	16952.50
478.90	17287.20
479.08	17331.67
479.26	17638.28
479.44	17680.41
479.62	17633.60
479.80	17472.10
479.98	18115.75
480.16	18422.36
480.34	18258.52
480.52	18714.92
480.70	18295.97
480.88	18443.42
481.06	18515.98
481.24	18864.72
481.41	19014.51
481.59	19276.65
481.77	19407.72
481.95	19180.69
482.13	19679.22
482.31	19782.21
482.49	19978.81
482.67	20182.44
482.85	20280.74
483.03	20568.63
483.21	20732.47
483.39	21062.48
483.57	20882.26
483.74	20903.32
483.92	21151.42
484.10	21245.04
484.28	21673.36
484.46	21792.73
484.64	22052.53
484.82	21956.57
485.00	22122.74
485.18	22644.68
485.35	22663.41
485.53	22742.99
485.71	23138.54
485.89	23667.50
486.07	23335.14
486.25	23307.05
486.43	23571.54
486.61	23718.99
486.78	24224.54
486.96	24109.86
487.14	24439.87
487.32	24519.45
487.50	25006.28
487.68	24823.72
487.85	25022.67
488.03	25453.33
488.21	25752.91
488.39	25942.50
488.57	25825.47
488.75	26307.62
488.92	26169.53
489.10	26419.97
489.28	26787.43
489.46	27168.94
489.64	26787.43
489.81	27449.80
489.99	27477.89
490.17	27718.96
490.35	28067.70
490.53	28051.32
490.70	28011.53
490.88	28144.94
491.06	28594.32
491.24	28999.24
491.41	28762.84
491.59	29134.99
491.77	29097.54
491.95	29427.56
492.13	29708.42
492.30	30204.61
492.48	29874.60
492.66	30101.63
492.84	30520.59
493.01	30415.26
493.19	30707.83
493.37	31339.77
493.54	30728.89
493.72	31222.75
493.90	31321.05
494.08	31470.84
494.25	32158.96
494.43	32350.88
494.61	32428.12
494.79	32318.12
494.96	32252.58
495.14	32547.49
495.32	33214.54
495.49	32950.06
495.67	33144.33
495.85	33605.41
496.02	33535.20
496.20	34237.36
496.38	33935.43
496.55	34043.09
496.73	34838.87
496.91	34906.75
497.09	34665.67
497.26	34380.13
497.44	34546.31
497.62	35126.76
497.79	35646.36
497.97	35409.96
498.14	35779.77
498.32	35653.38
498.50	36058.29
498.67	36407.03
498.85	35880.41
499.03	36620.02
499.20	36542.78
499.38	36666.83
499.56	36933.65
499.73	36950.04
499.91	37249.63
500.08	37673.26
500.26	37118.56
500.44	37535.17
500.61	37530.49
500.79	37785.61
500.97	37982.21
501.14	38447.98
501.32	38628.20
501.49	38501.81
501.67	39072.90
501.84	38749.91
502.02	38838.85
502.20	38733.53
502.37	39208.65
502.55	39213.34
502.72	39337.38
502.90	39548.03
503.07	39370.15
503.25	39622.93
503.43	39723.57
503.60	39981.03
503.78	40072.31
503.95	40460.84
504.13	40318.07
504.30	40538.08
504.48	40362.54
504.65	40509.99
504.83	40713.62
505.01	41214.49
505.18	41305.77
505.36	41591.32
505.53	41268.33
505.71	41020.23
505.88	41647.49
506.06	41207.47
506.23	41773.88
506.41	41453.23
506.58	42085.17
506.76	42075.81
506.93	42270.08
507.11	42305.18
507.28	42476.04
507.46	42834.14
507.63	42749.88
507.81	43304.59
507.98	42967.55
508.16	42801.38
508.33	43697.80
508.50	43770.36
508.68	43430.98
508.85	43648.65
509.03	44053.56
509.20	43852.28
509.38	44355.49
509.55	44648.06
509.73	44531.03
509.90	44399.96
510.08	44538.05
510.25	44484.22
510.42	44774.45
510.60	44893.82
510.77	45146.59
510.95	45720.02
511.12	45399.37
511.30	44931.26
511.47	45034.25
511.64	45617.04
511.82	45682.58
511.99	45694.28
512.17	45823.01
512.34	45834.71
512.51	46026.63
512.69	46045.36
512.86	46354.31
513.04	46541.55
513.21	46373.03
513.38	46604.75
513.56	46532.19
513.73	46990.94
513.90	46791.99
514.08	46838.80
514.25	47236.69
514.43	47058.81
514.60	47351.38
514.77	47138.39
514.95	47606.50
515.12	47496.49
515.29	47304.57
515.47	47885.02
515.64	47927.15
515.81	47859.27
515.99	48189.29
516.16	48130.78
516.33	48219.72
516.51	48484.20
516.68	48179.93
516.85	48554.41
517.03	48732.29
517.20	48774.42
517.37	48732.29
517.54	49076.35
517.72	48973.37
517.89	48823.58
518.06	49104.44
518.24	49380.62
518.41	49003.80
518.58	49167.63
518.75	49488.29
518.93	49261.26
519.10	49146.57
519.27	49727.02
519.45	49645.10
519.62	49890.86
519.79	49851.07
519.96	50117.89
520.14	50363.65
520.31	49876.82
520.48	50293.43
520.65	50167.04
520.83	50401.10
521.00	50272.37
521.17	50539.19
521.34	50611.74
521.52	50300.45
521.69	50452.59
521.86	50901.97
522.03	50944.10
522.20	51203.90
522.38	51351.35
522.55	51194.54
522.72	51199.22
522.89	51449.66
523.07	51412.21
523.24	51533.92
523.41	51550.30
523.58	51519.87
523.75	51765.63
523.92	51349.01
524.10	51803.08
524.27	51805.42
524.44	51861.59
524.61	51959.89
524.78	51915.42
524.96	52149.48
525.13	51934.15
525.30	52619.92
525.47	52264.16
525.64	52346.08
525.81	52669.08
525.98	52432.68
526.16	52575.45
526.33	52755.68
526.50	52800.15
526.67	53062.29
526.84	53109.10
527.01	52959.30
527.18	52758.02
527.36	52788.44
527.53	52933.56
527.70	53165.27
527.87	53144.20
528.04	53029.52
528.21	53432.09
528.38	53385.28
528.55	53345.49
528.72	53326.77
528.89	53396.98
529.07	53439.11
529.24	53640.40
529.41	53558.48
529.58	53621.67
529.75	53822.96
529.92	53928.28
530.09	53745.72
530.26	54012.54
530.43	54035.95
530.60	53888.49
530.77	53837.00
530.94	54080.42
531.11	54007.86
531.28	54096.80
531.46	53939.99
531.63	54188.08
531.80	54382.35
531.97	54443.20
532.14	54511.08
532.31	54459.58
532.48	54384.69
532.65	54595.34
532.82	54340.22
532.99	54710.02
533.16	54585.97
533.33	54794.28
533.50	54845.77
533.67	54939.39
533.84	54543.84
534.01	54911.31
534.18	55018.97
534.35	55311.54
534.52	54923.01
534.69	55110.25
534.86	55021.31
535.03	55000.25
535.20	55173.45
535.37	55353.67
535.54	55157.06
535.71	55089.19
535.88	55395.80
536.05	55241.32
536.22	55487.08
536.38	55634.53
536.55	55241.32
536.72	55498.78
536.89	55536.23
537.06	55636.87
537.23	55592.40
537.40	55613.47
537.57	55798.37
537.74	55632.19
537.91	56151.79
538.08	56030.08
538.25	55749.22
538.42	55807.73
538.59	55959.87
538.75	55751.56
538.92	55922.42
539.09	56210.31
539.26	56027.74
539.43	56062.85
539.60	56250.09
539.77	56144.77
539.94	56240.73
540.11	56074.55
540.28	56402.23
540.44	56317.97
540.61	56240.73
540.78	56233.71
540.95	56474.79
541.12	56191.58
541.29	56584.79
541.46	56608.20
541.62	56329.67
541.79	56296.91
541.96	56044.13
542.13	56521.60
542.30	56612.88
542.47	56743.95
542.63	56711.18
542.80	56743.95
542.97	57085.67
543.14	57249.50
543.31	56947.57
543.48	57045.88
543.64	57188.65
543.81	57104.39
543.98	57499.94
544.15	57378.23
544.32	57504.62
544.48	57586.54
544.65	57200.35
544.82	57401.64
544.99	57284.61
545.16	57591.22
545.32	57242.48
545.49	57406.32
545.66	57757.40
545.83	57471.85
546.00	57593.56
546.16	57476.54
546.33	57537.39
546.50	57319.72
546.67	57656.76
546.83	57368.87
547.00	57790.17
547.17	57640.37
547.34	57844.00
547.50	58047.63
547.67	58075.71
547.84	57829.96
548.00	57975.07
548.17	57996.13
548.34	57923.58
548.51	58047.63
548.67	58068.69
548.84	57993.79
549.01	58082.73
549.18	58007.84
549.34	58202.10
549.51	58145.93
549.68	58468.92
549.84	58288.70
550.01	58312.11
550.18	58326.15
550.34	58511.05
550.51	58295.72
550.68	58300.40
550.84	58223.17
551.01	58501.69
551.18	58379.98
551.34	58349.56
551.51	58412.75
551.68	58461.90
551.84	58501.69
552.01	58227.85
552.18	58525.10
552.34	58293.38
552.51	58536.80
552.68	58532.12
552.84	58534.46
553.01	58850.43
553.18	58763.83
553.34	58972.14
553.51	58820.00
553.67	58827.02
553.84	58979.16
554.01	58908.94
554.17	59007.25
554.34	58857.45
554.51	58845.75
554.67	59189.81
554.84	59124.27
555.00	59068.10
555.17	58864.47
555.33	58937.03
555.50	58892.56
555.67	58915.96
555.83	58934.69
556.00	59253.00
556.16	59496.42
556.33	59334.92
556.50	59128.95
556.66	59465.99
556.83	59147.68
556.99	59381.73
557.16	59461.31
557.32	59421.52
557.49	59702.38
557.65	59224.92
557.82	59409.82
557.98	59344.28
558.15	59260.02
558.32	59566.63
558.48	59285.77
558.65	59480.03
558.81	59187.47
558.98	59554.93
559.14	59517.48
559.31	59437.90
559.47	59517.48
559.64	59674.30
559.80	59819.41
559.97	59597.06
560.13	59416.84
560.30	59632.17
560.46	59700.04
560.63	59592.38
560.79	59737.49
560.96	59929.42
561.12	59917.71
561.29	59913.03
561.45	59793.67
561.61	59676.64
561.78	59753.88
561.94	59655.57
562.11	59758.56
562.27	59877.93
562.44	59868.56
562.60	59987.93
562.77	60044.10
562.93	59622.81
563.10	60076.87
563.26	59838.14
563.42	60046.44
563.59	60009.00
563.75	59976.23
563.92	59985.59
564.08	59821.75
564.24	60236.03
564.41	60081.55
564.57	60184.54
564.74	59957.50
564.90	59973.89
565.07	60142.41
565.23	60088.57
565.39	59917.71
565.56	60306.24
565.72	59994.95
565.88	59931.76
566.05	59994.95
566.21	60013.68
566.38	60114.32
566.54	60226.66
566.70	60252.41
566.87	60495.83
567.03	60165.81
567.19	60282.84
567.36	60156.45
567.52	60212.62
567.68	60598.81
567.85	60409.23
568.01	60289.86
568.17	60229.01
568.34	60388.16
568.50	60357.74
568.66	60247.73
568.83	60559.02
568.99	60196.24
569.15	60357.74
569.32	60385.82
569.48	60334.33
569.64	60566.04
569.81	60282.84
569.97	60250.07
570.13	60472.42
570.30	60210.28
570.46	60329.65
570.62	60313.26
570.78	60402.21
570.95	60371.78
571.11	60547.32
571.27	60310.92
571.43	60446.68
571.60	60570.72
571.76	60362.42
571.92	60556.68
572.09	60465.40
572.25	60657.32
572.41	60570.72
572.57	60556.68
572.74	60671.37
572.90	60533.28
573.06	60659.66
573.22	60755.63
573.38	60535.62
573.55	60626.90
573.71	60865.63
573.87	60788.39
574.03	60575.40
574.20	60720.52
574.36	60577.75
574.52	60694.77
574.68	60645.62
574.84	60683.07
575.01	60779.03
575.17	60587.11
575.33	60547.32
575.49	60491.15
575.65	60601.15
575.82	60757.97
575.98	60659.66
576.14	60844.57
576.30	60874.99
576.46	60488.80
576.62	60685.41
576.79	60652.64
576.95	60608.17
577.11	60727.54
577.27	60776.69
577.43	60860.95
577.59	60825.84
577.75	60612.85
577.92	60498.17
578.08	60566.04
578.24	60687.75
578.40	60858.61
578.56	60921.80
578.72	60699.45
578.88	61029.47
579.04	60903.08
579.21	60800.10
579.37	60928.83
579.53	60903.08
579.69	60762.65
579.85	60837.54
580.01	60830.52
580.17	60767.33
580.33	61015.43
580.49	60732.22
580.65	60942.87
580.82	60804.78
580.98	60669.03
581.14	60718.18
581.30	60905.42
581.46	60783.71
581.62	60839.89
581.78	60830.52
581.94	60877.33
582.10	60793.07
582.26	60959.25
582.42	60673.71
582.58	60757.97
582.74	60711.16
582.90	60893.72
583.06	60942.87
583.22	60671.37
583.38	60917.12
583.54	60739.24
583.70	60919.46
583.86	61085.64
584.02	60837.54
584.18	61041.17
584.34	61013.08
584.50	60870.31
584.66	60917.12
584.82	60977.98
584.98	61247.14
585.14	61123.09
585.30	60781.37
585.46	60903.08
585.62	60999.04
585.78	61022.45
585.94	61237.78
586.10	61127.77
586.26	61041.17
586.42	61010.74
586.58	60999.04
586.74	60949.89
586.90	61102.03
587.06	61064.58
587.22	61052.87
587.38	60982.66
587.54	60898.40
587.70	61130.11
587.86	61118.41
588.02	60938.19
588.18	61095.00
588.34	61078.62
588.49	61172.24
