SpectraSuite Data File
++++++++++++++++++++++++++++++++++++
Date: Fri Oct 25 11:33:43 EDT 2013
User: price-jones
Dark Spectrum Present: No
Reference Spectrum Present: No
Number of Sampled Component Spectra: 1
Spectrometers: USB2+H05261
Integration Time (usec): 100000 (USB2+H05261)
Spectra Averaged: 1 (USB2+H05261)
Boxcar Smoothing: 0 (USB2+H05261)
Correct for Electrical Dark: No (USB2+H05261)
Strobe/Lamp Enabled: No (USB2+H05261)
Correct for Detector Non-linearity: No (USB2+H05261)
Correct for Stray Light: No (USB2+H05261)
Number of Pixels in Processed Spectrum: 2048
>>>>>Begin Processed Spectral Data<<<<<
365.73	252.78
365.92	252.78
366.12	252.78
366.32	187.24
366.52	198.95
366.72	177.88
366.91	201.29
367.11	175.54
367.31	98.30
367.51	42.13
367.70	208.31
367.90	196.60
368.10	177.88
368.30	156.82
368.49	191.92
368.69	229.37
368.89	205.97
369.09	168.52
369.28	224.69
369.48	241.08
369.68	231.71
369.87	278.52
370.07	201.29
370.27	236.39
370.47	262.14
370.66	444.70
370.86	531.30
371.06	514.92
371.25	566.41
371.45	447.04
371.65	568.75
371.84	554.71
372.04	477.47
372.24	552.37
372.44	568.75
372.63	631.94
372.83	608.54
373.03	620.24
373.22	580.45
373.42	603.86
373.62	559.39
373.81	657.69
374.01	629.60
374.21	676.41
374.40	582.79
374.60	592.16
374.79	645.99
374.99	664.71
375.19	617.90
375.38	664.71
375.58	620.24
375.78	676.41
375.97	690.46
376.17	723.23
376.37	643.65
376.56	636.63
376.76	697.48
376.95	622.58
377.15	699.82
377.35	594.50
377.54	662.37
377.74	636.63
377.93	667.05
378.13	709.18
378.33	688.12
378.52	753.65
378.72	704.50
378.91	629.60
379.11	650.67
379.31	732.59
379.50	704.50
379.70	730.25
379.89	676.41
380.09	765.36
380.28	744.29
380.48	704.50
380.68	744.29
380.87	711.52
381.07	786.42
381.26	746.63
381.46	737.27
381.65	746.63
381.85	739.61
382.04	711.52
382.24	723.23
382.43	746.63
382.63	755.99
382.83	837.91
383.02	823.87
383.22	732.59
383.41	744.29
383.61	730.25
383.80	807.48
384.00	777.06
384.19	800.46
384.39	784.08
384.58	823.87
384.78	875.36
384.97	837.91
385.17	763.01
385.36	863.66
385.56	854.30
385.75	898.77
385.95	779.40
386.14	800.46
386.34	851.96
386.53	917.49
386.72	812.17
386.92	919.83
387.11	821.53
387.31	908.13
387.50	795.78
387.70	840.25
387.89	774.72
388.09	905.79
388.28	844.93
388.48	919.83
388.67	908.13
388.86	891.74
389.06	926.85
389.25	1048.56
389.45	898.77
389.64	898.77
389.84	926.85
390.03	910.47
390.22	1001.75
390.42	978.34
390.61	931.53
390.81	985.37
391.00	964.30
391.19	1025.15
391.39	933.87
391.58	922.17
391.78	1057.92
391.97	1001.75
392.16	973.66
392.36	1025.15
392.55	980.68
392.75	1055.58
392.94	1004.09
393.13	1025.15
393.33	1039.20
393.52	1118.78
393.71	1083.67
393.91	1174.95
394.10	1041.54
394.29	1032.18
394.49	1158.57
394.68	1121.12
394.88	1139.84
395.07	1191.33
395.26	1151.54
395.46	1170.27
395.65	1184.31
395.84	1242.82
396.04	1233.46
396.23	1174.95
396.42	1219.42
396.62	1163.25
396.81	1212.40
397.00	1226.44
397.19	1214.74
397.39	1224.10
397.58	1266.23
397.77	1184.31
397.97	1217.08
398.16	1289.64
398.35	1282.61
398.55	1277.93
398.74	1369.21
398.93	1327.08
399.12	1324.74
399.32	1282.61
399.51	1329.42
399.70	1277.93
399.90	1338.79
400.09	1331.76
400.28	1338.79
400.47	1406.66
400.67	1416.02
400.86	1348.15
401.05	1437.09
401.24	1317.72
401.44	1416.02
401.63	1441.77
401.82	1565.82
402.01	1591.56
402.21	1483.90
402.40	1460.49
402.59	1497.94
402.78	1413.68
402.97	1568.16
403.17	1519.01
403.36	1493.26
403.55	1511.99
403.74	1551.78
403.93	1647.74
404.13	1626.67
404.32	1610.29
404.51	1549.43
404.70	1664.12
404.89	1659.44
405.09	1614.97
405.28	1645.40
405.47	1629.01
405.66	1689.87
405.85	1654.76
406.05	1696.89
406.24	1727.32
406.43	1729.66
406.62	1724.97
406.81	1820.94
407.00	1795.19
407.20	1743.70
407.39	1708.59
407.58	1783.49
407.77	1870.09
407.96	1877.11
408.15	1916.90
408.34	1846.68
408.54	2001.16
408.73	1867.75
408.92	1963.71
409.11	1989.46
409.30	2045.63
409.49	1928.60
409.68	2031.58
409.87	2024.56
410.07	1994.14
410.26	2085.42
410.45	2026.90
410.64	2127.55
410.83	2150.95
411.02	2218.83
411.21	2155.63
411.40	2118.18
411.59	2073.71
411.78	2270.32
411.98	2111.16
412.17	2253.94
412.36	2174.36
412.55	2228.19
412.74	2263.30
412.93	2324.15
413.12	2349.90
413.31	2459.90
413.50	2293.72
413.69	2377.98
413.88	2534.80
414.07	2399.05
414.26	2478.63
414.45	2532.46
414.64	2487.99
414.83	2530.12
415.02	2595.65
415.22	2719.70
415.41	2616.72
415.60	2682.25
415.79	2705.66
415.98	2825.03
416.17	2719.70
416.36	2731.41
416.55	2663.53
416.74	2883.54
416.93	2757.15
417.12	2822.69
417.31	2764.17
417.50	2876.52
417.69	3019.29
417.88	2965.46
418.07	2935.03
418.26	2935.03
418.45	2972.48
418.64	3028.65
418.83	3035.67
419.02	2974.82
419.21	3000.57
419.39	3215.90
419.58	2946.73
419.77	2991.20
419.96	3023.97
420.15	3126.96
420.34	3213.56
420.53	3220.58
420.72	3115.25
420.91	3241.64
421.10	3398.46
421.29	3375.05
421.48	3309.52
421.67	3288.45
421.86	3353.99
422.05	3323.56
422.24	3321.22
422.43	3260.37
422.61	3344.63
422.80	3377.39
422.99	3323.56
423.18	3431.23
423.37	3520.17
423.56	3356.33
423.75	3361.01
423.94	3253.34
424.13	3112.91
424.32	3300.16
424.50	3382.07
424.69	3419.52
424.88	3377.39
425.07	3426.54
425.26	3478.04
425.45	3485.06
425.64	3426.54
425.83	3384.41
426.01	3503.78
426.20	3332.92
426.39	3396.12
426.58	3445.27
426.77	3463.99
426.96	3496.76
427.15	3503.78
427.33	3592.72
427.52	3611.45
427.71	3487.40
427.90	3569.32
428.09	3641.87
428.28	3707.41
428.46	3798.69
428.65	3641.87
428.84	3810.39
429.03	3819.75
429.22	3758.90
429.40	3707.41
429.59	3719.11
429.78	3742.52
429.97	3592.72
430.16	3772.94
430.34	3878.27
430.53	3798.69
430.72	3960.19
430.91	3906.35
431.10	3892.31
431.28	3981.25
431.47	3866.56
431.66	3983.59
431.85	3988.27
432.03	4002.32
432.22	4126.36
432.41	4088.92
432.60	4037.42
432.79	4037.42
432.97	4201.26
433.16	4189.56
433.35	4056.15
433.54	4112.32
433.72	4161.47
433.91	4173.18
434.10	4269.14
434.28	4145.09
434.47	4189.56
434.66	4290.20
434.85	4430.63
435.03	4372.12
435.22	4372.12
435.41	4421.27
435.59	4374.46
435.78	4404.89
435.97	4479.79
436.16	4388.50
436.34	4348.72
436.53	4407.23
436.72	4706.82
436.90	4388.50
437.09	4507.87
437.28	4564.04
437.46	4493.83
437.65	4620.22
437.84	4594.47
438.02	4540.64
438.21	4781.71
438.40	4603.83
438.58	4777.03
438.77	4774.69
438.96	4681.07
439.14	4910.44
439.33	4901.08
439.52	4971.30
439.70	4828.53
439.89	5004.07
440.08	5088.32
440.26	4905.76
440.45	4966.62
440.63	5027.47
440.82	5219.39
441.01	5121.09
441.19	5149.18
441.38	5135.14
441.57	5305.99
441.75	5280.25
441.94	5427.70
442.12	5235.78
442.31	5451.11
442.50	5469.83
442.68	5507.28
442.87	5547.07
443.05	5472.17
443.24	5516.64
443.43	5657.07
443.61	5544.73
443.80	5603.24
443.98	5310.68
444.17	5598.56
444.35	5490.90
444.54	5586.86
444.73	5710.91
444.91	5516.64
445.10	5584.52
445.28	5713.25
445.47	5406.64
445.65	5558.77
445.84	5650.05
446.02	5757.72
446.21	5799.85
446.39	5643.03
446.58	5753.04
446.77	5788.14
446.95	5633.67
447.14	5631.33
447.32	5720.27
447.51	5849.00
447.69	5858.36
447.88	5764.74
448.06	5813.89
448.25	5778.78
448.43	5919.21
448.62	5724.95
448.80	5734.31
448.99	5884.11
449.17	5951.98
449.36	5834.96
449.54	6143.91
449.73	6001.13
449.91	6195.40
450.10	6019.86
450.28	6136.88
450.46	6129.86
450.65	6059.65
450.83	6188.38
451.02	6200.08
451.20	6237.53
451.39	6083.05
451.57	6054.97
451.76	6047.94
451.94	6153.27
452.13	6289.02
452.31	6340.51
452.49	6097.10
452.68	6401.37
452.86	6424.77
453.05	6284.34
453.23	6270.30
453.42	6326.47
453.60	6303.06
453.78	6338.17
453.97	6342.85
454.15	6354.55
454.34	6387.32
454.52	6363.92
454.70	6541.80
454.89	6502.01
455.07	6672.87
455.26	6677.55
455.44	6740.74
455.62	6724.36
455.81	6602.65
455.99	6771.17
456.17	6909.26
456.36	6707.98
456.54	6813.30
456.73	6834.36
456.91	6920.96
457.09	6953.73
457.28	6904.58
457.46	6974.80
457.64	7023.95
457.83	7009.90
458.01	6935.01
458.19	7232.26
458.38	6974.80
458.56	7159.70
458.74	7283.75
458.93	7075.44
459.11	7101.19
459.29	7274.38
459.48	7307.15
459.66	7082.46
459.84	7213.53
460.03	7360.98
460.21	7262.68
460.39	7452.27
460.57	7475.67
460.76	7559.93
460.94	7382.05
461.12	7569.29
461.31	7466.31
461.49	7548.23
461.67	7475.67
461.85	7639.51
462.04	7548.23
462.22	8081.87
462.40	7772.92
462.59	7681.64
462.77	7768.24
462.95	7836.11
463.13	7676.96
463.32	7665.25
463.50	7990.59
463.68	7805.69
463.86	8077.19
464.05	7770.58
464.23	7719.09
464.41	7887.61
464.59	7833.77
464.78	8131.02
464.96	7997.61
465.14	7960.16
465.32	7992.93
465.50	8109.96
465.69	8013.99
465.87	8060.80
466.05	8336.99
466.23	8135.70
466.41	8231.66
466.60	8271.45
466.78	7953.14
466.96	8205.92
467.14	8175.49
467.32	8222.30
467.51	8439.97
467.69	8016.33
467.87	8175.49
468.05	8395.50
468.23	8255.07
468.41	8388.48
468.60	8374.44
468.78	8435.29
468.96	8514.87
469.14	8606.15
469.32	8725.52
469.50	8379.12
469.69	8549.98
469.87	8629.56
470.05	8652.96
470.23	8788.71
470.41	8767.65
470.59	8692.75
470.77	8959.57
470.95	8889.35
471.14	8903.40
471.32	8849.57
471.50	9090.64
471.68	8968.93
471.86	8819.14
472.04	9053.19
472.22	9362.14
472.40	8987.66
472.58	9217.03
472.77	9298.95
472.95	9479.17
473.13	9685.14
473.31	9320.01
473.49	9455.76
473.67	9500.23
473.85	9514.28
474.03	9694.50
474.21	9907.49
474.39	9884.08
474.57	9591.52
474.75	9944.94
474.93	9893.44
475.12	9916.85
475.30	10085.37
475.48	10120.48
475.66	10017.49
475.84	10080.69
476.02	10237.50
476.20	10260.91
476.38	10361.55
476.56	10721.99
476.74	10504.32
476.92	10303.04
477.10	10527.73
477.28	10764.12
477.46	10775.83
477.64	10672.84
477.82	10871.79
478.00	11115.20
478.18	10930.30
478.36	11176.06
478.54	11225.21
478.72	11559.91
478.90	11332.87
479.08	11730.76
479.26	11456.92
479.44	11840.77
479.62	11690.98
479.80	11737.79
479.98	11815.02
480.16	12170.79
480.34	12128.66
480.52	12236.32
480.70	12250.36
480.88	12208.23
481.06	12184.83
481.24	12217.60
481.41	12571.02
481.59	12926.78
481.77	12718.47
481.95	12819.11
482.13	13071.89
482.31	12861.24
482.49	13266.16
482.67	13387.86
482.85	13472.12
483.03	13528.30
483.21	13886.40
483.39	13738.94
483.57	13572.77
483.74	13757.67
483.92	13954.27
484.10	13956.61
484.28	14408.34
484.46	14476.21
484.64	14384.93
484.82	14677.50
485.00	14595.58
485.18	14890.49
485.35	15059.01
485.53	15110.50
485.71	15290.72
485.89	15377.32
486.07	15534.14
486.25	15461.58
486.43	15503.71
486.61	15412.43
486.78	15880.53
486.96	15676.91
487.14	16163.74
487.32	15992.88
487.50	16386.09
487.68	16442.26
487.85	16652.91
488.03	16772.28
488.21	16706.74
488.39	16884.62
488.57	17139.74
488.75	17011.01
488.92	17408.90
489.10	17483.80
489.28	17558.70
489.46	17743.60
489.64	17408.90
489.81	18068.94
489.99	17895.74
490.17	18080.64
490.35	18246.82
490.53	18511.30
490.70	18579.17
490.88	18625.98
491.06	18429.38
491.24	19023.87
491.41	19164.31
491.59	19087.07
491.77	19232.18
491.95	19400.70
492.13	19569.22
492.30	19768.16
492.48	19660.50
492.66	19913.28
492.84	20020.94
493.01	20245.63
493.19	20194.14
493.37	20388.41
493.54	20475.01
493.72	20556.93
493.90	20889.28
494.08	21003.97
494.25	20971.20
494.43	20973.54
494.61	21184.19
494.79	21341.00
494.96	21324.62
495.14	21516.54
495.32	21715.49
495.49	21923.80
495.67	21902.73
495.85	21778.68
496.02	22003.38
496.20	21972.95
496.38	22483.19
496.55	22089.98
496.73	22780.43
496.91	22590.85
497.09	22427.01
497.26	22944.27
497.44	22721.92
497.62	23138.54
497.79	23470.89
497.97	23187.69
498.14	23405.36
498.32	23522.38
498.50	23737.71
498.67	23873.46
498.85	23782.18
499.03	23875.80
499.20	23943.68
499.38	24238.59
499.56	24240.93
499.73	24470.30
499.91	24484.34
500.08	24662.22
500.26	24402.43
500.44	24814.36
500.61	24566.26
500.79	25118.63
500.97	24898.62
501.14	25406.52
501.32	25333.96
501.49	25268.42
501.67	25221.61
501.84	25509.50
502.02	25546.95
502.20	25544.61
502.37	25568.01
502.55	25729.51
502.72	26178.89
502.90	25886.32
503.07	26022.08
503.25	26333.37
503.43	25628.87
503.60	26499.55
503.78	26256.13
503.95	26277.19
504.13	26607.21
504.30	26635.30
504.48	26553.38
504.65	26986.38
504.83	27103.40
505.01	27133.83
505.18	27023.83
505.36	27101.06
505.53	27182.98
505.71	27510.66
505.88	27218.09
506.06	27426.40
506.23	27538.74
506.41	27421.72
506.58	28203.46
506.76	27704.92
506.93	27983.44
507.11	27695.56
507.28	28102.81
507.46	28142.60
507.63	27995.15
507.81	28374.31
507.98	28315.80
508.16	28332.18
508.33	28458.57
508.50	28746.46
508.68	28554.54
508.85	28882.21
509.03	28985.19
509.20	29170.10
509.38	29333.93
509.55	29198.18
509.73	29156.05
509.90	29425.22
510.08	29357.34
510.25	29537.56
510.42	29429.90
510.60	29640.54
510.77	29907.37
510.95	29977.58
511.12	29661.61
511.30	30164.82
511.47	30043.12
511.64	29916.73
511.82	30183.55
511.99	29970.56
512.17	30216.32
512.34	30412.92
512.51	30855.28
512.69	31461.48
512.86	30799.11
513.04	30539.31
513.21	30951.24
513.38	31353.82
513.56	31253.17
513.73	30904.43
513.90	30892.73
514.08	31040.18
514.25	31381.90
514.43	31625.32
514.60	31871.07
514.77	31512.97
514.95	31725.96
515.12	31740.00
515.29	31789.16
515.47	32177.68
515.64	32077.04
515.81	31374.88
515.99	31948.31
516.16	32451.53
516.33	32493.66
516.51	32751.12
516.68	32180.03
516.85	32245.56
517.03	32781.54
517.20	32280.67
517.37	32751.12
517.54	32432.80
517.72	33020.28
517.89	32830.69
518.06	32912.61
518.24	32854.10
518.41	32940.70
518.58	33259.01
518.75	32669.20
518.93	33310.50
519.10	33326.89
519.27	33109.22
519.45	33472.00
519.62	33617.11
519.79	34031.39
519.96	33844.15
520.14	33811.38
520.31	33766.91
520.48	34359.06
520.65	33921.38
520.83	34277.15
521.00	34436.30
521.17	34085.22
521.34	34284.17
521.52	34658.65
521.69	34171.82
521.86	34593.12
522.03	34937.18
522.20	34574.39
522.38	35180.59
522.55	35215.70
522.72	34960.58
522.89	34878.66
523.07	35358.47
523.24	35030.80
523.41	35637.00
523.58	34955.90
523.75	34960.58
523.92	35117.40
524.10	35765.73
524.27	35543.38
524.44	35716.58
524.61	35833.60
524.78	35627.63
524.96	36163.62
525.13	36116.81
525.30	36121.49
525.47	36128.51
525.64	36671.51
525.81	36584.91
525.98	36481.93
526.16	36402.35
526.33	36161.28
526.50	36236.17
526.67	36210.43
526.84	36435.12
527.01	36130.85
527.18	36299.37
527.36	36666.83
527.53	36346.18
527.70	37036.64
527.87	36872.80
528.04	36753.43
528.21	37350.27
528.38	36961.74
528.55	36957.06
528.72	36978.12
528.89	37460.27
529.07	37273.03
529.24	37113.87
529.41	37460.27
529.58	37338.57
529.75	37457.93
529.92	37785.61
530.09	37535.17
530.26	37439.21
530.43	37790.29
530.60	37542.19
530.77	37570.28
530.94	38101.58
531.11	37502.40
531.28	37809.01
531.46	37762.20
531.63	38066.47
531.80	38347.34
531.97	38223.29
532.14	38384.79
532.31	37586.66
532.48	38150.73
532.65	38824.81
532.82	38202.22
532.99	38639.90
533.16	38546.28
533.33	38536.92
533.50	39077.58
533.67	38625.86
533.84	38572.03
534.01	38665.65
534.18	38820.13
534.35	39248.44
534.52	39316.32
534.69	39007.37
534.86	39358.45
535.03	38885.66
535.20	39351.43
535.37	39381.85
535.54	39388.88
535.71	39119.71
535.88	39875.71
536.05	39707.19
536.22	39398.24
536.38	40048.91
536.55	39754.00
536.72	39524.63
536.89	39744.64
537.06	39639.31
537.23	39955.29
537.40	39990.39
537.57	39871.03
537.74	40114.44
537.91	40102.74
538.08	40273.60
538.25	39842.94
538.42	39983.37
538.59	40353.18
538.75	39910.82
538.92	40573.19
539.09	40304.02
539.26	40158.91
539.43	40479.57
539.60	40439.78
539.77	40142.53
539.94	40893.84
540.11	40680.85
540.28	40414.03
540.44	40451.48
540.61	40617.66
540.78	40297.00
540.95	40505.31
541.12	40641.06
541.29	40783.83
541.46	40713.62
541.62	41067.04
541.79	41256.62
541.96	40910.22
542.13	40950.01
542.30	40797.88
542.47	41148.96
542.63	41298.75
542.80	41514.08
542.97	41558.55
543.14	41818.35
543.31	41670.90
543.48	42066.45
543.64	42136.66
543.81	42040.70
543.98	41769.20
544.15	41696.64
544.32	41816.01
544.48	42148.37
544.65	42234.97
544.82	42115.60
544.99	41972.83
545.16	41869.84
545.32	42260.71
545.49	43182.88
545.66	42462.00
545.83	42249.01
546.00	42454.98
546.16	42284.12
546.33	42550.94
546.50	42333.27
546.67	42604.77
546.83	42080.49
547.00	42754.57
547.17	42319.23
547.34	42852.87
547.50	42925.42
547.67	42913.72
547.84	43107.99
548.00	42981.60
548.17	43325.66
548.34	43466.09
548.51	43597.16
548.67	43107.99
548.84	43587.80
549.01	43147.78
549.18	43093.94
549.34	43215.65
549.51	43161.82
549.68	43721.21
549.84	43433.32
550.01	43861.64
550.18	42784.99
550.34	43124.37
550.51	43873.34
550.68	43320.98
550.84	42974.58
551.01	43887.39
551.18	43763.34
551.34	43615.88
551.51	43646.31
551.68	43494.18
551.84	43746.95
552.01	43615.88
552.18	44275.91
552.34	43917.81
552.51	44013.77
552.68	43622.90
552.84	44212.72
553.01	44046.54
553.18	44095.69
553.34	44594.23
553.51	43716.53
553.67	44257.19
553.84	44355.49
554.01	44385.92
554.17	44329.75
554.34	44371.88
554.51	44444.43
554.67	44418.69
554.84	44720.62
555.00	44402.30
555.17	44411.67
555.33	45223.83
555.50	44816.58
555.67	44399.96
555.83	44636.36
556.00	44994.46
556.16	45378.31
556.33	45010.84
556.50	44926.58
556.66	44404.64
556.83	44456.14
556.99	45214.47
557.16	44882.11
557.32	45151.27
557.49	44800.19
557.65	44732.32
557.82	44832.96
557.98	44891.48
558.15	44839.98
558.32	45055.31
558.48	44854.03
558.65	45361.92
558.81	45272.98
558.98	45184.04
559.14	45043.61
559.31	45291.71
559.47	45476.61
559.64	45617.04
559.80	45511.72
559.97	45661.51
560.13	45193.40
560.30	45642.79
560.46	45879.18
560.63	45514.06
560.79	45268.30
560.96	45532.78
561.12	45530.44
561.29	45235.53
561.45	45675.55
561.61	45464.91
561.78	45474.27
561.94	45200.43
562.11	45584.27
562.27	45771.52
562.44	45427.46
562.60	45649.81
562.77	45638.11
562.93	45708.32
563.10	45570.23
563.26	45427.46
563.42	46124.94
563.59	45591.30
563.75	45916.63
563.92	45645.13
564.08	45762.15
564.24	46171.75
564.41	45933.01
564.57	46344.95
564.74	45954.08
564.90	46026.63
565.07	46087.49
565.23	45680.24
565.39	46143.66
565.56	46361.33
565.72	45741.09
565.88	46108.55
566.05	46127.28
566.21	46314.52
566.38	45415.76
566.54	46600.07
566.70	46347.29
566.87	45951.74
567.03	45879.18
567.19	46469.00
567.36	46356.65
567.52	46316.86
567.68	46426.87
567.85	46293.46
568.01	46616.45
568.17	46284.09
568.34	46752.20
568.50	46078.13
568.66	46588.36
568.83	46480.70
568.99	46075.79
569.15	46305.16
569.32	46237.28
569.48	46581.34
569.64	46204.52
569.81	46466.66
569.97	46658.58
570.13	46499.42
570.30	45846.41
570.46	46288.77
570.62	46532.19
570.78	46588.36
570.95	46791.99
571.11	46775.61
571.27	46157.70
571.43	46557.94
571.60	46766.24
571.76	46799.01
571.92	46834.12
572.09	46555.60
572.25	46784.97
572.41	46546.23
572.57	46361.33
572.74	46866.89
572.90	46880.93
573.06	46995.62
573.22	47093.92
573.38	47180.52
573.55	46710.07
573.71	46782.63
573.87	46894.97
574.03	47002.64
574.20	47344.36
574.36	46923.06
574.52	46923.06
574.68	46806.03
574.84	47337.33
575.01	47248.39
575.17	47217.97
575.33	47086.90
575.49	46478.36
575.65	46927.74
575.82	47103.28
575.98	46593.04
576.14	47103.28
576.30	47573.73
576.46	47042.43
576.62	47058.81
576.79	47351.38
576.95	46305.16
577.11	46471.34
577.27	46981.57
577.43	47213.29
577.59	46518.15
577.75	46965.19
577.92	46653.90
578.08	46920.72
578.24	47122.01
578.40	47136.05
578.56	46944.12
578.72	46934.76
578.88	46880.93
579.04	46911.36
579.21	47171.16
579.37	47555.00
579.53	46906.68
579.69	46689.01
579.85	47131.37
580.01	47358.40
580.17	46822.42
580.33	47489.47
580.49	47154.77
580.65	47250.74
580.82	47136.05
580.98	46967.53
581.14	46644.54
581.30	47302.23
581.46	46967.53
581.62	47133.71
581.78	47250.74
581.94	47299.89
582.10	47250.74
582.26	47318.61
582.42	46775.61
582.58	47189.88
582.74	47302.23
582.90	47388.83
583.06	47407.55
583.22	47143.07
583.38	46925.40
583.54	46972.21
583.70	47627.56
583.86	47454.36
584.02	47365.42
584.18	47686.07
584.34	47526.92
584.50	47576.07
584.66	47475.43
584.82	47295.21
584.98	47716.50
585.14	47515.22
585.30	47210.95
585.46	47470.75
585.62	47178.18
585.78	47320.95
585.94	47161.79
586.10	47402.87
586.26	46681.98
586.42	47185.20
586.58	47634.58
586.74	47316.27
586.90	47260.10
587.06	47421.59
587.22	47922.47
587.38	47150.09
587.54	47594.79
587.70	47702.46
587.86	47194.56
588.02	47199.24
588.18	47313.93
588.34	47295.21
588.49	47351.38
588.65	47014.34
588.81	47407.55
588.97	47213.29
589.13	47210.95
589.29	47784.38
589.45	47367.76
589.61	47264.78
589.77	47608.84
589.93	47618.20
590.08	47739.91
