SpectraSuite Data File
++++++++++++++++++++++++++++++++++++
Date: Fri Oct 25 11:25:49 EDT 2013
User: price-jones
Dark Spectrum Present: No
Reference Spectrum Present: No
Number of Sampled Component Spectra: 1
Spectrometers: USB2+H05261
Integration Time (usec): 100000 (USB2+H05261)
Spectra Averaged: 1 (USB2+H05261)
Boxcar Smoothing: 0 (USB2+H05261)
Correct for Electrical Dark: No (USB2+H05261)
Strobe/Lamp Enabled: No (USB2+H05261)
Correct for Detector Non-linearity: No (USB2+H05261)
Correct for Stray Light: No (USB2+H05261)
Number of Pixels in Processed Spectrum: 2048
>>>>>Begin Processed Spectral Data<<<<<
365.73	264.48
365.92	264.48
366.12	264.48
366.32	201.29
366.52	184.90
366.72	191.92
366.91	114.69
367.11	142.77
367.31	154.48
367.51	135.75
367.70	175.54
367.90	145.11
368.10	88.94
368.30	168.52
368.49	81.92
368.69	182.56
368.89	138.09
369.09	161.50
369.28	135.75
369.48	201.29
369.68	180.22
369.87	198.95
370.07	227.03
370.27	273.84
370.47	344.06
370.66	655.35
370.86	580.45
371.06	638.97
371.25	676.41
371.45	615.56
371.65	676.41
371.84	634.29
372.04	662.37
372.24	788.76
372.44	730.25
372.63	744.29
372.83	741.95
373.03	725.57
373.22	723.23
373.42	798.12
373.62	816.85
373.81	830.89
374.01	891.74
374.21	753.65
374.40	828.55
374.60	847.27
374.79	732.59
374.99	802.80
375.19	793.44
375.38	938.55
375.58	861.32
375.78	798.12
375.97	887.06
376.17	924.51
376.37	866.00
376.56	877.70
376.76	826.21
376.95	891.74
377.15	980.68
377.35	997.07
377.54	910.47
377.74	891.74
377.93	929.19
378.13	926.85
378.33	903.45
378.52	903.45
378.72	929.19
378.91	983.02
379.11	950.26
379.31	887.06
379.50	903.45
379.70	985.37
379.89	1046.22
380.09	919.83
380.28	903.45
380.48	966.64
380.68	905.79
380.87	1020.47
381.07	1039.20
381.26	997.07
381.46	1071.97
381.65	1074.31
381.85	1088.35
382.04	1086.01
382.24	1053.24
382.43	1011.11
382.63	1048.56
382.83	1137.50
383.02	1118.78
383.22	1069.62
383.41	1128.14
383.61	1121.12
383.80	1210.06
384.00	1156.22
384.19	1083.67
384.39	1100.05
384.58	1137.50
384.78	1144.52
384.97	1083.67
385.17	1128.14
385.36	1130.48
385.56	1240.48
385.75	1111.75
385.95	1078.99
386.14	1224.10
386.34	1149.20
386.53	1165.59
386.72	1174.95
386.92	1254.53
387.11	1240.48
387.31	1238.14
387.50	1142.18
387.70	1153.88
387.89	1291.98
388.09	1268.57
388.28	1315.38
388.48	1284.95
388.67	1310.70
388.86	1322.40
389.06	1378.58
389.25	1357.51
389.45	1296.66
389.64	1280.27
389.84	1390.28
390.03	1453.47
390.22	1273.25
390.42	1277.93
390.61	1235.80
390.81	1406.66
391.00	1413.68
391.19	1432.41
391.39	1373.89
391.58	1416.02
391.78	1418.36
391.97	1486.24
392.16	1547.09
392.36	1549.43
392.55	1451.13
392.75	1526.03
392.94	1537.73
393.13	1572.84
393.33	1610.29
393.52	1502.62
393.71	1586.88
393.91	1526.03
394.10	1542.41
394.29	1572.84
394.49	1577.52
394.68	1701.57
394.88	1603.27
395.07	1671.14
395.26	1617.31
395.46	1664.12
395.65	1776.47
395.84	1706.25
396.04	1830.30
396.23	1788.17
396.42	1629.01
396.62	1762.42
396.81	1717.95
397.00	1804.55
397.19	1746.04
397.39	1797.53
397.58	1825.62
397.77	1811.57
397.97	1895.83
398.16	1893.49
398.35	1879.45
398.55	1834.98
398.74	1820.94
398.93	1907.54
399.12	1870.09
399.32	1909.88
399.51	1863.07
399.70	1980.09
399.90	1907.54
400.09	1942.64
400.28	2052.65
400.47	1973.07
400.67	2008.18
400.86	2139.25
401.05	2045.63
401.24	2047.97
401.44	2026.90
401.63	2015.20
401.82	2127.55
402.01	2083.08
402.21	2097.12
402.40	2188.40
402.59	2157.97
402.78	2181.38
402.97	2244.57
403.17	2204.78
403.36	2270.32
403.55	2183.72
403.74	2352.24
403.93	2361.60
404.13	2214.15
404.32	2310.11
404.51	2450.54
404.70	2368.62
404.89	2431.82
405.09	2436.50
405.28	2417.77
405.47	2553.52
405.66	2518.42
405.85	2523.10
406.05	2532.46
406.24	2495.01
406.43	2583.95
406.62	2417.77
406.81	2607.36
407.00	2621.40
407.20	2579.27
407.39	2605.02
407.58	2686.94
407.77	2752.47
407.96	2813.32
408.15	2761.83
408.34	2738.43
408.54	2712.68
408.73	2719.70
408.92	2860.13
409.11	2836.73
409.30	2883.54
409.49	2963.12
409.68	2860.13
409.87	2918.65
410.07	2937.37
410.26	3016.95
410.45	3012.27
410.64	3030.99
410.83	2991.20
411.02	3021.63
411.21	3028.65
411.40	3038.02
411.59	3215.90
411.78	3192.49
411.98	3014.61
412.17	3232.28
412.36	3279.09
412.55	3283.77
412.74	3435.91
412.93	3419.52
413.12	3225.26
413.31	3630.17
413.50	3510.80
413.69	3412.50
413.88	3583.36
414.07	3527.19
414.26	3686.34
414.45	3662.94
414.64	3637.19
414.83	3805.71
415.02	3686.34
415.22	3791.67
415.41	3714.43
415.60	3756.56
415.79	3868.91
415.98	3934.44
416.17	3999.98
416.36	3964.87
416.55	3992.95
416.74	3943.80
416.93	4091.26
417.12	4121.68
417.31	4170.83
417.50	4205.94
417.69	4262.12
417.88	4231.69
418.07	4278.50
418.26	4245.73
418.45	4294.88
418.64	4407.23
418.83	4393.19
419.02	4432.97
419.21	4461.06
419.39	4587.45
419.58	4329.99
419.77	4472.76
419.96	4559.36
420.15	4538.30
420.34	4662.35
420.53	4683.41
420.72	4660.01
420.91	4636.60
421.10	4723.20
421.29	4737.24
421.48	4620.22
421.67	4695.11
421.86	4889.38
422.05	4791.08
422.24	4812.14
422.43	4917.47
422.61	4814.48
422.80	4961.94
422.99	4985.34
423.18	4978.32
423.37	4961.94
423.56	4912.78
423.75	4936.19
423.94	4828.53
424.13	4568.73
424.32	4634.26
424.50	4968.96
424.69	5104.71
424.88	4952.57
425.07	4929.17
425.26	4884.70
425.45	4901.08
425.64	4992.36
425.83	4889.38
426.01	5020.45
426.20	5083.64
426.39	5074.28
426.58	5039.17
426.77	5020.45
426.96	4985.34
427.15	5069.60
427.33	5130.45
427.52	5048.54
427.71	5231.10
427.90	5217.05
428.09	5284.93
428.28	5277.91
428.46	5434.72
428.65	5359.83
428.84	5614.95
429.03	5497.92
429.22	5305.99
429.40	5399.62
429.59	5561.11
429.78	5238.12
429.97	5240.46
430.16	5472.17
430.34	5544.73
430.53	5577.50
430.72	5474.51
430.91	5738.99
431.10	5418.34
431.28	5860.70
431.47	5736.65
431.66	5804.53
431.85	5762.40
432.03	5865.38
432.22	5912.19
432.41	5874.74
432.60	5935.60
432.79	6120.50
432.97	5914.53
433.16	6003.47
433.35	5825.59
433.54	5949.64
433.72	6108.80
433.91	6031.56
434.10	5959.00
434.28	6078.37
434.47	6317.11
434.66	6148.59
434.85	6256.25
435.03	6139.23
435.22	6389.66
435.41	6494.99
435.59	6317.11
435.78	6483.28
435.97	6417.75
436.16	6319.45
436.34	6377.96
436.53	6392.00
436.72	6752.45
436.90	6480.94
437.09	6548.82
437.28	6623.72
437.46	6534.78
437.65	6757.13
437.84	6752.45
438.02	6743.08
438.21	6888.20
438.40	6679.89
438.58	6827.34
438.77	6909.26
438.96	6937.35
439.14	7178.42
439.33	7265.02
439.52	7077.78
439.70	7272.04
439.89	7398.43
440.08	7243.96
440.26	7286.09
440.45	7363.33
440.63	7487.37
440.82	7595.04
441.01	7391.41
441.19	7665.25
441.38	7744.83
441.57	7667.60
441.75	7653.55
441.94	7995.27
442.12	7864.20
442.31	7962.50
442.50	7927.39
442.68	7901.65
442.87	8060.80
443.05	8046.76
443.24	8257.41
443.43	7943.78
443.61	8084.21
443.80	8320.60
443.98	8058.46
444.17	7763.56
444.35	8086.55
444.54	8212.94
444.73	8217.62
444.91	8184.85
445.10	8198.90
445.28	8205.92
445.47	8198.90
445.65	8294.86
445.84	8332.31
446.02	8322.94
446.21	8318.26
446.39	8315.92
446.58	8461.04
446.77	8411.89
446.95	8147.40
447.14	8421.25
447.32	8472.74
447.51	8449.33
447.69	8667.00
447.88	8407.20
448.06	8641.26
448.25	8451.67
448.43	8580.40
448.62	8411.89
448.80	8594.45
448.99	8648.28
449.17	8688.07
449.36	8472.74
449.54	8856.59
449.73	8954.89
449.91	9092.98
450.10	8795.73
450.28	9170.22
450.46	9186.60
450.65	9071.92
450.83	9081.28
451.02	8887.01
451.20	9116.39
451.39	9100.00
451.57	9081.28
451.76	9174.90
451.94	9205.33
452.13	9254.48
452.31	9221.71
452.49	9212.35
452.68	9254.48
452.86	9090.64
453.05	9563.43
453.23	9460.45
453.42	9142.13
453.60	9217.03
453.78	9568.11
453.97	9249.80
454.15	9458.10
454.34	9359.80
454.52	9820.89
454.70	9643.01
454.89	9645.35
455.07	9537.68
455.26	9811.53
455.44	9722.59
455.62	10024.51
455.81	9905.15
455.99	9912.17
456.17	9961.32
456.36	10017.49
456.54	10195.37
456.73	10249.21
456.91	10342.83
457.09	10403.68
457.28	10513.69
457.46	10253.89
457.64	10289.00
457.83	10345.17
458.01	10356.87
458.19	10565.18
458.38	10523.05
458.56	10817.96
458.74	10569.86
458.93	10621.35
459.11	10513.69
459.29	10677.52
459.48	10672.84
459.66	10658.80
459.84	10654.12
460.03	10843.70
460.21	10822.64
460.39	10726.68
460.57	11068.39
460.76	10956.05
460.94	11248.61
461.12	11342.24
461.31	11290.74
461.49	11227.55
461.67	10956.05
461.85	11295.43
462.04	11232.23
462.22	11749.49
462.40	11473.31
462.59	11386.71
462.77	11398.41
462.95	11501.39
463.13	11470.97
463.32	11435.86
463.50	11707.36
463.68	11672.25
463.86	11826.73
464.05	11845.45
464.23	11744.81
464.41	11786.94
464.59	11817.36
464.78	12084.19
464.96	11915.67
465.14	11833.75
465.32	11992.90
465.50	12189.51
465.69	11817.36
465.87	12166.10
466.05	12133.34
466.23	12135.68
466.41	12074.82
466.60	12243.34
466.78	12056.10
466.96	11981.20
467.14	12292.49
467.32	12355.69
467.51	12461.01
467.69	12245.68
467.87	12479.74
468.05	12432.93
468.23	12573.36
468.41	12351.01
468.60	12568.68
468.78	12767.62
468.96	12690.38
469.14	12758.26
469.32	12657.62
469.50	12655.28
469.69	12879.97
469.87	13130.41
470.05	13039.12
470.23	13259.13
470.41	13015.72
470.59	13305.95
470.77	12912.74
470.95	13345.73
471.14	13256.79
471.32	12915.08
471.50	13411.27
471.68	13495.53
471.86	13579.79
472.04	13844.27
472.22	14040.87
472.40	13523.62
472.58	13720.22
472.77	14012.79
472.95	13867.67
473.13	14298.33
473.31	13982.36
473.49	14090.02
473.67	14167.26
473.85	14127.47
474.03	14670.48
474.21	14331.10
474.39	14644.73
474.57	14501.96
474.75	14747.72
474.93	14792.19
475.12	14906.87
475.30	15080.07
475.48	14949.00
475.66	15009.86
475.84	14878.79
476.02	15124.54
476.20	15480.30
476.38	15494.35
476.56	15957.77
476.74	15651.16
476.92	15826.70
477.10	15894.58
477.28	16023.31
477.46	16018.63
477.64	16156.72
477.82	16573.33
478.00	16973.56
478.18	16329.92
478.36	16964.20
478.54	17013.35
478.72	17048.46
478.90	17584.44
479.08	17694.45
479.26	17554.02
479.44	17380.82
479.62	17752.96
479.80	17795.09
479.98	18188.30
480.16	18546.40
480.34	18183.62
480.52	18455.12
480.70	18813.23
480.88	18281.92
481.06	18452.78
481.24	18597.90
481.41	19049.62
481.59	19398.36
481.77	19407.72
481.95	19686.25
482.13	19688.59
482.31	19667.52
482.49	19894.55
482.67	20135.63
482.85	20343.94
483.03	20688.00
483.21	20264.36
483.39	20882.26
483.57	20734.81
483.74	20922.05
483.92	21539.95
484.10	21083.55
484.28	21448.67
484.46	21977.63
484.64	22436.38
484.82	22050.19
485.00	22307.65
485.18	22747.67
485.35	22799.16
485.53	22771.07
485.71	22946.61
485.89	23269.61
486.07	22892.78
486.25	23459.19
486.43	23573.88
486.61	23377.27
486.78	23688.56
486.96	24388.38
487.14	24400.08
487.32	24526.47
487.50	24559.24
487.68	24919.68
487.85	25179.48
488.03	25296.51
488.21	25619.50
488.39	25586.74
488.57	25942.50
488.75	26164.85
488.92	26153.15
489.10	26614.23
489.28	26354.43
489.46	26838.92
489.64	27112.77
489.81	27576.19
489.99	27718.96
490.17	27637.05
490.35	27967.06
490.53	27995.15
490.70	28149.62
490.88	28474.96
491.06	28737.10
491.24	28936.04
491.41	29151.37
491.59	29069.45
491.77	29067.11
491.95	29420.53
492.13	29364.36
492.30	29963.54
492.48	29874.60
492.66	30164.82
492.84	30190.57
493.01	30609.53
493.19	30775.70
493.37	31014.44
493.54	31445.10
493.72	31241.47
493.90	31304.67
494.08	31737.66
494.25	31714.26
494.43	32032.57
494.61	31887.46
494.79	32151.94
494.96	32542.81
495.14	32465.57
495.32	32739.41
495.49	32762.82
495.67	32891.55
495.85	33511.79
496.02	33160.71
496.20	33776.27
496.38	34150.76
496.55	33998.62
496.73	34979.31
496.91	34419.92
497.09	34824.83
497.26	34754.61
497.44	34773.34
497.62	35068.25
497.79	35358.47
497.97	35201.66
498.14	36100.42
498.32	35927.22
498.50	35842.96
498.67	36444.48
498.85	36002.12
499.03	36467.89
499.20	36566.19
499.38	36505.34
499.56	36854.08
499.73	36919.61
499.91	37333.89
500.08	37148.98
500.26	37872.21
500.44	37570.28
500.61	37801.99
500.79	37464.96
500.97	38022.00
501.14	37888.59
501.32	38354.36
501.49	38778.00
501.67	38396.49
501.84	38691.40
502.02	39009.71
502.20	38677.35
502.37	38955.88
502.55	39421.64
502.72	39213.34
502.90	39311.64
503.07	39969.33
503.25	39791.45
503.43	39379.51
503.60	39711.87
503.78	40140.19
503.95	39674.42
504.13	40423.39
504.30	40760.43
504.48	40266.58
504.65	40404.67
504.83	41097.47
505.01	40968.74
505.18	41177.04
505.36	41308.11
505.53	41053.00
505.71	41296.41
505.88	41764.52
506.06	41326.84
506.23	41600.68
506.41	41661.54
506.58	41600.68
506.76	41603.02
506.93	42113.26
507.11	42068.79
507.28	42457.32
507.46	42417.53
507.63	42412.85
507.81	42923.08
507.98	42759.25
508.16	42932.45
508.33	43501.20
508.50	42925.42
508.68	43494.18
508.85	43707.16
509.03	43606.52
509.20	43632.27
509.38	43943.56
509.55	44402.30
509.73	44072.29
509.90	44224.42
510.08	44486.56
510.25	44954.67
510.42	44538.05
510.60	45184.04
510.77	45532.78
510.95	44931.26
511.12	44875.09
511.30	44935.95
511.47	45359.58
511.64	45516.40
511.82	45930.67
511.99	45230.85
512.17	45996.21
512.34	45729.39
512.51	46515.81
512.69	45923.65
512.86	46188.13
513.04	46689.01
513.21	46314.52
513.38	46653.90
513.56	46490.06
513.73	46703.05
513.90	46698.37
514.08	47012.00
514.25	46759.22
514.43	46759.22
514.60	47405.21
514.77	47356.06
514.95	47161.79
515.12	47267.12
515.29	47227.33
515.47	47952.90
515.64	47725.86
515.81	47566.71
515.99	47842.89
516.16	48320.36
516.33	48229.08
516.51	48526.33
516.68	48533.35
516.85	48388.24
517.03	48830.60
517.20	48531.01
517.37	48502.92
517.54	48699.53
517.72	48626.97
517.89	49226.15
518.06	49078.69
518.24	48877.41
518.41	49284.66
518.58	49184.02
518.75	49186.36
518.93	49591.27
519.10	48788.47
519.27	49663.83
519.45	49514.03
519.62	49705.96
519.79	49958.73
519.96	49846.39
520.14	49972.78
520.31	50195.13
520.48	50241.94
520.65	50042.99
520.83	50424.50
521.00	50295.77
521.17	50326.20
521.34	50190.45
521.52	50901.97
521.69	50808.35
521.86	50859.84
522.03	51157.09
522.20	51047.08
522.38	51540.94
522.55	51564.34
522.72	51250.71
522.89	51323.27
523.07	51316.25
523.24	51257.73
523.41	51620.52
523.58	51681.37
523.75	51784.35
523.92	51381.78
524.10	51866.27
524.27	51737.54
524.44	51873.29
524.61	52226.71
524.78	51990.32
524.96	52156.50
525.13	51924.78
525.30	52191.61
525.47	52369.49
525.64	52587.16
525.81	52385.87
525.98	52708.86
526.16	52495.88
526.33	52512.26
526.50	52938.24
526.67	52683.12
526.84	52802.49
527.01	52664.39
527.18	52643.33
527.36	52842.27
527.53	53003.77
527.70	53148.88
527.87	53219.10
528.04	53045.90
528.21	52949.94
528.38	53041.22
528.55	53396.98
528.72	53336.13
528.89	53420.39
529.07	53354.85
529.24	53059.94
529.41	53549.12
529.58	53343.15
529.75	53862.75
529.92	53748.06
530.09	53485.92
530.26	53691.89
530.43	53804.24
530.60	53635.72
530.77	53897.86
530.94	53813.60
531.11	53961.05
531.28	54078.08
531.46	54094.46
531.63	54337.88
531.80	54085.10
531.97	54129.57
532.14	54234.89
532.31	54244.26
532.48	54403.41
532.65	54639.81
532.82	54124.89
532.99	54642.15
533.16	54321.49
533.33	54300.43
533.50	54681.94
533.67	54583.63
533.84	54625.76
534.01	54848.11
534.18	54864.50
534.35	55009.61
534.52	55089.19
534.69	54995.57
534.86	54962.80
535.03	54684.28
535.20	55248.35
535.37	55381.76
535.54	55250.69
535.71	55124.30
535.88	54944.08
536.05	55278.77
536.22	55522.19
536.38	55711.77
536.55	55414.52
536.72	55409.84
536.89	55454.31
537.06	55395.80
537.23	55690.71
537.40	55639.22
537.57	55480.06
537.74	55751.56
537.91	55805.39
538.08	55908.38
538.25	55716.45
538.42	56006.68
538.59	55861.57
538.75	55772.63
538.92	55971.57
539.09	56186.90
539.26	56097.96
539.43	55929.44
539.60	56095.62
539.77	56165.84
539.94	56310.95
540.11	56315.63
540.28	56264.14
540.44	56268.82
540.61	56240.73
540.78	56233.71
540.95	56406.91
541.12	56226.69
541.29	56439.68
541.46	56280.52
541.62	56317.97
541.79	56741.61
541.96	56322.65
542.13	56519.26
542.30	56610.54
542.47	56729.90
542.63	56821.19
542.80	56814.16
542.97	56832.89
543.14	56921.83
543.31	57045.88
543.48	57062.26
543.64	57165.24
543.81	57275.25
543.98	57181.63
544.15	57076.30
544.32	57324.40
544.48	57380.57
544.65	57331.42
544.82	57359.51
544.99	57153.54
545.16	57315.04
545.32	57455.47
545.49	57364.19
545.66	57684.84
545.83	57511.64
546.00	57551.43
546.16	57607.61
546.33	57427.38
546.50	57457.81
546.67	57759.74
546.83	57251.84
547.00	57623.99
547.17	57633.35
547.34	57499.94
547.50	57844.00
547.67	57808.89
547.84	57970.39
548.00	58021.88
548.17	58059.33
548.34	57872.09
548.51	58045.29
548.67	58054.65
548.84	58047.63
549.01	57939.96
549.18	58335.51
549.34	58003.16
549.51	58248.91
549.68	58260.62
549.84	58227.85
550.01	58328.49
550.18	58164.65
550.34	58335.51
550.51	58281.68
550.68	58375.30
550.84	57923.58
551.01	58447.86
551.18	58150.61
551.34	58684.25
551.51	58419.77
551.68	58459.56
551.84	58291.04
552.01	58454.88
552.18	58770.85
552.34	58529.78
552.51	58625.74
552.68	58321.47
552.84	58361.26
553.01	58817.66
553.18	58644.46
553.34	58681.91
553.51	58670.21
553.67	58735.74
553.84	58717.02
554.01	58908.94
554.17	58740.42
554.34	58960.44
554.51	58880.86
554.67	58939.37
554.84	58948.73
555.00	58974.48
555.17	58834.05
555.33	59124.27
555.50	58754.47
555.67	58707.66
555.83	59058.74
556.00	58951.07
556.16	59297.47
556.33	59056.40
556.50	58981.50
556.66	59075.12
556.83	59159.38
556.99	59231.94
557.16	59351.30
557.32	59330.24
557.49	59550.25
557.65	59210.87
557.82	59365.35
557.98	59400.46
558.15	59391.09
558.32	59274.07
558.48	59126.61
558.65	59161.72
558.81	59288.11
558.98	59250.66
559.14	59379.39
559.31	59320.88
559.47	59611.10
559.64	59660.26
559.80	59655.57
559.97	59826.43
560.13	59468.33
560.30	59484.72
560.46	59580.68
560.63	59625.15
560.79	59664.94
560.96	59718.77
561.12	59744.51
561.29	59751.54
561.45	59767.92
561.61	59599.40
561.78	59814.73
561.94	59639.19
562.11	59456.63
562.27	59751.54
562.44	59744.51
562.60	59980.91
562.77	59751.54
562.93	59798.35
563.10	60013.68
563.26	59711.75
563.42	60032.40
563.59	59833.46
563.75	59906.01
563.92	59994.95
564.08	59826.43
564.24	60093.25
564.41	60154.11
564.57	60020.70
564.74	60044.10
564.90	60226.66
565.07	60023.04
565.23	60044.10
565.39	59751.54
565.56	60200.92
565.72	60140.07
565.88	59994.95
566.05	60004.31
566.21	60083.89
566.38	60135.38
566.54	60198.58
566.70	60257.09
566.87	60271.14
567.03	60086.23
567.19	60317.95
567.36	60296.88
567.52	60168.15
567.68	60381.14
567.85	60177.51
568.01	60519.23
568.17	60221.98
568.34	60233.69
568.50	60097.94
568.66	60205.60
568.83	60182.19
568.99	60266.45
569.15	60315.61
569.32	60357.74
569.48	60182.19
569.64	60493.49
569.81	60418.59
569.97	60116.66
570.13	60151.77
570.30	60114.32
570.46	60362.42
570.62	60214.96
570.78	60360.08
570.95	60273.48
571.11	60472.42
571.27	60313.26
571.43	60266.45
571.60	60451.36
571.76	60465.40
571.92	60451.36
572.09	60402.21
572.25	60444.33
572.41	60439.65
572.57	60514.55
572.74	60460.72
572.90	60528.59
573.06	60402.21
573.22	60427.95
573.38	60533.28
573.55	60512.21
573.71	60910.10
573.87	60350.71
574.03	60374.12
574.20	60561.36
574.36	60399.86
574.52	60757.97
574.68	60514.55
574.84	60846.91
575.01	60612.85
575.17	60687.75
575.33	60434.97
575.49	60395.18
575.65	60750.94
575.82	60584.77
575.98	60701.79
576.14	60591.79
576.30	60727.54
576.46	60523.91
576.62	60584.77
576.79	60397.52
576.95	60647.96
577.11	60748.60
577.27	60736.90
577.43	60619.88
577.59	60762.65
577.75	60498.17
577.92	60575.40
578.08	60699.45
578.24	60594.13
578.40	60680.73
578.56	60622.22
578.72	60640.94
578.88	60879.67
579.04	60970.96
579.21	60612.85
579.37	60835.20
579.53	60872.65
579.69	60537.96
579.85	60622.22
580.01	60638.60
580.17	60575.40
580.33	60786.05
580.49	61073.94
580.65	60860.95
580.82	60727.54
580.98	60750.94
581.14	60540.30
581.30	60814.14
581.46	60750.94
581.62	60844.57
581.78	60720.52
581.94	60643.28
582.10	60636.26
582.26	60736.90
582.42	60718.18
582.58	60795.42
582.74	60853.93
582.90	60769.67
583.06	60687.75
583.22	60767.33
583.38	60872.65
583.54	60807.12
583.70	60774.35
583.86	60874.99
584.02	60786.05
584.18	61013.08
584.34	60804.78
584.50	60781.37
584.66	60647.96
584.82	60636.26
584.98	60942.87
585.14	60992.02
585.30	60584.77
585.46	60982.66
585.62	60945.21
585.78	60938.19
585.94	60722.86
586.10	61010.74
586.26	60830.52
586.42	61020.11
586.58	61006.06
586.74	61090.32
586.90	60921.80
587.06	60933.51
587.22	61038.83
587.38	60846.91
587.54	61052.87
587.70	61090.32
587.86	60999.04
588.02	60975.64
588.18	61153.52
588.34	60772.01
588.49	60954.57
