SpectraSuite Data File
++++++++++++++++++++++++++++++++++++
Date: Fri Oct 25 10:44:30 EDT 2013
User: price-jones
Dark Spectrum Present: No
Reference Spectrum Present: No
Number of Sampled Component Spectra: 1
Spectrometers: USB2+H05261
Integration Time (usec): 100000 (USB2+H05261)
Spectra Averaged: 1 (USB2+H05261)
Boxcar Smoothing: 0 (USB2+H05261)
Correct for Electrical Dark: No (USB2+H05261)
Strobe/Lamp Enabled: No (USB2+H05261)
Correct for Detector Non-linearity: No (USB2+H05261)
Correct for Stray Light: No (USB2+H05261)
Number of Pixels in Processed Spectrum: 2048
>>>>>Begin Processed Spectral Data<<<<<
365.73	117.03
365.92	117.03
366.12	117.03
366.32	21.06
366.52	49.15
366.72	39.79
366.91	142.77
367.11	21.06
367.31	14.04
367.51	46.81
367.70	28.09
367.90	0.00
368.10	0.00
368.30	16.38
368.49	98.30
368.69	49.15
368.89	63.19
369.09	77.24
369.28	105.32
369.48	86.60
369.68	23.41
369.87	72.56
370.07	149.79
370.27	56.17
370.47	140.43
370.66	376.83
370.86	409.59
371.06	402.57
371.25	484.49
371.45	376.83
371.65	498.53
371.84	395.55
372.04	428.32
372.24	449.38
372.44	465.77
372.63	531.30
372.83	524.28
373.03	526.62
373.22	503.22
373.42	500.87
373.62	498.53
373.81	559.39
374.01	538.32
374.21	573.43
374.40	587.47
374.60	568.75
374.79	482.15
374.99	545.34
375.19	557.05
375.38	645.99
375.58	631.94
375.78	559.39
375.97	617.90
376.17	643.65
376.37	599.18
376.56	512.58
376.76	573.43
376.95	594.50
377.15	648.33
377.35	599.18
377.54	636.63
377.74	620.24
377.93	622.58
378.13	603.86
378.33	638.97
378.52	589.82
378.72	636.63
378.91	624.92
379.11	550.03
379.31	655.35
379.50	662.37
379.70	662.37
379.89	697.48
380.09	732.59
380.28	678.76
380.48	603.86
380.68	664.71
380.87	615.56
381.07	699.82
381.26	737.27
381.46	741.95
381.65	669.39
381.85	718.54
382.04	657.69
382.24	690.46
382.43	606.20
382.63	751.31
382.83	664.71
383.02	753.65
383.22	793.44
383.41	702.16
383.61	624.92
383.80	784.08
384.00	678.76
384.19	683.44
384.39	805.14
384.58	767.70
384.78	704.50
384.97	793.44
385.17	760.67
385.36	830.89
385.56	746.63
385.75	760.67
385.95	720.88
386.14	896.43
386.34	828.55
386.53	837.91
386.72	814.51
386.92	856.64
387.11	870.68
387.31	873.02
387.50	856.64
387.70	830.89
387.89	840.25
388.09	755.99
388.28	807.48
388.48	882.38
388.67	884.72
388.86	891.74
389.06	788.76
389.25	877.70
389.45	943.24
389.64	894.08
389.84	917.49
390.03	1001.75
390.22	1011.11
390.42	983.02
390.61	898.77
390.81	964.30
391.00	938.55
391.19	957.28
391.39	1011.11
391.58	987.71
391.78	1004.09
391.97	922.17
392.16	945.58
392.36	1067.28
392.55	985.37
392.75	994.73
392.94	891.74
393.13	990.05
393.33	966.64
393.52	1025.15
393.71	1022.81
393.91	971.32
394.10	1025.15
394.29	1032.18
394.49	1083.67
394.68	1090.69
394.88	1139.84
395.07	1107.07
395.26	1114.10
395.46	1156.22
395.65	1165.59
395.84	1163.25
396.04	1160.91
396.23	1144.52
396.42	1226.44
396.62	1135.16
396.81	1123.46
397.00	1203.04
397.19	1203.04
397.39	1233.46
397.58	1306.02
397.77	1289.64
397.97	1343.47
398.16	1284.95
398.35	1369.21
398.55	1352.83
398.74	1416.02
398.93	1352.83
399.12	1308.36
399.32	1366.87
399.51	1366.87
399.70	1401.98
399.90	1423.05
400.09	1521.35
400.28	1458.15
400.47	1418.36
400.67	1453.47
400.86	1554.12
401.05	1624.33
401.24	1535.39
401.44	1528.37
401.63	1561.14
401.82	1657.10
402.01	1638.38
402.21	1621.99
402.40	1610.29
402.59	1617.31
402.78	1624.33
402.97	1647.74
403.17	1685.19
403.36	1696.89
403.55	1659.44
403.74	1811.57
403.93	1743.70
404.13	1739.02
404.32	1720.29
404.51	1675.82
404.70	1741.36
404.89	1832.64
405.09	1921.58
405.28	1748.38
405.47	1720.29
405.66	1923.92
405.85	1914.56
406.05	1877.11
406.24	1909.88
406.43	1802.21
406.62	1872.43
406.81	1952.01
407.00	1872.43
407.20	1837.32
407.39	1853.70
407.58	2008.18
407.77	2076.06
407.96	1888.81
408.15	2052.65
408.34	1966.05
408.54	2099.46
408.73	2078.40
408.92	2160.31
409.11	2115.84
409.30	2083.08
409.49	2193.08
409.68	2092.44
409.87	2071.37
410.07	2148.61
410.26	2143.93
410.45	2186.06
410.64	2165.00
410.83	2335.85
411.02	2509.05
411.21	2368.62
411.40	2396.71
411.59	2401.39
411.78	2429.48
411.98	2366.28
412.17	2459.90
412.36	2544.16
412.55	2555.86
412.74	2469.27
412.93	2551.18
413.12	2462.24
413.31	2782.90
413.50	2590.97
413.69	2583.95
413.88	2736.09
414.07	2731.41
414.26	2684.59
414.45	2663.53
414.64	2803.96
414.83	2848.43
415.02	2818.00
415.22	2986.52
415.41	2916.31
415.60	2995.89
415.79	3000.57
415.98	3094.19
416.17	3021.63
416.36	2913.97
416.55	2909.29
416.74	3122.27
416.93	3103.55
417.12	3124.62
417.31	3063.76
417.50	3211.22
417.69	3279.09
417.88	3241.64
418.07	3119.93
418.26	3183.13
418.45	3241.64
418.64	3342.28
418.83	3510.80
419.02	3225.26
419.21	3363.35
419.39	3276.75
419.58	3419.52
419.77	3410.16
419.96	3574.00
420.15	3489.74
420.34	3438.25
420.53	3405.48
420.72	3449.95
420.91	3480.38
421.10	3538.89
421.29	3581.02
421.48	3564.64
421.67	3625.49
421.86	3466.33
422.05	3501.44
422.24	3665.28
422.43	3566.98
422.61	3524.85
422.80	3747.20
422.99	3637.19
423.18	3665.28
423.37	3854.86
423.56	3637.19
423.75	3712.09
423.94	3515.48
424.13	3419.52
424.32	3653.58
424.50	3896.99
424.69	3749.54
424.88	3749.54
425.07	3705.07
425.26	3557.61
425.45	3702.73
425.64	3618.47
425.83	3794.01
426.01	3794.01
426.20	3588.04
426.39	3702.73
426.58	3641.87
426.77	3744.86
426.96	3719.11
427.15	3782.31
427.33	3845.50
427.52	3838.48
427.71	3854.86
427.90	3885.29
428.09	3943.80
428.28	3946.14
428.46	3852.52
428.65	3798.69
428.84	4035.08
429.03	4046.79
429.22	3805.71
429.40	3904.01
429.59	3962.53
429.78	3775.28
429.97	3707.41
430.16	3763.58
430.34	3866.56
430.53	3904.01
430.72	4035.08
430.91	3852.52
431.10	4049.13
431.28	4227.01
431.47	4250.41
431.66	4351.06
431.85	4243.39
432.03	4353.40
432.22	4383.82
432.41	4332.33
432.60	4290.20
432.79	4404.89
432.97	4568.73
433.16	4505.53
433.35	4325.31
433.54	4498.51
433.72	4423.61
433.91	4449.36
434.10	4435.32
434.28	4582.77
434.47	4552.34
434.66	4519.57
434.85	4409.57
435.03	4650.64
435.22	4681.07
435.41	4786.40
435.59	4765.33
435.78	4784.06
435.97	4781.71
436.16	4856.61
436.34	4791.08
436.53	4730.22
436.72	5064.92
436.90	4800.44
437.09	4889.38
437.28	4896.40
437.46	4959.60
437.65	4936.19
437.84	4945.55
438.02	4758.31
438.21	5001.72
438.40	4826.18
438.58	4985.34
438.77	4975.98
438.96	5203.01
439.14	5277.91
439.33	5404.30
439.52	5284.93
439.70	5378.55
439.89	5107.05
440.08	5322.38
440.26	5348.12
440.45	5259.18
440.63	5413.66
440.82	5703.89
441.01	5626.65
441.19	5572.82
441.38	5692.18
441.57	5795.17
441.75	5884.11
441.94	5834.96
442.12	5813.89
442.31	5951.98
442.50	5893.47
442.68	5877.09
442.87	5944.96
443.05	6087.73
443.24	6064.33
443.43	6012.84
443.61	5977.73
443.80	6038.58
443.98	6087.73
444.17	5809.21
444.35	5982.41
444.54	6293.70
444.73	6071.35
444.91	6118.16
445.10	6076.03
445.28	6099.44
445.47	5968.37
445.65	6024.54
445.84	5975.39
446.02	6141.57
446.21	6162.63
446.39	6183.70
446.58	6195.40
446.77	6150.93
446.95	6225.82
447.14	6200.08
447.32	6314.77
447.51	6216.46
447.69	6076.03
447.88	6260.93
448.06	6452.86
448.25	6317.11
448.43	6300.72
448.62	6307.74
448.80	6260.93
448.99	6319.45
449.17	6375.62
449.36	6352.21
449.54	6567.54
449.73	6527.75
449.91	6651.80
450.10	6759.47
450.28	6867.13
450.46	6810.96
450.65	6661.16
450.83	6794.58
451.02	6682.23
451.20	6810.96
451.39	6796.92
451.57	6768.83
451.76	6724.36
451.94	6855.43
452.13	6700.95
452.31	6841.39
452.49	6696.27
452.68	6822.66
452.86	6780.53
453.05	6815.64
453.23	6740.74
453.42	6960.75
453.60	6827.34
453.78	7138.63
453.97	6860.11
454.15	6995.86
454.34	6874.15
454.52	7049.69
454.70	7094.16
454.89	6935.01
455.07	7253.32
455.26	7136.29
455.44	7314.17
455.62	7225.23
455.81	7250.98
455.99	7267.36
456.17	7375.03
456.36	7171.40
456.54	7480.35
456.73	7564.61
456.91	7655.89
457.09	7815.05
457.28	7801.01
457.46	7499.08
457.64	7623.12
457.83	7569.29
458.01	7445.24
458.19	7735.47
458.38	7590.36
458.56	7810.37
458.74	7815.05
458.93	7901.65
459.11	7906.33
459.29	7737.81
459.48	7873.56
459.66	7936.76
459.84	7894.63
460.03	7960.16
460.21	7819.73
460.39	8011.65
460.57	8016.33
460.76	8098.25
460.94	8140.38
461.12	8222.30
461.31	8044.42
461.49	8039.74
461.67	7892.29
461.85	8379.12
462.04	8355.71
462.22	8226.98
462.40	8397.84
462.59	8327.63
462.77	8273.79
462.95	8477.42
463.13	8381.46
463.32	8353.37
463.50	8655.30
463.68	8549.98
463.86	8416.57
464.05	8407.20
464.23	8304.22
464.41	8681.05
464.59	8379.12
464.78	8802.75
464.96	8692.75
465.14	8505.51
465.32	8856.59
465.50	8791.05
465.69	8678.71
465.87	8875.31
466.05	8746.58
466.23	8650.62
466.41	8915.10
466.60	8882.33
466.78	8641.26
466.96	8564.02
467.14	8844.88
467.32	8826.16
467.51	8896.38
467.69	8910.42
467.87	8908.08
468.05	8954.89
468.23	8964.25
468.41	8870.63
468.60	8889.35
468.78	9025.11
468.96	8898.72
469.14	9142.13
469.32	9221.71
469.50	9074.26
469.69	9135.11
469.87	9385.55
470.05	9483.85
470.23	9390.23
470.41	8990.00
470.59	9329.38
470.77	9462.79
470.95	9317.67
471.14	9439.38
471.32	9102.34
471.50	9680.46
471.68	9689.82
471.86	9633.64
472.04	9631.30
472.22	10097.07
472.40	9673.43
472.58	9846.63
472.77	9839.61
472.95	10111.11
473.13	10230.48
473.31	9898.13
473.49	9848.97
473.67	9968.34
473.85	10115.80
474.03	10293.68
474.21	10394.32
474.39	10511.35
474.57	10228.14
474.75	10513.69
474.93	10588.58
475.12	10590.92
475.30	10511.35
475.48	10665.82
475.66	10581.56
475.84	10698.59
476.02	10719.65
476.20	10698.59
476.38	10729.02
476.56	11150.31
476.74	11192.44
476.92	11108.18
477.10	11117.54
477.28	11503.73
477.46	11473.31
477.64	11789.28
477.82	11744.81
478.00	12018.65
478.18	11955.46
478.36	11948.43
478.54	12023.33
478.72	12046.74
478.90	12063.12
479.08	12390.80
479.26	12446.97
479.44	12341.64
479.62	12470.37
479.80	12662.30
479.98	12772.30
480.16	12774.64
480.34	12894.01
480.52	13025.08
480.70	13013.38
480.88	12957.21
481.06	13078.91
481.24	13275.52
481.41	13441.70
481.59	13659.37
481.77	13837.25
481.95	13664.05
482.13	14047.90
482.31	13764.69
482.49	14090.02
482.67	14326.42
482.85	14256.20
483.03	14628.35
483.21	14457.49
483.39	14621.33
483.57	14684.52
483.74	14794.53
483.92	14869.42
484.10	14693.88
484.28	15096.46
484.46	15208.80
484.64	15534.14
484.82	15302.42
485.00	15403.07
485.18	15594.99
485.35	15688.61
485.53	15449.88
485.71	15192.42
485.89	15573.92
486.07	15611.37
486.25	15988.20
486.43	16011.60
486.61	16102.89
486.78	16608.44
486.96	16498.44
487.14	16805.05
487.32	16936.12
487.50	17111.66
487.68	17233.36
487.85	17554.02
488.03	17657.00
488.21	17879.35
488.39	17678.07
488.57	17642.96
488.75	17823.18
488.92	18106.38
489.10	18347.46
489.28	18445.76
489.46	18672.79
489.64	18361.50
489.81	19023.87
489.99	19161.97
490.17	19220.48
490.35	19686.25
490.53	19690.93
490.70	19522.41
490.88	19637.09
491.06	19758.80
491.24	20002.22
491.41	19887.53
491.59	19861.79
491.77	19831.36
491.95	20013.92
492.13	20240.95
492.30	20467.98
492.48	20704.38
492.66	20922.05
492.84	21025.03
493.01	20650.55
493.19	20915.03
493.37	21043.76
493.54	21081.21
493.72	21598.46
493.90	21528.25
494.08	21741.24
494.25	21984.65
494.43	22307.65
494.61	22242.11
494.79	22195.30
494.96	22375.52
495.14	22178.92
495.32	22586.17
495.49	22693.83
495.67	22637.66
495.85	22965.34
496.02	23133.86
496.20	23477.91
496.38	22970.02
496.55	23489.62
496.73	23922.62
496.91	23793.89
497.09	23716.65
497.26	23908.57
497.44	23758.78
497.62	23833.68
497.79	24432.85
497.97	23999.85
498.14	24144.97
498.32	24247.95
498.50	24652.86
498.67	25041.39
498.85	24669.25
499.03	24915.00
499.20	24751.17
499.38	24945.43
499.56	25146.72
499.73	24996.92
499.91	25336.30
500.08	25572.69
500.26	25106.93
500.44	25151.40
500.61	25481.41
500.79	25340.98
500.97	25694.40
501.14	26260.81
501.32	26309.96
501.49	26015.05
501.67	25984.63
501.84	26401.24
502.02	26089.95
502.20	26434.01
502.37	26955.95
502.55	26988.72
502.72	26686.79
502.90	26925.52
503.07	27035.53
503.25	26883.39
503.43	26946.59
503.60	26806.16
503.78	26953.61
503.95	26981.70
504.13	26995.74
504.30	27168.94
504.48	27470.87
504.65	27297.67
504.83	27740.03
505.01	27751.73
505.18	27651.09
505.36	28170.69
505.53	27777.48
505.71	28748.80
505.88	28290.06
506.06	28276.01
506.23	28542.83
506.41	28336.87
506.58	28245.58
506.76	28886.89
506.93	28753.48
507.11	28666.88
507.28	28905.62
507.46	28606.03
507.63	28938.38
507.81	28856.46
507.98	28992.22
508.16	29497.77
508.33	29240.31
508.50	29607.78
508.68	29713.10
508.85	29993.97
509.03	29876.94
509.20	29668.63
509.38	29839.49
509.55	29752.89
509.73	29743.53
509.90	29914.39
510.08	30139.08
510.25	29970.56
510.42	30316.96
510.60	30670.38
510.77	30459.73
510.95	30890.39
511.12	30719.53
511.30	30452.71
511.47	31178.28
511.64	31157.21
511.82	31316.37
511.99	30803.79
512.17	31068.27
512.34	31040.18
512.51	31246.15
512.69	31292.96
512.86	31482.55
513.04	31711.92
513.21	31349.14
513.38	31117.42
513.56	31545.74
513.73	31765.75
513.90	31838.31
514.08	31622.98
514.25	31960.02
514.43	31873.42
514.60	32182.37
514.77	32030.23
514.95	32437.48
515.12	31901.50
515.29	32517.06
515.47	32428.12
515.64	32418.76
515.81	32278.33
515.99	32776.86
516.16	32596.64
516.33	32236.20
516.51	32858.78
516.68	32266.63
516.85	32397.70
517.03	32442.17
517.20	32648.13
517.37	32692.60
517.54	32996.87
517.72	33132.62
517.89	32929.00
518.06	32947.72
518.24	33039.00
518.41	33043.68
518.58	33158.37
518.75	33212.20
518.93	33661.58
519.10	33544.56
519.27	33612.43
519.45	33619.46
519.62	34000.96
519.79	33762.23
519.96	33883.94
520.14	34094.58
520.31	34426.94
520.48	34220.97
520.65	34003.30
520.83	34733.55
521.00	34710.14
521.17	34780.36
521.34	34504.18
521.52	34913.77
521.69	34689.08
521.86	35112.72
522.03	35211.02
522.20	34888.03
522.38	35288.26
522.55	35122.08
522.72	35206.34
522.89	35391.24
523.07	35246.13
523.24	35124.42
523.41	35590.19
523.58	35606.57
523.75	35945.95
523.92	35786.79
524.10	35728.28
524.27	35800.83
524.44	35674.45
524.61	35988.08
524.78	36201.07
524.96	36505.34
525.13	36638.75
525.30	36025.53
525.47	36282.98
525.64	36353.20
525.81	36133.19
525.98	36245.54
526.16	36320.43
526.33	36205.75
526.50	36488.95
526.67	36229.15
526.84	36357.88
527.01	36280.64
527.18	36690.24
527.36	36589.59
527.53	37294.10
527.70	37200.47
527.87	37280.05
528.04	37343.25
528.21	37102.17
528.38	36980.46
528.55	37106.85
528.72	37577.30
528.89	37858.17
529.07	37684.97
529.24	37067.06
529.41	37621.77
529.58	37139.62
529.75	37507.08
529.92	37631.13
530.09	37701.35
530.26	37799.65
530.43	37947.11
530.60	37830.08
530.77	37893.27
530.94	38150.73
531.11	38005.62
531.28	38113.28
531.46	38333.29
531.63	38014.98
531.80	38061.79
531.97	38426.92
532.14	38380.10
532.31	37853.48
532.48	38075.84
532.65	38829.49
532.82	38349.68
532.99	38705.44
533.16	38073.49
533.33	38740.55
533.50	38759.27
533.67	38345.00
533.84	38677.35
534.01	38916.09
534.18	38920.77
534.35	39150.14
534.52	38813.10
534.69	38923.11
534.86	39192.27
535.03	39028.43
535.20	39592.50
535.37	39620.59
535.54	39737.62
535.71	39496.54
535.88	39278.87
536.05	38843.53
536.22	39746.98
536.38	39328.02
536.55	39313.98
536.72	39587.82
536.89	39398.24
537.06	39679.10
537.23	39370.15
537.40	39604.20
537.57	39442.71
537.74	40177.64
537.91	40116.78
538.08	40215.08
538.25	39402.92
538.42	40018.48
538.59	39875.71
538.75	39566.76
538.92	40107.42
539.09	40261.90
539.26	40084.01
539.43	39892.09
539.60	40109.76
539.77	40311.05
539.94	40032.52
540.11	39765.70
540.28	40428.07
540.44	40519.35
540.61	40425.73
540.78	40201.04
540.95	40353.18
541.12	40243.17
541.29	40285.30
541.46	40474.88
541.62	40196.36
541.79	41219.17
541.96	40442.12
542.13	40718.30
542.30	40751.07
542.47	40528.72
542.63	40900.86
542.80	40720.64
542.97	41591.32
543.14	41687.28
543.31	41038.95
543.48	41565.57
543.64	41687.28
543.81	41551.53
543.98	41626.43
544.15	41544.51
544.32	41759.84
544.48	41893.25
544.65	41504.72
544.82	41771.54
544.99	41916.65
545.16	41511.74
545.32	41478.97
545.49	41989.21
545.66	42106.24
545.83	42026.66
546.00	41797.29
546.16	42029.00
546.33	42291.14
546.50	41436.84
546.67	41507.06
546.83	41546.85
547.00	41823.03
547.17	42202.20
547.34	42295.82
547.50	41986.87
547.67	42267.73
547.84	42398.80
548.00	42567.32
548.17	42635.20
548.34	42401.14
548.51	42752.23
548.67	42447.96
548.84	42738.18
549.01	42639.88
549.18	42405.83
549.34	42677.33
549.51	42738.18
549.68	42777.97
549.84	42361.36
550.01	42862.23
550.18	42733.50
550.34	43047.13
550.51	43044.79
550.68	43072.88
550.84	42021.98
551.01	42866.91
551.18	43054.15
551.34	43012.02
551.51	43058.84
551.68	43246.08
551.84	43438.00
552.01	43033.09
552.18	42986.28
552.34	43225.01
552.51	43332.68
552.68	43000.32
552.84	43213.31
553.01	43550.35
553.18	43248.42
553.34	42869.25
553.51	43299.91
553.67	43246.08
553.84	43466.09
554.01	43646.31
554.17	43564.39
554.34	43452.05
554.51	43363.11
554.67	43597.16
554.84	43576.09
555.00	43386.51
555.17	43337.36
555.33	43964.62
555.50	43470.77
555.67	43405.23
555.83	43489.49
556.00	43889.73
556.16	44254.85
556.33	43489.49
556.50	43667.37
556.66	44105.06
556.83	43253.10
556.99	43812.49
557.16	44332.09
557.32	44011.43
557.49	44219.74
557.65	44098.03
557.82	44121.44
557.98	43737.59
558.15	43950.58
558.32	43906.11
558.48	44018.46
558.65	43749.29
558.81	43894.41
558.98	43931.86
559.14	44184.63
559.31	43803.13
559.47	44243.15
559.64	44598.91
559.80	44179.95
559.97	44098.03
560.13	43941.22
560.30	44306.34
560.46	44020.80
560.63	44376.56
560.79	44275.91
560.96	44624.65
561.12	44238.47
561.29	44229.10
561.45	44390.60
561.61	44355.49
561.78	44280.60
561.94	43992.71
562.11	44451.45
562.27	44505.29
562.44	44507.63
562.60	44662.10
562.77	44524.01
562.93	44329.75
563.10	44900.84
563.26	44252.51
563.42	44439.75
563.59	44395.28
563.75	44512.31
563.92	44425.71
564.08	44704.23
564.24	44961.69
564.41	44830.62
564.57	44575.50
564.74	44418.69
564.90	44161.23
565.07	44222.08
565.23	44369.54
565.39	44500.61
565.56	44589.55
565.72	44760.40
565.88	44762.75
566.05	44634.02
566.21	44388.26
566.38	44428.05
566.54	44596.57
566.70	45120.85
566.87	45031.91
567.03	44704.23
567.19	45251.92
567.36	44622.31
567.52	45106.80
567.68	44889.13
567.85	44402.30
568.01	44737.00
568.17	44851.69
568.34	45062.33
568.50	45106.80
568.66	44940.63
568.83	44875.09
568.99	44748.70
569.15	44959.35
569.32	44746.36
569.48	44722.96
569.64	45336.18
569.81	44851.69
569.97	44694.87
570.13	44842.32
570.30	44596.57
570.46	44545.08
570.62	44641.04
570.78	44666.78
570.95	44657.42
571.11	44938.29
571.27	44900.84
571.43	44645.72
571.60	45177.02
571.76	44692.53
571.92	44987.44
572.09	45048.29
572.25	44502.95
572.41	45191.06
572.57	45043.61
572.74	45083.40
572.90	45237.87
573.06	44907.86
573.22	44966.37
573.38	44865.73
573.55	45226.17
573.71	45118.51
573.87	45041.27
574.03	45055.31
574.20	45045.95
574.36	44718.28
574.52	45375.97
574.68	44626.99
574.84	45022.54
575.01	44732.32
575.17	45076.38
575.33	44847.00
575.49	44893.82
575.65	45387.67
575.82	45298.73
575.98	45205.11
576.14	45172.34
576.30	45488.31
576.46	45015.52
576.62	44734.66
576.79	45413.41
576.95	44982.76
577.11	45017.86
577.27	44706.57
577.43	45179.36
577.59	45214.47
577.75	45029.57
577.92	44357.83
578.08	44584.86
578.24	45125.53
578.40	45015.52
578.56	45113.83
578.72	44938.29
578.88	45041.27
579.04	45207.45
579.21	45074.04
579.37	45041.27
579.53	45085.74
579.69	44748.70
579.85	45408.73
580.01	45359.58
580.17	45446.18
580.33	45743.43
580.49	45287.03
580.65	45357.24
580.82	45092.76
580.98	45038.93
581.14	45127.87
581.30	45375.97
581.46	44825.94
581.62	45387.67
581.78	45399.37
581.94	45591.30
582.10	45170.00
582.26	45294.05
582.42	45237.87
582.58	45118.51
582.74	44898.50
582.90	45490.65
583.06	45478.95
583.22	45542.14
583.38	45038.93
583.54	45619.38
583.70	45118.51
583.86	45399.37
584.02	44989.78
584.18	45324.47
584.34	45062.33
584.50	45258.94
584.66	45209.79
584.82	45118.51
584.98	45654.49
585.14	45268.30
585.30	45102.12
585.46	45111.49
585.62	45205.11
585.78	45081.06
585.94	44891.48
586.10	44935.95
586.26	45139.57
586.42	45404.05
586.58	45729.39
586.74	45450.86
586.90	45375.97
587.06	45055.31
587.22	45483.63
587.38	44994.46
587.54	45132.55
587.70	45390.01
587.86	45291.71
588.02	45439.16
588.18	45530.44
588.34	45502.35
588.49	44851.69
588.65	44903.18
588.81	45036.59
588.97	44912.54
589.13	44938.29
589.29	44671.46
589.45	45806.62
589.61	45364.26
589.77	45380.65
589.93	45478.95
590.08	45331.50
590.24	45729.39
