SpectraSuite Data File
++++++++++++++++++++++++++++++++++++
Date: Fri Oct 25 11:26:10 EDT 2013
User: price-jones
Dark Spectrum Present: No
Reference Spectrum Present: No
Number of Sampled Component Spectra: 1
Spectrometers: USB2+H05261
Integration Time (usec): 100000 (USB2+H05261)
Spectra Averaged: 1 (USB2+H05261)
Boxcar Smoothing: 0 (USB2+H05261)
Correct for Electrical Dark: No (USB2+H05261)
Strobe/Lamp Enabled: No (USB2+H05261)
Correct for Detector Non-linearity: No (USB2+H05261)
Correct for Stray Light: No (USB2+H05261)
Number of Pixels in Processed Spectrum: 2048
>>>>>Begin Processed Spectral Data<<<<<
365.73	229.37
365.92	229.37
366.12	229.37
366.32	191.92
366.52	124.05
366.72	149.79
366.91	100.64
367.11	180.22
367.31	126.39
367.51	140.43
367.70	191.92
367.90	152.13
368.10	142.77
368.30	117.03
368.49	196.60
368.69	117.03
368.89	175.54
369.09	205.97
369.28	180.22
369.48	173.20
369.68	180.22
369.87	163.84
370.07	198.95
370.27	290.23
370.47	297.25
370.66	620.24
370.86	692.80
371.06	723.23
371.25	667.05
371.45	650.67
371.65	678.76
371.84	653.01
372.04	620.24
372.24	727.91
372.44	683.44
372.63	709.18
372.83	720.88
373.03	741.95
373.22	812.17
373.42	809.83
373.62	798.12
373.81	826.21
374.01	828.55
374.21	910.47
374.40	812.17
374.60	882.38
374.79	870.68
374.99	819.19
375.19	861.32
375.38	816.85
375.58	788.76
375.78	842.59
375.97	961.96
376.17	896.43
376.37	826.21
376.56	833.23
376.76	870.68
376.95	866.00
377.15	851.96
377.35	887.06
377.54	910.47
377.74	851.96
377.93	917.49
378.13	833.23
378.33	898.77
378.52	915.15
378.72	971.32
378.91	926.85
379.11	875.36
379.31	990.05
379.50	947.92
379.70	938.55
379.89	938.55
380.09	933.87
380.28	1036.86
380.48	1046.22
380.68	1018.13
380.87	1020.47
381.07	938.55
381.26	1032.18
381.46	1025.15
381.65	961.96
381.85	1076.65
382.04	1097.71
382.24	978.34
382.43	992.39
382.63	1055.58
382.83	1088.35
383.02	1118.78
383.22	1200.69
383.41	1008.77
383.61	1081.33
383.80	1165.59
384.00	1123.46
384.19	1102.39
384.39	1198.35
384.58	1118.78
384.78	1151.54
384.97	1132.82
385.17	1259.21
385.36	1093.03
385.56	1137.50
385.75	1146.86
385.95	1221.76
386.14	1252.19
386.34	1214.74
386.53	1203.04
386.72	1132.82
386.92	1240.48
387.11	1289.64
387.31	1266.23
387.50	1322.40
387.70	1217.08
387.89	1284.95
388.09	1301.34
388.28	1308.36
388.48	1413.68
388.67	1324.74
388.86	1226.44
389.06	1369.21
389.25	1369.21
389.45	1409.00
389.64	1355.17
389.84	1434.75
390.03	1362.19
390.22	1313.04
390.42	1455.81
390.61	1380.92
390.81	1390.28
391.00	1383.26
391.19	1444.11
391.39	1448.79
391.58	1437.09
391.78	1474.54
391.97	1486.24
392.16	1500.28
392.36	1554.12
392.55	1504.96
392.75	1556.46
392.94	1537.73
393.13	1584.54
393.33	1526.03
393.52	1504.96
393.71	1631.35
393.91	1593.90
394.10	1572.84
394.29	1556.46
394.49	1673.48
394.68	1650.08
394.88	1664.12
395.07	1624.33
395.26	1703.91
395.46	1722.63
395.65	1687.53
395.84	1771.79
396.04	1811.57
396.23	1734.34
396.42	1792.85
396.62	1795.19
396.81	1783.49
397.00	1788.17
397.19	1783.49
397.39	1774.13
397.58	1811.57
397.77	1781.15
397.97	1736.68
398.16	1774.13
398.35	1874.77
398.55	1902.86
398.74	1956.69
398.93	2015.20
399.12	1907.54
399.32	1926.26
399.51	1895.83
399.70	1956.69
399.90	2050.31
400.09	2001.16
400.28	2083.08
400.47	2012.86
400.67	2108.82
400.86	2073.71
401.05	1989.46
401.24	2174.36
401.44	2120.53
401.63	2148.61
401.82	2181.38
402.01	2146.27
402.21	2101.80
402.40	2225.85
402.59	2148.61
402.78	2209.47
402.97	2207.13
403.17	2200.10
403.36	2296.07
403.55	2328.83
403.74	2424.80
403.93	2415.43
404.13	2267.98
404.32	2319.47
404.51	2396.71
404.70	2389.69
404.89	2497.35
405.09	2443.52
405.28	2424.80
405.47	2401.39
405.66	2579.27
405.85	2471.61
406.05	2509.05
406.24	2654.17
406.43	2541.82
406.62	2485.65
406.81	2710.34
407.00	2635.44
407.20	2649.49
407.39	2621.40
407.58	2740.77
407.77	2726.72
407.96	2822.69
408.15	2677.57
408.34	2689.28
408.54	2785.24
408.73	2813.32
408.92	2862.48
409.11	2986.52
409.30	2864.82
409.49	3000.57
409.68	2918.65
409.87	2972.48
410.07	3016.95
410.26	3021.63
410.45	2932.69
410.64	3035.67
410.83	3096.53
411.02	3054.40
411.21	3199.51
411.40	3162.06
411.59	3185.47
411.78	3288.45
411.98	3211.22
412.17	3201.85
412.36	3258.03
412.55	3386.76
412.74	3297.81
412.93	3382.07
413.12	3389.10
413.31	3658.26
413.50	3440.59
413.69	3569.32
413.88	3412.50
414.07	3552.93
414.26	3557.61
414.45	3707.41
414.64	3597.40
414.83	3613.79
415.02	3801.03
415.22	3754.22
415.41	3829.12
415.60	3822.09
415.79	3962.53
415.98	3915.72
416.17	3974.23
416.36	3983.59
416.55	4037.42
416.74	3939.12
416.93	4114.66
417.12	4133.39
417.31	4175.52
417.50	4248.07
417.69	4241.05
417.88	4060.83
418.07	4227.01
418.26	4301.90
418.45	4367.44
418.64	4468.08
418.83	4409.57
419.02	4395.53
419.21	4493.83
419.39	4409.57
419.58	4397.87
419.77	4461.06
419.96	4507.87
420.15	4540.64
420.34	4594.47
420.53	4552.34
420.72	4725.54
420.91	4692.77
421.10	4737.24
421.29	4755.97
421.48	4643.62
421.67	4748.95
421.86	4697.46
422.05	4732.56
422.24	4772.35
422.43	4828.53
422.61	4816.82
422.80	4854.27
422.99	4973.64
423.18	4823.84
423.37	4990.02
423.56	4880.02
423.75	4858.95
423.94	4760.65
424.13	4667.03
424.32	4800.44
424.50	4971.30
424.69	5029.81
424.88	5013.43
425.07	4978.32
425.26	4868.31
425.45	4992.36
425.64	4770.01
425.83	4903.42
426.01	5081.30
426.20	4961.94
426.39	5298.97
426.58	5022.79
426.77	5186.63
426.96	5067.26
427.15	5121.09
427.33	5071.94
427.52	5153.86
427.71	5205.35
427.90	5020.45
428.09	5193.65
428.28	5404.30
428.46	5210.03
428.65	5376.21
428.84	5481.53
429.03	5481.53
429.22	5329.40
429.40	5432.38
429.59	5528.35
429.78	5387.91
429.97	5207.69
430.16	5612.60
430.34	5568.13
430.53	5778.78
430.72	5736.65
430.91	5680.48
431.10	5572.82
431.28	5591.54
431.47	5612.60
431.66	5846.66
431.85	5743.67
432.03	5956.66
432.22	6083.05
432.41	5905.17
432.60	5905.17
432.79	6066.67
432.97	6160.29
433.16	5982.41
433.35	6043.26
433.54	6059.65
433.72	6164.97
433.91	6024.54
434.10	6052.63
434.28	6071.35
434.47	6221.14
434.66	6284.34
434.85	6237.53
435.03	6349.87
435.22	6352.21
435.41	6462.22
435.59	6314.77
435.78	6354.55
435.97	6340.51
436.16	6478.60
436.34	6459.88
436.53	6452.86
436.72	6490.31
436.90	6452.86
437.09	6574.56
437.28	6452.86
437.46	6555.84
437.65	6647.12
437.84	6609.67
438.02	6689.25
438.21	6920.96
438.40	6633.08
438.58	6881.18
438.77	7105.87
438.96	6909.26
439.14	7096.50
439.33	7164.38
439.52	7258.00
439.70	7321.20
439.89	7274.38
440.08	7267.36
440.26	7473.33
440.45	7365.67
440.63	7466.31
440.82	7454.61
441.01	7559.93
441.19	7634.83
441.38	7585.68
441.57	7789.30
441.75	7721.43
441.94	7873.56
442.12	7962.50
442.31	7962.50
442.50	7953.14
442.68	7955.48
442.87	8088.89
443.05	8217.62
443.24	8086.55
443.43	8119.32
443.61	8236.35
443.80	8287.84
443.98	8028.04
444.17	7763.56
444.35	8217.62
444.54	8369.76
444.73	8121.66
444.91	8210.60
445.10	8276.13
445.28	8334.65
445.47	8311.24
445.65	8292.52
445.84	8540.61
446.02	8542.96
446.21	8507.85
446.39	8395.50
446.58	8557.00
446.77	8468.06
446.95	8381.46
447.14	8416.57
447.32	8329.97
447.51	8456.36
447.69	8390.82
447.88	8542.96
448.06	8503.17
448.25	8622.53
448.43	8528.91
448.62	8566.36
448.80	8608.49
448.99	8730.20
449.17	8718.50
449.36	8699.77
449.54	8947.87
449.73	8910.42
449.91	8830.84
450.10	9036.81
450.28	9090.64
450.46	9004.04
450.65	8971.27
450.83	9008.72
451.02	9088.30
451.20	9130.43
451.39	9252.14
451.57	9022.77
451.76	9036.81
451.94	9001.70
452.13	9425.34
452.31	9284.91
452.49	9146.81
452.68	9423.00
452.86	9343.42
453.05	9411.29
453.23	9554.07
453.42	9392.57
453.60	9380.87
453.78	9731.95
453.97	9252.14
454.15	9418.32
454.34	9444.06
454.52	9673.43
454.70	9462.79
454.89	9879.40
455.07	9891.10
455.26	9806.84
455.44	10064.30
455.62	9919.19
455.81	10083.03
455.99	10122.82
456.17	9996.43
456.36	10073.67
456.54	10274.95
456.73	10181.33
456.91	10272.61
457.09	10333.47
457.28	10586.24
457.46	10253.89
457.64	10464.54
457.83	10303.04
458.01	10328.78
458.19	10661.14
458.38	10340.49
458.56	10773.49
458.74	10544.11
458.93	10721.99
459.11	10745.40
459.29	10630.71
459.48	10736.04
459.66	10775.83
459.84	11056.69
460.03	11105.84
460.21	11037.97
460.39	10799.23
460.57	11023.92
460.76	11117.54
460.94	11133.93
461.12	11091.80
461.31	11208.83
461.49	11094.14
461.67	11040.31
461.85	11513.10
462.04	11232.23
462.22	11829.07
462.40	11679.27
462.59	11445.22
462.77	11358.62
462.95	11517.78
463.13	11679.27
463.32	11389.05
463.50	11550.54
463.68	11791.62
463.86	11887.58
464.05	11599.70
464.23	11623.10
464.41	11985.88
464.59	11431.18
464.78	12016.31
464.96	12095.89
465.14	11913.33
465.32	11915.67
465.50	12311.22
465.69	12250.36
465.87	11894.60
466.05	12037.38
466.23	12189.51
466.41	12063.12
466.60	12463.35
466.78	12236.32
466.96	12287.81
467.14	12351.01
467.32	12334.62
467.51	12496.12
467.69	11918.01
467.87	12540.59
468.05	12669.32
468.23	12388.46
468.41	12470.37
468.60	12533.57
468.78	12650.60
468.96	12603.78
469.14	12849.54
469.32	12924.44
469.50	12599.10
469.69	12957.21
469.87	13090.62
470.05	12882.31
470.23	13067.21
470.41	12975.93
470.59	13240.41
470.77	13284.88
470.95	13422.97
471.14	13628.94
471.32	13144.45
471.50	13462.76
471.68	13624.26
471.86	13448.72
472.04	14036.19
472.22	14120.45
472.40	13783.41
472.58	13973.00
472.77	13874.70
472.95	14143.86
473.13	14602.60
473.31	13811.50
473.49	14118.11
473.67	14134.50
473.85	14408.34
474.03	14504.30
474.21	14427.06
474.39	14637.71
474.57	14534.73
474.75	14630.69
474.93	14815.59
475.12	15194.76
475.30	14951.34
475.48	14602.60
475.66	15208.80
475.84	15059.01
476.02	15133.90
476.20	15508.39
476.38	15772.87
476.56	15702.65
476.74	15971.82
476.92	15751.81
477.10	15819.68
477.28	16032.67
477.46	16217.57
477.64	16170.76
477.82	16676.32
478.00	16634.19
478.18	16917.39
478.36	16767.60
478.54	17509.55
478.72	17114.00
478.90	17146.76
479.08	17415.93
479.26	17825.52
479.44	17661.68
479.62	17907.44
479.80	17806.80
479.98	18040.85
480.16	18469.17
480.34	18008.08
480.52	18314.69
480.70	18815.57
480.88	18675.13
481.06	18574.49
481.24	18864.72
481.41	18892.80
481.59	19021.53
481.77	19487.30
481.95	19681.56
482.13	19917.96
482.31	19583.26
482.49	20053.71
482.67	20095.84
482.85	20594.37
483.03	20301.81
483.21	20723.10
483.39	20805.02
483.57	20809.70
483.74	21231.00
483.92	21364.41
484.10	21289.51
484.28	21502.50
484.46	21685.06
484.64	22288.92
484.82	21928.48
485.00	22228.07
485.18	22504.25
485.35	23014.49
485.53	23194.71
485.71	22981.72
485.89	23374.93
486.07	23183.01
486.25	23580.90
486.43	23496.64
486.61	23779.84
486.78	24301.78
486.96	23873.46
487.14	24510.09
487.32	24561.58
487.50	24690.31
487.68	24835.42
487.85	25149.06
488.03	25348.00
488.21	25888.67
488.39	25626.53
488.57	25958.88
488.75	26209.32
488.92	26441.03
489.10	26852.97
489.28	26527.63
489.46	27260.22
489.64	27014.46
489.81	27398.31
489.99	27323.41
490.17	27749.39
490.35	27527.04
490.53	27957.70
490.70	28233.88
490.88	28421.13
491.06	28582.62
491.24	28582.62
491.41	28861.15
491.59	29296.49
491.77	28975.83
491.95	29469.69
492.13	29467.34
492.30	29893.32
492.48	30171.85
492.66	29879.28
492.84	30307.60
493.01	30625.91
493.19	30719.53
493.37	30707.83
493.54	31021.46
493.72	31470.84
493.90	32006.83
494.08	31419.35
494.25	32187.05
494.43	31824.26
494.61	32261.94
494.79	32503.02
494.96	32479.61
495.14	32821.33
495.32	32978.15
495.49	33015.60
495.67	33048.36
495.85	33216.88
496.02	33551.58
496.20	33673.29
496.38	34061.82
496.55	33631.16
496.73	35103.35
496.91	34216.29
497.09	34738.23
497.26	34838.87
497.44	34494.82
497.62	35068.25
497.79	35545.72
497.97	35152.51
498.14	35908.50
498.32	36098.08
498.50	36201.07
498.67	36355.54
498.85	36231.49
499.03	36474.91
499.20	36746.41
499.38	37060.04
499.56	37233.24
499.73	37287.07
499.91	37076.43
500.08	37383.04
500.26	37230.90
500.44	37535.17
500.61	37462.61
500.79	37570.28
500.97	37736.46
501.14	38480.75
501.32	38658.63
501.49	38370.74
501.67	38703.10
501.84	38948.85
502.02	39363.13
502.20	39330.36
502.37	39103.33
502.55	39477.82
502.72	39325.68
502.90	39356.11
503.07	39180.57
503.25	39618.25
503.43	39763.36
503.60	39842.94
503.78	40282.96
503.95	39828.90
504.13	40432.75
504.30	40598.93
504.48	40336.79
504.65	40428.07
504.83	40781.49
505.01	41710.69
505.18	41132.57
505.36	41188.75
505.53	41427.48
505.71	41305.77
505.88	41930.70
506.06	41148.96
506.23	41963.46
506.41	41865.16
506.58	42092.19
506.76	42164.75
506.93	41982.19
507.11	42094.53
507.28	42569.66
507.46	42391.78
507.63	42766.27
507.81	43012.02
507.98	42487.74
508.16	43110.33
508.33	43033.09
508.50	43501.20
508.68	43590.14
508.85	43833.55
509.03	43669.72
509.20	43789.08
509.38	44404.64
509.55	44451.45
509.73	44601.25
509.90	44390.60
510.08	44371.88
510.25	44638.70
510.42	44507.63
510.60	45151.27
510.77	45052.97
510.95	45125.53
511.12	45008.50
511.30	44912.54
511.47	45446.18
511.64	45436.82
511.82	46089.83
511.99	45588.95
512.17	45673.21
512.34	45469.59
512.51	46216.22
512.69	46466.66
512.86	46579.00
513.04	46876.25
513.21	46681.98
513.38	46609.43
513.56	46990.94
513.73	46752.20
513.90	47164.14
514.08	46466.66
514.25	46637.51
514.43	47084.56
514.60	47484.79
514.77	47260.10
514.95	47309.25
515.12	47093.92
515.29	47739.91
515.47	47693.10
515.64	47997.37
515.81	47805.44
515.99	48402.28
516.16	48479.52
516.33	48172.91
516.51	48582.50
516.68	48540.37
516.85	48196.31
517.03	48711.23
517.20	48779.10
517.37	48814.21
517.54	48964.01
517.72	48821.23
517.89	48924.22
518.06	49066.99
518.24	49155.93
518.41	49095.08
518.58	49598.29
518.75	48772.08
518.93	49338.49
519.10	49415.73
519.27	49663.83
519.45	49345.51
519.62	50101.51
519.79	49982.14
519.96	49624.04
520.14	50153.00
520.31	49874.48
520.48	50277.05
520.65	50363.65
520.83	50005.55
521.00	50571.96
521.17	50131.93
521.34	50857.50
521.52	50597.70
521.69	50738.13
521.86	50911.33
522.03	50918.35
522.20	50784.94
522.38	51468.38
522.55	51129.00
522.72	51452.00
522.89	51206.24
523.07	51501.15
523.24	51447.32
523.41	51615.83
523.58	51414.55
523.75	51735.20
523.92	51386.46
524.10	51908.40
524.27	51903.72
524.44	51999.68
524.61	52097.98
524.78	51922.44
524.96	51805.42
525.13	52299.27
525.30	52444.38
525.47	52479.49
525.64	52367.15
525.81	52568.43
525.98	52940.58
526.16	52659.71
526.33	52657.37
526.50	52786.10
526.67	52467.79
526.84	52875.04
527.01	52849.30
527.18	52875.04
527.36	52907.81
527.53	53387.62
527.70	53469.54
527.87	53158.25
528.04	52910.15
528.21	53411.02
528.38	53286.98
528.55	53544.44
528.72	53263.57
528.89	53258.89
529.07	53254.21
529.24	53237.83
529.41	53565.50
529.58	53848.71
529.75	53350.17
529.92	53532.73
530.09	54045.31
530.26	53872.11
530.43	54110.85
530.60	53724.66
530.77	53890.83
530.94	53998.50
531.11	54160.00
531.28	54120.21
531.46	54155.32
531.63	54279.36
531.80	54103.82
531.97	54440.86
532.14	54314.47
532.31	54454.90
532.48	54639.81
532.65	54246.60
532.82	54412.77
532.99	54672.57
533.16	54401.07
533.33	54862.16
533.50	54805.98
533.67	54873.86
533.84	54649.17
534.01	54869.18
534.18	54782.58
534.35	55260.05
534.52	55004.93
534.69	55075.15
534.86	54897.27
535.03	54843.43
535.20	55182.81
535.37	55061.10
535.54	55318.56
535.71	55133.66
535.88	55222.60
536.05	55480.06
536.22	55569.00
536.38	55515.17
536.55	55470.70
536.72	55501.12
536.89	55398.14
537.06	55463.67
537.23	55676.66
537.40	55751.56
537.57	55817.10
537.74	55526.87
537.91	56149.45
538.08	56004.34
538.25	55744.54
538.42	55896.67
538.59	56041.79
538.75	55847.52
538.92	55924.76
539.09	56147.11
539.26	55966.89
539.43	56212.65
539.60	56219.67
539.77	55983.27
539.94	56444.36
540.11	56355.42
540.28	56633.94
540.44	56404.57
540.61	56439.68
540.78	56287.54
540.95	56327.33
541.12	56362.44
541.29	56334.35
541.46	56629.26
541.62	56463.08
541.79	56732.25
541.96	56308.61
542.13	56467.76
542.30	56622.24
542.47	56718.20
542.63	56832.89
542.80	56732.25
542.97	56779.06
543.14	57212.06
543.31	57158.22
543.48	57141.84
543.64	57413.34
543.81	57420.36
543.98	57249.50
544.15	57078.64
544.32	57343.12
544.48	57560.79
544.65	57015.45
544.82	57301.00
544.99	57282.27
545.16	57345.47
545.32	57357.17
545.49	57382.91
545.66	57544.41
545.83	57729.31
546.00	57815.91
546.16	57469.51
546.33	57586.54
546.50	57572.50
546.67	57521.01
546.83	57485.90
547.00	57649.74
547.17	57724.63
547.34	57832.30
547.50	57928.26
547.67	57989.11
547.84	58054.65
548.00	57979.75
548.17	58061.67
548.34	57888.47
548.51	58085.07
548.67	58213.80
548.84	57834.64
549.01	57865.06
549.18	58166.99
549.34	58099.12
549.51	58269.98
549.68	58295.72
549.84	58176.36
550.01	58218.49
550.18	58188.06
550.34	58405.73
550.51	58253.59
550.68	58335.51
550.84	58328.49
551.01	58618.72
551.18	58335.51
551.34	58405.73
551.51	58534.46
551.68	58475.94
551.84	58429.13
552.01	58635.10
552.18	58504.03
552.34	58522.76
552.51	58726.38
552.68	58316.79
552.84	58581.27
553.01	59098.53
553.18	58604.67
553.34	58829.37
553.51	58597.65
553.67	58726.38
553.84	59030.65
554.01	58988.52
554.17	58906.60
554.34	59110.23
554.51	58850.43
554.67	59133.63
554.84	58993.20
555.00	58742.77
555.17	58944.05
555.33	59044.69
555.50	58922.99
555.67	58939.37
555.83	59032.99
556.00	59248.32
556.16	59222.58
556.33	59367.69
556.50	59327.90
556.66	59180.45
556.83	59175.76
556.99	59416.84
557.16	59372.37
557.32	59318.54
557.49	59395.77
557.65	59264.70
557.82	59440.24
557.98	59360.67
558.15	59257.68
558.32	59334.92
558.48	59201.51
558.65	59470.67
558.81	59421.52
558.98	59503.44
559.14	59334.92
559.31	59774.94
559.47	59545.57
559.64	59742.17
559.80	59592.38
559.97	59728.13
560.13	59576.00
560.30	59716.43
560.46	59697.70
560.63	59629.83
560.79	59798.35
560.96	59730.47
561.12	59690.68
561.29	59723.45
561.45	59929.42
561.61	59660.26
561.78	59737.49
561.94	59927.08
562.11	59725.79
562.27	59779.62
562.44	59845.16
562.60	59971.55
562.77	59959.84
562.93	59730.47
563.10	59929.42
563.26	59824.09
563.42	60046.44
563.59	59898.99
563.75	60065.17
563.92	59966.87
564.08	59817.07
564.24	60034.74
564.41	60135.38
564.57	60055.81
564.74	59994.95
564.90	59999.63
565.07	59980.91
565.23	59973.89
565.39	59966.87
565.56	60149.43
565.72	60170.49
565.88	60189.22
566.05	60027.72
566.21	60170.49
566.38	60210.28
566.54	60074.53
566.70	60413.91
566.87	60161.13
567.03	60111.98
567.19	60430.29
567.36	60264.11
567.52	60273.48
567.68	60355.39
567.85	60247.73
568.01	60250.07
568.17	60388.16
568.34	60420.93
568.50	60289.86
568.66	60186.88
568.83	60523.91
568.99	60299.22
569.15	60289.86
569.32	60395.18
569.48	60243.05
569.64	60519.23
569.81	60378.80
569.97	60444.33
570.13	60404.55
570.30	60310.92
570.46	60439.65
570.62	60444.33
570.78	60535.62
570.95	60390.50
571.11	60561.36
571.27	60381.14
571.43	60310.92
571.60	60750.94
571.76	60596.47
571.92	60509.87
572.09	60470.08
572.25	60465.40
572.41	60444.33
572.57	60488.80
572.74	60690.09
572.90	60636.26
573.06	60615.19
573.22	60367.10
573.38	60692.43
573.55	60596.47
573.71	60715.84
573.87	60479.44
574.03	60687.75
574.20	60706.47
574.36	60591.79
574.52	60680.73
574.68	60697.11
574.84	60750.94
575.01	60694.77
575.17	60643.28
575.33	60631.58
575.49	60605.83
575.65	60692.43
575.82	60830.52
575.98	60734.56
576.14	60924.14
576.30	60657.32
576.46	60755.63
576.62	60739.24
576.79	60666.69
576.95	60605.83
577.11	60865.63
577.27	60959.25
577.43	60795.42
577.59	60491.15
577.75	60769.67
577.92	60617.53
578.08	60711.16
578.24	60722.86
578.40	60814.14
578.56	60938.19
578.72	60760.31
578.88	60924.14
579.04	60893.72
579.21	60722.86
579.37	60935.85
579.53	60853.93
579.69	60355.39
579.85	60680.73
580.01	60865.63
580.17	60500.51
580.33	60973.30
580.49	61006.06
580.65	60767.33
580.82	60762.65
580.98	60809.46
581.14	60781.37
581.30	61048.19
581.46	60823.50
581.62	60853.93
581.78	60949.89
581.94	60804.78
582.10	60647.96
582.26	60832.86
582.42	60804.78
582.58	60842.23
582.74	60669.03
582.90	60849.25
583.06	60832.86
583.22	60652.64
583.38	60874.99
583.54	60898.40
583.70	60961.59
583.86	60940.53
584.02	60912.44
584.18	61008.40
584.34	60945.21
584.50	60725.20
584.66	60755.63
584.82	60816.48
584.98	61134.79
585.14	61085.64
585.30	60870.31
585.46	61249.48
585.62	60900.74
585.78	60938.19
585.94	60844.57
586.10	60720.52
586.26	60942.87
586.42	60959.25
586.58	61197.99
586.74	60933.51
586.90	60692.43
587.06	60921.80
587.22	61242.46
587.38	61010.74
587.54	61024.79
587.70	61221.39
587.86	61092.66
588.02	61003.72
588.18	61153.52
588.34	60849.25
588.49	60835.20
