SpectraSuite Data File
++++++++++++++++++++++++++++++++++++
Date: Fri Oct 25 11:33:53 EDT 2013
User: price-jones
Dark Spectrum Present: No
Reference Spectrum Present: No
Number of Sampled Component Spectra: 1
Spectrometers: USB2+H05261
Integration Time (usec): 100000 (USB2+H05261)
Spectra Averaged: 1 (USB2+H05261)
Boxcar Smoothing: 0 (USB2+H05261)
Correct for Electrical Dark: No (USB2+H05261)
Strobe/Lamp Enabled: No (USB2+H05261)
Correct for Detector Non-linearity: No (USB2+H05261)
Correct for Stray Light: No (USB2+H05261)
Number of Pixels in Processed Spectrum: 2048
>>>>>Begin Processed Spectral Data<<<<<
365.73	250.44
365.92	250.44
366.12	250.44
366.32	241.08
366.52	184.90
366.72	191.92
366.91	138.09
367.11	126.39
367.31	65.54
367.51	191.92
367.70	147.45
367.90	229.37
368.10	201.29
368.30	215.33
368.49	184.90
368.69	276.18
368.89	212.99
369.09	264.48
369.28	180.22
369.48	217.67
369.68	205.97
369.87	276.18
370.07	212.99
370.27	257.46
370.47	348.74
370.66	533.64
370.86	507.90
371.06	449.38
371.25	552.37
371.45	463.43
371.65	545.34
371.84	543.00
372.04	550.03
372.24	627.26
372.44	636.63
372.63	580.45
372.83	582.79
373.03	582.79
373.22	601.52
373.42	540.66
373.62	692.80
373.81	606.20
374.01	620.24
374.21	592.16
374.40	638.97
374.60	706.84
374.79	573.43
374.99	648.33
375.19	631.94
375.38	608.54
375.58	613.22
375.78	629.60
375.97	685.78
376.17	662.37
376.37	678.76
376.56	662.37
376.76	589.82
376.95	622.58
377.15	774.72
377.35	648.33
377.54	664.71
377.74	645.99
377.93	676.41
378.13	741.95
378.33	737.27
378.52	744.29
378.72	699.82
378.91	711.52
379.11	706.84
379.31	695.14
379.50	695.14
379.70	765.36
379.89	678.76
380.09	683.44
380.28	690.46
380.48	821.53
380.68	760.67
380.87	763.01
381.07	763.01
381.26	777.06
381.46	833.23
381.65	753.65
381.85	784.08
382.04	805.14
382.24	720.88
382.43	770.04
382.63	779.40
382.83	734.93
383.02	777.06
383.22	840.25
383.41	819.19
383.61	777.06
383.80	887.06
384.00	774.72
384.19	812.17
384.39	837.91
384.58	767.70
384.78	828.55
384.97	755.99
385.17	896.43
385.36	833.23
385.56	863.66
385.75	854.30
385.95	816.85
386.14	835.57
386.34	828.55
386.53	835.57
386.72	849.61
386.92	849.61
387.11	875.36
387.31	940.90
387.50	863.66
387.70	823.87
387.89	840.25
388.09	919.83
388.28	844.93
388.48	931.53
388.67	903.45
388.86	987.71
389.06	1029.84
389.25	922.17
389.45	985.37
389.64	929.19
389.84	1032.18
390.03	947.92
390.22	992.39
390.42	917.49
390.61	917.49
390.81	929.19
391.00	954.94
391.19	945.58
391.39	1062.60
391.58	1064.94
391.78	912.81
391.97	1053.24
392.16	1041.54
392.36	1090.69
392.55	1123.46
392.75	1146.86
392.94	1057.92
393.13	1011.11
393.33	1015.79
393.52	1013.45
393.71	1081.33
393.91	1083.67
394.10	1123.46
394.29	1076.65
394.49	1139.84
394.68	1114.10
394.88	1076.65
395.07	1186.65
395.26	1114.10
395.46	1090.69
395.65	1205.38
395.84	1156.22
396.04	1266.23
396.23	1247.51
396.42	1142.18
396.62	1125.80
396.81	1196.01
397.00	1160.91
397.19	1238.14
397.39	1228.78
397.58	1263.89
397.77	1259.21
397.97	1235.80
398.16	1277.93
398.35	1287.29
398.55	1315.38
398.74	1263.89
398.93	1329.42
399.12	1317.72
399.32	1303.68
399.51	1263.89
399.70	1315.38
399.90	1343.47
400.09	1303.68
400.28	1329.42
400.47	1420.71
400.67	1437.09
400.86	1387.94
401.05	1364.53
401.24	1418.36
401.44	1423.05
401.63	1432.41
401.82	1481.56
402.01	1324.74
402.21	1441.77
402.40	1444.11
402.59	1500.28
402.78	1390.28
402.97	1551.78
403.17	1490.92
403.36	1423.05
403.55	1631.35
403.74	1703.91
403.93	1497.94
404.13	1528.37
404.32	1619.65
404.51	1568.16
404.70	1717.95
404.89	1593.90
405.09	1650.08
405.28	1650.08
405.47	1666.46
405.66	1750.72
405.85	1757.74
406.05	1710.93
406.24	1708.59
406.43	1792.85
406.62	1783.49
406.81	1849.02
407.00	1685.19
407.20	1722.63
407.39	1755.40
407.58	1877.11
407.77	1813.92
407.96	1778.81
408.15	1944.99
408.34	1764.76
408.54	1834.98
408.73	1877.11
408.92	1914.56
409.11	2022.22
409.30	2008.18
409.49	2015.20
409.68	2019.88
409.87	2008.18
410.07	2033.93
410.26	2052.65
410.45	1980.09
410.64	2001.16
410.83	2113.50
411.02	2062.01
411.21	2080.74
411.40	2125.21
411.59	2153.29
411.78	2127.55
411.98	2260.96
412.17	2176.70
412.36	2232.87
412.55	2436.50
412.74	2270.32
412.93	2324.15
413.12	2218.83
413.31	2516.08
413.50	2450.54
413.69	2399.05
413.88	2448.20
414.07	2483.31
414.26	2438.84
414.45	2417.77
414.64	2499.69
414.83	2635.44
415.02	2565.23
415.22	2626.08
415.41	2712.68
415.60	2796.94
415.79	2562.89
415.98	2635.44
416.17	2686.94
416.36	2579.27
416.55	2686.94
416.74	2888.22
416.93	2883.54
417.12	2935.03
417.31	2963.12
417.50	2923.33
417.69	2892.90
417.88	2892.90
418.07	2981.84
418.26	2810.98
418.45	2918.65
418.64	2972.48
418.83	2932.69
419.02	3016.95
419.21	3033.33
419.39	3030.99
419.58	3042.70
419.77	3082.49
419.96	3101.21
420.15	3171.43
420.34	3213.56
420.53	3166.74
420.72	3281.43
420.91	3218.24
421.10	3251.00
421.29	3356.33
421.48	3192.49
421.67	3267.39
421.86	3239.30
422.05	3211.22
422.24	3295.47
422.43	3281.43
422.61	3412.50
422.80	3255.69
422.99	3391.44
423.18	3393.78
423.37	3433.57
423.56	3445.27
423.75	3389.10
423.94	3286.11
424.13	3164.40
424.32	3246.32
424.50	3311.86
424.69	3426.54
424.88	3454.63
425.07	3396.12
425.26	3468.67
425.45	3351.65
425.64	3379.73
425.83	3330.58
426.01	3581.02
426.20	3447.61
426.39	3370.37
426.58	3527.19
426.77	3393.78
426.96	3424.20
427.15	3471.01
427.33	3625.49
427.52	3534.21
427.71	3674.64
427.90	3641.87
428.09	3641.87
428.28	3613.79
428.46	3744.86
428.65	3667.62
428.84	3805.71
429.03	3875.93
429.22	3557.61
429.40	3646.55
429.59	3667.62
429.78	3653.58
429.97	3548.25
430.16	3707.41
430.34	3735.50
430.53	3988.27
430.72	3885.29
430.91	3889.97
431.10	3964.87
431.28	3882.95
431.47	3913.38
431.66	4018.70
431.85	3939.12
432.03	4049.13
432.22	4102.96
432.41	3953.16
432.60	3997.64
432.79	4053.81
432.97	4135.73
433.16	4152.11
433.35	3939.12
433.54	4163.81
433.72	4224.67
433.91	4117.00
434.10	4259.78
434.28	4236.37
434.47	4210.62
434.66	4208.28
434.85	4231.69
435.03	4292.54
435.22	4367.44
435.41	4409.57
435.59	4379.14
435.78	4395.53
435.97	4489.15
436.16	4334.67
436.34	4287.86
436.53	4507.87
436.72	4683.41
436.90	4353.40
437.09	4432.97
437.28	4411.91
437.46	4545.32
437.65	4484.47
437.84	4512.55
438.02	4662.35
438.21	4547.66
438.40	4662.35
438.58	4683.41
438.77	4751.29
438.96	4730.22
439.14	4821.50
439.33	4910.44
439.52	4919.81
439.70	4875.34
439.89	4943.21
440.08	5015.77
440.26	5060.24
440.45	4887.04
440.63	5107.05
440.82	5107.05
441.01	5221.74
441.19	5102.37
441.38	5207.69
441.57	5242.80
441.75	5245.14
441.94	5329.40
442.12	5341.10
442.31	5280.25
442.50	5406.64
442.68	5483.88
442.87	5394.93
443.05	5483.88
443.24	5612.60
443.43	5537.71
443.61	5675.80
443.80	5734.31
443.98	5315.36
444.17	5308.34
444.35	5493.24
444.54	5483.88
444.73	5565.79
444.91	5458.13
445.10	5621.97
445.28	5633.67
445.47	5528.35
445.65	5605.58
445.84	5647.71
446.02	5816.23
446.21	5743.67
446.39	5659.42
446.58	5673.46
446.77	5785.80
446.95	5626.65
447.14	5909.85
447.32	5792.83
447.51	5610.26
447.69	5802.19
447.88	5764.74
448.06	5778.78
448.25	5795.17
448.43	5694.52
448.62	5664.10
448.80	5776.44
448.99	5818.57
449.17	5874.74
449.36	5858.36
449.54	5881.77
449.73	6125.18
449.91	6019.86
450.10	6033.90
450.28	6118.16
450.46	6125.18
450.65	6040.92
450.83	5987.09
451.02	6026.88
451.20	6129.86
451.39	6153.27
451.57	6230.51
451.76	6113.48
451.94	5987.09
452.13	6333.49
452.31	6155.61
452.49	6162.63
452.68	6153.27
452.86	6167.31
453.05	6331.15
453.23	6333.49
453.42	6160.29
453.60	6380.30
453.78	6420.09
453.97	6286.68
454.15	6509.03
454.34	6328.81
454.52	6520.73
454.70	6607.33
454.89	6595.63
455.07	6506.69
455.26	6703.29
455.44	6663.51
455.62	6604.99
455.81	6551.16
455.99	6483.28
456.17	6792.23
456.36	6916.28
456.54	6813.30
456.73	7023.95
456.91	7045.01
457.09	6916.28
457.28	7089.48
457.46	6960.75
457.64	6920.96
457.83	7131.61
458.01	7073.10
458.19	7169.06
458.38	7007.56
458.56	7124.59
458.74	7143.32
458.93	7274.38
459.11	7192.47
459.29	7155.02
459.48	7297.79
459.66	7342.26
459.84	7269.70
460.03	7302.47
460.21	7342.26
460.39	7414.82
460.57	7566.95
460.76	7517.80
460.94	7442.90
461.12	7660.57
461.31	7583.34
461.49	7662.91
461.67	7740.15
461.85	7508.44
462.04	7618.44
462.22	7913.35
462.40	7758.88
462.59	7707.38
462.77	7702.70
462.95	7808.03
463.13	7681.64
463.32	7822.07
463.50	7786.96
463.68	7819.73
463.86	7843.14
464.05	7714.41
464.23	7911.01
464.41	8013.99
464.59	7691.00
464.78	8072.51
464.96	7889.95
465.14	7901.65
465.32	7946.12
465.50	8126.34
465.69	7960.16
465.87	8063.15
466.05	8114.64
466.23	7981.23
466.41	8039.74
466.60	8276.13
466.78	8060.80
466.96	8077.19
467.14	8250.39
467.32	8234.00
467.51	8388.48
467.69	8243.37
467.87	8259.75
468.05	8280.82
468.23	8217.62
468.41	8369.76
468.60	8397.84
468.78	8402.52
468.96	8308.90
469.14	8510.19
469.32	8505.51
469.50	8336.99
469.69	8557.00
469.87	8517.21
470.05	8564.02
470.23	8798.07
470.41	8575.72
470.59	8842.54
470.77	8816.80
470.95	8896.38
471.14	9006.38
471.32	8868.29
471.50	9128.09
471.68	8964.25
471.86	9170.22
472.04	8929.14
472.22	9359.80
472.40	9041.49
472.58	9259.16
472.77	9301.29
472.95	9338.74
473.13	9664.07
473.31	9362.14
473.49	9549.39
473.67	9322.35
473.85	9511.94
474.03	9493.21
474.21	9722.59
474.39	9572.79
474.57	9638.33
474.75	9940.26
474.93	9891.10
475.12	9893.44
475.30	9888.76
475.48	9832.59
475.66	10008.13
475.84	9940.26
476.02	10061.96
476.20	10284.31
476.38	10195.37
476.56	10586.24
476.74	10455.17
476.92	10476.24
477.10	10473.90
477.28	10565.18
477.46	10712.63
477.64	10661.14
477.82	10904.56
478.00	11129.25
478.18	11019.24
478.36	11126.91
478.54	11541.18
478.72	11187.76
478.90	11573.95
479.08	11531.82
479.26	11508.41
479.44	11716.72
479.62	11707.36
479.80	11906.31
479.98	11756.51
480.16	12166.10
480.34	11838.43
480.52	12395.48
480.70	12435.27
480.88	12084.19
481.06	12353.35
481.24	12131.00
481.41	12395.48
481.59	12519.53
481.77	12812.09
481.95	12528.89
482.13	13004.02
482.31	12917.42
482.49	13420.63
482.67	13249.77
482.85	13308.29
483.03	13334.03
483.21	13427.65
483.39	13867.67
483.57	13589.15
483.74	13755.33
483.92	13923.85
484.10	13813.84
484.28	14153.22
484.46	14441.11
484.64	14492.60
484.82	14335.78
485.00	14588.56
485.18	14764.10
485.35	14707.93
485.53	15028.58
485.71	14881.13
485.89	15225.18
486.07	15627.76
486.25	15227.53
486.43	15316.47
486.61	15737.76
486.78	15740.10
486.96	15569.24
487.14	16133.31
487.32	16009.26
487.50	16067.78
487.68	16470.35
487.85	16358.00
488.03	16482.05
488.21	16929.09
488.39	16889.31
488.57	16765.26
488.75	16870.58
488.92	17245.07
489.10	17551.68
489.28	17516.57
489.46	17619.55
489.64	17479.12
489.81	17818.50
489.99	18143.83
490.17	18295.97
490.35	18279.58
490.53	18300.65
490.70	18480.87
490.88	18527.68
491.06	18810.89
491.24	18913.87
491.41	19016.85
491.59	19012.17
491.77	19192.39
491.95	19138.56
492.13	19585.60
492.30	19531.77
492.48	19765.82
492.66	19674.54
492.84	19922.64
493.01	20252.66
493.19	20280.74
493.37	20224.57
493.54	20432.88
493.72	20439.90
493.90	20673.95
494.08	20725.44
494.25	20587.35
494.43	20957.16
494.61	20938.43
494.79	21200.57
494.96	21322.28
495.14	21064.82
495.32	21331.64
495.49	21603.14
495.67	21743.58
495.85	21876.99
496.02	22127.42
496.20	22204.66
496.38	22218.71
496.55	22593.19
496.73	22506.59
496.91	22382.54
497.09	22501.91
497.26	22913.84
497.44	22836.61
497.62	23293.01
497.79	23353.87
497.97	23213.43
498.14	23412.38
498.32	23414.72
498.50	23419.40
498.67	24140.29
498.85	23637.07
499.03	23943.68
499.20	23407.70
499.38	24271.36
499.56	24250.29
499.73	24266.67
499.91	24189.44
500.08	24592.01
500.26	24617.75
500.44	24898.62
500.61	24650.52
500.79	24737.12
500.97	25088.20
501.14	25137.35
501.32	25291.83
501.49	24947.77
501.67	25376.09
501.84	25242.68
502.02	25193.53
502.20	25252.04
502.37	25558.65
502.55	25495.46
502.72	25970.58
502.90	26101.65
503.07	25757.60
503.25	26022.08
503.43	26094.63
503.60	26232.72
503.78	26314.64
503.95	26008.03
504.13	26581.46
504.30	26438.69
504.48	26246.77
504.65	26934.88
504.83	26668.06
505.01	26897.44
505.18	26829.56
505.36	27285.97
505.53	27133.83
505.71	27505.98
505.88	27400.65
506.06	26878.71
506.23	27527.04
506.41	27449.80
506.58	27782.16
506.76	27882.80
506.93	27667.47
507.11	27386.61
507.28	28173.03
507.46	27866.42
507.63	27669.81
507.81	28348.57
507.98	27976.42
508.16	27988.13
508.33	28294.74
508.50	28559.22
508.68	28435.17
508.85	28973.49
509.03	29174.78
509.20	28739.44
509.38	28868.17
509.55	29387.77
509.73	29406.49
509.90	29441.60
510.08	29329.25
510.25	29514.16
510.42	29282.44
510.60	29846.51
510.77	29731.83
510.95	29841.83
511.12	29582.03
511.30	29806.72
511.47	30071.20
511.64	29940.13
511.82	30162.48
511.99	30047.80
512.17	30176.53
512.34	29916.73
512.51	30583.78
512.69	30635.27
512.86	30726.55
513.04	30693.79
513.21	30904.43
513.38	31117.42
513.56	31101.04
513.73	30780.39
513.90	31047.21
514.08	30974.65
514.25	31550.42
514.43	31555.10
514.60	31505.95
514.77	31435.74
514.95	31669.79
515.12	31564.46
515.29	31353.82
515.47	31505.95
515.64	31625.32
515.81	31894.48
515.99	31667.45
516.16	32463.23
516.33	31971.72
516.51	32215.13
516.68	32032.57
516.85	32144.92
517.03	32622.39
517.20	32428.12
517.37	32182.37
517.54	32573.24
517.72	32421.10
517.89	32561.53
518.06	32921.98
518.24	32732.39
518.41	32898.57
518.58	32992.19
518.75	32617.71
518.93	33488.38
519.10	33270.72
519.27	33284.76
519.45	33502.43
519.62	33158.37
519.79	33448.60
519.96	33507.11
520.14	33720.10
520.31	33336.25
520.48	33633.50
520.65	33593.71
520.83	34232.68
521.00	34117.99
521.17	34094.58
521.34	34293.53
521.52	34431.62
521.69	34298.21
521.86	34628.23
522.03	34433.96
522.20	35147.82
522.38	34644.61
522.55	34948.88
522.72	35019.10
522.89	34827.17
523.07	35014.41
523.24	34728.87
523.41	34941.86
523.58	35199.32
523.75	35236.77
523.92	35571.46
524.10	35412.31
524.27	35627.63
524.44	35374.86
524.61	35704.87
524.78	35927.22
524.96	35763.39
525.13	35812.54
525.30	35679.13
525.47	35782.11
525.64	36299.37
525.81	36034.89
525.98	35791.47
526.16	36210.43
526.33	35828.92
526.50	36341.50
526.67	36268.94
526.84	36346.18
527.01	36371.92
527.18	36790.88
527.36	36718.32
527.53	36456.18
527.70	37219.20
527.87	36776.84
528.04	36790.88
528.21	37397.08
528.38	37050.68
528.55	37031.96
528.72	36622.36
528.89	37404.10
529.07	36758.11
529.24	37006.21
529.41	37315.16
529.58	37338.57
529.75	36978.12
529.92	37525.81
530.09	37394.74
530.26	37687.31
530.43	37312.82
530.60	37258.99
530.77	37612.41
530.94	37408.78
531.11	37479.00
531.28	37869.87
531.46	37581.98
531.63	37883.91
531.80	38260.74
531.97	37827.74
532.14	37776.25
532.31	37872.21
532.48	38099.24
532.65	38394.15
532.82	38305.21
532.99	38408.19
533.16	38347.34
533.33	38630.54
533.50	38244.35
533.67	38703.10
533.84	38307.55
534.01	38328.61
534.18	38387.13
534.35	39100.99
534.52	38731.18
534.69	39105.67
534.86	39220.36
535.03	39014.39
535.20	39065.88
535.37	38815.44
535.54	39775.06
535.71	39037.80
535.88	39168.87
536.05	39508.24
536.22	39475.48
536.38	39812.51
536.55	39377.17
536.72	39419.30
536.89	39648.68
537.06	39620.59
537.23	40067.63
537.40	39533.99
537.57	39517.60
537.74	39604.20
537.91	40112.10
538.08	39873.37
538.25	39611.23
538.42	40051.25
538.59	40297.00
538.75	39735.27
538.92	39978.69
539.09	40547.44
539.26	40189.34
539.43	39915.50
539.60	40226.79
539.77	40271.26
539.94	40601.27
540.11	40245.51
540.28	40313.39
540.44	40547.44
540.61	40266.58
540.78	40418.71
540.95	40388.28
541.12	40568.51
541.29	40460.84
541.46	41198.11
541.62	41258.96
541.79	41116.19
541.96	40797.88
542.13	40037.20
542.30	41050.66
542.47	41167.68
542.63	41448.55
542.80	41497.70
542.97	41792.61
543.14	41439.18
543.31	41486.00
543.48	41624.09
543.64	42047.72
543.81	41965.81
543.98	41965.81
544.15	41729.41
544.32	41727.07
544.48	42232.63
544.65	41691.96
544.82	42087.51
544.99	42010.28
545.16	42108.58
545.32	41944.74
545.49	42497.11
545.66	42038.36
545.83	42394.12
546.00	42440.93
546.16	42323.91
546.33	42082.83
546.50	42012.62
546.67	42923.08
546.83	41972.83
547.00	42265.39
547.17	41865.16
547.34	42742.86
547.50	43037.77
547.67	43311.61
547.84	43044.79
548.00	42843.51
548.17	42841.17
548.34	42796.70
548.51	43023.73
548.67	42670.31
548.84	42946.49
549.01	42815.42
549.18	42932.45
549.34	43332.68
549.51	43430.98
549.68	43229.69
549.84	43250.76
550.01	43564.39
550.18	43288.21
550.34	43557.37
550.51	43363.11
550.68	43398.21
550.84	42895.00
551.01	43990.37
551.18	43161.82
551.34	43632.27
551.51	43501.20
551.68	43552.69
551.84	43295.23
552.01	43234.38
552.18	43845.26
552.34	43559.71
552.51	43758.66
552.68	43746.95
552.84	43810.15
553.01	43887.39
553.18	43634.61
553.34	44109.74
553.51	44060.58
553.67	44306.34
553.84	44053.56
554.01	43674.40
554.17	43976.33
554.34	44376.56
554.51	44367.20
554.67	44486.56
554.84	44285.28
555.00	44224.42
555.17	44491.24
555.33	44432.73
555.50	44294.64
555.67	44493.58
555.83	44652.74
556.00	44821.26
556.16	44900.84
556.33	44676.15
556.50	44774.45
556.66	44619.97
556.83	44093.35
556.99	44985.10
557.16	44652.74
557.32	44931.26
557.49	44823.60
557.65	44626.99
557.82	45102.12
557.98	44615.29
558.15	45055.31
558.32	45020.20
558.48	44643.38
558.65	44456.14
558.81	44790.83
558.98	44914.88
559.14	44858.71
559.31	44655.08
559.47	44706.57
559.64	45027.23
559.80	45223.83
559.97	44854.03
560.13	44893.82
560.30	44917.22
560.46	45390.01
560.63	45502.35
560.79	45322.13
560.96	45759.81
561.12	45612.36
561.29	45504.70
561.45	45572.57
561.61	45502.35
561.78	45811.31
561.94	45160.64
562.11	45340.86
562.27	45745.77
562.44	45219.15
562.60	45792.58
562.77	45544.48
562.93	45347.88
563.10	45801.94
563.26	45427.46
563.42	45703.64
563.59	45736.41
563.75	45715.34
563.92	45572.57
564.08	45806.62
564.24	46066.42
564.41	45397.03
564.57	46026.63
564.74	45954.08
564.90	46045.36
565.07	45815.99
565.23	45563.21
565.39	45727.05
565.56	45893.22
565.72	45434.48
565.88	45951.74
566.05	45925.99
566.21	45893.22
566.38	46019.61
566.54	46225.58
566.70	45888.54
566.87	46003.23
567.03	45729.39
567.19	46045.36
567.36	46122.60
567.52	46291.12
567.68	46361.33
567.85	46492.40
568.01	46415.16
568.17	46082.81
568.34	46380.06
568.50	46204.52
568.66	46295.80
568.83	46267.71
568.99	46106.21
569.15	46003.23
569.32	45909.61
569.48	46333.24
569.64	46539.21
569.81	46351.97
569.97	46532.19
570.13	46328.56
570.30	46153.02
570.46	46373.03
570.62	46735.82
570.78	46347.29
570.95	46195.15
571.11	46583.68
571.27	46047.70
571.43	46408.14
571.60	45886.20
571.76	46305.16
571.92	46136.64
572.09	46075.79
572.25	46059.40
572.41	46080.47
572.57	46586.02
572.74	46845.82
572.90	46518.15
573.06	46637.51
573.22	46382.40
573.38	46457.29
573.55	46642.20
573.71	47185.20
573.87	46869.23
574.03	46560.28
574.20	46925.40
574.36	46944.12
574.52	47201.58
574.68	46602.41
574.84	46623.47
575.01	46674.96
575.17	46658.58
575.33	46770.93
575.49	46670.28
575.65	46686.67
575.82	46740.50
575.98	46553.26
576.14	46993.28
576.30	46913.70
576.46	46696.03
576.62	46768.58
576.79	46972.21
576.95	46450.27
577.11	46604.75
577.27	46909.02
577.43	46756.88
577.59	46628.15
577.75	46351.97
577.92	46401.12
578.08	46899.65
578.24	46628.15
578.40	46955.83
578.56	46845.82
578.72	46906.68
578.88	47040.09
579.04	46906.68
579.21	46869.23
579.37	46909.02
579.53	46831.78
579.69	46377.72
579.85	46665.60
580.01	46864.55
580.17	46780.29
580.33	47234.35
580.49	46883.27
580.65	47056.47
580.82	46948.81
580.98	46754.54
581.14	46789.65
581.30	47290.52
581.46	46681.98
581.62	46824.76
581.78	46689.01
581.94	47346.70
582.10	46897.31
582.26	47077.54
582.42	47023.70
582.58	46885.61
582.74	47213.29
582.90	47276.48
583.06	47126.69
583.22	46857.52
583.38	46923.06
583.54	47014.34
583.70	47248.39
583.86	47241.37
584.02	47264.78
584.18	47189.88
584.34	47075.19
584.50	47409.89
584.66	47072.85
584.82	47337.33
584.98	47594.79
585.14	47327.97
585.30	47440.32
585.46	46780.29
585.62	47192.22
585.78	47412.23
585.94	46773.27
586.10	46988.60
586.26	46696.03
586.42	47028.38
586.58	47107.96
586.74	46857.52
586.90	46979.23
587.06	46939.44
587.22	47236.69
587.38	47159.45
587.54	47412.23
587.70	47398.19
587.86	47342.02
588.02	46925.40
588.18	46775.61
588.34	47136.05
588.49	46988.60
588.65	47054.13
588.81	47227.33
588.97	47124.35
589.13	47122.01
589.29	47583.09
589.45	47693.10
589.61	47332.65
589.77	47489.47
589.93	47519.90
590.08	47775.02
