SpectraSuite Data File
++++++++++++++++++++++++++++++++++++
Date: Fri Oct 25 11:23:55 EDT 2013
User: price-jones
Dark Spectrum Present: No
Reference Spectrum Present: No
Number of Sampled Component Spectra: 1
Spectrometers: USB2+H05261
Integration Time (usec): 100000 (USB2+H05261)
Spectra Averaged: 1 (USB2+H05261)
Boxcar Smoothing: 0 (USB2+H05261)
Correct for Electrical Dark: No (USB2+H05261)
Strobe/Lamp Enabled: No (USB2+H05261)
Correct for Detector Non-linearity: No (USB2+H05261)
Correct for Stray Light: No (USB2+H05261)
Number of Pixels in Processed Spectrum: 2048
>>>>>Begin Processed Spectral Data<<<<<
365.73	175.54
365.92	175.54
366.12	175.54
366.32	191.92
366.52	140.43
366.72	142.77
366.91	152.13
367.11	91.28
367.31	133.41
367.51	114.69
367.70	100.64
367.90	131.07
368.10	212.99
368.30	140.43
368.49	152.13
368.69	121.71
368.89	191.92
369.09	173.20
369.28	215.33
369.48	117.03
369.68	210.65
369.87	205.97
370.07	224.69
370.27	241.08
370.47	334.70
370.66	624.92
370.86	648.33
371.06	645.99
371.25	772.38
371.45	681.10
371.65	643.65
371.84	685.78
372.04	620.24
372.24	695.14
372.44	697.48
372.63	767.70
372.83	795.78
373.03	758.33
373.22	737.27
373.42	816.85
373.62	765.36
373.81	718.54
374.01	781.74
374.21	870.68
374.40	802.80
374.60	833.23
374.79	800.46
374.99	788.76
375.19	882.38
375.38	798.12
375.58	718.54
375.78	774.72
375.97	861.32
376.17	940.90
376.37	896.43
376.56	889.40
376.76	851.96
376.95	901.11
377.15	816.85
377.35	830.89
377.54	849.61
377.74	950.26
377.93	947.92
378.13	926.85
378.33	917.49
378.52	873.02
378.72	983.02
378.91	968.98
379.11	849.61
379.31	973.66
379.50	976.00
379.70	912.81
379.89	1020.47
380.09	964.30
380.28	994.73
380.48	985.37
380.68	919.83
380.87	973.66
381.07	919.83
381.26	1022.81
381.46	1039.20
381.65	1022.81
381.85	1109.41
382.04	1034.52
382.24	1011.11
382.43	1025.15
382.63	1032.18
382.83	1048.56
383.02	1022.81
383.22	1107.07
383.41	1109.41
383.61	1100.05
383.80	1179.63
384.00	1221.76
384.19	1086.01
384.39	1132.82
384.58	1107.07
384.78	1245.16
384.97	1205.38
385.17	1214.74
385.36	1057.92
385.56	1193.67
385.75	1167.93
385.95	1207.72
386.14	1191.33
386.34	1181.97
386.53	1317.72
386.72	1219.42
386.92	1233.46
387.11	1282.61
387.31	1224.10
387.50	1245.16
387.70	1261.55
387.89	1217.08
388.09	1270.91
388.28	1280.27
388.48	1188.99
388.67	1263.89
388.86	1299.00
389.06	1277.93
389.25	1291.98
389.45	1306.02
389.64	1420.71
389.84	1451.13
390.03	1423.05
390.22	1409.00
390.42	1338.79
390.61	1387.94
390.81	1324.74
391.00	1401.98
391.19	1423.05
391.39	1439.43
391.58	1451.13
391.78	1420.71
391.97	1586.88
392.16	1500.28
392.36	1448.79
392.55	1530.71
392.75	1397.30
392.94	1455.81
393.13	1488.58
393.33	1427.73
393.52	1521.35
393.71	1636.03
393.91	1547.09
394.10	1671.14
394.29	1617.31
394.49	1582.20
394.68	1624.33
394.88	1577.52
395.07	1675.82
395.26	1774.13
395.46	1703.91
395.65	1589.22
395.84	1699.23
396.04	1706.25
396.23	1762.42
396.42	1781.15
396.62	1755.40
396.81	1806.89
397.00	1825.62
397.19	1771.79
397.39	1858.39
397.58	1816.26
397.77	1846.68
397.97	1792.85
398.16	1708.59
398.35	1851.36
398.55	1879.45
398.74	1863.07
398.93	1956.69
399.12	1937.96
399.32	1923.92
399.51	1923.92
399.70	2101.80
399.90	1944.99
400.09	2001.16
400.28	2012.86
400.47	2118.18
400.67	2221.17
400.86	2069.03
401.05	2087.76
401.24	2029.24
401.44	2097.12
401.63	2038.61
401.82	2118.18
402.01	2148.61
402.21	2249.25
402.40	2204.78
402.59	2160.31
402.78	2214.15
402.97	2263.30
403.17	2195.42
403.36	2277.34
403.55	2176.70
403.74	2382.67
403.93	2312.45
404.13	2403.73
404.32	2246.91
404.51	2457.56
404.70	2452.88
404.89	2366.28
405.09	2466.92
405.28	2450.54
405.47	2410.75
405.66	2443.52
405.85	2555.86
406.05	2581.61
406.24	2495.01
406.43	2523.10
406.62	2686.94
406.81	2691.62
407.00	2504.37
407.20	2562.89
407.39	2637.78
407.58	2616.72
407.77	2710.34
407.96	2782.90
408.15	2768.85
408.34	2682.25
408.54	2871.84
408.73	2717.36
408.92	2761.83
409.11	2820.35
409.30	2867.16
409.49	2888.22
409.68	2974.82
409.87	2860.13
410.07	2974.82
410.26	2935.03
410.45	3033.33
410.64	3119.93
410.83	3033.33
411.02	3098.87
411.21	3129.30
411.40	3222.92
411.59	3286.11
411.78	3150.36
411.98	3288.45
412.17	3227.60
412.36	3262.71
412.55	3351.65
412.74	3492.08
412.93	3480.38
413.12	3368.03
413.31	3557.61
413.50	3435.91
413.69	3480.38
413.88	3609.11
414.07	3754.22
414.26	3665.28
414.45	3613.79
414.64	3679.32
414.83	3777.62
415.02	3838.48
415.22	3880.61
415.41	3978.91
415.60	3854.86
415.79	3889.97
415.98	3896.99
416.17	4035.08
416.36	3887.63
416.55	4044.45
416.74	4135.73
416.93	3985.93
417.12	4072.53
417.31	3981.25
417.50	4182.54
417.69	4329.99
417.88	4304.25
418.07	4278.50
418.26	4264.46
418.45	4299.56
418.64	4421.27
418.83	4379.14
419.02	4367.44
419.21	4524.26
419.39	4624.90
419.58	4542.98
419.77	4477.44
419.96	4568.73
420.15	4674.05
420.34	4606.17
420.53	4702.14
420.72	4753.63
420.91	4746.61
421.10	4645.96
421.29	4772.35
421.48	4744.27
421.67	4793.42
421.86	4685.75
422.05	4926.83
422.24	4760.65
422.43	4865.97
422.61	4847.25
422.80	4961.94
422.99	5020.45
423.18	4912.78
423.37	5144.50
423.56	4947.89
423.75	4809.80
423.94	4868.31
424.13	4648.30
424.32	4664.69
424.50	5104.71
424.69	5057.90
424.88	5078.96
425.07	4954.91
425.26	4800.44
425.45	4931.51
425.64	4889.38
425.83	5074.28
426.01	5053.22
426.20	5116.41
426.39	5184.29
426.58	5123.43
426.77	5200.67
426.96	5160.88
427.15	5174.92
427.33	5203.01
427.52	5277.91
427.71	5291.95
427.90	5238.12
428.09	5191.31
428.28	5474.51
428.46	5411.32
428.65	5245.14
428.84	5331.74
429.03	5451.11
429.22	5303.65
429.40	5504.94
429.59	5394.93
429.78	5289.61
429.97	5277.91
430.16	5474.51
430.34	5645.37
430.53	5813.89
430.72	5610.26
430.91	5570.48
431.10	5570.48
431.28	5771.76
431.47	5802.19
431.66	5790.49
431.85	5671.12
432.03	5888.79
432.22	6127.52
432.41	5982.41
432.60	5900.49
432.79	5834.96
432.97	6003.47
433.16	6153.27
433.35	5991.77
433.54	6087.73
433.72	6272.64
433.91	6108.80
434.10	6134.54
434.28	6258.59
434.47	6164.97
434.66	6279.66
434.85	6359.24
435.03	6272.64
435.22	6244.55
435.41	6389.66
435.59	6298.38
435.78	6441.15
435.97	6537.12
436.16	6431.79
436.34	6534.78
436.53	6614.35
436.72	6693.93
436.90	6424.77
437.09	6656.48
437.28	6516.05
437.46	6752.45
437.65	6504.35
437.84	6658.82
438.02	6789.89
438.21	6623.72
438.40	6778.19
438.58	7075.44
438.77	7098.84
438.96	6923.30
439.14	7054.37
439.33	7349.28
439.52	7129.27
439.70	7363.33
439.89	7473.33
440.08	7391.41
440.26	7311.83
440.45	7386.73
440.63	7669.94
440.82	7588.02
441.01	7583.34
441.19	7573.97
441.38	7765.90
441.57	7672.28
441.75	7967.18
441.94	7941.44
442.12	8018.68
442.31	8243.37
442.50	8079.53
442.68	7882.92
442.87	8100.59
443.05	8308.90
443.24	8229.32
443.43	8259.75
443.61	8119.32
443.80	8589.77
443.98	8109.96
444.17	7838.45
444.35	8084.21
444.54	8430.61
444.73	8285.50
444.91	8423.59
445.10	8388.48
445.28	8493.80
445.47	8154.43
445.65	8107.62
445.84	8458.70
446.02	8500.83
446.21	8547.64
446.39	8444.65
446.58	8465.72
446.77	8360.39
446.95	8271.45
447.14	8622.53
447.32	8692.75
447.51	8404.86
447.69	8510.19
447.88	8592.11
448.06	8645.94
448.25	8458.70
448.43	8774.67
448.62	8678.71
448.80	8608.49
448.99	8685.73
449.17	8746.58
449.36	8746.58
449.54	8875.31
449.73	8950.21
449.91	9095.32
450.10	9210.01
450.28	9142.13
450.46	9125.75
450.65	9022.77
450.83	8938.51
451.02	9156.18
451.20	9125.75
451.39	9277.88
451.57	9174.90
451.76	9221.71
451.94	9170.22
452.13	9441.72
452.31	9348.10
452.49	9172.56
452.68	9263.84
452.86	9495.55
453.05	9708.54
453.23	9579.81
453.42	9413.63
453.60	9320.01
453.78	9722.59
453.97	9577.47
454.15	9511.94
454.34	9411.29
454.52	9844.29
454.70	9678.12
454.89	9673.43
455.07	9809.19
455.26	9891.10
455.44	10108.77
455.62	9907.49
455.81	10111.11
455.99	9881.74
456.17	9888.76
456.36	10019.83
456.54	10043.24
456.73	10572.20
456.91	10422.41
457.09	10445.81
457.28	10633.05
457.46	10218.78
457.64	10406.02
457.83	10635.39
458.01	10347.51
458.19	10719.65
458.38	10457.51
458.56	10841.36
458.74	10553.48
458.93	10792.21
459.11	10745.40
459.29	10661.14
459.48	10874.13
459.66	10813.28
459.84	10864.77
460.03	11124.57
460.21	11180.74
460.39	11037.97
460.57	11082.44
460.76	11119.89
460.94	11323.51
461.12	11103.50
461.31	11293.08
461.49	11293.08
461.67	11243.93
461.85	11377.34
462.04	11197.12
462.22	11573.95
462.40	11445.22
462.59	11527.14
462.77	11468.62
462.95	11712.04
463.13	11508.41
463.32	11749.49
463.50	11646.51
463.68	11829.07
463.86	11887.58
464.05	11651.19
464.23	11705.02
464.41	11847.79
464.59	11800.98
464.78	12184.83
464.96	11957.80
465.14	11992.90
465.32	12334.62
465.50	12318.24
465.69	12194.19
465.87	12114.61
466.05	12123.98
466.23	12203.55
466.41	12241.00
466.60	12571.02
466.78	12159.08
466.96	12283.13
467.14	12421.22
467.32	12362.71
467.51	12564.00
467.69	12147.38
467.87	12526.55
468.05	12519.53
468.23	12713.79
468.41	12552.29
468.60	12585.06
468.78	12622.51
468.96	12781.67
469.14	13163.17
469.32	13074.23
469.50	12699.75
469.69	13067.21
469.87	13198.28
470.05	13130.41
470.23	13308.29
470.41	13240.41
470.59	13348.08
470.77	13217.01
470.95	13472.12
471.14	13607.87
471.32	13179.56
471.50	13502.55
471.68	13671.07
471.86	13628.94
472.04	13783.41
472.22	13977.68
472.40	13949.59
472.58	14019.81
472.77	13921.51
472.95	14193.01
473.13	14614.30
473.31	14148.54
473.49	14263.22
473.67	14211.73
473.85	14239.82
474.03	14640.05
474.21	14532.39
474.39	14796.87
474.57	14941.98
474.75	15016.88
474.93	15066.03
475.12	15190.08
475.30	15379.66
475.48	14939.64
475.66	15204.12
475.84	15026.24
476.02	15470.94
476.20	15463.92
476.38	15796.28
476.56	16182.46
476.74	15873.51
476.92	16128.63
477.10	15550.52
477.28	16140.33
477.46	16042.03
477.64	16145.02
477.82	16449.28
478.00	16788.66
478.18	16933.78
478.36	17114.00
478.54	17165.49
478.72	17174.85
478.90	17334.01
479.08	17678.07
479.26	17806.80
479.44	17600.83
479.62	17954.25
479.80	18146.17
479.98	17912.12
480.16	18604.92
480.34	18176.60
480.52	18869.40
480.70	18555.77
480.88	18621.30
481.06	18956.00
481.24	18607.26
481.41	19126.86
481.59	19403.04
481.77	19276.65
481.95	19749.44
482.13	19676.88
482.31	19969.45
482.49	20449.26
482.67	20437.56
482.85	20547.56
483.03	20517.14
483.21	21085.89
483.39	20863.54
483.57	21055.46
483.74	21092.91
483.92	21221.64
484.10	21231.00
484.28	21743.58
484.46	21898.05
484.64	22188.28
484.82	21970.61
485.00	22307.65
485.18	22522.98
485.35	23035.55
485.53	23023.85
485.71	23276.63
485.89	23522.38
486.07	23239.18
486.25	23576.22
486.43	23360.89
486.61	24144.97
486.78	24016.24
486.96	24430.51
487.14	24524.13
487.32	24772.23
487.50	24662.22
487.68	24910.32
487.85	25282.47
488.03	25642.91
488.21	26134.42
488.39	26050.16
488.57	26349.75
488.75	26389.54
488.92	26616.57
489.10	27047.23
489.28	26918.50
489.46	27058.93
489.64	27309.37
489.81	27639.39
489.99	27784.50
490.17	28077.07
490.35	28247.93
490.53	28456.23
490.70	28606.03
490.88	28266.65
491.06	28835.40
491.24	28734.76
491.41	29443.94
491.59	29294.14
491.77	29427.56
491.95	29579.69
492.13	29832.47
492.30	30022.05
492.48	30232.70
492.66	30359.09
492.84	30445.69
493.01	30426.96
493.19	30520.59
493.37	31379.56
493.54	31461.48
493.72	31524.68
493.90	31409.99
494.08	31854.69
494.25	31969.38
494.43	32034.91
494.61	32804.95
494.79	32994.53
494.96	32627.07
495.14	32697.28
495.32	33427.53
495.49	33282.42
495.67	33675.63
495.85	33371.36
496.02	33809.04
496.20	34293.53
496.38	34237.36
496.55	34026.71
496.73	34967.60
496.91	34653.97
497.09	34958.24
497.26	35194.64
497.44	34927.81
497.62	35421.67
497.79	36004.46
497.97	35604.23
498.14	36004.46
498.32	36477.25
498.50	36458.52
498.67	36708.96
498.85	36355.54
499.03	36308.73
499.20	36830.67
499.38	37352.61
499.56	37476.66
499.73	37731.78
499.91	37642.84
500.08	37708.37
500.26	37619.43
500.44	37872.21
500.61	37982.21
500.79	37823.06
500.97	38176.48
501.14	38700.76
501.32	38689.06
501.49	38717.14
501.67	38665.65
501.84	39292.91
502.02	39185.25
502.20	38976.94
502.37	39445.05
502.55	39777.40
502.72	39592.50
502.90	40027.84
503.07	39751.66
503.25	40112.10
503.43	40105.08
503.60	40521.69
503.78	40416.37
503.95	40620.00
504.13	40802.56
504.30	40987.46
504.48	40666.81
504.65	41294.07
504.83	40994.48
505.01	41439.18
505.18	41394.71
505.36	41600.68
505.53	41521.10
505.71	41570.25
505.88	41956.44
506.06	41862.82
506.23	42351.99
506.41	41734.09
506.58	42092.19
506.76	42340.29
506.93	42457.32
507.11	42522.85
507.28	42562.64
507.46	42892.66
507.63	43030.75
507.81	43662.69
507.98	42979.26
508.16	43475.45
508.33	43849.94
508.50	43335.02
508.68	43936.54
508.85	44341.45
509.03	44458.48
509.20	44376.56
509.38	44404.64
509.55	44442.09
509.73	44259.53
509.90	44563.80
510.08	44521.67
510.25	44739.34
510.42	45088.08
510.60	45216.81
510.77	45558.53
510.95	45551.51
511.12	45301.07
511.30	45240.21
511.47	45600.66
511.64	45462.57
511.82	46010.25
511.99	45532.78
512.17	46256.01
512.34	46469.00
512.51	46429.21
512.69	46724.11
512.86	45982.16
513.04	46784.97
513.21	46841.14
513.38	46831.78
513.56	47482.45
513.73	46663.26
513.90	46993.28
514.08	46937.10
514.25	47454.36
514.43	47683.73
514.60	47592.45
514.77	47449.68
514.95	47908.43
515.12	47337.33
515.29	47756.29
515.47	48156.52
515.64	47803.10
515.81	48374.19
515.99	48362.49
516.16	48612.93
516.33	48563.78
516.51	48903.15
516.68	48823.58
516.85	48699.53
517.03	48954.64
517.20	49151.25
517.37	48842.30
517.54	49141.89
517.72	48868.05
517.89	49195.72
518.06	49289.34
518.24	48844.64
518.41	49427.43
518.58	49546.80
518.75	49329.13
518.93	49460.20
519.10	49574.89
519.27	49504.67
519.45	49750.43
519.62	50012.57
519.79	50014.91
519.96	50211.51
520.14	50174.06
520.31	50368.33
520.48	50330.88
520.65	50293.43
520.83	50941.76
521.00	50791.97
521.17	50707.71
521.34	51086.87
521.52	50920.70
521.69	50801.33
521.86	51337.31
522.03	51110.28
522.20	51767.97
522.38	51639.24
522.55	51388.80
522.72	51430.93
522.89	51503.49
523.07	51910.74
523.24	51859.25
523.41	51566.68
523.58	51625.20
523.75	52238.42
523.92	51735.20
524.10	51877.97
524.27	51833.50
524.44	52177.56
524.61	51931.81
524.78	52350.76
524.96	52495.88
525.13	52568.43
525.30	52732.27
525.47	52823.55
525.64	52467.79
525.81	52519.28
525.98	52879.72
526.16	52739.29
526.33	52865.68
526.50	53106.76
526.67	52865.68
526.84	53162.93
527.01	52865.68
527.18	53160.59
527.36	52865.68
527.53	53015.47
527.70	53544.44
527.87	53352.51
528.04	53436.77
528.21	53413.37
528.38	53677.85
528.55	53837.00
528.72	53378.26
528.89	53640.40
529.07	53539.75
529.24	53668.48
529.41	53865.09
529.58	53579.54
529.75	53780.83
529.92	54019.56
530.09	53778.49
530.26	54122.55
530.43	54073.40
530.60	54145.95
530.77	53888.49
530.94	54288.73
531.11	54171.70
531.28	54445.54
531.46	54169.36
531.63	54305.11
531.80	54370.64
531.97	54497.03
532.14	54738.11
532.31	54482.99
532.48	54841.09
532.65	54855.14
532.82	54487.67
532.99	54438.52
533.16	54906.63
533.33	54923.01
533.50	55030.68
533.67	55089.19
533.84	54993.23
534.01	54658.53
534.18	54822.37
534.35	55679.00
534.52	55346.65
534.69	55145.36
534.86	55491.76
535.03	55334.95
535.20	55257.71
535.37	55386.44
535.54	55554.96
535.71	55346.65
535.88	55538.57
536.05	55723.47
536.22	55667.30
536.38	55679.00
536.55	55690.71
536.72	55643.90
536.89	55564.32
537.06	55660.28
537.23	55746.88
537.40	55482.40
537.57	55901.36
537.74	56020.72
537.91	56093.28
538.08	56067.53
538.25	55730.50
538.42	56016.04
538.59	56149.45
538.75	55978.59
538.92	56214.99
539.09	56336.69
539.26	56350.74
539.43	56219.67
539.60	56142.43
539.77	56222.01
539.94	56463.08
540.11	56516.92
540.28	56484.15
540.44	56636.28
540.61	56163.50
540.78	56397.55
540.95	56650.33
541.12	56413.93
541.29	56470.11
541.46	56589.47
541.62	56624.58
541.79	56523.94
541.96	56296.91
542.13	56587.13
542.30	56821.19
542.47	56842.25
542.63	56853.95
542.80	57059.92
542.97	57181.63
543.14	57256.53
543.31	57268.23
543.48	57198.01
543.64	57558.45
543.81	57345.47
543.98	57251.84
544.15	57455.47
544.32	57483.56
544.48	57598.24
544.65	57570.16
544.82	57467.17
544.99	57420.36
545.16	57537.39
545.32	57286.95
545.49	57909.53
545.66	57729.31
545.83	57883.79
546.00	58012.52
546.16	57755.06
546.33	57652.08
546.50	57506.96
546.67	57902.51
546.83	57446.11
547.00	57738.68
547.17	57708.25
547.34	58021.88
547.50	57942.30
547.67	58115.50
547.84	58117.84
548.00	58246.57
548.17	58279.34
548.34	58251.25
548.51	58281.68
548.67	58309.77
548.84	58148.27
549.01	58234.87
549.18	58169.33
549.34	58291.04
549.51	58382.32
549.68	58384.66
549.84	58560.20
550.01	58515.73
550.18	58415.09
550.34	58562.54
550.51	58597.65
550.68	58522.76
550.84	58337.85
551.01	58820.00
551.18	58379.98
551.34	58639.78
551.51	58733.40
551.68	58782.55
551.84	58583.61
552.01	58464.24
552.18	58894.90
552.34	58555.52
552.51	58768.51
552.68	58604.67
552.84	58845.75
553.01	58972.14
553.18	58829.37
553.34	58993.20
553.51	58777.87
553.67	58990.86
553.84	58955.75
554.01	59051.72
554.17	59058.74
554.34	59056.40
554.51	59091.51
554.67	59260.02
554.84	58990.86
555.00	59084.48
555.17	58981.50
555.33	58979.16
555.50	58864.47
555.67	59175.76
555.83	59283.43
556.00	59262.36
556.16	59550.25
556.33	59309.18
556.50	59309.18
556.66	59313.86
556.83	58990.86
556.99	59587.70
557.16	59693.02
557.32	59540.89
557.49	59643.87
557.65	59327.90
557.82	59540.89
557.98	59456.63
558.15	59393.43
558.32	59742.17
558.48	59576.00
558.65	59489.40
558.81	59613.44
558.98	59416.84
559.14	59686.00
559.31	59751.54
559.47	59599.40
559.64	59753.88
559.80	59627.49
559.97	59770.26
560.13	59718.77
560.30	59800.69
560.46	59824.09
560.63	59838.14
560.79	59920.05
560.96	59894.31
561.12	60182.19
561.29	59826.43
561.45	59976.23
561.61	59788.98
561.78	60025.38
561.94	59920.05
562.11	59985.59
562.27	59955.16
562.44	59929.42
562.60	60044.10
562.77	60126.02
562.93	59779.62
563.10	60081.55
563.26	59898.99
563.42	60046.44
563.59	59999.63
563.75	60032.40
563.92	60090.91
564.08	60275.82
564.24	60219.64
564.41	60278.16
564.57	60140.07
564.74	60261.77
564.90	60219.64
565.07	60172.83
565.23	60266.45
565.39	60306.24
565.56	60470.08
565.72	60360.08
565.88	60404.55
566.05	60353.05
566.21	60200.92
566.38	60388.16
566.54	60357.74
566.70	60549.66
566.87	60561.36
567.03	60205.60
567.19	60559.02
567.36	60530.93
567.52	60392.84
567.68	60547.32
567.85	60392.84
568.01	60467.74
568.17	60617.53
568.34	60456.04
568.50	60460.72
568.66	60219.64
568.83	60533.28
568.99	60477.10
569.15	60212.62
569.32	60537.96
569.48	60437.31
569.64	60388.16
569.81	60568.38
569.97	60357.74
570.13	60512.21
570.30	60540.30
570.46	60647.96
570.62	60783.71
570.78	60509.87
570.95	60601.15
571.11	60764.99
571.27	60488.80
571.43	60577.75
571.60	60706.47
571.76	60662.00
571.92	60645.62
572.09	60605.83
572.25	60601.15
572.41	60718.18
572.57	60451.36
572.74	60921.80
572.90	60657.32
573.06	60821.16
573.22	60645.62
573.38	60811.80
573.55	60706.47
573.71	60793.07
573.87	60664.35
574.03	60514.55
574.20	60942.87
574.36	60753.29
574.52	60926.49
574.68	60795.42
574.84	60809.46
575.01	60956.91
575.17	60844.57
575.33	60694.77
575.49	60732.22
575.65	60795.42
575.82	60996.70
575.98	60938.19
576.14	61174.58
576.30	60987.34
576.46	60807.12
576.62	60900.74
576.79	60811.80
576.95	60605.83
577.11	60851.59
577.27	61003.72
577.43	60973.30
577.59	60739.24
577.75	60884.36
577.92	60797.76
578.08	60715.84
578.24	60814.14
578.40	61022.45
578.56	60975.64
578.72	60919.46
578.88	61020.11
579.04	61130.11
579.21	61038.83
579.37	61226.07
579.53	61090.32
579.69	61010.74
579.85	60853.93
580.01	60816.48
580.17	60900.74
580.33	60992.02
580.49	61020.11
580.65	61160.54
580.82	61071.60
580.98	60790.73
581.14	60966.27
581.30	61111.39
581.46	60966.27
581.62	60882.02
581.78	60858.61
581.94	61059.90
582.10	61048.19
582.26	61162.88
582.42	61057.56
582.58	60963.93
582.74	60856.27
582.90	60942.87
583.06	61090.32
583.22	61036.49
583.38	61312.67
583.54	61162.88
583.70	61090.32
583.86	61057.56
584.02	60924.14
584.18	61116.07
584.34	61066.92
584.50	61078.62
584.66	60992.02
584.82	60980.32
584.98	61029.47
585.14	61263.52
585.30	60844.57
585.46	61109.05
585.62	61240.12
585.78	61329.06
585.94	60940.53
586.10	61073.94
586.26	60942.87
586.42	60994.36
586.58	61169.90
586.74	61080.96
586.90	61160.54
587.06	60921.80
587.22	61099.68
587.38	61092.66
587.54	61286.93
587.70	61284.59
587.86	61233.10
588.02	61144.16
588.18	61160.54
588.34	61080.96
588.49	61144.16
