SpectraSuite Data File
++++++++++++++++++++++++++++++++++++
Date: Fri Oct 25 11:33:39 EDT 2013
User: price-jones
Dark Spectrum Present: No
Reference Spectrum Present: No
Number of Sampled Component Spectra: 1
Spectrometers: USB2+H05261
Integration Time (usec): 100000 (USB2+H05261)
Spectra Averaged: 1 (USB2+H05261)
Boxcar Smoothing: 0 (USB2+H05261)
Correct for Electrical Dark: No (USB2+H05261)
Strobe/Lamp Enabled: No (USB2+H05261)
Correct for Detector Non-linearity: No (USB2+H05261)
Correct for Stray Light: No (USB2+H05261)
Number of Pixels in Processed Spectrum: 2048
>>>>>Begin Processed Spectral Data<<<<<
365.73	273.84
365.92	273.84
366.12	273.84
366.32	161.50
366.52	187.24
366.72	177.88
366.91	161.50
367.11	196.60
367.31	173.20
367.51	191.92
367.70	166.18
367.90	114.69
368.10	198.95
368.30	191.92
368.49	102.98
368.69	161.50
368.89	210.65
369.09	187.24
369.28	212.99
369.48	182.56
369.68	245.76
369.87	220.01
370.07	243.42
370.27	287.89
370.47	334.70
370.66	461.09
370.86	500.87
371.06	580.45
371.25	510.24
371.45	587.47
371.65	533.64
371.84	531.30
372.04	540.66
372.24	587.47
372.44	564.07
372.63	561.73
372.83	683.44
373.03	566.41
373.22	706.84
373.42	566.41
373.62	664.71
373.81	660.03
374.01	650.67
374.21	629.60
374.40	603.86
374.60	664.71
374.79	688.12
374.99	676.41
375.19	648.33
375.38	669.39
375.58	617.90
375.78	617.90
375.97	648.33
376.17	718.54
376.37	662.37
376.56	716.20
376.76	648.33
376.95	645.99
377.15	737.27
377.35	697.48
377.54	692.80
377.74	702.16
377.93	631.94
378.13	638.97
378.33	697.48
378.52	671.73
378.72	739.61
378.91	660.03
379.11	645.99
379.31	674.07
379.50	716.20
379.70	734.93
379.89	781.74
380.09	732.59
380.28	753.65
380.48	734.93
380.68	711.52
380.87	730.25
381.07	741.95
381.26	851.96
381.46	781.74
381.65	830.89
381.85	753.65
382.04	716.20
382.24	842.59
382.43	746.63
382.63	786.42
382.83	760.67
383.02	870.68
383.22	734.93
383.41	784.08
383.61	821.53
383.80	781.74
384.00	826.21
384.19	840.25
384.39	847.27
384.58	770.04
384.78	866.00
384.97	807.48
385.17	779.40
385.36	777.06
385.56	837.91
385.75	798.12
385.95	821.53
386.14	828.55
386.34	809.83
386.53	784.08
386.72	863.66
386.92	873.02
387.11	922.17
387.31	910.47
387.50	861.32
387.70	880.04
387.89	856.64
388.09	858.98
388.28	917.49
388.48	926.85
388.67	945.58
388.86	938.55
389.06	950.26
389.25	959.62
389.45	880.04
389.64	933.87
389.84	1008.77
390.03	1041.54
390.22	1071.97
390.42	947.92
390.61	950.26
390.81	985.37
391.00	1046.22
391.19	976.00
391.39	959.62
391.58	943.24
391.78	1027.50
391.97	1062.60
392.16	1048.56
392.36	1050.90
392.55	1156.22
392.75	1090.69
392.94	1116.44
393.13	1053.24
393.33	1020.47
393.52	1069.62
393.71	1144.52
393.91	1116.44
394.10	1083.67
394.29	1032.18
394.49	1062.60
394.68	1088.35
394.88	1174.95
395.07	1104.73
395.26	987.71
395.46	1088.35
395.65	1198.35
395.84	1170.27
396.04	1238.14
396.23	1146.86
396.42	1193.67
396.62	1177.29
396.81	1219.42
397.00	1205.38
397.19	1198.35
397.39	1224.10
397.58	1207.72
397.77	1238.14
397.97	1301.34
398.16	1320.06
398.35	1299.00
398.55	1247.51
398.74	1322.40
398.93	1301.34
399.12	1303.68
399.32	1343.47
399.51	1397.30
399.70	1315.38
399.90	1301.34
400.09	1359.85
400.28	1434.75
400.47	1313.04
400.67	1401.98
400.86	1390.28
401.05	1401.98
401.24	1406.66
401.44	1455.81
401.63	1423.05
401.82	1502.62
402.01	1406.66
402.21	1465.18
402.40	1516.67
402.59	1448.79
402.78	1483.90
402.97	1558.80
403.17	1551.78
403.36	1530.71
403.55	1591.56
403.74	1607.95
403.93	1678.16
404.13	1582.20
404.32	1661.78
404.51	1610.29
404.70	1579.86
404.89	1661.78
405.09	1654.76
405.28	1612.63
405.47	1739.02
405.66	1668.80
405.85	1680.50
406.05	1657.10
406.24	1706.25
406.43	1703.91
406.62	1785.83
406.81	1804.55
407.00	1797.53
407.20	1781.15
407.39	1820.94
407.58	1785.83
407.77	1919.24
407.96	1909.88
408.15	1891.15
408.34	1849.02
408.54	1853.70
408.73	1825.62
408.92	1977.75
409.11	1956.69
409.30	2010.52
409.49	1963.71
409.68	2057.33
409.87	2057.33
410.07	1926.26
410.26	2031.58
410.45	2062.01
410.64	2104.14
410.83	2090.10
411.02	2136.91
411.21	2179.04
411.40	2160.31
411.59	2272.66
411.78	2167.34
411.98	2122.87
412.17	2122.87
412.36	2263.30
412.55	2286.70
412.74	2303.09
412.93	2333.51
413.12	2289.04
413.31	2450.54
413.50	2298.41
413.69	2396.71
413.88	2516.08
414.07	2410.75
414.26	2448.20
414.45	2504.37
414.64	2637.78
414.83	2541.82
415.02	2546.50
415.22	2520.76
415.41	2679.91
415.60	2534.80
415.79	2801.62
415.98	2803.96
416.17	2661.19
416.36	2771.19
416.55	2916.31
416.74	2799.28
416.93	2722.04
417.12	2787.58
417.31	2768.85
417.50	2860.13
417.69	2855.45
417.88	2944.39
418.07	3009.93
418.26	3000.57
418.45	3066.10
418.64	3178.45
418.83	3028.65
419.02	3045.04
419.21	3143.34
419.39	3138.66
419.58	3091.85
419.77	3091.85
419.96	3157.38
420.15	3166.74
420.34	3082.49
420.53	3304.84
420.72	3222.92
420.91	3379.73
421.10	3323.56
421.29	3255.69
421.48	3236.96
421.67	3297.81
421.86	3243.98
422.05	3307.18
422.24	3192.49
422.43	3368.03
422.61	3426.54
422.80	3365.69
422.99	3473.36
423.18	3489.74
423.37	3578.68
423.56	3368.03
423.75	3445.27
423.94	3283.77
424.13	3173.77
424.32	3286.11
424.50	3494.42
424.69	3501.44
424.88	3510.80
425.07	3281.43
425.26	3398.46
425.45	3419.52
425.64	3311.86
425.83	3412.50
426.01	3571.66
426.20	3606.77
426.39	3454.63
426.58	3641.87
426.77	3529.53
426.96	3520.17
427.15	3536.55
427.33	3609.11
427.52	3559.95
427.71	3700.39
427.90	3791.67
428.09	3695.71
428.28	3623.15
428.46	3653.58
428.65	3726.13
428.84	3779.97
429.03	3815.07
429.22	3616.13
429.40	3817.41
429.59	3791.67
429.78	3604.42
429.97	3574.00
430.16	3805.71
430.34	3815.07
430.53	3939.12
430.72	3913.38
430.91	3948.48
431.10	3866.56
431.28	3995.29
431.47	4133.39
431.66	4112.32
431.85	3997.64
432.03	3929.76
432.22	4173.18
432.41	4154.45
432.60	4100.62
432.79	4119.34
432.97	4121.68
433.16	4032.74
433.35	4194.24
433.54	4198.92
433.72	4278.50
433.91	4241.05
434.10	4187.22
434.28	4177.86
434.47	4278.50
434.66	4299.56
434.85	4353.40
435.03	4269.14
435.22	4393.19
435.41	4573.41
435.59	4348.72
435.78	4461.06
435.97	4425.95
436.16	4369.78
436.34	4348.72
436.53	4470.42
436.72	4582.77
436.90	4447.02
437.09	4407.23
437.28	4521.92
437.46	4521.92
437.65	4599.15
437.84	4430.63
438.02	4498.51
438.21	4676.39
438.40	4578.09
438.58	4716.18
438.77	4779.37
438.96	4795.76
439.14	4973.64
439.33	4973.64
439.52	4887.04
439.70	4964.28
439.89	5025.13
440.08	5025.13
440.26	5055.56
440.45	5001.72
440.63	5149.18
440.82	5256.84
441.01	5055.56
441.19	5095.35
441.38	5163.22
441.57	5240.46
441.75	5327.06
441.94	5394.93
442.12	5280.25
442.31	5469.83
442.50	5448.77
442.68	5401.96
442.87	5467.49
443.05	5446.43
443.24	5490.90
443.43	5582.18
443.61	5490.90
443.80	5774.10
443.98	5561.11
444.17	5458.13
444.35	5654.73
444.54	5605.58
444.73	5657.07
444.91	5638.35
445.10	5734.31
445.28	5666.44
445.47	5717.93
445.65	5816.23
445.84	5701.54
446.02	5870.06
446.21	5706.23
446.39	5626.65
446.58	5816.23
446.77	5783.46
446.95	5638.35
447.14	5767.08
447.32	5797.51
447.51	5734.31
447.69	5797.51
447.88	5893.47
448.06	5731.97
448.25	5804.53
448.43	5834.96
448.62	5809.21
448.80	5851.34
448.99	5727.29
449.17	5963.68
449.36	5902.83
449.54	5996.45
449.73	5942.62
449.91	6193.06
450.10	6069.01
450.28	6134.54
450.46	6038.58
450.65	6202.42
450.83	5973.05
451.02	6134.54
451.20	6200.08
451.39	6223.48
451.57	6274.98
451.76	6143.91
451.94	6195.40
452.13	6190.72
452.31	6366.26
452.49	6127.52
452.68	6413.07
452.86	6321.79
453.05	6242.21
453.23	6375.62
453.42	6307.74
453.60	6197.74
453.78	6356.90
453.97	6413.07
454.15	6331.15
454.34	6326.47
454.52	6609.67
454.70	6410.73
454.89	6530.09
455.07	6612.01
455.26	6612.01
455.44	6750.10
455.62	6738.40
455.81	6693.93
455.99	6794.58
456.17	6773.51
456.36	6862.45
456.54	6789.89
456.73	6909.26
456.91	7140.97
457.09	7105.87
457.28	7021.61
457.46	7037.99
457.64	7007.56
457.83	7206.51
458.01	7084.80
458.19	7225.23
458.38	6899.90
458.56	7119.91
458.74	7248.64
458.93	7192.47
459.11	7356.30
459.29	7213.53
459.48	7243.96
459.66	7269.70
459.84	7323.54
460.03	7410.14
460.21	7379.71
460.39	7438.22
460.57	7452.27
460.76	7358.64
460.94	7585.68
461.12	7363.33
461.31	7396.09
461.49	7440.56
461.67	7412.48
461.85	7634.83
462.04	7679.30
462.22	8145.06
462.40	7803.35
462.59	7510.78
462.77	7571.63
462.95	7817.39
463.13	7850.16
463.32	7812.71
463.50	7915.69
463.68	7749.51
463.86	7929.74
464.05	7611.42
464.23	7880.58
464.41	8116.98
464.59	7793.98
464.78	8102.93
464.96	8116.98
465.14	8004.63
465.32	7943.78
465.50	8086.55
465.69	8145.06
465.87	8154.43
466.05	8021.02
466.23	8201.24
466.41	8241.03
466.60	8376.78
466.78	8147.40
466.96	8379.12
467.14	8147.40
467.32	8346.35
467.51	8454.02
467.69	8060.80
467.87	8465.72
468.05	8372.10
468.23	8336.99
468.41	8313.58
468.60	8575.72
468.78	8599.13
468.96	8332.31
469.14	8634.24
469.32	8589.77
469.50	8582.74
469.69	8779.35
469.87	8760.63
470.05	8622.53
470.23	8685.73
470.41	8755.94
470.59	8959.57
470.77	8760.63
470.95	8840.20
471.14	9018.08
471.32	8903.40
471.50	8973.61
471.68	8938.51
471.86	8982.98
472.04	9191.28
472.22	9434.70
472.40	9268.52
472.58	9343.42
472.77	9411.29
472.95	9282.56
473.13	9806.84
473.31	9341.08
473.49	9280.22
473.67	9186.60
473.85	9448.74
474.03	9713.22
474.21	9774.08
474.39	9715.56
474.57	9696.84
474.75	10132.18
474.93	9774.08
475.12	9806.84
475.30	10094.73
475.48	10129.84
475.66	10178.99
475.84	10001.11
476.02	10368.57
476.20	10387.30
476.38	10342.83
476.56	10455.17
476.74	10572.20
476.92	10600.29
477.10	10410.70
477.28	10759.44
477.46	10733.70
477.64	10705.61
477.82	11096.48
478.00	11246.27
478.18	11143.29
478.36	11171.38
478.54	11442.88
478.72	11272.02
478.90	11442.88
479.08	11613.74
479.26	11597.35
479.44	11538.84
479.62	11672.25
479.80	12028.01
479.98	12018.65
480.16	12318.24
480.34	12248.02
480.52	12329.94
480.70	12308.88
480.88	12135.68
481.06	12360.37
481.24	12489.10
481.41	12727.83
481.59	12833.16
481.77	12800.39
481.95	13011.04
482.13	13163.17
482.31	13116.36
482.49	13617.24
482.67	13387.86
482.85	13706.18
483.03	13654.69
483.21	13652.34
483.39	13788.10
483.57	13525.96
483.74	13949.59
483.92	13970.66
484.10	13958.96
484.28	14333.44
484.46	14588.56
484.64	14871.76
484.82	14506.64
485.00	14696.22
485.18	15098.80
485.35	15073.05
485.53	15138.58
485.71	15267.31
485.89	15178.37
486.07	15349.23
486.25	15583.29
486.43	15733.08
486.61	15550.52
486.78	15803.30
486.96	15934.37
487.14	16308.85
487.32	16343.96
487.50	16252.68
487.68	16393.11
487.85	16671.64
488.03	16830.79
488.21	16964.20
488.39	17109.32
488.57	17312.94
488.75	17142.08
488.92	17518.91
489.10	17898.08
489.28	17834.88
489.46	17851.27
489.64	17535.29
489.81	18387.25
489.99	18207.03
490.17	18258.52
490.35	18420.02
490.53	18473.85
490.70	18487.89
490.88	18338.10
491.06	18864.72
491.24	18899.83
491.41	18991.11
491.59	19000.47
491.77	19325.80
491.95	19761.14
492.13	19398.36
492.30	19889.87
492.48	19468.58
492.66	19623.05
492.84	20006.90
493.01	20327.55
493.19	20250.32
493.37	20439.90
493.54	20222.23
493.72	20484.37
493.90	20774.60
494.08	20706.72
494.25	20819.07
494.43	21104.61
494.61	21099.93
494.79	21429.94
494.96	21343.35
495.14	21448.67
495.32	21394.84
495.49	21806.77
495.67	21605.49
495.85	21818.47
496.02	22216.36
496.20	22326.37
496.38	22740.64
496.55	22139.13
496.73	22656.39
496.91	22808.52
497.09	22899.80
497.26	22810.86
497.44	22899.80
497.62	22747.67
497.79	23281.31
497.97	23604.30
498.14	23515.36
498.32	23887.51
498.50	23761.12
498.67	23997.51
498.85	23845.38
499.03	24093.47
499.20	24208.16
499.38	24257.31
499.56	24175.39
499.73	24971.18
499.91	24287.74
500.08	24795.64
500.26	24783.93
500.44	24526.47
500.61	24886.92
500.79	24779.25
500.97	25167.78
501.14	25385.45
501.32	25741.21
501.49	25270.76
501.67	25558.65
501.84	25703.76
502.02	25401.83
502.20	25781.00
502.37	25631.21
502.55	25792.70
502.72	25743.55
502.90	25930.80
503.07	25888.67
503.25	26174.21
503.43	26214.00
503.60	26244.43
503.78	26497.20
503.95	26415.29
504.13	26675.09
504.30	26689.13
504.48	26656.36
504.65	26909.14
504.83	26810.84
505.01	27463.85
505.18	27204.05
505.36	27225.11
505.53	27466.19
505.71	27234.47
505.88	27115.11
506.06	27225.11
506.23	27810.25
506.41	27559.81
506.58	27524.70
506.76	27854.72
506.93	28458.57
507.11	28126.22
507.28	28147.28
507.46	28177.71
507.63	28215.16
507.81	28596.67
507.98	28283.03
508.16	28311.12
508.33	28835.40
508.50	28617.73
508.68	28975.83
508.85	29237.97
509.03	28364.95
509.20	29347.98
509.38	29486.07
509.55	29207.55
509.73	29528.20
509.90	29600.76
510.08	29696.72
510.25	29507.13
510.42	29736.51
510.60	30106.31
510.77	29827.79
510.95	30228.02
511.12	30052.48
511.30	29944.81
511.47	29933.11
511.64	30309.94
511.82	30712.51
511.99	30125.04
512.17	30115.67
512.34	30403.56
512.51	30944.22
512.69	30789.75
512.86	30888.05
513.04	30808.47
513.21	31049.55
513.38	31222.75
513.56	31087.00
513.73	31110.40
513.90	31597.23
514.08	31395.95
514.25	31468.50
514.43	31758.73
514.60	31688.51
514.77	31775.11
514.95	31618.30
515.12	31920.23
515.29	31482.55
515.47	32060.66
515.64	31800.86
515.81	32093.43
515.99	31931.93
516.16	32339.18
516.33	32498.34
516.51	32322.80
516.68	32723.03
516.85	33017.94
517.03	32701.96
517.20	32486.64
517.37	32481.95
517.54	32872.82
517.72	33015.60
517.89	33111.56
518.06	32973.47
518.24	33141.99
518.41	33031.98
518.58	33221.56
518.75	32833.04
518.93	33170.07
519.10	33537.54
519.27	33460.30
519.45	33841.81
519.62	33656.90
519.79	33968.19
519.96	33720.10
520.14	34155.44
520.31	33907.34
520.48	33991.60
520.65	34235.02
520.83	34342.68
521.00	34164.80
521.17	34068.84
521.34	34232.68
521.52	34621.20
521.69	34712.49
521.86	35112.72
522.03	34450.35
522.20	35395.92
522.38	35044.84
522.55	35264.85
522.72	35082.29
522.89	35501.25
523.07	35314.00
523.24	35288.26
523.41	35075.27
523.58	35384.22
523.75	35445.07
523.92	35447.41
524.10	35138.46
524.27	35821.90
524.44	35728.28
524.61	36011.48
524.78	35868.71
524.96	36002.12
525.13	35959.99
525.30	36353.20
525.47	36650.45
525.64	35784.45
525.81	36519.38
525.98	36191.70
526.16	35950.63
526.33	35990.42
526.50	36891.52
526.67	36465.55
526.84	36884.50
527.01	36514.70
527.18	36790.88
527.36	36914.93
527.53	36793.22
527.70	37294.10
527.87	37071.75
528.04	36950.04
528.21	37406.44
528.38	37401.76
528.55	37518.79
528.72	36987.49
528.89	37298.78
529.07	37303.46
529.24	37116.22
529.41	37691.99
529.58	37729.44
529.75	37163.03
529.92	37631.13
530.09	37553.90
530.26	38117.96
530.43	37949.45
530.60	37769.22
530.77	37785.61
530.94	37785.61
531.11	37689.65
531.28	38270.10
531.46	38120.31
531.63	38281.80
531.80	38085.20
531.97	38431.60
532.14	38574.37
532.31	38574.37
532.48	38398.83
532.65	38321.59
532.82	38298.19
532.99	38806.08
533.16	38792.04
533.33	38799.06
533.50	38742.89
533.67	38593.09
533.84	38845.87
534.01	39358.45
534.18	38799.06
534.35	39257.81
534.52	38834.17
534.69	39704.85
534.86	39405.26
535.03	39047.16
535.20	39391.22
535.37	39435.69
535.54	39468.45
535.71	39508.24
535.88	39337.38
536.05	39679.10
536.22	39711.87
536.38	39821.87
536.55	39791.45
536.72	39847.62
536.89	39772.72
537.06	40016.14
537.23	40212.74
537.40	39922.52
537.57	39812.51
537.74	39571.44
537.91	40243.17
538.08	39981.03
538.25	40177.64
538.42	40390.62
538.59	40552.12
538.75	40084.01
538.92	40432.75
539.09	40418.71
539.26	40505.31
539.43	40215.08
539.60	40371.90
539.77	40208.06
539.94	40437.44
540.11	40549.78
540.28	40882.14
540.44	41076.40
540.61	41116.19
540.78	40643.40
540.95	40465.52
541.12	40629.36
541.29	40940.65
541.46	41268.33
541.62	40942.99
541.79	40982.78
541.96	40851.71
542.13	41273.01
542.30	41663.88
542.47	41642.81
542.63	41008.53
542.80	41703.67
542.97	42274.76
543.14	42003.25
543.31	41776.22
543.48	41708.35
543.64	42333.27
543.81	42295.82
543.98	41549.19
544.15	42410.51
544.32	42099.22
544.48	42447.96
544.65	42590.73
544.82	42141.35
544.99	41935.38
545.16	42010.28
545.32	42057.09
545.49	42749.88
545.66	42981.60
545.83	42284.12
546.00	43124.37
546.16	42513.49
546.33	42789.67
546.50	42752.23
546.67	42864.57
546.83	42422.21
547.00	42557.96
547.17	42199.86
547.34	43040.11
547.50	43082.24
547.67	43250.76
547.84	42887.98
548.00	43236.72
548.17	43615.88
548.34	43082.24
548.51	43323.32
548.67	43234.38
548.84	43409.92
549.01	43697.80
549.18	43557.37
549.34	43161.82
549.51	43711.84
549.68	43215.65
549.84	43416.94
550.01	43590.14
550.18	43601.84
550.34	43861.64
550.51	44240.81
550.68	43966.96
550.84	43484.81
551.01	43723.55
551.18	43601.84
551.34	43817.17
551.51	43964.62
551.68	43807.81
551.84	43746.95
552.01	43700.14
552.18	44039.52
552.34	43917.81
552.51	44287.62
552.68	43782.06
552.84	44247.83
553.01	44509.97
553.18	44409.32
553.34	44500.61
553.51	43983.35
553.67	44112.08
553.84	44500.61
554.01	44011.43
554.17	44687.85
554.34	44776.79
554.51	44390.60
554.67	45069.36
554.84	45076.38
555.00	45221.49
555.17	44502.95
555.33	44458.48
555.50	44481.88
555.67	44891.48
555.83	44634.02
556.00	45048.29
556.16	45464.91
556.33	45170.00
556.50	44821.26
556.66	44687.85
556.83	44898.50
556.99	45223.83
557.16	45109.14
557.32	45481.29
557.49	45055.31
557.65	44900.84
557.82	45521.08
557.98	45450.86
558.15	45074.04
558.32	45366.60
558.48	45371.28
558.65	45153.62
558.81	45045.95
558.98	45406.39
559.14	45006.16
559.31	45619.38
559.47	45535.12
559.64	45504.70
559.80	45181.70
559.97	44954.67
560.13	45193.40
560.30	45418.10
560.46	45755.13
560.63	46010.25
560.79	45701.30
560.96	46106.21
561.12	45743.43
561.29	45846.41
561.45	45673.21
561.61	45918.97
561.78	45439.16
561.94	45832.37
562.11	45380.65
562.27	45731.73
562.44	45703.64
562.60	46153.02
562.77	45563.21
562.93	45832.37
563.10	45521.08
563.26	45727.05
563.42	45808.96
563.59	46162.39
563.75	45858.12
563.92	45399.37
564.08	46024.29
564.24	46026.63
564.41	45944.72
564.57	45818.33
564.74	46443.25
564.90	45743.43
565.07	45923.65
565.23	45883.86
565.39	45921.31
565.56	46178.77
565.72	46328.56
565.88	46263.03
566.05	46312.18
566.21	46216.22
566.38	46653.90
566.54	46314.52
566.70	46380.06
566.87	46073.45
567.03	46522.83
567.19	46368.35
567.36	46199.83
567.52	46256.01
567.68	46501.76
567.85	46520.49
568.01	46714.75
568.17	46595.38
568.34	46588.36
568.50	46564.96
568.66	46307.50
568.83	46485.38
568.99	46417.50
569.15	46492.40
569.32	46621.13
569.48	46440.91
569.64	46876.25
569.81	46447.93
569.97	46759.22
570.13	46995.62
570.30	46295.80
570.46	46653.90
570.62	46850.50
570.78	46731.14
570.95	46717.09
571.11	46740.50
571.27	46761.56
571.43	46316.86
571.60	46803.69
571.76	46550.91
571.92	47133.71
572.09	46768.58
572.25	46567.30
572.41	46859.87
572.57	46756.88
572.74	47157.11
572.90	46782.63
573.06	47009.66
573.22	46873.91
573.38	47119.66
573.55	47281.16
573.71	47498.83
573.87	47114.98
574.03	47030.72
574.20	47154.77
574.36	46813.05
574.52	47026.04
574.68	47072.85
574.84	47147.75
575.01	47119.66
575.17	46869.23
575.33	47079.88
575.49	46469.00
575.65	47353.72
575.82	46965.19
575.98	46806.03
576.14	47278.82
576.30	47334.99
576.46	47049.45
576.62	47114.98
576.79	47056.47
576.95	46745.18
577.11	46733.48
577.27	47344.36
577.43	47012.00
577.59	47012.00
577.75	47185.20
577.92	47044.77
578.08	47065.83
578.24	46979.23
578.40	47775.02
578.56	47171.16
578.72	47320.95
578.88	47157.11
579.04	47222.65
579.21	47140.73
579.37	47285.84
579.53	47611.18
579.69	47004.98
579.85	47089.24
580.01	47437.98
580.17	47381.80
580.33	47379.46
580.49	47250.74
580.65	47484.79
580.82	47332.65
580.98	47131.37
581.14	47035.41
581.30	47257.76
581.46	46789.65
581.62	47028.38
581.78	47573.73
581.94	47248.39
582.10	47210.95
582.26	47356.06
582.42	47442.66
582.58	47608.84
582.74	47775.02
582.90	47105.62
583.06	47285.84
583.22	46848.16
583.38	47435.64
583.54	47274.14
583.70	47742.25
583.86	47416.91
584.02	47737.57
584.18	47709.48
584.34	47618.20
584.50	47746.93
584.66	47435.64
584.82	47571.39
584.98	47753.95
585.14	47789.06
585.30	47384.15
585.46	47564.37
585.62	47082.22
585.78	47178.18
585.94	46803.69
586.10	47232.01
586.26	47194.56
586.42	47756.29
586.58	47674.37
586.74	47320.95
586.90	47281.16
587.06	47744.59
587.22	47456.70
587.38	46995.62
587.54	47885.02
587.70	47564.37
587.86	47477.77
588.02	47063.49
588.18	47594.79
588.34	47487.13
588.49	48006.73
588.65	47730.54
588.81	47585.43
588.97	47325.63
589.13	47473.09
589.29	47831.19
589.45	47751.61
589.61	47798.42
589.77	47576.07
589.93	48114.39
