SpectraSuite Data File
++++++++++++++++++++++++++++++++++++
Date: Fri Oct 25 10:47:47 EDT 2013
User: price-jones
Dark Spectrum Present: No
Reference Spectrum Present: No
Number of Sampled Component Spectra: 1
Spectrometers: USB2+H05261
Integration Time (usec): 100000 (USB2+H05261)
Spectra Averaged: 1 (USB2+H05261)
Boxcar Smoothing: 0 (USB2+H05261)
Correct for Electrical Dark: No (USB2+H05261)
Strobe/Lamp Enabled: No (USB2+H05261)
Correct for Detector Non-linearity: No (USB2+H05261)
Correct for Stray Light: No (USB2+H05261)
Number of Pixels in Processed Spectrum: 2048
>>>>>Begin Processed Spectral Data<<<<<
365.73	107.66
365.92	107.66
366.12	107.66
366.32	37.45
366.52	93.62
366.72	72.56
366.91	14.04
367.11	35.11
367.31	37.45
367.51	21.06
367.70	39.79
367.90	25.75
368.10	39.79
368.30	11.70
368.49	93.62
368.69	67.88
368.89	51.49
369.09	44.47
369.28	65.54
369.48	63.19
369.68	28.09
369.87	81.92
370.07	147.45
370.27	149.79
370.47	234.05
370.66	414.27
370.86	447.04
371.06	365.12
371.25	437.68
371.45	505.56
371.65	447.04
371.84	456.40
372.04	505.56
372.24	463.43
372.44	465.77
372.63	482.15
372.83	519.60
373.03	435.34
373.22	482.15
373.42	512.58
373.62	596.84
373.81	589.82
374.01	585.13
374.21	489.17
374.40	461.09
374.60	575.77
374.79	543.00
374.99	599.18
375.19	521.94
375.38	613.22
375.58	571.09
375.78	620.24
375.97	610.88
376.17	648.33
376.37	580.45
376.56	585.13
376.76	573.43
376.95	533.64
377.15	561.73
377.35	636.63
377.54	664.71
377.74	641.31
377.93	624.92
378.13	622.58
378.33	589.82
378.52	629.60
378.72	648.33
378.91	660.03
379.11	636.63
379.31	608.54
379.50	592.16
379.70	662.37
379.89	669.39
380.09	624.92
380.28	613.22
380.48	683.44
380.68	716.20
380.87	643.65
381.07	615.56
381.26	725.57
381.46	667.05
381.65	645.99
381.85	685.78
382.04	648.33
382.24	723.23
382.43	669.39
382.63	685.78
382.83	720.88
383.02	685.78
383.22	739.61
383.41	648.33
383.61	730.25
383.80	692.80
384.00	753.65
384.19	744.29
384.39	746.63
384.58	763.01
384.78	765.36
384.97	737.27
385.17	699.82
385.36	711.52
385.56	746.63
385.75	723.23
385.95	821.53
386.14	765.36
386.34	809.83
386.53	809.83
386.72	765.36
386.92	842.59
387.11	870.68
387.31	826.21
387.50	837.91
387.70	800.46
387.89	772.38
388.09	793.44
388.28	791.10
388.48	826.21
388.67	830.89
388.86	795.78
389.06	919.83
389.25	926.85
389.45	950.26
389.64	973.66
389.84	898.77
390.03	954.94
390.22	903.45
390.42	868.34
390.61	961.96
390.81	1008.77
391.00	912.81
391.19	933.87
391.39	947.92
391.58	999.41
391.78	973.66
391.97	1050.90
392.16	931.53
392.36	933.87
392.55	964.30
392.75	945.58
392.94	966.64
393.13	961.96
393.33	1020.47
393.52	978.34
393.71	1048.56
393.91	1107.07
394.10	1046.22
394.29	1097.71
394.49	1093.03
394.68	1053.24
394.88	1001.75
395.07	1125.80
395.26	1097.71
395.46	1121.12
395.65	1137.50
395.84	1081.33
396.04	1100.05
396.23	1086.01
396.42	1102.39
396.62	1174.95
396.81	1083.67
397.00	1062.60
397.19	1163.25
397.39	1259.21
397.58	1284.95
397.77	1224.10
397.97	1294.32
398.16	1301.34
398.35	1228.78
398.55	1380.92
398.74	1404.32
398.93	1416.02
399.12	1404.32
399.32	1336.45
399.51	1331.76
399.70	1387.94
399.90	1385.60
400.09	1401.98
400.28	1385.60
400.47	1462.83
400.67	1476.88
400.86	1479.22
401.05	1413.68
401.24	1493.26
401.44	1511.99
401.63	1586.88
401.82	1556.46
402.01	1455.81
402.21	1551.78
402.40	1626.67
402.59	1547.09
402.78	1549.43
402.97	1495.60
403.17	1610.29
403.36	1547.09
403.55	1577.52
403.74	1575.18
403.93	1732.00
404.13	1694.55
404.32	1739.02
404.51	1673.48
404.70	1699.23
404.89	1682.85
405.09	1799.87
405.28	1736.68
405.47	1734.34
405.66	1701.57
405.85	1722.63
406.05	1856.04
406.24	1792.85
406.43	1682.85
406.62	1923.92
406.81	1940.30
407.00	1844.34
407.20	1785.83
407.39	1905.20
407.58	1898.17
407.77	1933.28
407.96	1937.96
408.15	2005.84
408.34	1935.62
408.54	1919.24
408.73	2026.90
408.92	2010.52
409.11	2001.16
409.30	2043.29
409.49	2186.06
409.68	2003.50
409.87	1994.14
410.07	2097.12
410.26	2066.69
410.45	2169.68
410.64	2153.29
410.83	2150.95
411.02	2157.97
411.21	2284.36
411.40	2385.01
411.59	2392.03
411.78	2326.49
411.98	2310.11
412.17	2333.51
412.36	2335.85
412.55	2427.14
412.74	2469.27
412.93	2406.07
413.12	2478.63
413.31	2597.99
413.50	2478.63
413.69	2504.37
413.88	2530.12
414.07	2569.91
414.26	2612.04
414.45	2679.91
414.64	2689.28
414.83	2644.81
415.02	2672.89
415.22	2700.98
415.41	2799.28
415.60	2766.51
415.79	2876.52
415.98	2827.37
416.17	2977.16
416.36	2764.17
416.55	2949.08
416.74	2984.18
416.93	2888.22
417.12	2972.48
417.31	2942.05
417.50	2925.67
417.69	3070.78
417.88	3070.78
418.07	3091.85
418.26	3061.42
418.45	3084.83
418.64	3101.21
418.83	3080.14
419.02	3351.65
419.21	3178.45
419.39	3248.66
419.58	3190.15
419.77	3173.77
419.96	3304.84
420.15	3309.52
420.34	3286.11
420.53	3424.20
420.72	3346.97
420.91	3480.38
421.10	3431.23
421.29	3485.06
421.48	3344.63
421.67	3391.44
421.86	3417.18
422.05	3260.37
422.24	3332.92
422.43	3391.44
422.61	3424.20
422.80	3499.10
422.99	3489.74
423.18	3559.95
423.37	3590.38
423.56	3452.29
423.75	3524.85
423.94	3445.27
424.13	3255.69
424.32	3335.26
424.50	3522.51
424.69	3634.85
424.88	3658.26
425.07	3550.59
425.26	3522.51
425.45	3625.49
425.64	3609.11
425.83	3506.12
426.01	3473.36
426.20	3531.87
426.39	3662.94
426.58	3583.36
426.77	3651.24
426.96	3815.07
427.15	3569.32
427.33	3620.81
427.52	3716.77
427.71	3761.24
427.90	3676.98
428.09	3726.13
428.28	3744.86
428.46	3892.31
428.65	3845.50
428.84	3925.08
429.03	3889.97
429.22	3789.33
429.40	3803.37
429.59	3709.75
429.78	3559.95
429.97	3695.71
430.16	3885.29
430.34	3819.75
430.53	3861.88
430.72	3899.33
430.91	3929.76
431.10	3997.64
431.28	4053.81
431.47	4117.00
431.66	4154.45
431.85	4114.66
432.03	4205.94
432.22	4152.11
432.41	4219.99
432.60	4266.80
432.79	4339.35
432.97	4329.99
433.16	4173.18
433.35	4264.46
433.54	4287.86
433.72	4098.28
433.91	4402.55
434.10	4400.21
434.28	4196.58
434.47	4308.93
434.66	4404.89
434.85	4393.19
435.03	4449.36
435.22	4514.89
435.41	4662.35
435.59	4423.61
435.78	4568.73
435.97	4475.10
436.16	4638.94
436.34	4620.22
436.53	4568.73
436.72	4681.07
436.90	4676.39
437.09	4589.79
437.28	4550.00
437.46	4798.10
437.65	4648.30
437.84	4657.67
438.02	4676.39
438.21	4842.57
438.40	4638.94
438.58	4954.91
438.77	4908.10
438.96	4983.00
439.14	4985.34
439.33	5123.43
439.52	5104.71
439.70	5100.03
439.89	5046.20
440.08	5135.14
440.26	5221.74
440.45	5074.28
440.63	5282.59
440.82	5233.44
441.01	5448.77
441.19	5296.63
441.38	5324.72
441.57	5336.42
441.75	5582.18
441.94	5610.26
442.12	5727.29
442.31	5748.36
442.50	5757.72
442.68	5682.82
442.87	5767.08
443.05	5628.99
443.24	5724.95
443.43	5717.93
443.61	5902.83
443.80	5912.19
443.98	5598.56
444.17	5626.65
444.35	5900.49
444.54	5994.11
444.73	5930.92
444.91	5884.11
445.10	5750.70
445.28	5767.08
445.47	5774.10
445.65	5867.72
445.84	5776.44
446.02	5963.68
446.21	6040.92
446.39	5982.41
446.58	6104.12
446.77	6118.16
446.95	6090.07
447.14	6017.52
447.32	6277.32
447.51	6010.50
447.69	6066.67
447.88	6136.88
448.06	6085.39
448.25	5837.30
448.43	6150.93
448.62	6120.50
448.80	5998.79
448.99	6155.61
449.17	6197.74
449.36	6024.54
449.54	6340.51
449.73	6457.54
449.91	6319.45
450.10	6324.13
450.28	6382.64
450.46	6413.07
450.65	6408.39
450.83	6356.90
451.02	6452.86
451.20	6399.02
451.39	6579.25
451.57	6417.75
451.76	6380.30
451.94	6520.73
452.13	6513.71
452.31	6354.55
452.49	6546.48
452.68	6609.67
452.86	6504.35
453.05	6457.54
453.23	6640.10
453.42	6707.98
453.60	6789.89
453.78	6686.91
453.97	6539.46
454.15	6707.98
454.34	6726.70
454.52	6757.13
454.70	6750.10
454.89	6810.96
455.07	6700.95
455.26	6939.69
455.44	7061.40
455.62	6970.12
455.81	7119.91
455.99	7169.06
456.17	6918.62
456.36	7131.61
456.54	7155.02
456.73	7112.89
456.91	7236.94
457.09	7162.04
457.28	7508.44
457.46	7176.08
457.64	7129.27
457.83	7250.98
458.01	7260.34
458.19	7410.14
458.38	7440.56
458.56	7433.54
458.74	7375.03
458.93	7485.03
459.11	7433.54
459.29	7513.12
459.48	7538.87
459.66	7662.91
459.84	7597.38
460.03	7597.38
460.21	7688.66
460.39	7634.83
460.57	7599.72
460.76	7709.72
460.94	7791.64
461.12	7695.68
461.31	7777.60
461.49	7583.34
461.67	7768.24
461.85	7922.71
462.04	7875.90
462.22	8219.96
462.40	8084.21
462.59	8100.59
462.77	7779.94
462.95	8013.99
463.13	8084.21
463.32	8196.56
463.50	8238.69
463.68	8248.05
463.86	8585.08
464.05	8135.70
464.23	8002.29
464.41	8294.86
464.59	8116.98
464.78	8315.92
464.96	8138.04
465.14	8229.32
465.32	8390.82
465.50	8248.05
465.69	8477.42
465.87	8194.22
466.05	8613.17
466.23	8285.50
466.41	8613.17
466.60	8540.61
466.78	8252.73
466.96	8493.80
467.14	8367.42
467.32	8613.17
467.51	8517.21
467.69	8301.88
467.87	8510.19
468.05	8554.66
468.23	8683.39
468.41	8636.58
468.60	8706.79
468.78	8840.20
468.96	8636.58
469.14	8891.70
469.32	9029.79
469.50	8564.02
469.69	8795.73
469.87	9034.47
470.05	9163.20
470.23	8894.04
470.41	8964.25
470.59	9020.42
470.77	9177.24
470.95	9076.60
471.14	9394.91
471.32	9041.49
471.50	9177.24
471.68	9202.99
471.86	9336.40
472.04	9350.44
472.22	9556.41
472.40	9275.54
472.58	9320.01
472.77	9507.26
472.95	9511.94
473.13	9898.13
473.31	9481.51
473.49	9680.46
473.67	9699.18
473.85	9863.02
474.03	9781.10
474.21	9898.13
474.39	9860.68
474.57	9912.17
474.75	10012.81
474.93	10139.20
475.12	10174.31
475.30	10214.10
475.48	10115.80
475.66	10389.64
475.84	10305.38
476.02	10541.77
476.20	10452.83
476.38	10595.61
476.56	10743.06
476.74	10619.01
476.92	10855.40
477.10	10609.65
477.28	11007.54
477.46	10801.57
477.64	11117.54
477.82	11375.00
478.00	11459.26
478.18	11307.13
478.36	11475.65
478.54	11435.86
478.72	11428.84
478.90	11595.01
479.08	12006.95
479.26	12053.76
479.44	12039.72
479.62	12180.15
479.80	12315.90
479.98	12222.28
480.16	12297.17
480.34	12482.08
480.52	12652.94
480.70	12568.68
480.88	12549.95
481.06	12542.93
481.24	12641.23
481.41	12779.32
481.59	13076.57
481.77	13336.37
481.95	13224.03
482.13	13151.47
482.31	13254.45
482.49	13317.65
482.67	13593.83
482.85	13830.23
483.03	13750.65
483.21	14127.47
483.39	14260.88
483.57	13841.93
483.74	14113.43
483.92	14230.46
484.10	14162.58
484.28	14572.18
484.46	14689.20
484.64	14986.45
484.82	14476.21
485.00	14949.00
485.18	15117.52
485.35	15241.57
485.53	15161.99
485.71	15070.71
485.89	15410.09
486.07	15337.53
486.25	15536.48
486.43	15386.68
486.61	15545.84
486.78	15782.23
486.96	15992.88
487.14	16262.04
487.32	16233.96
487.50	16540.57
487.68	16524.18
487.85	16809.73
488.03	16980.59
488.21	17041.44
488.39	17135.06
488.57	17308.26
488.75	17385.50
488.92	17752.96
489.10	17755.30
489.28	17867.65
489.46	17982.34
489.64	17827.86
489.81	18370.86
489.99	18401.29
490.17	18539.38
490.35	18712.58
490.53	18600.24
490.70	19047.28
490.88	18759.39
491.06	19019.19
491.24	19227.50
491.41	19061.32
491.59	19363.25
491.77	18995.79
491.95	19559.86
492.13	19934.34
492.30	19840.72
492.48	19667.52
492.66	20411.81
492.84	20142.65
493.01	20135.63
493.19	20224.57
493.37	20383.73
493.54	20671.61
493.72	20938.43
493.90	20737.15
494.08	20713.74
494.25	21048.44
494.43	20982.90
494.61	21371.43
494.79	21579.74
494.96	21652.30
495.14	21270.79
495.32	21874.65
495.49	21727.19
495.67	22033.80
495.85	22270.20
496.02	22153.17
496.20	22647.02
496.38	22764.05
496.55	22647.02
496.73	22986.40
496.91	22588.51
497.09	22981.72
497.26	23152.58
497.44	23115.13
497.62	23452.17
497.79	23562.17
497.97	23445.15
498.14	23403.02
498.32	23634.73
498.50	23803.25
498.67	23946.02
498.85	23751.76
499.03	24095.82
499.20	24112.20
499.38	24039.64
499.56	24297.10
499.73	24311.14
499.91	24709.04
500.08	24774.57
500.26	24608.39
500.44	24430.51
500.61	24781.59
500.79	24676.27
500.97	25170.12
501.14	25142.03
501.32	25233.32
501.49	25249.70
501.67	25390.13
501.84	25453.33
502.02	25195.87
502.20	25628.87
502.37	25727.17
502.55	25605.46
502.72	26066.55
502.90	25888.67
503.07	25823.13
503.25	25886.32
503.43	26094.63
503.60	26075.91
503.78	26162.51
503.95	26539.33
504.13	26424.65
504.30	26579.12
504.48	26639.98
504.65	26878.71
504.83	27061.27
505.01	27136.17
505.18	26955.95
505.36	27253.20
505.53	26930.20
505.71	27339.80
505.88	27388.95
506.06	27534.06
506.23	27564.49
506.41	27161.92
506.58	27405.33
506.76	27716.62
506.93	28233.88
507.11	27946.00
507.28	28128.56
507.46	27651.09
507.63	28332.18
507.81	28315.80
507.98	28294.74
508.16	28135.58
508.33	28306.44
508.50	28517.09
508.68	28821.36
508.85	28978.17
509.03	28746.46
509.20	28868.17
509.38	29160.73
509.55	29193.50
509.73	29406.49
509.90	29420.53
510.08	29177.12
510.25	29357.34
510.42	29006.26
510.60	29497.77
510.77	29832.47
510.95	29670.97
511.12	29413.51
511.30	29752.89
511.47	29921.41
511.64	30118.01
511.82	30223.34
511.99	30143.76
512.17	30024.39
512.34	30323.98
512.51	30466.75
512.69	30637.61
512.86	30525.27
513.04	30754.64
513.21	30422.28
513.38	30677.40
513.56	30698.47
513.73	30759.32
513.90	31292.96
514.08	30874.01
514.25	30871.67
514.43	30946.56
514.60	31023.80
514.77	30904.43
514.95	31218.07
515.12	31168.91
515.29	31398.29
515.47	31789.16
515.64	31800.86
515.81	31484.89
515.99	31796.18
516.16	31424.03
516.33	31887.46
516.51	31768.09
516.68	31896.82
516.85	31538.72
517.03	31850.01
517.20	32058.32
517.37	32091.09
517.54	32058.32
517.72	32142.58
517.89	32098.11
518.06	32325.14
518.24	32107.47
518.41	32259.60
518.58	32385.99
518.75	32332.16
518.93	32982.83
519.10	32968.79
519.27	33221.56
519.45	32781.54
519.62	33055.39
519.79	33193.48
519.96	33132.62
520.14	33523.49
520.31	33198.16
520.48	33205.18
520.65	33053.05
520.83	33537.54
521.00	33654.56
521.17	33638.18
521.34	34007.98
521.52	33958.83
521.69	33869.89
521.86	34022.03
522.03	34113.31
522.20	33989.26
522.38	34452.69
522.55	34148.42
522.72	33727.12
522.89	34213.95
523.07	34473.75
523.24	34274.80
523.41	34223.31
523.58	34646.95
523.75	34869.30
523.92	34653.97
524.10	34909.09
524.27	35318.68
524.44	34806.11
524.61	35159.53
524.78	34859.94
524.96	35608.91
525.13	35494.22
525.30	35353.79
525.47	35459.12
525.64	35370.18
525.81	35449.75
525.98	35309.32
526.16	35192.30
526.33	35201.66
526.50	35859.35
526.67	35049.52
526.84	35840.62
527.01	35672.10
527.18	35704.87
527.36	36165.96
527.53	36023.19
527.70	36680.88
527.87	36304.05
528.04	35704.87
528.21	36449.16
528.38	36477.25
528.55	36533.42
528.72	36407.03
528.89	36842.37
529.07	36325.11
529.24	36268.94
529.41	36865.78
529.58	36648.11
529.75	36481.93
529.92	36706.62
530.09	36739.39
530.26	37010.89
530.43	37181.75
530.60	36666.83
530.77	37095.15
530.94	37357.29
531.11	37125.58
531.28	37385.38
531.46	37666.24
531.63	37354.95
531.80	36996.85
531.97	37390.06
532.14	36802.58
532.31	37474.32
532.48	37521.13
532.65	37521.13
532.82	37834.76
532.99	37876.89
533.16	37556.24
533.33	37750.50
533.50	38316.91
533.67	37757.52
533.84	37610.07
534.01	37965.83
534.18	37858.17
534.35	38471.39
534.52	38251.38
534.69	37876.89
534.86	38464.36
535.03	38022.00
535.20	38361.38
535.37	38548.62
535.54	38876.30
535.71	38550.96
535.88	38513.52
536.05	38288.82
536.22	38635.22
536.38	39000.35
536.55	38431.60
536.72	38440.96
536.89	38424.57
537.06	38583.73
537.23	38843.53
537.40	39058.86
537.57	38759.27
537.74	38665.65
537.91	39653.36
538.08	39384.19
538.25	38890.34
538.42	39115.03
538.59	39117.37
538.75	38930.13
538.92	39016.73
539.09	39358.45
539.26	39185.25
539.43	39201.63
539.60	39438.03
539.77	38937.15
539.94	39459.09
540.11	39599.52
540.28	38993.32
540.44	39658.04
540.61	39374.83
540.78	39484.84
540.95	39264.83
541.12	39440.37
541.29	39503.56
541.46	39271.85
541.62	39974.01
541.79	40451.48
541.96	39470.79
542.13	40350.84
542.30	40119.12
542.47	39660.38
542.63	39931.88
542.80	40425.73
542.97	40381.26
543.14	40687.87
543.31	40402.33
543.48	40999.16
543.64	40737.02
543.81	40584.89
543.98	40416.37
544.15	40751.07
544.32	40816.60
544.48	41223.86
544.65	41081.08
544.82	40734.68
544.99	40620.00
545.16	40854.05
545.32	41034.27
545.49	41298.75
545.66	41385.35
545.83	41127.89
546.00	41493.02
546.16	40680.85
546.33	41373.65
546.50	40863.41
546.67	41277.69
546.83	40755.75
547.00	41404.08
547.17	41085.76
547.34	41373.65
547.50	41619.41
547.67	41401.74
547.84	41567.91
548.00	41518.76
548.17	41432.16
548.34	41670.90
548.51	41869.84
548.67	42057.09
548.84	41607.70
549.01	41984.53
549.18	41294.07
549.34	41748.14
549.51	41778.56
549.68	42291.14
549.84	42312.20
550.01	42178.79
550.18	41867.50
550.34	42244.33
550.51	42354.33
550.68	41418.12
550.84	41734.09
551.01	42253.69
551.18	41844.10
551.34	42597.75
551.51	42263.05
551.68	42408.17
551.84	42333.27
552.01	42197.52
552.18	42223.26
552.34	41933.04
552.51	42852.87
552.68	42665.63
552.84	42581.37
553.01	43072.88
553.18	42316.89
553.34	42541.58
553.51	41888.57
553.67	42043.04
553.84	42691.37
554.01	42932.45
554.17	43098.62
554.34	43112.67
554.51	43278.85
554.67	42890.32
554.84	42803.72
555.00	42983.94
555.17	42808.40
555.33	42855.21
555.50	42845.85
555.67	43187.56
555.83	42890.32
556.00	42916.06
556.16	43622.90
556.33	43302.25
556.50	42899.68
556.66	43388.85
556.83	43225.01
556.99	43122.03
557.16	43154.80
557.32	43297.57
557.49	43166.50
557.65	42806.06
557.82	43000.32
557.98	42857.55
558.15	43213.31
558.32	43297.57
558.48	43489.49
558.65	43676.74
558.81	43559.71
558.98	42993.30
559.14	43604.18
559.31	43487.15
559.47	43524.60
559.64	43665.03
559.80	43976.33
559.97	43840.57
560.13	43538.65
560.30	43714.19
560.46	43587.80
560.63	43414.60
560.79	43915.47
560.96	43981.01
561.12	43430.98
561.29	43660.35
561.45	43878.02
561.61	43604.18
561.78	43772.70
561.94	43330.34
562.11	43746.95
562.27	43627.59
562.44	43594.82
562.60	43470.77
562.77	44278.25
562.93	43824.19
563.10	44275.91
563.26	43531.62
563.42	43988.03
563.59	43613.54
563.75	43892.07
563.92	43805.47
564.08	44292.30
564.24	44037.18
564.41	43917.81
564.57	43938.88
564.74	44198.68
564.90	44086.33
565.07	43985.69
565.23	43803.13
565.39	44053.56
565.56	44259.53
565.72	43971.64
565.88	44091.01
566.05	43878.02
566.21	44282.94
566.38	43950.58
566.54	44013.77
566.70	44172.93
566.87	44381.24
567.03	44486.56
567.19	44964.03
567.36	44346.13
567.52	44030.16
567.68	44009.09
567.85	43934.20
568.01	44177.61
568.17	44123.78
568.34	44772.11
568.50	44252.51
568.66	44168.25
568.83	44498.26
568.99	44191.65
569.15	44100.37
569.32	44580.18
569.48	44198.68
569.64	44669.12
569.81	44156.55
569.97	44421.03
570.13	43842.92
570.30	44083.99
570.46	44191.65
570.62	43833.55
570.78	43817.17
570.95	44598.91
571.11	44584.86
571.27	44495.92
571.43	44055.90
571.60	44680.83
571.76	44362.51
571.92	44605.93
572.09	44406.98
572.25	44659.76
572.41	44133.14
572.57	44437.41
572.74	45006.16
572.90	44409.32
573.06	44839.98
573.22	44446.77
573.38	44594.23
573.55	44142.50
573.71	44509.97
573.87	44748.70
574.03	44449.11
574.20	44399.96
574.36	44634.02
574.52	44825.94
574.68	44825.94
574.84	44868.07
575.01	44622.31
575.17	45207.45
575.33	43985.69
575.49	44549.76
575.65	44828.28
575.82	44596.57
575.98	44748.70
576.14	44856.37
576.30	44594.23
576.46	44236.12
576.62	44257.19
576.79	44418.69
576.95	44446.77
577.11	44460.82
577.27	44636.36
577.43	44673.81
577.59	44718.28
577.75	44577.84
577.92	44219.74
578.08	44500.61
578.24	44500.61
578.40	44275.91
578.56	44830.62
578.72	44587.21
578.88	45352.56
579.04	44638.70
579.21	44371.88
579.37	44711.25
579.53	44774.45
579.69	44385.92
579.85	44498.26
580.01	44832.96
580.17	44458.48
580.33	44971.05
580.49	45242.56
580.65	44676.15
580.82	44636.36
580.98	44839.98
581.14	43943.56
581.30	44814.24
581.46	44678.49
581.62	44437.41
581.78	44573.16
581.94	44872.75
582.10	44821.26
582.26	45146.59
582.42	44643.38
582.58	44882.11
582.74	44479.54
582.90	45132.55
583.06	44814.24
583.22	45301.07
583.38	45181.70
583.54	44781.47
583.70	44947.65
583.86	44849.35
584.02	44002.07
584.18	45036.59
584.34	44865.73
584.50	44811.90
584.66	44928.92
584.82	44533.37
584.98	44921.90
585.14	44905.52
585.30	44381.24
585.46	44676.15
585.62	44722.96
585.78	44821.26
585.94	44509.97
586.10	44715.93
586.26	44453.79
586.42	44732.32
586.58	44856.37
586.74	45261.28
586.90	44563.80
587.06	44734.66
587.22	45109.14
587.38	44374.22
587.54	45296.39
587.70	44912.54
587.86	45097.44
588.02	44769.77
588.18	45214.47
588.34	44603.59
588.49	45017.86
588.65	44486.56
588.81	44006.75
588.97	44500.61
589.13	44856.37
589.29	44811.90
589.45	44835.30
589.61	45099.78
589.77	45139.57
589.93	45097.44
590.08	44851.69
590.24	44884.45
