SpectraSuite Data File
++++++++++++++++++++++++++++++++++++
Date: Fri Oct 25 11:22:52 EDT 2013
User: price-jones
Dark Spectrum Present: No
Reference Spectrum Present: No
Number of Sampled Component Spectra: 1
Spectrometers: USB2+H05261
Integration Time (usec): 100000 (USB2+H05261)
Spectra Averaged: 1 (USB2+H05261)
Boxcar Smoothing: 0 (USB2+H05261)
Correct for Electrical Dark: No (USB2+H05261)
Strobe/Lamp Enabled: No (USB2+H05261)
Correct for Detector Non-linearity: No (USB2+H05261)
Correct for Stray Light: No (USB2+H05261)
Number of Pixels in Processed Spectrum: 2048
>>>>>Begin Processed Spectral Data<<<<<
365.73	318.31
365.92	318.31
366.12	318.31
366.32	91.28
366.52	91.28
366.72	124.05
366.91	170.86
367.11	145.11
367.31	112.35
367.51	60.85
367.70	100.64
367.90	156.82
368.10	63.19
368.30	65.54
368.49	140.43
368.69	126.39
368.89	117.03
369.09	152.13
369.28	180.22
369.48	145.11
369.68	189.58
369.87	191.92
370.07	187.24
370.27	173.20
370.47	299.59
370.66	622.58
370.86	709.18
371.06	739.61
371.25	685.78
371.45	624.92
371.65	594.50
371.84	655.35
372.04	629.60
372.24	713.86
372.44	765.36
372.63	765.36
372.83	688.12
373.03	723.23
373.22	737.27
373.42	755.99
373.62	849.61
373.81	758.33
374.01	835.57
374.21	795.78
374.40	786.42
374.60	917.49
374.79	866.00
374.99	823.87
375.19	788.76
375.38	863.66
375.58	856.64
375.78	823.87
375.97	887.06
376.17	919.83
376.37	891.74
376.56	905.79
376.76	950.26
376.95	826.21
377.15	891.74
377.35	856.64
377.54	924.51
377.74	917.49
377.93	889.40
378.13	950.26
378.33	880.04
378.52	940.90
378.72	1011.11
378.91	964.30
379.11	858.98
379.31	917.49
379.50	922.17
379.70	957.28
379.89	985.37
380.09	980.68
380.28	983.02
380.48	966.64
380.68	990.05
380.87	1022.81
381.07	1036.86
381.26	1055.58
381.46	990.05
381.65	1027.50
381.85	1062.60
382.04	1090.69
382.24	1025.15
382.43	990.05
382.63	1121.12
382.83	1036.86
383.02	1107.07
383.22	1078.99
383.41	1130.48
383.61	1160.91
383.80	1245.16
384.00	1071.97
384.19	1135.16
384.39	1074.31
384.58	1158.57
384.78	1102.39
384.97	1046.22
385.17	1172.61
385.36	1090.69
385.56	1184.31
385.75	1130.48
385.95	1188.99
386.14	1296.66
386.34	1167.93
386.53	1200.69
386.72	1210.06
386.92	1205.38
387.11	1172.61
387.31	1261.55
387.50	1320.06
387.70	1270.91
387.89	1254.53
388.09	1268.57
388.28	1242.82
388.48	1214.74
388.67	1308.36
388.86	1263.89
389.06	1359.85
389.25	1320.06
389.45	1310.70
389.64	1275.59
389.84	1378.58
390.03	1329.42
390.22	1399.64
390.42	1348.15
390.61	1390.28
390.81	1380.92
391.00	1291.98
391.19	1413.68
391.39	1430.07
391.58	1521.35
391.78	1413.68
391.97	1416.02
392.16	1469.86
392.36	1504.96
392.55	1446.45
392.75	1603.27
392.94	1549.43
393.13	1549.43
393.33	1561.14
393.52	1521.35
393.71	1535.39
393.91	1526.03
394.10	1589.22
394.29	1577.52
394.49	1554.12
394.68	1748.38
394.88	1589.22
395.07	1666.46
395.26	1645.40
395.46	1629.01
395.65	1727.32
395.84	1687.53
396.04	1778.81
396.23	1706.25
396.42	1750.72
396.62	1750.72
396.81	1856.04
397.00	1799.87
397.19	1776.47
397.39	1853.70
397.58	1792.85
397.77	1792.85
397.97	1851.36
398.16	1844.34
398.35	1926.26
398.55	1856.04
398.74	1888.81
398.93	1891.15
399.12	1921.58
399.32	1933.28
399.51	2003.50
399.70	2054.99
399.90	1994.14
400.09	1989.46
400.28	1949.67
400.47	2078.40
400.67	2169.68
400.86	2008.18
401.05	2057.33
401.24	2197.76
401.44	2059.67
401.63	2160.31
401.82	2235.21
402.01	2106.48
402.21	2148.61
402.40	2172.02
402.59	2186.06
402.78	2174.36
402.97	2331.17
403.17	2246.91
403.36	2230.53
403.55	2284.36
403.74	2413.09
403.93	2270.32
404.13	2406.07
404.32	2469.27
404.51	2420.11
404.70	2345.22
404.89	2338.20
405.09	2445.86
405.28	2385.01
405.47	2483.31
405.66	2483.31
405.85	2490.33
406.05	2408.41
406.24	2562.89
406.43	2663.53
406.62	2684.59
406.81	2626.08
407.00	2630.76
407.20	2562.89
407.39	2586.29
407.58	2768.85
407.77	2703.32
407.96	2761.83
408.15	2782.90
408.34	2682.25
408.54	2846.09
408.73	2672.89
408.92	2881.20
409.11	2869.50
409.30	2841.41
409.49	2984.18
409.68	2878.86
409.87	2928.01
410.07	2928.01
410.26	3040.36
410.45	2920.99
410.64	3103.55
410.83	3087.17
411.02	3119.93
411.21	3239.30
411.40	3133.98
411.59	3241.64
411.78	3129.30
411.98	3112.91
412.17	3148.02
412.36	3384.41
412.55	3419.52
412.74	3475.70
412.93	3496.76
413.12	3426.54
413.31	3592.72
413.50	3665.28
413.69	3550.59
413.88	3576.34
414.07	3618.47
414.26	3669.96
414.45	3728.47
414.64	3817.41
414.83	3843.16
415.02	3798.69
415.22	3712.09
415.41	3843.16
415.60	3978.91
415.79	3894.65
415.98	3936.78
416.17	3962.53
416.36	3854.86
416.55	3995.29
416.74	4135.73
416.93	4051.47
417.12	4131.05
417.31	4259.78
417.50	4243.39
417.69	4325.31
417.88	4229.35
418.07	4201.26
418.26	4449.36
418.45	4329.99
418.64	4486.81
418.83	4456.38
419.02	4486.81
419.21	4526.60
419.39	4517.23
419.58	4444.68
419.77	4587.45
419.96	4671.71
420.15	4629.58
420.34	4582.77
420.53	4652.98
420.72	4732.56
420.91	4641.28
421.10	4744.27
421.29	4772.35
421.48	4774.69
421.67	4793.42
421.86	4835.55
422.05	4770.01
422.24	4741.93
422.43	4936.19
422.61	4896.40
422.80	4940.87
422.99	4975.98
423.18	5205.35
423.37	5097.69
423.56	4826.18
423.75	5083.64
423.94	4943.21
424.13	4657.67
424.32	4784.06
424.50	5011.09
424.69	5137.48
424.88	5102.37
425.07	4987.68
425.26	4966.62
425.45	4854.27
425.64	4943.21
425.83	4873.00
426.01	5177.26
426.20	5107.05
426.39	5062.58
426.58	5125.77
426.77	5060.24
426.96	5090.67
427.15	5135.14
427.33	5210.03
427.52	5156.20
427.71	5334.08
427.90	5315.36
428.09	5233.44
428.28	5493.24
428.46	5252.16
428.65	5390.25
428.84	5472.17
429.03	5537.71
429.22	5406.64
429.40	5584.52
429.59	5488.56
429.78	5434.72
429.97	5275.57
430.16	5568.13
430.34	5696.86
430.53	5628.99
430.72	5715.59
430.91	5788.14
431.10	5724.95
431.28	5668.78
431.47	5731.97
431.66	5956.66
431.85	5746.02
432.03	6132.20
432.22	5940.28
432.41	5860.70
432.60	5980.07
432.79	5951.98
432.97	6076.03
433.16	5935.60
433.35	6052.63
433.54	6125.18
433.72	6228.17
433.91	6171.99
434.10	6195.40
434.28	6183.70
434.47	6115.82
434.66	6197.74
434.85	6356.90
435.03	6401.37
435.22	6354.55
435.41	6487.96
435.59	6324.13
435.78	6518.39
435.97	6513.71
436.16	6520.73
436.34	6523.07
436.53	6441.15
436.72	6698.61
436.90	6466.90
437.09	6836.70
437.28	6623.72
437.46	6502.01
437.65	6579.25
437.84	6782.87
438.02	6808.62
438.21	6930.33
438.40	6703.29
438.58	7028.63
438.77	6918.62
438.96	7098.84
439.14	7124.59
439.33	7192.47
439.52	7171.40
439.70	7208.85
439.89	7178.42
440.08	7449.93
440.26	7379.71
440.45	7368.01
440.63	7447.58
440.82	7754.19
441.01	7569.29
441.19	7571.63
441.38	7772.92
441.57	7805.69
441.75	7875.90
441.94	7995.27
442.12	7983.57
442.31	8135.70
442.50	8098.25
442.68	8032.72
442.87	8219.96
443.05	8229.32
443.24	8147.40
443.43	8133.36
443.61	8430.61
443.80	8287.84
443.98	7992.93
444.17	8025.70
444.35	8196.56
444.54	8491.46
444.73	8484.44
444.91	8341.67
445.10	8252.73
445.28	8542.96
445.47	8336.99
445.65	8599.13
445.84	8507.85
446.02	8538.27
446.21	8505.51
446.39	8463.38
446.58	8573.38
446.77	8545.30
446.95	8451.67
447.14	8421.25
447.32	8748.92
447.51	8425.93
447.69	8540.61
447.88	8601.47
448.06	8676.37
448.25	8554.66
448.43	8561.68
448.62	8524.23
448.80	8596.79
448.99	8730.20
449.17	8741.90
449.36	8765.31
449.54	8936.17
449.73	9011.06
449.91	8992.34
450.10	8959.57
450.28	9121.07
450.46	9100.00
450.65	9132.77
450.83	8978.30
451.02	9090.64
451.20	9343.42
451.39	9170.22
451.57	9165.54
451.76	9186.60
451.94	9289.59
452.13	9296.61
452.31	9415.98
452.49	9076.60
452.68	9610.24
452.86	9383.21
453.05	9584.49
453.23	9451.08
453.42	9481.51
453.60	9266.18
453.78	9834.93
453.97	9413.63
454.15	9635.99
454.34	9551.73
454.52	9696.84
454.70	9753.01
454.89	9937.91
455.07	9848.97
455.26	9650.03
455.44	9970.68
455.62	9989.41
455.81	9956.64
455.99	9951.96
456.17	10300.70
456.36	10106.43
456.54	10312.40
456.73	10389.64
456.91	10761.78
457.09	10501.98
457.28	10682.20
457.46	10429.43
457.64	10567.52
457.83	10469.22
458.01	10438.79
458.19	10696.25
458.38	10544.11
458.56	10855.40
458.74	10841.36
458.93	10792.21
459.11	10696.25
459.29	10705.61
459.48	10815.62
459.66	10895.19
459.84	11087.12
460.03	11115.20
460.21	11398.41
460.39	10904.56
460.57	11087.12
460.76	11087.12
460.94	11300.11
461.12	11375.00
461.31	11243.93
461.49	11164.36
461.67	11323.51
461.85	11482.67
462.04	11431.18
462.22	11812.68
462.40	11800.98
462.59	11232.23
462.77	11494.37
462.95	11744.81
463.13	11330.53
463.32	11616.08
463.50	11824.39
463.68	11939.07
463.86	12049.08
464.05	11627.78
464.23	11957.80
464.41	11868.86
464.59	11735.45
464.78	12238.66
464.96	12285.47
465.14	11775.24
465.32	11742.47
465.50	12067.80
465.69	12091.21
465.87	12283.13
466.05	12325.26
466.23	12339.30
466.41	12341.64
466.60	12463.35
466.78	12280.79
466.96	12217.60
467.14	12444.63
467.32	12294.83
467.51	12477.40
467.69	12271.43
467.87	12599.10
468.05	12807.41
468.23	12521.87
468.41	12484.42
468.60	12678.68
468.78	12996.99
468.96	12767.62
469.14	12924.44
469.32	13121.04
469.50	12961.89
469.69	12875.29
469.87	13167.85
470.05	13202.96
470.23	13160.83
470.41	13366.80
470.59	13411.27
470.77	13474.46
470.95	13401.91
471.14	13710.86
471.32	13298.92
471.50	13483.83
471.68	13884.06
471.86	13916.83
472.04	13851.29
472.22	14064.28
472.40	13497.87
472.58	13820.86
472.77	13930.87
472.95	14260.88
473.13	14712.61
473.31	14022.15
473.49	14155.56
473.67	14403.66
473.85	14604.94
474.03	14621.33
474.21	14555.79
474.39	14700.90
474.57	14785.16
474.75	14787.50
474.93	15346.89
475.12	15091.77
475.30	15494.35
475.48	15098.80
475.66	15302.42
475.84	15449.88
476.02	15531.80
476.20	15665.21
476.38	15779.89
476.56	15950.75
476.74	15999.90
476.92	16095.86
477.10	15850.11
477.28	16655.25
477.46	16004.58
477.64	16521.84
477.82	16666.95
478.00	16922.07
478.18	16854.20
478.36	16980.59
478.54	17331.67
478.72	17238.05
478.90	17568.06
479.08	17556.36
479.26	17654.66
479.44	17792.75
479.62	18050.21
479.80	18312.35
479.98	18551.09
480.16	18604.92
480.34	18520.66
480.52	18803.86
480.70	18918.55
480.88	18621.30
481.06	18677.48
481.24	18993.45
481.41	18991.11
481.59	19445.17
481.77	19658.16
481.95	19946.05
482.13	19932.00
482.31	19789.23
482.49	20491.39
482.67	20472.67
482.85	20596.71
483.03	20926.73
483.21	20837.79
483.39	21163.12
483.57	21233.34
483.74	21427.60
483.92	21420.58
484.10	21481.44
484.28	21689.74
484.46	21755.28
484.64	22389.56
484.82	22424.67
485.00	22214.02
485.18	22841.29
485.35	23220.45
485.53	23236.84
485.71	23316.42
485.89	23491.96
486.07	23522.38
486.25	23550.47
486.43	23730.69
486.61	24313.48
486.78	24259.65
486.96	24224.54
487.14	24994.58
487.32	24673.93
487.50	25172.46
487.68	24915.00
487.85	25509.50
488.03	25624.18
488.21	25893.35
488.39	26101.65
488.57	26251.45
488.75	26520.61
488.92	26471.46
489.10	26813.18
489.28	26679.77
489.46	27377.25
489.64	27365.54
489.81	27901.53
489.99	27779.82
490.17	28086.43
490.35	28348.57
490.53	28622.41
490.70	28842.42
490.88	28804.97
491.06	28755.82
491.24	29174.78
491.41	29244.99
491.59	29521.18
491.77	29455.64
491.95	29666.29
492.13	29469.69
492.30	30501.86
492.48	29998.65
492.66	30508.88
492.84	30307.60
493.01	31108.06
493.19	30639.95
493.37	31248.49
493.54	31431.05
493.72	31615.96
493.90	31508.29
494.08	32535.79
494.25	32191.73
494.43	32364.93
494.61	32514.72
494.79	33015.60
494.96	32818.99
495.14	33233.27
495.32	33600.73
495.49	33621.80
495.67	33528.17
495.85	33170.07
496.02	33757.55
496.20	34106.29
496.38	34576.73
496.55	34773.34
496.73	35168.89
496.91	34892.71
497.09	35152.51
497.26	35220.38
497.44	35206.34
497.62	35543.38
497.79	36121.49
497.97	35831.26
498.14	36121.49
498.32	36224.47
498.50	36479.59
498.67	36704.28
498.85	36491.29
499.03	37415.80
499.20	36999.19
499.38	37460.27
499.56	37106.85
499.73	37479.00
499.91	37687.31
500.08	38078.18
500.26	37860.51
500.44	38155.41
500.61	38064.13
500.79	38436.28
500.97	38520.54
501.14	38754.59
501.32	38967.58
501.49	39133.76
501.67	39236.74
501.84	39482.50
502.02	39229.72
502.20	39419.30
502.37	39531.65
502.55	39487.18
502.72	39700.17
502.90	40201.04
503.07	39849.96
503.25	40299.34
503.43	40339.13
503.60	40711.28
503.78	40343.81
503.95	40655.11
504.13	40877.46
504.30	41240.24
504.48	40783.83
504.65	41022.57
504.83	41588.98
505.01	41603.02
505.18	41532.81
505.36	42169.43
505.53	41464.93
505.71	42059.43
505.88	42314.55
506.06	41811.33
506.23	42412.85
506.41	41958.78
506.58	42246.67
506.76	42845.85
506.93	42274.76
507.11	42817.76
507.28	42815.42
507.46	42995.64
507.63	43370.13
507.81	43707.16
507.98	43203.95
508.16	43693.12
508.33	43966.96
508.50	43440.34
508.68	44107.40
508.85	44479.54
509.03	44079.31
509.20	44505.29
509.38	44535.71
509.55	44856.37
509.73	44711.25
509.90	44928.92
510.08	44858.71
510.25	45083.40
510.42	45324.47
510.60	44912.54
510.77	45268.30
510.95	45738.75
511.12	45394.69
511.30	45783.22
511.47	45869.82
511.64	45595.98
511.82	46377.72
511.99	45989.19
512.17	46131.96
512.34	46103.87
512.51	46412.82
512.69	46302.82
512.86	46602.41
513.04	46824.76
513.21	46674.96
513.38	46841.14
513.56	47187.54
513.73	46967.53
513.90	47241.37
514.08	47388.83
514.25	47845.23
514.43	47894.38
514.60	47889.70
514.77	47428.62
514.95	47569.05
515.12	47941.19
515.29	47833.53
515.47	48409.30
515.64	48900.81
515.81	48369.51
515.99	48776.76
516.16	48802.51
516.33	48886.77
516.51	49123.16
516.68	48863.36
516.85	48643.35
517.03	49214.44
517.20	49116.14
517.37	49003.80
517.54	49090.40
517.72	49443.82
517.89	49102.10
518.06	49066.99
518.24	49731.70
518.41	49549.14
518.58	49429.77
518.75	49312.75
518.93	50089.80
519.10	49635.74
519.27	50223.22
519.45	50019.59
519.62	50181.09
519.79	50307.47
519.96	50183.43
520.14	50323.86
520.31	50333.22
520.48	50742.81
520.65	50742.81
520.83	50913.67
521.00	51208.58
521.17	50923.04
521.34	50946.44
521.52	51367.74
521.69	51129.00
521.86	51210.92
522.03	51444.98
522.20	51709.46
522.38	52067.56
522.55	51744.56
522.72	51749.24
522.89	51318.59
523.07	51831.16
523.24	51536.26
523.41	52002.02
523.58	51934.15
523.75	52313.31
523.92	51807.76
524.10	52121.39
524.27	52207.99
524.44	52397.57
524.61	52229.05
524.78	52280.55
524.96	52362.46
525.13	52680.78
525.30	52734.61
525.47	52886.74
525.64	52699.50
525.81	52807.17
525.98	53116.12
526.16	52896.11
526.33	52924.19
526.50	53404.00
526.67	53174.63
526.84	53240.17
527.01	52865.68
527.18	53081.01
527.36	53066.97
527.53	53158.25
527.70	53462.52
527.87	53776.15
528.04	53439.11
528.21	53794.87
528.38	53523.37
528.55	53757.42
528.72	53469.54
528.89	53888.49
529.07	53563.16
529.24	53499.97
529.41	53729.34
529.58	53961.05
529.75	53794.87
529.92	53914.24
530.09	54096.80
530.26	54251.28
530.43	54480.65
530.60	54195.10
530.77	54094.46
530.94	54548.53
531.11	54054.67
531.28	54471.29
531.46	54475.97
531.63	54480.65
531.80	54433.84
531.97	54539.16
532.14	54560.23
532.31	54773.22
532.48	55065.78
532.65	54712.36
532.82	54597.68
532.99	54925.35
533.16	54885.56
533.33	55030.68
533.50	55178.13
533.67	55023.65
533.84	54965.14
534.01	55274.09
534.18	55210.90
534.35	55405.16
534.52	55313.88
534.69	55569.00
534.86	55292.82
535.03	55515.17
535.20	55473.04
535.37	55641.56
535.54	55751.56
535.71	55430.91
535.88	55725.81
536.05	55636.87
536.22	55742.20
536.38	55908.38
536.55	55739.86
536.72	55660.28
536.89	55910.72
537.06	55828.80
537.23	55877.95
537.40	55814.76
537.57	55931.78
537.74	56058.17
537.91	56119.02
538.08	56142.43
538.25	56095.62
538.42	56149.45
538.59	56484.15
538.75	55978.59
538.92	56156.47
539.09	56636.28
539.26	56322.65
539.43	56226.69
539.60	56500.53
539.77	56390.53
539.94	56582.45
540.11	56458.40
540.28	56275.84
540.44	56530.96
540.61	56673.73
540.78	56470.11
540.95	56690.12
541.12	56577.77
541.29	56636.28
541.46	56978.00
541.62	56722.88
541.79	57003.75
541.96	56750.97
542.13	56706.50
542.30	57069.28
542.47	57104.39
542.63	57130.14
542.80	57279.93
542.97	57343.12
543.14	57291.63
543.31	57485.90
543.48	57483.56
543.64	57829.96
543.81	57689.52
543.98	57478.88
544.15	57783.15
544.32	57771.44
544.48	57792.51
544.65	57485.90
544.82	57717.61
544.99	57605.26
545.16	57675.48
545.32	57759.74
545.49	57759.74
545.66	57787.83
545.83	57895.49
546.00	57998.48
546.16	57979.75
546.33	57766.76
546.50	57689.52
546.67	58042.95
546.83	57612.29
547.00	58021.88
547.17	57806.55
547.34	57932.94
547.50	58232.53
547.67	58115.50
547.84	58234.87
548.00	58321.47
548.17	58288.70
548.34	58241.89
548.51	58628.08
548.67	58482.97
548.84	58365.94
549.01	58183.38
549.18	58265.30
549.34	58190.40
549.51	58447.86
549.68	58543.82
549.84	58618.72
550.01	58543.82
550.18	58529.78
550.34	58766.17
550.51	58663.19
550.68	58714.68
550.84	58548.50
551.01	58850.43
551.18	58656.17
551.34	58913.62
551.51	58621.06
551.68	58726.38
551.84	58922.99
552.01	58656.17
552.18	58749.79
552.34	58424.45
552.51	58857.45
552.68	58754.47
552.84	58918.31
553.01	59281.09
553.18	59068.10
553.34	59274.07
553.51	58925.33
553.67	58897.24
553.84	59348.96
554.01	59103.21
554.17	59131.29
554.34	58958.09
554.51	59121.93
554.67	59196.83
554.84	59068.10
555.00	59248.32
555.17	59107.89
555.33	59147.68
555.50	59173.42
555.67	59187.47
555.83	59309.18
556.00	59201.51
556.16	59465.99
556.33	59451.95
556.50	59449.61
556.66	59540.89
556.83	59245.98
556.99	59559.61
557.16	59690.68
557.32	59653.23
557.49	59749.20
557.65	59540.89
557.82	59559.61
557.98	59648.55
558.15	59721.11
558.32	59765.58
558.48	59522.16
558.65	59482.37
558.81	59536.21
558.98	59671.96
559.14	59943.46
559.31	59938.78
559.47	59781.96
559.64	59922.40
559.80	59826.43
559.97	60048.78
560.13	59788.98
560.30	59831.11
560.46	59774.94
560.63	59969.21
560.79	59929.42
560.96	60020.70
561.12	60062.83
561.29	60037.08
561.45	60126.02
561.61	59898.99
561.78	60067.51
561.94	60025.38
562.11	60093.25
562.27	60205.60
562.44	60287.52
562.60	60395.18
562.77	60116.66
562.93	59920.05
563.10	60184.54
563.26	60126.02
563.42	60451.36
563.59	60214.96
563.75	60418.59
563.92	60371.78
564.08	60308.58
564.24	60491.15
564.41	60273.48
564.57	60259.43
564.74	60420.93
564.90	60547.32
565.07	60289.86
565.23	60357.74
565.39	60158.79
565.56	60371.78
565.72	60432.63
565.88	60254.75
566.05	60439.65
566.21	60458.38
566.38	60336.67
566.54	60573.06
566.70	60509.87
566.87	60507.53
567.03	60432.63
567.19	60676.05
567.36	60573.06
567.52	60434.97
567.68	60849.25
567.85	60587.11
568.01	60601.15
568.17	60362.42
568.34	60577.75
568.50	60615.19
568.66	60544.98
568.83	60530.93
568.99	60470.08
569.15	60505.19
569.32	60285.18
569.48	60783.71
569.64	60914.78
569.81	60369.44
569.97	60786.05
570.13	60762.65
570.30	60662.00
570.46	60711.16
570.62	60774.35
570.78	60823.50
570.95	60727.54
571.11	60949.89
571.27	60741.58
571.43	60495.83
571.60	60772.01
571.76	60502.85
571.92	60860.95
572.09	60877.33
572.25	60893.72
572.41	60781.37
572.57	61022.45
572.74	61031.81
572.90	60680.73
573.06	60825.84
573.22	60671.37
573.38	60804.78
573.55	60727.54
573.71	61017.77
573.87	60886.70
574.03	60821.16
574.20	60802.44
574.36	60622.22
574.52	60907.76
574.68	60954.57
574.84	60917.12
575.01	60889.04
575.17	61078.62
575.33	60842.23
575.49	60949.89
575.65	60842.23
575.82	61013.08
575.98	61085.64
576.14	61190.97
576.30	60905.42
576.46	60982.66
576.62	60959.25
576.79	60980.32
576.95	60800.10
577.11	60942.87
577.27	60973.30
577.43	61027.13
577.59	61010.74
577.75	60940.53
577.92	60886.70
578.08	61099.68
578.24	60940.53
578.40	61097.34
578.56	61080.96
578.72	61057.56
578.88	61073.94
579.04	61305.65
579.21	61078.62
579.37	61008.40
579.53	61141.81
579.69	61024.79
579.85	61069.26
580.01	61109.05
580.17	60938.19
580.33	60884.36
580.49	61073.94
580.65	61034.15
580.82	60956.91
580.98	60940.53
581.14	61043.51
581.30	61102.03
581.46	60903.08
581.62	61078.62
581.78	61022.45
581.94	61169.90
582.10	61275.22
582.26	61183.94
582.42	61106.71
582.58	61116.07
582.74	61064.58
582.90	60999.04
583.06	61003.72
583.22	60891.38
583.38	61272.88
583.54	61293.95
583.70	61153.52
583.86	61228.41
584.02	61104.37
584.18	61254.16
584.34	61258.84
584.50	61214.37
584.66	61085.64
584.82	60830.52
584.98	61331.40
585.14	61233.10
585.30	61202.67
585.46	61095.00
585.62	61045.85
585.78	61343.10
585.94	61041.17
586.10	61209.69
586.26	61296.29
586.42	61174.58
586.58	61357.14
586.74	61160.54
586.90	61013.08
587.06	61158.20
587.22	61254.16
587.38	61331.40
587.54	61415.66
587.70	61284.59
587.86	61331.40
588.02	61113.73
588.18	61549.07
588.34	61209.69
588.49	61364.17
