SpectraSuite Data File
++++++++++++++++++++++++++++++++++++
Date: Fri Oct 25 10:43:51 EDT 2013
User: price-jones
Dark Spectrum Present: No
Reference Spectrum Present: No
Number of Sampled Component Spectra: 1
Spectrometers: USB2+H05261
Integration Time (usec): 100000 (USB2+H05261)
Spectra Averaged: 1 (USB2+H05261)
Boxcar Smoothing: 0 (USB2+H05261)
Correct for Electrical Dark: No (USB2+H05261)
Strobe/Lamp Enabled: No (USB2+H05261)
Correct for Detector Non-linearity: No (USB2+H05261)
Correct for Stray Light: No (USB2+H05261)
Number of Pixels in Processed Spectrum: 2048
>>>>>Begin Processed Spectral Data<<<<<
365.73	119.37
365.92	119.37
366.12	119.37
366.32	46.81
366.52	9.36
366.72	91.28
366.91	53.83
367.11	67.88
367.31	65.54
367.51	60.85
367.70	70.22
367.90	32.77
368.10	51.49
368.30	0.00
368.49	0.00
368.69	0.00
368.89	35.11
369.09	65.54
369.28	107.66
369.48	4.68
369.68	114.69
369.87	145.11
370.07	84.26
370.27	131.07
370.47	170.86
370.66	355.76
370.86	404.91
371.06	468.11
371.25	528.96
371.45	500.87
371.65	456.40
371.84	463.43
372.04	517.26
372.24	465.77
372.44	498.53
372.63	510.24
372.83	528.96
373.03	461.09
373.22	479.81
373.42	519.60
373.62	552.37
373.81	552.37
374.01	545.34
374.21	592.16
374.40	552.37
374.60	585.13
374.79	496.19
374.99	592.16
375.19	517.26
375.38	533.64
375.58	610.88
375.78	699.82
375.97	613.22
376.17	620.24
376.37	596.84
376.56	627.26
376.76	578.11
376.95	697.48
377.15	674.07
377.35	634.29
377.54	697.48
377.74	631.94
377.93	748.97
378.13	704.50
378.33	702.16
378.52	683.44
378.72	695.14
378.91	655.35
379.11	643.65
379.31	669.39
379.50	641.31
379.70	631.94
379.89	692.80
380.09	713.86
380.28	674.07
380.48	660.03
380.68	617.90
380.87	648.33
381.07	737.27
381.26	746.63
381.46	770.04
381.65	805.14
381.85	697.48
382.04	730.25
382.24	730.25
382.43	725.57
382.63	716.20
382.83	760.67
383.02	688.12
383.22	725.57
383.41	678.76
383.61	760.67
383.80	732.59
384.00	734.93
384.19	730.25
384.39	795.78
384.58	835.57
384.78	896.43
384.97	748.97
385.17	777.06
385.36	781.74
385.56	798.12
385.75	746.63
385.95	732.59
386.14	826.21
386.34	866.00
386.53	884.72
386.72	823.87
386.92	840.25
387.11	894.08
387.31	905.79
387.50	844.93
387.70	842.59
387.89	908.13
388.09	894.08
388.28	837.91
388.48	856.64
388.67	938.55
388.86	943.24
389.06	1001.75
389.25	964.30
389.45	999.41
389.64	924.51
389.84	1004.09
390.03	1015.79
390.22	959.62
390.42	1083.67
390.61	973.66
390.81	1086.01
391.00	1076.65
391.19	1057.92
391.39	1046.22
391.58	1107.07
391.78	1027.50
391.97	1109.41
392.16	1022.81
392.36	1123.46
392.55	1022.81
392.75	957.28
392.94	980.68
393.13	1022.81
393.33	950.26
393.52	999.41
393.71	966.64
393.91	1151.54
394.10	1071.97
394.29	1081.33
394.49	1151.54
394.68	1186.65
394.88	1247.51
395.07	1123.46
395.26	1212.40
395.46	1259.21
395.65	1287.29
395.84	1151.54
396.04	1270.91
396.23	1181.97
396.42	1111.75
396.62	1226.44
396.81	1233.46
397.00	1186.65
397.19	1245.16
397.39	1287.29
397.58	1315.38
397.77	1371.55
397.97	1434.75
398.16	1453.47
398.35	1432.41
398.55	1444.11
398.74	1570.50
398.93	1556.46
399.12	1462.83
399.32	1591.56
399.51	1490.92
399.70	1666.46
399.90	1502.62
400.09	1600.93
400.28	1575.18
400.47	1621.99
400.67	1629.01
400.86	1582.20
401.05	1614.97
401.24	1748.38
401.44	1741.36
401.63	1790.51
401.82	1750.72
402.01	1767.10
402.21	1668.80
402.40	1781.15
402.59	1809.23
402.78	1802.21
402.97	1799.87
403.17	1804.55
403.36	1741.36
403.55	1811.57
403.74	1961.37
403.93	1811.57
404.13	1984.77
404.32	1867.75
404.51	1891.15
404.70	1940.30
404.89	2010.52
405.09	2040.95
405.28	2024.56
405.47	2024.56
405.66	2054.99
405.85	2005.84
406.05	2003.50
406.24	1977.75
406.43	2101.80
406.62	2038.61
406.81	2160.31
407.00	1977.75
407.20	2026.90
407.39	2050.31
407.58	2165.00
407.77	2167.34
407.96	2216.49
408.15	2193.08
408.34	2253.94
408.54	2328.83
408.73	2209.47
408.92	2237.55
409.11	2335.85
409.30	2380.32
409.49	2272.66
409.68	2251.60
409.87	2275.00
410.07	2267.98
410.26	2307.77
410.45	2480.97
410.64	2356.92
410.83	2473.95
411.02	2539.48
411.21	2499.69
411.40	2623.74
411.59	2670.55
411.78	2677.57
411.98	2544.16
412.17	2593.31
412.36	2677.57
412.55	2827.37
412.74	2689.28
412.93	2712.68
413.12	2719.70
413.31	2951.42
413.50	2913.97
413.69	2862.48
413.88	2888.22
414.07	3033.33
414.26	2874.18
414.45	2967.80
414.64	3021.63
414.83	3126.96
415.02	3073.12
415.22	3077.80
415.41	3150.36
415.60	3042.70
415.79	3176.11
415.98	3199.51
416.17	3262.71
416.36	3260.37
416.55	3304.84
416.74	3267.39
416.93	3211.22
417.12	3304.84
417.31	3393.78
417.50	3339.94
417.69	3335.26
417.88	3468.67
418.07	3510.80
418.26	3555.27
418.45	3449.95
418.64	3559.95
418.83	3517.83
419.02	3557.61
419.21	3684.00
419.39	3669.96
419.58	3377.39
419.77	3496.76
419.96	3707.41
420.15	3794.01
420.34	3609.11
420.53	3772.94
420.72	3932.10
420.91	3873.59
421.10	3831.46
421.29	3875.93
421.48	3899.33
421.67	3934.44
421.86	3791.67
422.05	3758.90
422.24	3808.05
422.43	3918.06
422.61	3932.10
422.80	3838.48
422.99	3978.91
423.18	3927.42
423.37	4030.40
423.56	3896.99
423.75	3981.25
423.94	3997.64
424.13	3674.64
424.32	3726.13
424.50	3840.82
424.69	3939.12
424.88	4051.47
425.07	4037.42
425.26	3971.89
425.45	4002.32
425.64	3976.57
425.83	4051.47
426.01	4039.76
426.20	4044.45
426.39	4077.21
426.58	3920.40
426.77	3953.16
426.96	3908.69
427.15	3976.57
427.33	3934.44
427.52	3995.29
427.71	4215.30
427.90	4154.45
428.09	4259.78
428.28	4163.81
428.46	4170.83
428.65	4039.76
428.84	4229.35
429.03	4276.16
429.22	3957.85
429.40	4105.30
429.59	4098.28
429.78	4042.11
429.97	3852.52
430.16	4107.64
430.34	4198.92
430.53	4290.20
430.72	4201.26
430.91	4063.17
431.10	4339.35
431.28	4552.34
431.47	4582.77
431.66	4709.16
431.85	4493.83
432.03	4594.47
432.22	4793.42
432.41	4819.16
432.60	4760.65
432.79	4746.61
432.97	4800.44
433.16	4854.27
433.35	4505.53
433.54	4720.86
433.72	4641.28
433.91	4578.09
434.10	4748.95
434.28	4678.73
434.47	4746.61
434.66	4880.02
434.85	4865.97
435.03	4919.81
435.22	5114.07
435.41	5170.24
435.59	5123.43
435.78	5034.49
435.97	5158.54
436.16	5011.09
436.34	5020.45
436.53	5100.03
436.72	5242.80
436.90	5097.69
437.09	5114.07
437.28	5188.97
437.46	5313.02
437.65	5303.65
437.84	5193.65
438.02	5011.09
438.21	5331.74
438.40	4997.04
438.58	5423.02
438.77	5291.95
438.96	5394.93
439.14	5451.11
439.33	5687.50
439.52	5729.63
439.70	5628.99
439.89	5668.78
440.08	5703.89
440.26	5650.05
440.45	5708.57
440.63	5923.90
440.82	5856.02
441.01	5956.66
441.19	6101.78
441.38	6218.80
441.57	6078.37
441.75	6118.16
441.94	6237.53
442.12	6153.27
442.31	6352.21
442.50	6263.27
442.68	6359.24
442.87	6509.03
443.05	6452.86
443.24	6417.75
443.43	6572.22
443.61	6427.11
443.80	6513.71
443.98	6345.19
444.17	6307.74
444.35	6459.88
444.54	6607.33
444.73	6539.46
444.91	6333.49
445.10	6494.99
445.28	6555.84
445.47	6509.03
445.65	6354.55
445.84	6595.63
446.02	6668.19
446.21	6705.63
446.39	6581.59
446.58	6647.12
446.77	6656.48
446.95	6722.02
447.14	6612.01
447.32	6867.13
447.51	6747.76
447.69	6672.87
447.88	6747.76
448.06	6691.59
448.25	6637.76
448.43	6647.12
448.62	6686.91
448.80	6761.81
448.99	6883.52
449.17	6773.51
449.36	6827.34
449.54	6867.13
449.73	6946.71
449.91	7040.33
450.10	7124.59
450.28	7288.43
450.46	7176.08
450.65	7176.08
450.83	7136.29
451.02	7246.30
451.20	7283.75
451.39	7232.26
451.57	7421.84
451.76	7297.79
451.94	7325.88
452.13	7447.58
452.31	7360.98
452.49	7236.94
452.68	7260.34
452.86	7112.89
453.05	7295.45
453.23	7250.98
453.42	7234.60
453.60	7494.40
453.78	7541.21
453.97	7370.35
454.15	7569.29
454.34	7487.37
454.52	7346.94
454.70	7360.98
454.89	7421.84
455.07	7485.03
455.26	7723.77
455.44	7695.68
455.62	7861.86
455.81	7602.06
455.99	7850.16
456.17	7833.77
456.36	7866.54
456.54	8133.36
456.73	8065.49
456.91	8189.53
457.09	8002.29
457.28	8285.50
457.46	8184.85
457.64	8187.19
457.83	8102.93
458.01	8084.21
458.19	8234.00
458.38	8358.05
458.56	8276.13
458.74	8278.47
458.93	8161.45
459.11	8304.22
459.29	8280.82
459.48	8322.94
459.66	8276.13
459.84	8533.59
460.03	8641.26
460.21	8634.24
460.39	8578.06
460.57	8758.28
460.76	8634.24
460.94	8709.13
461.12	8575.72
461.31	8627.21
461.49	8641.26
461.67	8634.24
461.85	9027.45
462.04	8807.44
462.22	8816.80
462.40	9043.83
462.59	8875.31
462.77	8828.50
462.95	9060.21
463.13	9062.55
463.32	9046.17
463.50	8863.61
463.68	8982.98
463.86	9139.79
464.05	9050.85
464.23	9109.36
464.41	9055.53
464.59	8894.04
464.78	9130.43
464.96	9184.26
465.14	9067.24
465.32	9088.30
465.50	9284.91
465.69	9312.99
465.87	9275.54
466.05	9205.33
466.23	9235.75
466.41	9376.19
466.60	9364.48
466.78	9275.54
466.96	9338.74
467.14	9348.10
467.32	9350.44
467.51	9635.99
467.69	9130.43
467.87	9263.84
468.05	9769.40
468.23	9420.66
468.41	9591.52
468.60	9626.62
468.78	9680.46
468.96	9628.96
469.14	9729.61
469.32	9802.16
469.50	9600.88
469.69	9671.09
469.87	9937.91
470.05	9900.47
470.23	9863.02
470.41	10017.49
470.59	10141.54
470.77	10106.43
470.95	10120.48
471.14	10064.30
471.32	10008.13
471.50	10232.82
471.68	10345.17
471.86	10251.55
472.04	10544.11
472.22	10743.06
472.40	10216.44
472.58	10218.78
472.77	10485.60
472.95	10588.58
473.13	10920.94
473.31	10590.92
473.49	10640.08
473.67	10509.01
473.85	10712.63
474.03	11026.26
474.21	11150.31
474.39	11145.63
474.57	11218.19
474.75	11213.51
474.93	11321.17
475.12	11227.55
475.30	11185.42
475.48	11077.76
475.66	11349.26
475.84	11438.20
476.02	11662.89
476.20	11515.44
476.38	11735.45
476.56	11815.02
476.74	12006.95
476.92	11843.11
477.10	11864.18
477.28	12032.69
477.46	12020.99
477.64	12116.95
477.82	12329.94
478.00	12631.87
478.18	12610.81
478.36	12580.38
478.54	12856.56
478.72	12671.66
478.90	13046.15
479.08	13261.48
479.26	13317.65
479.44	13209.98
479.62	13429.99
479.80	13226.37
479.98	13556.38
480.16	13549.36
480.34	13710.86
480.52	13937.89
480.70	13916.83
480.88	13872.36
481.06	14005.77
481.24	14012.79
481.41	14230.46
481.59	14368.55
481.77	14232.80
481.95	14504.30
482.13	14398.98
482.31	14558.13
482.49	14923.26
482.67	14855.38
482.85	15021.56
483.03	15138.58
483.21	15183.06
483.39	15686.27
483.57	15342.21
483.74	15578.61
483.92	15751.81
484.10	15646.48
484.28	15885.22
484.46	16058.42
484.64	16535.88
484.82	16020.97
485.00	16128.63
485.18	16425.88
485.35	16414.18
485.53	16133.31
485.71	16081.82
485.89	16666.95
486.07	16648.23
486.25	16645.89
486.43	16699.72
486.61	17111.66
486.78	17315.28
486.96	17504.87
487.14	17649.98
487.32	17696.79
487.50	17963.61
487.68	18104.04
487.85	18401.29
488.03	18466.83
488.21	18331.08
488.39	18302.99
488.57	18703.22
488.75	18899.83
488.92	19103.45
489.10	19152.60
489.28	19466.24
489.46	19784.55
489.64	19669.86
489.81	19981.15
489.99	20353.30
490.17	20418.83
490.35	20563.95
490.53	20510.11
490.70	20350.96
490.88	20624.80
491.06	20734.81
491.24	20329.89
491.41	20472.67
491.59	20879.92
491.77	21013.33
491.95	21523.57
492.13	21207.59
492.30	21851.24
492.48	21582.08
492.66	21975.29
492.84	21916.78
493.01	22202.32
493.19	22501.91
493.37	22267.86
493.54	22349.78
493.72	22616.60
493.90	22352.12
494.08	23021.51
494.25	23009.81
494.43	22881.08
494.61	23665.16
494.79	23693.24
494.96	23484.94
495.14	23571.54
495.32	23747.08
495.49	23807.93
495.67	23882.83
495.85	24182.42
496.02	24372.00
496.20	24669.25
496.38	24570.94
496.55	24744.14
496.73	25254.38
496.91	24767.55
497.09	25088.20
497.26	25186.50
497.44	25516.52
497.62	24992.24
497.79	25556.31
497.97	25034.37
498.14	25951.86
498.32	25476.73
498.50	25958.88
498.67	26178.89
498.85	26157.83
499.03	25851.22
499.20	26368.48
499.38	26347.41
499.56	26642.32
499.73	26331.03
499.91	27037.87
500.08	26906.80
500.26	26387.20
500.44	26593.17
500.61	26726.58
500.79	26654.02
500.97	26799.13
501.14	27414.69
501.32	27058.93
501.49	27094.04
501.67	27435.76
501.84	27185.32
502.02	27744.71
502.20	27803.22
502.37	27999.83
502.55	27964.72
502.72	28236.22
502.90	28109.83
503.07	28173.03
503.25	28009.19
503.43	28051.32
503.60	28343.89
503.78	28329.84
503.95	28217.50
504.13	28577.94
504.30	28596.67
504.48	28854.12
504.65	29448.62
504.83	29090.52
505.01	29493.09
505.18	29041.37
505.36	29483.73
505.53	29530.54
505.71	29647.57
505.88	29654.59
506.06	29020.30
506.23	29359.68
506.41	29476.71
506.58	29844.17
506.76	30251.42
506.93	30260.79
507.11	29933.11
507.28	30169.51
507.46	30349.73
507.63	30148.44
507.81	30171.85
507.98	30066.52
508.16	30359.09
508.33	30644.63
508.50	30684.42
508.68	31028.48
508.85	31140.83
509.03	31009.76
509.20	31330.41
509.38	31002.74
509.55	31182.96
509.73	31178.28
509.90	31459.14
510.08	31428.71
510.25	31608.93
510.42	31278.92
510.60	31496.59
510.77	32034.91
510.95	31878.10
511.12	32142.58
511.30	32156.62
511.47	32327.48
511.64	32093.43
511.82	32772.18
511.99	32254.92
512.17	32453.87
512.34	32135.56
512.51	32376.63
512.69	32854.10
512.86	33071.77
513.04	33062.41
513.21	32793.25
513.38	33184.12
513.56	32959.42
513.73	32875.16
513.90	33149.01
514.08	32751.12
514.25	33266.03
514.43	33186.46
514.60	33144.33
514.77	34101.61
514.95	33797.34
515.12	33809.04
515.29	33565.62
515.47	34150.76
515.64	34382.47
515.81	34113.31
515.99	33972.88
516.16	34106.29
516.33	33804.36
516.51	33916.70
516.68	33242.63
516.85	33390.08
517.03	33848.83
517.20	33851.17
517.37	34405.88
517.54	34555.67
517.72	34106.29
517.89	34033.73
518.06	34132.03
518.24	34534.60
518.41	34588.44
518.58	34618.86
518.75	34576.73
518.93	35086.97
519.10	34656.31
519.27	34789.72
519.45	35400.60
519.62	35199.32
519.79	35225.06
519.96	35192.30
520.14	35655.72
520.31	35157.19
520.48	35639.34
520.65	35700.19
520.83	35854.67
521.00	35852.33
521.17	35449.75
521.34	35906.16
521.52	36645.77
521.69	36208.09
521.86	36107.44
522.03	36479.59
522.20	36147.23
522.38	36264.26
522.55	36503.00
522.72	36486.61
522.89	37099.83
523.07	36559.17
523.24	36994.51
523.41	36947.70
523.58	36751.09
523.75	37137.28
523.92	37357.29
524.10	37397.08
524.27	37013.23
524.44	37523.47
524.61	37434.53
524.78	37998.60
524.96	37741.14
525.13	37163.03
525.30	37483.68
525.47	37862.85
525.64	37586.66
525.81	37759.86
525.98	37324.52
526.16	37216.86
526.33	37160.69
526.50	37542.19
526.67	37097.49
526.84	37673.26
527.01	37380.70
527.18	37900.29
527.36	38345.00
527.53	38429.26
527.70	38471.39
527.87	38602.46
528.04	38352.02
528.21	38450.32
528.38	38845.87
528.55	38974.60
528.72	38864.60
528.89	39206.31
529.07	38756.93
529.24	38515.86
529.41	39000.35
529.58	38543.94
529.75	38614.16
529.92	38923.11
530.09	38925.45
530.26	39285.89
530.43	39164.18
530.60	39187.59
530.77	39154.82
530.94	39739.96
531.11	39606.55
531.28	39536.33
531.46	39882.73
531.63	39601.86
531.80	39618.25
531.97	39337.38
532.14	39517.60
532.31	39381.85
532.48	39302.28
532.65	39660.38
532.82	39332.70
532.99	40189.34
533.16	39606.55
533.33	39894.43
533.50	40158.91
533.67	40306.37
533.84	40041.88
534.01	40563.82
534.18	40154.23
534.35	40713.62
534.52	40311.05
534.69	40479.57
534.86	40942.99
535.03	40767.45
535.20	40931.29
535.37	40823.62
535.54	40748.73
535.71	40355.52
535.88	40751.07
536.05	40877.46
536.22	40535.74
536.38	41378.33
536.55	40870.43
536.72	40945.33
536.89	40573.19
537.06	40727.66
537.23	41453.23
537.40	40715.96
537.57	41331.52
537.74	41383.01
537.91	41464.93
538.08	41397.06
538.25	40959.38
538.42	41111.51
538.59	41212.15
538.75	41422.80
538.92	41289.39
539.09	41558.55
539.26	41682.60
539.43	41750.48
539.60	41827.71
539.77	40947.67
539.94	41254.28
540.11	41464.93
540.28	41886.23
540.44	41172.36
540.61	41537.49
540.78	41088.10
540.95	41825.37
541.12	41570.25
541.29	41914.31
541.46	41823.03
541.62	41792.61
541.79	42368.38
541.96	41808.99
542.13	42185.82
542.30	41982.19
542.47	41951.76
542.63	42497.11
542.80	42188.16
542.97	42291.14
543.14	42670.31
543.31	42939.47
543.48	42897.34
543.64	42857.55
543.81	42927.77
543.98	43007.34
544.15	42674.99
544.32	42557.96
544.48	43264.80
544.65	43056.50
544.82	43033.09
544.99	42930.11
545.16	42810.74
545.32	42667.97
545.49	43494.18
545.66	43164.16
545.83	43667.37
546.00	43632.27
546.16	43035.43
546.33	42824.78
546.50	43150.12
546.67	43522.26
546.83	43079.90
547.00	43072.88
547.17	43325.66
547.34	43229.69
547.50	43356.08
547.67	43613.54
547.84	43339.70
548.00	43758.66
548.17	44163.57
548.34	43618.22
548.51	43826.53
548.67	43288.21
548.84	43695.46
549.01	43955.26
549.18	43503.54
549.34	43306.93
549.51	43882.70
549.68	44245.49
549.84	44051.22
550.01	44371.88
550.18	43866.32
550.34	44130.80
550.51	43871.00
550.68	44215.06
550.84	43583.12
551.01	44083.99
551.18	43892.07
551.34	44439.75
551.51	44149.53
551.68	44477.20
551.84	44210.38
552.01	44470.18
552.18	44414.01
552.34	44091.01
552.51	44573.16
552.68	44147.18
552.84	44376.56
553.01	44748.70
553.18	44121.44
553.34	44828.28
553.51	44512.31
553.67	44076.97
553.84	45001.48
554.01	45193.40
554.17	45052.97
554.34	44947.65
554.51	44676.15
554.67	44624.65
554.84	44912.54
555.00	44741.68
555.17	44835.30
555.33	44671.46
555.50	45254.26
555.67	44664.44
555.83	44722.96
556.00	45001.48
556.16	45525.76
556.33	44442.09
556.50	44795.51
556.66	45113.83
556.83	44409.32
556.99	45057.65
557.16	45439.16
557.32	44985.10
557.49	45270.64
557.65	45013.18
557.82	44959.35
557.98	45528.10
558.15	45411.07
558.32	44994.46
558.48	44992.12
558.65	44706.57
558.81	45017.86
558.98	45249.58
559.14	45256.60
559.31	44954.67
559.47	45247.24
559.64	45371.28
559.80	45460.23
559.97	45617.04
560.13	45226.17
560.30	45689.60
560.46	45455.54
560.63	45579.59
560.79	45900.25
560.96	46103.87
561.12	45591.30
561.29	45509.38
561.45	45783.22
561.61	45748.11
561.78	45668.53
561.94	45151.27
562.11	45563.21
562.27	45162.98
562.44	45806.62
562.60	45432.14
562.77	45221.49
562.93	45933.01
563.10	45736.41
563.26	45001.48
563.42	45268.30
563.59	45801.94
563.75	45638.11
563.92	45579.59
564.08	46094.51
564.24	46080.47
564.41	45872.16
564.57	45701.30
564.74	45673.21
564.90	45769.18
565.07	45694.28
565.23	45806.62
565.39	45965.78
565.56	45670.87
565.72	45478.95
565.88	45502.35
566.05	45511.72
566.21	45270.64
566.38	45268.30
566.54	45687.26
566.70	45851.09
566.87	45888.54
567.03	45769.18
567.19	46490.06
567.36	46274.73
567.52	45923.65
567.68	46064.08
567.85	45544.48
568.01	45902.59
568.17	46305.16
568.34	46155.36
568.50	45605.34
568.66	46021.95
568.83	45792.58
568.99	45485.97
569.15	45855.78
569.32	45635.77
569.48	45715.34
569.64	45818.33
569.81	45525.76
569.97	46028.98
570.13	45949.40
570.30	45727.05
570.46	45427.46
570.62	45724.71
570.78	45390.01
570.95	45460.23
571.11	45925.99
571.27	45848.75
571.43	45727.05
571.60	45872.16
571.76	45705.98
571.92	45715.34
572.09	45942.38
572.25	46054.72
572.41	45652.15
572.57	45556.19
572.74	46447.93
572.90	45909.61
573.06	46171.75
573.22	46223.24
573.38	46099.19
573.55	45553.85
573.71	46176.43
573.87	46337.93
574.03	46181.11
574.20	45918.97
574.36	46038.34
574.52	46052.38
574.68	45890.88
574.84	46174.09
575.01	45979.82
575.17	46033.66
575.33	45876.84
575.49	45745.77
575.65	46396.44
575.82	46073.45
575.98	45605.34
576.14	46162.39
576.30	46108.55
576.46	45956.42
576.62	46274.73
576.79	45631.08
576.95	45872.16
577.11	46171.75
577.27	46487.72
577.43	46389.42
577.59	45537.46
577.75	45783.22
577.92	45673.21
578.08	46314.52
578.24	45776.20
578.40	45933.01
578.56	45895.56
578.72	46361.33
578.88	46295.80
579.04	46548.57
579.21	46050.04
579.37	46288.77
579.53	46204.52
579.69	45698.96
579.85	46134.30
580.01	46728.80
580.17	45993.87
580.33	46148.34
580.49	46394.10
580.65	46302.82
580.82	46171.75
580.98	46351.97
581.14	45818.33
581.30	46401.12
581.46	46218.56
581.62	46401.12
581.78	46059.40
581.94	46770.93
582.10	46038.34
582.26	46178.77
582.42	46089.83
582.58	46466.66
582.74	46218.56
582.90	46501.76
583.06	46272.39
583.22	46422.19
583.38	46632.83
583.54	46583.68
583.70	46525.17
583.86	45925.99
584.02	46244.30
584.18	46326.22
584.34	46277.07
584.50	46525.17
584.66	45977.48
584.82	45947.06
584.98	46366.01
585.14	46403.46
585.30	46492.40
585.46	46263.03
585.62	45792.58
585.78	46401.12
585.94	45549.17
586.10	45930.67
586.26	45998.55
586.42	46562.62
586.58	46291.12
586.74	46471.34
586.90	45890.88
587.06	45963.44
587.22	46384.74
587.38	46356.65
587.54	46337.93
587.70	46387.08
587.86	45766.84
588.02	46382.40
588.18	46567.30
588.34	46127.28
588.49	45275.32
588.65	45652.15
588.81	45434.48
588.97	46017.27
589.13	45502.35
589.29	45949.40
589.45	45998.55
589.61	45965.78
589.77	46272.39
589.93	46010.25
