SpectraSuite Data File
++++++++++++++++++++++++++++++++++++
Date: Fri Oct 25 11:34:43 EDT 2013
User: price-jones
Dark Spectrum Present: No
Reference Spectrum Present: No
Number of Sampled Component Spectra: 1
Spectrometers: USB2+H05261
Integration Time (usec): 100000 (USB2+H05261)
Spectra Averaged: 1 (USB2+H05261)
Boxcar Smoothing: 0 (USB2+H05261)
Correct for Electrical Dark: No (USB2+H05261)
Strobe/Lamp Enabled: No (USB2+H05261)
Correct for Detector Non-linearity: No (USB2+H05261)
Correct for Stray Light: No (USB2+H05261)
Number of Pixels in Processed Spectrum: 2048
>>>>>Begin Processed Spectral Data<<<<<
365.73	245.76
365.92	245.76
366.12	245.76
366.32	224.69
366.52	135.75
366.72	238.73
366.91	163.84
367.11	159.16
367.31	133.41
367.51	177.88
367.70	177.88
367.90	224.69
368.10	210.65
368.30	245.76
368.49	161.50
368.69	168.52
368.89	217.67
369.09	215.33
369.28	191.92
369.48	135.75
369.68	212.99
369.87	255.12
370.07	215.33
370.27	320.65
370.47	339.38
370.66	554.71
370.86	425.98
371.06	547.69
371.25	533.64
371.45	503.22
371.65	667.05
371.84	531.30
372.04	535.98
372.24	510.24
372.44	566.41
372.63	585.13
372.83	575.77
373.03	564.07
373.22	547.69
373.42	622.58
373.62	683.44
373.81	650.67
374.01	624.92
374.21	676.41
374.40	624.92
374.60	613.22
374.79	571.09
374.99	664.71
375.19	627.26
375.38	678.76
375.58	685.78
375.78	650.67
375.97	704.50
376.17	678.76
376.37	664.71
376.56	732.59
376.76	622.58
376.95	606.20
377.15	727.91
377.35	631.94
377.54	657.69
377.74	720.88
377.93	660.03
378.13	643.65
378.33	699.82
378.52	627.26
378.72	786.42
378.91	774.72
379.11	730.25
379.31	760.67
379.50	662.37
379.70	711.52
379.89	763.01
380.09	744.29
380.28	674.07
380.48	596.84
380.68	744.29
380.87	676.41
381.07	727.91
381.26	716.20
381.46	709.18
381.65	676.41
381.85	734.93
382.04	777.06
382.24	744.29
382.43	774.72
382.63	772.38
382.83	767.70
383.02	772.38
383.22	821.53
383.41	748.97
383.61	816.85
383.80	763.01
384.00	830.89
384.19	823.87
384.39	727.91
384.58	765.36
384.78	791.10
384.97	807.48
385.17	777.06
385.36	844.93
385.56	807.48
385.75	833.23
385.95	840.25
386.14	812.17
386.34	837.91
386.53	875.36
386.72	870.68
386.92	877.70
387.11	854.30
387.31	905.79
387.50	781.74
387.70	889.40
387.89	833.23
388.09	929.19
388.28	866.00
388.48	877.70
388.67	884.72
388.86	887.06
389.06	891.74
389.25	901.11
389.45	1018.13
389.64	954.94
389.84	966.64
390.03	891.74
390.22	901.11
390.42	954.94
390.61	999.41
390.81	926.85
391.00	1008.77
391.19	964.30
391.39	903.45
391.58	983.02
391.78	997.07
391.97	990.05
392.16	1064.94
392.36	1121.12
392.55	964.30
392.75	1048.56
392.94	1029.84
393.13	997.07
393.33	985.37
393.52	1090.69
393.71	1137.50
393.91	952.60
394.10	1008.77
394.29	1067.28
394.49	1048.56
394.68	1163.25
394.88	1060.26
395.07	1086.01
395.26	1181.97
395.46	1090.69
395.65	1188.99
395.84	1165.59
396.04	1186.65
396.23	1086.01
396.42	1167.93
396.62	1275.59
396.81	1163.25
397.00	1156.22
397.19	1184.31
397.39	1107.07
397.58	1149.20
397.77	1088.35
397.97	1270.91
398.16	1165.59
398.35	1245.16
398.55	1203.04
398.74	1224.10
398.93	1287.29
399.12	1259.21
399.32	1301.34
399.51	1224.10
399.70	1280.27
399.90	1158.57
400.09	1352.83
400.28	1277.93
400.47	1329.42
400.67	1263.89
400.86	1376.24
401.05	1331.76
401.24	1334.11
401.44	1399.64
401.63	1451.13
401.82	1432.41
402.01	1465.18
402.21	1521.35
402.40	1418.36
402.59	1420.71
402.78	1373.89
402.97	1376.24
403.17	1439.43
403.36	1549.43
403.55	1458.15
403.74	1526.03
403.93	1446.45
404.13	1434.75
404.32	1490.92
404.51	1556.46
404.70	1610.29
404.89	1586.88
405.09	1638.38
405.28	1558.80
405.47	1614.97
405.66	1650.08
405.85	1701.57
406.05	1631.35
406.24	1682.85
406.43	1706.25
406.62	1717.95
406.81	1781.15
407.00	1781.15
407.20	1692.21
407.39	1746.04
407.58	1834.98
407.77	1827.96
407.96	1774.13
408.15	1893.49
408.34	1776.47
408.54	1746.04
408.73	1849.02
408.92	1870.09
409.11	1811.57
409.30	1954.35
409.49	1844.34
409.68	1914.56
409.87	1881.79
410.07	1959.03
410.26	1966.05
410.45	1984.77
410.64	1942.64
410.83	2052.65
411.02	1973.07
411.21	1961.37
411.40	2106.48
411.59	2043.29
411.78	2106.48
411.98	2097.12
412.17	2111.16
412.36	2202.44
412.55	2221.17
412.74	2115.84
412.93	2181.38
413.12	2122.87
413.31	2354.58
413.50	2284.36
413.69	2293.72
413.88	2450.54
414.07	2307.77
414.26	2275.00
414.45	2380.32
414.64	2403.73
414.83	2401.39
415.02	2518.42
415.22	2487.99
415.41	2523.10
415.60	2464.58
415.79	2612.04
415.98	2642.46
416.17	2537.14
416.36	2633.10
416.55	2745.45
416.74	2658.85
416.93	2722.04
417.12	2752.47
417.31	2808.64
417.50	2663.53
417.69	2813.32
417.88	2848.43
418.07	2841.41
418.26	2740.77
418.45	2801.62
418.64	2892.90
418.83	2970.14
419.02	2808.64
419.21	2935.03
419.39	2963.12
419.58	2979.50
419.77	3045.04
419.96	2981.84
420.15	2995.89
420.34	3087.17
420.53	3068.44
420.72	3023.97
420.91	2909.29
421.10	3112.91
421.29	3152.70
421.48	3056.74
421.67	3103.55
421.86	3194.83
422.05	3162.06
422.24	3054.40
422.43	3220.58
422.61	3169.09
422.80	3215.90
422.99	3215.90
423.18	3265.05
423.37	3251.00
423.56	3279.09
423.75	3344.63
423.94	3073.12
424.13	3009.93
424.32	3126.96
424.50	3234.62
424.69	3447.61
424.88	3213.56
425.07	3379.73
425.26	3173.77
425.45	3232.28
425.64	3192.49
425.83	3183.13
426.01	3349.31
426.20	3442.93
426.39	3349.31
426.58	3243.98
426.77	3164.40
426.96	3361.01
427.15	3339.94
427.33	3428.88
427.52	3398.46
427.71	3461.65
427.90	3576.34
428.09	3503.78
428.28	3522.51
428.46	3583.36
428.65	3578.68
428.84	3576.34
429.03	3557.61
429.22	3529.53
429.40	3552.93
429.59	3691.02
429.78	3426.54
429.97	3494.42
430.16	3550.59
430.34	3571.66
430.53	3616.13
430.72	3737.84
430.91	3693.37
431.10	3684.00
431.28	3770.60
431.47	3733.15
431.66	3801.03
431.85	3728.47
432.03	3791.67
432.22	3885.29
432.41	3894.65
432.60	3880.61
432.79	3901.67
432.97	3885.29
433.16	3889.97
433.35	3770.60
433.54	3978.91
433.72	3913.38
433.91	3978.91
434.10	4002.32
434.28	3999.98
434.47	4037.42
434.66	4058.49
434.85	4077.21
435.03	4095.94
435.22	4056.15
435.41	4166.15
435.59	4161.47
435.78	4180.20
435.97	4348.72
436.16	4255.09
436.34	4210.62
436.53	4252.75
436.72	4280.84
436.90	4227.01
437.09	4184.88
437.28	4290.20
437.46	4353.40
437.65	4388.50
437.84	4575.75
438.02	4306.59
438.21	4355.74
438.40	4360.42
438.58	4535.96
438.77	4620.22
438.96	4533.62
439.14	4601.49
439.33	4564.04
439.52	4690.43
439.70	4786.40
439.89	4730.22
440.08	4667.03
440.26	4704.48
440.45	4744.27
440.63	4823.84
440.82	4947.89
441.01	4779.37
441.19	4905.76
441.38	4999.38
441.57	4873.00
441.75	5121.09
441.94	5329.40
442.12	5128.11
442.31	5233.44
442.50	5296.63
442.68	5093.01
442.87	5137.48
443.05	5172.58
443.24	5170.24
443.43	5289.61
443.61	5277.91
443.80	5486.22
443.98	5146.84
444.17	5078.96
444.35	5280.25
444.54	5343.44
444.73	5357.49
444.91	5116.41
445.10	5411.32
445.28	5423.02
445.47	5336.42
445.65	5504.94
445.84	5315.36
446.02	5387.91
446.21	5336.42
446.39	5366.85
446.58	5465.15
446.77	5453.45
446.95	5416.00
447.14	5465.15
447.32	5359.83
447.51	5390.25
447.69	5439.40
447.88	5500.26
448.06	5427.70
448.25	5537.71
448.43	5607.92
448.62	5540.05
448.80	5434.72
448.99	5654.73
449.17	5593.88
449.36	5533.03
449.54	5533.03
449.73	5509.62
449.91	5827.93
450.10	5774.10
450.28	5804.53
450.46	5865.38
450.65	5731.97
450.83	5748.36
451.02	5834.96
451.20	5874.74
451.39	5933.26
451.57	5823.25
451.76	5849.00
451.94	6012.84
452.13	5919.21
452.31	5937.94
452.49	5825.59
452.68	5858.36
452.86	5980.07
453.05	5956.66
453.23	6012.84
453.42	6092.41
453.60	5987.09
453.78	6064.33
453.97	5991.77
454.15	6050.28
454.34	6066.67
454.52	6197.74
454.70	6359.24
454.89	6270.30
455.07	6181.35
455.26	6181.35
455.44	6356.90
455.62	6420.09
455.81	6406.05
455.99	6396.68
456.17	6420.09
456.36	6384.98
456.54	6527.75
456.73	6504.35
456.91	6803.94
457.09	6642.44
457.28	6715.00
457.46	6569.88
457.64	6752.45
457.83	6516.05
458.01	6562.86
458.19	6736.06
458.38	6754.79
458.56	6906.92
458.74	6918.62
458.93	6729.04
459.11	6705.63
459.29	6672.87
459.48	6817.98
459.66	6885.86
459.84	7049.69
460.03	7030.97
460.21	7159.70
460.39	6897.56
460.57	7115.23
460.76	7145.66
460.94	7276.73
461.12	7190.13
461.31	7194.81
461.49	7049.69
461.67	7115.23
461.85	7286.09
462.04	7227.57
462.22	7396.09
462.40	7290.77
462.59	7344.60
462.77	7243.96
462.95	7550.57
463.13	7358.64
463.32	7356.30
463.50	7400.77
463.68	7356.30
463.86	7590.36
464.05	7424.18
464.23	7356.30
464.41	7461.63
464.59	7503.76
464.78	7681.64
464.96	7513.12
465.14	7578.65
465.32	7751.85
465.50	7672.28
465.69	7740.15
465.87	7772.92
466.05	7508.44
466.23	7728.45
466.41	7796.32
466.60	7927.39
466.78	7667.60
466.96	7761.22
467.14	7808.03
467.32	7726.11
467.51	8112.30
467.69	7742.49
467.87	8002.29
468.05	7948.46
468.23	7901.65
468.41	7889.95
468.60	8009.31
468.78	8124.00
468.96	7962.50
469.14	8037.40
469.32	8243.37
469.50	8105.28
469.69	8191.88
469.87	8259.75
470.05	8187.19
470.23	8280.82
470.41	8245.71
470.59	8456.36
470.77	8215.28
470.95	8336.99
471.14	8636.58
471.32	8325.29
471.50	8681.05
471.68	8528.91
471.86	8514.87
472.04	8599.13
472.22	8739.56
472.40	8748.92
472.58	8606.15
472.77	9055.53
472.95	8966.59
473.13	9100.00
473.31	8830.84
473.49	8879.99
473.67	8940.85
473.85	9057.87
474.03	9172.56
474.21	9312.99
474.39	9078.94
474.57	9277.88
474.75	9308.31
474.93	9533.00
475.12	9249.80
475.30	9584.49
475.48	9289.59
475.66	9390.23
475.84	9467.47
476.02	9628.96
476.20	9788.12
476.38	9905.15
476.56	9919.19
476.74	9820.89
476.92	10031.54
477.10	9998.77
477.28	10129.84
477.46	10284.31
477.64	10377.94
477.82	10382.62
478.00	10457.51
478.18	10406.02
478.36	10574.54
478.54	10717.31
478.72	10775.83
478.90	10682.20
479.08	10824.98
479.26	10902.22
479.44	11028.60
479.62	11185.42
479.80	11267.34
479.98	11332.87
480.16	11613.74
480.34	11342.24
480.52	11382.03
480.70	11875.88
480.88	11477.99
481.06	11602.04
481.24	11875.88
481.41	11859.49
481.59	11880.56
481.77	12201.21
481.95	12187.17
482.13	12264.41
482.31	12114.61
482.49	12683.36
482.67	12320.58
482.85	12760.60
483.03	12933.80
483.21	12835.50
483.39	13034.44
483.57	13165.51
483.74	13018.06
483.92	13111.68
484.10	12938.48
484.28	13476.80
484.46	13790.44
484.64	13944.91
484.82	13596.17
485.00	13851.29
485.18	14223.44
485.35	14216.41
485.53	14134.50
485.71	14391.95
485.89	14445.79
486.07	14487.92
486.25	14384.93
486.43	14593.24
486.61	14813.25
486.78	14841.34
486.96	15014.54
487.14	15171.35
487.32	15143.27
487.50	15250.93
487.68	15559.88
487.85	15594.99
488.03	15630.10
488.21	16086.50
488.39	16016.29
488.57	15976.50
488.75	16217.57
488.92	16456.31
489.10	16442.26
489.28	16493.76
489.46	16718.45
489.64	16552.27
489.81	17106.98
489.99	16889.31
490.17	17179.53
490.35	17530.61
490.53	17231.02
490.70	17748.28
490.88	17619.55
491.06	17923.82
491.24	17928.50
491.41	17659.34
491.59	18125.11
491.77	18225.75
491.95	18417.68
492.13	18464.49
492.30	18640.03
492.48	18735.99
492.66	18799.18
492.84	18513.64
493.01	19180.69
493.19	18824.93
493.37	19136.22
493.54	19286.01
493.72	19274.31
493.90	19487.30
494.08	19606.67
494.25	19782.21
494.43	19686.25
494.61	20147.33
494.79	19934.34
494.96	20252.66
495.14	20168.40
495.32	20313.51
495.49	20610.76
495.67	20350.96
495.85	20713.74
496.02	20882.26
496.20	21167.80
496.38	21064.82
496.55	20718.42
496.73	21453.35
496.91	21188.87
497.09	21378.45
497.26	21799.75
497.44	21673.36
497.62	21795.07
497.79	22253.81
497.97	21961.25
498.14	22075.93
498.32	22415.31
498.50	22513.61
498.67	22691.49
498.85	22471.48
499.03	22670.43
499.20	22752.35
499.38	22483.19
499.56	22925.55
499.73	23253.22
499.91	23065.98
500.08	23681.54
500.26	22923.21
500.44	23117.47
500.61	23264.92
500.79	23398.34
500.97	23489.62
501.14	24238.59
501.32	23948.36
501.49	23948.36
501.67	24081.77
501.84	24002.19
502.02	24049.00
502.20	24060.71
502.37	24439.87
502.55	24336.89
502.72	24456.26
502.90	24100.50
503.07	24287.74
503.25	24477.32
503.43	24479.66
503.60	24781.59
503.78	24861.17
503.95	25085.86
504.13	25050.75
504.30	25294.17
504.48	24980.54
504.65	25142.03
504.83	25275.45
505.01	25722.49
505.18	25472.05
505.36	25851.22
505.53	25671.00
505.71	25919.09
505.88	25993.99
506.06	25790.36
506.23	26190.59
506.41	25874.62
506.58	25769.30
506.76	26040.80
506.93	26630.62
507.11	26600.19
507.28	26792.11
507.46	26719.56
507.63	26380.18
507.81	26382.52
507.98	26361.45
508.16	26918.50
508.33	26532.31
508.50	27145.53
508.68	27012.12
508.85	27314.05
509.03	26902.12
509.20	27243.84
509.38	27555.13
509.55	27665.13
509.73	27725.99
509.90	27527.04
510.08	27747.05
510.25	27639.39
510.42	27819.61
510.60	28041.96
510.77	27700.24
510.95	28617.73
511.12	28079.41
511.30	28467.94
511.47	28245.58
511.64	28512.41
511.82	28629.43
511.99	28760.50
512.17	28613.05
512.34	29013.28
512.51	28922.00
512.69	29083.50
512.86	28870.51
513.04	29504.79
513.21	29214.57
513.38	29160.73
513.56	29172.44
513.73	29790.34
513.90	29261.38
514.08	29591.39
514.25	29701.40
514.43	29813.74
514.60	29755.23
514.77	29797.36
514.95	29972.90
515.12	30036.09
515.29	29876.94
515.47	30326.32
515.64	29975.24
515.81	30160.14
515.99	30256.11
516.16	30473.78
516.33	30628.25
516.51	30494.84
516.68	30476.12
516.85	30661.02
517.03	30483.14
517.20	31089.34
517.37	30953.58
517.54	31147.85
517.72	31082.31
517.89	30986.35
518.06	31241.47
518.24	31133.81
518.41	31136.15
518.58	31281.26
518.75	31126.78
518.93	31791.50
519.10	31175.94
519.27	32133.21
519.45	31812.56
519.62	31709.58
519.79	31828.95
519.96	31974.06
520.14	32163.64
520.31	31842.99
520.48	31990.44
520.65	32257.26
520.83	32446.85
521.00	32559.19
521.17	32542.81
521.34	32692.60
521.52	32428.12
521.69	32222.16
521.86	32739.41
522.03	32938.36
522.20	33156.03
522.38	32907.93
522.55	33462.64
522.72	33153.69
522.89	32842.40
523.07	33366.68
523.24	33280.08
523.41	33748.18
523.58	32790.91
523.75	33645.20
523.92	33521.15
524.10	33706.05
524.27	33628.82
524.44	33530.51
524.61	33832.44
524.78	33684.99
524.96	34092.24
525.13	33991.60
525.30	34328.64
525.47	34153.10
525.64	34604.82
525.81	34597.80
525.98	34490.13
526.16	34092.24
526.33	34539.29
526.50	34525.24
526.67	34361.40
526.84	34160.12
527.01	34670.36
527.18	34359.06
527.36	34881.00
527.53	34822.49
527.70	34817.81
527.87	35206.34
528.04	34792.06
528.21	35079.95
528.38	35110.38
528.55	35175.91
528.72	35173.57
528.89	35122.08
529.07	34595.46
529.24	35051.86
529.41	35791.47
529.58	35515.29
529.75	35515.29
529.92	35342.09
530.09	35754.02
530.26	35365.49
530.43	35360.81
530.60	35683.81
530.77	35367.84
530.94	35686.15
531.11	35857.01
531.28	35826.58
531.46	35945.95
531.63	36158.94
531.80	35587.85
531.97	36514.70
532.14	35882.75
532.31	36278.30
532.48	36322.77
532.65	36535.76
532.82	36596.62
532.99	36236.17
533.16	36634.06
533.33	36659.81
533.50	36432.78
533.67	36673.85
533.84	36697.26
534.01	36903.23
534.18	36947.70
534.35	36521.72
534.52	36910.25
534.69	37146.64
534.86	37076.43
535.03	36718.32
535.20	37256.65
535.37	37141.96
535.54	37954.13
535.71	37254.31
535.88	37319.84
536.05	37062.38
536.22	37591.34
536.38	37446.23
536.55	37450.91
536.72	37336.23
536.89	37392.40
537.06	37617.09
537.23	37919.02
537.40	37523.47
537.57	37457.93
537.74	37486.02
537.91	37706.03
538.08	37926.04
538.25	37670.92
538.42	38022.00
538.59	37972.85
538.75	37937.74
538.92	38359.04
539.09	38394.15
539.26	38106.26
539.43	38490.11
539.60	38476.07
539.77	38733.53
539.94	38459.68
540.11	38403.51
540.28	38593.09
540.44	38590.75
540.61	38675.01
540.78	38253.72
540.95	38377.76
541.12	38490.11
541.29	38548.62
541.46	39084.61
541.62	39051.84
541.79	38888.00
541.96	38773.31
542.13	38869.28
542.30	38967.58
542.47	39037.80
542.63	39005.03
542.80	39498.88
542.97	39599.52
543.14	39536.33
543.31	39257.81
543.48	39421.64
543.64	39931.88
543.81	40006.78
543.98	39901.45
544.15	39910.82
544.32	39721.23
544.48	39840.60
544.65	39541.01
544.82	40151.89
544.99	39995.07
545.16	39765.70
545.32	39927.20
545.49	40259.55
545.66	40058.27
545.83	40189.34
546.00	40011.46
546.16	40519.35
546.33	40517.01
546.50	40275.94
546.67	40421.05
546.83	39976.35
547.00	40467.86
547.17	40107.42
547.34	40275.94
547.50	40435.10
547.67	40416.37
547.84	40697.24
548.00	41001.50
548.17	41310.46
548.34	41132.57
548.51	40889.16
548.67	40762.77
548.84	41125.55
549.01	40760.43
549.18	40645.74
549.34	41125.55
549.51	41083.42
549.68	40828.30
549.84	40919.59
550.01	41422.80
550.18	40877.46
550.34	41277.69
550.51	41251.94
550.68	41322.16
550.84	40919.59
551.01	41544.51
551.18	41036.61
551.34	41387.69
551.51	41336.20
551.68	41411.10
551.84	41507.06
552.01	41481.31
552.18	41408.76
552.34	41394.71
552.51	41869.84
552.68	41553.87
552.84	41347.90
553.01	41687.28
553.18	41736.43
553.34	41855.80
553.51	41682.60
553.67	41949.42
553.84	42108.58
554.01	42092.19
554.17	42014.96
554.34	42244.33
554.51	42031.34
554.67	42293.48
554.84	42113.26
555.00	41935.38
555.17	42321.57
555.33	42368.38
555.50	41970.49
555.67	42153.05
555.83	42227.95
556.00	42197.52
556.16	42745.20
556.33	42632.86
556.50	42714.78
556.66	42445.62
556.83	42040.70
556.99	42749.88
557.16	42803.72
557.32	42724.14
557.49	42920.74
557.65	42337.95
557.82	42454.98
557.98	42342.63
558.15	42471.36
558.32	42522.85
558.48	42735.84
558.65	42810.74
558.81	42857.55
558.98	42733.50
559.14	42831.80
559.31	42656.26
559.47	42927.77
559.64	42967.55
559.80	42951.17
559.97	43035.43
560.13	42504.13
560.30	42438.59
560.46	43400.55
560.63	42990.96
560.79	42997.98
560.96	43604.18
561.12	43709.50
561.29	43201.61
561.45	43442.68
561.61	43377.15
561.78	43192.25
561.94	43131.39
562.11	43070.54
562.27	43583.12
562.44	43281.19
562.60	43468.43
562.77	43199.27
562.93	43402.89
563.10	43784.40
563.26	43466.09
563.42	43784.40
563.59	43283.53
563.75	43019.05
563.92	43634.61
564.08	43089.26
564.24	43744.61
564.41	43374.81
564.57	43660.35
564.74	43812.49
564.90	43728.23
565.07	43391.19
565.23	43604.18
565.39	43653.33
565.56	43597.16
565.72	43674.40
565.88	43517.58
566.05	43824.19
566.21	43892.07
566.38	43702.48
566.54	43981.01
566.70	43899.09
566.87	43650.99
567.03	43709.50
567.19	43948.24
567.36	43835.89
567.52	43828.87
567.68	44341.45
567.85	43566.73
568.01	44006.75
568.17	43711.84
568.34	43978.67
568.50	44304.00
568.66	43863.98
568.83	44023.14
568.99	44154.21
569.15	43957.60
569.32	43908.45
569.48	43725.89
569.64	44411.67
569.81	43882.70
569.97	43845.26
570.13	44418.69
570.30	43866.32
570.46	44165.91
570.62	44053.56
570.78	44053.56
570.95	44100.37
571.11	44367.20
571.27	43812.49
571.43	43936.54
571.60	44126.12
571.76	44177.61
571.92	44123.78
572.09	44037.18
572.25	44133.14
572.41	43938.88
572.57	44184.63
572.74	44758.06
572.90	44189.31
573.06	43981.01
573.22	44514.65
573.38	44685.51
573.55	44336.77
573.71	44741.68
573.87	44121.44
574.03	44341.45
574.20	44727.64
574.36	44662.10
574.52	44563.80
574.68	44369.54
574.84	44657.42
575.01	44584.86
575.17	44566.14
575.33	44432.73
575.49	44584.86
575.65	44554.44
575.82	44257.19
575.98	44158.89
576.14	44694.87
576.30	44634.02
576.46	44790.83
576.62	44055.90
576.79	44421.03
576.95	43882.70
577.11	44608.27
577.27	44772.11
577.43	44830.62
577.59	44669.12
577.75	44526.35
577.92	44048.88
578.08	44666.78
578.24	44439.75
578.40	44629.34
578.56	44683.17
578.72	44507.63
578.88	44828.28
579.04	44547.42
579.21	44877.43
579.37	44619.97
579.53	45141.91
579.69	44814.24
579.85	44289.96
580.01	44933.60
580.17	44470.18
580.33	44830.62
580.49	45064.67
580.65	44762.75
580.82	44645.72
580.98	44184.63
581.14	44456.14
581.30	44844.66
581.46	44203.36
581.62	44652.74
581.78	44959.35
581.94	44847.00
582.10	45010.84
582.26	44762.75
582.42	44680.83
582.58	44886.79
582.74	44807.22
582.90	45071.70
583.06	44800.19
583.22	44563.80
583.38	45074.04
583.54	44985.10
583.70	45202.77
583.86	44842.32
584.02	44603.59
584.18	45177.02
584.34	44729.98
584.50	45160.64
584.66	45078.72
584.82	44928.92
584.98	45371.28
585.14	44765.09
585.30	44615.29
585.46	45052.97
585.62	44807.22
585.78	44720.62
585.94	44538.05
586.10	44580.18
586.26	44734.66
586.42	45095.10
586.58	44994.46
586.74	44992.12
586.90	44903.18
587.06	44933.60
587.22	45109.14
587.38	44514.65
587.54	45013.18
587.70	45385.33
587.86	44760.40
588.02	44711.25
588.18	44776.79
588.34	45240.21
588.49	45109.14
588.65	45195.74
588.81	44715.93
588.97	45045.95
589.13	45200.43
589.29	45184.04
589.45	45338.52
589.61	45233.19
589.77	45329.16
589.93	45010.84
590.08	45390.01
590.24	44999.14
