SpectraSuite Data File
++++++++++++++++++++++++++++++++++++
Date: Fri Oct 25 11:25:46 EDT 2013
User: price-jones
Dark Spectrum Present: No
Reference Spectrum Present: No
Number of Sampled Component Spectra: 1
Spectrometers: USB2+H05261
Integration Time (usec): 100000 (USB2+H05261)
Spectra Averaged: 1 (USB2+H05261)
Boxcar Smoothing: 0 (USB2+H05261)
Correct for Electrical Dark: No (USB2+H05261)
Strobe/Lamp Enabled: No (USB2+H05261)
Correct for Detector Non-linearity: No (USB2+H05261)
Correct for Stray Light: No (USB2+H05261)
Number of Pixels in Processed Spectrum: 2048
>>>>>Begin Processed Spectral Data<<<<<
365.73	294.91
365.92	294.91
366.12	294.91
366.32	105.32
366.52	126.39
366.72	154.48
366.91	201.29
367.11	170.86
367.31	168.52
367.51	117.03
367.70	133.41
367.90	138.09
368.10	140.43
368.30	114.69
368.49	121.71
368.69	182.56
368.89	112.35
369.09	163.84
369.28	140.43
369.48	170.86
369.68	238.73
369.87	194.26
370.07	208.31
370.27	231.71
370.47	374.49
370.66	599.18
370.86	629.60
371.06	704.50
371.25	681.10
371.45	645.99
371.65	709.18
371.84	678.76
372.04	657.69
372.24	732.59
372.44	763.01
372.63	716.20
372.83	753.65
373.03	674.07
373.22	772.38
373.42	791.10
373.62	823.87
373.81	795.78
374.01	884.72
374.21	774.72
374.40	791.10
374.60	802.80
374.79	688.12
374.99	819.19
375.19	812.17
375.38	840.25
375.58	851.96
375.78	814.51
375.97	844.93
376.17	971.32
376.37	866.00
376.56	922.17
376.76	887.06
376.95	840.25
377.15	863.66
377.35	823.87
377.54	926.85
377.74	924.51
377.93	882.38
378.13	891.74
378.33	908.13
378.52	1032.18
378.72	950.26
378.91	1048.56
379.11	936.21
379.31	889.40
379.50	1004.09
379.70	1029.84
379.89	1020.47
380.09	957.28
380.28	990.05
380.48	999.41
380.68	997.07
380.87	933.87
381.07	943.24
381.26	1064.94
381.46	966.64
381.65	1013.45
381.85	945.58
382.04	1036.86
382.24	1004.09
382.43	1071.97
382.63	1053.24
382.83	1062.60
383.02	1163.25
383.22	1104.73
383.41	1095.37
383.61	1114.10
383.80	1048.56
384.00	1114.10
384.19	1074.31
384.39	1078.99
384.58	1088.35
384.78	1111.75
384.97	1111.75
385.17	1090.69
385.36	1196.01
385.56	1205.38
385.75	1177.29
385.95	1074.31
386.14	1151.54
386.34	1170.27
386.53	1160.91
386.72	1203.04
386.92	1242.82
387.11	1299.00
387.31	1287.29
387.50	1240.48
387.70	1301.34
387.89	1270.91
388.09	1291.98
388.28	1217.08
388.48	1210.06
388.67	1371.55
388.86	1294.32
389.06	1306.02
389.25	1263.89
389.45	1378.58
389.64	1186.65
389.84	1331.76
390.03	1378.58
390.22	1383.26
390.42	1341.13
390.61	1390.28
390.81	1350.49
391.00	1380.92
391.19	1486.24
391.39	1434.75
391.58	1416.02
391.78	1490.92
391.97	1462.83
392.16	1444.11
392.36	1416.02
392.55	1542.41
392.75	1582.20
392.94	1586.88
393.13	1514.33
393.33	1474.54
393.52	1488.58
393.71	1432.41
393.91	1575.18
394.10	1526.03
394.29	1542.41
394.49	1565.82
394.68	1629.01
394.88	1614.97
395.07	1633.69
395.26	1659.44
395.46	1577.52
395.65	1701.57
395.84	1678.16
396.04	1666.46
396.23	1685.19
396.42	1638.38
396.62	1722.63
396.81	1692.21
397.00	1774.13
397.19	1827.96
397.39	1767.10
397.58	1870.09
397.77	1795.19
397.97	1834.98
398.16	1748.38
398.35	1926.26
398.55	1895.83
398.74	1858.39
398.93	1895.83
399.12	1942.64
399.32	1877.11
399.51	1935.62
399.70	2031.58
399.90	1921.58
400.09	1886.47
400.28	2012.86
400.47	1980.09
400.67	2043.29
400.86	2073.71
401.05	2064.35
401.24	2029.24
401.44	2101.80
401.63	2073.71
401.82	2132.23
402.01	2132.23
402.21	2104.14
402.40	2195.42
402.59	2167.34
402.78	2249.25
402.97	2235.21
403.17	2291.38
403.36	2218.83
403.55	2331.17
403.74	2312.45
403.93	2389.69
404.13	2319.47
404.32	2387.35
404.51	2303.09
404.70	2366.28
404.89	2427.14
405.09	2436.50
405.28	2413.09
405.47	2410.75
405.66	2408.41
405.85	2464.58
406.05	2590.97
406.24	2464.58
406.43	2434.16
406.62	2523.10
406.81	2665.87
407.00	2532.46
407.20	2593.31
407.39	2602.68
407.58	2612.04
407.77	2647.15
407.96	2719.70
408.15	2710.34
408.34	2693.96
408.54	2771.19
408.73	2855.45
408.92	2918.65
409.11	2874.18
409.30	2799.28
409.49	2785.24
409.68	2939.71
409.87	2944.39
410.07	2937.37
410.26	3007.59
410.45	2988.86
410.64	2963.12
410.83	3091.85
411.02	3098.87
411.21	3101.21
411.40	3307.18
411.59	3152.70
411.78	3157.38
411.98	3199.51
412.17	3227.60
412.36	3258.03
412.55	3384.41
412.74	3297.81
412.93	3400.80
413.12	3300.16
413.31	3463.99
413.50	3536.55
413.69	3438.25
413.88	3665.28
414.07	3534.21
414.26	3538.89
414.45	3625.49
414.64	3641.87
414.83	3707.41
415.02	3786.99
415.22	3786.99
415.41	3840.82
415.60	3840.82
415.79	3871.25
415.98	3815.07
416.17	3915.72
416.36	4004.66
416.55	3974.23
416.74	4138.07
416.93	4023.38
417.12	4028.06
417.31	4177.86
417.50	4100.62
417.69	4184.88
417.88	4329.99
418.07	4065.51
418.26	4100.62
418.45	4217.65
418.64	4315.95
418.83	4299.56
419.02	4486.81
419.21	4550.00
419.39	4383.82
419.58	4468.08
419.77	4472.76
419.96	4484.47
420.15	4648.30
420.34	4578.09
420.53	4533.62
420.72	4498.51
420.91	4655.33
421.10	4629.58
421.29	4812.14
421.48	4732.56
421.67	4629.58
421.86	4704.48
422.05	4716.18
422.24	4828.53
422.43	4901.08
422.61	4933.85
422.80	5043.85
422.99	4779.37
423.18	4882.36
423.37	4985.34
423.56	4870.65
423.75	4908.10
423.94	4807.46
424.13	4730.22
424.32	4702.14
424.50	5011.09
424.69	5083.64
424.88	4975.98
425.07	4997.04
425.26	5011.09
425.45	4805.12
425.64	4777.03
425.83	4816.82
426.01	5231.10
426.20	4931.51
426.39	5050.88
426.58	4896.40
426.77	5156.20
426.96	4950.23
427.15	5071.94
427.33	5247.48
427.52	5158.54
427.71	5341.10
427.90	5128.11
428.09	5198.33
428.28	5298.97
428.46	5322.38
428.65	5392.59
428.84	5483.88
429.03	5542.39
429.22	5345.78
429.40	5378.55
429.59	5479.19
429.78	5343.44
429.97	5324.72
430.16	5275.57
430.34	5628.99
430.53	5764.74
430.72	5696.86
430.91	5610.26
431.10	5736.65
431.28	5753.04
431.47	5715.59
431.66	5636.01
431.85	5687.50
432.03	5788.14
432.22	5933.26
432.41	5846.66
432.60	5790.49
432.79	5792.83
432.97	5991.77
433.16	5900.49
433.35	5769.42
433.54	5987.09
433.72	6139.23
433.91	5900.49
434.10	6157.95
434.28	5893.47
434.47	6179.01
434.66	6139.23
434.85	6211.78
435.03	6410.73
435.22	6162.63
435.41	6380.30
435.59	6368.60
435.78	6422.43
435.97	6305.40
436.16	6244.55
436.34	6251.57
436.53	6464.56
436.72	6544.14
436.90	6333.49
437.09	6719.68
437.28	6333.49
437.46	6478.60
437.65	6679.89
437.84	6602.65
438.02	6600.31
438.21	6747.76
438.40	6747.76
438.58	6909.26
438.77	7023.95
438.96	6979.48
439.14	6927.99
439.33	7173.74
439.52	6998.20
439.70	7269.70
439.89	7384.39
440.08	7143.32
440.26	7115.23
440.45	7335.24
440.63	7517.80
440.82	7377.37
441.01	7253.32
441.19	7499.08
441.38	7681.64
441.57	7641.85
441.75	7765.90
441.94	7798.66
442.12	7744.83
442.31	8102.93
442.50	7934.42
442.68	8016.33
442.87	7918.03
443.05	8140.38
443.24	7988.25
443.43	8060.80
443.61	8046.76
443.80	8257.41
443.98	7974.21
444.17	7702.70
444.35	8224.64
444.54	8442.31
444.73	8236.35
444.91	8168.47
445.10	8414.23
445.28	8252.73
445.47	8175.49
445.65	8063.15
445.84	8374.44
446.02	8271.45
446.21	8451.67
446.39	8552.32
446.58	8437.63
446.77	8325.29
446.95	8271.45
447.14	8416.57
447.32	8454.02
447.51	8477.42
447.69	8435.29
447.88	8449.33
448.06	8388.48
448.25	8404.86
448.43	8641.26
448.62	8491.46
448.80	8573.38
448.99	8606.15
449.17	8678.71
449.36	8685.73
449.54	8905.74
449.73	8875.31
449.91	8889.35
450.10	8777.01
450.28	8980.64
450.46	9020.42
450.65	9032.13
450.83	9048.51
451.02	9041.49
451.20	9163.20
451.39	9128.09
451.57	9071.92
451.76	9139.79
451.94	9116.39
452.13	9324.69
452.31	9336.40
452.49	9123.41
452.68	9387.89
452.86	9231.07
453.05	9451.08
453.23	9397.25
453.42	9221.71
453.60	9366.82
453.78	9570.45
453.97	9406.61
454.15	9357.46
454.34	9280.22
454.52	9755.35
454.70	9659.39
454.89	9657.05
455.07	9767.06
455.26	9715.56
455.44	9825.57
455.62	9891.10
455.81	9820.89
455.99	9827.91
456.17	9802.16
456.36	9846.63
456.54	9996.43
456.73	10265.59
456.91	10413.04
457.09	10242.18
457.28	10326.44
457.46	10169.63
457.64	10576.88
457.83	10445.81
458.01	10134.52
458.19	10775.83
458.38	10399.00
458.56	10609.65
458.74	10710.29
458.93	10710.29
459.11	10471.56
459.29	10637.73
459.48	10471.56
459.66	10593.26
459.84	10815.62
460.03	10768.80
460.21	10890.51
460.39	10937.32
460.57	10958.39
460.76	11059.03
460.94	10902.22
461.12	10909.24
461.31	11248.61
461.49	10927.96
461.67	11023.92
461.85	11304.79
462.04	11274.36
462.22	11386.71
462.40	11431.18
462.59	11541.18
462.77	11419.47
462.95	11442.88
463.13	11442.88
463.32	11583.31
463.50	11466.28
463.68	11583.31
463.86	11573.95
464.05	11564.59
464.23	11414.79
464.41	11817.36
464.59	11470.97
464.78	12023.33
464.96	11995.25
465.14	11866.52
465.32	12009.29
465.50	11922.69
465.69	11983.54
465.87	12100.57
466.05	11985.88
466.23	12285.47
466.41	11913.33
466.60	12304.20
466.78	12238.66
466.96	12294.83
467.14	12182.49
467.32	12334.62
467.51	12540.59
467.69	11854.81
467.87	12257.39
468.05	12718.47
468.23	12556.97
468.41	12358.03
468.60	12540.59
468.78	12531.23
468.96	12463.35
469.14	12723.15
469.32	12844.86
469.50	12889.33
469.69	12954.87
469.87	13029.76
470.05	12821.45
470.23	12926.78
470.41	13301.26
470.59	13198.28
470.77	12870.61
470.95	13188.92
471.14	13429.99
471.32	13083.59
471.50	13453.40
471.68	13500.21
471.86	13619.58
472.04	13652.34
472.22	13942.57
472.40	13764.69
472.58	13912.14
472.77	13769.37
472.95	14054.92
473.13	14305.35
473.31	13982.36
473.49	14057.26
473.67	14242.16
473.85	14101.73
474.03	14476.21
474.21	14319.40
474.39	14890.49
474.57	14640.05
474.75	14909.21
474.93	14642.39
475.12	14881.13
475.30	15087.09
475.48	14918.57
475.66	15192.42
475.84	14806.23
476.02	15152.63
476.20	15180.71
476.38	15625.42
476.56	15674.57
476.74	15594.99
476.92	15623.08
477.10	15798.62
477.28	16156.72
477.46	16119.27
477.64	16271.40
477.82	16135.65
478.00	16739.51
478.18	16594.40
478.36	16713.77
478.54	16992.29
478.72	17034.42
478.90	17221.66
479.08	17502.53
479.26	17472.10
479.44	17657.00
479.62	17694.45
479.80	17657.00
479.98	17961.27
480.16	18499.59
480.34	18314.69
480.52	18181.28
480.70	18349.80
480.88	18267.88
481.06	18743.01
481.24	18731.31
481.41	18897.49
481.59	19159.63
481.77	19342.19
481.95	19314.10
482.13	19817.32
482.31	19599.65
482.49	20262.02
482.67	20149.67
482.85	20346.28
483.03	20503.09
483.21	20491.39
483.39	20868.22
483.57	20936.09
483.74	21188.87
483.92	21184.19
484.10	20903.32
484.28	21118.65
484.46	22001.04
484.64	22104.02
484.82	21965.93
485.00	22335.73
485.18	22679.79
485.35	22785.12
485.53	22600.21
485.71	22773.41
485.89	23442.81
486.07	23332.80
486.25	23185.35
486.43	23197.05
486.61	23660.48
486.78	23896.87
486.96	23709.63
487.14	24451.58
487.32	24402.43
487.50	24683.29
487.68	24769.89
487.85	24844.79
488.03	24992.24
488.21	25523.54
488.39	25458.01
488.57	25926.11
488.75	25965.90
488.92	26024.42
489.10	26396.56
489.28	26799.13
489.46	27058.93
489.64	27023.83
489.81	27421.72
489.99	27477.89
490.17	27276.60
490.35	27672.15
490.53	27983.44
490.70	28039.62
490.88	27955.36
491.06	28758.16
491.24	28472.62
491.41	28842.42
491.59	28889.23
491.77	28819.02
491.95	29404.15
492.13	29371.38
492.30	29755.23
492.48	29621.82
492.66	29788.00
492.84	30167.16
493.01	30103.97
493.19	30382.49
493.37	30677.40
493.54	31096.36
493.72	31377.22
493.90	31171.25
494.08	31466.16
494.25	31796.18
494.43	31597.23
494.61	31810.22
494.79	32135.56
494.96	32531.11
495.14	32430.46
495.32	32355.57
495.49	33106.88
495.67	33097.52
495.85	33415.83
496.02	33434.55
496.20	33837.12
496.38	33890.96
496.55	34117.99
496.73	34550.99
496.91	34136.71
497.09	34642.27
497.26	34906.75
497.44	34756.96
497.62	35173.57
497.79	35632.32
497.97	35297.62
498.14	35812.54
498.32	35835.94
498.50	35754.02
498.67	36301.71
498.85	36425.76
499.03	36418.74
499.20	36402.35
499.38	36407.03
499.56	36807.26
499.73	36554.49
499.91	36905.57
500.08	37177.07
500.26	37366.65
500.44	37270.69
500.61	37132.60
500.79	37542.19
500.97	37771.57
501.14	38106.26
501.32	37956.47
501.49	38146.05
501.67	38623.52
501.84	38513.52
502.02	38513.52
502.20	38518.20
502.37	38953.54
502.55	39056.52
502.72	39447.39
502.90	39077.58
503.07	39438.03
503.25	39864.00
503.43	39489.52
503.60	39229.72
503.78	39665.06
503.95	40069.97
504.13	40301.68
504.30	40418.71
504.48	39964.65
504.65	41020.23
504.83	40442.12
505.01	41200.45
505.18	41188.75
505.36	41223.86
505.53	40781.49
505.71	41067.04
505.88	41642.81
506.06	41191.09
506.23	41457.91
506.41	41340.88
506.58	42103.90
506.76	42155.39
506.93	42567.32
507.11	42293.48
507.28	42288.80
507.46	42799.04
507.63	42611.79
507.81	42693.71
507.98	42995.64
508.16	42852.87
508.33	42899.68
508.50	43180.54
508.68	43297.57
508.85	43599.50
509.03	43449.70
509.20	43236.72
509.38	44027.82
509.55	43845.26
509.73	44116.76
509.90	44083.99
510.08	43779.72
510.25	44198.68
510.42	44652.74
510.60	44847.00
510.77	45275.32
510.95	44968.71
511.12	44914.88
511.30	45263.62
511.47	45209.79
511.64	45308.09
511.82	45090.42
511.99	45720.02
512.17	45794.92
512.34	45689.60
512.51	46176.43
512.69	46129.62
512.86	46064.08
513.04	46260.69
513.21	46412.82
513.38	46155.36
513.56	46916.04
513.73	46431.55
513.90	46494.74
514.08	46412.82
514.25	46990.94
514.43	47384.15
514.60	46930.08
514.77	47306.91
514.95	47234.35
515.12	47164.14
515.29	47384.15
515.47	47643.94
515.64	48041.84
515.81	47398.19
515.99	48442.07
516.16	47838.21
516.33	48226.74
516.51	48098.01
516.68	48004.39
516.85	48381.21
517.03	48327.38
517.20	48521.65
517.37	48619.95
517.54	48479.52
517.72	48341.42
517.89	48587.18
518.06	48964.01
518.24	49181.68
518.41	48999.12
518.58	49169.97
518.75	48767.40
518.93	49612.34
519.10	49041.24
519.27	49624.04
519.45	49415.73
519.62	49570.21
519.79	49523.40
519.96	49640.42
520.14	49645.10
520.31	49771.49
520.48	50082.78
520.65	50122.57
520.83	50356.63
521.00	50468.97
521.17	50487.70
521.34	50564.93
521.52	50326.20
521.69	50726.43
521.86	50588.34
522.03	51028.36
522.20	51234.33
522.38	51283.48
522.55	51285.82
522.72	50923.04
522.89	51026.02
523.07	51433.27
523.24	51112.62
523.41	51498.81
523.58	51292.84
523.75	51463.70
523.92	51227.31
524.10	51882.66
524.27	51852.23
524.44	51819.46
524.61	51688.39
524.78	52362.46
524.96	52011.38
525.13	52093.30
525.30	52329.70
525.47	52409.28
525.64	52027.77
525.81	52395.23
525.98	52376.51
526.16	52411.62
526.33	52243.10
526.50	53137.18
526.67	52477.15
526.84	52772.06
527.01	52460.77
527.18	52811.85
527.36	52582.48
527.53	52823.55
527.70	52891.43
527.87	53132.50
528.04	52540.35
528.21	53015.47
528.38	53169.95
528.55	53361.87
528.72	53261.23
528.89	53308.04
529.07	53139.52
529.24	53251.87
529.41	53478.90
529.58	53368.90
529.75	53572.52
529.92	53703.59
530.09	53710.61
530.26	53591.25
530.43	53834.66
530.60	53654.44
530.77	53689.55
530.94	53879.13
531.11	53738.70
531.28	53523.37
531.46	53862.75
531.63	54071.06
531.80	54176.38
531.97	54129.57
532.14	54351.92
532.31	54328.52
532.48	54457.24
532.65	54181.06
532.82	54211.49
532.99	54419.80
533.16	54300.43
533.33	54726.41
533.50	54553.21
533.67	54457.24
533.84	54408.09
534.01	54616.40
534.18	54422.14
534.35	55044.72
534.52	54951.10
534.69	54941.74
534.86	54990.89
535.03	54602.36
535.20	54941.74
535.37	54951.10
535.54	55110.25
535.71	55018.97
535.88	55320.90
536.05	55194.51
536.22	55468.36
536.38	55309.20
536.55	55529.21
536.72	55456.65
536.89	55271.75
537.06	55215.58
537.23	55487.08
537.40	55157.06
537.57	55552.62
537.74	55316.22
537.91	55618.15
538.08	55707.09
538.25	55274.09
538.42	55597.09
538.59	55828.80
538.75	55529.21
538.92	55917.74
539.09	56133.07
539.26	55847.52
539.43	56076.90
539.60	56037.11
539.77	55964.55
539.94	56126.05
540.11	56154.13
540.28	56039.45
540.44	56133.07
540.61	56144.77
540.78	56144.77
540.95	56236.05
541.12	56119.02
541.29	56371.80
541.46	56362.44
541.62	56214.99
541.79	56640.96
541.96	56170.52
542.13	56390.53
542.30	56381.16
542.47	56652.67
542.63	56821.19
542.80	56704.16
542.97	56839.91
543.14	56875.02
543.31	56961.62
543.48	56980.34
543.64	57382.91
543.81	56928.85
543.98	57195.67
544.15	56980.34
544.32	57361.85
544.48	57436.75
544.65	57275.25
544.82	57130.14
544.99	57165.24
545.16	57310.36
545.32	57450.79
545.49	57537.39
545.66	57659.10
545.83	57558.45
546.00	57492.92
546.16	57439.09
546.33	57357.17
546.50	57219.08
546.67	57623.99
546.83	57425.04
547.00	57275.25
547.17	57525.69
547.34	57689.52
547.50	57865.06
547.67	57647.39
547.84	57609.95
548.00	57949.32
548.17	57829.96
548.34	57909.53
548.51	57841.66
548.67	57961.03
548.84	57977.41
549.01	57984.43
549.18	57928.26
549.34	58117.84
549.51	58176.36
549.68	58248.91
549.84	58197.42
550.01	58267.64
550.18	58134.23
550.34	58267.64
550.51	58379.98
550.68	58244.23
550.84	58185.72
551.01	58082.73
551.18	58323.81
551.34	58284.02
551.51	58211.46
551.68	58459.56
551.84	58515.73
552.01	58279.34
552.18	58475.94
552.34	58277.00
552.51	58658.51
552.68	58358.92
552.84	58185.72
553.01	58663.19
553.18	58667.87
553.34	58775.53
553.51	58557.86
553.67	58546.16
553.84	58857.45
554.01	58859.79
554.17	58691.27
554.34	58724.04
554.51	58976.82
554.67	58908.94
554.84	58791.92
555.00	58635.10
555.17	58906.60
555.33	58827.02
555.50	58735.74
555.67	58827.02
555.83	58679.57
556.00	58939.37
556.16	59161.72
556.33	59126.61
556.50	59032.99
556.66	59138.32
556.83	58986.18
556.99	59194.49
557.16	59503.44
557.32	59360.67
557.49	59559.61
557.65	59014.27
557.82	59194.49
557.98	59035.33
558.15	59274.07
558.32	59405.14
558.48	59309.18
558.65	59517.48
558.81	59215.55
558.98	59339.60
559.14	59367.69
559.31	59543.23
559.47	59458.97
559.64	59281.09
559.80	59618.13
559.97	59568.97
560.13	59346.62
560.30	59627.49
560.46	59508.12
560.63	59767.92
560.79	59629.83
560.96	59718.77
561.12	59494.08
561.29	59784.30
561.45	59625.15
561.61	59840.48
561.78	59442.59
561.94	59524.50
562.11	59646.21
562.27	59796.01
562.44	59922.40
562.60	59732.81
562.77	59678.98
562.93	59622.81
563.10	59693.02
563.26	59817.07
563.42	59929.42
563.59	59781.96
563.75	59896.65
563.92	59709.41
564.08	59835.80
564.24	59920.05
564.41	59882.61
564.57	60104.96
564.74	60044.10
564.90	59971.55
565.07	59917.71
565.23	60018.36
565.39	59833.46
565.56	60006.65
565.72	60111.98
565.88	59955.16
566.05	59992.61
566.21	60006.65
566.38	60081.55
566.54	60072.19
566.70	60186.88
566.87	60177.51
567.03	60018.36
567.19	60240.71
567.36	60212.62
567.52	60111.98
567.68	60177.51
567.85	60315.61
568.01	60367.10
568.17	60268.79
568.34	60189.22
568.50	60119.00
568.66	60154.11
568.83	60324.97
568.99	60247.73
569.15	60423.27
569.32	60198.58
569.48	60198.58
569.64	60542.64
569.81	60301.56
569.97	60048.78
570.13	60175.17
570.30	60069.85
570.46	60261.77
570.62	60346.03
570.78	60362.42
570.95	60240.71
571.11	60420.93
571.27	60409.23
571.43	60214.96
571.60	60317.95
571.76	60367.10
571.92	60427.95
572.09	60362.42
572.25	60467.74
572.41	60409.23
572.57	60430.29
572.74	60495.83
572.90	60495.83
573.06	60516.89
573.22	60512.21
573.38	60460.72
573.55	60402.21
573.71	60624.56
573.87	60610.51
574.03	60486.46
574.20	60420.93
574.36	60390.50
574.52	60542.64
574.68	60598.81
574.84	60694.77
575.01	60626.90
575.17	60552.00
575.33	60563.70
575.49	60369.44
575.65	60446.68
575.82	60727.54
575.98	60622.22
576.14	60456.04
576.30	60626.90
576.46	60584.77
576.62	60631.58
576.79	60533.28
576.95	60434.97
577.11	60673.71
577.27	60750.94
577.43	60603.49
577.59	60722.86
577.75	60395.18
577.92	60432.63
578.08	60535.62
578.24	60465.40
578.40	60711.16
578.56	60858.61
578.72	60874.99
578.88	60846.91
579.04	60753.29
579.21	60556.68
579.37	60755.63
579.53	60580.09
579.69	60390.50
579.85	60500.51
580.01	60509.87
580.17	60807.12
580.33	60676.05
580.49	60636.26
580.65	60542.64
580.82	60835.20
580.98	60753.29
581.14	60605.83
581.30	60940.53
581.46	60664.35
581.62	60666.69
581.78	60566.04
581.94	60968.61
582.10	60481.78
582.26	60699.45
582.42	60842.23
582.58	60900.74
582.74	60774.35
582.90	60636.26
583.06	60685.41
583.22	60725.20
583.38	60725.20
583.54	60626.90
583.70	60779.03
583.86	60903.08
584.02	60757.97
584.18	60708.82
584.34	60647.96
584.50	60886.70
584.66	60795.42
584.82	60832.86
584.98	60907.76
585.14	60816.48
585.30	60732.22
585.46	60865.63
585.62	60753.29
585.78	61186.28
585.94	60645.62
586.10	60853.93
586.26	60647.96
586.42	61104.37
586.58	60725.20
586.74	60811.80
586.90	60743.92
587.06	60809.46
587.22	60942.87
587.38	60757.97
587.54	61006.06
587.70	60938.19
587.86	60919.46
588.02	60795.42
588.18	61003.72
588.34	60879.67
588.49	61090.32
