SpectraSuite Data File
++++++++++++++++++++++++++++++++++++
Date: Fri Oct 25 10:44:37 EDT 2013
User: price-jones
Dark Spectrum Present: No
Reference Spectrum Present: No
Number of Sampled Component Spectra: 1
Spectrometers: USB2+H05261
Integration Time (usec): 100000 (USB2+H05261)
Spectra Averaged: 1 (USB2+H05261)
Boxcar Smoothing: 0 (USB2+H05261)
Correct for Electrical Dark: No (USB2+H05261)
Strobe/Lamp Enabled: No (USB2+H05261)
Correct for Detector Non-linearity: No (USB2+H05261)
Correct for Stray Light: No (USB2+H05261)
Number of Pixels in Processed Spectrum: 2048
>>>>>Begin Processed Spectral Data<<<<<
365.73	84.26
365.92	84.26
366.12	84.26
366.32	86.60
366.52	140.43
366.72	23.41
366.91	0.00
367.11	93.62
367.31	0.00
367.51	0.00
367.70	9.36
367.90	91.28
368.10	0.00
368.30	37.45
368.49	32.77
368.69	51.49
368.89	14.04
369.09	42.13
369.28	46.81
369.48	60.85
369.68	79.58
369.87	84.26
370.07	117.03
370.27	135.75
370.47	203.63
370.66	353.42
370.86	327.68
371.06	528.96
371.25	491.51
371.45	400.23
371.65	430.66
371.84	402.57
372.04	461.09
372.24	486.83
372.44	444.70
372.63	519.60
372.83	507.90
373.03	461.09
373.22	397.89
373.42	451.72
373.62	505.56
373.81	517.26
374.01	526.62
374.21	512.58
374.40	564.07
374.60	599.18
374.79	524.28
374.99	547.69
375.19	550.03
375.38	524.28
375.58	533.64
375.78	552.37
375.97	685.78
376.17	657.69
376.37	566.41
376.56	561.73
376.76	571.09
376.95	496.19
377.15	596.84
377.35	559.39
377.54	608.54
377.74	564.07
377.93	601.52
378.13	645.99
378.33	624.92
378.52	638.97
378.72	622.58
378.91	671.73
379.11	645.99
379.31	566.41
379.50	692.80
379.70	699.82
379.89	608.54
380.09	631.94
380.28	648.33
380.48	622.58
380.68	629.60
380.87	730.25
381.07	702.16
381.26	638.97
381.46	718.54
381.65	716.20
381.85	608.54
382.04	664.71
382.24	685.78
382.43	669.39
382.63	620.24
382.83	692.80
383.02	716.20
383.22	711.52
383.41	748.97
383.61	704.50
383.80	648.33
384.00	723.23
384.19	779.40
384.39	725.57
384.58	770.04
384.78	674.07
384.97	741.95
385.17	765.36
385.36	753.65
385.56	734.93
385.75	748.97
385.95	706.84
386.14	819.19
386.34	737.27
386.53	763.01
386.72	805.14
386.92	828.55
387.11	772.38
387.31	929.19
387.50	828.55
387.70	786.42
387.89	802.80
388.09	767.70
388.28	786.42
388.48	739.61
388.67	882.38
388.86	833.23
389.06	926.85
389.25	873.02
389.45	809.83
389.64	791.10
389.84	999.41
390.03	849.61
390.22	877.70
390.42	910.47
390.61	987.71
390.81	940.90
391.00	973.66
391.19	1027.50
391.39	947.92
391.58	912.81
391.78	1006.43
391.97	933.87
392.16	894.08
392.36	1013.45
392.55	1006.43
392.75	908.13
392.94	976.00
393.13	880.04
393.33	966.64
393.52	1004.09
393.71	1093.03
393.91	1032.18
394.10	945.58
394.29	1015.79
394.49	1071.97
394.68	1104.73
394.88	1062.60
395.07	1158.57
395.26	1107.07
395.46	1095.37
395.65	1128.14
395.84	1118.78
396.04	1167.93
396.23	1109.41
396.42	1118.78
396.62	1219.42
396.81	1114.10
397.00	1118.78
397.19	1221.76
397.39	1210.06
397.58	1160.91
397.77	1212.40
397.97	1228.78
398.16	1273.25
398.35	1350.49
398.55	1245.16
398.74	1345.81
398.93	1401.98
399.12	1411.34
399.32	1371.55
399.51	1371.55
399.70	1331.76
399.90	1322.40
400.09	1453.47
400.28	1420.71
400.47	1409.00
400.67	1418.36
400.86	1380.92
401.05	1476.88
401.24	1430.07
401.44	1469.86
401.63	1551.78
401.82	1533.05
402.01	1336.45
402.21	1572.84
402.40	1572.84
402.59	1413.68
402.78	1490.92
402.97	1570.50
403.17	1558.80
403.36	1582.20
403.55	1607.95
403.74	1685.19
403.93	1636.03
404.13	1729.66
404.32	1717.95
404.51	1624.33
404.70	1720.29
404.89	1671.14
405.09	1884.13
405.28	1750.72
405.47	1757.74
405.66	1792.85
405.85	1732.00
406.05	1769.44
406.24	1776.47
406.43	1797.53
406.62	1809.23
406.81	1884.13
407.00	1832.64
407.20	1846.68
407.39	1839.66
407.58	1874.77
407.77	1891.15
407.96	1966.05
408.15	1895.83
408.34	2015.20
408.54	1912.22
408.73	1991.80
408.92	2005.84
409.11	2050.31
409.30	2097.12
409.49	1977.75
409.68	2026.90
409.87	2064.35
410.07	2085.42
410.26	2106.48
410.45	2073.71
410.64	2218.83
410.83	2211.81
411.02	2270.32
411.21	2328.83
411.40	2342.88
411.59	2225.85
411.78	2204.78
411.98	2155.63
412.17	2424.80
412.36	2338.20
412.55	2464.58
412.74	2406.07
412.93	2525.44
413.12	2415.43
413.31	2537.14
413.50	2499.69
413.69	2581.61
413.88	2614.38
414.07	2654.17
414.26	2609.70
414.45	2820.35
414.64	2670.55
414.83	2747.79
415.02	2628.42
415.22	2661.19
415.41	2761.83
415.60	2719.70
415.79	2787.58
415.98	2874.18
416.17	2995.89
416.36	2862.48
416.55	2799.28
416.74	2998.23
416.93	2911.63
417.12	2953.76
417.31	3110.57
417.50	2991.20
417.69	3052.06
417.88	3028.65
418.07	3070.78
418.26	3110.57
418.45	3091.85
418.64	3229.94
418.83	3155.04
419.02	3152.70
419.21	3241.64
419.39	3211.22
419.58	3255.69
419.77	3239.30
419.96	3243.98
420.15	3302.50
420.34	3311.86
420.53	3391.44
420.72	3321.22
420.91	3379.73
421.10	3424.20
421.29	3442.93
421.48	3405.48
421.67	3447.61
421.86	3372.71
422.05	3468.67
422.24	3281.43
422.43	3391.44
422.61	3386.76
422.80	3595.06
422.99	3510.80
423.18	3517.83
423.37	3534.21
423.56	3468.67
423.75	3398.46
423.94	3419.52
424.13	3290.79
424.32	3218.24
424.50	3569.32
424.69	3676.98
424.88	3583.36
425.07	3480.38
425.26	3524.85
425.45	3555.27
425.64	3478.04
425.83	3588.04
426.01	3583.36
426.20	3562.30
426.39	3592.72
426.58	3667.62
426.77	3482.72
426.96	3590.38
427.15	3691.02
427.33	3630.17
427.52	3651.24
427.71	3688.68
427.90	3747.20
428.09	3730.81
428.28	3684.00
428.46	3796.35
428.65	3796.35
428.84	3817.41
429.03	3936.78
429.22	3705.07
429.40	3805.71
429.59	3789.33
429.78	3660.60
429.97	3620.81
430.16	3674.64
430.34	3763.58
430.53	3857.20
430.72	3913.38
430.91	3772.94
431.10	4131.05
431.28	4131.05
431.47	4325.31
431.66	4280.84
431.85	4098.28
432.03	4161.47
432.22	4252.75
432.41	4100.62
432.60	4145.09
432.79	4084.23
432.97	4351.06
433.16	4245.73
433.35	4131.05
433.54	4313.61
433.72	4205.94
433.91	4262.12
434.10	4416.59
434.28	4234.03
434.47	4379.14
434.66	4535.96
434.85	4451.70
435.03	4580.43
435.22	4390.84
435.41	4573.41
435.59	4585.11
435.78	4660.01
435.97	4655.33
436.16	4486.81
436.34	4550.00
436.53	4629.58
436.72	4807.46
436.90	4486.81
437.09	4594.47
437.28	4512.55
437.46	4713.84
437.65	4751.29
437.84	4788.74
438.02	4554.68
438.21	4725.54
438.40	4753.63
438.58	5039.17
438.77	4973.64
438.96	5076.62
439.14	5160.88
439.33	5247.48
439.52	5172.58
439.70	5149.18
439.89	5261.52
440.08	5020.45
440.26	5235.78
440.45	5256.84
440.63	5224.08
440.82	5334.08
441.01	5313.02
441.19	5406.64
441.38	5490.90
441.57	5394.93
441.75	5621.97
441.94	5551.75
442.12	5650.05
442.31	5790.49
442.50	5610.26
442.68	5614.95
442.87	5701.54
443.05	5708.57
443.24	5825.59
443.43	5757.72
443.61	5687.50
443.80	5921.56
443.98	5657.07
444.17	5584.52
444.35	5853.68
444.54	5837.30
444.73	5909.85
444.91	5907.51
445.10	5806.87
445.28	5774.10
445.47	5921.56
445.65	6010.50
445.84	5872.40
446.02	5879.43
446.21	5860.70
446.39	5827.93
446.58	6022.20
446.77	5886.45
446.95	5853.68
447.14	6033.90
447.32	5984.75
447.51	6078.37
447.69	6033.90
447.88	6015.18
448.06	5891.13
448.25	5937.94
448.43	6106.46
448.62	6038.58
448.80	6012.84
448.99	6193.06
449.17	6080.71
449.36	6040.92
449.54	6331.15
449.73	6272.64
449.91	6480.94
450.10	6422.43
450.28	6363.92
450.46	6445.84
450.65	6567.54
450.83	6502.01
451.02	6483.28
451.20	6670.53
451.39	6546.48
451.57	6345.19
451.76	6305.40
451.94	6401.37
452.13	6509.03
452.31	6443.49
452.49	6380.30
452.68	6331.15
452.86	6342.85
453.05	6576.91
453.23	6473.92
453.42	6602.65
453.60	6459.88
453.78	6691.59
453.97	6532.44
454.15	6607.33
454.34	6616.69
454.52	6998.20
454.70	6834.36
454.89	6846.07
455.07	6782.87
455.26	7014.59
455.44	6972.46
455.62	6897.56
455.81	6988.84
455.99	7033.31
456.17	6890.54
456.36	7119.91
456.54	7180.76
456.73	7248.64
456.91	7389.07
457.09	7269.70
457.28	7461.63
457.46	7286.09
457.64	7372.69
457.83	7269.70
458.01	7297.79
458.19	7246.30
458.38	7258.00
458.56	7370.35
458.74	7543.55
458.93	7463.97
459.11	7452.27
459.29	7330.56
459.48	7770.58
459.66	7522.48
459.84	7501.42
460.03	7721.43
460.21	7625.47
460.39	7761.22
460.57	7573.97
460.76	7667.60
460.94	7918.03
461.12	7845.48
461.31	7686.32
461.49	7702.70
461.67	7702.70
461.85	8013.99
462.04	7906.33
462.22	8084.21
462.40	8006.97
462.59	8077.19
462.77	8046.76
462.95	8191.88
463.13	8065.49
463.32	7990.59
463.50	8189.53
463.68	8147.40
463.86	8259.75
464.05	8135.70
464.23	8077.19
464.41	8245.71
464.59	8107.62
464.78	8320.60
464.96	8304.22
465.14	8023.36
465.32	8332.31
465.50	8454.02
465.69	8308.90
465.87	8418.91
466.05	8325.29
466.23	8175.49
466.41	8348.69
466.60	8662.32
466.78	8496.14
466.96	8510.19
467.14	8430.61
467.32	8409.54
467.51	8610.83
467.69	8250.39
467.87	8475.08
468.05	8657.64
468.23	8681.05
468.41	8601.47
468.60	8648.28
468.78	8781.69
468.96	8659.98
469.14	8737.22
469.32	8751.26
469.50	8620.19
469.69	8964.25
469.87	9015.74
470.05	8999.36
470.23	8912.76
470.41	8950.21
470.59	9027.45
470.77	9078.94
470.95	9177.24
471.14	9125.75
471.32	8922.12
471.50	9186.60
471.68	9181.92
471.86	9373.85
472.04	9394.91
472.22	9640.67
472.40	9371.50
472.58	9252.14
472.77	9511.94
472.95	9556.41
473.13	9919.19
473.31	9682.80
473.49	9675.77
473.67	9605.56
473.85	9673.43
474.03	10050.26
474.21	10019.83
474.39	9907.49
474.57	10249.21
474.75	10097.07
474.93	10281.97
475.12	10064.30
475.30	10356.87
475.48	10307.72
475.66	10312.40
475.84	10204.74
476.02	10572.20
476.20	10569.86
476.38	10501.98
476.56	10782.85
476.74	10721.99
476.92	10871.79
477.10	10747.74
477.28	10920.94
477.46	10913.92
477.64	11115.20
477.82	11309.47
478.00	11485.01
478.18	11428.84
478.36	11353.94
478.54	11459.26
478.72	11379.68
478.90	11843.11
479.08	11908.65
479.26	11796.30
479.44	11908.65
479.62	12098.23
479.80	12161.42
479.98	12116.95
480.16	12512.50
480.34	12208.23
480.52	12678.68
480.70	12795.71
480.88	12545.27
481.06	12688.04
481.24	12676.34
481.41	12896.35
481.59	13238.07
481.77	13123.38
481.95	13228.71
482.13	13343.39
482.31	13345.73
482.49	13558.72
482.67	13701.50
482.85	13558.72
483.03	13785.76
483.21	13902.78
483.39	13980.02
483.57	13745.97
483.74	13951.93
483.92	13991.72
484.10	14303.01
484.28	14539.41
484.46	14710.27
484.64	14944.32
484.82	14738.35
485.00	14621.33
485.18	15000.49
485.35	15129.22
485.53	15108.16
485.71	14986.45
485.89	15218.16
486.07	15232.21
486.25	15508.39
486.43	15789.25
486.61	15639.46
486.78	15817.34
486.96	16002.24
487.14	16079.48
487.32	16229.27
487.50	16369.71
487.68	16767.60
487.85	16807.39
488.03	17102.29
488.21	17252.09
488.39	16856.54
488.57	17266.13
488.75	17240.39
488.92	17792.75
489.10	17825.52
489.28	17759.98
489.46	18218.73
489.64	18068.94
489.81	18405.97
489.99	18317.03
490.17	18499.59
490.35	18614.28
490.53	18740.67
490.70	18937.27
490.88	18764.07
491.06	19286.01
491.24	19220.48
491.41	18890.46
491.59	19323.46
491.77	19091.75
491.95	19494.32
492.13	19807.95
492.30	19880.51
492.48	19793.91
492.66	19997.54
492.84	20236.27
493.01	20369.68
493.19	20240.95
493.37	20343.94
493.54	20552.24
493.72	20655.23
493.90	20596.71
494.08	21207.59
494.25	21275.47
494.43	21191.21
494.61	21242.70
494.79	21443.99
494.96	21535.27
495.14	21319.94
495.32	21884.01
495.49	21453.35
495.67	21886.35
495.85	22134.45
496.02	22253.81
496.20	22239.77
496.38	22539.36
496.55	22548.72
496.73	23534.09
496.91	22572.13
497.09	22916.19
497.26	23119.81
497.44	23190.03
497.62	23316.42
497.79	23267.27
497.97	23480.25
498.14	23604.30
498.32	24030.28
498.50	23435.78
498.67	23578.56
498.85	23941.34
499.03	24226.89
499.20	24009.22
499.38	24233.91
499.56	24278.38
499.73	24343.91
499.91	24673.93
500.08	24704.35
500.26	24238.59
500.44	24744.14
500.61	24477.32
500.79	24372.00
500.97	25092.88
501.14	25104.59
501.32	25099.90
501.49	25221.61
501.67	25383.11
501.84	25647.59
502.02	25200.55
502.20	25399.49
502.37	25982.29
502.55	25771.64
502.72	25841.85
502.90	26122.72
503.07	25603.12
503.25	25876.96
503.43	25874.62
503.60	26183.57
503.78	25958.88
503.95	26174.21
504.13	26700.83
504.30	26782.75
504.48	26476.14
504.65	26431.67
504.83	26939.57
505.01	27068.30
505.18	26836.58
505.36	27484.91
505.53	27208.73
505.71	27592.58
505.88	27484.91
506.06	27241.50
506.23	27440.44
506.41	26991.06
506.58	27487.25
506.76	27854.72
506.93	27709.60
507.11	27845.35
507.28	27672.15
507.46	27665.13
507.63	28158.99
507.81	28231.54
507.98	27850.03
508.16	28046.64
508.33	28503.04
508.50	28683.27
508.68	28713.69
508.85	28629.43
509.03	28514.75
509.20	29006.26
509.38	28826.04
509.55	28999.24
509.73	29092.86
509.90	29275.42
510.08	28947.75
510.25	28996.90
510.42	29401.81
510.60	29392.45
510.77	29338.62
510.95	29652.25
511.12	29668.63
511.30	29804.38
511.47	29944.81
511.64	30302.92
511.82	30401.22
511.99	29972.90
512.17	30527.61
512.34	30412.92
512.51	30513.56
512.69	30480.80
512.86	30525.27
513.04	31014.44
513.21	30801.45
513.38	30586.12
513.56	30717.19
513.73	30590.80
513.90	30632.93
514.08	30665.70
514.25	30979.33
514.43	30934.86
514.60	30756.98
514.77	31068.27
514.95	31716.60
515.12	31096.36
515.29	31269.56
515.47	31906.18
515.64	31459.14
515.81	31040.18
515.99	31676.81
516.16	31749.37
516.33	31957.67
516.51	31800.86
516.68	31522.34
516.85	31512.97
517.03	31718.94
517.20	31487.23
517.37	32100.45
517.54	32568.55
517.72	32053.64
517.89	32109.81
518.06	32147.26
518.24	32254.92
518.41	31997.46
518.58	32100.45
518.75	32308.76
518.93	32751.12
519.10	32573.24
519.27	32587.28
519.45	32950.06
519.62	33411.15
519.79	33212.20
519.96	32886.87
520.14	33406.47
520.31	32973.47
520.48	33385.40
520.65	33315.19
520.83	33467.32
521.00	33787.97
521.17	33696.69
521.34	33614.77
521.52	33869.89
521.69	33944.79
521.86	34078.20
522.03	34396.51
522.20	34171.82
522.38	34211.61
522.55	34515.88
522.72	34333.32
522.89	34206.93
523.07	34394.17
523.24	34293.53
523.41	34897.39
523.58	34267.78
523.75	34782.70
523.92	34682.06
524.10	34852.92
524.27	34768.66
524.44	35147.82
524.61	34866.96
524.78	35187.61
524.96	35339.75
525.13	35187.61
525.30	35189.95
525.47	35534.01
525.64	35587.85
525.81	35494.22
525.98	35534.01
526.16	35131.44
526.33	35086.97
526.50	35571.46
526.67	35384.22
526.84	35590.19
527.01	35496.56
527.18	35744.66
527.36	35910.84
527.53	35917.86
527.70	36313.41
527.87	35948.29
528.04	35849.99
528.21	36086.38
528.38	36100.42
528.55	36531.08
528.72	36430.44
528.89	36638.75
529.07	36240.86
529.24	36177.66
529.41	36055.95
529.58	36568.53
529.75	36290.01
529.92	36547.47
530.09	36598.96
530.26	37322.18
530.43	36727.69
530.60	36486.61
530.77	36879.82
530.94	37303.46
531.11	36947.70
531.28	36879.82
531.46	36870.46
531.63	37282.39
531.80	37317.50
531.97	37385.38
532.14	37500.06
532.31	36954.72
532.48	37797.31
532.65	37638.15
532.82	37869.87
532.99	37553.90
533.16	37406.44
533.33	37535.17
533.50	37954.13
533.67	37514.11
533.84	37706.03
534.01	37820.72
534.18	37399.42
534.35	38040.73
534.52	38155.41
534.69	37965.83
534.86	38052.43
535.03	37832.42
535.20	38511.17
535.37	38132.01
535.54	38485.43
535.71	38438.62
535.88	38447.98
536.05	38249.03
536.22	38462.02
536.38	38740.55
536.55	38452.66
536.72	38274.78
536.89	38497.13
537.06	38864.60
537.23	38780.34
537.40	38663.31
537.57	38883.32
537.74	38726.50
537.91	38794.38
538.08	38572.03
538.25	38852.89
538.42	38801.40
538.59	38995.67
538.75	38646.93
538.92	39178.23
539.09	39037.80
539.26	39566.76
539.43	39337.38
539.60	39398.24
539.77	39262.49
539.94	39337.38
540.11	39108.01
540.28	39590.16
540.44	38995.67
540.61	39533.99
540.78	39365.47
540.95	39445.05
541.12	39171.21
541.29	39335.04
541.46	39578.46
541.62	39473.13
541.79	39709.53
541.96	39428.66
542.13	39686.12
542.30	39838.26
542.47	39651.02
542.63	39674.42
542.80	39974.01
542.97	40362.54
543.14	40535.74
543.31	40051.25
543.48	40177.64
543.64	40823.62
543.81	40669.15
543.98	40568.51
544.15	40484.25
544.32	40914.90
544.48	40683.19
544.65	40905.54
544.82	40905.54
544.99	40704.26
545.16	40575.53
545.32	40896.18
545.49	41148.96
545.66	41188.75
545.83	41120.87
546.00	41228.54
546.16	41251.94
546.33	40641.06
546.50	40765.11
546.67	40933.63
546.83	40877.46
547.00	40795.54
547.17	41397.06
547.34	41453.23
547.50	41387.69
547.67	41359.61
547.84	41436.84
548.00	41408.76
548.17	41603.02
548.34	41345.56
548.51	41893.25
548.67	42136.66
548.84	41659.20
549.01	41118.53
549.18	41354.93
549.34	41841.76
549.51	41659.20
549.68	41818.35
549.84	42110.92
550.01	41907.29
550.18	41542.17
550.34	41773.88
550.51	42139.00
550.68	41668.56
550.84	41944.74
551.01	41916.65
551.18	41893.25
551.34	42122.62
551.51	42398.80
551.68	42244.33
551.84	41930.70
552.01	41509.40
552.18	41862.82
552.34	42122.62
552.51	42213.90
552.68	42005.59
552.84	42422.21
553.01	42672.65
553.18	42197.52
553.34	42085.17
553.51	42045.38
553.67	42541.58
553.84	42436.25
554.01	42670.31
554.17	42323.91
554.34	42871.59
554.51	42679.67
554.67	42726.48
554.84	42602.43
555.00	42777.97
555.17	42396.46
555.33	42813.08
555.50	42527.53
555.67	42698.39
555.83	42682.01
556.00	42810.74
556.16	43175.86
556.33	42724.14
556.50	42700.73
556.66	42976.92
556.83	42513.49
556.99	43180.54
557.16	43559.71
557.32	42892.66
557.49	43552.69
557.65	43330.34
557.82	42880.95
557.98	43217.99
558.15	43056.50
558.32	43281.19
558.48	43288.21
558.65	43093.94
558.81	42899.68
558.98	43000.32
559.14	43290.55
559.31	43023.73
559.47	43337.36
559.64	43636.95
559.80	43257.78
559.97	43257.78
560.13	43533.96
560.30	43306.93
560.46	43271.82
560.63	43185.22
560.79	43632.27
560.96	43835.89
561.12	43571.41
561.29	43510.56
561.45	43461.41
561.61	43110.33
561.78	43454.39
561.94	43555.03
562.11	43189.91
562.27	43414.60
562.44	43353.74
562.60	43398.21
562.77	43653.33
562.93	43302.25
563.10	43695.46
563.26	43318.64
563.42	43887.39
563.59	43213.31
563.75	43761.00
563.92	44051.22
564.08	43775.04
564.24	44137.82
564.41	43571.41
564.57	43613.54
564.74	43840.57
564.90	43426.30
565.07	43662.69
565.23	43721.21
565.39	43742.27
565.56	43746.95
565.72	43723.55
565.88	43810.15
566.05	44172.93
566.21	43566.73
566.38	43739.93
566.54	43491.83
566.70	44528.69
566.87	44348.47
567.03	43590.14
567.19	44795.51
567.36	44236.12
567.52	44109.74
567.68	44133.14
567.85	43739.93
568.01	43945.90
568.17	44226.76
568.34	44126.12
568.50	43885.04
568.66	43749.29
568.83	43966.96
568.99	43868.66
569.15	43636.95
569.32	43981.01
569.48	43983.35
569.64	44243.15
569.81	43803.13
569.97	44086.33
570.13	44135.48
570.30	43639.29
570.46	44184.63
570.62	43852.28
570.78	43548.01
570.95	43641.63
571.11	44580.18
571.27	44065.27
571.43	44006.75
571.60	43753.97
571.76	44306.34
571.92	44603.59
572.09	44201.02
572.25	44439.75
572.41	44383.58
572.57	44079.31
572.74	44273.57
572.90	44371.88
573.06	44362.51
573.22	44332.09
573.38	44390.60
573.55	43959.94
573.71	44545.08
573.87	44079.31
574.03	44179.95
574.20	44292.30
574.36	44524.01
574.52	44341.45
574.68	44226.76
574.84	44236.12
575.01	43856.96
575.17	44495.92
575.33	43784.40
575.49	43882.70
575.65	44556.78
575.82	44741.68
575.98	44479.54
576.14	44470.18
576.30	44271.23
576.46	44154.21
576.62	44266.55
576.79	44402.30
576.95	44158.89
577.11	44360.17
577.27	44343.79
577.43	44624.65
577.59	44226.76
577.75	44144.84
577.92	44046.54
578.08	44137.82
578.24	44060.58
578.40	44215.06
578.56	44486.56
578.72	44676.15
578.88	44219.74
579.04	44224.42
579.21	44170.59
579.37	44456.14
579.53	44793.17
579.69	44046.54
579.85	44296.98
580.01	44229.10
580.17	44428.05
580.33	44561.46
580.49	44392.94
580.65	44648.06
580.82	44301.66
580.98	43892.07
581.14	44198.68
581.30	44346.13
581.46	44641.04
581.62	44570.82
581.78	44311.02
581.94	44818.92
582.10	44568.48
582.26	44083.99
582.42	44278.25
582.58	44547.42
582.74	44346.13
582.90	44341.45
583.06	44746.36
583.22	44435.07
583.38	44751.04
583.54	45057.65
583.70	44739.34
583.86	44542.74
584.02	44708.91
584.18	44493.58
584.34	44264.21
584.50	44229.10
584.66	44715.93
584.82	44254.85
584.98	44692.53
585.14	44219.74
585.30	44549.76
585.46	44280.60
585.62	44617.63
585.78	44418.69
585.94	44215.06
586.10	44128.46
586.26	44446.77
586.42	44507.63
586.58	44238.47
586.74	44708.91
586.90	44526.35
587.06	43973.98
587.22	44779.13
587.38	44002.07
587.54	44271.23
587.70	44552.10
587.86	44839.98
588.02	44472.52
588.18	44692.53
588.34	44348.47
588.49	44339.11
588.65	44203.36
588.81	43964.62
588.97	44566.14
589.13	43941.22
589.29	44444.43
589.45	44732.32
589.61	44350.81
589.77	44638.70
589.93	44795.51
590.08	44467.84
590.24	44753.38
