SpectraSuite Data File
++++++++++++++++++++++++++++++++++++
Date: Fri Oct 25 11:22:46 EDT 2013
User: price-jones
Dark Spectrum Present: No
Reference Spectrum Present: No
Number of Sampled Component Spectra: 1
Spectrometers: USB2+H05261
Integration Time (usec): 100000 (USB2+H05261)
Spectra Averaged: 1 (USB2+H05261)
Boxcar Smoothing: 0 (USB2+H05261)
Correct for Electrical Dark: No (USB2+H05261)
Strobe/Lamp Enabled: No (USB2+H05261)
Correct for Detector Non-linearity: No (USB2+H05261)
Correct for Stray Light: No (USB2+H05261)
Number of Pixels in Processed Spectrum: 2048
>>>>>Begin Processed Spectral Data<<<<<
365.73	220.01
365.92	220.01
366.12	220.01
366.32	163.84
366.52	100.64
366.72	194.26
366.91	138.09
367.11	131.07
367.31	119.37
367.51	74.90
367.70	81.92
367.90	65.54
368.10	187.24
368.30	95.96
368.49	95.96
368.69	147.45
368.89	126.39
369.09	152.13
369.28	182.56
369.48	117.03
369.68	135.75
369.87	170.86
370.07	170.86
370.27	184.90
370.47	388.53
370.66	578.11
370.86	514.92
371.06	697.48
371.25	636.63
371.45	645.99
371.65	690.46
371.84	678.76
372.04	727.91
372.24	758.33
372.44	748.97
372.63	713.86
372.83	690.46
373.03	765.36
373.22	772.38
373.42	723.23
373.62	770.04
373.81	781.74
374.01	781.74
374.21	823.87
374.40	805.14
374.60	802.80
374.79	763.01
374.99	849.61
375.19	842.59
375.38	912.81
375.58	844.93
375.78	814.51
375.97	819.19
376.17	910.47
376.37	880.04
376.56	821.53
376.76	793.44
376.95	854.30
377.15	807.48
377.35	910.47
377.54	847.27
377.74	924.51
377.93	875.36
378.13	968.98
378.33	936.21
378.52	882.38
378.72	851.96
378.91	957.28
379.11	880.04
379.31	938.55
379.50	943.24
379.70	933.87
379.89	1020.47
380.09	999.41
380.28	959.62
380.48	968.98
380.68	1006.43
380.87	912.81
381.07	1008.77
381.26	1036.86
381.46	1004.09
381.65	952.60
381.85	992.39
382.04	1102.39
382.24	1008.77
382.43	1013.45
382.63	1057.92
382.83	1032.18
383.02	1139.84
383.22	1137.50
383.41	1160.91
383.61	1114.10
383.80	1109.41
384.00	1149.20
384.19	1111.75
384.39	1062.60
384.58	1235.80
384.78	1111.75
384.97	1151.54
385.17	1137.50
385.36	1100.05
385.56	1149.20
385.75	1083.67
385.95	1128.14
386.14	1275.59
386.34	1193.67
386.53	1219.42
386.72	1191.33
386.92	1282.61
387.11	1191.33
387.31	1188.99
387.50	1207.72
387.70	1207.72
387.89	1270.91
388.09	1266.23
388.28	1275.59
388.48	1256.87
388.67	1280.27
388.86	1331.76
389.06	1296.66
389.25	1348.15
389.45	1411.34
389.64	1219.42
389.84	1331.76
390.03	1425.39
390.22	1413.68
390.42	1359.85
390.61	1401.98
390.81	1378.58
391.00	1469.86
391.19	1451.13
391.39	1446.45
391.58	1481.56
391.78	1345.81
391.97	1542.41
392.16	1406.66
392.36	1530.71
392.55	1481.56
392.75	1441.77
392.94	1514.33
393.13	1523.69
393.33	1507.30
393.52	1519.01
393.71	1589.22
393.91	1605.61
394.10	1614.97
394.29	1451.13
394.49	1621.99
394.68	1666.46
394.88	1579.86
395.07	1696.89
395.26	1703.91
395.46	1654.76
395.65	1687.53
395.84	1605.61
396.04	1790.51
396.23	1732.00
396.42	1774.13
396.62	1732.00
396.81	1856.04
397.00	1732.00
397.19	1809.23
397.39	1750.72
397.58	1832.64
397.77	1842.00
397.97	1846.68
398.16	1799.87
398.35	1879.45
398.55	1767.10
398.74	1893.49
398.93	1914.56
399.12	1928.60
399.32	1963.71
399.51	1912.22
399.70	2094.78
399.90	1942.64
400.09	1966.05
400.28	2094.78
400.47	2045.63
400.67	2139.25
400.86	2118.18
401.05	2083.08
401.24	2078.40
401.44	2010.52
401.63	2148.61
401.82	2223.51
402.01	2141.59
402.21	2211.81
402.40	2183.72
402.59	2190.74
402.78	2162.66
402.97	2291.38
403.17	2361.60
403.36	2115.84
403.55	2249.25
403.74	2382.67
403.93	2392.03
404.13	2389.69
404.32	2377.98
404.51	2375.64
404.70	2373.30
404.89	2385.01
405.09	2516.08
405.28	2502.03
405.47	2422.45
405.66	2469.27
405.85	2462.24
406.05	2375.64
406.24	2595.65
406.43	2565.23
406.62	2715.02
406.81	2703.32
407.00	2548.84
407.20	2600.34
407.39	2672.89
407.58	2766.51
407.77	2693.96
407.96	2782.90
408.15	2747.79
408.34	2743.11
408.54	2825.03
408.73	2750.13
408.92	2918.65
409.11	2892.90
409.30	2829.71
409.49	2846.09
409.68	2942.05
409.87	2939.71
410.07	3038.02
410.26	3014.61
410.45	2988.86
410.64	2963.12
410.83	2981.84
411.02	3082.49
411.21	3138.66
411.40	3061.42
411.59	3152.70
411.78	3208.87
411.98	3150.36
412.17	3192.49
412.36	3222.92
412.55	3251.00
412.74	3269.73
412.93	3417.18
413.12	3283.77
413.31	3543.57
413.50	3602.08
413.69	3508.46
413.88	3459.31
414.07	3794.01
414.26	3672.30
414.45	3676.98
414.64	3786.99
414.83	3728.47
415.02	3843.16
415.22	3812.73
415.41	3796.35
415.60	3852.52
415.79	4014.02
415.98	3936.78
416.17	4025.72
416.36	4007.00
416.55	3971.89
416.74	4079.55
416.93	4107.64
417.12	4219.99
417.31	4149.77
417.50	4138.07
417.69	4376.80
417.88	4229.35
418.07	4318.29
418.26	4400.21
418.45	4315.95
418.64	4514.89
418.83	4442.34
419.02	4475.10
419.21	4540.64
419.39	4528.94
419.58	4482.13
419.77	4484.47
419.96	4620.22
420.15	4491.49
420.34	4667.03
420.53	4624.90
420.72	4538.30
420.91	4685.75
421.10	4774.69
421.29	4950.23
421.48	4699.80
421.67	4835.55
421.86	4732.56
422.05	4910.44
422.24	4762.99
422.43	4826.18
422.61	4908.10
422.80	5046.20
422.99	4854.27
423.18	4842.57
423.37	4987.68
423.56	4957.25
423.75	4830.87
423.94	4798.10
424.13	4645.96
424.32	4816.82
424.50	5062.58
424.69	5071.94
424.88	5090.67
425.07	4952.57
425.26	5006.41
425.45	5062.58
425.64	4922.15
425.83	4980.66
426.01	4954.91
426.20	5015.77
426.39	5046.20
426.58	5069.60
426.77	5071.94
426.96	5151.52
427.15	5046.20
427.33	5233.44
427.52	5224.08
427.71	5170.24
427.90	5121.09
428.09	5327.06
428.28	5210.03
428.46	5240.46
428.65	5240.46
428.84	5500.26
429.03	5455.79
429.22	5401.96
429.40	5614.95
429.59	5502.60
429.78	5310.68
429.97	5280.25
430.16	5528.35
430.34	5741.33
430.53	5731.97
430.72	5799.85
430.91	5734.31
431.10	5661.76
431.28	5813.89
431.47	5865.38
431.66	5778.78
431.85	5776.44
432.03	5811.55
432.22	6104.12
432.41	5954.32
432.60	5968.37
432.79	6080.71
432.97	5984.75
433.16	6104.12
433.35	6003.47
433.54	5954.32
433.72	6335.83
433.91	6108.80
434.10	6019.86
434.28	6153.27
434.47	6307.74
434.66	6162.63
434.85	6237.53
435.03	6380.30
435.22	6225.82
435.41	6424.77
435.59	6562.86
435.78	6387.32
435.97	6497.33
436.16	6541.80
436.34	6410.73
436.53	6490.31
436.72	6736.06
436.90	6614.35
437.09	6665.85
437.28	6572.22
437.46	6733.72
437.65	6628.40
437.84	6759.47
438.02	6642.44
438.21	6684.57
438.40	6778.19
438.58	6834.36
438.77	7157.36
438.96	7021.61
439.14	7110.55
439.33	7262.68
439.52	7183.10
439.70	7194.81
439.89	7405.46
440.08	7370.35
440.26	7389.07
440.45	7311.83
440.63	7616.10
440.82	7925.05
441.01	7653.55
441.19	7719.09
441.38	7714.41
441.57	7634.83
441.75	7812.71
441.94	8215.28
442.12	7899.31
442.31	8053.78
442.50	8074.85
442.68	8138.04
442.87	8102.93
443.05	8173.15
443.24	8168.47
443.43	7962.50
443.61	8182.51
443.80	8524.23
443.98	8077.19
444.17	7786.96
444.35	8196.56
444.54	8234.00
444.73	8360.39
444.91	8226.98
445.10	8304.22
445.28	8308.90
445.47	8362.73
445.65	8313.58
445.84	8564.02
446.02	8521.89
446.21	8390.82
446.39	8241.03
446.58	8531.25
446.77	8505.51
446.95	8278.47
447.14	8451.67
447.32	8365.07
447.51	8475.08
447.69	8557.00
447.88	8730.20
448.06	8613.17
448.25	8535.93
448.43	8573.38
448.62	8517.21
448.80	8585.08
448.99	8580.40
449.17	8777.01
449.36	8786.37
449.54	9036.81
449.73	8968.93
449.91	9011.06
450.10	8842.54
450.28	9303.63
450.46	9125.75
450.65	9104.68
450.83	8872.97
451.02	9055.53
451.20	9109.36
451.39	9195.96
451.57	9158.52
451.76	9027.45
451.94	9146.81
452.13	9294.27
452.31	9263.84
452.49	9191.28
452.68	9514.28
452.86	9373.85
453.05	9336.40
453.23	9523.64
453.42	9425.34
453.60	9469.81
453.78	9727.27
453.97	9334.06
454.15	9736.63
454.34	9497.89
454.52	9944.94
454.70	9856.00
454.89	9813.87
455.07	9888.76
455.26	9980.04
455.44	9947.28
455.62	9933.23
455.81	10036.22
455.99	10083.03
456.17	10239.84
456.36	10129.84
456.54	10272.61
456.73	10242.18
456.91	10560.50
457.09	10574.54
457.28	10647.10
457.46	10293.68
457.64	10544.11
457.83	10487.94
458.01	10277.29
458.19	10869.45
458.38	10501.98
458.56	10916.26
458.74	10862.43
458.93	10733.70
459.11	10721.99
459.29	10876.47
459.48	10913.92
459.66	10843.70
459.84	10757.10
460.03	10956.05
460.21	11075.42
460.39	10810.93
460.57	11009.88
460.76	11059.03
460.94	11267.34
461.12	11110.52
461.31	11293.08
461.49	11211.17
461.67	11265.00
461.85	11396.07
462.04	11330.53
462.22	11831.41
462.40	11587.99
462.59	11662.89
462.77	11494.37
462.95	11630.12
463.13	11442.88
463.32	11810.34
463.50	11716.72
463.68	11768.21
463.86	12100.57
464.05	11693.32
464.23	11597.35
464.41	11693.32
464.59	11716.72
464.78	12313.56
464.96	11941.41
465.14	11894.60
465.32	12147.38
465.50	12276.11
465.69	12145.04
465.87	11927.37
466.05	12140.36
466.23	12095.89
466.41	12294.83
466.60	12393.14
466.78	12327.60
466.96	12091.21
467.14	12201.21
467.32	12589.74
467.51	12638.89
467.69	12468.03
467.87	12739.54
468.05	12772.30
468.23	12514.84
468.41	12449.31
468.60	12767.62
468.78	12681.02
468.96	12699.75
469.14	13057.85
469.32	13013.38
469.50	12468.03
469.69	12784.01
469.87	13303.60
470.05	13170.19
470.23	13195.94
470.41	13327.01
470.59	13298.92
470.77	13160.83
470.95	13289.56
471.14	13635.96
471.32	13188.92
471.50	13661.71
471.68	13647.66
471.86	13720.22
472.04	13877.04
472.22	14160.24
472.40	13825.54
472.58	13846.61
472.77	14209.39
472.95	13973.00
473.13	14480.89
473.31	14258.54
473.49	14204.71
473.67	14286.63
473.85	14349.82
474.03	14487.92
474.21	14689.20
474.39	14843.68
474.57	14637.71
474.75	14871.76
474.93	14724.31
475.12	15166.67
475.30	15382.00
475.48	15133.90
475.66	15014.54
475.84	15239.23
476.02	15510.73
476.20	15342.21
476.38	15520.09
476.56	16168.42
476.74	16194.17
476.92	15983.52
477.10	15971.82
477.28	16369.71
477.46	16278.43
477.64	16439.92
477.82	16727.81
478.00	17046.12
478.18	16737.17
478.36	16999.31
478.54	17123.36
478.72	17284.86
478.90	17509.55
479.08	17848.93
479.26	17685.09
479.44	17790.41
479.62	17605.51
479.80	18043.19
479.98	18361.50
480.16	18583.85
480.34	18384.91
480.52	18714.92
480.70	18368.52
480.88	18710.24
481.06	18932.59
481.24	18902.17
481.41	19239.20
481.59	19463.90
481.77	19520.07
481.95	19903.92
482.13	19552.84
482.31	19880.51
482.49	20589.69
482.67	20194.14
482.85	20423.51
483.03	20615.44
483.21	21020.35
483.39	21078.86
483.57	21116.31
483.74	21385.47
483.92	21647.61
484.10	21219.30
484.28	22054.87
484.46	21972.95
484.64	22373.18
484.82	21781.03
485.00	22469.14
485.18	22497.23
485.35	22864.69
485.53	22799.16
485.71	23028.53
485.89	23901.55
486.07	23410.04
486.25	23627.71
486.43	23955.38
486.61	24079.43
486.78	24397.74
486.96	24081.77
487.14	24797.98
487.32	24877.55
487.50	24837.76
487.68	25144.38
487.85	25572.69
488.03	25324.60
488.21	25902.71
488.39	26024.42
488.57	26382.52
488.75	26363.79
488.92	26621.25
489.10	27035.53
489.28	26927.86
489.46	27213.41
489.64	26913.82
489.81	27632.36
489.99	27637.05
490.17	28261.97
490.35	28140.26
490.53	28311.12
490.70	28563.90
490.88	28170.69
491.06	28865.83
491.24	29163.08
491.41	29371.38
491.59	29345.64
491.77	29034.35
491.95	29390.11
492.13	29467.34
492.30	30253.76
492.48	30263.13
492.66	29816.08
492.84	30176.53
493.01	30785.07
493.19	31087.00
493.37	31119.76
493.54	31222.75
493.72	31442.76
493.90	31435.74
494.08	31960.02
494.25	31906.18
494.43	32198.75
494.61	32542.81
494.79	32542.81
494.96	32481.95
495.14	32919.63
495.32	33251.99
495.49	33261.35
495.67	33464.98
495.85	33565.62
496.02	33853.51
496.20	34148.42
496.38	34401.19
496.55	34555.67
496.73	35147.82
496.91	34843.56
497.09	34969.94
497.26	35112.72
497.44	35330.39
497.62	35433.37
497.79	35732.96
497.97	35487.20
498.14	36212.77
498.32	36605.98
498.50	36432.78
498.67	36493.63
498.85	36561.51
499.03	37207.50
499.20	37083.45
499.38	37132.60
499.56	37401.76
499.73	37354.95
499.91	37195.79
500.08	37626.45
500.26	37818.38
500.44	37830.08
500.61	37947.11
500.79	37958.81
500.97	38546.28
501.14	38838.85
501.32	38675.01
501.49	38817.78
501.67	38644.59
501.84	38993.32
502.02	39086.95
502.20	39318.66
502.37	39651.02
502.55	39262.49
502.72	39426.32
502.90	39681.44
503.07	40023.16
503.25	39882.73
503.43	40414.03
503.60	40231.47
503.78	40392.97
503.95	40788.52
504.13	40711.28
504.30	40617.66
504.48	40718.30
504.65	41301.09
504.83	40961.72
505.01	41523.44
505.18	41045.97
505.36	41226.20
505.53	41682.60
505.71	41991.55
505.88	41794.95
506.06	41570.25
506.23	42272.42
506.41	42103.90
506.58	42253.69
506.76	42557.96
506.93	42834.14
507.11	42628.18
507.28	42782.65
507.46	42838.83
507.63	42770.95
507.81	43426.30
507.98	42822.44
508.16	43505.88
508.33	43683.76
508.50	43768.02
508.68	43732.91
508.85	44444.43
509.03	43772.70
509.20	43826.53
509.38	44615.29
509.55	44432.73
509.73	44729.98
509.90	44795.51
510.08	44465.50
510.25	44549.76
510.42	44971.05
510.60	45064.67
510.77	45167.66
510.95	45745.77
511.12	45127.87
511.30	45099.78
511.47	45689.60
511.64	45640.45
511.82	45729.39
511.99	45535.12
512.17	46024.29
512.34	46110.89
512.51	46588.36
512.69	46789.65
512.86	46405.80
513.04	46808.37
513.21	46738.16
513.38	46759.22
513.56	46892.63
513.73	46777.95
513.90	47281.16
514.08	47325.63
514.25	47304.57
514.43	47592.45
514.60	47285.84
514.77	47819.49
514.95	47980.98
515.12	47625.22
515.29	47700.12
515.47	48018.43
515.64	48018.43
515.81	48341.42
515.99	48175.25
516.16	48851.66
516.33	48282.91
516.51	48624.63
516.68	48896.13
516.85	48727.61
517.03	48818.89
517.20	48825.92
517.37	48818.89
517.54	48938.26
517.72	49050.61
517.89	49523.40
518.06	49476.58
518.24	49184.02
518.41	49291.68
518.58	49296.36
518.75	49979.80
518.93	49801.92
519.10	49373.60
519.27	50045.33
519.45	49872.14
519.62	50164.70
519.79	50281.73
519.96	50466.63
520.14	50281.73
520.31	50298.11
520.48	51023.68
520.65	50815.37
520.83	50621.11
521.00	50941.76
521.17	50497.06
521.34	50878.57
521.52	50548.55
521.69	50869.20
521.86	51433.27
522.03	51545.62
522.20	51606.47
522.38	51723.50
522.55	51559.66
522.72	51468.38
522.89	51599.45
523.07	51599.45
523.24	51543.28
523.41	51770.31
523.58	51489.45
523.75	52076.92
523.92	51746.90
524.10	52486.51
524.27	51828.82
524.44	52168.20
524.61	52105.01
524.78	52264.16
524.96	52444.38
525.13	52493.54
525.30	52528.64
525.47	52678.44
525.64	52367.15
525.81	52767.38
525.98	52978.03
526.16	52870.36
526.33	52708.86
526.50	53123.14
526.67	53020.16
526.84	53413.37
527.01	53024.84
527.18	53242.51
527.36	53078.67
527.53	53090.37
527.70	53525.71
527.87	53694.23
528.04	53301.02
528.21	53638.06
528.38	53298.68
528.55	53715.29
528.72	53483.58
528.89	53862.75
529.07	53530.39
529.24	53673.16
529.41	53471.88
529.58	53815.94
529.75	53778.49
529.92	53965.73
530.09	53869.77
530.26	54012.54
530.43	54150.63
530.60	53848.71
530.77	54007.86
530.94	54122.55
531.11	54288.73
531.28	53977.43
531.46	54358.94
531.63	54473.63
531.80	54270.00
531.97	54513.42
532.14	54691.30
532.31	54445.54
532.48	54733.43
532.65	54782.58
532.82	54698.32
532.99	54841.09
533.16	54663.21
533.33	55222.60
533.50	55051.74
533.67	55047.06
533.84	55121.96
534.01	55227.28
534.18	54962.80
534.35	55451.97
534.52	55199.19
534.69	55248.35
534.86	55414.52
535.03	55323.24
535.20	55421.55
535.37	55323.24
535.54	55386.44
535.71	55419.20
535.88	55770.28
536.05	55683.69
536.22	55643.90
536.38	55730.50
536.55	55473.04
536.72	55742.20
536.89	55529.21
537.06	55756.24
537.23	55894.33
537.40	55653.26
537.57	55835.82
537.74	56006.68
537.91	56161.15
538.08	56243.07
538.25	55931.78
538.42	55887.31
538.59	56324.99
538.75	56102.64
538.92	56116.68
539.09	56222.01
539.26	56193.92
539.43	56381.16
539.60	56580.11
539.77	56273.50
539.94	56561.39
540.11	56423.29
540.28	56437.34
540.44	56339.04
540.61	56727.56
540.78	56472.45
540.95	56566.07
541.12	56357.76
541.29	56694.80
541.46	56568.41
541.62	56765.01
541.79	56779.06
541.96	56552.02
542.13	56757.99
542.30	56708.84
542.47	56882.04
542.63	57123.11
542.80	56903.10
542.97	57216.74
543.14	57200.35
543.31	57347.81
543.48	57249.50
543.64	57528.03
543.81	57425.04
543.98	57202.69
544.15	57345.47
544.32	57633.35
544.48	57719.95
544.65	57453.13
544.82	57499.94
544.99	57490.58
545.16	57481.22
545.32	57497.60
545.49	57614.63
545.66	57780.81
545.83	57844.00
546.00	57888.47
546.16	57970.39
546.33	57609.95
546.50	57691.86
546.67	58064.01
546.83	57619.31
547.00	57921.24
547.17	57890.81
547.34	57804.21
547.50	58071.03
547.67	58157.63
547.84	58082.73
548.00	58176.36
548.17	58475.94
548.34	58220.83
548.51	58459.56
548.67	58410.41
548.84	58181.04
549.01	58293.38
549.18	58363.60
549.34	58286.36
549.51	58361.26
549.68	58394.03
549.84	58300.40
550.01	58244.23
550.18	58429.13
550.34	58590.63
550.51	58583.61
550.68	58583.61
550.84	58482.97
551.01	58489.99
551.18	58681.91
551.34	58740.42
551.51	58660.85
551.68	58520.41
551.84	58684.25
552.01	58686.59
552.18	58810.64
552.34	58667.87
552.51	58845.75
552.68	58520.41
552.84	59044.69
553.01	59253.00
553.18	59007.25
553.34	58988.52
553.51	58735.74
553.67	58972.14
553.84	59075.12
554.01	59000.22
554.17	59063.42
554.34	59192.15
554.51	59110.23
554.67	59217.89
554.84	59096.19
555.00	59110.23
555.17	59007.25
555.33	58988.52
555.50	59234.28
555.67	59203.85
555.83	59138.32
556.00	59421.52
556.16	59372.37
556.33	59552.59
556.50	59297.47
556.66	59515.14
556.83	59257.68
556.99	59557.27
557.16	59447.27
557.32	59451.95
557.49	59674.30
557.65	59529.19
557.82	59451.95
557.98	59475.35
558.15	59517.48
558.32	59592.38
558.48	59290.45
558.65	59456.63
558.81	59597.06
558.98	59774.94
559.14	59629.83
559.31	59725.79
559.47	60001.97
559.64	59866.22
559.80	59929.42
559.97	59826.43
560.13	59498.76
560.30	59758.56
560.46	59735.15
560.63	59852.18
560.79	60090.91
560.96	59803.03
561.12	59870.90
561.29	60001.97
561.45	59990.27
561.61	59873.24
561.78	59770.26
561.94	60058.15
562.11	60032.40
562.27	59873.24
562.44	60123.68
562.60	60280.50
562.77	60083.89
562.93	60018.36
563.10	60135.38
563.26	60030.06
563.42	60189.22
563.59	60039.42
563.75	60205.60
563.92	60051.12
564.08	59999.63
564.24	60348.37
564.41	60203.26
564.57	60378.80
564.74	60247.73
564.90	60441.99
565.07	60055.81
565.23	60362.42
565.39	60245.39
565.56	60406.89
565.72	60294.54
565.88	60259.43
566.05	60254.75
566.21	60273.48
566.38	60343.69
566.54	60324.97
566.70	60451.36
566.87	60601.15
567.03	60116.66
567.19	60720.52
567.36	60456.04
567.52	60350.71
567.68	60633.92
567.85	60505.19
568.01	60441.99
568.17	60439.65
568.34	60605.83
568.50	60568.38
568.66	60229.01
568.83	60542.64
568.99	60437.31
569.15	60690.09
569.32	60509.87
569.48	60470.08
569.64	60706.47
569.81	60750.94
569.97	60598.81
570.13	60537.96
570.30	60406.89
570.46	60477.10
570.62	60678.39
570.78	60631.58
570.95	60722.86
571.11	60828.18
571.27	60491.15
571.43	60514.55
571.60	60818.82
571.76	60652.64
571.92	60804.78
572.09	60690.09
572.25	60652.64
572.41	60554.34
572.57	60842.23
572.74	60891.38
572.90	60837.54
573.06	60624.56
573.22	60683.07
573.38	60596.47
573.55	60905.42
573.71	60942.87
573.87	60697.11
574.03	60521.57
574.20	60687.75
574.36	60849.25
574.52	61020.11
574.68	60860.95
574.84	61057.56
575.01	60755.63
575.17	60823.50
575.33	60718.18
575.49	60837.54
575.65	60935.85
575.82	60893.72
575.98	60870.31
576.14	60996.70
576.30	60910.10
576.46	60673.71
576.62	60818.82
576.79	60811.80
576.95	60566.04
577.11	60683.07
577.27	60982.66
577.43	61069.26
577.59	60587.11
577.75	60807.12
577.92	60846.91
578.08	60914.78
578.24	60926.49
578.40	61120.75
578.56	61132.45
578.72	61031.81
578.88	60870.31
579.04	61380.55
579.21	61031.81
579.37	60970.96
579.53	61169.90
579.69	60835.20
579.85	61038.83
580.01	60949.89
580.17	60980.32
580.33	60947.55
580.49	61254.16
580.65	61050.53
580.82	60704.13
580.98	61141.81
581.14	60985.00
581.30	61099.68
581.46	61038.83
581.62	61027.13
581.78	61188.63
581.94	61097.34
582.10	61031.81
582.26	61045.85
582.42	61073.94
582.58	61118.41
582.74	61197.99
582.90	60975.64
583.06	60886.70
583.22	60753.29
583.38	60977.98
583.54	61137.13
583.70	61111.39
583.86	60956.91
584.02	60961.59
584.18	61181.60
584.34	61205.01
584.50	61041.17
584.66	61235.44
584.82	60952.23
584.98	61436.72
585.14	61190.97
585.30	61113.73
585.46	61139.47
585.62	61099.68
585.78	61340.76
585.94	61006.06
586.10	61130.11
586.26	61432.04
586.42	61205.01
586.58	61153.52
586.74	61205.01
586.90	61275.22
587.06	61139.47
587.22	61221.39
587.38	61233.10
587.54	61425.02
587.70	61216.71
587.86	61268.20
588.02	61228.41
588.18	61282.25
588.34	61134.79
588.49	61034.15
