SpectraSuite Data File
++++++++++++++++++++++++++++++++++++
Date: Fri Oct 25 10:44:31 EDT 2013
User: price-jones
Dark Spectrum Present: No
Reference Spectrum Present: No
Number of Sampled Component Spectra: 1
Spectrometers: USB2+H05261
Integration Time (usec): 100000 (USB2+H05261)
Spectra Averaged: 1 (USB2+H05261)
Boxcar Smoothing: 0 (USB2+H05261)
Correct for Electrical Dark: No (USB2+H05261)
Strobe/Lamp Enabled: No (USB2+H05261)
Correct for Detector Non-linearity: No (USB2+H05261)
Correct for Stray Light: No (USB2+H05261)
Number of Pixels in Processed Spectrum: 2048
>>>>>Begin Processed Spectral Data<<<<<
365.73	102.98
365.92	102.98
366.12	102.98
366.32	98.30
366.52	42.13
366.72	53.83
366.91	21.06
367.11	0.00
367.31	4.68
367.51	0.00
367.70	44.47
367.90	42.13
368.10	0.00
368.30	30.43
368.49	14.04
368.69	9.36
368.89	46.81
369.09	11.70
369.28	0.00
369.48	42.13
369.68	135.75
369.87	117.03
370.07	135.75
370.27	140.43
370.47	175.54
370.66	304.27
370.86	362.78
371.06	496.19
371.25	433.00
371.45	491.51
371.65	442.36
371.84	456.40
372.04	416.62
372.24	437.68
372.44	435.34
372.63	425.98
372.83	461.09
373.03	414.27
373.22	479.81
373.42	510.24
373.62	519.60
373.81	540.66
374.01	552.37
374.21	559.39
374.40	575.77
374.60	568.75
374.79	514.92
374.99	514.92
375.19	594.50
375.38	573.43
375.58	550.03
375.78	578.11
375.97	543.00
376.17	706.84
376.37	526.62
376.56	578.11
376.76	524.28
376.95	589.82
377.15	582.79
377.35	620.24
377.54	653.01
377.74	617.90
377.93	606.20
378.13	547.69
378.33	631.94
378.52	683.44
378.72	641.31
378.91	624.92
379.11	582.79
379.31	526.62
379.50	575.77
379.70	599.18
379.89	685.78
380.09	711.52
380.28	669.39
380.48	645.99
380.68	716.20
380.87	716.20
381.07	573.43
381.26	774.72
381.46	697.48
381.65	702.16
381.85	650.67
382.04	678.76
382.24	704.50
382.43	699.82
382.63	638.97
382.83	681.10
383.02	709.18
383.22	732.59
383.41	599.18
383.61	645.99
383.80	770.04
384.00	765.36
384.19	720.88
384.39	842.59
384.58	741.95
384.78	823.87
384.97	697.48
385.17	744.29
385.36	690.46
385.56	781.74
385.75	819.19
385.95	720.88
386.14	779.40
386.34	786.42
386.53	732.59
386.72	777.06
386.92	800.46
387.11	807.48
387.31	809.83
387.50	767.70
387.70	807.48
387.89	751.31
388.09	821.53
388.28	861.32
388.48	791.10
388.67	812.17
388.86	875.36
389.06	922.17
389.25	950.26
389.45	929.19
389.64	891.74
389.84	971.32
390.03	978.34
390.22	971.32
390.42	826.21
390.61	908.13
390.81	943.24
391.00	1015.79
391.19	964.30
391.39	964.30
391.58	978.34
391.78	945.58
391.97	1071.97
392.16	880.04
392.36	1128.14
392.55	971.32
392.75	945.58
392.94	964.30
393.13	961.96
393.33	873.02
393.52	1011.11
393.71	1078.99
393.91	1004.09
394.10	1135.16
394.29	987.71
394.49	1097.71
394.68	1163.25
394.88	1210.06
395.07	1097.71
395.26	1170.27
395.46	1057.92
395.65	1203.04
395.84	1090.69
396.04	1146.86
396.23	1160.91
396.42	1177.29
396.62	1097.71
396.81	1100.05
397.00	1064.94
397.19	1235.80
397.39	1158.57
397.58	1196.01
397.77	1228.78
397.97	1282.61
398.16	1336.45
398.35	1334.11
398.55	1308.36
398.74	1366.87
398.93	1355.17
399.12	1280.27
399.32	1336.45
399.51	1441.77
399.70	1490.92
399.90	1451.13
400.09	1380.92
400.28	1427.73
400.47	1502.62
400.67	1519.01
400.86	1434.75
401.05	1460.49
401.24	1523.69
401.44	1540.07
401.63	1563.48
401.82	1486.24
402.01	1591.56
402.21	1582.20
402.40	1556.46
402.59	1589.22
402.78	1668.80
402.97	1593.90
403.17	1626.67
403.36	1666.46
403.55	1636.03
403.74	1687.53
403.93	1650.08
404.13	1629.01
404.32	1598.59
404.51	1722.63
404.70	1729.66
404.89	1741.36
405.09	1739.02
405.28	1722.63
405.47	1722.63
405.66	1785.83
405.85	1818.60
406.05	1816.26
406.24	1781.15
406.43	1858.39
406.62	1818.60
406.81	1994.14
407.00	1959.03
407.20	1886.47
407.39	1963.71
407.58	1989.46
407.77	2064.35
407.96	2132.23
408.15	2008.18
408.34	1930.94
408.54	2073.71
408.73	2040.95
408.92	2225.85
409.11	2097.12
409.30	2111.16
409.49	2118.18
409.68	2120.53
409.87	2076.06
410.07	2129.89
410.26	2076.06
410.45	2209.47
410.64	2143.93
410.83	2312.45
411.02	2300.75
411.21	2349.90
411.40	2363.94
411.59	2420.11
411.78	2361.60
411.98	2431.82
412.17	2415.43
412.36	2389.69
412.55	2410.75
412.74	2567.57
412.93	2464.58
413.12	2429.48
413.31	2642.46
413.50	2527.78
413.69	2663.53
413.88	2750.13
414.07	2630.76
414.26	2588.63
414.45	2710.34
414.64	2902.26
414.83	2841.41
415.02	2799.28
415.22	2801.62
415.41	2839.07
415.60	2806.30
415.79	2827.37
415.98	2935.03
416.17	2963.12
416.36	2918.65
416.55	2935.03
416.74	3063.76
416.93	3033.33
417.12	3012.27
417.31	3061.42
417.50	3026.31
417.69	3178.45
417.88	3159.72
418.07	3068.44
418.26	3143.34
418.45	3251.00
418.64	3361.01
418.83	3073.12
419.02	3265.05
419.21	3194.83
419.39	3316.54
419.58	3211.22
419.77	3330.58
419.96	3293.13
420.15	3386.76
420.34	3335.26
420.53	3370.37
420.72	3424.20
420.91	3346.97
421.10	3346.97
421.29	3620.81
421.48	3545.91
421.67	3543.57
421.86	3494.42
422.05	3524.85
422.24	3517.83
422.43	3536.55
422.61	3576.34
422.80	3508.46
422.99	3695.71
423.18	3658.26
423.37	3700.39
423.56	3691.02
423.75	3669.96
423.94	3574.00
424.13	3606.77
424.32	3487.40
424.50	3728.47
424.69	3639.53
424.88	3740.18
425.07	3625.49
425.26	3506.12
425.45	3667.62
425.64	3646.55
425.83	3709.75
426.01	3684.00
426.20	3716.77
426.39	3634.85
426.58	3527.19
426.77	3611.45
426.96	3576.34
427.15	3735.50
427.33	3894.65
427.52	3754.22
427.71	3850.18
427.90	3845.50
428.09	3784.65
428.28	3859.54
428.46	3843.16
428.65	3964.87
428.84	3847.84
429.03	3943.80
429.22	3836.14
429.40	3911.04
429.59	3803.37
429.78	3651.24
429.97	3669.96
430.16	3777.62
430.34	3941.46
430.53	3892.31
430.72	3925.08
430.91	4011.68
431.10	3927.42
431.28	4063.17
431.47	4224.67
431.66	4498.51
431.85	4332.33
432.03	4404.89
432.22	4360.42
432.41	4266.80
432.60	4362.76
432.79	4285.52
432.97	4449.36
433.16	4393.19
433.35	4329.99
433.54	4421.27
433.72	4531.28
433.91	4430.63
434.10	4414.25
434.28	4458.72
434.47	4498.51
434.66	4603.83
434.85	4596.81
435.03	4496.17
435.22	4533.62
435.41	4676.39
435.59	4826.18
435.78	4697.46
435.97	4781.71
436.16	4716.18
436.34	4748.95
436.53	4723.20
436.72	4809.80
436.90	4704.48
437.09	4594.47
437.28	4650.64
437.46	4865.97
437.65	4809.80
437.84	4751.29
438.02	4725.54
438.21	4910.44
438.40	5025.13
438.58	4943.21
438.77	5121.09
438.96	4987.68
439.14	5128.11
439.33	5268.55
439.52	5193.65
439.70	5336.42
439.89	5172.58
440.08	5282.59
440.26	5331.74
440.45	5207.69
440.63	5371.53
440.82	5467.49
441.01	5645.37
441.19	5308.34
441.38	5563.45
441.57	5701.54
441.75	5603.24
441.94	5680.48
442.12	5877.09
442.31	5996.45
442.50	5834.96
442.68	5762.40
442.87	5776.44
443.05	5998.79
443.24	6038.58
443.43	5947.30
443.61	5933.26
443.80	6097.10
443.98	5757.72
444.17	5858.36
444.35	6106.46
444.54	6129.86
444.73	5968.37
444.91	5839.64
445.10	5870.06
445.28	5888.79
445.47	5940.28
445.65	5872.40
445.84	6188.38
446.02	6047.94
446.21	6211.78
446.39	6066.67
446.58	6274.98
446.77	6256.25
446.95	6162.63
447.14	6073.69
447.32	6333.49
447.51	6169.65
447.69	6136.88
447.88	6150.93
448.06	6235.19
448.25	6038.58
448.43	6181.35
448.62	6171.99
448.80	6099.44
448.99	6239.87
449.17	6242.21
449.36	6207.10
449.54	6417.75
449.73	6452.86
449.91	6546.48
450.10	6499.67
450.28	6679.89
450.46	6616.69
450.65	6677.55
450.83	6675.21
451.02	6513.71
451.20	6588.61
451.39	6754.79
451.57	6588.61
451.76	6604.99
451.94	6675.21
452.13	6733.72
452.31	6771.17
452.49	6619.04
452.68	6586.27
452.86	6588.61
453.05	6850.75
453.23	6736.06
453.42	6890.54
453.60	6789.89
453.78	6965.43
453.97	6731.38
454.15	6920.96
454.34	6806.28
454.52	7199.49
454.70	6836.70
454.89	7026.29
455.07	7040.33
455.26	7042.67
455.44	7243.96
455.62	7166.72
455.81	7265.02
455.99	7318.86
456.17	7290.77
456.36	7045.01
456.54	7389.07
456.73	7480.35
456.91	7637.17
457.09	7335.24
457.28	7559.93
457.46	7461.63
457.64	7562.27
457.83	7520.14
458.01	7618.44
458.19	7712.07
458.38	7503.76
458.56	7494.40
458.74	7707.38
458.93	7637.17
459.11	7672.28
459.29	7571.63
459.48	7630.15
459.66	7728.45
459.84	7946.12
460.03	7861.86
460.21	7878.24
460.39	8021.02
460.57	7934.42
460.76	7981.23
460.94	7946.12
461.12	8021.02
461.31	7948.46
461.49	8065.49
461.67	8217.62
461.85	8198.90
462.04	7992.93
462.22	8264.43
462.40	8423.59
462.59	8224.64
462.77	8273.79
462.95	8250.39
463.13	8308.90
463.32	8313.58
463.50	8308.90
463.68	8379.12
463.86	8297.20
464.05	8276.13
464.23	8299.54
464.41	8414.23
464.59	8334.65
464.78	8674.03
464.96	8505.51
465.14	8404.86
465.32	8374.44
465.50	8533.59
465.69	8498.49
465.87	8582.74
466.05	8557.00
466.23	8549.98
466.41	8578.06
466.60	8786.37
466.78	8381.46
466.96	8346.35
467.14	8716.16
467.32	8671.68
467.51	8894.04
467.69	8444.65
467.87	8744.24
468.05	8875.31
468.23	8746.58
468.41	8636.58
468.60	8755.94
468.78	8994.68
468.96	8753.60
469.14	9013.40
469.32	9188.94
469.50	8795.73
469.69	9088.30
469.87	9245.12
470.05	9111.71
470.23	9048.51
470.41	9114.05
470.59	9221.71
470.77	9132.77
470.95	9298.95
471.14	9614.92
471.32	9439.38
471.50	9514.28
471.68	9493.21
471.86	9582.15
472.04	9851.31
472.22	9724.93
472.40	9610.24
472.58	9610.24
472.77	9722.59
472.95	9935.57
473.13	10361.55
473.31	9701.52
473.49	9792.80
473.67	9830.25
473.85	10097.07
474.03	10129.84
474.21	10111.11
474.39	10211.76
474.57	10310.06
474.75	10265.59
474.93	10445.81
475.12	10326.44
475.30	10438.79
475.48	10380.28
475.66	10478.58
475.84	10361.55
476.02	10808.59
476.20	10731.36
476.38	10906.90
476.56	11089.46
476.74	11265.00
476.92	10958.39
477.10	11087.12
477.28	11367.98
477.46	11393.73
477.64	11494.37
477.82	11438.20
478.00	11686.29
478.18	11587.99
478.36	11667.57
478.54	11894.60
478.72	11922.69
478.90	11922.69
479.08	12112.27
479.26	12187.17
479.44	12121.63
479.62	12453.99
479.80	12662.30
479.98	12353.35
480.16	12884.65
480.34	12465.69
480.52	13085.94
480.70	12791.03
480.88	12840.18
481.06	12854.22
481.24	12891.67
481.41	13226.37
481.59	13394.89
481.77	13453.40
481.95	13610.22
482.13	13624.26
482.31	13722.56
482.49	13907.46
482.67	13781.07
482.85	14274.93
483.03	14251.52
483.21	14457.49
483.39	14317.06
483.57	14328.76
483.74	14637.71
483.92	14773.46
484.10	14373.23
484.28	14787.50
484.46	15108.16
484.64	15208.80
484.82	15096.46
485.00	15204.12
485.18	15405.41
485.35	15461.58
485.53	15143.27
485.71	15356.25
485.89	15756.49
486.07	15702.65
486.25	15962.45
486.43	15838.41
486.61	16215.23
486.78	16187.14
486.96	16418.86
487.14	16765.26
487.32	16631.85
487.50	16753.55
487.68	16833.13
487.85	17324.65
488.03	16989.95
488.21	17811.48
488.39	17516.57
488.57	17823.18
488.75	17528.27
488.92	17785.73
489.10	18134.47
489.28	18265.54
489.46	18279.58
489.64	18593.22
489.81	19166.65
489.99	19056.64
490.17	18946.64
490.35	18838.97
490.53	18944.30
490.70	19201.76
490.88	19187.71
491.06	19702.63
491.24	19360.91
491.41	19421.77
491.59	19922.64
491.77	19765.82
491.95	19686.25
492.13	19824.34
492.30	20606.08
492.48	20503.09
492.66	20247.97
492.84	20264.36
493.01	20570.97
493.19	20699.70
493.37	20971.20
493.54	21018.01
493.72	21579.74
493.90	21142.06
494.08	21722.51
494.25	21762.30
494.43	21797.41
494.61	22001.04
494.79	22017.42
494.96	21692.08
495.14	22068.91
495.32	22122.74
495.49	22115.72
495.67	22405.95
495.85	22581.49
496.02	22885.76
496.20	22717.24
496.38	22911.50
496.55	23269.61
496.73	23580.90
496.91	23400.68
497.09	23955.38
497.26	23372.59
497.44	23662.82
497.62	23520.04
497.79	23971.77
497.97	23639.41
498.14	23828.99
498.32	24212.84
498.50	24126.24
498.67	24758.19
498.85	24460.94
499.03	24760.53
499.20	24875.21
499.38	24706.70
499.56	24760.53
499.73	25092.88
499.91	25188.85
500.08	25418.22
500.26	24858.83
500.44	25151.40
500.61	25083.52
500.79	25132.67
500.97	25577.37
501.14	25465.03
501.32	25799.73
501.49	25647.59
501.67	25689.72
501.84	25886.32
502.02	25788.02
502.20	26368.48
502.37	26382.52
502.55	26089.95
502.72	26001.01
502.90	26766.37
503.07	26497.20
503.25	26345.07
503.43	26422.31
503.60	26586.15
503.78	26754.66
503.95	26363.79
504.13	27274.26
504.30	27412.35
504.48	27213.41
504.65	27484.91
504.83	27534.06
505.01	27620.66
505.18	27115.11
505.36	27913.23
505.53	27585.55
505.71	27943.66
505.88	28226.86
506.06	28109.83
506.23	28016.21
506.41	27807.90
506.58	27777.48
506.76	28002.17
506.93	28709.01
507.11	28254.95
507.28	28608.37
507.46	28496.02
507.63	28606.03
507.81	28671.56
507.98	28428.15
508.16	28727.74
508.33	29097.54
508.50	29259.04
508.68	29067.11
508.85	29340.96
509.03	29413.51
509.20	29427.56
509.38	29195.84
509.55	29975.24
509.73	29589.05
509.90	29483.73
510.08	29806.72
510.25	29834.81
510.42	29823.11
510.60	30167.16
510.77	30005.67
510.95	30113.33
511.12	30146.10
511.30	30541.65
511.47	30766.34
511.64	30752.30
511.82	30457.39
511.99	30558.03
512.17	30675.06
512.34	30455.05
512.51	31056.57
512.69	31501.27
512.86	31058.91
513.04	31243.81
513.21	31292.96
513.38	30937.20
513.56	30974.65
513.73	31124.44
513.90	31129.12
514.08	31302.32
514.25	31751.71
514.43	31604.25
514.60	31833.63
514.77	31782.13
514.95	31992.78
515.12	31840.65
515.29	32072.36
515.47	31716.60
515.64	31978.74
515.81	32072.36
515.99	32212.79
516.16	32240.88
516.33	32259.60
516.51	32311.10
516.68	32102.79
516.85	32025.55
517.03	32332.16
517.20	32437.48
517.37	32833.04
517.54	33139.65
517.72	32369.61
517.89	32680.90
518.06	32444.51
518.24	32765.16
518.41	32830.69
518.58	33090.49
518.75	32891.55
518.93	33244.97
519.10	33256.67
519.27	33151.35
519.45	32957.08
519.62	33436.89
519.79	33467.32
519.96	33727.12
520.14	34132.03
520.31	33397.10
520.48	33916.70
520.65	33977.56
520.83	34412.90
521.00	33890.96
521.17	34330.98
521.34	34267.78
521.52	33979.90
521.69	34464.39
521.86	34735.89
522.03	35002.71
522.20	34487.79
522.38	34749.93
522.55	34813.13
522.72	34663.33
522.89	34773.34
523.07	35098.67
523.24	34707.80
523.41	35384.22
523.58	35154.85
523.75	35480.18
523.92	35475.50
524.10	35952.97
524.27	35416.99
524.44	35534.01
524.61	35571.46
524.78	35730.62
524.96	35943.61
525.13	35833.60
525.30	35849.99
525.47	35936.59
525.64	36098.08
525.81	36130.85
525.98	35723.60
526.16	35777.43
526.33	35978.72
526.50	35644.02
526.67	35646.36
526.84	36346.18
527.01	36067.66
527.18	35955.31
527.36	36692.58
527.53	36751.09
527.70	36858.76
527.87	37141.96
528.04	37090.47
528.21	37010.89
528.38	36779.18
528.55	37345.59
528.72	36634.06
528.89	37123.24
529.07	36994.51
529.24	36734.71
529.41	37593.68
529.58	37163.03
529.75	37427.51
529.92	37432.19
530.09	37638.15
530.26	37429.85
530.43	37596.03
530.60	37263.67
530.77	37301.12
530.94	37766.88
531.11	37305.80
531.28	37535.17
531.46	37900.29
531.63	37642.84
531.80	37390.06
531.97	37834.76
532.14	37535.17
532.31	37521.13
532.48	37869.87
532.65	37919.02
532.82	38326.27
532.99	38059.45
533.16	37479.00
533.33	38061.79
533.50	38628.20
533.67	38181.16
533.84	38277.12
534.01	38667.99
534.18	38595.43
534.35	39124.40
534.52	38719.48
534.69	38384.79
534.86	38998.01
535.03	38824.81
535.20	39044.82
535.37	39335.04
535.54	39384.19
535.71	39026.09
535.88	38990.98
536.05	38761.61
536.22	39187.59
536.38	38990.98
536.55	38927.79
536.72	39119.71
536.89	38904.38
537.06	39124.40
537.23	39545.69
537.40	39398.24
537.57	39196.95
537.74	39636.97
537.91	39887.41
538.08	39400.58
538.25	39414.62
538.42	39519.95
538.59	39622.93
538.75	39391.22
538.92	39852.30
539.09	39854.64
539.26	39721.23
539.43	39763.36
539.60	39648.68
539.77	39601.86
539.94	40004.44
540.11	39629.95
540.28	39922.52
540.44	40039.54
540.61	40067.63
540.78	39927.20
540.95	39892.09
541.12	40128.48
541.29	39983.37
541.46	39966.99
541.62	40591.91
541.79	41146.62
541.96	39658.04
542.13	40561.48
542.30	40215.08
542.47	40301.68
542.63	40631.70
542.80	40928.95
542.97	41127.89
543.14	40900.86
543.31	41322.16
543.48	40931.29
543.64	41603.02
543.81	41368.97
543.98	41277.69
544.15	41102.15
544.32	41216.83
544.48	41652.17
544.65	41134.92
544.82	41270.67
544.99	41390.03
545.16	41464.93
545.32	41420.46
545.49	42204.54
545.66	41696.64
545.83	41926.02
546.00	42000.91
546.16	41720.05
546.33	41221.52
546.50	41186.41
546.67	41373.65
546.83	41345.56
547.00	41778.56
547.17	41588.98
547.34	41972.83
547.50	41528.13
547.67	41638.13
547.84	41968.15
548.00	42007.94
548.17	41916.65
548.34	42553.28
548.51	42588.39
548.67	42431.57
548.84	41799.63
549.01	42440.93
549.18	42124.96
549.34	42302.84
549.51	42632.86
549.68	42436.25
549.84	42635.20
550.01	42674.99
550.18	42204.54
550.34	42546.26
550.51	42452.64
550.68	42864.57
550.84	41944.74
551.01	42401.14
551.18	42550.94
551.34	42859.89
551.51	42953.51
551.68	42602.43
551.84	42799.04
552.01	42672.65
552.18	42717.12
552.34	42766.27
552.51	42976.92
552.68	42679.67
552.84	42972.24
553.01	43456.73
553.18	42815.42
553.34	43098.62
553.51	42330.93
553.67	43065.86
553.84	43278.85
554.01	43311.61
554.17	43117.35
554.34	43510.56
554.51	42955.85
554.67	43524.60
554.84	43440.34
555.00	42993.30
555.17	43225.01
555.33	43267.14
555.50	43171.18
555.67	43374.81
555.83	43196.93
556.00	43477.79
556.16	43409.92
556.33	43150.12
556.50	43077.56
556.66	43643.97
556.83	43356.08
556.99	43966.96
557.16	43737.59
557.32	43512.90
557.49	43835.89
557.65	43529.28
557.82	43711.84
557.98	44091.01
558.15	43601.84
558.32	43491.83
558.48	43562.05
558.65	43508.22
558.81	43260.12
558.98	43885.04
559.14	43744.61
559.31	43328.00
559.47	44044.20
559.64	44264.21
559.80	43807.81
559.97	43922.49
560.13	43517.58
560.30	43765.68
560.46	43887.39
560.63	43981.01
560.79	44205.70
560.96	44664.44
561.12	44032.50
561.29	43737.59
561.45	43971.64
561.61	44112.08
561.78	44414.01
561.94	44212.72
562.11	44055.90
562.27	44390.60
562.44	44105.06
562.60	44416.35
562.77	44212.72
562.93	44376.56
563.10	44385.92
563.26	43796.10
563.42	44259.53
563.59	43812.49
563.75	44016.11
563.92	44460.82
564.08	44074.63
564.24	44797.85
564.41	44306.34
564.57	44683.17
564.74	43962.28
564.90	44179.95
565.07	44531.03
565.23	44030.16
565.39	43807.81
565.56	44512.31
565.72	44039.52
565.88	44680.83
566.05	44516.99
566.21	44170.59
566.38	44243.15
566.54	44315.70
566.70	44552.10
566.87	44612.95
567.03	44247.83
567.19	44973.39
567.36	44928.92
567.52	44453.79
567.68	44638.70
567.85	44704.23
568.01	44821.26
568.17	44378.90
568.34	44797.85
568.50	44406.98
568.66	44521.67
568.83	44531.03
568.99	44519.33
569.15	44055.90
569.32	44182.29
569.48	44388.26
569.64	44861.05
569.81	44715.93
569.97	44996.80
570.13	44556.78
570.30	44804.88
570.46	44418.69
570.62	44734.66
570.78	44561.46
570.95	44362.51
571.11	44725.30
571.27	44830.62
571.43	44425.71
571.60	44458.48
571.76	44772.11
571.92	44617.63
572.09	44479.54
572.25	44587.21
572.41	44552.10
572.57	45298.73
572.74	44898.50
572.90	44968.71
573.06	44891.48
573.22	44612.95
573.38	44697.21
573.55	45027.23
573.71	44507.63
573.87	45237.87
574.03	44954.67
574.20	44776.79
574.36	44435.07
574.52	44533.37
574.68	44863.39
574.84	44931.26
575.01	44769.77
575.17	44744.02
575.33	44381.24
575.49	44545.08
575.65	45010.84
575.82	44825.94
575.98	44442.09
576.14	45476.61
576.30	44772.11
576.46	44870.41
576.62	44687.85
576.79	44975.73
576.95	44423.37
577.11	44884.45
577.27	44851.69
577.43	44989.78
577.59	44591.89
577.75	44753.38
577.92	44584.86
578.08	44514.65
578.24	44549.76
578.40	44521.67
578.56	44699.55
578.72	45095.10
578.88	45289.37
579.04	44835.30
579.21	45228.51
579.37	45237.87
579.53	44928.92
579.69	44437.41
579.85	44587.21
580.01	44924.24
580.17	44954.67
580.33	45247.24
580.49	44996.80
580.65	45284.68
580.82	45076.38
580.98	44942.97
581.14	44737.00
581.30	45361.92
581.46	44769.77
581.62	44718.28
581.78	45127.87
581.94	45375.97
582.10	44472.52
582.26	45050.63
582.42	44788.49
582.58	45265.96
582.74	45127.87
582.90	45251.92
583.06	45141.91
583.22	44898.50
583.38	45013.18
583.54	45457.88
583.70	44982.76
583.86	45036.59
584.02	44474.86
584.18	45490.65
584.34	44704.23
584.50	45069.36
584.66	44863.39
584.82	44968.71
584.98	45380.65
585.14	45118.51
585.30	45057.65
585.46	45015.52
585.62	45067.02
585.78	45069.36
585.94	44989.78
586.10	44751.04
586.26	44828.28
586.42	45116.17
586.58	45151.27
586.74	45059.99
586.90	45055.31
587.06	45106.80
587.22	45092.76
587.38	44507.63
587.54	45123.19
587.70	45244.90
587.86	44928.92
588.02	45067.02
588.18	45247.24
588.34	44910.20
588.49	44737.00
588.65	44357.83
588.81	44652.74
588.97	44891.48
589.13	44435.07
589.29	45165.32
589.45	45116.17
589.61	45277.66
589.77	45333.84
589.93	45148.93
590.08	45088.08
590.24	45181.70
