SpectraSuite Data File
++++++++++++++++++++++++++++++++++++
Date: Fri Oct 25 10:47:41 EDT 2013
User: price-jones
Dark Spectrum Present: No
Reference Spectrum Present: No
Number of Sampled Component Spectra: 1
Spectrometers: USB2+H05261
Integration Time (usec): 100000 (USB2+H05261)
Spectra Averaged: 1 (USB2+H05261)
Boxcar Smoothing: 0 (USB2+H05261)
Correct for Electrical Dark: No (USB2+H05261)
Strobe/Lamp Enabled: No (USB2+H05261)
Correct for Detector Non-linearity: No (USB2+H05261)
Correct for Stray Light: No (USB2+H05261)
Number of Pixels in Processed Spectrum: 2048
>>>>>Begin Processed Spectral Data<<<<<
365.73	210.65
365.92	210.65
366.12	210.65
366.32	107.66
366.52	0.00
366.72	102.98
366.91	49.15
367.11	105.32
367.31	65.54
367.51	46.81
367.70	30.43
367.90	32.77
368.10	35.11
368.30	72.56
368.49	4.68
368.69	126.39
368.89	0.00
369.09	16.38
369.28	56.17
369.48	46.81
369.68	49.15
369.87	119.37
370.07	32.77
370.27	121.71
370.47	138.09
370.66	397.89
370.86	489.17
371.06	484.49
371.25	482.15
371.45	496.19
371.65	489.17
371.84	507.90
372.04	465.77
372.24	458.74
372.44	425.98
372.63	552.37
372.83	535.98
373.03	484.49
373.22	475.13
373.42	503.22
373.62	484.49
373.81	482.15
374.01	613.22
374.21	599.18
374.40	535.98
374.60	540.66
374.79	519.60
374.99	498.53
375.19	566.41
375.38	566.41
375.58	667.05
375.78	592.16
375.97	535.98
376.17	624.92
376.37	482.15
376.56	603.86
376.76	601.52
376.95	554.71
377.15	578.11
377.35	587.47
377.54	580.45
377.74	641.31
377.93	613.22
378.13	535.98
378.33	622.58
378.52	592.16
378.72	592.16
378.91	645.99
379.11	655.35
379.31	657.69
379.50	582.79
379.70	641.31
379.89	676.41
380.09	650.67
380.28	627.26
380.48	692.80
380.68	734.93
380.87	676.41
381.07	629.60
381.26	615.56
381.46	627.26
381.65	641.31
381.85	718.54
382.04	662.37
382.24	702.16
382.43	676.41
382.63	699.82
382.83	645.99
383.02	716.20
383.22	678.76
383.41	653.01
383.61	725.57
383.80	706.84
384.00	840.25
384.19	739.61
384.39	678.76
384.58	744.29
384.78	791.10
384.97	723.23
385.17	688.12
385.36	816.85
385.56	786.42
385.75	781.74
385.95	748.97
386.14	821.53
386.34	730.25
386.53	718.54
386.72	737.27
386.92	809.83
387.11	779.40
387.31	763.01
387.50	767.70
387.70	835.57
387.89	760.67
388.09	770.04
388.28	812.17
388.48	828.55
388.67	891.74
388.86	828.55
389.06	863.66
389.25	915.15
389.45	880.04
389.64	880.04
389.84	985.37
390.03	940.90
390.22	936.21
390.42	910.47
390.61	947.92
390.81	936.21
391.00	922.17
391.19	1022.81
391.39	994.73
391.58	1020.47
391.78	973.66
391.97	889.40
392.16	950.26
392.36	1062.60
392.55	1043.88
392.75	940.90
392.94	985.37
393.13	915.15
393.33	945.58
393.52	884.72
393.71	971.32
393.91	997.07
394.10	1057.92
394.29	1048.56
394.49	1076.65
394.68	1121.12
394.88	1043.88
395.07	1118.78
395.26	1219.42
395.46	1235.80
395.65	1060.26
395.84	1123.46
396.04	1130.48
396.23	1004.09
396.42	1146.86
396.62	1142.18
396.81	1086.01
397.00	1116.44
397.19	1062.60
397.39	1130.48
397.58	1114.10
397.77	1144.52
397.97	1249.85
398.16	1247.51
398.35	1289.64
398.55	1231.12
398.74	1287.29
398.93	1294.32
399.12	1341.13
399.32	1226.44
399.51	1366.87
399.70	1427.73
399.90	1287.29
400.09	1502.62
400.28	1479.22
400.47	1451.13
400.67	1399.64
400.86	1519.01
401.05	1406.66
401.24	1514.33
401.44	1542.41
401.63	1521.35
401.82	1495.60
402.01	1481.56
402.21	1509.65
402.40	1521.35
402.59	1493.26
402.78	1523.69
402.97	1493.26
403.17	1612.63
403.36	1561.14
403.55	1598.59
403.74	1633.69
403.93	1554.12
404.13	1617.31
404.32	1633.69
404.51	1647.74
404.70	1678.16
404.89	1804.55
405.09	1743.70
405.28	1720.29
405.47	1842.00
405.66	1703.91
405.85	1734.34
406.05	1664.12
406.24	1774.13
406.43	1783.49
406.62	1858.39
406.81	1870.09
407.00	1732.00
407.20	1837.32
407.39	1893.49
407.58	1893.49
407.77	1996.48
407.96	1984.77
408.15	1975.41
408.34	1830.30
408.54	2047.97
408.73	2003.50
408.92	1963.71
409.11	2005.84
409.30	2118.18
409.49	2073.71
409.68	2083.08
409.87	1989.46
410.07	2031.58
410.26	1987.11
410.45	2129.89
410.64	2064.35
410.83	2157.97
411.02	2204.78
411.21	2193.08
411.40	2244.57
411.59	2307.77
411.78	2214.15
411.98	2239.89
412.17	2310.11
412.36	2354.58
412.55	2427.14
412.74	2282.02
412.93	2408.41
413.12	2373.30
413.31	2466.92
413.50	2413.09
413.69	2553.52
413.88	2513.74
414.07	2644.81
414.26	2583.95
414.45	2626.08
414.64	2530.12
414.83	2789.92
415.02	2647.15
415.22	2708.00
415.41	2661.19
415.60	2750.13
415.79	2834.39
415.98	2897.58
416.17	2883.54
416.36	2789.92
416.55	2782.90
416.74	2892.90
416.93	2951.42
417.12	2818.00
417.31	2981.84
417.50	3000.57
417.69	3077.80
417.88	3028.65
418.07	3014.61
418.26	2958.44
418.45	3049.72
418.64	3166.74
418.83	3126.96
419.02	3101.21
419.21	3241.64
419.39	3262.71
419.58	3122.27
419.77	3152.70
419.96	3164.40
420.15	3215.90
420.34	3236.96
420.53	3246.32
420.72	3356.33
420.91	3372.71
421.10	3393.78
421.29	3459.31
421.48	3438.25
421.67	3471.01
421.86	3389.10
422.05	3503.78
422.24	3375.05
422.43	3424.20
422.61	3471.01
422.80	3506.12
422.99	3534.21
423.18	3417.18
423.37	3550.59
423.56	3581.02
423.75	3517.83
423.94	3480.38
424.13	3171.43
424.32	3426.54
424.50	3466.33
424.69	3536.55
424.88	3592.72
425.07	3478.04
425.26	3466.33
425.45	3564.64
425.64	3368.03
425.83	3592.72
426.01	3555.27
426.20	3658.26
426.39	3506.12
426.58	3527.19
426.77	3564.64
426.96	3583.36
427.15	3543.57
427.33	3536.55
427.52	3571.66
427.71	3681.66
427.90	3606.77
428.09	3726.13
428.28	3674.64
428.46	3742.52
428.65	3597.40
428.84	3847.84
429.03	3840.82
429.22	3775.28
429.40	3669.96
429.59	3744.86
429.78	3646.55
429.97	3632.51
430.16	3831.46
430.34	3779.97
430.53	3887.63
430.72	3756.56
430.91	3889.97
431.10	3915.72
431.28	4065.51
431.47	4117.00
431.66	4112.32
431.85	4133.39
432.03	4131.05
432.22	4184.88
432.41	4156.79
432.60	4269.14
432.79	4131.05
432.97	4180.20
433.16	4259.78
433.35	4147.43
433.54	4212.96
433.72	4182.54
433.91	4304.25
434.10	4308.93
434.28	4395.53
434.47	4257.43
434.66	4454.04
434.85	4369.78
435.03	4505.53
435.22	4341.69
435.41	4643.62
435.59	4477.44
435.78	4486.81
435.97	4566.39
436.16	4599.15
436.34	4528.94
436.53	4650.64
436.72	4732.56
436.90	4517.23
437.09	4507.87
437.28	4568.73
437.46	4578.09
437.65	4636.60
437.84	4699.80
438.02	4617.88
438.21	4641.28
438.40	4723.20
438.58	4840.23
438.77	4957.25
438.96	4821.50
439.14	4854.27
439.33	5097.69
439.52	5144.50
439.70	5100.03
439.89	5046.20
440.08	4966.62
440.26	5071.94
440.45	4997.04
440.63	5296.63
440.82	5345.78
441.01	5296.63
441.19	5439.40
441.38	5423.02
441.57	5338.76
441.75	5444.09
441.94	5645.37
442.12	5565.79
442.31	5605.58
442.50	5750.70
442.68	5511.96
442.87	5666.44
443.05	5717.93
443.24	5738.99
443.43	5771.76
443.61	5760.06
443.80	5998.79
443.98	5654.73
444.17	5575.16
444.35	5764.74
444.54	5879.43
444.73	5734.31
444.91	5767.08
445.10	5951.98
445.28	5806.87
445.47	5863.04
445.65	5755.38
445.84	5757.72
446.02	5975.39
446.21	5741.33
446.39	5825.59
446.58	5966.03
446.77	5961.34
446.95	5624.31
447.14	5898.15
447.32	6029.22
447.51	5959.00
447.69	5989.43
447.88	5970.71
448.06	5984.75
448.25	5970.71
448.43	6050.28
448.62	5867.72
448.80	6099.44
448.99	5966.03
449.17	6162.63
449.36	6015.18
449.54	6244.55
449.73	6328.81
449.91	6239.87
450.10	6424.77
450.28	6443.49
450.46	6511.37
450.65	6410.73
450.83	6427.11
451.02	6274.98
451.20	6366.26
451.39	6431.79
451.57	6413.07
451.76	6389.66
451.94	6427.11
452.13	6679.89
452.31	6464.56
452.49	6387.32
452.68	6483.28
452.86	6499.67
453.05	6478.60
453.23	6696.27
453.42	6476.26
453.60	6473.92
453.78	6546.48
453.97	6745.42
454.15	6722.02
454.34	6558.18
454.52	6661.16
454.70	6729.04
454.89	6633.08
455.07	6794.58
455.26	6724.36
455.44	6794.58
455.62	6864.79
455.81	6761.81
455.99	6892.88
456.17	7117.57
456.36	6808.62
456.54	7054.37
456.73	7009.90
456.91	7260.34
457.09	7140.97
457.28	7358.64
457.46	7229.91
457.64	7201.83
457.83	7211.19
458.01	7148.00
458.19	7438.22
458.38	7138.63
458.56	7440.56
458.74	7229.91
458.93	7382.05
459.11	7485.03
459.29	7253.32
459.48	7412.48
459.66	7480.35
459.84	7552.91
460.03	7655.89
460.21	7613.76
460.39	7826.75
460.57	7557.59
460.76	7597.38
460.94	7894.63
461.12	7667.60
461.31	7782.28
461.49	7747.17
461.67	7751.85
461.85	7873.56
462.04	7871.22
462.22	8411.89
462.40	7775.26
462.59	7964.84
462.77	7878.24
462.95	7983.57
463.13	7948.46
463.32	8063.15
463.50	7974.21
463.68	8030.38
463.86	8142.72
464.05	7995.27
464.23	7793.98
464.41	8205.92
464.59	8016.33
464.78	8161.45
464.96	8224.64
465.14	8238.69
465.32	8285.50
465.50	8620.19
465.69	8248.05
465.87	8322.94
466.05	8402.52
466.23	8287.84
466.41	8355.71
466.60	8554.66
466.78	8325.29
466.96	8308.90
467.14	8336.99
467.32	8400.18
467.51	8723.18
467.69	8367.42
467.87	8395.50
468.05	8774.67
468.23	8437.63
468.41	8416.57
468.60	8608.49
468.78	8643.60
468.96	8664.66
469.14	8826.16
469.32	8842.54
469.50	8734.88
469.69	8819.14
469.87	8809.78
470.05	8812.12
470.23	9050.85
470.41	8788.71
470.59	9015.74
470.77	9041.49
470.95	8912.76
471.14	8968.93
471.32	8894.04
471.50	9200.65
471.68	9195.96
471.86	9322.35
472.04	9465.13
472.22	9401.93
472.40	9135.11
472.58	9444.06
472.77	9280.22
472.95	9408.95
473.13	9879.40
473.31	9413.63
473.49	9750.67
473.67	9657.05
473.85	9675.77
474.03	9748.33
474.21	10005.79
474.39	9795.14
474.57	10090.05
474.75	10113.45
474.93	9975.36
475.12	10068.98
475.30	10127.50
475.48	10150.90
475.66	10244.52
475.84	10008.13
476.02	10171.97
476.20	10272.61
476.38	10537.09
476.56	10834.34
476.74	10621.35
476.92	10544.11
477.10	10590.92
477.28	10827.32
477.46	10710.29
477.64	10911.58
477.82	11094.14
478.00	11314.15
478.18	11318.83
478.36	11288.40
478.54	11314.15
478.72	11639.48
478.90	11793.96
479.08	11768.21
479.26	11831.41
479.44	11836.09
479.62	11723.74
479.80	12126.32
479.98	12348.67
480.16	12353.35
480.34	12210.57
480.52	12257.39
480.70	12383.77
480.88	12264.41
481.06	12446.97
481.24	12500.80
481.41	12835.50
481.59	13193.60
481.77	13006.36
481.95	13212.32
482.13	12975.93
482.31	13085.94
482.49	13362.12
482.67	13479.15
482.85	13734.26
483.03	13650.00
483.21	13785.76
483.39	14190.67
483.57	14038.53
483.74	14230.46
483.92	14022.15
484.10	14202.37
484.28	14445.79
484.46	14586.22
484.64	14981.77
484.82	14593.24
485.00	14850.70
485.18	15070.71
485.35	14981.77
485.53	14911.55
485.71	15089.43
485.89	15215.82
486.07	15297.74
486.25	15360.94
486.43	15660.52
486.61	15456.90
486.78	15800.96
486.96	16002.24
487.14	15885.22
487.32	16086.50
487.50	16315.87
487.68	16592.06
487.85	16662.27
488.03	16936.12
488.21	17224.00
488.39	16891.65
488.57	17078.89
488.75	17132.72
488.92	17537.63
489.10	17626.57
489.28	17877.01
489.46	18029.15
489.64	17923.82
489.81	18099.36
489.99	18223.41
490.17	18483.21
490.35	18618.96
490.53	18190.64
490.70	18511.30
490.88	18642.37
491.06	19033.24
491.24	19019.19
491.41	19075.37
491.59	19077.71
491.77	18906.85
491.95	19101.11
492.13	19702.63
492.30	19845.40
492.48	20020.94
492.66	19889.87
492.84	20137.97
493.01	20088.82
493.19	20212.87
493.37	20313.51
493.54	20463.30
493.72	20624.80
493.90	20741.83
494.08	20929.07
494.25	21256.75
494.43	21266.11
494.61	21020.35
494.79	21392.50
494.96	21212.28
495.14	21460.37
495.32	21483.78
495.49	21673.36
495.67	21905.07
495.85	22010.40
496.02	21979.97
496.20	22340.41
496.38	22237.43
496.55	22497.23
496.73	22764.05
496.91	22544.04
497.09	22384.88
497.26	22869.37
497.44	22672.77
497.62	23267.27
497.79	23152.58
497.97	23019.17
498.14	23232.16
498.32	23639.41
498.50	23339.82
498.67	23740.05
498.85	23807.93
499.03	24041.98
499.20	23854.74
499.38	23798.57
499.56	24451.58
499.73	24720.74
499.91	24276.04
500.08	24491.37
500.26	24018.58
500.44	24854.15
500.61	24797.98
500.79	24341.57
500.97	24790.95
501.14	25158.42
501.32	24826.06
501.49	24907.98
501.67	25186.50
501.84	25081.18
502.02	25043.73
502.20	25488.43
502.37	25825.47
502.55	25399.49
502.72	25572.69
502.90	25603.12
503.07	26040.80
503.25	25869.94
503.43	26265.49
503.60	26277.19
503.78	25975.27
503.95	25991.65
504.13	26291.24
504.30	26485.50
504.48	26298.26
504.65	26909.14
504.83	26792.11
505.01	27115.11
505.18	26925.52
505.36	27456.82
505.53	27300.01
505.71	27285.97
505.88	27271.92
506.06	27143.19
506.23	27246.18
506.41	27204.05
506.58	27489.59
506.76	27164.26
506.93	27831.31
507.11	27620.66
507.28	28116.86
507.46	27744.71
507.63	27676.83
507.81	28067.70
507.98	28114.52
508.16	28287.71
508.33	28046.64
508.50	28184.73
508.68	28503.04
508.85	28460.91
509.03	28439.85
509.20	28620.07
509.38	29067.11
509.55	28809.65
509.73	29380.74
509.90	29032.00
510.08	28947.75
510.25	29099.88
510.42	28926.68
510.60	29247.33
510.77	29497.77
510.95	29362.02
511.12	29572.67
511.30	29532.88
511.47	29647.57
511.64	30087.59
511.82	29764.59
511.99	29795.02
512.17	29696.72
512.34	29851.19
512.51	30543.99
512.69	30085.25
512.86	30368.45
513.04	30644.63
513.21	30302.92
513.38	30639.95
513.56	30431.65
513.73	30614.21
513.90	30623.57
514.08	30984.01
514.25	30876.35
514.43	31192.32
514.60	30848.26
514.77	31152.53
514.95	31316.37
515.12	31065.93
515.29	31283.60
515.47	31391.26
515.64	31260.20
515.81	31271.90
515.99	31835.97
516.16	31632.34
516.33	31531.70
516.51	31742.35
516.68	31564.46
516.85	31620.64
517.03	31693.19
517.20	31931.93
517.37	32149.60
517.54	32385.99
517.72	32093.43
517.89	31782.13
518.06	32219.81
518.24	32163.64
518.41	31838.31
518.58	32002.14
518.75	32105.13
518.93	32573.24
519.10	32545.15
519.27	32840.06
519.45	32907.93
519.62	32912.61
519.79	32835.38
519.96	33029.64
520.14	33582.01
520.31	32863.46
520.48	33376.04
520.65	33511.79
520.83	33235.61
521.00	33460.30
521.17	33734.14
521.34	33706.05
521.52	33909.68
521.69	33783.29
521.86	34080.54
522.03	33881.60
522.20	34085.22
522.38	33759.89
522.55	33935.43
522.72	33827.76
522.89	34113.31
523.07	34258.42
523.24	34153.10
523.41	34478.43
523.58	34206.93
523.75	34925.47
523.92	34663.33
524.10	34719.51
524.27	34738.23
524.44	34541.63
524.61	34913.77
524.78	35119.74
524.96	35098.67
525.13	34962.92
525.30	35552.74
525.47	35332.73
525.64	35569.12
525.81	35119.74
525.98	35250.81
526.16	35400.60
526.33	35257.83
526.50	35629.98
526.67	34988.67
526.84	35463.80
527.01	35384.22
527.18	35510.61
527.36	35606.57
527.53	35655.72
527.70	36039.57
527.87	35962.33
528.04	35866.37
528.21	36306.39
528.38	35737.64
528.55	36222.13
528.72	36442.14
528.89	36498.31
529.07	36151.91
529.24	36360.22
529.41	36123.83
529.58	36671.51
529.75	36369.58
529.92	36678.54
530.09	36526.40
530.26	36811.95
530.43	36933.65
530.60	36868.12
530.77	36833.01
530.94	36938.33
531.11	36816.63
531.28	36879.82
531.46	37205.16
531.63	37163.03
531.80	37141.96
531.97	37500.06
532.14	37010.89
532.31	37010.89
532.48	37031.96
532.65	37624.11
532.82	37589.00
532.99	37750.50
533.16	37212.18
533.33	37319.84
533.50	37858.17
533.67	37577.30
533.84	37256.65
534.01	37591.34
534.18	37619.43
534.35	37991.58
534.52	38094.56
534.69	37563.26
534.86	38033.71
535.03	37752.84
535.20	37771.57
535.37	38246.69
535.54	38253.72
535.71	38117.96
535.88	38424.57
536.05	38050.09
536.22	38281.80
536.38	38438.62
536.55	38464.36
536.72	38476.07
536.89	38347.34
537.06	38124.99
537.23	38742.89
537.40	38478.41
537.57	38480.75
537.74	38677.35
537.91	39124.40
538.08	38806.08
538.25	38667.99
538.42	38763.95
538.59	39016.73
538.75	38712.46
538.92	39054.18
539.09	39175.89
539.26	39150.14
539.43	39484.84
539.60	38880.98
539.77	38955.88
539.94	38937.15
540.11	39328.02
540.28	39178.23
540.44	38990.98
540.61	39152.48
540.78	39318.66
540.95	39522.29
541.12	39505.90
541.29	39372.49
541.46	39346.75
541.62	39983.37
541.79	39665.06
541.96	39470.79
542.13	39529.31
542.30	39702.51
542.47	40135.51
542.63	39861.66
542.80	39934.22
542.97	40601.27
543.14	40081.67
543.31	40006.78
543.48	40264.24
543.64	40776.81
543.81	40559.14
543.98	40556.80
544.15	40280.62
544.32	40732.34
544.48	40999.16
544.65	40554.46
544.82	40507.65
544.99	40287.64
545.16	40437.44
545.32	40304.02
545.49	41181.73
545.66	41160.66
545.83	40662.13
546.00	40828.30
546.16	41060.02
546.33	40968.74
546.50	40617.66
546.67	41067.04
546.83	40404.67
547.00	40865.75
547.17	41322.16
547.34	40896.18
547.50	41273.01
547.67	41497.70
547.84	41022.57
548.00	41406.42
548.17	41617.07
548.34	41352.58
548.51	41607.70
548.67	41535.15
548.84	41542.17
549.01	41432.16
549.18	41326.84
549.34	41778.56
549.51	42136.66
549.68	42206.88
549.84	41806.65
550.01	42230.29
550.18	41481.31
550.34	42129.64
550.51	41687.28
550.68	41720.05
550.84	41270.67
551.01	41883.89
551.18	41907.29
551.34	41818.35
551.51	42092.19
551.68	41769.20
551.84	42199.86
552.01	42106.24
552.18	42036.02
552.34	42230.29
552.51	42094.53
552.68	42321.57
552.84	42555.62
553.01	42911.38
553.18	42040.70
553.34	42576.69
553.51	42005.59
553.67	42031.34
553.84	42733.50
554.01	42597.75
554.17	42759.25
554.34	42429.23
554.51	42789.67
554.67	42801.38
554.84	42473.70
555.00	42366.04
555.17	42653.92
555.33	42443.27
555.50	42354.33
555.67	42344.97
555.83	42646.90
556.00	42796.70
556.16	42792.01
556.33	43030.75
556.50	42834.14
556.66	42784.99
556.83	42944.15
556.99	42923.08
557.16	43016.71
557.32	42806.06
557.49	43302.25
557.65	42817.76
557.82	42787.33
557.98	42674.99
558.15	43203.95
558.32	43318.64
558.48	43171.18
558.65	43100.97
558.81	43147.78
558.98	43140.75
559.14	43395.87
559.31	43023.73
559.47	43290.55
559.64	43430.98
559.80	43650.99
559.97	43402.89
560.13	42990.96
560.30	43037.77
560.46	43477.79
560.63	43178.20
560.79	43503.54
560.96	43538.65
561.12	43222.67
561.29	43571.41
561.45	43217.99
561.61	43353.74
561.78	43243.74
561.94	42974.58
562.11	43641.63
562.27	43845.26
562.44	43672.06
562.60	43590.14
562.77	43863.98
562.93	43501.20
563.10	43868.66
563.26	43445.02
563.42	43189.91
563.59	43267.14
563.75	43442.68
563.92	43943.56
564.08	43716.53
564.24	44095.69
564.41	43704.82
564.57	43838.23
564.74	43768.02
564.90	43742.27
565.07	44032.50
565.23	43985.69
565.39	44130.80
565.56	43700.14
565.72	43592.48
565.88	43566.73
566.05	43660.35
566.21	43730.57
566.38	44275.91
566.54	44095.69
566.70	44034.84
566.87	44308.68
567.03	43929.51
567.19	44339.11
567.36	43768.02
567.52	43676.74
567.68	44657.42
567.85	44053.56
568.01	44126.12
568.17	43763.34
568.34	44484.22
568.50	43896.75
568.66	43606.52
568.83	44219.74
568.99	44194.00
569.15	44088.67
569.32	43995.05
569.48	43482.47
569.64	44502.95
569.81	44133.14
569.97	43784.40
570.13	44076.97
570.30	43941.22
570.46	44013.77
570.62	44186.97
570.78	44100.37
570.95	44076.97
571.11	44472.52
571.27	43992.71
571.43	44142.50
571.60	44332.09
571.76	44069.95
571.92	44158.89
572.09	44002.07
572.25	44322.72
572.41	44107.40
572.57	44683.17
572.74	44753.38
572.90	44296.98
573.06	44339.11
573.22	44130.80
573.38	44428.05
573.55	44184.63
573.71	44285.28
573.87	44184.63
574.03	44243.15
574.20	44439.75
574.36	44083.99
574.52	44474.86
574.68	44596.57
574.84	44224.42
575.01	44222.08
575.17	44718.28
575.33	44186.97
575.49	44512.31
575.65	44538.05
575.82	44919.56
575.98	44582.52
576.14	45052.97
576.30	44849.35
576.46	44217.40
576.62	44336.77
576.79	44617.63
576.95	44203.36
577.11	44402.30
577.27	44404.64
577.43	44664.44
577.59	44360.17
577.75	44343.79
577.92	44594.23
578.08	44123.78
578.24	44041.86
578.40	44870.41
578.56	44563.80
578.72	44622.31
578.88	44552.10
579.04	44818.92
579.21	44271.23
579.37	44215.06
579.53	44439.75
579.69	44432.73
579.85	44783.81
580.01	44388.26
580.17	44783.81
580.33	44769.77
580.49	44402.30
580.65	44650.40
580.82	44652.74
580.98	44233.78
581.14	44547.42
581.30	44641.04
581.46	44596.57
581.62	44425.71
581.78	44472.52
581.94	44765.09
582.10	44638.70
582.26	44720.62
582.42	44179.95
582.58	44729.98
582.74	44292.30
582.90	44444.43
583.06	44430.39
583.22	44734.66
583.38	44643.38
583.54	44673.81
583.70	44278.25
583.86	44758.06
584.02	44032.50
584.18	44355.49
584.34	44807.22
584.50	44598.91
584.66	44545.08
584.82	44395.28
584.98	44493.58
585.14	44821.26
585.30	44446.77
585.46	44421.03
585.62	44172.93
585.78	44383.58
585.94	44245.49
586.10	44308.68
586.26	44371.88
586.42	44573.16
586.58	44491.24
586.74	44884.45
586.90	44538.05
587.06	44559.12
587.22	44641.04
587.38	44219.74
587.54	44563.80
587.70	44952.33
587.86	44619.97
588.02	44100.37
588.18	45015.52
588.34	44488.90
588.49	44222.08
588.65	44608.27
588.81	44100.37
588.97	44371.88
589.13	44411.67
589.29	44378.90
589.45	44552.10
589.61	44650.40
589.77	44912.54
589.93	44304.00
590.08	45043.61
590.24	44694.87
