SpectraSuite Data File
++++++++++++++++++++++++++++++++++++
Date: Fri Oct 25 11:25:53 EDT 2013
User: price-jones
Dark Spectrum Present: No
Reference Spectrum Present: No
Number of Sampled Component Spectra: 1
Spectrometers: USB2+H05261
Integration Time (usec): 100000 (USB2+H05261)
Spectra Averaged: 1 (USB2+H05261)
Boxcar Smoothing: 0 (USB2+H05261)
Correct for Electrical Dark: No (USB2+H05261)
Strobe/Lamp Enabled: No (USB2+H05261)
Correct for Detector Non-linearity: No (USB2+H05261)
Correct for Stray Light: No (USB2+H05261)
Number of Pixels in Processed Spectrum: 2048
>>>>>Begin Processed Spectral Data<<<<<
365.73	276.18
365.92	276.18
366.12	276.18
366.32	117.03
366.52	222.35
366.72	135.75
366.91	117.03
367.11	114.69
367.31	135.75
367.51	142.77
367.70	138.09
367.90	180.22
368.10	133.41
368.30	227.03
368.49	175.54
368.69	145.11
368.89	173.20
369.09	177.88
369.28	201.29
369.48	180.22
369.68	140.43
369.87	177.88
370.07	177.88
370.27	184.90
370.47	325.33
370.66	592.16
370.86	629.60
371.06	723.23
371.25	692.80
371.45	657.69
371.65	655.35
371.84	636.63
372.04	711.52
372.24	800.46
372.44	732.59
372.63	730.25
372.83	784.08
373.03	819.19
373.22	697.48
373.42	720.88
373.62	830.89
373.81	770.04
374.01	760.67
374.21	844.93
374.40	875.36
374.60	940.90
374.79	788.76
374.99	816.85
375.19	814.51
375.38	809.83
375.58	819.19
375.78	933.87
375.97	912.81
376.17	868.34
376.37	844.93
376.56	863.66
376.76	828.55
376.95	784.08
377.15	908.13
377.35	926.85
377.54	877.70
377.74	929.19
377.93	992.39
378.13	950.26
378.33	945.58
378.52	901.11
378.72	968.98
378.91	938.55
379.11	873.02
379.31	896.43
379.50	950.26
379.70	929.19
379.89	1043.88
380.09	926.85
380.28	903.45
380.48	1022.81
380.68	1139.84
380.87	1088.35
381.07	1048.56
381.26	1048.56
381.46	1109.41
381.65	1032.18
381.85	1121.12
382.04	1011.11
382.24	1025.15
382.43	976.00
382.63	1130.48
382.83	1067.28
383.02	1144.52
383.22	1074.31
383.41	1111.75
383.61	1130.48
383.80	1123.46
384.00	1123.46
384.19	1041.54
384.39	1172.61
384.58	1093.03
384.78	1125.80
384.97	1156.22
385.17	1121.12
385.36	1114.10
385.56	1170.27
385.75	1193.67
385.95	1226.44
386.14	1280.27
386.34	1240.48
386.53	1233.46
386.72	1210.06
386.92	1256.87
387.11	1249.85
387.31	1275.59
387.50	1270.91
387.70	1245.16
387.89	1233.46
388.09	1294.32
388.28	1268.57
388.48	1273.25
388.67	1259.21
388.86	1221.76
389.06	1327.08
389.25	1287.29
389.45	1270.91
389.64	1439.43
389.84	1369.21
390.03	1329.42
390.22	1397.30
390.42	1476.88
390.61	1373.89
390.81	1427.73
391.00	1460.49
391.19	1479.22
391.39	1376.24
391.58	1458.15
391.78	1535.39
391.97	1469.86
392.16	1399.64
392.36	1486.24
392.55	1537.73
392.75	1603.27
392.94	1511.99
393.13	1600.93
393.33	1500.28
393.52	1509.65
393.71	1544.75
393.91	1621.99
394.10	1572.84
394.29	1596.25
394.49	1582.20
394.68	1666.46
394.88	1582.20
395.07	1650.08
395.26	1624.33
395.46	1591.56
395.65	1720.29
395.84	1703.91
396.04	1860.73
396.23	1757.74
396.42	1767.10
396.62	1806.89
396.81	1762.42
397.00	1771.79
397.19	1753.06
397.39	1755.40
397.58	1799.87
397.77	1818.60
397.97	1851.36
398.16	1774.13
398.35	1820.94
398.55	1902.86
398.74	1881.79
398.93	1877.11
399.12	1970.73
399.32	1851.36
399.51	1830.30
399.70	1916.90
399.90	1912.22
400.09	2003.50
400.28	2136.91
400.47	2073.71
400.67	2050.31
400.86	2129.89
401.05	2092.44
401.24	2080.74
401.44	2193.08
401.63	2104.14
401.82	2246.91
402.01	1980.09
402.21	2097.12
402.40	2314.79
402.59	2197.76
402.78	2181.38
402.97	2244.57
403.17	2265.64
403.36	2286.70
403.55	2267.98
403.74	2331.17
403.93	2277.34
404.13	2366.28
404.32	2338.20
404.51	2293.72
404.70	2303.09
404.89	2392.03
405.09	2537.14
405.28	2483.31
405.47	2431.82
405.66	2466.92
405.85	2513.74
406.05	2473.95
406.24	2567.57
406.43	2574.59
406.62	2612.04
406.81	2668.21
407.00	2597.99
407.20	2633.10
407.39	2572.25
407.58	2738.43
407.77	2752.47
407.96	2719.70
408.15	2747.79
408.34	2698.64
408.54	2782.90
408.73	2892.90
408.92	2745.45
409.11	2904.60
409.30	2857.79
409.49	2920.99
409.68	3021.63
409.87	2782.90
410.07	2871.84
410.26	2974.82
410.45	2937.37
410.64	3066.10
410.83	3038.02
411.02	2937.37
411.21	3351.65
411.40	3150.36
411.59	3190.15
411.78	3225.26
411.98	3068.44
412.17	3236.96
412.36	3290.79
412.55	3335.26
412.74	3391.44
412.93	3438.25
413.12	3400.80
413.31	3520.17
413.50	3424.20
413.69	3424.20
413.88	3695.71
414.07	3618.47
414.26	3620.81
414.45	3669.96
414.64	3667.62
414.83	3737.84
415.02	3719.11
415.22	3936.78
415.41	3880.61
415.60	3964.87
415.79	3817.41
415.98	3990.61
416.17	4100.62
416.36	4030.40
416.55	3915.72
416.74	4032.74
416.93	4114.66
417.12	4121.68
417.31	4208.28
417.50	4124.02
417.69	4421.27
417.88	4411.91
418.07	4168.49
418.26	4163.81
418.45	4402.55
418.64	4484.47
418.83	4454.04
419.02	4367.44
419.21	4542.98
419.39	4404.89
419.58	4496.17
419.77	4447.02
419.96	4545.32
420.15	4437.66
420.34	4500.85
420.53	4704.48
420.72	4627.24
420.91	4744.27
421.10	4671.71
421.29	4617.88
421.48	4765.33
421.67	4676.39
421.86	4758.31
422.05	4713.84
422.24	4870.65
422.43	4873.00
422.61	4772.35
422.80	5057.90
422.99	4912.78
423.18	5050.88
423.37	5064.92
423.56	4964.28
423.75	4903.42
423.94	4882.36
424.13	4603.83
424.32	4816.82
424.50	4933.85
424.69	5095.35
424.88	5053.22
425.07	5008.75
425.26	5025.13
425.45	4896.40
425.64	4786.40
425.83	4863.63
426.01	4812.14
426.20	5043.85
426.39	5048.54
426.58	4954.91
426.77	5064.92
426.96	5179.61
427.15	5158.54
427.33	5233.44
427.52	5303.65
427.71	5280.25
427.90	5416.00
428.09	5320.04
428.28	5254.50
428.46	5317.70
428.65	5352.81
428.84	5479.19
429.03	5680.48
429.22	5371.53
429.40	5551.75
429.59	5476.85
429.78	5397.28
429.97	5116.41
430.16	5420.68
430.34	5577.50
430.53	5577.50
430.72	5729.63
430.91	5607.92
431.10	5664.10
431.28	5825.59
431.47	5806.87
431.66	5863.04
431.85	5685.16
432.03	5743.67
432.22	6057.31
432.41	5832.62
432.60	5809.21
432.79	5930.92
432.97	6017.52
433.16	5879.43
433.35	6111.14
433.54	5956.66
433.72	6272.64
433.91	6083.05
434.10	6176.67
434.28	6104.12
434.47	6169.65
434.66	6242.21
434.85	6253.91
435.03	6289.02
435.22	6139.23
435.41	6455.20
435.59	6354.55
435.78	6406.05
435.97	6520.73
436.16	6427.11
436.34	6424.77
436.53	6469.24
436.72	6506.69
436.90	6399.02
437.09	6576.91
437.28	6558.18
437.46	6422.43
437.65	6595.63
437.84	6817.98
438.02	6656.48
438.21	6745.42
438.40	6717.34
438.58	6927.99
438.77	7110.55
438.96	7075.44
439.14	7232.26
439.33	7056.72
439.52	7197.15
439.70	7290.77
439.89	7358.64
440.08	7557.59
440.26	7370.35
440.45	7300.13
440.63	7419.50
440.82	7454.61
441.01	7609.08
441.19	7625.47
441.38	7812.71
441.57	7527.16
441.75	7737.81
441.94	7857.18
442.12	7999.95
442.31	8074.85
442.50	8063.15
442.68	8063.15
442.87	8028.04
443.05	8159.11
443.24	8060.80
443.43	8145.06
443.61	8086.55
443.80	8339.33
443.98	8039.74
444.17	7932.08
444.35	8203.58
444.54	8266.77
444.73	8280.82
444.91	8280.82
445.10	8292.52
445.28	8327.63
445.47	8215.28
445.65	8341.67
445.84	8641.26
446.02	8400.18
446.21	8395.50
446.39	8489.12
446.58	8589.77
446.77	8372.10
446.95	8222.30
447.14	8472.74
447.32	8688.07
447.51	8718.50
447.69	8643.60
447.88	8489.12
448.06	8521.89
448.25	8425.93
448.43	8552.32
448.62	8559.34
448.80	8580.40
448.99	8734.88
449.17	8727.86
449.36	8683.39
449.54	8896.38
449.73	8950.21
449.91	8875.31
450.10	8959.57
450.28	8910.42
450.46	9130.43
450.65	8994.68
450.83	8940.85
451.02	9064.89
451.20	9153.84
451.39	9179.58
451.57	9085.96
451.76	8919.78
451.94	9224.05
452.13	9352.78
452.31	9245.12
452.49	9020.42
452.68	9476.83
452.86	9247.46
453.05	9488.53
453.23	9455.76
453.42	9371.50
453.60	9453.42
453.78	9483.85
453.97	9500.23
454.15	9668.75
454.34	9469.81
454.52	9523.64
454.70	9701.52
454.89	9736.63
455.07	9860.68
455.26	9841.95
455.44	9895.78
455.62	9881.74
455.81	9799.82
455.99	9973.02
456.17	10132.18
456.36	10129.84
456.54	10167.29
456.73	10188.35
456.91	10628.37
457.09	10342.83
457.28	10394.32
457.46	10340.49
457.64	10579.22
457.83	10602.63
458.01	10560.50
458.19	10724.33
458.38	10714.97
458.56	10691.57
458.74	10487.94
458.93	10586.24
459.11	10684.55
459.29	10504.32
459.48	10768.80
459.66	10509.01
459.84	10740.72
460.03	10885.83
460.21	10883.49
460.39	10888.17
460.57	10953.71
460.76	11218.19
460.94	11302.45
461.12	11403.09
461.31	11164.36
461.49	10909.24
461.67	11197.12
461.85	11419.47
462.04	11201.80
462.22	11719.06
462.40	11583.31
462.59	11431.18
462.77	11595.01
462.95	11550.54
463.13	11611.40
463.32	11810.34
463.50	11735.45
463.68	11700.34
463.86	11758.85
464.05	11555.22
464.23	11559.91
464.41	11969.50
464.59	11662.89
464.78	12095.89
464.96	11918.01
465.14	11796.30
465.32	11918.01
465.50	11969.50
465.69	12334.62
465.87	11948.43
466.05	11894.60
466.23	12360.37
466.41	12180.15
466.60	12451.65
466.78	12180.15
466.96	12290.15
467.14	12203.55
467.32	12273.77
467.51	12512.50
467.69	12123.98
467.87	12674.00
468.05	12613.15
468.23	12531.23
468.41	12585.06
468.60	12643.57
468.78	12905.71
468.96	12578.04
469.14	12961.89
469.32	13048.49
469.50	12652.94
469.69	13130.41
469.87	13226.37
470.05	13029.76
470.23	13092.96
470.41	13219.35
470.59	13249.77
470.77	13163.17
470.95	13291.90
471.14	13507.23
471.32	13270.84
471.50	13598.51
471.68	13607.87
471.86	13289.56
472.04	13474.46
472.22	14057.26
472.40	13514.25
472.58	13977.68
472.77	14061.94
472.95	14300.67
473.13	14324.08
473.31	14225.78
473.49	14176.62
473.67	14228.12
473.85	14230.46
474.03	14445.79
474.21	14494.94
474.39	14604.94
474.57	14831.97
474.75	14904.53
474.93	14855.38
475.12	15119.86
475.30	15054.33
475.48	14918.57
475.66	14977.09
475.84	14909.21
476.02	15047.30
476.20	15452.22
476.38	15978.84
476.56	15831.38
476.74	15623.08
476.92	15903.94
477.10	15798.62
477.28	16035.01
477.46	16346.30
477.64	16252.68
477.82	16531.20
478.00	16952.50
478.18	16924.41
478.36	17240.39
478.54	16931.44
478.72	16716.11
478.90	17287.20
479.08	17427.63
479.26	17654.66
479.44	17710.83
479.62	17944.89
479.80	17994.04
479.98	18169.58
480.16	18541.72
480.34	18253.84
480.52	18518.32
480.70	18597.90
480.88	18223.41
481.06	18553.43
481.24	18724.29
481.41	19007.49
481.59	19454.53
481.77	19440.49
481.95	19599.65
482.13	19730.72
482.31	20011.58
482.49	20137.97
482.67	19836.04
482.85	20250.32
483.03	20456.28
483.21	20723.10
483.39	20844.81
483.57	21003.97
483.74	21216.96
483.92	21198.23
484.10	21310.58
484.28	21708.47
484.46	21472.07
484.64	22277.22
484.82	22024.44
485.00	22504.25
485.18	23023.85
485.35	22855.33
485.53	22806.18
485.71	22885.76
485.89	23166.62
486.07	23515.36
486.25	23494.30
486.43	23456.85
486.61	23550.47
486.78	23885.17
486.96	23821.97
487.14	24451.58
487.32	24641.16
487.50	24657.54
487.68	24844.79
487.85	25153.74
488.03	25362.04
488.21	25825.47
488.39	25694.40
488.57	26113.36
488.75	26073.57
488.92	26054.84
489.10	26185.91
489.28	26850.63
489.46	26991.06
489.64	26834.24
489.81	27513.00
489.99	27611.30
490.17	27513.00
490.35	27915.57
490.53	28481.98
490.70	28322.82
490.88	28133.24
491.06	28884.55
491.24	28512.41
491.41	28922.00
491.59	28994.56
491.77	29022.64
491.95	29553.94
492.13	30045.46
492.30	29970.56
492.48	30038.44
492.66	29923.75
492.84	30176.53
493.01	30820.17
493.19	30459.73
493.37	31072.95
493.54	30967.63
493.72	31550.42
493.90	31407.65
494.08	31732.98
494.25	31695.53
494.43	31615.96
494.61	32297.05
494.79	32400.04
494.96	32830.69
495.14	32488.98
495.32	33022.62
495.49	32943.04
495.67	32982.83
495.85	33635.84
496.02	33254.33
496.20	33673.29
496.38	34087.56
496.55	33795.00
496.73	34707.80
496.91	34508.86
497.09	34560.35
497.26	34881.00
497.44	34260.76
497.62	35115.06
497.79	35803.17
497.97	35604.23
498.14	35679.13
498.32	35967.01
498.50	35964.67
498.67	36137.87
498.85	36161.28
499.03	36350.86
499.20	36605.98
499.38	36800.24
499.56	36905.57
499.73	37139.62
499.91	37008.55
500.08	37490.70
500.26	37408.78
500.44	37240.26
500.61	37787.95
500.79	37776.25
500.97	37991.58
501.14	38565.01
501.32	38590.75
501.49	38745.23
501.67	38670.33
501.84	38972.26
502.02	38337.98
502.20	38817.78
502.37	39501.22
502.55	39063.54
502.72	39269.51
502.90	39475.48
503.07	39672.08
503.25	39585.48
503.43	39887.41
503.60	39789.11
503.78	40018.48
503.95	40044.23
504.13	40650.42
504.30	40629.36
504.48	40479.57
504.65	40517.01
504.83	41055.34
505.01	40900.86
505.18	41170.02
505.36	41343.22
505.53	41158.32
505.71	41401.74
505.88	41577.28
506.06	41514.08
506.23	41893.25
506.41	41729.41
506.58	42288.80
506.76	42192.84
506.93	42492.43
507.11	41963.46
507.28	42649.24
507.46	42459.66
507.63	42616.47
507.81	43344.38
507.98	42871.59
508.16	43206.29
508.33	42967.55
508.50	43466.09
508.68	43370.13
508.85	44065.27
509.03	43454.39
509.20	44133.14
509.38	44175.27
509.55	44037.18
509.73	44016.11
509.90	44505.29
510.08	44364.85
510.25	44575.50
510.42	44914.88
510.60	45237.87
510.77	44987.44
510.95	45972.80
511.12	45003.82
511.30	44851.69
511.47	45354.90
511.64	45191.06
511.82	45773.86
511.99	45769.18
512.17	45909.61
512.34	45956.42
512.51	46227.92
512.69	46344.95
512.86	46169.41
513.04	46094.51
513.21	46485.38
513.38	46553.26
513.56	47114.98
513.73	46607.09
513.90	46986.25
514.08	46930.08
514.25	47278.82
514.43	47363.08
514.60	47192.22
514.77	47112.64
514.95	47580.75
515.12	47924.81
515.29	47260.10
515.47	47791.40
515.64	48142.48
515.81	47683.73
515.99	48250.14
516.16	48367.17
516.33	48161.20
516.51	48282.91
516.68	48243.12
516.85	48755.70
517.03	48903.15
517.20	48940.60
517.37	48940.60
517.54	48811.87
517.72	48891.45
517.89	48947.62
518.06	49394.67
518.24	49389.98
518.41	49284.66
518.58	49427.43
518.75	48893.79
518.93	49687.23
519.10	49277.64
519.27	49605.31
519.45	49553.82
519.62	50000.86
519.79	49755.11
519.96	50199.81
520.14	50153.00
520.31	50122.57
520.48	50663.24
520.65	50291.09
520.83	50836.44
521.00	50597.70
521.17	50209.17
521.34	50377.69
521.52	50665.58
521.69	50457.27
521.86	50712.39
522.03	51084.53
522.20	51428.59
522.38	51283.48
522.55	51068.15
522.72	51346.67
522.89	51047.08
523.07	51636.90
523.24	51447.32
523.41	51503.49
523.58	51557.32
523.75	51819.46
523.92	51669.67
524.10	51730.52
524.27	51931.81
524.44	51751.59
524.61	51892.02
524.78	52268.84
524.96	52058.20
525.13	52292.25
525.30	52399.91
525.47	52437.36
525.64	52273.52
525.81	52596.52
525.98	52809.51
526.16	52596.52
526.33	52425.66
526.50	52912.49
526.67	52617.58
526.84	53228.46
527.01	52690.14
527.18	52961.64
527.36	52655.03
527.53	52961.64
527.70	53301.02
527.87	53020.16
528.04	53340.81
528.21	53537.41
528.38	53506.99
528.55	53631.04
528.72	53066.97
528.89	53385.28
529.07	53413.37
529.24	53558.48
529.41	53523.37
529.58	53841.68
529.75	53439.11
529.92	53837.00
530.09	53968.07
530.26	53666.14
530.43	54071.06
530.60	53829.98
530.77	53965.73
530.94	53986.80
531.11	53904.88
531.28	53895.52
531.46	53977.43
531.63	54218.51
531.80	54422.14
531.97	54220.85
532.14	54436.18
532.31	54375.33
532.48	54363.62
532.65	54588.31
532.82	54405.75
532.99	54684.28
533.16	54286.39
533.33	54681.94
533.50	55030.68
533.67	54768.54
533.84	54955.78
534.01	54735.77
534.18	54958.12
534.35	55238.98
534.52	54848.11
534.69	55154.72
534.86	55229.62
535.03	55262.39
535.20	55143.02
535.37	55278.77
535.54	55381.76
535.71	55004.93
535.88	55192.17
536.05	55496.44
536.22	55529.21
536.38	55510.49
536.55	55444.95
536.72	55763.26
536.89	55248.35
537.06	55531.55
537.23	55484.74
537.40	55669.64
537.57	55936.46
537.74	55777.31
537.91	56119.02
538.08	55840.50
538.25	55491.76
538.42	55786.67
538.59	56088.60
538.75	55889.65
538.92	56247.75
539.09	56200.94
539.26	56100.30
539.43	56027.74
539.60	56076.90
539.77	56016.04
539.94	56404.57
540.11	56207.97
540.28	56397.55
540.44	56292.22
540.61	56343.72
540.78	56348.40
540.95	56413.93
541.12	56294.56
541.29	56439.68
541.46	56430.32
541.62	56264.14
541.79	56594.15
541.96	56343.72
542.13	56388.19
542.30	56435.00
542.47	56844.59
542.63	56676.07
542.80	56910.13
542.97	56917.15
543.14	57102.05
543.31	56879.70
543.48	57169.93
543.64	57563.14
543.81	57322.06
543.98	57209.71
544.15	57116.09
544.32	57457.81
544.48	57518.67
544.65	57516.32
544.82	57233.12
544.99	57109.07
545.16	57455.47
545.32	57169.93
545.49	57680.16
545.66	57696.55
545.83	57469.51
546.00	57628.67
546.16	57635.69
546.33	57506.96
546.50	57549.09
546.67	57820.59
546.83	57450.79
547.00	57888.47
547.17	57593.56
547.34	57792.51
547.50	57790.17
547.67	58005.50
547.84	57879.11
548.00	58068.69
548.17	58056.99
548.34	58035.92
548.51	58038.26
548.67	58040.60
548.84	58108.48
549.01	58005.50
549.18	58244.23
549.34	57951.66
549.51	58120.18
549.68	58461.90
549.84	58110.82
550.01	58375.30
550.18	58157.63
550.34	58387.00
550.51	58379.98
550.68	58202.10
550.84	58202.10
551.01	58408.07
551.18	58279.34
551.34	58333.17
551.51	58574.25
551.68	58768.51
551.84	58677.23
552.01	58417.43
552.18	58370.62
552.34	58281.68
552.51	58548.50
552.68	58389.34
552.84	58714.68
553.01	58761.49
553.18	58731.06
553.34	58691.27
553.51	58880.86
553.67	58581.27
553.84	58925.33
554.01	59014.27
554.17	59103.21
554.34	58941.71
554.51	58852.77
554.67	58967.46
554.84	58894.90
555.00	58876.18
555.17	58922.99
555.33	59044.69
555.50	58796.60
555.67	59267.05
555.83	59004.91
556.00	59178.10
556.16	59077.46
556.33	59248.32
556.50	59243.64
556.66	59227.26
556.83	59157.04
556.99	59290.45
557.16	59213.21
557.32	59456.63
557.49	59529.19
557.65	59377.05
557.82	59213.21
557.98	59168.74
558.15	59318.54
558.32	59496.42
558.48	59379.39
558.65	59388.75
558.81	59447.27
558.98	59295.13
559.14	59487.06
559.31	59463.65
559.47	59566.63
559.64	59536.21
559.80	59505.78
559.97	59791.33
560.13	59538.55
560.30	59503.44
560.46	59650.89
560.63	59681.32
560.79	59643.87
560.96	59693.02
561.12	59739.83
561.29	59704.73
561.45	59817.07
561.61	59714.09
561.78	59901.33
561.94	59664.94
562.11	59868.56
562.27	59793.67
562.44	59875.58
562.60	59927.08
562.77	59863.88
562.93	59772.60
563.10	60097.94
563.26	59957.50
563.42	60205.60
563.59	59884.95
563.75	59987.93
563.92	60226.66
564.08	59994.95
564.24	59906.01
564.41	60083.89
564.57	60006.65
564.74	60135.38
564.90	60151.77
565.07	60006.65
565.23	60001.97
565.39	60240.71
565.56	60076.87
565.72	59978.57
565.88	59971.55
566.05	59901.33
566.21	60247.73
566.38	60151.77
566.54	60261.77
566.70	60182.19
566.87	60175.17
567.03	60065.17
567.19	60453.70
567.36	60317.95
567.52	60243.05
567.68	60423.27
567.85	60336.67
568.01	60388.16
568.17	60308.58
568.34	60362.42
568.50	60310.92
568.66	60198.58
568.83	60514.55
568.99	60310.92
569.15	60507.53
569.32	60172.83
569.48	60434.97
569.64	60413.91
569.81	60467.74
569.97	60341.35
570.13	60383.48
570.30	60231.35
570.46	60196.24
570.62	60388.16
570.78	60537.96
570.95	60367.10
571.11	60575.40
571.27	60334.33
571.43	60580.09
571.60	60647.96
571.76	60434.97
571.92	60629.24
572.09	60612.85
572.25	60470.08
572.41	60580.09
572.57	60507.53
572.74	60488.80
572.90	60676.05
573.06	60528.59
573.22	60654.98
573.38	60701.79
573.55	60535.62
573.71	60821.16
573.87	60685.41
574.03	60505.19
574.20	60629.24
574.36	60460.72
574.52	60666.69
574.68	60680.73
574.84	60821.16
575.01	60664.35
575.17	60757.97
575.33	60533.28
575.49	60544.98
575.65	60594.13
575.82	60743.92
575.98	60832.86
576.14	60659.66
576.30	60924.14
576.46	60762.65
576.62	60790.73
576.79	60610.51
576.95	60601.15
577.11	60610.51
577.27	60725.20
577.43	60830.52
577.59	60617.53
577.75	60704.13
577.92	60673.71
578.08	60722.86
578.24	60762.65
578.40	60903.08
578.56	60825.84
578.72	60769.67
578.88	60750.94
579.04	60963.93
579.21	60741.58
579.37	60882.02
579.53	60896.06
579.69	60437.31
579.85	60725.20
580.01	60963.93
580.17	60867.97
580.33	60893.72
580.49	60837.54
580.65	60804.78
580.82	60781.37
580.98	60907.76
581.14	60907.76
581.30	60856.27
581.46	60893.72
581.62	60961.59
581.78	60874.99
581.94	60893.72
582.10	60804.78
582.26	60781.37
582.42	60739.24
582.58	60783.71
582.74	60811.80
582.90	60781.37
583.06	61066.92
583.22	60853.93
583.38	60748.60
583.54	61022.45
583.70	60753.29
583.86	61043.51
584.02	60809.46
584.18	60919.46
584.34	60860.95
584.50	60823.50
584.66	60959.25
584.82	60764.99
584.98	61207.35
585.14	60863.29
585.30	60905.42
585.46	61008.40
585.62	60956.91
585.78	61221.39
585.94	60830.52
586.10	60917.12
586.26	61066.92
586.42	60938.19
586.58	61174.58
586.74	60956.91
586.90	60985.00
587.06	60814.14
587.22	61099.68
587.38	60931.17
587.54	61190.97
587.70	61127.77
587.86	60884.36
588.02	61123.09
588.18	60959.25
588.34	61006.06
