SpectraSuite Data File
++++++++++++++++++++++++++++++++++++
Date: Fri Oct 25 11:25:23 EDT 2013
User: price-jones
Dark Spectrum Present: No
Reference Spectrum Present: No
Number of Sampled Component Spectra: 1
Spectrometers: USB2+H05261
Integration Time (usec): 100000 (USB2+H05261)
Spectra Averaged: 1 (USB2+H05261)
Boxcar Smoothing: 0 (USB2+H05261)
Correct for Electrical Dark: No (USB2+H05261)
Strobe/Lamp Enabled: No (USB2+H05261)
Correct for Detector Non-linearity: No (USB2+H05261)
Correct for Stray Light: No (USB2+H05261)
Number of Pixels in Processed Spectrum: 2048
>>>>>Begin Processed Spectral Data<<<<<
365.73	287.89
365.92	287.89
366.12	287.89
366.32	168.52
366.52	88.94
366.72	110.01
366.91	91.28
367.11	86.60
367.31	154.48
367.51	86.60
367.70	173.20
367.90	110.01
368.10	105.32
368.30	102.98
368.49	138.09
368.69	145.11
368.89	138.09
369.09	117.03
369.28	112.35
369.48	177.88
369.68	163.84
369.87	189.58
370.07	227.03
370.27	262.14
370.47	313.63
370.66	578.11
370.86	636.63
371.06	671.73
371.25	592.16
371.45	720.88
371.65	648.33
371.84	720.88
372.04	704.50
372.24	713.86
372.44	821.53
372.63	751.31
372.83	706.84
373.03	821.53
373.22	645.99
373.42	770.04
373.62	809.83
373.81	737.27
374.01	823.87
374.21	812.17
374.40	695.14
374.60	884.72
374.79	823.87
374.99	819.19
375.19	777.06
375.38	891.74
375.58	784.08
375.78	823.87
375.97	849.61
376.17	957.28
376.37	837.91
376.56	814.51
376.76	931.53
376.95	882.38
377.15	856.64
377.35	891.74
377.54	896.43
377.74	933.87
377.93	828.55
378.13	929.19
378.33	926.85
378.52	924.51
378.72	940.90
378.91	919.83
379.11	915.15
379.31	947.92
379.50	931.53
379.70	929.19
379.89	968.98
380.09	999.41
380.28	973.66
380.48	954.94
380.68	954.94
380.87	990.05
381.07	983.02
381.26	994.73
381.46	1034.52
381.65	1032.18
381.85	964.30
382.04	1036.86
382.24	1081.33
382.43	1055.58
382.63	994.73
382.83	1008.77
383.02	1104.73
383.22	1114.10
383.41	1067.28
383.61	1104.73
383.80	1102.39
384.00	1198.35
384.19	1160.91
384.39	1184.31
384.58	1109.41
384.78	1177.29
384.97	1090.69
385.17	1151.54
385.36	1125.80
385.56	1170.27
385.75	1153.88
385.95	1097.71
386.14	1231.12
386.34	1170.27
386.53	1273.25
386.72	1226.44
386.92	1214.74
387.11	1184.31
387.31	1177.29
387.50	1172.61
387.70	1313.04
387.89	1263.89
388.09	1336.45
388.28	1203.04
388.48	1334.11
388.67	1301.34
388.86	1317.72
389.06	1247.51
389.25	1348.15
389.45	1317.72
389.64	1392.62
389.84	1383.26
390.03	1416.02
390.22	1455.81
390.42	1392.62
390.61	1376.24
390.81	1455.81
391.00	1385.60
391.19	1430.07
391.39	1493.26
391.58	1416.02
391.78	1380.92
391.97	1486.24
392.16	1441.77
392.36	1530.71
392.55	1439.43
392.75	1504.96
392.94	1542.41
393.13	1544.75
393.33	1579.86
393.52	1556.46
393.71	1612.63
393.91	1603.27
394.10	1565.82
394.29	1584.54
394.49	1519.01
394.68	1699.23
394.88	1561.14
395.07	1657.10
395.26	1631.35
395.46	1638.38
395.65	1699.23
395.84	1703.91
396.04	1863.07
396.23	1675.82
396.42	1617.31
396.62	1797.53
396.81	1842.00
397.00	1689.87
397.19	1713.27
397.39	1720.29
397.58	1774.13
397.77	1790.51
397.97	1914.56
398.16	1853.70
398.35	1879.45
398.55	1872.43
398.74	1860.73
398.93	1928.60
399.12	1919.24
399.32	1827.96
399.51	1888.81
399.70	2045.63
399.90	1998.82
400.09	1989.46
400.28	2078.40
400.47	2059.67
400.67	2073.71
400.86	2136.91
401.05	2036.27
401.24	2085.42
401.44	2120.53
401.63	2076.06
401.82	2047.97
402.01	2115.84
402.21	2150.95
402.40	2080.74
402.59	2101.80
402.78	2244.57
402.97	2303.09
403.17	2293.72
403.36	2260.96
403.55	2230.53
403.74	2253.94
403.93	2401.39
404.13	2399.05
404.32	2286.70
404.51	2265.64
404.70	2471.61
404.89	2349.90
405.09	2445.86
405.28	2429.48
405.47	2506.71
405.66	2480.97
405.85	2429.48
406.05	2511.39
406.24	2586.29
406.43	2527.78
406.62	2616.72
406.81	2635.44
407.00	2623.74
407.20	2583.95
407.39	2539.48
407.58	2614.38
407.77	2651.83
407.96	2682.25
408.15	2785.24
408.34	2710.34
408.54	2593.31
408.73	2750.13
408.92	2803.96
409.11	2825.03
409.30	2754.81
409.49	2850.77
409.68	2803.96
409.87	2825.03
410.07	2939.71
410.26	2832.05
410.45	2846.09
410.64	3035.67
410.83	3073.12
411.02	2918.65
411.21	3243.98
411.40	3089.51
411.59	3138.66
411.78	3070.78
411.98	3105.89
412.17	3288.45
412.36	3452.29
412.55	3304.84
412.74	3384.41
412.93	3435.91
413.12	3258.03
413.31	3428.88
413.50	3426.54
413.69	3407.82
413.88	3463.99
414.07	3517.83
414.26	3613.79
414.45	3625.49
414.64	3620.81
414.83	3688.68
415.02	3808.05
415.22	3908.69
415.41	3833.80
415.60	3765.92
415.79	3880.61
415.98	3913.38
416.17	3854.86
416.36	3819.75
416.55	3934.44
416.74	3962.53
416.93	4081.89
417.12	4049.13
417.31	4138.07
417.50	4135.73
417.69	4283.18
417.88	4219.99
418.07	4255.09
418.26	4386.16
418.45	4241.05
418.64	4447.02
418.83	4325.31
419.02	4470.42
419.21	4435.32
419.39	4388.50
419.58	4423.61
419.77	4461.06
419.96	4550.00
420.15	4528.94
420.34	4552.34
420.53	4664.69
420.72	4479.79
420.91	4542.98
421.10	4826.18
421.29	4704.48
421.48	4762.99
421.67	4856.61
421.86	4627.24
422.05	4713.84
422.24	4685.75
422.43	4816.82
422.61	4688.09
422.80	5022.79
422.99	4826.18
423.18	4842.57
423.37	4940.87
423.56	4856.61
423.75	4777.03
423.94	4791.08
424.13	4676.39
424.32	4615.54
424.50	4990.02
424.69	5142.16
424.88	5029.81
425.07	4819.16
425.26	4973.64
425.45	4898.74
425.64	4873.00
425.83	4999.38
426.01	5067.26
426.20	5008.75
426.39	5067.26
426.58	5020.45
426.77	5078.96
426.96	5097.69
427.15	5083.64
427.33	5207.69
427.52	5245.14
427.71	5233.44
427.90	5170.24
428.09	5123.43
428.28	5341.10
428.46	5313.02
428.65	5305.99
428.84	5455.79
429.03	5458.13
429.22	5357.49
429.40	5479.19
429.59	5483.88
429.78	5270.89
429.97	5261.52
430.16	5460.47
430.34	5514.30
430.53	5631.33
430.72	5530.69
430.91	5570.48
431.10	5535.37
431.28	5645.37
431.47	5582.18
431.66	5731.97
431.85	5731.97
432.03	5870.06
432.22	5753.04
432.41	5872.40
432.60	5846.66
432.79	5825.59
432.97	6057.31
433.16	6101.78
433.35	5984.75
433.54	6038.58
433.72	5989.43
433.91	6057.31
434.10	6181.35
434.28	6160.29
434.47	6207.10
434.66	6136.88
434.85	6267.95
435.03	6214.12
435.22	6242.21
435.41	6513.71
435.59	6342.85
435.78	6307.74
435.97	6392.00
436.16	6333.49
436.34	6396.68
436.53	6368.60
436.72	6722.02
436.90	6588.61
437.09	6555.84
437.28	6457.54
437.46	6579.25
437.65	6476.26
437.84	6754.79
438.02	6597.97
438.21	6649.46
438.40	6565.20
438.58	6911.60
438.77	7021.61
438.96	6839.05
439.14	7059.06
439.33	7185.44
439.52	7052.03
439.70	7197.15
439.89	7272.04
440.08	7265.02
440.26	7426.52
440.45	7267.36
440.63	7295.45
440.82	7522.48
441.01	7433.54
441.19	7555.25
441.38	7651.21
441.57	7609.08
441.75	7660.57
441.94	7857.18
442.12	7854.84
442.31	7960.16
442.50	8140.38
442.68	7770.58
442.87	7939.10
443.05	8156.77
443.24	8037.40
443.43	7999.95
443.61	8166.13
443.80	8163.79
443.98	7976.55
444.17	7768.24
444.35	8212.94
444.54	8163.79
444.73	8454.02
444.91	8219.96
445.10	8287.84
445.28	8294.86
445.47	8351.03
445.65	8486.78
445.84	8461.04
446.02	8404.86
446.21	8435.29
446.39	8367.42
446.58	8423.59
446.77	8393.16
446.95	8360.39
447.14	8334.65
447.32	8351.03
447.51	8451.67
447.69	8418.91
447.88	8475.08
448.06	8458.70
448.25	8596.79
448.43	8564.02
448.62	8489.12
448.80	8521.89
448.99	8676.37
449.17	8713.81
449.36	8702.11
449.54	8720.84
449.73	8765.31
449.91	8908.08
450.10	8908.08
450.28	8950.21
450.46	8938.51
450.65	8994.68
450.83	8793.39
451.02	8833.18
451.20	9020.42
451.39	9053.19
451.57	9011.06
451.76	8922.12
451.94	9226.39
452.13	9200.65
452.31	9090.64
452.49	9076.60
452.68	9439.38
452.86	9305.97
453.05	9359.80
453.23	9350.44
453.42	9102.34
453.60	9254.48
453.78	9451.08
453.97	9256.82
454.15	9287.25
454.34	9493.21
454.52	9671.09
454.70	9633.64
454.89	9696.84
455.07	9750.67
455.26	9736.63
455.44	9762.37
455.62	9912.17
455.81	9921.53
455.99	10153.24
456.17	9626.62
456.36	9998.77
456.54	10073.67
456.73	10335.81
456.91	10443.47
457.09	10338.15
457.28	10602.63
457.46	10132.18
457.64	10382.62
457.83	10326.44
458.01	10216.44
458.19	10705.61
458.38	10387.30
458.56	10686.89
458.74	10623.69
458.93	10466.88
459.11	10649.44
459.29	10736.04
459.48	10832.00
459.66	10604.97
459.84	10944.34
460.03	11063.71
460.21	11033.29
460.39	11084.78
460.57	11098.82
460.76	10927.96
460.94	10965.41
461.12	10906.90
461.31	10885.83
461.49	10953.71
461.67	11049.67
461.85	11307.13
462.04	11154.99
462.22	11845.45
462.40	11522.46
462.59	11508.41
462.77	11386.71
462.95	11463.94
463.13	11489.69
463.32	11449.90
463.50	11543.52
463.68	11503.73
463.86	11808.00
464.05	11604.38
464.23	11705.02
464.41	11686.29
464.59	11758.85
464.78	12051.42
464.96	11932.05
465.14	11641.82
465.32	11934.39
465.50	11822.05
465.69	12011.63
465.87	12168.45
466.05	12126.32
466.23	12163.76
466.41	11859.49
466.60	12313.56
466.78	12093.55
466.96	12149.72
467.14	12102.91
467.32	12308.88
467.51	12456.33
467.69	12189.51
467.87	12414.20
468.05	12311.22
468.23	12343.99
468.41	12332.28
468.60	12617.83
468.78	12854.22
468.96	12559.31
469.14	12725.49
469.32	12697.41
469.50	12643.57
469.69	12922.10
469.87	13064.87
470.05	13008.70
470.23	13083.59
470.41	13097.64
470.59	13090.62
470.77	12910.40
470.95	13369.14
471.14	13404.25
471.32	13121.04
471.50	13350.42
471.68	13521.27
471.86	13446.38
472.04	13500.21
472.22	13827.88
472.40	13446.38
472.58	13516.59
472.77	14005.77
472.95	14031.51
473.13	14597.92
473.31	14050.24
473.49	14012.79
473.67	14197.69
473.85	14373.23
474.03	14462.17
474.21	14354.51
474.39	14717.29
474.57	14626.01
474.75	14691.54
474.93	14951.34
475.12	14712.61
475.30	15272.00
475.48	15012.20
475.66	15028.58
475.84	15061.35
476.02	15309.44
476.20	15026.24
476.38	15686.27
476.56	15754.15
476.74	15800.96
476.92	15536.48
477.10	15772.87
477.28	16060.76
477.46	16039.69
477.64	16264.38
477.82	16175.44
478.00	16893.99
478.18	16753.55
478.36	17036.76
478.54	16837.81
478.72	16945.48
478.90	17153.79
479.08	17174.85
479.26	17518.91
479.44	17532.95
479.62	17727.22
479.80	17872.33
479.98	18192.98
480.16	18398.95
480.34	17949.57
480.52	18525.34
480.70	18333.42
480.88	18253.84
481.06	18628.32
481.24	18881.10
481.41	18913.87
481.59	19225.16
481.77	19229.84
481.95	19613.69
482.13	19683.91
482.31	19552.84
482.49	20149.67
482.67	20175.42
482.85	20051.37
483.03	20606.08
483.21	20704.38
483.39	20971.20
483.57	20482.03
483.74	20879.92
483.92	21156.10
484.10	20957.16
484.28	21324.62
484.46	21813.79
484.64	22317.01
484.82	21493.14
485.00	22192.96
485.18	22443.40
485.35	22815.54
485.53	22525.32
485.71	22757.03
485.89	23051.94
486.07	23234.50
486.25	23234.50
486.43	23496.64
486.61	23770.48
486.78	23852.40
486.96	24142.63
487.14	24173.05
487.32	24254.97
487.50	24467.96
487.68	25001.60
487.85	24989.90
488.03	25563.33
488.21	25500.14
488.39	25635.89
488.57	25631.21
488.75	26087.61
488.92	26085.27
489.10	26604.87
489.28	26349.75
489.46	27227.45
489.64	26745.30
489.81	27290.65
489.99	27447.46
490.17	27487.25
490.35	27955.36
490.53	28060.68
490.70	28563.90
490.88	28236.22
491.06	28554.54
491.24	28486.66
491.41	28325.16
491.59	28985.19
491.77	29116.26
491.95	29223.93
492.13	29268.40
492.30	29727.14
492.48	29675.65
492.66	29972.90
492.84	29879.28
493.01	30490.16
493.19	30595.48
493.37	30955.93
493.54	30602.50
493.72	31044.87
493.90	31016.78
494.08	31765.75
494.25	31704.90
494.43	31943.63
494.61	31960.02
494.79	31861.71
494.96	32596.64
495.14	32278.33
495.32	32795.59
495.49	33006.23
495.67	33184.12
495.85	33205.18
496.02	33425.19
496.20	33989.26
496.38	33640.52
496.55	33893.30
496.73	34380.13
496.91	34417.58
497.09	34410.56
497.26	34602.48
497.44	34590.78
497.62	35253.15
497.79	35391.24
497.97	35253.15
498.14	35669.76
498.32	35826.58
498.50	36095.74
498.67	35974.03
498.85	35920.20
499.03	36465.55
499.20	35983.40
499.38	36327.45
499.56	36739.39
499.73	36865.78
499.91	37041.32
500.08	37457.93
500.26	37223.88
500.44	37493.04
500.61	37780.93
500.79	37359.63
500.97	37769.22
501.14	38244.35
501.32	38246.69
501.49	38160.09
501.67	38352.02
501.84	38651.61
502.02	38916.09
502.20	38529.90
502.37	38981.62
502.55	39061.20
502.72	39154.82
502.90	39426.32
503.07	39164.18
503.25	39761.02
503.43	39438.03
503.60	39716.55
503.78	40449.14
503.95	39821.87
504.13	40381.26
504.30	40219.77
504.48	40383.60
504.65	40561.48
504.83	40875.12
505.01	40575.53
505.18	40652.76
505.36	41130.23
505.53	41062.36
505.71	41163.00
505.88	41574.94
506.06	41284.71
506.23	41944.74
506.41	41904.95
506.58	41682.60
506.76	41989.21
506.93	42202.20
507.11	41998.57
507.28	42440.93
507.46	42384.76
507.63	42726.48
507.81	42639.88
507.98	42887.98
508.16	42494.77
508.33	43084.58
508.50	42946.49
508.68	43590.14
508.85	43494.18
509.03	43557.37
509.20	43690.78
509.38	43992.71
509.55	43753.97
509.73	43962.28
509.90	44421.03
510.08	44067.61
510.25	44217.40
510.42	44399.96
510.60	44556.78
510.77	44973.39
510.95	45258.94
511.12	45097.44
511.30	45179.36
511.47	45179.36
511.64	45233.19
511.82	45521.08
511.99	45567.89
512.17	45621.72
512.34	45574.91
512.51	46054.72
512.69	46007.91
512.86	45785.56
513.04	46429.21
513.21	46185.79
513.38	46045.36
513.56	46635.17
513.73	46831.78
513.90	46705.39
514.08	46574.32
514.25	46841.14
514.43	47030.72
514.60	47175.84
514.77	46934.76
514.95	47402.87
515.12	46909.02
515.29	47250.74
515.47	47430.96
515.64	47618.20
515.81	47449.68
515.99	47767.99
516.16	48081.63
516.33	48182.27
516.51	48362.49
516.68	48100.35
516.85	47632.24
517.03	48776.76
517.20	48542.71
517.37	48470.15
517.54	48385.89
517.72	48748.68
517.89	48701.87
518.06	48751.02
518.24	49263.60
518.41	48905.49
518.58	48999.12
518.75	49066.99
518.93	49441.48
519.10	49050.61
519.27	49165.29
519.45	49677.87
519.62	49565.52
519.79	49350.20
519.96	49542.12
520.14	49865.11
520.31	49418.07
520.48	49925.97
520.65	50059.38
520.83	50071.08
521.00	50562.59
521.17	50347.26
521.34	50251.30
521.52	50511.10
521.69	50321.52
521.86	50578.98
522.03	50955.80
522.20	50810.69
522.38	50997.93
522.55	50857.50
522.72	50923.04
522.89	51007.29
523.07	51227.31
523.24	51166.45
523.41	51606.47
523.58	51159.43
523.75	51590.09
523.92	51332.63
524.10	51655.62
524.27	51723.50
524.44	51695.41
524.61	51805.42
524.78	51856.91
524.96	51833.50
525.13	52041.81
525.30	52006.70
525.47	52264.16
525.64	52055.85
525.81	52346.08
525.98	52516.94
526.16	52257.14
526.33	52465.45
526.50	52772.06
526.67	52498.22
526.84	52540.35
527.01	52804.83
527.18	52790.78
527.36	52701.84
527.53	52741.63
527.70	53048.24
527.87	53097.39
528.04	53001.43
528.21	53130.16
528.38	53104.41
528.55	53312.72
528.72	53212.08
528.89	53113.78
529.07	53209.74
529.24	52903.13
529.41	53282.30
529.58	53448.47
529.75	53537.41
529.92	53434.43
530.09	53464.86
530.26	53460.18
530.43	53490.60
530.60	53670.82
530.77	53408.68
530.94	54068.72
531.11	53631.04
531.28	53846.36
531.46	53825.30
531.63	53939.99
531.80	54082.76
531.97	54122.55
532.14	53979.78
532.31	54478.31
532.48	54141.27
532.65	54532.14
532.82	54244.26
532.99	54515.76
533.16	54454.90
533.33	54609.38
533.50	54600.02
533.67	54710.02
533.84	54157.66
534.01	54681.94
534.18	54747.47
534.35	54665.55
534.52	54803.64
534.69	54838.75
534.86	54993.23
535.03	54841.09
535.20	55084.51
535.37	55206.22
535.54	55295.16
535.71	55182.81
535.88	55442.61
536.05	55224.94
536.22	55634.53
536.38	55461.33
536.55	55580.70
536.72	55175.79
536.89	55180.47
537.06	55276.43
537.23	55899.01
537.40	55178.13
537.57	55519.85
537.74	55503.46
537.91	55646.24
538.08	55662.62
538.25	55398.14
538.42	55503.46
538.59	55980.93
538.75	55723.47
538.92	55791.35
539.09	55948.17
539.26	55767.94
539.43	56011.36
539.60	56409.25
539.77	55969.23
539.94	56102.64
540.11	56030.08
540.28	56217.33
540.44	56149.45
540.61	56310.95
540.78	56100.30
540.95	56449.04
541.12	56282.86
541.29	56226.69
541.46	56083.92
541.62	56203.28
541.79	56350.74
541.96	56259.46
542.13	56477.13
542.30	56500.53
542.47	56844.59
542.63	56577.77
542.80	56601.18
542.97	56657.35
543.14	56928.85
543.31	57022.47
543.48	56938.21
543.64	57235.46
543.81	57200.35
543.98	57296.31
544.15	57174.61
544.32	57258.87
544.48	57460.15
544.65	57331.42
544.82	57183.97
544.99	57132.48
545.16	57380.57
545.32	57116.09
545.49	57347.81
545.66	57551.43
545.83	57471.85
546.00	57640.37
546.16	57399.30
546.33	57394.62
546.50	57167.58
546.67	57551.43
546.83	57172.27
547.00	57443.77
547.17	57375.89
547.34	57602.92
547.50	57874.43
547.67	57855.70
547.84	57705.91
548.00	57773.78
548.17	58061.67
548.34	57858.04
548.51	58164.65
548.67	57759.74
548.84	57954.00
549.01	57738.68
549.18	57846.34
549.34	57946.98
549.51	57930.60
549.68	58227.85
549.84	57951.66
550.01	58333.17
550.18	58120.18
550.34	58223.17
550.51	58253.59
550.68	58059.33
550.84	57942.30
551.01	58340.19
551.18	58258.27
551.34	58218.49
551.51	58604.67
551.68	58253.59
551.84	58459.56
552.01	58103.80
552.18	58468.92
552.34	58387.00
552.51	58604.67
552.68	58347.21
552.84	58419.77
553.01	58735.74
553.18	58576.59
553.34	58707.66
553.51	58644.46
553.67	58625.74
553.84	58824.68
554.01	58522.76
554.17	58731.06
554.34	58873.84
554.51	58920.65
554.67	58899.58
554.84	58834.05
555.00	58864.47
555.17	58808.30
555.33	58656.17
555.50	58901.92
555.67	58787.24
555.83	58855.11
556.00	59103.21
556.16	59299.81
556.33	59185.13
556.50	59037.67
556.66	58986.18
556.83	58777.87
556.99	59175.76
557.16	59325.56
557.32	59276.41
557.49	59491.74
557.65	59330.24
557.82	59215.55
557.98	59215.55
558.15	59203.85
558.32	59267.05
558.48	59203.85
558.65	59253.00
558.81	59288.11
558.98	59154.70
559.14	59505.78
559.31	59178.10
559.47	59611.10
559.64	59501.10
559.80	59482.37
559.97	59599.40
560.13	59393.43
560.30	59430.88
560.46	59622.81
560.63	59571.32
560.79	59681.32
560.96	59608.76
561.12	59627.49
561.29	59625.15
561.45	59714.09
561.61	59634.51
561.78	59639.19
561.94	59414.50
562.11	59480.03
562.27	59643.87
562.44	59613.44
562.60	59793.67
562.77	59814.73
562.93	59683.66
563.10	59791.33
563.26	59475.35
563.42	60114.32
563.59	60001.97
563.75	59945.80
563.92	59784.30
564.08	59994.95
564.24	59877.93
564.41	60034.74
564.57	59952.82
564.74	60037.08
564.90	59805.37
565.07	59854.52
565.23	59922.40
565.39	59934.10
565.56	59898.99
565.72	59962.18
565.88	59767.92
566.05	59992.61
566.21	59805.37
566.38	60191.56
566.54	59910.69
566.70	60055.81
566.87	60238.37
567.03	59962.18
567.19	60467.74
567.36	60130.70
567.52	60175.17
567.68	60339.01
567.85	60069.85
568.01	60308.58
568.17	60158.79
568.34	60088.57
568.50	60149.43
568.66	60154.11
568.83	60278.16
568.99	60037.08
569.15	60310.92
569.32	60151.77
569.48	60184.54
569.64	60456.04
569.81	60196.24
569.97	60147.09
570.13	60240.71
570.30	60182.19
570.46	60280.50
570.62	60360.08
570.78	60367.10
570.95	60280.50
571.11	60451.36
571.27	60224.32
571.43	60207.94
571.60	60399.86
571.76	60484.12
571.92	60512.21
572.09	60353.05
572.25	60317.95
572.41	60322.63
572.57	60402.21
572.74	60699.45
572.90	60418.59
573.06	60575.40
573.22	60268.79
573.38	60327.31
573.55	60451.36
573.71	60683.07
573.87	60430.29
574.03	60519.23
574.20	60507.53
574.36	60324.97
574.52	60598.81
574.68	60449.02
574.84	60591.79
575.01	60456.04
575.17	60491.15
575.33	60521.57
575.49	60465.40
575.65	60713.50
575.82	60573.06
575.98	60694.77
576.14	60743.92
576.30	60458.38
576.46	60762.65
576.62	60526.25
576.79	60612.85
576.95	60484.12
577.11	60736.90
577.27	60568.38
577.43	60603.49
577.59	60601.15
577.75	60481.78
577.92	60413.91
578.08	60690.09
578.24	60760.31
578.40	60683.07
578.56	60762.65
578.72	60622.22
578.88	60816.48
579.04	60994.36
579.21	60580.09
579.37	60811.80
579.53	60886.70
579.69	60580.09
579.85	60566.04
580.01	60544.98
580.17	60654.98
580.33	60673.71
580.49	60823.50
580.65	60612.85
580.82	60767.33
580.98	60470.08
581.14	60683.07
581.30	60713.50
581.46	60666.69
581.62	60797.76
581.78	60516.89
581.94	60741.58
582.10	60884.36
582.26	60720.52
582.42	60802.44
582.58	60879.67
582.74	60832.86
582.90	60671.37
583.06	60809.46
583.22	60720.52
583.38	60650.30
583.54	60711.16
583.70	60825.84
583.86	60924.14
584.02	60877.33
584.18	60786.05
584.34	60956.91
584.50	60807.12
584.66	60725.20
584.82	60619.88
584.98	60837.54
585.14	61017.77
585.30	60816.48
585.46	60914.78
585.62	60753.29
585.78	60985.00
585.94	60762.65
586.10	60853.93
586.26	60734.56
586.42	60795.42
586.58	61251.82
586.74	60959.25
586.90	60910.10
587.06	60842.23
587.22	60975.64
587.38	60617.53
587.54	61031.81
587.70	61052.87
587.86	60980.32
588.02	60933.51
588.18	61022.45
588.34	60949.89
588.49	60849.25
