SpectraSuite Data File
++++++++++++++++++++++++++++++++++++
Date: Fri Oct 25 10:48:11 EDT 2013
User: price-jones
Dark Spectrum Present: No
Reference Spectrum Present: No
Number of Sampled Component Spectra: 1
Spectrometers: USB2+H05261
Integration Time (usec): 100000 (USB2+H05261)
Spectra Averaged: 1 (USB2+H05261)
Boxcar Smoothing: 0 (USB2+H05261)
Correct for Electrical Dark: No (USB2+H05261)
Strobe/Lamp Enabled: No (USB2+H05261)
Correct for Detector Non-linearity: No (USB2+H05261)
Correct for Stray Light: No (USB2+H05261)
Number of Pixels in Processed Spectrum: 2048
>>>>>Begin Processed Spectral Data<<<<<
365.73	203.63
365.92	203.63
366.12	203.63
366.32	53.83
366.52	0.00
366.72	93.62
366.91	30.43
367.11	53.83
367.31	14.04
367.51	21.06
367.70	77.24
367.90	63.19
368.10	16.38
368.30	11.70
368.49	58.51
368.69	88.94
368.89	44.47
369.09	88.94
369.28	98.30
369.48	110.01
369.68	42.13
369.87	91.28
370.07	110.01
370.27	184.90
370.47	147.45
370.66	430.66
370.86	400.23
371.06	447.04
371.25	461.09
371.45	447.04
371.65	454.06
371.84	416.62
372.04	440.02
372.24	470.45
372.44	470.45
372.63	472.79
372.83	468.11
373.03	491.51
373.22	514.92
373.42	507.90
373.62	477.47
373.81	533.64
374.01	564.07
374.21	486.83
374.40	561.73
374.60	559.39
374.79	531.30
374.99	580.45
375.19	535.98
375.38	552.37
375.58	580.45
375.78	582.79
375.97	620.24
376.17	617.90
376.37	568.75
376.56	606.20
376.76	547.69
376.95	573.43
377.15	643.65
377.35	653.01
377.54	608.54
377.74	547.69
377.93	561.73
378.13	547.69
378.33	629.60
378.52	566.41
378.72	592.16
378.91	596.84
379.11	634.29
379.31	650.67
379.50	603.86
379.70	571.09
379.89	655.35
380.09	653.01
380.28	683.44
380.48	641.31
380.68	702.16
380.87	620.24
381.07	596.84
381.26	655.35
381.46	692.80
381.65	601.52
381.85	681.10
382.04	667.05
382.24	748.97
382.43	763.01
382.63	697.48
382.83	718.54
383.02	638.97
383.22	758.33
383.41	662.37
383.61	760.67
383.80	763.01
384.00	709.18
384.19	765.36
384.39	718.54
384.58	781.74
384.78	748.97
384.97	760.67
385.17	793.44
385.36	641.31
385.56	755.99
385.75	755.99
385.95	746.63
386.14	791.10
386.34	863.66
386.53	830.89
386.72	753.65
386.92	837.91
387.11	856.64
387.31	819.19
387.50	873.02
387.70	809.83
387.89	861.32
388.09	798.12
388.28	772.38
388.48	877.70
388.67	830.89
388.86	842.59
389.06	889.40
389.25	945.58
389.45	945.58
389.64	985.37
389.84	929.19
390.03	933.87
390.22	947.92
390.42	950.26
390.61	936.21
390.81	940.90
391.00	919.83
391.19	992.39
391.39	891.74
391.58	929.19
391.78	936.21
391.97	943.24
392.16	1013.45
392.36	896.43
392.55	933.87
392.75	1013.45
392.94	931.53
393.13	945.58
393.33	971.32
393.52	1036.86
393.71	1025.15
393.91	987.71
394.10	1076.65
394.29	1057.92
394.49	1050.90
394.68	999.41
394.88	1123.46
395.07	1196.01
395.26	1083.67
395.46	1186.65
395.65	1170.27
395.84	1130.48
396.04	1137.50
396.23	1053.24
396.42	1032.18
396.62	1104.73
396.81	1177.29
397.00	1118.78
397.19	1238.14
397.39	1270.91
397.58	1277.93
397.77	1245.16
397.97	1254.53
398.16	1280.27
398.35	1289.64
398.55	1268.57
398.74	1336.45
398.93	1336.45
399.12	1247.51
399.32	1315.38
399.51	1336.45
399.70	1378.58
399.90	1343.47
400.09	1446.45
400.28	1355.17
400.47	1446.45
400.67	1378.58
400.86	1451.13
401.05	1495.60
401.24	1446.45
401.44	1497.94
401.63	1455.81
401.82	1500.28
402.01	1521.35
402.21	1423.05
402.40	1497.94
402.59	1640.72
402.78	1469.86
402.97	1614.97
403.17	1598.59
403.36	1589.22
403.55	1708.59
403.74	1633.69
403.93	1591.56
404.13	1619.65
404.32	1497.94
404.51	1633.69
404.70	1722.63
404.89	1720.29
405.09	1837.32
405.28	1715.61
405.47	1776.47
405.66	1741.36
405.85	1788.17
406.05	1788.17
406.24	1746.04
406.43	1834.98
406.62	1837.32
406.81	1827.96
407.00	1884.13
407.20	1788.17
407.39	1776.47
407.58	1949.67
407.77	1907.54
407.96	1949.67
408.15	2024.56
408.34	2045.63
408.54	2047.97
408.73	2001.16
408.92	2064.35
409.11	1998.82
409.30	2059.67
409.49	1952.01
409.68	2022.22
409.87	2099.46
410.07	2111.16
410.26	2108.82
410.45	2033.93
410.64	2120.53
410.83	2225.85
411.02	2251.60
411.21	2335.85
411.40	2211.81
411.59	2270.32
411.78	2282.02
411.98	2328.83
412.17	2349.90
412.36	2249.25
412.55	2331.17
412.74	2282.02
412.93	2480.97
413.12	2490.33
413.31	2607.36
413.50	2448.20
413.69	2555.86
413.88	2651.83
414.07	2527.78
414.26	2651.83
414.45	2612.04
414.64	2750.13
414.83	2541.82
415.02	2724.38
415.22	2785.24
415.41	2841.41
415.60	2780.56
415.79	2778.22
415.98	2860.13
416.17	2780.56
416.36	2785.24
416.55	2937.37
416.74	3012.27
416.93	2899.92
417.12	2944.39
417.31	3068.44
417.50	2991.20
417.69	3105.89
417.88	3115.25
418.07	2937.37
418.26	3073.12
418.45	3260.37
418.64	3157.38
418.83	3110.57
419.02	3143.34
419.21	3176.11
419.39	3304.84
419.58	3141.00
419.77	3201.85
419.96	3246.32
420.15	3414.84
420.34	3358.67
420.53	3386.76
420.72	3424.20
420.91	3414.84
421.10	3393.78
421.29	3391.44
421.48	3440.59
421.67	3377.39
421.86	3379.73
422.05	3377.39
422.24	3274.41
422.43	3386.76
422.61	3513.14
422.80	3597.40
422.99	3557.61
423.18	3468.67
423.37	3557.61
423.56	3527.19
423.75	3581.02
423.94	3578.68
424.13	3295.47
424.32	3574.00
424.50	3634.85
424.69	3651.24
424.88	3461.65
425.07	3606.77
425.26	3494.42
425.45	3571.66
425.64	3597.40
425.83	3581.02
426.01	3632.51
426.20	3471.01
426.39	3508.46
426.58	3515.48
426.77	3686.34
426.96	3669.96
427.15	3744.86
427.33	3801.03
427.52	3721.45
427.71	3782.31
427.90	3623.15
428.09	3749.54
428.28	3667.62
428.46	3988.27
428.65	3585.70
428.84	3904.01
429.03	3936.78
429.22	3674.64
429.40	3859.54
429.59	3779.97
429.78	3599.74
429.97	3496.76
430.16	3669.96
430.34	3880.61
430.53	4007.00
430.72	3948.48
430.91	4016.36
431.10	3861.88
431.28	4081.89
431.47	4135.73
431.66	4264.46
431.85	4236.37
432.03	4236.37
432.22	4194.24
432.41	4182.54
432.60	4191.90
432.79	4194.24
432.97	4390.84
433.16	4313.61
433.35	4227.01
433.54	4276.16
433.72	4320.63
433.91	4358.08
434.10	4297.22
434.28	4421.27
434.47	4458.72
434.66	4407.23
434.85	4531.28
435.03	4475.10
435.22	4435.32
435.41	4538.30
435.59	4449.36
435.78	4545.32
435.97	4561.70
436.16	4587.45
436.34	4594.47
436.53	4557.02
436.72	4725.54
436.90	4690.43
437.09	4528.94
437.28	4613.20
437.46	4557.02
437.65	4629.58
437.84	4784.06
438.02	4657.67
438.21	4692.77
438.40	4557.02
438.58	4826.18
438.77	4884.70
438.96	4959.60
439.14	5156.20
439.33	5062.58
439.52	5130.45
439.70	5116.41
439.89	5123.43
440.08	5219.39
440.26	5076.62
440.45	5135.14
440.63	5317.70
440.82	5472.17
441.01	5252.16
441.19	5479.19
441.38	5423.02
441.57	5448.77
441.75	5380.89
441.94	5544.73
442.12	5596.22
442.31	5589.20
442.50	5743.67
442.68	5495.58
442.87	5589.20
443.05	5610.26
443.24	5820.91
443.43	5708.57
443.61	5881.77
443.80	5874.74
443.98	5748.36
444.17	5631.33
444.35	5746.02
444.54	6033.90
444.73	6019.86
444.91	5874.74
445.10	5722.61
445.28	5834.96
445.47	5689.84
445.65	5781.12
445.84	5846.66
446.02	5935.60
446.21	5846.66
446.39	5951.98
446.58	5933.26
446.77	5977.73
446.95	5909.85
447.14	5881.77
447.32	6038.58
447.51	5907.51
447.69	5970.71
447.88	6111.14
448.06	5989.43
448.25	5994.11
448.43	6033.90
448.62	5837.30
448.80	5994.11
448.99	6043.26
449.17	6132.20
449.36	6115.82
449.54	6097.10
449.73	6345.19
449.91	6202.42
450.10	6197.74
450.28	6377.96
450.46	6387.32
450.65	6483.28
450.83	6520.73
451.02	6483.28
451.20	6459.88
451.39	6457.54
451.57	6380.30
451.76	6420.09
451.94	6438.81
452.13	6427.11
452.31	6555.84
452.49	6387.32
452.68	6576.91
452.86	6546.48
453.05	6518.39
453.23	6656.48
453.42	6647.12
453.60	6597.97
453.78	6651.80
453.97	6506.69
454.15	6541.80
454.34	6579.25
454.52	6874.15
454.70	6745.42
454.89	6820.32
455.07	6855.43
455.26	6923.30
455.44	7087.14
455.62	6991.18
455.81	6942.03
455.99	7009.90
456.17	7042.67
456.36	6944.37
456.54	6988.84
456.73	7185.44
456.91	7391.41
457.09	7199.49
457.28	7421.84
457.46	7192.47
457.64	7232.26
457.83	7190.13
458.01	7316.51
458.19	7541.21
458.38	7452.27
458.56	7592.70
458.74	7360.98
458.93	7522.48
459.11	7578.65
459.29	7576.31
459.48	7485.03
459.66	7449.93
459.84	7758.88
460.03	7641.85
460.21	7576.31
460.39	7496.74
460.57	7562.27
460.76	7779.94
460.94	7702.70
461.12	7761.22
461.31	7843.14
461.49	7843.14
461.67	7702.70
461.85	7878.24
462.04	7852.50
462.22	8259.75
462.40	8013.99
462.59	7810.37
462.77	8124.00
462.95	7985.91
463.13	7798.66
463.32	8107.62
463.50	8299.54
463.68	8154.43
463.86	8285.50
464.05	8126.34
464.23	8079.53
464.41	8294.86
464.59	7981.23
464.78	8407.20
464.96	8098.25
465.14	8180.17
465.32	8437.63
465.50	8407.20
465.69	8468.06
465.87	8369.76
466.05	8360.39
466.23	8334.65
466.41	8411.89
466.60	8613.17
466.78	8182.51
466.96	8414.23
467.14	8468.06
467.32	8475.08
467.51	8601.47
467.69	8491.46
467.87	8575.72
468.05	8493.80
468.23	8571.04
468.41	8678.71
468.60	8454.02
468.78	8575.72
468.96	8629.56
469.14	8821.48
469.32	8833.18
469.50	8430.61
469.69	8917.44
469.87	8868.29
470.05	9034.47
470.23	8990.00
470.41	8812.12
470.59	8940.85
470.77	8879.99
470.95	9022.77
471.14	9174.90
471.32	8936.17
471.50	9163.20
471.68	9188.94
471.86	9301.29
472.04	9521.30
472.22	9680.46
472.40	9495.55
472.58	9476.83
472.77	9540.02
472.95	9703.86
473.13	9891.10
473.31	9708.54
473.49	9582.15
473.67	9661.73
473.85	9610.24
474.03	10017.49
474.21	9844.29
474.39	9989.41
474.57	9930.89
474.75	9846.63
474.93	10129.84
475.12	10125.16
475.30	10235.16
475.48	10150.90
475.66	10176.65
475.84	10225.80
476.02	10394.32
476.20	10511.35
476.38	10773.49
476.56	10953.71
476.74	10916.26
476.92	10640.08
477.10	10747.74
477.28	10778.17
477.46	11063.71
477.64	10930.30
477.82	11192.44
478.00	11449.90
478.18	11290.74
478.36	11396.07
478.54	11679.27
478.72	11555.22
478.90	11681.61
479.08	11662.89
479.26	11653.53
479.44	12166.10
479.62	12079.50
479.80	12093.55
479.98	11990.56
480.16	12411.86
480.34	12283.13
480.52	12500.80
480.70	12444.63
480.88	12322.92
481.06	12596.76
481.24	12601.44
481.41	12776.98
481.59	12774.64
481.77	12933.80
481.95	13235.73
482.13	13104.66
482.31	13528.30
482.49	13699.16
482.67	13731.92
482.85	13476.80
483.03	14118.11
483.21	14012.79
483.39	14029.17
483.57	14211.73
483.74	14052.58
483.92	13968.32
484.10	14134.50
484.28	14581.54
484.46	14677.50
484.64	14867.08
484.82	14651.75
485.00	15012.20
485.18	15096.46
485.35	15281.36
485.53	15091.77
485.71	15264.97
485.89	15459.24
486.07	15133.90
486.25	15765.85
486.43	15737.76
486.61	15686.27
486.78	15672.23
486.96	15885.22
487.14	16308.85
487.32	16346.30
487.50	16343.96
487.68	16547.59
487.85	16940.80
488.03	17060.16
488.21	17263.79
488.39	17078.89
488.57	17160.81
488.75	17261.45
488.92	17408.90
489.10	17631.26
489.28	17666.36
489.46	18008.08
489.64	17926.16
489.81	18321.71
489.99	18506.62
490.17	18448.10
490.35	18750.03
490.53	18583.85
490.70	18670.45
490.88	18771.10
491.06	19147.92
491.24	19084.73
491.41	19201.76
491.59	19276.65
491.77	19297.72
491.95	19499.00
492.13	19807.95
492.30	19793.91
492.48	20135.63
492.66	20060.73
492.84	19910.94
493.01	20180.10
493.19	20093.50
493.37	20650.55
493.54	20400.11
493.72	20718.42
493.90	20753.53
494.08	21067.16
494.25	20795.66
494.43	21055.46
494.61	21338.66
494.79	21383.13
494.96	21362.07
495.14	21696.77
495.32	21715.49
495.49	21678.04
495.67	21738.90
495.85	22080.61
496.02	22253.81
496.20	22586.17
496.38	22499.57
496.55	22838.95
496.73	23161.94
496.91	22984.06
497.09	23073.00
497.26	22838.95
497.44	23173.64
497.62	23028.53
497.79	23309.40
497.97	23358.55
498.14	23805.59
498.32	23506.00
498.50	23599.62
498.67	23981.13
498.85	23873.46
499.03	24222.20
499.20	24318.17
499.38	24283.06
499.56	24276.04
499.73	24570.94
499.91	24430.51
500.08	24664.57
500.26	24650.52
500.44	24711.38
500.61	24849.47
500.79	24861.17
500.97	25219.27
501.14	25568.01
501.32	25081.18
501.49	25174.80
501.67	25212.25
501.84	25294.17
502.02	25254.38
502.20	25617.16
502.37	25874.62
502.55	25809.09
502.72	25954.20
502.90	25891.01
503.07	25776.32
503.25	26272.51
503.43	25965.90
503.60	26181.23
503.78	26206.98
503.95	26459.76
504.13	26396.56
504.30	26789.77
504.48	26370.82
504.65	26857.65
504.83	27115.11
505.01	27044.89
505.18	27101.06
505.36	27122.13
505.53	27248.52
505.71	27353.84
505.88	27573.85
506.06	27016.80
506.23	27356.18
506.41	27239.15
506.58	27749.39
506.76	28006.85
506.93	27955.36
507.11	27728.33
507.28	27814.93
507.46	28128.56
507.63	28046.64
507.81	28116.86
507.98	28166.01
508.16	28285.37
508.33	28470.28
508.50	28327.50
508.68	28568.58
508.85	28713.69
509.03	28966.47
509.20	28987.53
509.38	28886.89
509.55	29310.53
509.73	29085.84
509.90	29230.95
510.08	29263.72
510.25	29259.04
510.42	29467.34
510.60	29689.70
510.77	29696.72
510.95	29628.84
511.12	29589.05
511.30	30033.75
511.47	30331.00
511.64	30157.80
511.82	30054.82
511.99	29944.81
512.17	30433.99
512.34	29930.77
512.51	30572.08
512.69	30206.95
512.86	30745.28
513.04	30820.17
513.21	30602.50
513.38	30501.86
513.56	30735.92
513.73	30661.02
513.90	30881.03
514.08	30654.00
514.25	30925.50
514.43	31442.76
514.60	31143.17
514.77	31307.01
514.95	31440.42
515.12	31424.03
515.29	31131.47
515.47	31618.30
515.64	32205.77
515.81	31817.24
515.99	31552.76
516.16	32114.49
516.33	32020.87
516.51	31899.16
516.68	31264.88
516.85	31517.65
517.03	32149.60
517.20	31929.59
517.37	32128.53
517.54	32184.71
517.72	32339.18
517.89	32313.44
518.06	32238.54
518.24	32339.18
518.41	32306.41
518.58	32327.48
518.75	32720.69
518.93	33144.33
519.10	32847.08
519.27	32746.44
519.45	33111.56
519.62	32936.02
519.79	33069.43
519.96	33099.86
520.14	33677.97
520.31	33603.07
520.48	33565.62
520.65	33656.90
520.83	33670.95
521.00	33853.51
521.17	33799.68
521.34	33741.16
521.52	34012.66
521.69	34040.75
521.86	34249.06
522.03	34192.89
522.20	34583.76
522.38	34305.23
522.55	34117.99
522.72	34171.82
522.89	34087.56
523.07	34646.95
523.24	34010.32
523.41	34394.17
523.58	34532.26
523.75	34916.11
523.92	35096.33
524.10	35082.29
524.27	34768.66
524.44	35311.66
524.61	35204.00
524.78	35009.73
524.96	35754.02
525.13	35391.24
525.30	35864.03
525.47	35704.87
525.64	35952.97
525.81	35625.29
525.98	35110.38
526.16	35388.90
526.33	35007.39
526.50	35456.78
526.67	35325.71
526.84	35833.60
527.01	35782.11
527.18	35697.85
527.36	35929.56
527.53	36091.06
527.70	36112.13
527.87	36362.56
528.04	36081.70
528.21	35969.35
528.38	36498.31
528.55	36339.16
528.72	36596.62
528.89	37006.21
529.07	36774.50
529.24	36704.28
529.41	36353.20
529.58	36664.49
529.75	36868.12
529.92	36954.72
530.09	36882.16
530.26	37270.69
530.43	36952.38
530.60	36973.44
530.77	36786.20
530.94	37469.64
531.11	37055.36
531.28	37116.22
531.46	37364.31
531.63	37507.08
531.80	37343.25
531.97	37275.37
532.14	37556.24
532.31	37350.27
532.48	37368.99
532.65	37481.34
532.82	37703.69
532.99	38036.05
533.16	37619.43
533.33	37883.91
533.50	38483.09
533.67	37963.49
533.84	37806.67
534.01	38103.92
534.18	37963.49
534.35	38490.11
534.52	38043.07
534.69	37933.06
534.86	38202.22
535.03	38213.93
535.20	38426.92
535.37	38462.02
535.54	38501.81
535.71	38658.63
535.88	38967.58
536.05	38466.70
536.22	38768.63
536.38	38862.26
536.55	38438.62
536.72	38628.20
536.89	38499.47
537.06	38525.22
537.23	38998.01
537.40	38845.87
537.57	39026.09
537.74	39182.91
537.91	38862.26
538.08	39206.31
538.25	38906.73
538.42	39115.03
538.59	38951.20
538.75	39063.54
538.92	39281.21
539.09	39585.48
539.26	39498.88
539.43	39253.12
539.60	39950.60
539.77	39512.92
539.94	38897.36
540.11	39328.02
540.28	39835.92
540.44	39377.17
540.61	39590.16
540.78	39335.04
540.95	39445.05
541.12	39878.05
541.29	39566.76
541.46	39941.24
541.62	40020.82
541.79	40690.21
541.96	39608.89
542.13	39922.52
542.30	39969.33
542.47	40062.95
542.63	40069.97
542.80	40610.64
542.97	40872.78
543.14	40631.70
543.31	40327.43
543.48	40554.46
543.64	41340.88
543.81	40680.85
543.98	40830.65
544.15	40807.24
544.32	41010.87
544.48	41132.57
544.65	40863.41
544.82	41160.66
544.99	40816.60
545.16	40999.16
545.32	40484.25
545.49	41310.46
545.66	41195.77
545.83	41165.34
546.00	41198.11
546.16	41216.83
546.33	41219.17
546.50	40870.43
546.67	41390.03
546.83	40683.19
547.00	41331.52
547.17	41193.43
547.34	40987.46
547.50	41352.58
547.67	42164.75
547.84	41940.06
548.00	41553.87
548.17	41284.71
548.34	41619.41
548.51	41991.55
548.67	42047.72
548.84	41839.42
549.01	42052.41
549.18	41776.22
549.34	41851.12
549.51	42087.51
549.68	42000.91
549.84	42176.45
550.01	41801.97
550.18	42157.73
550.34	41909.63
550.51	42141.35
550.68	41741.11
550.84	41694.30
551.01	42363.70
551.18	41900.27
551.34	42244.33
551.51	42019.64
551.68	42644.56
551.84	42574.34
552.01	42314.55
552.18	42447.96
552.34	42265.39
552.51	42557.96
552.68	42178.79
552.84	42593.07
553.01	42932.45
553.18	42539.24
553.34	42359.02
553.51	42337.95
553.67	42614.13
553.84	42672.65
554.01	42806.06
554.17	43110.33
554.34	42904.36
554.51	42831.80
554.67	43098.62
554.84	43086.92
555.00	42766.27
555.17	42895.00
555.33	42384.76
555.50	42789.67
555.67	42923.08
555.83	42939.47
556.00	42878.61
556.16	43655.67
556.33	43009.68
556.50	43323.32
556.66	43019.05
556.83	43234.38
556.99	43335.02
557.16	43421.62
557.32	43316.29
557.49	43288.21
557.65	43023.73
557.82	43129.05
557.98	43604.18
558.15	43248.42
558.32	42913.72
558.48	43405.23
558.65	43086.92
558.81	43147.78
558.98	43257.78
559.14	43124.37
559.31	43723.55
559.47	43440.34
559.64	43983.35
559.80	43709.50
559.97	44093.35
560.13	43634.61
560.30	43632.27
560.46	43482.47
560.63	43660.35
560.79	43704.82
560.96	44048.88
561.12	43585.46
561.29	43997.39
561.45	43761.00
561.61	43852.28
561.78	43878.02
561.94	43594.82
562.11	43597.16
562.27	43604.18
562.44	43690.78
562.60	44144.84
562.77	44025.48
562.93	43936.54
563.10	44011.43
563.26	43672.06
563.42	43952.92
563.59	43988.03
563.75	43845.26
563.92	43723.55
564.08	43847.60
564.24	44615.29
564.41	43674.40
564.57	43896.75
564.74	43725.89
564.90	44449.11
565.07	43924.83
565.23	44320.38
565.39	44224.42
565.56	44065.27
565.72	43981.01
565.88	44175.27
566.05	43997.39
566.21	44062.93
566.38	44147.18
566.54	44423.37
566.70	44584.86
566.87	44692.53
567.03	44374.22
567.19	44226.76
567.36	44367.20
567.52	44306.34
567.68	44692.53
567.85	44568.48
568.01	44039.52
568.17	44119.10
568.34	44266.55
568.50	43807.81
568.66	44105.06
568.83	44245.49
568.99	44502.95
569.15	44278.25
569.32	44289.96
569.48	44224.42
569.64	44516.99
569.81	44397.62
569.97	43700.14
570.13	44336.77
570.30	44491.24
570.46	44369.54
570.62	44144.84
570.78	44196.34
570.95	44816.58
571.11	44615.29
571.27	44226.76
571.43	44617.63
571.60	44725.30
571.76	44509.97
571.92	44411.67
572.09	44013.77
572.25	44498.26
572.41	44531.03
572.57	44458.48
572.74	44964.03
572.90	44753.38
573.06	44561.46
573.22	45038.93
573.38	44334.43
573.55	44531.03
573.71	44531.03
573.87	44421.03
574.03	44261.87
574.20	44509.97
574.36	44360.17
574.52	44760.40
574.68	44779.13
574.84	44474.86
575.01	44584.86
575.17	44505.29
575.33	44371.88
575.49	44343.79
575.65	44870.41
575.82	45460.23
575.98	44596.57
576.14	44575.50
576.30	44685.51
576.46	44212.72
576.62	44781.47
576.79	44903.18
576.95	44573.16
577.11	44980.42
577.27	44678.49
577.43	44542.74
577.59	44493.58
577.75	44465.50
577.92	44362.51
578.08	44512.31
578.24	44011.43
578.40	44650.40
578.56	45022.54
578.72	44446.77
578.88	44762.75
579.04	44823.60
579.21	44708.91
579.37	44502.95
579.53	44304.00
579.69	44580.18
579.85	44830.62
580.01	44748.70
580.17	44917.22
580.33	45109.14
580.49	45083.40
580.65	45354.90
580.82	44861.05
580.98	44364.85
581.14	44329.75
581.30	44989.78
581.46	45059.99
581.62	44800.19
581.78	44561.46
581.94	44999.14
582.10	44842.32
582.26	44861.05
582.42	44954.67
582.58	45109.14
582.74	44802.53
582.90	44886.79
583.06	44877.43
583.22	45090.42
583.38	44959.35
583.54	44779.13
583.70	44844.66
583.86	45008.50
584.02	44498.26
584.18	44636.36
584.34	44704.23
584.50	44807.22
584.66	44556.78
584.82	44685.51
584.98	45013.18
585.14	45038.93
585.30	44570.82
585.46	44889.13
585.62	44793.17
585.78	44947.65
585.94	44215.06
586.10	44699.55
586.26	44294.64
586.42	44828.28
586.58	44697.21
586.74	44893.82
586.90	44505.29
587.06	44781.47
587.22	44980.42
587.38	44498.26
587.54	44987.44
587.70	44760.40
587.86	44893.82
588.02	45020.20
588.18	45219.15
588.34	44772.11
588.49	44589.55
588.65	45113.83
588.81	44556.78
588.97	44694.87
589.13	44910.20
589.29	44959.35
589.45	44765.09
589.61	45390.01
589.77	45207.45
589.93	44949.99
590.08	45015.52
590.24	45020.20
