SpectraSuite Data File
++++++++++++++++++++++++++++++++++++
Date: Fri Oct 25 10:44:10 EDT 2013
User: price-jones
Dark Spectrum Present: No
Reference Spectrum Present: No
Number of Sampled Component Spectra: 1
Spectrometers: USB2+H05261
Integration Time (usec): 100000 (USB2+H05261)
Spectra Averaged: 1 (USB2+H05261)
Boxcar Smoothing: 0 (USB2+H05261)
Correct for Electrical Dark: No (USB2+H05261)
Strobe/Lamp Enabled: No (USB2+H05261)
Correct for Detector Non-linearity: No (USB2+H05261)
Correct for Stray Light: No (USB2+H05261)
Number of Pixels in Processed Spectrum: 2048
>>>>>Begin Processed Spectral Data<<<<<
365.73	142.77
365.92	142.77
366.12	142.77
366.32	2.34
366.52	0.00
366.72	11.70
366.91	28.09
367.11	67.88
367.31	0.00
367.51	16.38
367.70	42.13
367.90	30.43
368.10	0.00
368.30	9.36
368.49	0.00
368.69	39.79
368.89	81.92
369.09	39.79
369.28	49.15
369.48	18.72
369.68	53.83
369.87	58.51
370.07	131.07
370.27	142.77
370.47	170.86
370.66	433.00
370.86	451.72
371.06	383.85
371.25	390.87
371.45	475.13
371.65	517.26
371.84	440.02
372.04	425.98
372.24	514.92
372.44	550.03
372.63	538.32
372.83	547.69
373.03	540.66
373.22	564.07
373.42	552.37
373.62	538.32
373.81	620.24
374.01	543.00
374.21	599.18
374.40	475.13
374.60	592.16
374.79	540.66
374.99	617.90
375.19	615.56
375.38	543.00
375.58	594.50
375.78	599.18
375.97	601.52
376.17	617.90
376.37	638.97
376.56	603.86
376.76	566.41
376.95	617.90
377.15	678.76
377.35	660.03
377.54	692.80
377.74	634.29
377.93	716.20
378.13	653.01
378.33	704.50
378.52	606.20
378.72	650.67
378.91	777.06
379.11	596.84
379.31	648.33
379.50	606.20
379.70	753.65
379.89	760.67
380.09	692.80
380.28	627.26
380.48	620.24
380.68	697.48
380.87	643.65
381.07	692.80
381.26	685.78
381.46	739.61
381.65	734.93
381.85	699.82
382.04	681.10
382.24	695.14
382.43	636.63
382.63	643.65
382.83	695.14
383.02	732.59
383.22	763.01
383.41	709.18
383.61	781.74
383.80	737.27
384.00	723.23
384.19	821.53
384.39	793.44
384.58	826.21
384.78	772.38
384.97	835.57
385.17	758.33
385.36	840.25
385.56	844.93
385.75	816.85
385.95	770.04
386.14	819.19
386.34	863.66
386.53	816.85
386.72	847.27
386.92	926.85
387.11	915.15
387.31	917.49
387.50	842.59
387.70	903.45
387.89	894.08
388.09	851.96
388.28	880.04
388.48	891.74
388.67	971.32
388.86	896.43
389.06	947.92
389.25	943.24
389.45	945.58
389.64	966.64
389.84	1001.75
390.03	1034.52
390.22	938.55
390.42	1006.43
390.61	952.60
390.81	1027.50
391.00	1057.92
391.19	1116.44
391.39	1020.47
391.58	1029.84
391.78	1083.67
391.97	990.05
392.16	1048.56
392.36	1025.15
392.55	1015.79
392.75	999.41
392.94	873.02
393.13	1048.56
393.33	950.26
393.52	1060.26
393.71	1078.99
393.91	1111.75
394.10	1193.67
394.29	1188.99
394.49	1076.65
394.68	1160.91
394.88	1158.57
395.07	1334.11
395.26	1306.02
395.46	1193.67
395.65	1331.76
395.84	1142.18
396.04	1261.55
396.23	1076.65
396.42	1109.41
396.62	1111.75
396.81	1252.19
397.00	1116.44
397.19	1310.70
397.39	1350.49
397.58	1416.02
397.77	1411.34
397.97	1341.13
398.16	1453.47
398.35	1526.03
398.55	1430.07
398.74	1453.47
398.93	1603.27
399.12	1516.67
399.32	1455.81
399.51	1476.88
399.70	1584.54
399.90	1584.54
400.09	1558.80
400.28	1591.56
400.47	1570.50
400.67	1659.44
400.86	1603.27
401.05	1591.56
401.24	1720.29
401.44	1675.82
401.63	1652.42
401.82	1792.85
402.01	1748.38
402.21	1680.50
402.40	1727.32
402.59	1739.02
402.78	1610.29
402.97	1703.91
403.17	1795.19
403.36	1816.26
403.55	1806.89
403.74	1860.73
403.93	1746.04
404.13	1898.17
404.32	1816.26
404.51	1785.83
404.70	1863.07
404.89	1778.81
405.09	1921.58
405.28	1900.52
405.47	1961.37
405.66	1952.01
405.85	1975.41
406.05	1923.92
406.24	1970.73
406.43	1961.37
406.62	2148.61
406.81	2069.03
407.00	2073.71
407.20	1942.64
407.39	1982.43
407.58	2040.95
407.77	2165.00
407.96	2165.00
408.15	2214.15
408.34	2218.83
408.54	2176.70
408.73	2303.09
408.92	2359.26
409.11	2326.49
409.30	2300.75
409.49	2242.23
409.68	2183.72
409.87	2284.36
410.07	2373.30
410.26	2361.60
410.45	2492.67
410.64	2396.71
410.83	2555.86
411.02	2480.97
411.21	2560.55
411.40	2506.71
411.59	2527.78
411.78	2574.59
411.98	2576.93
412.17	2532.46
412.36	2588.63
412.55	2745.45
412.74	2635.44
412.93	2775.88
413.12	2731.41
413.31	2897.58
413.50	2661.19
413.69	2850.77
413.88	2815.66
414.07	2832.05
414.26	2944.39
414.45	2916.31
414.64	2958.44
414.83	2963.12
415.02	2892.90
415.22	3000.57
415.41	3094.19
415.60	3143.34
415.79	3145.68
415.98	3386.76
416.17	3325.90
416.36	3208.87
416.55	3122.27
416.74	3363.35
416.93	3236.96
417.12	3159.72
417.31	3255.69
417.50	3279.09
417.69	3482.72
417.88	3433.57
418.07	3391.44
418.26	3433.57
418.45	3412.50
418.64	3688.68
418.83	3520.17
419.02	3559.95
419.21	3597.40
419.39	3613.79
419.58	3440.59
419.77	3478.04
419.96	3674.64
420.15	3754.22
420.34	3574.00
420.53	3688.68
420.72	3779.97
420.91	3756.56
421.10	3798.69
421.29	3796.35
421.48	3749.54
421.67	3936.78
421.86	3765.92
422.05	3805.71
422.24	3705.07
422.43	3763.58
422.61	3791.67
422.80	3892.31
422.99	3925.08
423.18	3866.56
423.37	3936.78
423.56	3922.74
423.75	3915.72
423.94	3904.01
424.13	3536.55
424.32	3646.55
424.50	3981.25
424.69	3983.59
424.88	3964.87
425.07	3843.16
425.26	3875.93
425.45	3838.48
425.64	3925.08
425.83	3899.33
426.01	4105.30
426.20	3899.33
426.39	3992.95
426.58	3913.38
426.77	3927.42
426.96	3967.21
427.15	3906.35
427.33	4028.06
427.52	3995.29
427.71	4014.02
427.90	4205.94
428.09	4128.70
428.28	4079.55
428.46	4140.41
428.65	4191.90
428.84	4299.56
429.03	4294.88
429.22	4138.07
429.40	4208.28
429.59	4093.60
429.78	3857.20
429.97	4030.40
430.16	3880.61
430.34	4201.26
430.53	4081.89
430.72	4147.43
430.91	4301.90
431.10	4381.48
431.28	4463.40
431.47	4723.20
431.66	4636.60
431.85	4510.21
432.03	4603.83
432.22	4538.30
432.41	4535.96
432.60	4650.64
432.79	4713.84
432.97	4641.28
433.16	4718.52
433.35	4620.22
433.54	4755.97
433.72	4669.37
433.91	4566.39
434.10	4755.97
434.28	4751.29
434.47	4786.40
434.66	4896.40
434.85	4723.20
435.03	4933.85
435.22	4933.85
435.41	5078.96
435.59	5097.69
435.78	5039.17
435.97	4954.91
436.16	5013.43
436.34	5018.11
436.53	5163.22
436.72	5420.68
436.90	5083.64
437.09	5170.24
437.28	5078.96
437.46	5020.45
437.65	5144.50
437.84	5191.31
438.02	5132.79
438.21	4997.04
438.40	5081.30
438.58	5135.14
438.77	5359.83
438.96	5598.56
439.14	5563.45
439.33	5687.50
439.52	5558.77
439.70	5659.42
439.89	5579.84
440.08	5722.61
440.26	5664.10
440.45	5610.26
440.63	5935.60
440.82	6083.05
441.01	5884.11
441.19	5886.45
441.38	6080.71
441.57	6111.14
441.75	6230.51
441.94	6214.12
442.12	6312.42
442.31	6047.94
442.50	6328.81
442.68	6253.91
442.87	6186.04
443.05	6366.26
443.24	6459.88
443.43	6352.21
443.61	6305.40
443.80	6511.37
443.98	6345.19
444.17	6258.59
444.35	6424.77
444.54	6637.76
444.73	6670.53
444.91	6644.78
445.10	6338.17
445.28	6485.62
445.47	6352.21
445.65	6305.40
445.84	6455.20
446.02	6506.69
446.21	6361.58
446.39	6614.35
446.58	6836.70
446.77	6525.41
446.95	6586.27
447.14	6633.08
447.32	6724.36
447.51	6883.52
447.69	6558.18
447.88	6822.66
448.06	6633.08
448.25	6726.70
448.43	6799.26
448.62	6731.38
448.80	6651.80
448.99	6733.72
449.17	6876.49
449.36	6642.44
449.54	6927.99
449.73	7112.89
449.91	7045.01
450.10	7047.35
450.28	7246.30
450.46	7037.99
450.65	7382.05
450.83	7143.32
451.02	7176.08
451.20	7302.47
451.39	7199.49
451.57	7243.96
451.76	7208.85
451.94	7169.06
452.13	7356.30
452.31	7328.22
452.49	6974.80
452.68	7199.49
452.86	7148.00
453.05	7281.41
453.23	7356.30
453.42	7302.47
453.60	7342.26
453.78	7470.99
453.97	7201.83
454.15	7363.33
454.34	7358.64
454.52	7365.67
454.70	7325.88
454.89	7552.91
455.07	7438.22
455.26	7599.72
455.44	7508.44
455.62	7632.49
455.81	7740.15
455.99	7960.16
456.17	7943.78
456.36	7824.41
456.54	7955.48
456.73	8004.63
456.91	8119.32
457.09	8168.47
457.28	8280.82
457.46	8013.99
457.64	8168.47
457.83	7999.95
458.01	7922.71
458.19	8060.80
458.38	8175.49
458.56	8297.20
458.74	8231.66
458.93	8098.25
459.11	8266.77
459.29	8161.45
459.48	8278.47
459.66	8079.53
459.84	8250.39
460.03	8402.52
460.21	8397.84
460.39	8674.03
460.57	8594.45
460.76	8318.26
460.94	8699.77
461.12	8512.53
461.31	8681.05
461.49	8514.87
461.67	8741.90
461.85	8809.78
462.04	8662.32
462.22	9011.06
462.40	8915.10
462.59	8809.78
462.77	8606.15
462.95	8938.51
463.13	9050.85
463.32	8929.14
463.50	9092.98
463.68	9001.70
463.86	8975.95
464.05	9041.49
464.23	8870.63
464.41	9151.49
464.59	8858.93
464.78	9263.84
464.96	9228.73
465.14	9036.81
465.32	9378.53
465.50	8945.53
465.69	9273.20
465.87	9221.71
466.05	9202.99
466.23	9057.87
466.41	9125.75
466.60	9242.78
466.78	8971.27
466.96	9139.79
467.14	9142.13
467.32	9415.98
467.51	9411.29
467.69	9060.21
467.87	9572.79
468.05	9518.96
468.23	9479.17
468.41	9385.55
468.60	9525.98
468.78	9640.67
468.96	9514.28
469.14	9715.56
469.32	9603.22
469.50	9362.14
469.69	9778.76
469.87	9703.86
470.05	9509.60
470.23	9628.96
470.41	9741.31
470.59	9881.74
470.77	9717.90
470.95	9764.72
471.14	10040.90
471.32	9919.19
471.50	10148.56
471.68	10118.14
471.86	10333.47
472.04	10450.49
472.22	10558.16
472.40	10160.27
472.58	10153.24
472.77	10450.49
472.95	10525.39
473.13	10750.08
473.31	10347.51
473.49	10569.86
473.67	10628.37
473.85	10408.36
474.03	10848.38
474.21	11138.61
474.39	10883.49
474.57	11157.33
474.75	11080.10
474.93	11176.06
475.12	10951.37
475.30	11400.75
475.48	11068.39
475.66	11232.23
475.84	11187.76
476.02	11595.01
476.20	11424.15
476.38	11496.71
476.56	11805.66
476.74	11793.96
476.92	11791.62
477.10	11632.46
477.28	11920.35
477.46	11983.54
477.64	12133.34
477.82	12397.82
478.00	12556.97
478.18	12374.41
478.36	12533.57
478.54	12688.04
478.72	12585.06
478.90	12634.21
479.08	13083.59
479.26	13217.01
479.44	13156.15
479.62	13341.05
479.80	13177.22
479.98	13331.69
480.16	13589.15
480.34	13394.89
480.52	13743.63
480.70	13778.73
480.88	13675.75
481.06	14015.13
481.24	13919.17
481.41	13888.74
481.59	14244.50
481.77	14431.74
481.95	14218.75
482.13	14307.69
482.31	14747.72
482.49	14881.13
482.67	14822.61
482.85	14911.55
483.03	14808.57
483.21	15264.97
483.39	15082.41
483.57	15260.29
483.74	15447.54
483.92	15566.90
484.10	15580.95
484.28	15751.81
484.46	16011.60
484.64	16051.39
484.82	15925.00
485.00	16140.33
485.18	16500.78
485.35	16374.39
485.53	16257.36
485.71	16116.93
485.89	16453.97
486.07	16496.10
486.25	16636.53
486.43	16734.83
486.61	16992.29
486.78	17198.26
486.96	17413.59
487.14	17589.13
487.32	17736.58
487.50	17951.91
487.68	18085.32
487.85	18249.16
488.03	18354.48
488.21	18401.29
488.39	18520.66
488.57	18696.20
488.75	18590.88
488.92	18881.10
489.10	19548.15
489.28	19529.43
489.46	19688.59
489.64	19569.22
489.81	19822.00
489.99	20114.56
490.17	20119.24
490.35	20414.15
490.53	20332.23
490.70	20540.54
490.88	20582.67
491.06	20627.14
491.24	20601.40
491.41	20587.35
491.59	20877.58
491.77	20861.19
491.95	20896.30
492.13	21280.15
492.30	21570.38
492.48	21497.82
492.66	21692.08
492.84	21724.85
493.01	22101.68
493.19	21752.94
493.37	21986.99
493.54	22132.11
493.72	22621.28
493.90	22560.42
494.08	22838.95
494.25	23126.83
494.43	23190.03
494.61	22948.95
494.79	23171.30
494.96	23396.00
495.14	23178.33
495.32	23700.26
495.49	23716.65
495.67	24109.86
495.85	23981.13
496.02	24386.04
496.20	24114.54
496.38	24273.70
496.55	24456.26
496.73	24957.13
496.91	24807.34
497.09	24898.62
497.26	25130.33
497.44	24788.61
497.62	25172.46
497.79	25284.81
497.97	25233.32
498.14	25174.80
498.32	25085.86
498.50	25483.75
498.67	25783.34
498.85	25895.69
499.03	26225.70
499.20	26118.04
499.38	25926.11
499.56	26544.02
499.73	26675.09
499.91	26508.91
500.08	26466.78
500.26	26249.11
500.44	26185.91
500.61	26480.82
500.79	26576.78
500.97	27131.49
501.14	27185.32
501.32	27023.83
501.49	26834.24
501.67	27239.15
501.84	27864.08
502.02	27035.53
502.20	27503.64
502.37	27672.15
502.55	27810.25
502.72	28006.85
502.90	28360.27
503.07	27990.47
503.25	28243.24
503.43	27770.46
503.60	28311.12
503.78	27693.22
503.95	28278.35
504.13	28308.78
504.30	28580.28
504.48	28397.72
504.65	28987.53
504.83	29104.56
505.01	29214.57
505.18	28931.36
505.36	29413.51
505.53	29523.52
505.71	29659.27
505.88	29596.07
506.06	29385.43
506.23	29549.26
506.41	29488.41
506.58	29696.72
506.76	29916.73
506.93	29853.53
507.11	29865.24
507.28	30284.19
507.46	30136.74
507.63	29883.96
507.81	30302.92
507.98	30092.27
508.16	30218.66
508.33	30864.64
508.50	30473.78
508.68	30775.70
508.85	31274.24
509.03	30778.04
509.20	31206.36
509.38	31143.17
509.55	31152.53
509.73	31173.60
509.90	31157.21
510.08	31325.73
510.25	31356.16
510.42	31702.56
510.60	31915.54
510.77	31585.53
510.95	31732.98
511.12	32077.04
511.30	32175.34
511.47	32360.25
511.64	32016.19
511.82	32458.55
511.99	32315.78
512.17	32322.80
512.34	32079.38
512.51	32601.32
512.69	32210.45
512.86	32367.27
513.04	33118.58
513.21	32568.55
513.38	32589.62
513.56	32833.04
513.73	32772.18
513.90	33130.28
514.08	33139.65
514.25	32966.45
514.43	32903.25
514.60	33331.57
514.77	33488.38
514.95	33385.40
515.12	33591.37
515.29	33720.10
515.47	34015.01
515.64	33902.66
515.81	33720.10
515.99	34040.75
516.16	33680.31
516.33	33661.58
516.51	33628.82
516.68	33432.21
516.85	33125.60
517.03	33333.91
517.20	33825.42
517.37	34291.19
517.54	34143.74
517.72	34078.20
517.89	33713.08
518.06	34029.05
518.24	34251.40
518.41	34286.51
518.58	34735.89
518.75	34623.54
518.93	34242.04
519.10	34532.26
519.27	35028.46
519.45	34876.32
519.62	35330.39
519.79	35608.91
519.96	35358.47
520.14	35150.17
520.31	35061.22
520.48	35718.92
520.65	35571.46
520.83	35653.38
521.00	36093.40
521.17	35299.96
521.34	36091.06
521.52	36098.08
521.69	36053.61
521.86	36381.29
522.03	36187.02
522.20	36175.32
522.38	36088.72
522.55	36187.02
522.72	36184.68
522.89	36730.03
523.07	36395.33
523.24	36601.30
523.41	37003.87
523.58	36704.28
523.75	37090.47
523.92	37038.98
524.10	37223.88
524.27	37106.85
524.44	36886.84
524.61	37493.04
524.78	37797.31
524.96	37528.15
525.13	37434.53
525.30	38019.66
525.47	38167.12
525.64	37610.07
525.81	37919.02
525.98	37532.83
526.16	37429.85
526.33	37439.21
526.50	37207.50
526.67	37095.15
526.84	36996.85
527.01	37284.73
527.18	37427.51
527.36	38078.18
527.53	38267.76
527.70	38361.38
527.87	38618.84
528.04	38410.53
528.21	38185.84
528.38	38785.02
528.55	39077.58
528.72	38782.68
528.89	39419.30
529.07	38785.02
529.24	38576.71
529.41	38693.74
529.58	38644.59
529.75	38550.96
529.92	38939.49
530.09	38794.38
530.26	39232.06
530.43	39239.08
530.60	39140.78
530.77	39459.09
530.94	39562.08
531.11	39419.30
531.28	39496.54
531.46	39864.00
531.63	40069.97
531.80	39566.76
531.97	39562.08
532.14	39587.82
532.31	39302.28
532.48	39730.59
532.65	39625.27
532.82	39459.09
532.99	39765.70
533.16	39505.90
533.33	39810.17
533.50	39688.46
533.67	40060.61
533.84	39496.54
534.01	40002.10
534.18	39821.87
534.35	40561.48
534.52	40289.98
534.69	40397.65
534.86	40371.90
535.03	40343.81
535.20	40924.27
535.37	40952.35
535.54	40837.67
535.71	40748.73
535.88	40718.30
536.05	40914.90
536.22	40701.92
536.38	40697.24
536.55	40830.65
536.72	40821.28
536.89	40781.49
537.06	40858.73
537.23	40715.96
537.40	41247.26
537.57	41132.57
537.74	41010.87
537.91	41593.66
538.08	41404.08
538.25	40800.22
538.42	40980.44
538.59	41696.64
538.75	40781.49
538.92	41308.11
539.09	41219.17
539.26	41731.75
539.43	41408.76
539.60	41029.59
539.77	41263.64
539.94	41668.56
540.11	41134.92
540.28	41717.71
540.44	41354.93
540.61	41530.47
540.78	41556.21
540.95	41336.20
541.12	41874.52
541.29	41790.27
541.46	41846.44
541.62	41879.21
541.79	42220.92
541.96	41216.83
542.13	41701.32
542.30	41738.77
542.47	42075.81
542.63	41675.58
542.80	42007.94
542.97	42471.36
543.14	42749.88
543.31	42473.70
543.48	42450.30
543.64	43178.20
543.81	43110.33
543.98	42724.14
544.15	42738.18
544.32	42630.52
544.48	43026.07
544.65	43119.69
544.82	42951.17
544.99	43000.32
545.16	42923.08
545.32	43082.24
545.49	43503.54
545.66	43599.50
545.83	43517.58
546.00	43297.57
546.16	43276.51
546.33	43107.99
546.50	42801.38
546.67	43449.70
546.83	43086.92
547.00	43580.78
547.17	42939.47
547.34	43264.80
547.50	43358.42
547.67	43590.14
547.84	43725.89
548.00	44170.59
548.17	43501.20
548.34	43878.02
548.51	44032.50
548.67	43384.17
548.84	43838.23
549.01	43770.36
549.18	43915.47
549.34	44076.97
549.51	44032.50
549.68	44198.68
549.84	43878.02
550.01	43903.77
550.18	43501.20
550.34	43866.32
550.51	43679.08
550.68	43819.51
550.84	43650.99
551.01	43772.70
551.18	43878.02
551.34	44545.08
551.51	44336.77
551.68	44128.46
551.84	44240.81
552.01	44311.02
552.18	44205.70
552.34	44163.57
552.51	44325.07
552.68	43892.07
552.84	44322.72
553.01	44189.31
553.18	44495.92
553.34	44676.15
553.51	44163.57
553.67	44598.91
553.84	44797.85
554.01	44706.57
554.17	44954.67
554.34	44751.04
554.51	44954.67
554.67	45170.00
554.84	45216.81
555.00	44732.32
555.17	44655.08
555.33	44992.12
555.50	44814.24
555.67	44509.97
555.83	44992.12
556.00	44563.80
556.16	44823.60
556.33	45097.44
556.50	44718.28
556.66	45003.82
556.83	44626.99
556.99	45240.21
557.16	45343.20
557.32	45502.35
557.49	45329.16
557.65	44535.71
557.82	45251.92
557.98	45165.32
558.15	45141.91
558.32	45375.97
558.48	44896.16
558.65	44678.49
558.81	45064.67
558.98	44987.44
559.14	44971.05
559.31	44954.67
559.47	45631.08
559.64	45551.51
559.80	45446.18
559.97	45364.26
560.13	44987.44
560.30	45172.34
560.46	45729.39
560.63	45413.41
560.79	45769.18
560.96	45617.04
561.12	45504.70
561.29	45453.20
561.45	45373.63
561.61	45516.40
561.78	45418.10
561.94	45120.85
562.11	44992.12
562.27	45289.37
562.44	45771.52
562.60	45057.65
562.77	45624.06
562.93	45778.54
563.10	45954.08
563.26	45240.21
563.42	45645.13
563.59	45345.54
563.75	45549.17
563.92	45720.02
564.08	45586.61
564.24	45792.58
564.41	45778.54
564.57	45729.39
564.74	45715.34
564.90	45897.91
565.07	45991.53
565.23	45507.04
565.39	45600.66
565.56	45837.05
565.72	45757.47
565.88	45783.22
566.05	45607.68
566.21	45759.81
566.38	45661.51
566.54	45649.81
566.70	45968.12
566.87	45785.56
567.03	45680.24
567.19	46387.08
567.36	45785.56
567.52	45656.83
567.68	45804.28
567.85	45539.80
568.01	46066.42
568.17	45691.94
568.34	45759.81
568.50	45886.20
568.66	46080.47
568.83	46199.83
568.99	45701.30
569.15	45888.54
569.32	45970.46
569.48	45682.58
569.64	46115.58
569.81	45928.33
569.97	45624.06
570.13	46033.66
570.30	45715.34
570.46	45439.16
570.62	45272.98
570.78	46199.83
570.95	45865.14
571.11	45811.31
571.27	45902.59
571.43	46480.70
571.60	45565.55
571.76	45778.54
571.92	45741.09
572.09	46080.47
572.25	45893.22
572.41	45727.05
572.57	46274.73
572.74	46567.30
572.90	46169.41
573.06	46141.32
573.22	46136.64
573.38	46038.34
573.55	45666.19
573.71	46246.65
573.87	46309.84
574.03	45848.75
574.20	45874.50
574.36	45942.38
574.52	45750.45
574.68	45890.88
574.84	45968.12
575.01	46131.96
575.17	45518.74
575.33	46120.26
575.49	45462.57
575.65	46094.51
575.82	46469.00
575.98	45914.29
576.14	46277.07
576.30	46586.02
576.46	45897.91
576.62	46106.21
576.79	45586.61
576.95	45741.09
577.11	45991.53
577.27	46361.33
577.43	46312.18
577.59	45750.45
577.75	46038.34
577.92	45907.27
578.08	45537.46
578.24	45705.98
578.40	46045.36
578.56	45879.18
578.72	46211.54
578.88	46127.28
579.04	46267.71
579.21	45972.80
579.37	46630.49
579.53	46419.84
579.69	45855.78
579.85	46103.87
580.01	46553.26
580.17	46368.35
580.33	46206.86
580.49	46241.96
580.65	46361.33
580.82	46356.65
580.98	46272.39
581.14	46389.42
581.30	46412.82
581.46	46223.24
581.62	46555.60
581.78	46614.11
581.94	46684.33
582.10	46356.65
582.26	46241.96
582.42	46286.43
582.58	46218.56
582.74	46457.29
582.90	46302.82
583.06	46396.44
583.22	46501.76
583.38	46625.81
583.54	46237.28
583.70	46700.71
583.86	46515.81
584.02	45928.33
584.18	46534.53
584.34	46571.98
584.50	46068.76
584.66	46314.52
584.82	46188.13
584.98	46597.73
585.14	46600.07
585.30	46696.03
585.46	46321.54
585.62	45872.16
585.78	46143.66
585.94	45982.16
586.10	45949.40
586.26	46237.28
586.42	46775.61
586.58	46597.73
586.74	46354.31
586.90	46513.47
587.06	46293.46
587.22	46457.29
587.38	45823.01
587.54	46160.05
587.70	46672.62
587.86	46347.29
588.02	46326.22
588.18	46525.17
588.34	45663.85
588.49	45907.27
588.65	45762.15
588.81	45752.79
588.97	45947.06
589.13	45773.86
589.29	46003.23
589.45	46347.29
589.61	46171.75
589.77	46590.70
589.93	46223.24
590.08	46436.23
