SpectraSuite Data File
++++++++++++++++++++++++++++++++++++
Date: Fri Oct 25 10:44:52 EDT 2013
User: price-jones
Dark Spectrum Present: No
Reference Spectrum Present: No
Number of Sampled Component Spectra: 1
Spectrometers: USB2+H05261
Integration Time (usec): 100000 (USB2+H05261)
Spectra Averaged: 1 (USB2+H05261)
Boxcar Smoothing: 0 (USB2+H05261)
Correct for Electrical Dark: No (USB2+H05261)
Strobe/Lamp Enabled: No (USB2+H05261)
Correct for Detector Non-linearity: No (USB2+H05261)
Correct for Stray Light: No (USB2+H05261)
Number of Pixels in Processed Spectrum: 2048
>>>>>Begin Processed Spectral Data<<<<<
365.73	88.94
365.92	88.94
366.12	88.94
366.32	84.26
366.52	0.00
366.72	74.90
366.91	28.09
367.11	0.00
367.31	60.85
367.51	28.09
367.70	60.85
367.90	107.66
368.10	0.00
368.30	114.69
368.49	56.17
368.69	72.56
368.89	32.77
369.09	74.90
369.28	44.47
369.48	42.13
369.68	49.15
369.87	114.69
370.07	95.96
370.27	51.49
370.47	229.37
370.66	379.17
370.86	409.59
371.06	358.10
371.25	442.36
371.45	421.30
371.65	451.72
371.84	393.21
372.04	358.10
372.24	428.32
372.44	482.15
372.63	428.32
372.83	491.51
373.03	517.26
373.22	498.53
373.42	477.47
373.62	449.38
373.81	472.79
374.01	519.60
374.21	496.19
374.40	578.11
374.60	519.60
374.79	575.77
374.99	526.62
375.19	557.05
375.38	615.56
375.58	578.11
375.78	608.54
375.97	503.22
376.17	615.56
376.37	528.96
376.56	505.56
376.76	566.41
376.95	695.14
377.15	571.09
377.35	568.75
377.54	561.73
377.74	650.67
377.93	578.11
378.13	697.48
378.33	606.20
378.52	636.63
378.72	627.26
378.91	681.10
379.11	613.22
379.31	603.86
379.50	617.90
379.70	690.46
379.89	531.30
380.09	660.03
380.28	573.43
380.48	655.35
380.68	622.58
380.87	636.63
381.07	634.29
381.26	704.50
381.46	702.16
381.65	592.16
381.85	645.99
382.04	648.33
382.24	725.57
382.43	660.03
382.63	568.75
382.83	587.47
383.02	777.06
383.22	751.31
383.41	685.78
383.61	678.76
383.80	674.07
384.00	791.10
384.19	755.99
384.39	784.08
384.58	777.06
384.78	779.40
384.97	690.46
385.17	657.69
385.36	702.16
385.56	791.10
385.75	758.33
385.95	770.04
386.14	755.99
386.34	814.51
386.53	741.95
386.72	737.27
386.92	699.82
387.11	748.97
387.31	837.91
387.50	781.74
387.70	870.68
387.89	851.96
388.09	779.40
388.28	781.74
388.48	814.51
388.67	868.34
388.86	779.40
389.06	779.40
389.25	954.94
389.45	861.32
389.64	863.66
389.84	1036.86
390.03	952.60
390.22	976.00
390.42	922.17
390.61	985.37
390.81	908.13
391.00	983.02
391.19	971.32
391.39	915.15
391.58	1064.94
391.78	978.34
391.97	985.37
392.16	980.68
392.36	1008.77
392.55	926.85
392.75	936.21
392.94	936.21
393.13	926.85
393.33	858.98
393.52	961.96
393.71	1121.12
393.91	985.37
394.10	999.41
394.29	1097.71
394.49	1107.07
394.68	1057.92
394.88	1128.14
395.07	1135.16
395.26	1128.14
395.46	1107.07
395.65	1121.12
395.84	1130.48
396.04	1188.99
396.23	1071.97
396.42	1074.31
396.62	1132.82
396.81	1114.10
397.00	1102.39
397.19	1165.59
397.39	1200.69
397.58	1219.42
397.77	1233.46
397.97	1289.64
398.16	1313.04
398.35	1280.27
398.55	1343.47
398.74	1338.79
398.93	1364.53
399.12	1338.79
399.32	1352.83
399.51	1376.24
399.70	1462.83
399.90	1430.07
400.09	1341.13
400.28	1446.45
400.47	1441.77
400.67	1451.13
400.86	1336.45
401.05	1446.45
401.24	1516.67
401.44	1516.67
401.63	1444.11
401.82	1481.56
402.01	1413.68
402.21	1577.52
402.40	1551.78
402.59	1528.37
402.78	1493.26
402.97	1586.88
403.17	1629.01
403.36	1598.59
403.55	1610.29
403.74	1645.40
403.93	1748.38
404.13	1682.85
404.32	1654.76
404.51	1664.12
404.70	1776.47
404.89	1727.32
405.09	1856.04
405.28	1692.21
405.47	1727.32
405.66	1701.57
405.85	1729.66
406.05	1753.06
406.24	1799.87
406.43	1879.45
406.62	1748.38
406.81	1909.88
407.00	1762.42
407.20	1748.38
407.39	1715.61
407.58	1956.69
407.77	1884.13
407.96	1956.69
408.15	1982.43
408.34	1891.15
408.54	2064.35
408.73	2069.03
408.92	2050.31
409.11	2104.14
409.30	2193.08
409.49	2129.89
409.68	2162.66
409.87	2087.76
410.07	2106.48
410.26	2073.71
410.45	2115.84
410.64	2183.72
410.83	2249.25
411.02	2277.34
411.21	2363.94
411.40	2246.91
411.59	2214.15
411.78	2331.17
411.98	2251.60
412.17	2345.22
412.36	2387.35
412.55	2424.80
412.74	2431.82
412.93	2387.35
413.12	2328.83
413.31	2558.21
413.50	2572.25
413.69	2436.50
413.88	2696.30
414.07	2705.66
414.26	2614.38
414.45	2637.78
414.64	2637.78
414.83	2630.76
415.02	2675.23
415.22	2654.17
415.41	2822.69
415.60	2588.63
415.79	2818.00
415.98	2988.86
416.17	2918.65
416.36	2789.92
416.55	2928.01
416.74	2925.67
416.93	2757.15
417.12	2932.69
417.31	3012.27
417.50	3012.27
417.69	3026.31
417.88	2995.89
418.07	3098.87
418.26	3136.32
418.45	2984.18
418.64	3164.40
418.83	3290.79
419.02	3304.84
419.21	3260.37
419.39	3248.66
419.58	3131.64
419.77	3220.58
419.96	3241.64
420.15	3304.84
420.34	3232.28
420.53	3330.58
420.72	3393.78
420.91	3384.41
421.10	3346.97
421.29	3489.74
421.48	3456.97
421.67	3445.27
421.86	3463.99
422.05	3412.50
422.24	3466.33
422.43	3403.14
422.61	3442.93
422.80	3417.18
422.99	3492.08
423.18	3543.57
423.37	3555.27
423.56	3597.40
423.75	3637.19
423.94	3459.31
424.13	3318.88
424.32	3543.57
424.50	3756.56
424.69	3506.12
424.88	3676.98
425.07	3667.62
425.26	3433.57
425.45	3599.74
425.64	3562.30
425.83	3669.96
426.01	3702.73
426.20	3576.34
426.39	3742.52
426.58	3550.59
426.77	3644.21
426.96	3597.40
427.15	3705.07
427.33	3712.09
427.52	3684.00
427.71	3695.71
427.90	3648.90
428.09	3740.18
428.28	3857.20
428.46	3779.97
428.65	3824.44
428.84	3896.99
429.03	3901.67
429.22	3733.15
429.40	3857.20
429.59	3822.09
429.78	3693.37
429.97	3606.77
430.16	3735.50
430.34	3674.64
430.53	3812.73
430.72	4011.68
430.91	3967.21
431.10	3887.63
431.28	4095.94
431.47	4163.81
431.66	4194.24
431.85	4227.01
432.03	4009.34
432.22	4163.81
432.41	4124.02
432.60	4219.99
432.79	4346.37
432.97	4227.01
433.16	4346.37
433.35	4229.35
433.54	4290.20
433.72	4381.48
433.91	4269.14
434.10	4325.31
434.28	4245.73
434.47	4437.66
434.66	4533.62
434.85	4362.76
435.03	4491.49
435.22	4416.59
435.41	4748.95
435.59	4397.87
435.78	4716.18
435.97	4655.33
436.16	4472.76
436.34	4608.51
436.53	4744.27
436.72	4734.90
436.90	4652.98
437.09	4681.07
437.28	4732.56
437.46	4851.93
437.65	4671.71
437.84	4805.12
438.02	4800.44
438.21	4582.77
438.40	4695.11
438.58	4873.00
438.77	4940.87
438.96	4791.08
439.14	5004.07
439.33	5029.81
439.52	5057.90
439.70	4959.60
439.89	5043.85
440.08	5350.46
440.26	5371.53
440.45	5284.93
440.63	5296.63
440.82	5423.02
441.01	5465.15
441.19	5298.97
441.38	5600.90
441.57	5600.90
441.75	5582.18
441.94	5666.44
442.12	5699.20
442.31	5727.29
442.50	5706.23
442.68	5715.59
442.87	5790.49
443.05	5760.06
443.24	5748.36
443.43	5813.89
443.61	5837.30
443.80	5912.19
443.98	5652.39
444.17	5727.29
444.35	5783.46
444.54	5879.43
444.73	5827.93
444.91	5809.21
445.10	5959.00
445.28	5940.28
445.47	5778.78
445.65	5790.49
445.84	5888.79
446.02	5937.94
446.21	5905.17
446.39	5933.26
446.58	5921.56
446.77	6183.70
446.95	6174.33
447.14	5898.15
447.32	5905.17
447.51	6139.23
447.69	5984.75
447.88	6099.44
448.06	5994.11
448.25	6005.81
448.43	6150.93
448.62	6101.78
448.80	6059.65
448.99	6417.75
449.17	6150.93
449.36	6265.61
449.54	6225.82
449.73	6490.31
449.91	6373.28
450.10	6356.90
450.28	6436.47
450.46	6342.85
450.65	6487.96
450.83	6497.33
451.02	6424.77
451.20	6523.07
451.39	6576.91
451.57	6431.79
451.76	6483.28
451.94	6466.90
452.13	6310.08
452.31	6602.65
452.49	6499.67
452.68	6504.35
452.86	6389.66
453.05	6572.22
453.23	6757.13
453.42	6541.80
453.60	6628.40
453.78	6572.22
453.97	6555.84
454.15	6691.59
454.34	6626.06
454.52	6640.10
454.70	6867.13
454.89	6679.89
455.07	6672.87
455.26	6874.15
455.44	7002.88
455.62	6895.22
455.81	7080.12
455.99	7026.29
456.17	6986.50
456.36	7159.70
456.54	7194.81
456.73	7194.81
456.91	7208.85
457.09	7117.57
457.28	7501.42
457.46	7227.57
457.64	7302.47
457.83	7382.05
458.01	7335.24
458.19	7431.20
458.38	7377.37
458.56	7531.84
458.74	7403.11
458.93	7466.31
459.11	7375.03
459.29	7485.03
459.48	7529.50
459.66	7478.01
459.84	7644.19
460.03	7772.92
460.21	7658.23
460.39	7801.01
460.57	7662.91
460.76	7662.91
460.94	7840.79
461.12	7719.09
461.31	7903.99
461.49	7735.47
461.67	7793.98
461.85	7983.57
462.04	7962.50
462.22	7981.23
462.40	8102.93
462.59	8149.75
462.77	8037.40
462.95	8063.15
463.13	8098.25
463.32	8128.68
463.50	8053.78
463.68	8322.94
463.86	8215.28
464.05	8149.75
464.23	8126.34
464.41	8329.97
464.59	8191.88
464.78	8231.66
464.96	8339.33
465.14	8196.56
465.32	8311.24
465.50	8383.80
465.69	8528.91
465.87	8414.23
466.05	8334.65
466.23	8400.18
466.41	8451.67
466.60	8454.02
466.78	8243.37
466.96	8564.02
467.14	8517.21
467.32	8484.44
467.51	8557.00
467.69	8615.51
467.87	8578.06
468.05	8652.96
468.23	8582.74
468.41	8500.83
468.60	8718.50
468.78	8908.08
468.96	8730.20
469.14	8943.19
469.32	8809.78
469.50	8800.41
469.69	8987.66
469.87	9144.47
470.05	9001.70
470.23	8879.99
470.41	9139.79
470.59	9170.22
470.77	8936.17
470.95	9249.80
471.14	9369.16
471.32	8980.64
471.50	9514.28
471.68	9289.59
471.86	9256.82
472.04	9383.21
472.22	9474.49
472.40	9415.98
472.58	9514.28
472.77	9453.42
472.95	9561.09
473.13	10022.17
473.31	9586.83
473.49	9312.99
473.67	9956.64
473.85	9565.77
474.03	10012.81
474.21	9874.72
474.39	10066.64
474.57	9872.38
474.75	10094.73
474.93	10099.41
475.12	10012.81
475.30	10333.47
475.48	10015.15
475.66	10389.64
475.84	10370.91
476.02	10527.73
476.20	10310.06
476.38	10724.33
476.56	10785.19
476.74	10869.45
476.92	10628.37
477.10	10567.52
477.28	11098.82
477.46	11049.67
477.64	11187.76
477.82	11311.81
478.00	11597.35
478.18	11435.86
478.36	11566.93
478.54	11489.69
478.72	11529.48
478.90	11955.46
479.08	11822.05
479.26	11894.60
479.44	12112.27
479.62	12011.63
479.80	12077.16
479.98	12269.09
480.16	12615.49
480.34	12449.31
480.52	12662.30
480.70	12491.44
480.88	12290.15
481.06	12723.15
481.24	12601.44
481.41	12725.49
481.59	12957.21
481.77	12961.89
481.95	13060.19
482.13	13209.98
482.31	13385.52
482.49	13757.67
482.67	13813.84
482.85	13558.72
483.03	13657.03
483.21	13923.85
483.39	14136.84
483.57	14120.45
483.74	14307.69
483.92	14237.48
484.10	14218.75
484.28	14988.79
484.46	14743.03
484.64	14941.98
484.82	14422.38
485.00	14998.15
485.18	15157.31
485.35	15138.58
485.53	14984.11
485.71	15080.07
485.89	15529.45
486.07	15527.11
486.25	15566.90
486.43	15513.07
486.61	15648.82
486.78	15758.83
486.96	16294.81
487.14	16453.97
487.32	16128.63
487.50	16383.75
487.68	16753.55
487.85	16716.11
488.03	16856.54
488.21	17322.30
488.39	17067.19
488.57	17350.39
488.75	17322.30
488.92	17474.44
489.10	18111.07
489.28	17888.71
489.46	18045.53
489.64	17900.42
489.81	18478.53
489.99	18684.50
490.17	18565.13
490.35	18801.52
490.53	18775.78
490.70	18995.79
490.88	18974.72
491.06	19335.17
491.24	18764.07
491.41	19138.56
491.59	19309.42
491.77	19168.99
491.95	19529.43
492.13	19866.47
492.30	19777.53
492.48	19922.64
492.66	20170.74
492.84	20112.22
493.01	20386.07
493.19	20266.70
493.37	20507.77
493.54	20577.99
493.72	20870.56
493.90	20648.21
494.08	21048.44
494.25	21172.49
494.43	21362.07
494.61	21748.26
494.79	21518.89
494.96	21488.46
495.14	21617.19
495.32	21781.03
495.49	21785.71
495.67	21640.59
495.85	22085.30
496.02	22551.06
496.20	22515.95
496.38	22824.90
496.55	22782.77
496.73	23218.11
496.91	22567.45
497.09	23164.28
497.26	23201.73
497.44	23164.28
497.62	23080.02
497.79	23468.55
497.97	23438.12
498.14	23405.36
498.32	23716.65
498.50	23733.03
498.67	23941.34
498.85	23955.38
499.03	24154.33
499.20	24247.95
499.38	24301.78
499.56	24851.81
499.73	24758.19
499.91	24779.25
500.08	24709.04
500.26	24395.40
500.44	24587.33
500.61	24945.43
500.79	24884.58
500.97	25060.12
501.14	25713.13
501.32	25216.93
501.49	25064.80
501.67	25116.29
501.84	25191.19
502.02	25649.93
502.20	25748.23
502.37	25628.87
502.55	25963.56
502.72	25975.27
502.90	25841.85
503.07	26160.17
503.25	26106.34
503.43	26375.50
503.60	26265.49
503.78	26614.23
503.95	26167.19
504.13	26588.49
504.30	26434.01
504.48	26665.72
504.65	26962.97
504.83	26899.78
505.01	26930.20
505.18	27110.43
505.36	27466.19
505.53	27433.42
505.71	27941.32
505.88	27103.40
506.06	27133.83
506.23	27587.89
506.41	27449.80
506.58	27906.21
506.76	27611.30
506.93	27990.47
507.11	27840.67
507.28	27936.63
507.46	27791.52
507.63	27896.85
507.81	27768.12
507.98	28327.50
508.16	28353.25
508.33	28048.98
508.50	28685.61
508.68	28694.97
508.85	28893.91
509.03	29078.82
509.20	29230.95
509.38	28912.64
509.55	29015.62
509.73	29209.89
509.90	29078.82
510.08	29193.50
510.25	29163.08
510.42	29490.75
510.60	29516.50
510.77	29570.33
510.95	29792.68
511.12	29706.08
511.30	29795.02
511.47	30305.26
511.64	30405.90
511.82	30293.55
511.99	30253.76
512.17	30607.19
512.34	30125.04
512.51	30576.76
512.69	30721.87
512.86	30553.35
513.04	31199.34
513.21	30787.41
513.38	30789.75
513.56	30944.22
513.73	30394.20
513.90	31108.06
514.08	31164.23
514.25	31040.18
514.43	31129.12
514.60	30675.06
514.77	31007.42
514.95	31468.50
515.12	31690.85
515.29	31342.11
515.47	31761.07
515.64	31707.24
515.81	31835.97
515.99	31358.50
516.16	31962.36
516.33	31566.81
516.51	32149.60
516.68	31718.94
516.85	31796.18
517.03	31777.45
517.20	32126.19
517.37	32252.58
517.54	32353.23
517.72	32575.58
517.89	32142.58
518.06	32210.45
518.24	32465.57
518.41	32435.14
518.58	32332.16
518.75	32421.10
518.93	32893.89
519.10	33057.73
519.27	33331.57
519.45	32716.01
519.62	33443.91
519.79	33109.22
519.96	33256.67
520.14	33455.62
520.31	33109.22
520.48	33312.84
520.65	33476.68
520.83	34082.88
521.00	33846.49
521.17	34101.61
521.34	33748.18
521.52	33944.79
521.69	33984.58
521.86	34157.78
522.03	34017.35
522.20	34288.85
522.38	34333.32
522.55	34347.36
522.72	34356.72
522.89	34302.89
523.07	34506.52
523.24	34099.26
523.41	34368.43
523.58	34693.76
523.75	35173.57
523.92	34623.54
524.10	34885.68
524.27	35068.25
524.44	34775.68
524.61	35253.15
524.78	35330.39
524.96	35566.78
525.13	35316.34
525.30	35290.60
525.47	36133.19
525.64	35379.54
525.81	35871.05
525.98	35803.17
526.16	35515.29
526.33	35489.54
526.50	35847.64
526.67	35243.79
526.84	35618.27
527.01	35405.28
527.18	35672.10
527.36	35445.07
527.53	36226.81
527.70	36697.26
527.87	36458.52
528.04	36474.91
528.21	36163.62
528.38	36570.87
528.55	36725.35
528.72	36847.05
528.89	36568.53
529.07	36641.09
529.24	36390.65
529.41	36767.48
529.58	36715.98
529.75	36685.56
529.92	36943.02
530.09	36842.37
530.26	37017.91
530.43	36877.48
530.60	36905.57
530.77	36811.95
530.94	37132.60
531.11	37303.46
531.28	37333.89
531.46	37350.27
531.63	37642.84
531.80	36989.83
531.97	37139.62
532.14	37488.36
532.31	37156.00
532.48	37102.17
532.65	37605.39
532.82	37645.18
532.99	37879.23
533.16	37408.78
533.33	37895.61
533.50	37745.82
533.67	37558.58
533.84	37581.98
534.01	37745.82
534.18	37839.44
534.35	37876.89
534.52	38103.92
534.69	37923.70
534.86	38286.48
535.03	38295.85
535.20	38485.43
535.37	38703.10
535.54	38651.61
535.71	38391.81
535.88	38206.90
536.05	38759.27
536.22	38506.49
536.38	38515.86
536.55	38572.03
536.72	38939.49
536.89	38419.89
537.06	38307.55
537.23	38778.00
537.40	38880.98
537.57	38759.27
537.74	38672.67
537.91	39363.13
538.08	39117.37
538.25	38866.94
538.42	38789.70
538.59	39306.96
538.75	39210.99
538.92	39070.56
539.09	39192.27
539.26	39321.00
539.43	39688.46
539.60	39196.95
539.77	39494.20
539.94	39580.80
540.11	39288.23
540.28	39505.90
540.44	39517.60
540.61	39438.03
540.78	39770.38
540.95	39604.20
541.12	39688.46
541.29	39438.03
541.46	39580.80
541.62	39667.40
541.79	40079.33
541.96	39709.53
542.13	39763.36
542.30	40018.48
542.47	39882.73
542.63	40093.38
542.80	40528.72
542.97	40519.35
543.14	40622.34
543.31	40570.85
543.48	40484.25
543.64	40910.22
543.81	40648.08
543.98	41006.19
544.15	40687.87
544.32	41223.86
544.48	41099.81
544.65	41029.59
544.82	41193.43
544.99	40996.82
545.16	41111.51
545.32	41045.97
545.49	41380.67
545.66	41469.61
545.83	41177.04
546.00	41397.06
546.16	41170.02
546.33	40823.62
546.50	41118.53
546.67	41038.95
546.83	40484.25
547.00	41205.13
547.17	41057.68
547.34	41315.14
547.50	41134.92
547.67	41317.48
547.84	41549.19
548.00	41455.57
548.17	41710.69
548.34	42099.22
548.51	41673.24
548.67	42043.04
548.84	42134.32
549.01	41724.73
549.18	41673.24
549.34	41617.07
549.51	41954.10
549.68	42146.03
549.84	41846.44
550.01	42230.29
550.18	41811.33
550.34	42244.33
550.51	42244.33
550.68	41844.10
550.84	41663.88
551.01	42319.23
551.18	41949.42
551.34	42171.77
551.51	42241.99
551.68	42148.37
551.84	42164.75
552.01	42204.54
552.18	42054.75
552.34	42286.46
552.51	42490.09
552.68	42295.82
552.84	42731.16
553.01	42426.89
553.18	42728.82
553.34	42628.18
553.51	42197.52
553.67	42689.03
553.84	42801.38
554.01	42696.05
554.17	42756.91
554.34	42529.87
554.51	42974.58
554.67	42946.49
554.84	42969.90
555.00	42759.25
555.17	42944.15
555.33	42766.27
555.50	42518.17
555.67	42501.79
555.83	42756.91
556.00	42955.85
556.16	43391.19
556.33	43213.31
556.50	42852.87
556.66	43173.52
556.83	43005.00
556.99	43299.91
557.16	43337.36
557.32	43529.28
557.49	43508.22
557.65	43138.41
557.82	43196.93
557.98	43033.09
558.15	43475.45
558.32	43281.19
558.48	43192.25
558.65	43000.32
558.81	43110.33
558.98	43028.41
559.14	43213.31
559.31	43143.09
559.47	43566.73
559.64	43395.87
559.80	43723.55
559.97	43889.73
560.13	43129.05
560.30	43555.03
560.46	43873.34
560.63	43335.02
560.79	43840.57
560.96	43992.71
561.12	43604.18
561.29	43704.82
561.45	43618.22
561.61	43592.48
561.78	44245.49
561.94	43929.51
562.11	43856.96
562.27	43477.79
562.44	43643.97
562.60	44133.14
562.77	43576.09
562.93	43665.03
563.10	43533.96
563.26	43447.36
563.42	43674.40
563.59	43449.70
563.75	43728.23
563.92	44046.54
564.08	43978.67
564.24	44135.48
564.41	43611.20
564.57	44004.41
564.74	43697.80
564.90	43978.67
565.07	43988.03
565.23	44470.18
565.39	43915.47
565.56	44184.63
565.72	43807.81
565.88	44046.54
566.05	43927.17
566.21	43913.13
566.38	44119.10
566.54	44027.82
566.70	44151.87
566.87	44491.24
567.03	43856.96
567.19	44526.35
567.36	44334.43
567.52	43889.73
567.68	44311.02
567.85	44107.40
568.01	44053.56
568.17	43934.20
568.34	44334.43
568.50	44210.38
568.66	43648.65
568.83	44444.43
568.99	44004.41
569.15	43632.27
569.32	43812.49
569.48	44095.69
569.64	44032.50
569.81	44325.07
569.97	44151.87
570.13	44362.51
570.30	43793.76
570.46	43819.51
570.62	43683.76
570.78	43945.90
570.95	44676.15
571.11	44488.90
571.27	44154.21
571.43	43997.39
571.60	43971.64
571.76	44137.82
571.92	44463.16
572.09	44177.61
572.25	44741.68
572.41	44238.47
572.57	44493.58
572.74	44760.40
572.90	44488.90
573.06	44601.25
573.22	44205.70
573.38	44605.93
573.55	44355.49
573.71	44378.90
573.87	44231.44
574.03	44083.99
574.20	44406.98
574.36	44563.80
574.52	44552.10
574.68	44332.09
574.84	44409.32
575.01	44605.93
575.17	44706.57
575.33	44449.11
575.49	44500.61
575.65	44414.01
575.82	44673.81
575.98	44360.17
576.14	44877.43
576.30	44531.03
576.46	44243.15
576.62	44378.90
576.79	44748.70
576.95	44201.02
577.11	44566.14
577.27	44339.11
577.43	44439.75
577.59	44044.20
577.75	44437.41
577.92	43922.49
578.08	44151.87
578.24	44467.84
578.40	44048.88
578.56	44374.22
578.72	44545.08
578.88	44552.10
579.04	44753.38
579.21	44451.45
579.37	44683.17
579.53	44582.52
579.69	44275.91
579.85	44587.21
580.01	44446.77
580.17	44715.93
580.33	44818.92
580.49	44629.34
580.65	44406.98
580.82	44346.13
580.98	44065.27
581.14	44313.36
581.30	44521.67
581.46	44809.56
581.62	44758.06
581.78	44306.34
581.94	45219.15
582.10	44577.84
582.26	44849.35
582.42	44594.23
582.58	44849.35
582.74	44411.67
582.90	44760.40
583.06	44987.44
583.22	45120.85
583.38	44811.90
583.54	45015.52
583.70	44779.13
583.86	44687.85
584.02	44236.12
584.18	44516.99
584.34	44861.05
584.50	44254.85
584.66	44776.79
584.82	44325.07
584.98	45013.18
585.14	45083.40
585.30	44533.37
585.46	44498.26
585.62	44821.26
585.78	44664.44
585.94	44643.38
586.10	44519.33
586.26	44350.81
586.42	44744.02
586.58	45378.31
586.74	44875.09
586.90	44322.72
587.06	44336.77
587.22	44844.66
587.38	44243.15
587.54	44533.37
587.70	44673.81
587.86	44982.76
588.02	44612.95
588.18	45713.00
588.34	44624.65
588.49	44725.30
588.65	44196.34
588.81	44467.84
588.97	44673.81
589.13	44336.77
589.29	44694.87
589.45	45031.91
589.61	44837.64
589.77	44582.52
589.93	44783.81
590.08	44980.42
590.24	45146.59
