SpectraSuite Data File
++++++++++++++++++++++++++++++++++++
Date: Fri Oct 25 11:33:49 EDT 2013
User: price-jones
Dark Spectrum Present: No
Reference Spectrum Present: No
Number of Sampled Component Spectra: 1
Spectrometers: USB2+H05261
Integration Time (usec): 100000 (USB2+H05261)
Spectra Averaged: 1 (USB2+H05261)
Boxcar Smoothing: 0 (USB2+H05261)
Correct for Electrical Dark: No (USB2+H05261)
Strobe/Lamp Enabled: No (USB2+H05261)
Correct for Detector Non-linearity: No (USB2+H05261)
Correct for Stray Light: No (USB2+H05261)
Number of Pixels in Processed Spectrum: 2048
>>>>>Begin Processed Spectral Data<<<<<
365.73	285.55
365.92	285.55
366.12	285.55
366.32	194.26
366.52	210.65
366.72	212.99
366.91	196.60
367.11	159.16
367.31	149.79
367.51	128.73
367.70	189.58
367.90	184.90
368.10	175.54
368.30	156.82
368.49	168.52
368.69	184.90
368.89	121.71
369.09	180.22
369.28	215.33
369.48	294.91
369.68	231.71
369.87	212.99
370.07	217.67
370.27	299.59
370.47	292.57
370.66	421.30
370.86	484.49
371.06	538.32
371.25	486.83
371.45	554.71
371.65	573.43
371.84	622.58
372.04	521.94
372.24	554.71
372.44	592.16
372.63	561.73
372.83	606.20
373.03	657.69
373.22	631.94
373.42	601.52
373.62	697.48
373.81	599.18
374.01	660.03
374.21	671.73
374.40	660.03
374.60	683.44
374.79	648.33
374.99	657.69
375.19	678.76
375.38	695.14
375.58	704.50
375.78	655.35
375.97	674.07
376.17	674.07
376.37	615.56
376.56	648.33
376.76	720.88
376.95	716.20
377.15	671.73
377.35	662.37
377.54	718.54
377.74	704.50
377.93	711.52
378.13	702.16
378.33	678.76
378.52	674.07
378.72	765.36
378.91	741.95
379.11	683.44
379.31	713.86
379.50	748.97
379.70	786.42
379.89	713.86
380.09	716.20
380.28	779.40
380.48	716.20
380.68	720.88
380.87	767.70
381.07	734.93
381.26	830.89
381.46	791.10
381.65	826.21
381.85	833.23
382.04	770.04
382.24	835.57
382.43	739.61
382.63	753.65
382.83	720.88
383.02	828.55
383.22	828.55
383.41	692.80
383.61	788.76
383.80	777.06
384.00	760.67
384.19	830.89
384.39	873.02
384.58	866.00
384.78	847.27
384.97	840.25
385.17	866.00
385.36	821.53
385.56	805.14
385.75	873.02
385.95	800.46
386.14	880.04
386.34	842.59
386.53	884.72
386.72	819.19
386.92	887.06
387.11	905.79
387.31	870.68
387.50	854.30
387.70	894.08
387.89	929.19
388.09	898.77
388.28	866.00
388.48	891.74
388.67	912.81
388.86	929.19
389.06	877.70
389.25	882.38
389.45	910.47
389.64	898.77
389.84	929.19
390.03	919.83
390.22	936.21
390.42	1011.11
390.61	915.15
390.81	1004.09
391.00	992.39
391.19	980.68
391.39	994.73
391.58	1025.15
391.78	1006.43
391.97	990.05
392.16	1013.45
392.36	1060.26
392.55	1118.78
392.75	1027.50
392.94	1086.01
393.13	1062.60
393.33	1060.26
393.52	1104.73
393.71	1064.94
393.91	1032.18
394.10	1081.33
394.29	1139.84
394.49	1090.69
394.68	1083.67
394.88	1174.95
395.07	1137.50
395.26	1111.75
395.46	1200.69
395.65	1203.04
395.84	1163.25
396.04	1270.91
396.23	1231.12
396.42	1224.10
396.62	1212.40
396.81	1270.91
397.00	1128.14
397.19	1177.29
397.39	1350.49
397.58	1320.06
397.77	1277.93
397.97	1252.19
398.16	1341.13
398.35	1336.45
398.55	1238.14
398.74	1254.53
398.93	1299.00
399.12	1256.87
399.32	1380.92
399.51	1306.02
399.70	1284.95
399.90	1327.08
400.09	1359.85
400.28	1369.21
400.47	1376.24
400.67	1392.62
400.86	1439.43
401.05	1352.83
401.24	1418.36
401.44	1469.86
401.63	1500.28
401.82	1528.37
402.01	1453.47
402.21	1502.62
402.40	1570.50
402.59	1467.52
402.78	1521.35
402.97	1617.31
403.17	1591.56
403.36	1521.35
403.55	1540.07
403.74	1509.65
403.93	1624.33
404.13	1612.63
404.32	1661.78
404.51	1584.54
404.70	1720.29
404.89	1645.40
405.09	1621.99
405.28	1638.38
405.47	1664.12
405.66	1722.63
405.85	1802.21
406.05	1750.72
406.24	1668.80
406.43	1617.31
406.62	1741.36
406.81	1795.19
407.00	1750.72
407.20	1673.48
407.39	1832.64
407.58	1879.45
407.77	1884.13
407.96	1916.90
408.15	1888.81
408.34	1921.58
408.54	1954.35
408.73	1996.48
408.92	1914.56
409.11	1952.01
409.30	1905.20
409.49	1947.33
409.68	1977.75
409.87	2001.16
410.07	2026.90
410.26	2101.80
410.45	2003.50
410.64	2066.69
410.83	2019.88
411.02	2017.54
411.21	2125.21
411.40	2125.21
411.59	2143.93
411.78	2183.72
411.98	2186.06
412.17	2275.00
412.36	2406.07
412.55	2363.94
412.74	2335.85
412.93	2289.04
413.12	2289.04
413.31	2417.77
413.50	2373.30
413.69	2455.22
413.88	2576.93
414.07	2422.45
414.26	2483.31
414.45	2483.31
414.64	2586.29
414.83	2574.59
415.02	2644.81
415.22	2607.36
415.41	2626.08
415.60	2600.34
415.79	2619.06
415.98	2654.17
416.17	2780.56
416.36	2843.75
416.55	2698.64
416.74	2750.13
416.93	2832.05
417.12	2810.98
417.31	3012.27
417.50	2986.52
417.69	3038.02
417.88	2935.03
418.07	2848.43
418.26	2949.08
418.45	3002.91
418.64	2958.44
418.83	3075.46
419.02	2953.76
419.21	3077.80
419.39	3091.85
419.58	3061.42
419.77	3040.36
419.96	3091.85
420.15	3229.94
420.34	3141.00
420.53	3016.95
420.72	3185.47
420.91	3309.52
421.10	3316.54
421.29	3206.53
421.48	3295.47
421.67	3229.94
421.86	3262.71
422.05	3332.92
422.24	3421.86
422.43	3307.18
422.61	3407.82
422.80	3344.63
422.99	3410.16
423.18	3428.88
423.37	3396.12
423.56	3368.03
423.75	3407.82
423.94	3255.69
424.13	3199.51
424.32	3269.73
424.50	3304.84
424.69	3466.33
424.88	3538.89
425.07	3428.88
425.26	3398.46
425.45	3426.54
425.64	3351.65
425.83	3400.80
426.01	3559.95
426.20	3372.71
426.39	3655.92
426.58	3531.87
426.77	3550.59
426.96	3543.57
427.15	3426.54
427.33	3501.44
427.52	3548.25
427.71	3728.47
427.90	3646.55
428.09	3576.34
428.28	3667.62
428.46	3562.30
428.65	3665.28
428.84	3770.60
429.03	3782.31
429.22	3761.24
429.40	3590.38
429.59	3669.96
429.78	3613.79
429.97	3791.67
430.16	3702.73
430.34	3815.07
430.53	3896.99
430.72	3840.82
430.91	3932.10
431.10	3936.78
431.28	3999.98
431.47	3932.10
431.66	4030.40
431.85	3896.99
432.03	4124.02
432.22	4229.35
432.41	4058.49
432.60	3955.51
432.79	4072.53
432.97	4049.13
433.16	4128.70
433.35	4152.11
433.54	4166.15
433.72	4159.13
433.91	4065.51
434.10	4184.88
434.28	4145.09
434.47	4236.37
434.66	4327.65
434.85	4250.41
435.03	4348.72
435.22	4325.31
435.41	4440.00
435.59	4379.14
435.78	4440.00
435.97	4500.85
436.16	4234.03
436.34	4348.72
436.53	4390.84
436.72	4594.47
436.90	4339.35
437.09	4575.75
437.28	4400.21
437.46	4428.29
437.65	4535.96
437.84	4606.17
438.02	4533.62
438.21	4634.26
438.40	4636.60
438.58	4711.50
438.77	4805.12
438.96	4889.38
439.14	4933.85
439.33	4908.10
439.52	4814.48
439.70	4821.50
439.89	5029.81
440.08	5097.69
440.26	4877.68
440.45	4975.98
440.63	4940.87
440.82	4990.02
441.01	5123.43
441.19	5200.67
441.38	5200.67
441.57	5104.71
441.75	5315.36
441.94	5406.64
442.12	5394.93
442.31	5458.13
442.50	5495.58
442.68	5385.57
442.87	5479.19
443.05	5373.87
443.24	5469.83
443.43	5547.07
443.61	5528.35
443.80	5802.19
443.98	5313.02
444.17	5308.34
444.35	5497.92
444.54	5685.16
444.73	5682.82
444.91	5631.33
445.10	5675.80
445.28	5577.50
445.47	5696.86
445.65	5593.88
445.84	5781.12
446.02	5701.54
446.21	5612.60
446.39	5668.78
446.58	5755.38
446.77	5753.04
446.95	5591.54
447.14	5804.53
447.32	5680.48
447.51	5830.27
447.69	5823.25
447.88	5755.38
448.06	5816.23
448.25	5778.78
448.43	5762.40
448.62	5769.42
448.80	5797.51
448.99	5825.59
449.17	6019.86
449.36	5923.90
449.54	5951.98
449.73	6010.50
449.91	5987.09
450.10	5863.04
450.28	6293.70
450.46	6328.81
450.65	6057.31
450.83	6122.84
451.02	6155.61
451.20	6307.74
451.39	6333.49
451.57	6188.38
451.76	6141.57
451.94	6153.27
452.13	6253.91
452.31	6361.58
452.49	6179.01
452.68	6394.34
452.86	6356.90
453.05	6504.35
453.23	6363.92
453.42	6525.41
453.60	6422.43
453.78	6370.94
453.97	6314.77
454.15	6335.83
454.34	6523.07
454.52	6609.67
454.70	6583.93
454.89	6567.54
455.07	6649.46
455.26	6696.27
455.44	6764.15
455.62	6679.89
455.81	6637.76
455.99	6602.65
456.17	6672.87
456.36	6619.04
456.54	6672.87
456.73	6935.01
456.91	6979.48
457.09	7037.99
457.28	6878.83
457.46	6890.54
457.64	7267.36
457.83	6995.86
458.01	6885.86
458.19	7169.06
458.38	6984.16
458.56	7220.55
458.74	7194.81
458.93	7211.19
459.11	7241.62
459.29	7145.66
459.48	7258.00
459.66	7300.13
459.84	7241.62
460.03	7466.31
460.21	7211.19
460.39	7499.08
460.57	7438.22
460.76	7377.37
460.94	7419.50
461.12	7456.95
461.31	7562.27
461.49	7503.76
461.67	7487.37
461.85	7564.61
462.04	7466.31
462.22	8173.15
462.40	7740.15
462.59	7660.57
462.77	7880.58
462.95	7852.50
463.13	7756.54
463.32	7889.95
463.50	7899.31
463.68	8049.10
463.86	7866.54
464.05	7824.41
464.23	7871.22
464.41	8128.68
464.59	7925.05
464.78	8236.35
464.96	8091.23
465.14	7864.20
465.32	8100.59
465.50	8269.11
465.69	7983.57
465.87	8215.28
466.05	7775.26
466.23	8093.57
466.41	8016.33
466.60	8414.23
466.78	8175.49
466.96	8030.38
467.14	8159.11
467.32	8397.84
467.51	8404.86
467.69	8100.59
467.87	8374.44
468.05	8327.63
468.23	8341.67
468.41	8390.82
468.60	8379.12
468.78	8589.77
468.96	8486.78
469.14	8690.41
469.32	8524.23
469.50	8418.91
469.69	8751.26
469.87	8648.28
470.05	8711.47
470.23	8779.35
470.41	8758.28
470.59	8842.54
470.77	8835.52
470.95	8718.50
471.14	8915.10
471.32	8830.84
471.50	9245.12
471.68	9090.64
471.86	9217.03
472.04	9151.49
472.22	9322.35
472.40	9158.52
472.58	9226.39
472.77	9273.20
472.95	9376.19
473.13	9626.62
473.31	9341.08
473.49	9408.95
473.67	9371.50
473.85	9584.49
474.03	9652.37
474.21	9774.08
474.39	9944.94
474.57	9989.41
474.75	9970.68
474.93	10026.86
475.12	10003.45
475.30	9874.72
475.48	9900.47
475.66	9860.68
475.84	9991.75
476.02	10080.69
476.20	10373.25
476.38	10541.77
476.56	10457.51
476.74	10403.68
476.92	10443.47
477.10	10305.38
477.28	10752.42
477.46	10796.89
477.64	10637.73
477.82	10803.91
478.00	11199.46
478.18	11162.01
478.36	11040.31
478.54	11201.80
478.72	11286.06
478.90	11477.99
479.08	11515.44
479.26	11707.36
479.44	11580.97
479.62	11784.60
479.80	11920.35
479.98	11803.32
480.16	12123.98
480.34	12044.40
480.52	12318.24
480.70	12313.56
480.88	12081.85
481.06	12285.47
481.24	12477.40
481.41	12716.13
481.59	12950.18
481.77	12886.99
481.95	12535.91
482.13	13025.08
482.31	12908.05
482.49	13518.93
482.67	13153.81
482.85	13607.87
483.03	13642.98
483.21	13647.66
483.39	13631.28
483.57	13745.97
483.74	13905.12
483.92	13799.80
484.10	13982.36
484.28	14019.81
484.46	14471.53
484.64	14736.01
484.82	14242.16
485.00	14684.52
485.18	15014.54
485.35	15307.10
485.53	14902.19
485.71	15138.58
485.89	15517.75
486.07	15421.79
486.25	15403.07
486.43	15648.82
486.61	15592.65
486.78	15845.43
486.96	15777.55
487.14	16177.78
487.32	16182.46
487.50	16428.22
487.68	16437.58
487.85	16512.48
488.03	16489.07
488.21	16816.75
488.39	16828.45
488.57	17415.93
488.75	17137.40
488.92	17748.28
489.10	17408.90
489.28	17586.79
489.46	17848.93
489.64	17921.48
489.81	18113.41
489.99	18380.23
490.17	18075.96
490.35	18560.45
490.53	18363.84
490.70	18738.33
490.88	18452.78
491.06	18843.65
491.24	18726.63
491.41	18970.04
491.59	19094.09
491.77	19171.33
491.95	19601.99
492.13	19644.12
492.30	19440.49
492.48	19735.40
492.66	19618.37
492.84	19742.42
493.01	20196.48
493.19	20278.40
493.37	20236.27
493.54	20372.02
493.72	20107.54
493.90	20603.74
494.08	21090.57
494.25	20662.25
494.43	21043.76
494.61	21413.56
494.79	21289.51
494.96	21425.26
495.14	21783.37
495.32	21401.86
495.49	21722.51
495.67	21926.14
495.85	21949.54
496.02	22391.91
496.20	22373.18
496.38	22218.71
496.55	22436.38
496.73	23110.45
496.91	22698.52
497.09	22546.38
497.26	23108.11
497.44	22944.27
497.62	23103.43
497.79	23566.85
497.97	23278.97
498.14	23833.68
498.32	23300.03
498.50	23857.08
498.67	23978.79
498.85	23618.35
499.03	23969.43
499.20	23976.45
499.38	24290.08
499.56	24034.96
499.73	24224.54
499.91	24496.05
500.08	24954.79
500.26	24524.13
500.44	24634.14
500.61	24725.42
500.79	24734.78
500.97	24697.33
501.14	25666.31
501.32	25174.80
501.49	25553.97
501.67	25221.61
501.84	25654.61
502.02	25549.29
502.20	25532.90
502.37	25869.94
502.55	25671.00
502.72	25717.81
502.90	26176.55
503.07	25825.47
503.25	26508.91
503.43	26094.63
503.60	26347.41
503.78	26831.90
503.95	26412.95
504.13	26462.10
504.30	26572.10
504.48	26721.90
504.65	26965.31
504.83	27150.21
505.01	26925.52
505.18	27197.02
505.36	27227.45
505.53	27140.85
505.71	27431.08
505.88	27475.55
506.06	27466.19
506.23	28020.89
506.41	27206.39
506.58	27800.88
506.76	27868.76
506.93	28144.94
507.11	27718.96
507.28	28252.61
507.46	28311.12
507.63	28222.18
507.81	28032.60
507.98	28198.77
508.16	28481.98
508.33	28341.55
508.50	28528.79
508.68	28645.82
508.85	28987.53
509.03	28732.42
509.20	29053.07
509.38	29406.49
509.55	29226.27
509.73	29610.12
509.90	29046.05
510.08	29656.93
510.25	29600.76
510.42	29514.16
510.60	29362.02
510.77	29614.80
510.95	30422.28
511.12	30157.80
511.30	30024.39
511.47	29682.67
511.64	29919.07
511.82	30190.57
511.99	30050.14
512.17	29956.52
512.34	30504.20
512.51	30600.16
512.69	30742.94
512.86	30590.80
513.04	31028.48
513.21	31079.97
513.38	31253.17
513.56	31220.41
513.73	30834.22
513.90	30845.92
514.08	31288.28
514.25	31571.49
514.43	31725.96
514.60	31913.20
514.77	31793.84
514.95	31484.89
515.12	31634.68
515.29	31835.97
515.47	32046.62
515.64	32095.77
515.81	31325.73
515.99	32259.60
516.16	32863.46
516.33	32418.76
516.51	32498.34
516.68	32072.36
516.85	32540.47
517.03	32643.45
517.20	32395.35
517.37	32769.84
517.54	32898.57
517.72	32882.19
517.89	33001.55
518.06	32886.87
518.24	33263.69
518.41	32872.82
518.58	33390.08
518.75	32692.60
518.93	33109.22
519.10	33291.78
519.27	33532.86
519.45	33661.58
519.62	33626.48
519.79	33574.98
519.96	33916.70
520.14	33551.58
520.31	33902.66
520.48	33776.27
520.65	33914.36
520.83	34487.79
521.00	34595.46
521.17	34115.65
521.34	34263.10
521.52	34668.02
521.69	34345.02
521.86	34497.16
522.03	34895.05
522.20	35108.04
522.38	35101.01
522.55	34995.69
522.72	35409.96
522.89	34766.32
523.07	35449.75
523.24	35180.59
523.41	35164.21
523.58	34834.19
523.75	35445.07
523.92	35201.66
524.10	35468.48
524.27	35428.69
524.44	35847.64
524.61	35913.18
524.78	35416.99
524.96	36025.53
525.13	35873.39
525.30	36528.74
525.47	35941.27
525.64	35903.82
525.81	36479.59
525.98	36334.48
526.16	36343.84
526.33	35995.10
526.50	36503.00
526.67	36385.97
526.84	36439.80
527.01	36638.75
527.18	36598.96
527.36	36921.95
527.53	36650.45
527.70	37586.66
527.87	37270.69
528.04	36779.18
528.21	37024.93
528.38	36818.97
528.55	37088.13
528.72	36996.85
528.89	37413.46
529.07	37123.24
529.24	37104.51
529.41	37315.16
529.58	37523.47
529.75	37652.20
529.92	37736.46
530.09	37696.67
530.26	37713.05
530.43	37574.96
530.60	37553.90
530.77	37977.53
530.94	38036.05
531.11	37907.32
531.28	37865.19
531.46	38150.73
531.63	38256.06
531.80	38508.83
531.97	38167.12
532.14	38197.54
532.31	38284.14
532.48	38492.45
532.65	38405.85
532.82	38260.74
532.99	38801.40
533.16	38022.00
533.33	38686.71
533.50	39173.55
533.67	38349.68
533.84	38373.08
534.01	38979.28
534.18	39122.05
534.35	39381.85
534.52	38958.22
534.69	39122.05
534.86	39065.88
535.03	38983.96
535.20	39157.16
535.37	39452.07
535.54	39445.05
535.71	39180.57
535.88	39463.77
536.05	39346.75
536.22	39562.08
536.38	39976.35
536.55	39978.69
536.72	39566.76
536.89	39765.70
537.06	39887.41
537.23	39936.56
537.40	40020.82
537.57	39901.45
537.74	39754.00
537.91	40187.00
538.08	40027.84
538.25	39995.07
538.42	39988.05
538.59	40147.21
538.75	40208.06
538.92	40392.97
539.09	40676.17
539.26	40147.21
539.43	40512.33
539.60	41109.17
539.77	40964.06
539.94	40608.29
540.11	40884.48
540.28	40683.19
540.44	40847.03
540.61	40774.47
540.78	40526.38
540.95	40879.80
541.12	40545.10
541.29	40470.20
541.46	40821.28
541.62	40849.37
541.79	41158.32
541.96	40587.23
542.13	41399.40
542.30	41179.39
542.47	41553.87
542.63	41195.77
542.80	41642.81
542.97	41738.77
543.14	41577.28
543.31	41359.61
543.48	41600.68
543.64	41975.17
543.81	42239.65
543.98	41963.46
544.15	41603.02
544.32	41867.50
544.48	42265.39
544.65	42405.83
544.82	42281.78
544.99	42162.41
545.16	42094.53
545.32	42333.27
545.49	42536.90
545.66	42536.90
545.83	42674.99
546.00	42738.18
546.16	42679.67
546.33	42160.07
546.50	42703.07
546.67	42707.76
546.83	42050.06
547.00	42899.68
547.17	42597.75
547.34	43079.90
547.50	42972.24
547.67	43009.68
547.84	42904.36
548.00	43147.78
548.17	43510.56
548.34	42794.36
548.51	42829.46
548.67	43489.49
548.84	43517.58
549.01	43210.97
549.18	43611.20
549.34	43821.85
549.51	43381.83
549.68	43634.61
549.84	43264.80
550.01	43791.42
550.18	43330.34
550.34	43386.51
550.51	43374.81
550.68	43433.32
550.84	43735.25
551.01	43487.15
551.18	43374.81
551.34	43515.24
551.51	43796.10
551.68	43323.32
551.84	43555.03
552.01	43934.20
552.18	43971.64
552.34	43665.03
552.51	43519.92
552.68	43863.98
552.84	44151.87
553.01	44488.90
553.18	43906.11
553.34	44325.07
553.51	43924.83
553.67	44514.65
553.84	44479.54
554.01	44727.64
554.17	44215.06
554.34	44666.78
554.51	44268.89
554.67	44629.34
554.84	44685.51
555.00	44882.11
555.17	44603.59
555.33	44945.31
555.50	44851.69
555.67	44589.55
555.83	44439.75
556.00	44879.77
556.16	44521.67
556.33	44657.42
556.50	44760.40
556.66	44889.13
556.83	44657.42
556.99	45464.91
557.16	44842.32
557.32	45186.38
557.49	44928.92
557.65	44968.71
557.82	44959.35
557.98	44940.63
558.15	45006.16
558.32	45123.19
558.48	45258.94
558.65	45432.14
558.81	44795.51
558.98	45055.31
559.14	45172.34
559.31	45331.50
559.47	45642.79
559.64	45394.69
559.80	45380.65
559.97	45469.59
560.13	44718.28
560.30	45799.60
560.46	45570.23
560.63	45628.74
560.79	45745.77
560.96	45813.65
561.12	45614.70
561.29	45422.78
561.45	45570.23
561.61	45675.55
561.78	45595.98
561.94	45567.89
562.11	45090.42
562.27	45703.64
562.44	45577.25
562.60	45872.16
562.77	46075.79
562.93	45710.66
563.10	45645.13
563.26	45904.93
563.42	46454.95
563.59	45897.91
563.75	45673.21
563.92	45745.77
564.08	45752.79
564.24	46003.23
564.41	45741.09
564.57	46164.73
564.74	46328.56
564.90	45701.30
565.07	45996.21
565.23	45830.03
565.39	46113.23
565.56	46141.32
565.72	46452.61
565.88	45804.28
566.05	46272.39
566.21	45881.52
566.38	45930.67
566.54	46473.68
566.70	46309.84
566.87	46265.37
567.03	46031.32
567.19	46616.45
567.36	46246.65
567.52	46384.74
567.68	46761.56
567.85	46314.52
568.01	46918.38
568.17	46380.06
568.34	46478.36
568.50	46473.68
568.66	46155.36
568.83	46344.95
568.99	46525.17
569.15	46417.50
569.32	46883.27
569.48	46335.59
569.64	46560.28
569.81	46520.49
569.97	46532.19
570.13	46597.73
570.30	45886.20
570.46	46616.45
570.62	46270.05
570.78	46506.44
570.95	46707.73
571.11	46426.87
571.27	46824.76
571.43	46438.57
571.60	46674.96
571.76	46256.01
571.92	46461.97
572.09	46188.13
572.25	46766.24
572.41	46277.07
572.57	46660.92
572.74	47227.33
572.90	46513.47
573.06	47484.79
573.22	46864.55
573.38	46824.76
573.55	46344.95
573.71	47089.24
573.87	47213.29
574.03	46710.07
574.20	47000.30
574.36	46756.88
574.52	46988.60
574.68	46979.23
574.84	47028.38
575.01	46735.82
575.17	47093.92
575.33	46604.75
575.49	46887.95
575.65	47185.20
575.82	46930.08
575.98	46871.57
576.14	46763.90
576.30	47222.65
576.46	46995.62
576.62	46700.71
576.79	46735.82
576.95	46307.50
577.11	46806.03
577.27	47096.26
577.43	47192.22
577.59	47213.29
577.75	46939.44
577.92	47030.72
578.08	46969.87
578.24	46873.91
578.40	47395.85
578.56	47203.92
578.72	46986.25
578.88	47239.03
579.04	46887.95
579.21	46997.96
579.37	47192.22
579.53	46752.20
579.69	47028.38
579.85	46836.46
580.01	47068.17
580.17	46869.23
580.33	47398.19
580.49	46862.21
580.65	47452.02
580.82	47028.38
580.98	47091.58
581.14	47224.99
581.30	47147.75
581.46	46988.60
581.62	47157.11
581.78	46522.83
581.94	47395.85
582.10	47512.88
582.26	47536.28
582.42	47192.22
582.58	47035.41
582.74	47599.47
582.90	47047.11
583.06	47503.51
583.22	47100.94
583.38	46981.57
583.54	47356.06
583.70	47360.74
583.86	47437.98
584.02	47473.09
584.18	47660.33
584.34	47510.53
584.50	47384.15
584.66	47203.92
584.82	47232.01
584.98	47365.42
585.14	47650.97
585.30	46784.97
585.46	47292.86
585.62	47175.84
585.78	47496.49
585.94	47168.82
586.10	47152.43
586.26	47100.94
586.42	47105.62
586.58	46967.53
586.74	47344.36
586.90	47051.79
587.06	47316.27
587.22	47461.38
587.38	47236.69
587.54	47636.92
587.70	47950.56
587.86	47222.65
588.02	47309.25
588.18	47154.77
588.34	47232.01
588.49	47512.88
588.65	47447.34
588.81	47292.86
588.97	47524.58
589.13	47470.75
589.29	47402.87
589.45	47861.61
589.61	47152.43
589.77	47770.33
589.93	47508.19
590.08	47807.78
