SpectraSuite Data File
++++++++++++++++++++++++++++++++++++
Date: Fri Oct 25 11:33:38 EDT 2013
User: price-jones
Dark Spectrum Present: No
Reference Spectrum Present: No
Number of Sampled Component Spectra: 1
Spectrometers: USB2+H05261
Integration Time (usec): 100000 (USB2+H05261)
Spectra Averaged: 1 (USB2+H05261)
Boxcar Smoothing: 0 (USB2+H05261)
Correct for Electrical Dark: No (USB2+H05261)
Strobe/Lamp Enabled: No (USB2+H05261)
Correct for Detector Non-linearity: No (USB2+H05261)
Correct for Stray Light: No (USB2+H05261)
Number of Pixels in Processed Spectrum: 2048
>>>>>Begin Processed Spectral Data<<<<<
365.73	322.99
365.92	322.99
366.12	322.99
366.32	285.55
366.52	224.69
366.72	262.14
366.91	135.75
367.11	170.86
367.31	168.52
367.51	217.67
367.70	187.24
367.90	234.05
368.10	133.41
368.30	170.86
368.49	203.63
368.69	217.67
368.89	168.52
369.09	215.33
369.28	285.55
369.48	245.76
369.68	203.63
369.87	243.42
370.07	198.95
370.27	252.78
370.47	299.59
370.66	512.58
370.86	507.90
371.06	547.69
371.25	538.32
371.45	575.77
371.65	545.34
371.84	636.63
372.04	571.09
372.24	517.26
372.44	587.47
372.63	521.94
372.83	578.11
373.03	620.24
373.22	667.05
373.42	603.86
373.62	578.11
373.81	557.05
374.01	608.54
374.21	671.73
374.40	653.01
374.60	657.69
374.79	681.10
374.99	671.73
375.19	638.97
375.38	601.52
375.58	671.73
375.78	784.08
375.97	671.73
376.17	688.12
376.37	669.39
376.56	730.25
376.76	732.59
376.95	674.07
377.15	667.05
377.35	615.56
377.54	688.12
377.74	664.71
377.93	688.12
378.13	695.14
378.33	718.54
378.52	657.69
378.72	709.18
378.91	737.27
379.11	660.03
379.31	730.25
379.50	685.78
379.70	732.59
379.89	720.88
380.09	671.73
380.28	716.20
380.48	683.44
380.68	734.93
380.87	821.53
381.07	681.10
381.26	784.08
381.46	739.61
381.65	709.18
381.85	713.86
382.04	791.10
382.24	720.88
382.43	746.63
382.63	786.42
382.83	753.65
383.02	861.32
383.22	826.21
383.41	763.01
383.61	786.42
383.80	816.85
384.00	751.31
384.19	772.38
384.39	922.17
384.58	866.00
384.78	842.59
384.97	891.74
385.17	760.67
385.36	758.33
385.56	847.27
385.75	884.72
385.95	851.96
386.14	943.24
386.34	835.57
386.53	936.21
386.72	807.48
386.92	924.51
387.11	936.21
387.31	894.08
387.50	931.53
387.70	905.79
387.89	952.60
388.09	919.83
388.28	854.30
388.48	873.02
388.67	973.66
388.86	938.55
389.06	873.02
389.25	940.90
389.45	983.02
389.64	1008.77
389.84	926.85
390.03	966.64
390.22	976.00
390.42	1006.43
390.61	912.81
390.81	950.26
391.00	1013.45
391.19	1041.54
391.39	952.60
391.58	940.90
391.78	1029.84
391.97	1055.58
392.16	997.07
392.36	1034.52
392.55	1032.18
392.75	1036.86
392.94	1048.56
393.13	1102.39
393.33	994.73
393.52	1093.03
393.71	1081.33
393.91	1034.52
394.10	1081.33
394.29	1125.80
394.49	1088.35
394.68	1132.82
394.88	1142.18
395.07	1135.16
395.26	1174.95
395.46	1191.33
395.65	1151.54
395.84	1210.06
396.04	1322.40
396.23	1177.29
396.42	1165.59
396.62	1181.97
396.81	1256.87
397.00	1167.93
397.19	1277.93
397.39	1254.53
397.58	1348.15
397.77	1273.25
397.97	1289.64
398.16	1231.12
398.35	1249.85
398.55	1266.23
398.74	1385.60
398.93	1376.24
399.12	1291.98
399.32	1263.89
399.51	1306.02
399.70	1320.06
399.90	1364.53
400.09	1315.38
400.28	1373.89
400.47	1317.72
400.67	1369.21
400.86	1394.96
401.05	1425.39
401.24	1437.09
401.44	1373.89
401.63	1458.15
401.82	1465.18
402.01	1427.73
402.21	1455.81
402.40	1439.43
402.59	1511.99
402.78	1448.79
402.97	1556.46
403.17	1570.50
403.36	1565.82
403.55	1575.18
403.74	1533.05
403.93	1554.12
404.13	1584.54
404.32	1528.37
404.51	1629.01
404.70	1626.67
404.89	1600.93
405.09	1799.87
405.28	1696.89
405.47	1650.08
405.66	1661.78
405.85	1652.42
406.05	1666.46
406.24	1820.94
406.43	1886.47
406.62	1802.21
406.81	1816.26
407.00	1905.20
407.20	1729.66
407.39	1666.46
407.58	1795.19
407.77	1858.39
407.96	1949.67
408.15	1865.41
408.34	1891.15
408.54	2010.52
408.73	1952.01
408.92	1970.73
409.11	2036.27
409.30	1959.03
409.49	1998.82
409.68	2057.33
409.87	2076.06
410.07	1921.58
410.26	2038.61
410.45	2059.67
410.64	2043.29
410.83	2174.36
411.02	2080.74
411.21	2249.25
411.40	2139.25
411.59	2237.55
411.78	2172.02
411.98	2186.06
412.17	2279.68
412.36	2338.20
412.55	2267.98
412.74	2399.05
412.93	2345.22
413.12	2244.57
413.31	2499.69
413.50	2413.09
413.69	2291.38
413.88	2403.73
414.07	2321.81
414.26	2516.08
414.45	2506.71
414.64	2525.44
414.83	2544.16
415.02	2708.00
415.22	2705.66
415.41	2731.41
415.60	2616.72
415.79	2691.62
415.98	2665.87
416.17	2649.49
416.36	2703.32
416.55	2682.25
416.74	2789.92
416.93	2799.28
417.12	2843.75
417.31	2864.82
417.50	2923.33
417.69	2942.05
417.88	2979.50
418.07	2878.86
418.26	2899.92
418.45	2998.23
418.64	3110.57
418.83	3091.85
419.02	2970.14
419.21	3066.10
419.39	3110.57
419.58	3096.53
419.77	3045.04
419.96	3251.00
420.15	3178.45
420.34	3234.62
420.53	3204.19
420.72	3307.18
420.91	3176.11
421.10	3199.51
421.29	3159.72
421.48	3232.28
421.67	3283.77
421.86	3246.32
422.05	3372.71
422.24	3368.03
422.43	3325.90
422.61	3438.25
422.80	3461.65
422.99	3405.48
423.18	3431.23
423.37	3442.93
423.56	3386.76
423.75	3337.60
423.94	3227.60
424.13	3246.32
424.32	3389.10
424.50	3529.53
424.69	3332.92
424.88	3503.78
425.07	3403.14
425.26	3419.52
425.45	3510.80
425.64	3496.76
425.83	3410.16
426.01	3595.06
426.20	3478.04
426.39	3421.86
426.58	3419.52
426.77	3435.91
426.96	3517.83
427.15	3590.38
427.33	3616.13
427.52	3527.19
427.71	3728.47
427.90	3604.42
428.09	3630.17
428.28	3709.75
428.46	3796.35
428.65	3641.87
428.84	3721.45
429.03	3754.22
429.22	3653.58
429.40	3749.54
429.59	3749.54
429.78	3632.51
429.97	3616.13
430.16	3681.66
430.34	3798.69
430.53	3838.48
430.72	3927.42
430.91	3871.25
431.10	3822.09
431.28	4077.21
431.47	4074.87
431.66	3960.19
431.85	3932.10
432.03	4016.36
432.22	4086.58
432.41	4065.51
432.60	3964.87
432.79	4198.92
432.97	4217.65
433.16	4217.65
433.35	4051.47
433.54	4184.88
433.72	4084.23
433.91	4161.47
434.10	4299.56
434.28	4196.58
434.47	4248.07
434.66	4241.05
434.85	4262.12
435.03	4337.01
435.22	4332.33
435.41	4353.40
435.59	4334.67
435.78	4512.55
435.97	4362.76
436.16	4437.66
436.34	4414.25
436.53	4585.11
436.72	4519.57
436.90	4360.42
437.09	4505.53
437.28	4386.16
437.46	4498.51
437.65	4554.68
437.84	4688.09
438.02	4667.03
438.21	4657.67
438.40	4547.66
438.58	4770.01
438.77	4814.48
438.96	4662.35
439.14	4692.77
439.33	4926.83
439.52	4910.44
439.70	5050.88
439.89	4983.00
440.08	4954.91
440.26	5149.18
440.45	4931.51
440.63	5144.50
440.82	5142.16
441.01	5032.15
441.19	5287.27
441.38	5434.72
441.57	5275.57
441.75	5359.83
441.94	5383.23
442.12	5458.13
442.31	5568.13
442.50	5399.62
442.68	5493.24
442.87	5495.58
443.05	5430.04
443.24	5659.42
443.43	5596.22
443.61	5504.94
443.80	5788.14
443.98	5577.50
444.17	5336.42
444.35	5668.78
444.54	5741.33
444.73	5631.33
444.91	5643.03
445.10	5717.93
445.28	5614.95
445.47	5542.39
445.65	5748.36
445.84	5636.01
446.02	5806.87
446.21	5785.80
446.39	5673.46
446.58	5785.80
446.77	5682.82
446.95	5654.73
447.14	5823.25
447.32	5675.80
447.51	5643.03
447.69	5827.93
447.88	5685.16
448.06	5792.83
448.25	5827.93
448.43	5825.59
448.62	5806.87
448.80	5746.02
448.99	5774.10
449.17	5863.04
449.36	5942.62
449.54	5977.73
449.73	5907.51
449.91	6111.14
450.10	6064.33
450.28	6022.20
450.46	6120.50
450.65	6146.25
450.83	6078.37
451.02	6083.05
451.20	6136.88
451.39	6244.55
451.57	6141.57
451.76	6186.04
451.94	6127.52
452.13	6347.53
452.31	6296.04
452.49	6321.79
452.68	6342.85
452.86	6384.98
453.05	6253.91
453.23	6291.36
453.42	6314.77
453.60	6300.72
453.78	6567.54
453.97	6413.07
454.15	6523.07
454.34	6417.75
454.52	6600.31
454.70	6672.87
454.89	6647.12
455.07	6691.59
455.26	6511.37
455.44	6487.96
455.62	6799.26
455.81	6850.75
455.99	6764.15
456.17	6925.65
456.36	6766.49
456.54	6923.30
456.73	6860.11
456.91	7148.00
457.09	6951.39
457.28	7098.84
457.46	7091.82
457.64	7197.15
457.83	7124.59
458.01	7068.42
458.19	7302.47
458.38	7101.19
458.56	7241.62
458.74	7199.49
458.93	7152.68
459.11	7126.93
459.29	7442.90
459.48	7379.71
459.66	7307.15
459.84	7346.94
460.03	7510.78
460.21	7466.31
460.39	7461.63
460.57	7433.54
460.76	7375.03
460.94	7442.90
461.12	7417.16
461.31	7576.31
461.49	7398.43
461.67	7438.22
461.85	7798.66
462.04	7751.85
462.22	8018.68
462.40	7782.28
462.59	7688.66
462.77	7756.54
462.95	7786.96
463.13	7793.98
463.32	7946.12
463.50	7967.18
463.68	7932.08
463.86	7817.39
464.05	7887.61
464.23	7941.44
464.41	7882.92
464.59	8018.68
464.78	8072.51
464.96	8074.85
465.14	7957.82
465.32	8201.24
465.50	8182.51
465.69	8138.04
465.87	8077.19
466.05	8306.56
466.23	8095.91
466.41	8255.07
466.60	8409.54
466.78	8437.63
466.96	8236.35
467.14	8133.36
467.32	8285.50
467.51	8435.29
467.69	8329.97
467.87	8297.20
468.05	8540.61
468.23	8250.39
468.41	8219.96
468.60	8381.46
468.78	8517.21
468.96	8407.20
469.14	8695.09
469.32	8788.71
469.50	8306.56
469.69	8622.53
469.87	8636.58
470.05	8774.67
470.23	8865.95
470.41	8725.52
470.59	8793.39
470.77	8748.92
470.95	8765.31
471.14	9011.06
471.32	8753.60
471.50	8896.38
471.68	9139.79
471.86	8973.61
472.04	9249.80
472.22	9448.74
472.40	8957.23
472.58	9268.52
472.77	9371.50
472.95	9343.42
473.13	9549.39
473.31	9273.20
473.49	9371.50
473.67	9500.23
473.85	9561.09
474.03	9596.20
474.21	9928.55
474.39	9767.06
474.57	9844.29
474.75	9827.91
474.93	10090.05
475.12	10054.94
475.30	10052.60
475.48	9996.43
475.66	10120.48
475.84	10054.94
476.02	10356.87
476.20	10408.36
476.38	10469.22
476.56	10544.11
476.74	10541.77
476.92	10731.36
477.10	10558.16
477.28	10759.44
477.46	10768.80
477.64	10892.85
477.82	10888.17
478.00	11375.00
478.18	11185.42
478.36	11126.91
478.54	11225.21
478.72	11382.03
478.90	11737.79
479.08	11585.65
479.26	11775.24
479.44	11545.86
479.62	11707.36
479.80	11791.62
479.98	12023.33
480.16	12259.73
480.34	12154.40
480.52	12241.00
480.70	12271.43
480.88	12212.92
481.06	12472.71
481.24	12439.95
481.41	12432.93
481.59	12688.04
481.77	12613.15
481.95	12982.95
482.13	13266.16
482.31	12746.56
482.49	13181.90
482.67	13486.17
482.85	13537.66
483.03	13565.74
483.21	13778.73
483.39	13874.70
483.57	13687.45
483.74	13947.25
483.92	14038.53
484.10	13916.83
484.28	14396.64
484.46	14513.66
484.64	14654.09
484.82	14300.67
485.00	14876.44
485.18	14934.96
485.35	15143.27
485.53	14881.13
485.71	14892.83
485.89	15403.07
486.07	15475.62
486.25	15363.28
486.43	15639.46
486.61	15906.28
486.78	15665.21
486.96	15805.64
487.14	16100.55
487.32	16074.80
487.50	16350.98
487.68	16524.18
487.85	16774.62
488.03	16891.65
488.21	17003.99
488.39	16992.29
488.57	17193.58
488.75	17303.58
488.92	17102.29
489.10	17481.46
489.28	17638.28
489.46	17755.30
489.64	17872.33
489.81	18195.32
489.99	17937.87
490.17	18045.53
490.35	18298.31
490.53	18476.19
490.70	18530.02
490.88	18633.00
491.06	18817.91
491.24	18944.30
491.41	18761.73
491.59	19080.05
491.77	19115.16
491.95	19428.79
492.13	19730.72
492.30	19892.21
492.48	19871.15
492.66	19730.72
492.84	20025.62
493.01	19803.27
493.19	20060.73
493.37	20512.46
493.54	20599.05
493.72	20552.24
493.90	20671.61
494.08	20809.70
494.25	20865.88
494.43	20957.16
494.61	21259.09
494.79	21200.57
494.96	20919.71
495.14	21411.22
495.32	21631.23
495.49	21689.74
495.67	21745.92
495.85	22174.24
496.02	22125.08
496.20	22146.15
496.38	22424.67
496.55	22544.04
496.73	23159.60
496.91	22878.74
497.09	22640.00
497.26	23108.11
497.44	22717.24
497.62	23061.30
497.79	23421.74
497.97	23468.55
498.14	23601.96
498.32	23660.48
498.50	23697.92
498.67	24058.37
498.85	23878.15
499.03	23700.26
499.20	24072.41
499.38	24009.22
499.56	24622.44
499.73	24477.32
499.91	24723.08
500.08	24788.61
500.26	24769.89
500.44	25095.22
500.61	24669.25
500.79	24975.86
500.97	25483.75
501.14	25458.01
501.32	24805.00
501.49	25142.03
501.67	25062.46
501.84	25766.96
502.02	25656.95
502.20	25600.78
502.37	25947.18
502.55	25642.91
502.72	25848.88
502.90	25614.82
503.07	25986.97
503.25	26026.76
503.43	26195.28
503.60	26616.57
503.78	26600.19
503.95	26441.03
504.13	26742.96
504.30	26902.12
504.48	26897.44
504.65	26796.79
504.83	27225.11
505.01	27175.96
505.18	27126.81
505.36	27400.65
505.53	27344.48
505.71	27803.22
505.88	27608.96
506.06	27246.18
506.23	27711.94
506.41	27597.26
506.58	27728.33
506.76	28318.14
506.93	28116.86
507.11	28126.22
507.28	28196.43
507.46	28346.23
507.63	28168.35
507.81	28734.76
507.98	28556.88
508.16	28528.79
508.33	28748.80
508.50	28261.97
508.68	28566.24
508.85	28828.38
509.03	28690.29
509.20	28844.76
509.38	29539.90
509.55	29535.22
509.73	29359.68
509.90	29200.52
510.08	29462.66
510.25	29720.12
510.42	29401.81
510.60	29834.81
510.77	29841.83
510.95	30279.51
511.12	29942.47
511.30	29816.08
511.47	29867.58
511.64	30174.19
511.82	30221.00
511.99	30300.58
512.17	30326.32
512.34	30398.88
512.51	30845.92
512.69	30897.41
512.86	30455.05
513.04	30703.15
513.21	30553.35
513.38	31185.30
513.56	31428.71
513.73	30855.28
513.90	31236.79
514.08	31349.14
514.25	31585.53
514.43	31798.52
514.60	31379.56
514.77	31534.04
514.95	32116.83
515.12	31765.75
515.29	31601.91
515.47	31735.32
515.64	31927.25
515.81	32329.82
515.99	32233.86
516.16	32421.10
516.33	32327.48
516.51	32582.60
516.68	32692.60
516.85	32521.74
517.03	32989.85
517.20	32891.55
517.37	32699.62
517.54	32889.21
517.72	32992.19
517.89	33046.02
518.06	33347.95
518.24	33106.88
518.41	32989.85
518.58	33301.14
518.75	33160.71
518.93	33165.39
519.10	33504.77
519.27	33263.69
519.45	33656.90
519.62	33776.27
519.79	34036.07
519.96	33975.22
520.14	33883.94
520.31	34314.59
520.48	33975.22
520.65	34017.35
520.83	34307.57
521.00	34660.99
521.17	34007.98
521.34	34398.85
521.52	34223.31
521.69	34607.16
521.86	35108.04
522.03	34747.59
522.20	34630.57
522.38	35199.32
522.55	35433.37
522.72	34773.34
522.89	34885.68
523.07	35306.98
523.24	34920.79
523.41	35709.55
523.58	35072.93
523.75	35634.66
523.92	35255.49
524.10	35545.72
524.27	35931.90
524.44	35906.16
524.61	35594.87
524.78	36037.23
524.96	36048.93
525.13	36023.19
525.30	36362.56
525.47	35943.61
525.64	36034.89
525.81	36369.58
525.98	36392.99
526.16	36350.86
526.33	36168.30
526.50	36542.78
526.67	36332.14
526.84	36505.34
527.01	36460.87
527.18	36739.39
527.36	36945.36
527.53	36879.82
527.70	36968.76
527.87	37708.37
528.04	37008.55
528.21	36676.19
528.38	36959.40
528.55	37392.40
528.72	37481.34
528.89	37291.76
529.07	36921.95
529.24	37088.13
529.41	38082.86
529.58	37460.27
529.75	37965.83
529.92	37745.82
530.09	37635.81
530.26	37865.19
530.43	38029.02
530.60	37614.75
530.77	37581.98
530.94	38099.24
531.11	37663.90
531.28	37738.80
531.46	38120.31
531.63	38345.00
531.80	38473.73
531.97	38579.05
532.14	38314.57
532.31	38281.80
532.48	39005.03
532.65	39100.99
532.82	38586.07
532.99	38754.59
533.16	38249.03
533.33	38714.80
533.50	38733.53
533.67	38614.16
533.84	38663.31
534.01	38923.11
534.18	38682.03
534.35	39246.10
534.52	39133.76
534.69	39636.97
534.86	39379.51
535.03	38927.79
535.20	39538.67
535.37	39543.35
535.54	39674.42
535.71	39543.35
535.88	39414.62
536.05	39445.05
536.22	39997.41
536.38	39541.01
536.55	39585.48
536.72	39840.60
536.89	39707.19
537.06	40133.17
537.23	40126.14
537.40	40156.57
537.57	39845.28
537.74	39810.17
537.91	40088.70
538.08	40020.82
538.25	39798.47
538.42	40329.77
538.59	40364.88
538.75	40311.05
538.92	40423.39
539.09	41216.83
539.26	40624.68
539.43	40133.17
539.60	40849.37
539.77	40751.07
539.94	41273.01
540.11	40835.33
540.28	40818.94
540.44	41036.61
540.61	41221.52
540.78	40753.41
540.95	40954.69
541.12	40776.81
541.29	41069.38
541.46	40973.42
541.62	41212.15
541.79	41207.47
541.96	40954.69
542.13	41031.93
542.30	41354.93
542.47	41375.99
542.63	41507.06
542.80	41530.47
542.97	41668.56
543.14	41724.73
543.31	41989.21
543.48	41876.86
543.64	42160.07
543.81	41921.34
543.98	41942.40
544.15	42129.64
544.32	42239.65
544.48	42635.20
544.65	42384.76
544.82	42094.53
544.99	42073.47
545.16	42293.48
545.32	42300.50
545.49	42628.18
545.66	42932.45
545.83	42550.94
546.00	42895.00
546.16	42742.86
546.33	42373.06
546.50	42454.98
546.67	43409.92
546.83	42382.42
547.00	42700.73
547.17	42476.04
547.34	42588.39
547.50	43012.02
547.67	43445.02
547.84	43100.97
548.00	43370.13
548.17	43515.24
548.34	43475.45
548.51	43608.86
548.67	43225.01
548.84	43564.39
549.01	43325.66
549.18	43093.94
549.34	43456.73
549.51	43533.96
549.68	43592.48
549.84	43423.96
550.01	43313.95
550.18	43152.46
550.34	43765.68
550.51	43723.55
550.68	43416.94
550.84	43564.39
551.01	44062.93
551.18	43990.37
551.34	43585.46
551.51	44170.59
551.68	44182.29
551.84	43615.88
552.01	43908.45
552.18	44142.50
552.34	44268.89
552.51	43742.27
552.68	43789.08
552.84	44533.37
553.01	43992.71
553.18	44116.76
553.34	44376.56
553.51	44065.27
553.67	44320.38
553.84	44261.87
554.01	44381.24
554.17	44680.83
554.34	44634.02
554.51	44306.34
554.67	44676.15
554.84	45001.48
555.00	44648.06
555.17	44428.05
555.33	45067.02
555.50	44563.80
555.67	44659.76
555.83	44746.36
556.00	45050.63
556.16	45432.14
556.33	45352.56
556.50	44949.99
556.66	45184.04
556.83	44865.73
556.99	44964.03
557.16	45235.53
557.32	45338.52
557.49	45385.33
557.65	45088.08
557.82	44893.82
557.98	44678.49
558.15	44935.95
558.32	45301.07
558.48	45052.97
558.65	45092.76
558.81	45097.44
558.98	45680.24
559.14	45591.30
559.31	45380.65
559.47	45214.47
559.64	45483.63
559.80	45464.91
559.97	45820.67
560.13	45460.23
560.30	45254.26
560.46	46068.76
560.63	46052.38
560.79	46045.36
560.96	45427.46
561.12	45837.05
561.29	45523.42
561.45	46021.95
561.61	45539.80
561.78	45654.49
561.94	45502.35
562.11	45860.46
562.27	45689.60
562.44	45687.26
562.60	46017.27
562.77	46075.79
562.93	45593.64
563.10	46096.85
563.26	45808.96
563.42	46021.95
563.59	45785.56
563.75	45759.81
563.92	45970.46
564.08	45736.41
564.24	46078.13
564.41	46134.30
564.57	46185.79
564.74	46213.88
564.90	45872.16
565.07	46387.08
565.23	46347.29
565.39	45888.54
565.56	46206.86
565.72	46068.76
565.88	46281.75
566.05	45881.52
566.21	46464.32
566.38	46211.54
566.54	46171.75
566.70	46438.57
566.87	46550.91
567.03	46337.93
567.19	46834.12
567.36	46361.33
567.52	46602.41
567.68	46738.16
567.85	46707.73
568.01	46705.39
568.17	46178.77
568.34	46822.42
568.50	46705.39
568.66	46616.45
568.83	46698.37
568.99	46368.35
569.15	46298.14
569.32	46380.06
569.48	46040.68
569.64	46801.35
569.81	46679.64
569.97	46447.93
570.13	46897.31
570.30	46780.29
570.46	46600.07
570.62	47107.96
570.78	46504.10
570.95	46408.14
571.11	46628.15
571.27	46941.78
571.43	46396.44
571.60	46490.06
571.76	46440.91
571.92	46752.20
572.09	46651.56
572.25	46260.69
572.41	47143.07
572.57	46354.31
572.74	47299.89
572.90	46473.68
573.06	47229.67
573.22	46976.89
573.38	46827.10
573.55	47002.64
573.71	47349.04
573.87	47007.32
574.03	47437.98
574.20	46962.85
574.36	47100.94
574.52	46958.17
574.68	47019.02
574.84	47173.50
575.01	46902.00
575.17	47302.23
575.33	47026.04
575.49	46939.44
575.65	47100.94
575.82	46946.47
575.98	46934.76
576.14	47388.83
576.30	47690.76
576.46	46993.28
576.62	47077.54
576.79	46876.25
576.95	46754.54
577.11	46672.62
577.27	47288.18
577.43	46944.12
577.59	46988.60
577.75	46939.44
577.92	46546.23
578.08	47283.50
578.24	47000.30
578.40	47318.61
578.56	47634.58
578.72	47150.09
578.88	47285.84
579.04	47124.35
579.21	47227.33
579.37	47051.79
579.53	47274.14
579.69	47224.99
579.85	47126.69
580.01	47332.65
580.17	46923.06
580.33	47117.32
580.49	47505.85
580.65	47269.46
580.82	47278.82
580.98	46916.04
581.14	46979.23
581.30	47180.52
581.46	46756.88
581.62	47072.85
581.78	46965.19
581.94	47533.94
582.10	47056.47
582.26	47423.93
582.42	47213.29
582.58	47510.53
582.74	47447.34
582.90	47114.98
583.06	47363.08
583.22	46876.25
583.38	47735.23
583.54	47391.17
583.70	47470.75
583.86	47611.18
584.02	47283.50
584.18	47660.33
584.34	47466.06
584.50	47870.98
584.66	47196.90
584.82	47332.65
584.98	47613.52
585.14	47583.09
585.30	47009.66
585.46	47292.86
585.62	47276.48
585.78	47388.83
585.94	47175.84
586.10	47683.73
586.26	47480.11
586.42	47494.15
586.58	47892.04
586.74	47461.38
586.90	47100.94
587.06	47562.03
587.22	47845.23
587.38	47136.05
587.54	47587.77
587.70	47330.31
587.86	47597.13
588.02	47540.96
588.18	47334.99
588.34	47662.67
588.49	47381.80
588.65	47370.10
588.81	47494.15
588.97	47746.93
589.13	47683.73
589.29	47578.41
589.45	47995.03
589.61	47599.47
589.77	47894.38
589.93	47669.69
