SpectraSuite Data File
++++++++++++++++++++++++++++++++++++
Date: Fri Oct 25 11:34:04 EDT 2013
User: price-jones
Dark Spectrum Present: No
Reference Spectrum Present: No
Number of Sampled Component Spectra: 1
Spectrometers: USB2+H05261
Integration Time (usec): 100000 (USB2+H05261)
Spectra Averaged: 1 (USB2+H05261)
Boxcar Smoothing: 0 (USB2+H05261)
Correct for Electrical Dark: No (USB2+H05261)
Strobe/Lamp Enabled: No (USB2+H05261)
Correct for Detector Non-linearity: No (USB2+H05261)
Correct for Stray Light: No (USB2+H05261)
Number of Pixels in Processed Spectrum: 2048
>>>>>Begin Processed Spectral Data<<<<<
365.73	294.91
365.92	294.91
366.12	294.91
366.32	180.22
366.52	215.33
366.72	210.65
366.91	170.86
367.11	187.24
367.31	217.67
367.51	152.13
367.70	175.54
367.90	175.54
368.10	177.88
368.30	170.86
368.49	149.79
368.69	259.80
368.89	257.46
369.09	198.95
369.28	229.37
369.48	154.48
369.68	236.39
369.87	231.71
370.07	243.42
370.27	215.33
370.47	320.65
370.66	423.64
370.86	484.49
371.06	540.66
371.25	559.39
371.45	566.41
371.65	552.37
371.84	472.79
372.04	557.05
372.24	592.16
372.44	585.13
372.63	561.73
372.83	545.34
373.03	601.52
373.22	631.94
373.42	669.39
373.62	573.43
373.81	582.79
374.01	702.16
374.21	706.84
374.40	624.92
374.60	702.16
374.79	580.45
374.99	660.03
375.19	624.92
375.38	634.29
375.58	739.61
375.78	629.60
375.97	613.22
376.17	690.46
376.37	648.33
376.56	774.72
376.76	650.67
376.95	664.71
377.15	699.82
377.35	676.41
377.54	664.71
377.74	617.90
377.93	699.82
378.13	662.37
378.33	688.12
378.52	720.88
378.72	737.27
378.91	737.27
379.11	692.80
379.31	706.84
379.50	697.48
379.70	763.01
379.89	737.27
380.09	638.97
380.28	685.78
380.48	758.33
380.68	795.78
380.87	734.93
381.07	732.59
381.26	816.85
381.46	720.88
381.65	786.42
381.85	723.23
382.04	755.99
382.24	765.36
382.43	816.85
382.63	793.44
382.83	741.95
383.02	856.64
383.22	788.76
383.41	674.07
383.61	791.10
383.80	851.96
384.00	704.50
384.19	774.72
384.39	826.21
384.58	770.04
384.78	814.51
384.97	802.80
385.17	809.83
385.36	807.48
385.56	873.02
385.75	837.91
385.95	912.81
386.14	896.43
386.34	809.83
386.53	863.66
386.72	868.34
386.92	873.02
387.11	849.61
387.31	887.06
387.50	856.64
387.70	840.25
387.89	898.77
388.09	917.49
388.28	905.79
388.48	870.68
388.67	933.87
388.86	891.74
389.06	910.47
389.25	940.90
389.45	987.71
389.64	945.58
389.84	945.58
390.03	926.85
390.22	1004.09
390.42	1011.11
390.61	922.17
390.81	910.47
391.00	983.02
391.19	966.64
391.39	1022.81
391.58	1013.45
391.78	983.02
391.97	1039.20
392.16	1043.88
392.36	1018.13
392.55	1076.65
392.75	1104.73
392.94	1027.50
393.13	1067.28
393.33	1006.43
393.52	987.71
393.71	1069.62
393.91	1083.67
394.10	1048.56
394.29	1043.88
394.49	1128.14
394.68	1146.86
394.88	1121.12
395.07	1186.65
395.26	1109.41
395.46	1111.75
395.65	1207.72
395.84	1181.97
396.04	1256.87
396.23	1128.14
396.42	1144.52
396.62	1200.69
396.81	1221.76
397.00	1146.86
397.19	1179.63
397.39	1188.99
397.58	1238.14
397.77	1228.78
397.97	1294.32
398.16	1167.93
398.35	1219.42
398.55	1299.00
398.74	1205.38
398.93	1259.21
399.12	1221.76
399.32	1193.67
399.51	1291.98
399.70	1266.23
399.90	1373.89
400.09	1439.43
400.28	1315.38
400.47	1275.59
400.67	1446.45
400.86	1401.98
401.05	1390.28
401.24	1348.15
401.44	1362.19
401.63	1385.60
401.82	1465.18
402.01	1390.28
402.21	1472.20
402.40	1432.41
402.59	1502.62
402.78	1448.79
402.97	1493.26
403.17	1603.27
403.36	1558.80
403.55	1458.15
403.74	1584.54
403.93	1577.52
404.13	1544.75
404.32	1521.35
404.51	1507.30
404.70	1572.84
404.89	1577.52
405.09	1593.90
405.28	1734.34
405.47	1584.54
405.66	1645.40
405.85	1666.46
406.05	1687.53
406.24	1696.89
406.43	1724.97
406.62	1699.23
406.81	1776.47
407.00	1734.34
407.20	1734.34
407.39	1769.44
407.58	1849.02
407.77	1860.73
407.96	1837.32
408.15	1825.62
408.34	1884.13
408.54	1839.66
408.73	1919.24
408.92	1949.67
409.11	1959.03
409.30	1968.39
409.49	1949.67
409.68	1998.82
409.87	1994.14
410.07	2026.90
410.26	2064.35
410.45	2059.67
410.64	2026.90
410.83	2111.16
411.02	2031.58
411.21	2092.44
411.40	2127.55
411.59	2139.25
411.78	2134.57
411.98	2200.10
412.17	2132.23
412.36	2246.91
412.55	2361.60
412.74	2305.43
412.93	2328.83
413.12	2225.85
413.31	2483.31
413.50	2246.91
413.69	2368.62
413.88	2410.75
414.07	2452.88
414.26	2511.39
414.45	2415.43
414.64	2516.08
414.83	2532.46
415.02	2555.86
415.22	2473.95
415.41	2619.06
415.60	2565.23
415.79	2717.36
415.98	2619.06
416.17	2682.25
416.36	2569.91
416.55	2736.09
416.74	2813.32
416.93	2726.72
417.12	2787.58
417.31	2843.75
417.50	2733.75
417.69	2799.28
417.88	2848.43
418.07	2953.76
418.26	2951.42
418.45	2939.71
418.64	2974.82
418.83	3054.40
419.02	2995.89
419.21	3094.19
419.39	3056.74
419.58	2928.01
419.77	2993.55
419.96	3021.63
420.15	3173.77
420.34	3112.91
420.53	3138.66
420.72	3227.60
420.91	3227.60
421.10	3087.17
421.29	3136.32
421.48	3265.05
421.67	3183.13
421.86	3260.37
422.05	3368.03
422.24	3166.74
422.43	3421.86
422.61	3258.03
422.80	3295.47
422.99	3351.65
423.18	3421.86
423.37	3358.67
423.56	3316.54
423.75	3241.64
423.94	3290.79
424.13	3098.87
424.32	3091.85
424.50	3274.41
424.69	3438.25
424.88	3438.25
425.07	3417.18
425.26	3417.18
425.45	3349.31
425.64	3389.10
425.83	3431.23
426.01	3492.08
426.20	3471.01
426.39	3356.33
426.58	3318.88
426.77	3368.03
426.96	3349.31
427.15	3473.36
427.33	3473.36
427.52	3379.73
427.71	3583.36
427.90	3529.53
428.09	3522.51
428.28	3676.98
428.46	3482.72
428.65	3534.21
428.84	3604.42
429.03	3737.84
429.22	3581.02
429.40	3698.05
429.59	3714.43
429.78	3543.57
429.97	3564.64
430.16	3623.15
430.34	3817.41
430.53	3754.22
430.72	3882.95
430.91	3922.74
431.10	3880.61
431.28	3894.65
431.47	3906.35
431.66	3948.48
431.85	3889.97
432.03	3981.25
432.22	4170.83
432.41	3999.98
432.60	4058.49
432.79	3967.21
432.97	3932.10
433.16	4142.75
433.35	3943.80
433.54	4217.65
433.72	4234.03
433.91	4105.30
434.10	4046.79
434.28	4173.18
434.47	4170.83
434.66	4163.81
434.85	4231.69
435.03	4198.92
435.22	4189.56
435.41	4301.90
435.59	4259.78
435.78	4369.78
435.97	4283.18
436.16	4266.80
436.34	4245.73
436.53	4337.01
436.72	4554.68
436.90	4435.32
437.09	4547.66
437.28	4301.90
437.46	4542.98
437.65	4524.26
437.84	4592.13
438.02	4486.81
438.21	4585.11
438.40	4521.92
438.58	4690.43
438.77	4692.77
438.96	4510.21
439.14	4723.20
439.33	4919.81
439.52	4802.78
439.70	4788.74
439.89	4943.21
440.08	4957.25
440.26	4873.00
440.45	4762.99
440.63	4903.42
440.82	5069.60
441.01	4931.51
441.19	5149.18
441.38	5355.15
441.57	5177.26
441.75	5221.74
441.94	5167.90
442.12	5214.71
442.31	5270.89
442.50	5345.78
442.68	5420.68
442.87	5418.34
443.05	5301.31
443.24	5528.35
443.43	5526.00
443.61	5462.81
443.80	5624.31
443.98	5462.81
444.17	5359.83
444.35	5467.49
444.54	5408.98
444.73	5434.72
444.91	5455.79
445.10	5476.85
445.28	5453.45
445.47	5554.09
445.65	5619.63
445.84	5537.71
446.02	5678.14
446.21	5528.35
446.39	5650.05
446.58	5776.44
446.77	5600.90
446.95	5502.60
447.14	5584.52
447.32	5802.19
447.51	5671.12
447.69	5591.54
447.88	5521.32
448.06	5722.61
448.25	5610.26
448.43	5673.46
448.62	5612.60
448.80	5643.03
448.99	5748.36
449.17	5738.99
449.36	5628.99
449.54	5832.62
449.73	6015.18
449.91	6036.24
450.10	5956.66
450.28	5996.45
450.46	5902.83
450.65	6043.26
450.83	6036.24
451.02	5933.26
451.20	6200.08
451.39	6221.14
451.57	5884.11
451.76	5879.43
451.94	6179.01
452.13	6122.84
452.31	6188.38
452.49	6078.37
452.68	6181.35
452.86	6246.89
453.05	6401.37
453.23	6317.11
453.42	6225.82
453.60	6228.17
453.78	6431.79
453.97	6181.35
454.15	6356.90
454.34	6375.62
454.52	6312.42
454.70	6464.56
454.89	6534.78
455.07	6621.38
455.26	6541.80
455.44	6502.01
455.62	6565.20
455.81	6441.15
455.99	6614.35
456.17	6569.88
456.36	6581.59
456.54	6668.19
456.73	6600.31
456.91	6766.49
457.09	6822.66
457.28	6836.70
457.46	6766.49
457.64	6817.98
457.83	6902.24
458.01	6895.22
458.19	7138.63
458.38	6904.58
458.56	7155.02
458.74	7007.56
458.93	6939.69
459.11	7054.37
459.29	7248.64
459.48	7190.13
459.66	7117.57
459.84	7222.89
460.03	7239.28
460.21	7211.19
460.39	7173.74
460.57	7176.08
460.76	7218.21
460.94	7274.38
461.12	7262.68
461.31	7435.88
461.49	7384.39
461.67	7222.89
461.85	7520.14
462.04	7506.10
462.22	7831.43
462.40	7506.10
462.59	7702.70
462.77	7618.44
462.95	7447.58
463.13	7728.45
463.32	7588.02
463.50	7583.34
463.68	7740.15
463.86	7761.22
464.05	7630.15
464.23	7817.39
464.41	7791.64
464.59	7852.50
464.78	7866.54
464.96	7915.69
465.14	7918.03
465.32	7707.38
465.50	7829.09
465.69	7831.43
465.87	7908.67
466.05	8018.68
466.23	8035.06
466.41	8102.93
466.60	8315.92
466.78	8098.25
466.96	8219.96
467.14	7948.46
467.32	8100.59
467.51	8105.28
467.69	8109.96
467.87	8325.29
468.05	8154.43
468.23	8273.79
468.41	8081.87
468.60	8159.11
468.78	8224.64
468.96	8191.88
469.14	8610.83
469.32	8533.59
469.50	8369.76
469.69	8458.70
469.87	8416.57
470.05	8489.12
470.23	8636.58
470.41	8582.74
470.59	8877.65
470.77	8643.60
470.95	8521.89
471.14	8835.52
471.32	8475.08
471.50	9011.06
471.68	8725.52
471.86	9125.75
472.04	8844.88
472.22	9210.01
472.40	8929.14
472.58	8943.19
472.77	9008.72
472.95	9294.27
473.13	9448.74
473.31	9252.14
473.49	9238.09
473.67	9226.39
473.85	9275.54
474.03	9406.61
474.21	9483.85
474.39	9734.29
474.57	9371.50
474.75	9738.97
474.93	9867.70
475.12	10024.51
475.30	9654.71
475.48	9767.06
475.66	9987.07
475.84	9891.10
476.02	10052.60
476.20	9937.91
476.38	10244.52
476.56	10415.38
476.74	10314.74
476.92	10246.87
477.10	10345.17
477.28	10649.44
477.46	10497.30
477.64	10551.14
477.82	10714.97
478.00	11026.26
478.18	10801.57
478.36	11133.93
478.54	11147.97
478.72	11220.53
478.90	11295.43
479.08	11257.98
479.26	11353.94
479.44	11325.85
479.62	11632.46
479.80	11777.58
479.98	11665.23
480.16	11943.75
480.34	11749.49
480.52	12049.08
480.70	12098.23
480.88	11733.11
481.06	12388.46
481.24	12435.27
481.41	12423.56
481.59	12332.28
481.77	12603.78
481.95	12739.54
482.13	12753.58
482.31	12559.31
482.49	13032.10
482.67	12697.41
482.85	13217.01
483.03	13268.50
483.21	13329.35
483.39	13441.70
483.57	13598.51
483.74	13755.33
483.92	13811.50
484.10	13486.17
484.28	13792.78
484.46	14160.24
484.64	14277.27
484.82	13916.83
485.00	14422.38
485.18	14581.54
485.35	14794.53
485.53	14789.85
485.71	14878.79
485.89	15089.43
486.07	15033.26
486.25	15110.50
486.43	15204.12
486.61	15297.74
486.78	15440.51
486.96	15789.25
487.14	15829.04
487.32	15733.08
487.50	16049.05
487.68	16044.37
487.85	16168.42
488.03	16514.82
488.21	16563.97
488.39	17032.08
488.57	16943.14
488.75	16783.98
488.92	17027.40
489.10	17034.42
489.28	17200.60
489.46	17331.67
489.64	17291.88
489.81	17846.58
489.99	18054.89
490.17	17745.94
490.35	18132.13
490.53	18389.59
490.70	18200.01
490.88	18050.21
491.06	18370.86
491.24	18651.73
491.41	18417.68
491.59	18647.05
491.77	18888.12
491.95	19164.31
492.13	19264.95
492.30	19154.94
492.48	19538.79
492.66	19271.97
492.84	19508.37
493.01	19442.83
493.19	19873.49
493.37	20301.81
493.54	19908.60
493.72	20201.16
493.90	20121.59
494.08	20362.66
494.25	20683.31
494.43	20486.71
494.61	20568.63
494.79	20585.01
494.96	20582.67
495.14	20734.81
495.32	21305.90
495.49	20945.45
495.67	21551.65
495.85	21778.68
496.02	21682.72
496.20	21598.46
496.38	21731.87
496.55	21809.11
496.73	22125.08
496.91	22387.22
497.09	22473.82
497.26	22078.27
497.44	22483.19
497.62	22450.42
497.79	23082.36
497.97	22728.94
498.14	23400.68
498.32	22993.42
498.50	22923.21
498.67	23386.63
498.85	23026.19
499.03	23461.53
499.20	23852.40
499.38	23569.19
499.56	23793.89
499.73	23793.89
499.91	24163.69
500.08	23990.49
500.26	23693.24
500.44	23974.11
500.61	24496.05
500.79	24224.54
500.97	24521.79
501.14	24964.15
501.32	24889.26
501.49	24685.63
501.67	24952.45
501.84	24875.21
502.02	24889.26
502.20	24755.85
502.37	25116.29
502.55	25219.27
502.72	25450.99
502.90	25406.52
503.07	25139.69
503.25	25624.18
503.43	25179.48
503.60	25383.11
503.78	25970.58
503.95	25727.17
504.13	25858.24
504.30	26033.78
504.48	25556.31
504.65	26101.65
504.83	26441.03
505.01	26485.50
505.18	26717.22
505.36	26859.99
505.53	26417.63
505.71	26541.68
505.88	26888.07
506.06	27070.64
506.23	27030.85
506.41	26885.73
506.58	27117.45
506.76	27204.05
506.93	27346.82
507.11	27461.51
507.28	27489.59
507.46	27653.43
507.63	27578.53
507.81	27679.18
507.98	27597.26
508.16	27960.04
508.33	27637.05
508.50	28063.02
508.68	28360.27
508.85	28458.57
509.03	28371.97
509.20	28229.20
509.38	28334.53
509.55	28837.74
509.73	28615.39
509.90	28830.72
510.08	28950.09
510.25	28856.46
510.42	28835.40
510.60	29378.40
510.77	29237.97
510.95	29675.65
511.12	29282.44
511.30	29130.31
511.47	29219.25
511.64	29528.20
511.82	29734.17
511.99	29647.57
512.17	29862.90
512.34	30031.41
512.51	30066.52
512.69	30300.58
512.86	29947.15
513.04	30129.72
513.21	30094.61
513.38	30478.46
513.56	30228.02
513.73	30363.77
513.90	30672.72
514.08	30480.80
514.25	30794.43
514.43	30960.61
514.60	30895.07
514.77	30920.82
514.95	30925.50
515.12	31110.40
515.29	30852.94
515.47	31660.43
515.64	31232.11
515.81	31445.10
515.99	31325.73
516.16	31868.73
516.33	31356.16
516.51	31922.57
516.68	31508.29
516.85	31491.91
517.03	32093.43
517.20	31948.31
517.37	31978.74
517.54	32070.02
517.72	32140.24
517.89	32189.39
518.06	32329.82
518.24	32414.08
518.41	32280.67
518.58	32463.23
518.75	32678.56
518.93	32627.07
519.10	33050.70
519.27	32488.98
519.45	32905.59
519.62	33242.63
519.79	32964.10
519.96	33104.54
520.14	33179.43
520.31	32526.42
520.48	32917.29
520.65	33270.72
520.83	33582.01
521.00	33855.85
521.17	33298.80
521.34	33502.43
521.52	33848.83
521.69	33544.56
521.86	33888.62
522.03	34326.30
522.20	33729.46
522.38	34319.28
522.55	34607.16
522.72	33996.28
522.89	34443.32
523.07	34679.72
523.24	34387.15
523.41	34267.78
523.58	34412.90
523.75	34913.77
523.92	34525.24
524.10	34733.55
524.27	34890.37
524.44	35131.44
524.61	35206.34
524.78	35023.78
524.96	35255.49
525.13	35414.65
525.30	35440.39
525.47	35662.74
525.64	35529.33
525.81	35658.06
525.98	36165.96
526.16	35800.83
526.33	35386.56
526.50	35576.14
526.67	35426.35
526.84	35716.58
527.01	35723.60
527.18	35983.40
527.36	36114.47
527.53	36212.77
527.70	36713.64
527.87	36339.16
528.04	36252.56
528.21	36060.63
528.38	35714.23
528.55	36510.02
528.72	35999.78
528.89	36320.43
529.07	36552.15
529.24	36470.23
529.41	36556.83
529.58	36760.45
529.75	36814.29
529.92	37177.07
530.09	36987.49
530.26	36825.99
530.43	36989.83
530.60	36697.26
530.77	36531.08
530.94	37336.23
531.11	36900.89
531.28	37322.18
531.46	37076.43
531.63	37151.32
531.80	37406.44
531.97	37565.60
532.14	37392.40
532.31	37158.34
532.48	37933.06
532.65	37926.04
532.82	37699.01
532.99	37689.65
533.16	37427.51
533.33	38232.65
533.50	37916.68
533.67	37525.81
533.84	37266.01
534.01	38141.37
534.18	38263.08
534.35	38354.36
534.52	38164.78
534.69	38330.95
534.86	38288.82
535.03	38405.85
535.20	38567.35
535.37	38277.12
535.54	38663.31
535.71	38550.96
535.88	39192.27
536.05	38939.49
536.22	38691.40
536.38	38756.93
536.55	38850.55
536.72	39339.72
536.89	39210.99
537.06	38953.54
537.23	39337.38
537.40	39084.61
537.57	39206.31
537.74	39105.67
537.91	39538.67
538.08	38866.94
538.25	39297.59
538.42	39271.85
538.59	39391.22
538.75	39281.21
538.92	39754.00
539.09	40030.18
539.26	40088.70
539.43	39264.83
539.60	39793.79
539.77	40189.34
539.94	39885.07
540.11	40107.42
540.28	40168.27
540.44	40301.68
540.61	39882.73
540.78	39826.56
540.95	40119.12
541.12	40395.31
541.29	40229.13
541.46	40011.46
541.62	39985.71
541.79	40334.45
541.96	39779.74
542.13	39929.54
542.30	40165.93
542.47	40849.37
542.63	40095.72
542.80	40502.97
542.97	40898.52
543.14	41287.05
543.31	40847.03
543.48	40935.97
543.64	41598.34
543.81	41006.19
543.98	40814.26
544.15	40610.64
544.32	41647.49
544.48	41804.31
544.65	41099.81
544.82	41610.04
544.99	41010.87
545.16	41102.15
545.32	41251.94
545.49	41708.35
545.66	41701.32
545.83	41633.45
546.00	41570.25
546.16	41895.59
546.33	41598.34
546.50	41617.07
546.67	42000.91
546.83	41813.67
547.00	41635.79
547.17	41584.30
547.34	41813.67
547.50	42036.02
547.67	42293.48
547.84	41944.74
548.00	42054.75
548.17	42660.94
548.34	42405.83
548.51	42366.04
548.67	42316.89
548.84	42508.81
549.01	42312.20
549.18	42246.67
549.34	42288.80
549.51	42415.19
549.68	42932.45
549.84	42665.63
550.01	42700.73
550.18	42370.72
550.34	42611.79
550.51	42904.36
550.68	42663.28
550.84	42143.69
551.01	43178.20
551.18	42724.14
551.34	42265.39
551.51	42995.64
551.68	42728.82
551.84	42792.01
552.01	42726.48
552.18	43047.13
552.34	42955.85
552.51	43194.59
552.68	42843.51
552.84	43126.71
553.01	42953.51
553.18	43131.39
553.34	43370.13
553.51	42944.15
553.67	43358.42
553.84	43449.70
554.01	43646.31
554.17	43608.86
554.34	43311.61
554.51	43660.35
554.67	43948.24
554.84	43847.60
555.00	43543.33
555.17	43576.09
555.33	43768.02
555.50	43739.93
555.67	43676.74
555.83	43824.19
556.00	44411.67
556.16	44116.76
556.33	44175.27
556.50	44048.88
556.66	43964.62
556.83	43892.07
556.99	44069.95
557.16	44428.05
557.32	44116.76
557.49	44378.90
557.65	43849.94
557.82	44268.89
557.98	44219.74
558.15	44186.97
558.32	44198.68
558.48	43922.49
558.65	43859.30
558.81	44587.21
558.98	44430.39
559.14	44219.74
559.31	44381.24
559.47	44369.54
559.64	44219.74
559.80	44486.56
559.97	44957.01
560.13	44154.21
560.30	44624.65
560.46	44744.02
560.63	44540.39
560.79	44872.75
560.96	44907.86
561.12	44615.29
561.29	44594.23
561.45	44786.15
561.61	44802.53
561.78	44795.51
561.94	44573.16
562.11	45001.48
562.27	44854.03
562.44	44795.51
562.60	45097.44
562.77	44945.31
562.93	44687.85
563.10	45202.77
563.26	44737.00
563.42	45504.70
563.59	44921.90
563.75	44900.84
563.92	45291.71
564.08	45055.31
564.24	45558.53
564.41	45193.40
564.57	44851.69
564.74	45359.58
564.90	44886.79
565.07	45272.98
565.23	44959.35
565.39	45612.36
565.56	45626.40
565.72	45041.27
565.88	45904.93
566.05	45792.58
566.21	45373.63
566.38	45305.75
566.54	45237.87
566.70	45422.78
566.87	45649.81
567.03	45193.40
567.19	45542.14
567.36	45118.51
567.52	45565.55
567.68	45830.03
567.85	45497.67
568.01	45621.72
568.17	45460.23
568.34	45265.96
568.50	45373.63
568.66	45539.80
568.83	45574.91
568.99	45778.54
569.15	45811.31
569.32	45654.49
569.48	45705.98
569.64	45830.03
569.81	45785.56
569.97	45752.79
570.13	45790.24
570.30	45511.72
570.46	45567.89
570.62	45755.13
570.78	45525.76
570.95	45895.56
571.11	45811.31
571.27	45897.91
571.43	45738.75
571.60	45764.49
571.76	45600.66
571.92	45900.25
572.09	45991.53
572.25	45785.56
572.41	45631.08
572.57	45584.27
572.74	46239.62
572.90	46085.15
573.06	46244.30
573.22	46122.60
573.38	45872.16
573.55	46422.19
573.71	46248.99
573.87	45855.78
574.03	45691.94
574.20	46328.56
574.36	46124.94
574.52	46197.49
574.68	46330.90
574.84	46319.20
575.01	46335.59
575.17	46382.40
575.33	46293.46
575.49	46066.42
575.65	46501.76
575.82	46108.55
575.98	45989.19
576.14	46312.18
576.30	46501.76
576.46	46181.11
576.62	46031.32
576.79	45560.87
576.95	45755.13
577.11	45708.32
577.27	46401.12
577.43	45888.54
577.59	46204.52
577.75	46010.25
577.92	45902.59
578.08	45783.22
578.24	45958.76
578.40	46564.96
578.56	46555.60
578.72	46618.79
578.88	46258.35
579.04	46412.82
579.21	46300.48
579.37	46398.78
579.53	46080.47
579.69	46064.08
579.85	45823.01
580.01	46546.23
580.17	46358.99
580.33	46546.23
580.49	46454.95
580.65	46478.36
580.82	46232.60
580.98	46258.35
581.14	45897.91
581.30	46784.97
581.46	45883.86
581.62	46227.92
581.78	46110.89
581.94	46693.69
582.10	46089.83
582.26	46263.03
582.42	46431.55
582.58	46546.23
582.74	46373.03
582.90	46263.03
583.06	46433.89
583.22	46220.90
583.38	46443.25
583.54	46625.81
583.70	46611.77
583.86	46763.90
584.02	46422.19
584.18	46351.97
584.34	46658.58
584.50	46504.10
584.66	46644.54
584.82	46134.30
584.98	46843.48
585.14	46543.89
585.30	46284.09
585.46	46763.90
585.62	46253.67
585.78	46791.99
585.94	45921.31
586.10	46546.23
586.26	46167.07
586.42	46426.87
586.58	46492.40
586.74	46394.10
586.90	46089.83
587.06	46536.87
587.22	46724.11
587.38	46513.47
587.54	46375.37
587.70	46670.28
587.86	46993.28
588.02	46447.93
588.18	46923.06
588.34	46845.82
588.49	46368.35
588.65	46607.09
588.81	46115.58
588.97	46740.50
589.13	46567.30
589.29	46515.81
589.45	47004.98
589.61	46932.42
589.77	46946.47
589.93	46696.03
590.08	47114.98
