SpectraSuite Data File
++++++++++++++++++++++++++++++++++++
Date: Fri Oct 25 10:47:42 EDT 2013
User: price-jones
Dark Spectrum Present: No
Reference Spectrum Present: No
Number of Sampled Component Spectra: 1
Spectrometers: USB2+H05261
Integration Time (usec): 100000 (USB2+H05261)
Spectra Averaged: 1 (USB2+H05261)
Boxcar Smoothing: 0 (USB2+H05261)
Correct for Electrical Dark: No (USB2+H05261)
Strobe/Lamp Enabled: No (USB2+H05261)
Correct for Detector Non-linearity: No (USB2+H05261)
Correct for Stray Light: No (USB2+H05261)
Number of Pixels in Processed Spectrum: 2048
>>>>>Begin Processed Spectral Data<<<<<
365.73	187.24
365.92	187.24
366.12	187.24
366.32	49.15
366.52	74.90
366.72	81.92
366.91	0.00
367.11	0.00
367.31	51.49
367.51	28.09
367.70	42.13
367.90	60.85
368.10	0.00
368.30	60.85
368.49	72.56
368.69	93.62
368.89	58.51
369.09	39.79
369.28	93.62
369.48	53.83
369.68	126.39
369.87	140.43
370.07	58.51
370.27	88.94
370.47	243.42
370.66	341.72
370.86	402.57
371.06	397.89
371.25	470.45
371.45	402.57
371.65	524.28
371.84	390.87
372.04	430.66
372.24	423.64
372.44	468.11
372.63	510.24
372.83	451.72
373.03	500.87
373.22	454.06
373.42	482.15
373.62	552.37
373.81	521.94
374.01	568.75
374.21	517.26
374.40	547.69
374.60	559.39
374.79	573.43
374.99	550.03
375.19	507.90
375.38	538.32
375.58	613.22
375.78	566.41
375.97	557.05
376.17	582.79
376.37	643.65
376.56	566.41
376.76	561.73
376.95	596.84
377.15	561.73
377.35	627.26
377.54	587.47
377.74	594.50
377.93	629.60
378.13	662.37
378.33	552.37
378.52	643.65
378.72	627.26
378.91	613.22
379.11	645.99
379.31	638.97
379.50	629.60
379.70	650.67
379.89	739.61
380.09	650.67
380.28	638.97
380.48	690.46
380.68	645.99
380.87	650.67
381.07	688.12
381.26	695.14
381.46	613.22
381.65	650.67
381.85	662.37
382.04	683.44
382.24	704.50
382.43	674.07
382.63	608.54
382.83	683.44
383.02	671.73
383.22	739.61
383.41	695.14
383.61	657.69
383.80	704.50
384.00	791.10
384.19	760.67
384.39	774.72
384.58	683.44
384.78	699.82
384.97	814.51
385.17	660.03
385.36	765.36
385.56	744.29
385.75	765.36
385.95	737.27
386.14	877.70
386.34	849.61
386.53	758.33
386.72	723.23
386.92	802.80
387.11	809.83
387.31	763.01
387.50	760.67
387.70	760.67
387.89	753.65
388.09	840.25
388.28	830.89
388.48	807.48
388.67	854.30
388.86	945.58
389.06	882.38
389.25	908.13
389.45	931.53
389.64	931.53
389.84	938.55
390.03	1034.52
390.22	905.79
390.42	896.43
390.61	868.34
390.81	968.98
391.00	936.21
391.19	994.73
391.39	957.28
391.58	924.51
391.78	983.02
391.97	931.53
392.16	966.64
392.36	978.34
392.55	954.94
392.75	1074.31
392.94	917.49
393.13	1029.84
393.33	1034.52
393.52	945.58
393.71	976.00
393.91	1022.81
394.10	1121.12
394.29	1128.14
394.49	1022.81
394.68	1177.29
394.88	1057.92
395.07	1109.41
395.26	1123.46
395.46	1067.28
395.65	1196.01
395.84	1139.84
396.04	1156.22
396.23	1137.50
396.42	1062.60
396.62	1104.73
396.81	1088.35
397.00	1156.22
397.19	1219.42
397.39	1188.99
397.58	1221.76
397.77	1196.01
397.97	1273.25
398.16	1296.66
398.35	1291.98
398.55	1380.92
398.74	1315.38
398.93	1249.85
399.12	1238.14
399.32	1306.02
399.51	1252.19
399.70	1294.32
399.90	1317.72
400.09	1355.17
400.28	1291.98
400.47	1409.00
400.67	1439.43
400.86	1413.68
401.05	1432.41
401.24	1481.56
401.44	1528.37
401.63	1579.86
401.82	1511.99
402.01	1441.77
402.21	1530.71
402.40	1486.24
402.59	1502.62
402.78	1451.13
402.97	1530.71
403.17	1577.52
403.36	1591.56
403.55	1675.82
403.74	1631.35
403.93	1582.20
404.13	1619.65
404.32	1577.52
404.51	1689.87
404.70	1673.48
404.89	1717.95
405.09	1689.87
405.28	1645.40
405.47	1666.46
405.66	1685.19
405.85	1827.96
406.05	1732.00
406.24	1933.28
406.43	1750.72
406.62	1827.96
406.81	1844.34
407.00	1865.41
407.20	1743.70
407.39	1802.21
407.58	1771.79
407.77	1853.70
407.96	1863.07
408.15	1914.56
408.34	1970.73
408.54	1909.88
408.73	1954.35
408.92	1994.14
409.11	2057.33
409.30	2073.71
409.49	2050.31
409.68	2106.48
409.87	2033.93
410.07	2150.95
410.26	2069.03
410.45	2076.06
410.64	2113.50
410.83	2211.81
411.02	2186.06
411.21	2165.00
411.40	2244.57
411.59	2324.15
411.78	2314.79
411.98	2272.66
412.17	2317.13
412.36	2424.80
412.55	2389.69
412.74	2413.09
412.93	2392.03
413.12	2314.79
413.31	2483.31
413.50	2548.84
413.69	2499.69
413.88	2583.95
414.07	2586.29
414.26	2527.78
414.45	2551.18
414.64	2555.86
414.83	2609.70
415.02	2640.12
415.22	2635.44
415.41	2691.62
415.60	2745.45
415.79	2670.55
415.98	2820.35
416.17	2761.83
416.36	2932.69
416.55	2888.22
416.74	2953.76
416.93	2946.73
417.12	3030.99
417.31	3084.83
417.50	2899.92
417.69	2995.89
417.88	3066.10
418.07	3056.74
418.26	3035.67
418.45	3122.27
418.64	3112.91
418.83	3091.85
419.02	3208.87
419.21	3185.47
419.39	3087.17
419.58	3040.36
419.77	3162.06
419.96	3185.47
420.15	3232.28
420.34	3304.84
420.53	3344.63
420.72	3328.24
420.91	3405.48
421.10	3269.73
421.29	3442.93
421.48	3309.52
421.67	3508.46
421.86	3449.95
422.05	3339.94
422.24	3304.84
422.43	3382.07
422.61	3370.37
422.80	3445.27
422.99	3501.44
423.18	3578.68
423.37	3581.02
423.56	3452.29
423.75	3515.48
423.94	3410.16
424.13	3325.90
424.32	3363.35
424.50	3489.74
424.69	3583.36
424.88	3548.25
425.07	3454.63
425.26	3471.01
425.45	3534.21
425.64	3492.08
425.83	3517.83
426.01	3494.42
426.20	3627.83
426.39	3653.58
426.58	3527.19
426.77	3398.46
426.96	3543.57
427.15	3571.66
427.33	3665.28
427.52	3676.98
427.71	3681.66
427.90	3672.30
428.09	3796.35
428.28	3630.17
428.46	3716.77
428.65	3889.97
428.84	3950.82
429.03	3861.88
429.22	3585.70
429.40	3779.97
429.59	3761.24
429.78	3618.47
429.97	3592.72
430.16	3662.94
430.34	3822.09
430.53	3840.82
430.72	3850.18
430.91	3859.54
431.10	3880.61
431.28	4060.83
431.47	4049.13
431.66	4117.00
431.85	3929.76
432.03	3960.19
432.22	4306.59
432.41	4044.45
432.60	4236.37
432.79	4283.18
432.97	4215.30
433.16	4315.95
433.35	4227.01
433.54	4278.50
433.72	4318.29
433.91	4203.60
434.10	4332.33
434.28	4292.54
434.47	4468.08
434.66	4435.32
434.85	4407.23
435.03	4355.74
435.22	4393.19
435.41	4461.06
435.59	4407.23
435.78	4655.33
435.97	4568.73
436.16	4648.30
436.34	4440.00
436.53	4468.08
436.72	4554.68
436.90	4547.66
437.09	4688.09
437.28	4741.93
437.46	4564.04
437.65	4800.44
437.84	4737.24
438.02	4531.28
438.21	4702.14
438.40	4779.37
438.58	4690.43
438.77	4877.68
438.96	4950.23
439.14	4947.89
439.33	5217.05
439.52	4994.70
439.70	5048.54
439.89	5043.85
440.08	4987.68
440.26	5121.09
440.45	5041.51
440.63	5114.07
440.82	5334.08
441.01	5268.55
441.19	5228.76
441.38	5350.46
441.57	5394.93
441.75	5497.92
441.94	5537.71
442.12	5661.76
442.31	5790.49
442.50	5657.07
442.68	5600.90
442.87	5614.95
443.05	5760.06
443.24	5757.72
443.43	5668.78
443.61	5715.59
443.80	5884.11
443.98	5589.20
444.17	5582.18
444.35	5853.68
444.54	5788.14
444.73	5708.57
444.91	5736.65
445.10	5872.40
445.28	5832.62
445.47	5654.73
445.65	5921.56
445.84	5724.95
446.02	5966.03
446.21	5849.00
446.39	5867.72
446.58	6008.16
446.77	5837.30
446.95	5830.27
447.14	6190.72
447.32	5982.41
447.51	5954.32
447.69	5877.09
447.88	5888.79
448.06	5881.77
448.25	5893.47
448.43	6033.90
448.62	6059.65
448.80	5832.62
448.99	6207.10
449.17	6092.41
449.36	6179.01
449.54	6008.16
449.73	6221.14
449.91	6317.11
450.10	6200.08
450.28	6190.72
450.46	6406.05
450.65	6162.63
450.83	6312.42
451.02	6279.66
451.20	6331.15
451.39	6335.83
451.57	6499.67
451.76	6303.06
451.94	6356.90
452.13	6478.60
452.31	6321.79
452.49	6375.62
452.68	6450.52
452.86	6555.84
453.05	6448.18
453.23	6551.16
453.42	6422.43
453.60	6705.63
453.78	6602.65
453.97	6548.82
454.15	6567.54
454.34	6518.39
454.52	6691.59
454.70	6661.16
454.89	6771.17
455.07	6789.89
455.26	6808.62
455.44	6906.92
455.62	6766.49
455.81	6820.32
455.99	6897.56
456.17	6986.50
456.36	6871.81
456.54	6986.50
456.73	6965.43
456.91	7052.03
457.09	7197.15
457.28	7246.30
457.46	7129.27
457.64	7194.81
457.83	7164.38
458.01	7063.74
458.19	7419.50
458.38	7180.76
458.56	7496.74
458.74	7274.38
458.93	7302.47
459.11	7499.08
459.29	7370.35
459.48	7639.51
459.66	7442.90
459.84	7700.36
460.03	7478.01
460.21	7485.03
460.39	7581.00
460.57	7599.72
460.76	7515.46
460.94	7712.07
461.12	7611.42
461.31	7721.43
461.49	7611.42
461.67	7674.62
461.85	7775.26
462.04	7653.55
462.22	8449.33
462.40	8037.40
462.59	7866.54
462.77	7826.75
462.95	7992.93
463.13	7822.07
463.32	8023.36
463.50	8030.38
463.68	8116.98
463.86	8203.58
464.05	8119.32
464.23	8044.42
464.41	8084.21
464.59	8060.80
464.78	8100.59
464.96	8049.10
465.14	7978.89
465.32	8039.74
465.50	8194.22
465.69	8421.25
465.87	8212.94
466.05	8278.47
466.23	8397.84
466.41	8114.64
466.60	8596.79
466.78	8318.26
466.96	8257.41
467.14	8313.58
467.32	8266.77
467.51	8573.38
467.69	8243.37
467.87	8383.80
468.05	8528.91
468.23	8557.00
468.41	8500.83
468.60	8402.52
468.78	8477.42
468.96	8695.09
469.14	8727.86
469.32	8833.18
469.50	8505.51
469.69	8692.75
469.87	8702.11
470.05	8987.66
470.23	8891.70
470.41	8884.67
470.59	8940.85
470.77	8891.70
470.95	9102.34
471.14	9266.18
471.32	9041.49
471.50	9207.67
471.68	9373.85
471.86	9331.72
472.04	9254.48
472.22	9462.79
472.40	9303.63
472.58	9364.48
472.77	9411.29
472.95	9345.76
473.13	9741.31
473.31	9537.68
473.49	9350.44
473.67	9500.23
473.85	9584.49
474.03	9872.38
474.21	9767.06
474.39	10008.13
474.57	9778.76
474.75	10125.16
474.93	10195.37
475.12	10045.58
475.30	10148.56
475.48	10061.96
475.66	10134.52
475.84	10125.16
476.02	10401.34
476.20	10209.42
476.38	10523.05
476.56	10647.10
476.74	10700.93
476.92	10684.55
477.10	10682.20
477.28	10927.96
477.46	10780.51
477.64	10808.59
477.82	11115.20
478.00	11356.28
478.18	11066.05
478.36	11232.23
478.54	11508.41
478.72	11548.20
478.90	11492.03
479.08	11789.28
479.26	11899.28
479.44	11714.38
479.62	11817.36
479.80	12065.46
479.98	12217.60
480.16	12465.69
480.34	11955.46
480.52	12463.35
480.70	12451.65
480.88	12273.77
481.06	12159.08
481.24	12533.57
481.41	12898.69
481.59	12966.57
481.77	12936.14
481.95	12912.74
482.13	13151.47
482.31	13116.36
482.49	13305.95
482.67	13427.65
482.85	13530.64
483.03	13591.49
483.21	13760.01
483.39	13996.40
483.57	13923.85
483.74	13877.04
483.92	14197.69
484.10	14087.68
484.28	14424.72
484.46	14609.62
484.64	14640.05
484.82	14464.51
485.00	14712.61
485.18	14925.60
485.35	15239.23
485.53	14911.55
485.71	14944.32
485.89	15311.78
486.07	15274.34
486.25	15410.09
486.43	15417.11
486.61	15541.16
486.78	15967.13
486.96	15971.82
487.14	16114.59
487.32	15932.03
487.50	16297.15
487.68	16601.42
487.85	16812.07
488.03	16940.80
488.21	17151.45
488.39	16723.13
488.57	17188.89
488.75	17256.77
488.92	17582.10
489.10	17586.79
489.28	17731.90
489.46	17898.08
489.64	18097.02
489.81	18108.72
489.99	18232.77
490.17	18099.36
490.35	18398.95
490.53	18487.89
490.70	18876.42
490.88	18459.81
491.06	19026.21
491.24	19218.14
491.41	19007.49
491.59	18857.70
491.77	18984.09
491.95	19449.85
492.13	19637.09
492.30	19747.10
492.48	19812.63
492.66	19721.35
492.84	20032.65
493.01	19978.81
493.19	19915.62
493.37	20297.13
493.54	20332.23
493.72	20723.10
493.90	20872.90
494.08	20870.56
494.25	21095.25
494.43	21259.09
494.61	21139.72
494.79	21451.01
494.96	21387.82
495.14	21486.12
495.32	21884.01
495.49	21425.26
495.67	22015.08
495.85	21738.90
496.02	22199.98
496.20	22040.82
496.38	22174.24
496.55	22221.05
496.73	22955.97
496.91	22471.48
497.09	22789.80
497.26	22651.70
497.44	22590.85
497.62	23063.64
497.79	23044.91
497.97	22834.27
498.14	23295.35
498.32	23463.87
498.50	23293.01
498.67	24280.72
498.85	23782.18
499.03	24147.31
499.20	23847.72
499.38	24308.80
499.56	24159.01
499.73	24163.69
499.91	24395.40
500.08	24411.79
500.26	24180.07
500.44	24369.66
500.61	24634.14
500.79	24418.81
500.97	24652.86
501.14	24760.53
501.32	25036.71
501.49	25090.54
501.67	25479.07
501.84	24992.24
502.02	25577.37
502.20	25460.35
502.37	25795.04
502.55	25532.90
502.72	25696.74
502.90	25965.90
503.07	25624.18
503.25	25696.74
503.43	25771.64
503.60	26103.99
503.78	26120.38
503.95	26106.34
504.13	26368.48
504.30	26380.18
504.48	26412.95
504.65	26607.21
504.83	26693.81
505.01	26995.74
505.18	26848.29
505.36	27318.73
505.53	27103.40
505.71	27110.43
505.88	27098.72
506.06	27316.39
506.23	27454.48
506.41	27005.10
506.58	27262.56
506.76	27388.95
506.93	27339.80
507.11	27520.02
507.28	28072.39
507.46	27594.92
507.63	27941.32
507.81	28198.77
507.98	28009.19
508.16	28173.03
508.33	27941.32
508.50	28229.20
508.68	28030.26
508.85	28503.04
509.03	28650.50
509.20	28620.07
509.38	28641.14
509.55	28746.46
509.73	28746.46
509.90	28753.48
510.08	28634.11
510.25	28964.13
510.42	29090.52
510.60	29263.72
510.77	29535.22
510.95	29404.15
511.12	29481.39
511.30	29546.92
511.47	30022.05
511.64	29668.63
511.82	30293.55
511.99	29855.87
512.17	30134.40
512.34	29715.44
512.51	30045.46
512.69	30778.04
512.86	30405.90
513.04	30424.62
513.21	30492.50
513.38	30326.32
513.56	30213.98
513.73	30499.52
513.90	30504.20
514.08	30822.51
514.25	31452.12
514.43	30696.13
514.60	30981.67
514.77	30661.02
514.95	31213.38
515.12	31140.83
515.29	31084.65
515.47	31454.46
515.64	31398.29
515.81	31250.83
515.99	31370.20
516.16	31337.43
516.33	31395.95
516.51	31328.07
516.68	31583.19
516.85	31358.50
517.03	31730.64
517.20	31498.93
517.37	32217.47
517.54	31859.37
517.72	31672.13
517.89	32023.21
518.06	32280.67
518.24	32177.68
518.41	32222.16
518.58	32233.86
518.75	32332.16
518.93	32510.04
519.10	32725.37
519.27	32828.35
519.45	32900.91
519.62	32961.76
519.79	33015.60
519.96	32891.55
520.14	33535.20
520.31	32879.85
520.48	33198.16
520.65	33085.81
520.83	33544.56
521.00	33364.34
521.17	33476.68
521.34	33251.99
521.52	33593.71
521.69	33762.23
521.86	33635.84
522.03	33586.69
522.20	34054.79
522.38	34141.39
522.55	33741.16
522.72	34045.43
522.89	33935.43
523.07	33996.28
523.24	33989.26
523.41	34525.24
523.58	34106.29
523.75	34499.50
523.92	34719.51
524.10	34642.27
524.27	34691.42
524.44	34892.71
524.61	35068.25
524.78	35019.10
524.96	34761.64
525.13	34944.20
525.30	35201.66
525.47	35416.99
525.64	35040.16
525.81	35367.84
525.98	35297.62
526.16	35255.49
526.33	35335.07
526.50	35339.75
526.67	34836.53
526.84	35260.17
527.01	35044.84
527.18	35306.98
527.36	35957.65
527.53	35819.56
527.70	36149.57
527.87	35948.29
528.04	35672.10
528.21	36446.82
528.38	35578.48
528.55	35824.24
528.72	36308.73
528.89	36381.29
529.07	36481.93
529.24	36301.71
529.41	36329.80
529.58	36119.15
529.75	36013.82
529.92	36851.73
530.09	36463.21
530.26	36734.71
530.43	36872.80
530.60	36271.28
530.77	36528.74
530.94	36917.27
531.11	37003.87
531.28	36776.84
531.46	36999.19
531.63	36933.65
531.80	37043.66
531.97	36964.08
532.14	37104.51
532.31	36875.14
532.48	36999.19
532.65	37301.12
532.82	37516.45
532.99	37242.60
533.16	37319.84
533.33	37336.23
533.50	37607.73
533.67	37631.13
533.84	37542.19
534.01	37830.08
534.18	37163.03
534.35	38424.57
534.52	37530.49
534.69	37659.22
534.86	38115.62
535.03	37766.88
535.20	38258.40
535.37	38295.85
535.54	38855.23
535.71	38103.92
535.88	38054.77
536.05	38382.45
536.22	38476.07
536.38	38059.45
536.55	38288.82
536.72	38052.43
536.89	38185.84
537.06	38450.32
537.23	38370.74
537.40	38593.09
537.57	38675.01
537.74	38621.18
537.91	39077.58
538.08	38621.18
538.25	38637.56
538.42	38766.29
538.59	39147.80
538.75	38618.84
538.92	38637.56
539.09	39489.52
539.26	39367.81
539.43	38974.60
539.60	38955.88
539.77	39171.21
539.94	39091.63
540.11	38916.09
540.28	39487.18
540.44	38930.13
540.61	39519.95
540.78	39138.44
540.95	39395.90
541.12	39433.35
541.29	39332.70
541.46	39395.90
541.62	39660.38
541.79	40048.91
541.96	39309.30
542.13	39887.41
542.30	39929.54
542.47	39746.98
542.63	39761.02
542.80	39810.17
542.97	40273.60
543.14	40229.13
543.31	40437.44
543.48	40051.25
543.64	41041.29
543.81	40327.43
543.98	40156.57
544.15	40664.47
544.32	40680.85
544.48	40858.73
544.65	40748.73
544.82	40903.20
544.99	40194.02
545.16	40573.19
545.32	40699.58
545.49	40772.13
545.66	40966.40
545.83	40627.02
546.00	41008.53
546.16	40971.08
546.33	40786.18
546.50	40210.40
546.67	40671.49
546.83	40748.73
547.00	41163.00
547.17	40865.75
547.34	41081.08
547.50	41280.03
547.67	41439.18
547.84	41385.35
548.00	41165.34
548.17	41455.57
548.34	41310.46
548.51	41511.74
548.67	41610.04
548.84	41860.48
549.01	41523.44
549.18	41427.48
549.34	41488.34
549.51	41940.06
549.68	41368.97
549.84	41186.41
550.01	41439.18
550.18	41888.57
550.34	42085.17
550.51	41717.71
550.68	41790.27
550.84	41336.20
551.01	41975.17
551.18	42080.49
551.34	41551.53
551.51	42375.40
551.68	42010.28
551.84	41710.69
552.01	41839.42
552.18	41902.61
552.34	41900.27
552.51	42433.91
552.68	42337.95
552.84	41844.10
553.01	42806.06
553.18	41886.23
553.34	42361.36
553.51	42237.31
553.67	42038.36
553.84	42869.25
554.01	42649.24
554.17	43096.28
554.34	42710.10
554.51	42824.78
554.67	42754.57
554.84	42405.83
555.00	42146.03
555.17	42241.99
555.33	42131.98
555.50	42902.02
555.67	42532.22
555.83	42550.94
556.00	42796.70
556.16	42852.87
556.33	42555.62
556.50	43285.87
556.66	43255.44
556.83	42677.33
556.99	43082.24
557.16	43215.65
557.32	43100.97
557.49	43182.88
557.65	42726.48
557.82	42426.89
557.98	42944.15
558.15	42843.51
558.32	43274.16
558.48	43306.93
558.65	43372.47
558.81	43194.59
558.98	43309.27
559.14	43019.05
559.31	42742.86
559.47	43168.84
559.64	43400.55
559.80	43419.28
559.97	43264.80
560.13	43255.44
560.30	43175.86
560.46	43421.62
560.63	43636.95
560.79	43271.82
560.96	43655.67
561.12	43641.63
561.29	43433.32
561.45	43288.21
561.61	43299.91
561.78	43175.86
561.94	43201.61
562.11	43475.45
562.27	43332.68
562.44	43065.86
562.60	43714.19
562.77	43964.62
562.93	43566.73
563.10	43491.83
563.26	43225.01
563.42	43758.66
563.59	43545.67
563.75	43555.03
563.92	43611.20
564.08	43885.04
564.24	43849.94
564.41	43812.49
564.57	43707.16
564.74	43580.78
564.90	44144.84
565.07	43779.72
565.23	43756.32
565.39	43849.94
565.56	44004.41
565.72	43817.17
565.88	43524.60
566.05	43882.70
566.21	43927.17
566.38	43751.63
566.54	44154.21
566.70	44219.74
566.87	44353.15
567.03	43927.17
567.19	44093.35
567.36	43704.82
567.52	43728.23
567.68	44245.49
567.85	43992.71
568.01	43971.64
568.17	44067.61
568.34	43990.37
568.50	43756.32
568.66	43978.67
568.83	44634.02
568.99	43854.62
569.15	43906.11
569.32	43976.33
569.48	44208.04
569.64	44474.86
569.81	44105.06
569.97	44062.93
570.13	44439.75
570.30	43601.84
570.46	43686.10
570.62	43566.73
570.78	43849.94
570.95	43931.86
571.11	44411.67
571.27	43842.92
571.43	43758.66
571.60	44477.20
571.76	44470.18
571.92	44254.85
572.09	44226.76
572.25	44224.42
572.41	43842.92
572.57	44271.23
572.74	44528.69
572.90	44509.97
573.06	44479.54
573.22	44259.53
573.38	44444.43
573.55	44020.80
573.71	44430.39
573.87	44177.61
574.03	44224.42
574.20	44076.97
574.36	43997.39
574.52	44369.54
574.68	44587.21
574.84	44116.76
575.01	44116.76
575.17	44189.31
575.33	43805.47
575.49	44327.41
575.65	44697.21
575.82	44657.42
575.98	44671.46
576.14	44767.43
576.30	44626.99
576.46	44229.10
576.62	44289.96
576.79	44215.06
576.95	44311.02
577.11	44357.83
577.27	44198.68
577.43	44172.93
577.59	44470.18
577.75	44271.23
577.92	44275.91
578.08	44226.76
578.24	44205.70
578.40	44322.72
578.56	44638.70
578.72	44556.78
578.88	44643.38
579.04	44582.52
579.21	44252.51
579.37	44144.84
579.53	44011.43
579.69	44512.31
579.85	44151.87
580.01	44540.39
580.17	44311.02
580.33	45013.18
580.49	44252.51
580.65	45008.50
580.82	44839.98
580.98	44261.87
581.14	44245.49
581.30	44652.74
581.46	44327.41
581.62	44273.57
581.78	44488.90
581.94	44694.87
582.10	44212.72
582.26	44734.66
582.42	44601.25
582.58	44598.91
582.74	44289.96
582.90	44662.10
583.06	44395.28
583.22	44526.35
583.38	44865.73
583.54	44664.44
583.70	44388.26
583.86	44495.92
584.02	44261.87
584.18	44257.19
584.34	44634.02
584.50	44547.42
584.66	44645.72
584.82	44278.25
584.98	44673.81
585.14	44755.72
585.30	44540.39
585.46	44474.86
585.62	44666.78
585.78	44535.71
585.94	43892.07
586.10	44329.75
586.26	44030.16
586.42	44776.79
586.58	44779.13
586.74	44673.81
586.90	44488.90
587.06	44605.93
587.22	44598.91
587.38	44514.65
587.54	44924.24
587.70	45013.18
587.86	44832.96
588.02	44584.86
588.18	44797.85
588.34	44697.21
588.49	44203.36
588.65	44350.81
588.81	44348.47
588.97	44381.24
589.13	44678.49
589.29	44610.61
589.45	44989.78
589.61	44381.24
589.77	44545.08
589.93	44690.19
590.08	44928.92
590.24	44802.53
