SpectraSuite Data File
++++++++++++++++++++++++++++++++++++
Date: Fri Oct 25 10:44:55 EDT 2013
User: price-jones
Dark Spectrum Present: No
Reference Spectrum Present: No
Number of Sampled Component Spectra: 1
Spectrometers: USB2+H05261
Integration Time (usec): 100000 (USB2+H05261)
Spectra Averaged: 1 (USB2+H05261)
Boxcar Smoothing: 0 (USB2+H05261)
Correct for Electrical Dark: No (USB2+H05261)
Strobe/Lamp Enabled: No (USB2+H05261)
Correct for Detector Non-linearity: No (USB2+H05261)
Correct for Stray Light: No (USB2+H05261)
Number of Pixels in Processed Spectrum: 2048
>>>>>Begin Processed Spectral Data<<<<<
365.73	126.39
365.92	126.39
366.12	126.39
366.32	28.09
366.52	46.81
366.72	74.90
366.91	0.00
367.11	0.00
367.31	35.11
367.51	23.41
367.70	35.11
367.90	30.43
368.10	0.00
368.30	0.00
368.49	0.00
368.69	21.06
368.89	0.00
369.09	53.83
369.28	86.60
369.48	74.90
369.68	53.83
369.87	110.01
370.07	67.88
370.27	170.86
370.47	271.50
370.66	407.25
370.86	393.21
371.06	447.04
371.25	491.51
371.45	337.04
371.65	486.83
371.84	440.02
372.04	433.00
372.24	416.62
372.44	421.30
372.63	449.38
372.83	514.92
373.03	486.83
373.22	533.64
373.42	470.45
373.62	393.21
373.81	554.71
374.01	596.84
374.21	484.49
374.40	533.64
374.60	538.32
374.79	557.05
374.99	526.62
375.19	535.98
375.38	587.47
375.58	477.47
375.78	559.39
375.97	575.77
376.17	622.58
376.37	606.20
376.56	564.07
376.76	617.90
376.95	620.24
377.15	617.90
377.35	695.14
377.54	543.00
377.74	634.29
377.93	664.71
378.13	554.71
378.33	617.90
378.52	624.92
378.72	601.52
378.91	617.90
379.11	578.11
379.31	594.50
379.50	531.30
379.70	585.13
379.89	685.78
380.09	589.82
380.28	662.37
380.48	599.18
380.68	676.41
380.87	622.58
381.07	699.82
381.26	671.73
381.46	662.37
381.65	650.67
381.85	660.03
382.04	638.97
382.24	641.31
382.43	676.41
382.63	660.03
382.83	690.46
383.02	730.25
383.22	667.05
383.41	706.84
383.61	697.48
383.80	744.29
384.00	681.10
384.19	774.72
384.39	732.59
384.58	795.78
384.78	723.23
384.97	772.38
385.17	734.93
385.36	798.12
385.56	774.72
385.75	713.86
385.95	755.99
386.14	802.80
386.34	706.84
386.53	828.55
386.72	755.99
386.92	842.59
387.11	777.06
387.31	866.00
387.50	781.74
387.70	758.33
387.89	903.45
388.09	748.97
388.28	884.72
388.48	758.33
388.67	828.55
388.86	1018.13
389.06	866.00
389.25	767.70
389.45	940.90
389.64	751.31
389.84	922.17
390.03	912.81
390.22	985.37
390.42	896.43
390.61	861.32
390.81	933.87
391.00	922.17
391.19	922.17
391.39	945.58
391.58	983.02
391.78	889.40
391.97	978.34
392.16	961.96
392.36	1055.58
392.55	957.28
392.75	1006.43
392.94	952.60
393.13	945.58
393.33	940.90
393.52	898.77
393.71	992.39
393.91	992.39
394.10	983.02
394.29	1006.43
394.49	1027.50
394.68	1029.84
394.88	1006.43
395.07	1067.28
395.26	1071.97
395.46	1165.59
395.65	1228.78
395.84	1142.18
396.04	1172.61
396.23	1064.94
396.42	1142.18
396.62	1242.82
396.81	1078.99
397.00	1064.94
397.19	1142.18
397.39	1181.97
397.58	1181.97
397.77	1153.88
397.97	1317.72
398.16	1200.69
398.35	1240.48
398.55	1245.16
398.74	1359.85
398.93	1331.76
399.12	1303.68
399.32	1289.64
399.51	1299.00
399.70	1350.49
399.90	1303.68
400.09	1341.13
400.28	1465.18
400.47	1362.19
400.67	1453.47
400.86	1425.39
401.05	1413.68
401.24	1509.65
401.44	1455.81
401.63	1425.39
401.82	1612.63
402.01	1504.96
402.21	1479.22
402.40	1465.18
402.59	1530.71
402.78	1434.75
402.97	1483.90
403.17	1453.47
403.36	1650.08
403.55	1607.95
403.74	1561.14
403.93	1619.65
404.13	1596.25
404.32	1502.62
404.51	1624.33
404.70	1710.93
404.89	1675.82
405.09	1713.27
405.28	1664.12
405.47	1671.14
405.66	1689.87
405.85	1776.47
406.05	1818.60
406.24	1722.63
406.43	1853.70
406.62	1853.70
406.81	1881.79
407.00	1898.17
407.20	1732.00
407.39	1748.38
407.58	1799.87
407.77	1888.81
407.96	1984.77
408.15	1963.71
408.34	1902.86
408.54	1902.86
408.73	1975.41
408.92	1954.35
409.11	2010.52
409.30	2008.18
409.49	1898.17
409.68	2024.56
409.87	2064.35
410.07	2019.88
410.26	2087.76
410.45	2090.10
410.64	2101.80
410.83	2153.29
411.02	2143.93
411.21	2127.55
411.40	2139.25
411.59	2342.88
411.78	2303.09
411.98	2230.53
412.17	2282.02
412.36	2417.77
412.55	2291.38
412.74	2537.14
412.93	2436.50
413.12	2434.16
413.31	2471.61
413.50	2527.78
413.69	2534.80
413.88	2581.61
414.07	2623.74
414.26	2672.89
414.45	2513.74
414.64	2605.02
414.83	2677.57
415.02	2668.21
415.22	2759.49
415.41	2656.51
415.60	2862.48
415.79	2698.64
415.98	2885.88
416.17	2782.90
416.36	2820.35
416.55	2899.92
416.74	2974.82
416.93	2949.08
417.12	2956.10
417.31	2930.35
417.50	2864.82
417.69	3023.97
417.88	3082.49
418.07	3047.38
418.26	3096.53
418.45	3190.15
418.64	3335.26
418.83	3185.47
419.02	3098.87
419.21	3274.41
419.39	3197.17
419.58	3173.77
419.77	3108.23
419.96	3215.90
420.15	3131.64
420.34	3267.39
420.53	3372.71
420.72	3438.25
420.91	3281.43
421.10	3382.07
421.29	3459.31
421.48	3274.41
421.67	3496.76
421.86	3445.27
422.05	3339.94
422.24	3342.28
422.43	3393.78
422.61	3356.33
422.80	3480.38
422.99	3489.74
423.18	3389.10
423.37	3599.74
423.56	3499.10
423.75	3438.25
423.94	3410.16
424.13	3279.09
424.32	3473.36
424.50	3588.04
424.69	3719.11
424.88	3756.56
425.07	3487.40
425.26	3459.31
425.45	3419.52
425.64	3496.76
425.83	3456.97
426.01	3566.98
426.20	3506.12
426.39	3627.83
426.58	3400.80
426.77	3456.97
426.96	3548.25
427.15	3733.15
427.33	3548.25
427.52	3571.66
427.71	3611.45
427.90	3742.52
428.09	3623.15
428.28	3777.62
428.46	3782.31
428.65	3728.47
428.84	3824.44
429.03	3960.19
429.22	3709.75
429.40	3817.41
429.59	3740.18
429.78	3541.23
429.97	3529.53
430.16	3667.62
430.34	3859.54
430.53	3777.62
430.72	3810.39
430.91	3936.78
431.10	3822.09
431.28	3969.55
431.47	4107.64
431.66	4205.94
431.85	3971.89
432.03	4180.20
432.22	4243.39
432.41	4119.34
432.60	4262.12
432.79	4280.84
432.97	4255.09
433.16	4196.58
433.35	4067.85
433.54	4344.03
433.72	4264.46
433.91	4203.60
434.10	4327.65
434.28	4231.69
434.47	4430.63
434.66	4400.21
434.85	4465.74
435.03	4475.10
435.22	4409.57
435.41	4610.86
435.59	4578.09
435.78	4636.60
435.97	4678.73
436.16	4507.87
436.34	4479.79
436.53	4564.04
436.72	4547.66
436.90	4638.94
437.09	4615.54
437.28	4510.21
437.46	4739.58
437.65	4603.83
437.84	4713.84
438.02	4671.71
438.21	4606.17
438.40	4685.75
438.58	4854.27
438.77	5104.71
438.96	4863.63
439.14	4926.83
439.33	5025.13
439.52	5071.94
439.70	5008.75
439.89	5116.41
440.08	4997.04
440.26	5219.39
440.45	5046.20
440.63	5135.14
440.82	5411.32
441.01	5238.12
441.19	5404.30
441.38	5509.62
441.57	5441.75
441.75	5509.62
441.94	5521.32
442.12	5565.79
442.31	5542.39
442.50	5551.75
442.68	5647.71
442.87	5544.73
443.05	5750.70
443.24	5799.85
443.43	5647.71
443.61	5846.66
443.80	5816.23
443.98	5628.99
444.17	5502.60
444.35	5802.19
444.54	6008.16
444.73	5877.09
444.91	5764.74
445.10	5783.46
445.28	5806.87
445.47	5640.69
445.65	5755.38
445.84	5820.91
446.02	5916.87
446.21	5970.71
446.39	5727.29
446.58	6045.60
446.77	5879.43
446.95	5823.25
447.14	5902.83
447.32	5970.71
447.51	5977.73
447.69	5996.45
447.88	5837.30
448.06	6090.07
448.25	6127.52
448.43	6017.52
448.62	6012.84
448.80	5877.09
448.99	6108.80
449.17	6125.18
449.36	6052.63
449.54	6272.64
449.73	6356.90
449.91	6228.17
450.10	6366.26
450.28	6223.48
450.46	6249.23
450.65	6289.02
450.83	6310.08
451.02	6370.94
451.20	6494.99
451.39	6420.09
451.57	6359.24
451.76	6331.15
451.94	6544.14
452.13	6455.20
452.31	6450.52
452.49	6244.55
452.68	6492.65
452.86	6478.60
453.05	6658.82
453.23	6612.01
453.42	6464.56
453.60	6342.85
453.78	6494.99
453.97	6560.52
454.15	6719.68
454.34	6612.01
454.52	6775.85
454.70	6661.16
454.89	6670.53
455.07	6864.79
455.26	6759.47
455.44	6796.92
455.62	6757.13
455.81	6794.58
455.99	6927.99
456.17	7063.74
456.36	7005.22
456.54	7070.76
456.73	7091.82
456.91	7494.40
457.09	7129.27
457.28	7215.87
457.46	7028.63
457.64	7478.01
457.83	7101.19
458.01	7283.75
458.19	7524.82
458.38	7232.26
458.56	7351.62
458.74	7651.21
458.93	7356.30
459.11	7389.07
459.29	7260.34
459.48	7492.05
459.66	7468.65
459.84	7632.49
460.03	7796.32
460.21	7751.85
460.39	7702.70
460.57	7672.28
460.76	7742.49
460.94	7592.70
461.12	7726.11
461.31	7730.79
461.49	7571.63
461.67	7723.77
461.85	7864.20
462.04	7908.67
462.22	8084.21
462.40	7831.43
462.59	7749.51
462.77	8084.21
462.95	7974.21
463.13	8058.46
463.32	7896.97
463.50	7899.31
463.68	8138.04
463.86	7967.18
464.05	8018.68
464.23	8257.41
464.41	8351.03
464.59	8013.99
464.78	8421.25
464.96	8175.49
465.14	8278.47
465.32	8212.94
465.50	8231.66
465.69	8250.39
465.87	8269.11
466.05	8332.31
466.23	8238.69
466.41	8311.24
466.60	8531.25
466.78	8287.84
466.96	8184.85
467.14	8512.53
467.32	8482.10
467.51	8631.90
467.69	8231.66
467.87	8341.67
468.05	8732.54
468.23	8599.13
468.41	8627.21
468.60	8795.73
468.78	8739.56
468.96	8650.62
469.14	8851.91
469.32	8648.28
469.50	8627.21
469.69	8688.07
469.87	8812.12
470.05	8938.51
470.23	8664.66
470.41	9076.60
470.59	9238.09
470.77	8978.30
470.95	9053.19
471.14	9064.89
471.32	8940.85
471.50	9109.36
471.68	9219.37
471.86	9289.59
472.04	9284.91
472.22	9432.36
472.40	9261.50
472.58	9172.56
472.77	9528.32
472.95	9731.95
473.13	9727.27
473.31	9406.61
473.49	9376.19
473.67	9525.98
473.85	9593.86
474.03	9958.98
474.21	9987.07
474.39	9851.31
474.57	9949.62
474.75	9858.34
474.93	10303.04
475.12	9991.75
475.30	10188.35
475.48	10068.98
475.66	10394.32
475.84	10244.52
476.02	10300.70
476.20	10359.21
476.38	10464.54
476.56	10665.82
476.74	10801.57
476.92	10590.92
477.10	10729.02
477.28	10963.07
477.46	10761.78
477.64	10752.42
477.82	11117.54
478.00	11405.43
478.18	11353.94
478.36	11363.30
478.54	11613.74
478.72	11548.20
478.90	11906.31
479.08	11817.36
479.26	11838.43
479.44	12152.06
479.62	12067.80
479.80	11941.41
479.98	12058.44
480.16	12098.23
480.34	12147.38
480.52	12449.31
480.70	12409.52
480.88	12348.67
481.06	12482.08
481.24	12446.97
481.41	12821.45
481.59	12805.07
481.77	12886.99
481.95	13039.12
482.13	13193.60
482.31	13095.30
482.49	13909.80
482.67	13671.07
482.85	13715.54
483.03	13834.91
483.21	13942.57
483.39	13888.74
483.57	14071.30
483.74	14050.24
483.92	14347.48
484.10	14380.25
484.28	14616.65
484.46	14672.82
484.64	14633.03
484.82	14361.53
485.00	14689.20
485.18	14918.57
485.35	14848.36
485.53	15225.18
485.71	15122.20
485.89	15351.57
486.07	15484.98
486.25	15487.32
486.43	15583.29
486.61	15616.05
486.78	16051.39
486.96	16121.61
487.14	16304.17
487.32	16306.51
487.50	16315.87
487.68	16341.62
487.85	17156.13
488.03	16783.98
488.21	17039.10
488.39	17011.01
488.57	17224.00
488.75	17092.93
488.92	17500.19
489.10	17582.10
489.28	17729.56
489.46	17865.31
489.64	17720.20
489.81	18080.64
489.99	18328.74
490.17	18113.41
490.35	18597.90
490.53	18621.30
490.70	18827.27
490.88	18892.80
491.06	18986.43
491.24	18719.60
491.41	18939.62
491.59	19138.56
491.77	18892.80
491.95	19220.48
492.13	19601.99
492.30	19906.26
492.48	19627.73
492.66	20105.20
492.84	19775.19
493.01	20498.41
493.19	20262.02
493.37	20198.82
493.54	20582.67
493.72	20556.93
493.90	20823.75
494.08	20908.01
494.25	21270.79
494.43	21022.69
494.61	21214.62
494.79	21514.20
494.96	21376.11
495.14	21542.29
495.32	21783.37
495.49	22008.06
495.67	21795.07
495.85	22071.25
496.02	22354.46
496.20	22279.56
496.38	22455.10
496.55	22431.69
496.73	22782.77
496.91	22665.75
497.09	23016.83
497.26	22944.27
497.44	22583.83
497.62	22890.44
497.79	23433.44
497.97	23304.71
498.14	23414.72
498.32	23484.94
498.50	23468.55
498.67	24065.39
498.85	23913.25
499.03	24299.44
499.20	24032.62
499.38	24154.33
499.56	24051.34
499.73	24313.48
499.91	24229.23
500.08	24631.80
500.26	24362.64
500.44	24699.67
500.61	24348.59
500.79	24627.12
500.97	24924.36
501.14	25256.72
501.32	25104.59
501.49	25359.70
501.67	25139.69
501.84	24861.17
502.02	25511.84
502.20	25469.71
502.37	25558.65
502.55	25673.34
502.72	25748.23
502.90	25783.34
503.07	26040.80
503.25	26204.64
503.43	25750.57
503.60	26445.71
503.78	26080.59
503.95	26176.55
504.13	26239.75
504.30	25930.80
504.48	26548.70
504.65	26518.27
504.83	26511.25
505.01	26902.12
505.18	26614.23
505.36	27367.88
505.53	27236.81
505.71	27096.38
505.88	27084.68
506.06	27112.77
506.23	27426.40
506.41	27283.62
506.58	27241.50
506.76	27314.05
506.93	27641.73
507.11	27625.34
507.28	27885.14
507.46	27623.00
507.63	27828.97
507.81	28236.22
507.98	27737.69
508.16	27859.40
508.33	28297.08
508.50	28535.81
508.68	28229.20
508.85	28353.25
509.03	28390.70
509.20	28634.11
509.38	29055.41
509.55	28811.99
509.73	28978.17
509.90	29174.78
510.08	28732.42
510.25	29214.57
510.42	29268.40
510.60	29699.06
510.77	29488.41
510.95	29465.00
511.12	29362.02
511.30	29539.90
511.47	30199.93
511.64	30356.75
511.82	30213.98
511.99	30003.33
512.17	29993.97
512.34	30073.54
512.51	30408.24
512.69	30354.41
512.86	30422.28
513.04	30579.10
513.21	30338.02
513.38	30756.98
513.56	30548.67
513.73	30553.35
513.90	30890.39
514.08	30562.72
514.25	30670.38
514.43	30808.47
514.60	31257.85
514.77	31033.16
514.95	31211.04
515.12	31377.22
515.29	31232.11
515.47	31557.44
515.64	31723.62
515.81	31424.03
515.99	31534.04
516.16	31239.13
516.33	31651.06
516.51	31611.28
516.68	31482.55
516.85	31644.04
517.03	31529.36
517.20	31814.90
517.37	31765.75
517.54	32107.47
517.72	32126.19
517.89	32205.77
518.06	31861.71
518.24	32177.68
518.41	32435.14
518.58	32624.73
518.75	32222.16
518.93	33013.26
519.10	32470.25
519.27	32395.35
519.45	32456.21
519.62	32575.58
519.79	33048.36
519.96	33078.79
520.14	33305.82
520.31	32404.72
520.48	33354.97
520.65	33443.91
520.83	33614.77
521.00	33809.04
521.17	33593.71
521.34	33947.13
521.52	33666.27
521.69	33722.44
521.86	34038.41
522.03	34087.56
522.20	33961.17
522.38	33586.69
522.55	34153.10
522.72	34117.99
522.89	34150.76
523.07	34326.30
523.24	34038.41
523.41	34918.45
523.58	34075.86
523.75	34766.32
523.92	34782.70
524.10	34410.56
524.27	34976.97
524.44	34696.10
524.61	35061.22
524.78	35054.20
524.96	35070.59
525.13	35180.59
525.30	35620.61
525.47	35772.75
525.64	35592.53
525.81	35363.15
525.98	35098.67
526.16	35241.45
526.33	35117.40
526.50	35435.71
526.67	35262.51
526.84	34972.28
527.01	35112.72
527.18	35522.31
527.36	35845.30
527.53	35543.38
527.70	35990.42
527.87	36072.34
528.04	36011.48
528.21	36002.12
528.38	35892.12
528.55	36540.44
528.72	36292.35
528.89	36648.11
529.07	36072.34
529.24	36282.98
529.41	36439.80
529.58	36622.36
529.75	36837.69
529.92	36760.45
530.09	36837.69
530.26	36809.61
530.43	36914.93
530.60	36769.82
530.77	36945.36
530.94	37038.98
531.11	36802.58
531.28	37474.32
531.46	37268.35
531.63	37148.98
531.80	36605.98
531.97	36746.41
532.14	36919.61
532.31	36940.68
532.48	37361.97
532.65	37504.74
532.82	37308.14
532.99	37574.96
533.16	37195.79
533.33	37352.61
533.50	37708.37
533.67	38000.94
533.84	37418.14
534.01	37565.60
534.18	37556.24
534.35	37954.13
534.52	37607.73
534.69	38518.20
534.86	38370.74
535.03	38073.49
535.20	38499.47
535.37	38340.32
535.54	38403.51
535.71	38565.01
535.88	38281.80
536.05	37975.19
536.22	38979.28
536.38	38183.50
536.55	38202.22
536.72	38541.60
536.89	38071.15
537.06	38426.92
537.23	39143.12
537.40	38569.69
537.57	38735.87
537.74	38710.12
537.91	39119.71
538.08	39047.16
538.25	38756.93
538.42	38216.27
538.59	39065.88
538.75	38841.19
538.92	38763.95
539.09	39133.76
539.26	39079.92
539.43	39304.62
539.60	39178.23
539.77	39138.44
539.94	39187.59
540.11	38726.50
540.28	39285.89
540.44	38911.41
540.61	39330.36
540.78	39143.12
540.95	39210.99
541.12	39234.40
541.29	39227.38
541.46	39428.66
541.62	39498.88
541.79	39845.28
541.96	39615.91
542.13	39438.03
542.30	39594.84
542.47	39662.72
542.63	39908.47
542.80	40128.48
542.97	40371.90
543.14	40456.16
543.31	40446.80
543.48	40364.88
543.64	40755.75
543.81	40886.82
543.98	41067.04
544.15	40521.69
544.32	40657.45
544.48	40842.35
544.65	40540.42
544.82	40781.49
544.99	40392.97
545.16	40849.37
545.32	40704.26
545.49	40774.47
545.66	41130.23
545.83	40821.28
546.00	41008.53
546.16	40851.71
546.33	40849.37
546.50	40935.97
546.67	41170.02
546.83	40821.28
547.00	41165.34
547.17	40992.14
547.34	40921.93
547.50	41141.94
547.67	41294.07
547.84	41006.19
548.00	41333.86
548.17	41493.02
548.34	41226.20
548.51	41731.75
548.67	42000.91
548.84	41736.43
549.01	41738.77
549.18	41380.67
549.34	41911.97
549.51	41467.27
549.68	41661.54
549.84	41794.95
550.01	42087.51
550.18	41750.48
550.34	42075.81
550.51	41787.92
550.68	41439.18
550.84	41216.83
551.01	42534.56
551.18	42036.02
551.34	41687.28
551.51	42146.03
551.68	42078.15
551.84	42389.44
552.01	42054.75
552.18	42148.37
552.34	42014.96
552.51	41888.57
552.68	42040.70
552.84	42136.66
553.01	42574.34
553.18	42703.07
553.34	41808.99
553.51	42178.79
553.67	41947.08
553.84	42756.91
554.01	42717.12
554.17	42419.87
554.34	42679.67
554.51	42656.26
554.67	42749.88
554.84	42398.80
555.00	42363.70
555.17	42342.63
555.33	42611.79
555.50	42440.93
555.67	42543.92
555.83	42965.21
556.00	43185.22
556.16	43021.39
556.33	42569.66
556.50	42370.72
556.66	43173.52
556.83	42457.32
556.99	42986.28
557.16	42792.01
557.32	42913.72
557.49	43187.56
557.65	43105.65
557.82	43028.41
557.98	42909.04
558.15	43290.55
558.32	42983.94
558.48	42740.52
558.65	42911.38
558.81	43161.82
558.98	43091.60
559.14	42920.74
559.31	43260.12
559.47	43117.35
559.64	43358.42
559.80	43346.72
559.97	43491.83
560.13	43264.80
560.30	42705.41
560.46	43035.43
560.63	43236.72
560.79	43391.19
560.96	43386.51
561.12	43503.54
561.29	43550.35
561.45	43119.69
561.61	42990.96
561.78	43753.97
561.94	43274.16
562.11	43531.62
562.27	43601.84
562.44	43414.60
562.60	43440.34
562.77	43910.79
562.93	44006.75
563.10	44046.54
563.26	43332.68
563.42	43267.14
563.59	43306.93
563.75	43625.25
563.92	43702.48
564.08	43732.91
564.24	44093.35
564.41	43557.37
564.57	44041.86
564.74	44172.93
564.90	43915.47
565.07	43863.98
565.23	43938.88
565.39	44081.65
565.56	43440.34
565.72	43468.43
565.88	43873.34
566.05	43831.21
566.21	43845.26
566.38	43526.94
566.54	44339.11
566.70	43899.09
566.87	44130.80
567.03	43854.62
567.19	44217.40
567.36	43622.90
567.52	43936.54
567.68	44264.21
567.85	43962.28
568.01	43973.98
568.17	44100.37
568.34	44472.52
568.50	43852.28
568.66	43536.30
568.83	43992.71
568.99	44144.84
569.15	43887.39
569.32	44041.86
569.48	43746.95
569.64	43807.81
569.81	43948.24
569.97	43859.30
570.13	44044.20
570.30	43969.30
570.46	43896.75
570.62	43999.73
570.78	43374.81
570.95	43873.34
571.11	43892.07
571.27	44020.80
571.43	43936.54
571.60	44023.14
571.76	43913.13
571.92	44215.06
572.09	43995.05
572.25	43952.92
572.41	44051.22
572.57	44802.53
572.74	44556.78
572.90	44559.12
573.06	44172.93
573.22	43976.33
573.38	44357.83
573.55	44002.07
573.71	44374.22
573.87	44081.65
574.03	43981.01
574.20	44278.25
574.36	44381.24
574.52	44437.41
574.68	44409.32
574.84	43789.08
575.01	44205.70
575.17	44114.42
575.33	43714.19
575.49	43634.61
575.65	44678.49
575.82	44306.34
575.98	44231.44
576.14	44060.58
576.30	44189.31
576.46	44161.23
576.62	44430.39
576.79	44428.05
576.95	43442.68
577.11	44053.56
577.27	44334.43
577.43	44287.62
577.59	44318.04
577.75	44191.65
577.92	43299.91
578.08	44144.84
578.24	44079.31
578.40	44177.61
578.56	44327.41
578.72	44259.53
578.88	44549.76
579.04	44526.35
579.21	44540.39
579.37	44055.90
579.53	44804.88
579.69	44512.31
579.85	44098.03
580.01	44399.96
580.17	43983.35
580.33	44729.98
580.49	43992.71
580.65	44809.56
580.82	44233.78
580.98	44060.58
581.14	44037.18
581.30	44402.30
581.46	44463.16
581.62	44428.05
581.78	44540.39
581.94	44910.20
582.10	44149.53
582.26	44535.71
582.42	44650.40
582.58	44622.31
582.74	44306.34
582.90	44547.42
583.06	44507.63
583.22	44428.05
583.38	44378.90
583.54	44634.02
583.70	44701.89
583.86	44250.17
584.02	44163.57
584.18	44570.82
584.34	44486.56
584.50	44135.48
584.66	44484.22
584.82	44362.51
584.98	44825.94
585.14	44978.07
585.30	44268.89
585.46	44739.34
585.62	44201.02
585.78	44474.86
585.94	43948.24
586.10	44285.28
586.26	44488.90
586.42	44512.31
586.58	44531.03
586.74	44329.75
586.90	44406.98
587.06	44432.73
587.22	44395.28
587.38	44315.70
587.54	44610.61
587.70	44505.29
587.86	44715.93
588.02	44744.02
588.18	44694.87
588.34	44175.27
588.49	44095.69
588.65	44259.53
588.81	44191.65
588.97	44514.65
589.13	44498.26
589.29	44467.84
589.45	44355.49
589.61	44287.62
589.77	44989.78
589.93	44493.58
590.08	44985.10
590.24	44751.04
590.40	44917.22
