SpectraSuite Data File
++++++++++++++++++++++++++++++++++++
Date: Fri Oct 25 11:22:45 EDT 2013
User: price-jones
Dark Spectrum Present: No
Reference Spectrum Present: No
Number of Sampled Component Spectra: 1
Spectrometers: USB2+H05261
Integration Time (usec): 100000 (USB2+H05261)
Spectra Averaged: 1 (USB2+H05261)
Boxcar Smoothing: 0 (USB2+H05261)
Correct for Electrical Dark: No (USB2+H05261)
Strobe/Lamp Enabled: No (USB2+H05261)
Correct for Detector Non-linearity: No (USB2+H05261)
Correct for Stray Light: No (USB2+H05261)
Number of Pixels in Processed Spectrum: 2048
>>>>>Begin Processed Spectral Data<<<<<
365.73	250.44
365.92	250.44
366.12	250.44
366.32	112.35
366.52	91.28
366.72	161.50
366.91	95.96
367.11	117.03
367.31	98.30
367.51	114.69
367.70	77.24
367.90	168.52
368.10	42.13
368.30	220.01
368.49	110.01
368.69	119.37
368.89	154.48
369.09	159.16
369.28	142.77
369.48	142.77
369.68	149.79
369.87	241.08
370.07	229.37
370.27	245.76
370.47	341.72
370.66	594.50
370.86	603.86
371.06	641.31
371.25	620.24
371.45	643.65
371.65	631.94
371.84	741.95
372.04	706.84
372.24	744.29
372.44	732.59
372.63	725.57
372.83	805.14
373.03	711.52
373.22	709.18
373.42	727.91
373.62	774.72
373.81	823.87
374.01	805.14
374.21	753.65
374.40	781.74
374.60	823.87
374.79	835.57
374.99	767.70
375.19	894.08
375.38	847.27
375.58	840.25
375.78	931.53
375.97	880.04
376.17	976.00
376.37	791.10
376.56	889.40
376.76	842.59
376.95	875.36
377.15	873.02
377.35	851.96
377.54	973.66
377.74	950.26
377.93	833.23
378.13	926.85
378.33	954.94
378.52	873.02
378.72	999.41
378.91	943.24
379.11	947.92
379.31	968.98
379.50	992.39
379.70	950.26
379.89	997.07
380.09	999.41
380.28	1034.52
380.48	950.26
380.68	908.13
380.87	992.39
381.07	957.28
381.26	1008.77
381.46	983.02
381.65	1036.86
381.85	992.39
382.04	992.39
382.24	992.39
382.43	1025.15
382.63	992.39
382.83	1041.54
383.02	1090.69
383.22	1153.88
383.41	1095.37
383.61	1135.16
383.80	1116.44
384.00	1086.01
384.19	1158.57
384.39	1188.99
384.58	1132.82
384.78	1128.14
384.97	1188.99
385.17	1156.22
385.36	1210.06
385.56	1188.99
385.75	1181.97
385.95	1179.63
386.14	1130.48
386.34	1111.75
386.53	1144.52
386.72	1226.44
386.92	1188.99
387.11	1174.95
387.31	1158.57
387.50	1193.67
387.70	1242.82
387.89	1313.04
388.09	1163.25
388.28	1214.74
388.48	1214.74
388.67	1371.55
388.86	1313.04
389.06	1327.08
389.25	1296.66
389.45	1427.73
389.64	1359.85
389.84	1362.19
390.03	1336.45
390.22	1329.42
390.42	1460.49
390.61	1390.28
390.81	1434.75
391.00	1432.41
391.19	1390.28
391.39	1409.00
391.58	1413.68
391.78	1444.11
391.97	1472.20
392.16	1432.41
392.36	1483.90
392.55	1554.12
392.75	1474.54
392.94	1568.16
393.13	1568.16
393.33	1504.96
393.52	1540.07
393.71	1654.76
393.91	1610.29
394.10	1596.25
394.29	1631.35
394.49	1500.28
394.68	1579.86
394.88	1535.39
395.07	1687.53
395.26	1710.93
395.46	1785.83
395.65	1696.89
395.84	1820.94
396.04	1769.44
396.23	1905.20
396.42	1696.89
396.62	1746.04
396.81	1764.76
397.00	1820.94
397.19	1832.64
397.39	1732.00
397.58	1834.98
397.77	1813.92
397.97	1884.13
398.16	1860.73
398.35	1827.96
398.55	1959.03
398.74	1849.02
398.93	1905.20
399.12	1933.28
399.32	1792.85
399.51	2036.27
399.70	1954.35
399.90	1959.03
400.09	1947.33
400.28	2005.84
400.47	2022.22
400.67	2015.20
400.86	2050.31
401.05	2029.24
401.24	2066.69
401.44	2129.89
401.63	2019.88
401.82	2153.29
402.01	2129.89
402.21	2153.29
402.40	2202.44
402.59	2291.38
402.78	2165.00
402.97	2277.34
403.17	2310.11
403.36	2235.21
403.55	2312.45
403.74	2345.22
403.93	2289.04
404.13	2420.11
404.32	2298.41
404.51	2352.24
404.70	2389.69
404.89	2359.26
405.09	2523.10
405.28	2490.33
405.47	2516.08
405.66	2588.63
405.85	2448.20
406.05	2506.71
406.24	2567.57
406.43	2415.43
406.62	2612.04
406.81	2726.72
407.00	2541.82
407.20	2597.99
407.39	2555.86
407.58	2654.17
407.77	2771.19
407.96	2899.92
408.15	2722.04
408.34	2813.32
408.54	2705.66
408.73	2813.32
408.92	2892.90
409.11	2883.54
409.30	2857.79
409.49	2920.99
409.68	2988.86
409.87	2974.82
410.07	2979.50
410.26	2913.97
410.45	3063.76
410.64	2956.10
410.83	3124.62
411.02	3173.77
411.21	3222.92
411.40	3178.45
411.59	3176.11
411.78	3239.30
411.98	3124.62
412.17	3368.03
412.36	3417.18
412.55	3311.86
412.74	3456.97
412.93	3435.91
413.12	3351.65
413.31	3576.34
413.50	3555.27
413.69	3538.89
413.88	3618.47
414.07	3480.38
414.26	3618.47
414.45	3604.42
414.64	3588.04
414.83	3763.58
415.02	3794.01
415.22	3777.62
415.41	3960.19
415.60	3934.44
415.79	3913.38
415.98	3999.98
416.17	3936.78
416.36	3922.74
416.55	3964.87
416.74	4018.70
416.93	4175.52
417.12	4210.62
417.31	4189.56
417.50	4119.34
417.69	4325.31
417.88	4320.63
418.07	4301.90
418.26	4243.39
418.45	4498.51
418.64	4559.36
418.83	4503.19
419.02	4339.35
419.21	4517.23
419.39	4585.11
419.58	4528.94
419.77	4561.70
419.96	4498.51
420.15	4690.43
420.34	4578.09
420.53	4643.62
420.72	4814.48
420.91	4688.09
421.10	4751.29
421.29	4772.35
421.48	4709.16
421.67	4861.29
421.86	4610.86
422.05	4833.21
422.24	4910.44
422.43	4887.04
422.61	4999.38
422.80	5078.96
422.99	4868.31
423.18	5057.90
423.37	5041.51
423.56	5006.41
423.75	4823.84
423.94	4706.82
424.13	4444.68
424.32	4674.05
424.50	5036.83
424.69	5198.33
424.88	5132.79
425.07	4980.66
425.26	5090.67
425.45	4919.81
425.64	4940.87
425.83	5006.41
426.01	5121.09
426.20	5186.63
426.39	5198.33
426.58	5048.54
426.77	5006.41
426.96	5273.23
427.15	5116.41
427.33	5121.09
427.52	5050.88
427.71	5238.12
427.90	5259.18
428.09	5280.25
428.28	5430.04
428.46	5331.74
428.65	5289.61
428.84	5533.03
429.03	5565.79
429.22	5334.08
429.40	5551.75
429.59	5352.81
429.78	5233.44
429.97	5266.21
430.16	5385.57
430.34	5612.60
430.53	5692.18
430.72	5673.46
430.91	5584.52
431.10	5605.58
431.28	5724.95
431.47	5802.19
431.66	5900.49
431.85	5881.77
432.03	5895.81
432.22	5987.09
432.41	5865.38
432.60	5799.85
432.79	5909.85
432.97	6029.22
433.16	6232.85
433.35	5944.96
433.54	5994.11
433.72	6139.23
433.91	5935.60
434.10	6204.76
434.28	6092.41
434.47	6162.63
434.66	6101.78
434.85	6310.08
435.03	6289.02
435.22	6293.70
435.41	6509.03
435.59	6331.15
435.78	6317.11
435.97	6445.84
436.16	6392.00
436.34	6464.56
436.53	6581.59
436.72	6717.34
436.90	6373.28
437.09	6707.98
437.28	6553.50
437.46	6551.16
437.65	6623.72
437.84	6888.20
438.02	6675.21
438.21	6717.34
438.40	6698.61
438.58	6789.89
438.77	7059.06
438.96	7164.38
439.14	7215.87
439.33	7393.75
439.52	7218.21
439.70	7255.66
439.89	7470.99
440.08	7316.51
440.26	7576.31
440.45	7389.07
440.63	7499.08
440.82	7655.89
441.01	7576.31
441.19	7691.00
441.38	7733.13
441.57	7709.72
441.75	7803.35
441.94	7625.47
442.12	7962.50
442.31	8215.28
442.50	8168.47
442.68	7866.54
442.87	8241.03
443.05	8234.00
443.24	8074.85
443.43	8306.56
443.61	8332.31
443.80	8444.65
443.98	8025.70
444.17	7950.80
444.35	8145.06
444.54	8510.19
444.73	8196.56
444.91	8252.73
445.10	8531.25
445.28	8292.52
445.47	8119.32
445.65	8542.96
445.84	8531.25
446.02	8379.12
446.21	8442.31
446.39	8327.63
446.58	8519.55
446.77	8449.33
446.95	8475.08
447.14	8439.97
447.32	8624.87
447.51	8446.99
447.69	8505.51
447.88	8538.27
448.06	8659.98
448.25	8580.40
448.43	8631.90
448.62	8617.85
448.80	8425.93
448.99	8844.88
449.17	8690.41
449.36	8641.26
449.54	8894.04
449.73	8931.48
449.91	9071.92
450.10	8793.39
450.28	9116.39
450.46	9006.38
450.65	8973.61
450.83	9050.85
451.02	9109.36
451.20	9188.94
451.39	9123.41
451.57	9090.64
451.76	9062.55
451.94	9247.46
452.13	9233.41
452.31	9392.57
452.49	9219.37
452.68	9364.48
452.86	9385.55
453.05	9696.84
453.23	9607.90
453.42	9460.45
453.60	9270.86
453.78	9628.96
453.97	9432.36
454.15	9544.70
454.34	9605.56
454.52	9696.84
454.70	9774.08
454.89	9659.39
455.07	9928.55
455.26	9928.55
455.44	10160.27
455.62	9998.77
455.81	10106.43
455.99	10087.71
456.17	10246.87
456.36	10181.33
456.54	10349.85
456.73	10015.15
456.91	10326.44
457.09	10387.30
457.28	10487.94
457.46	10490.28
457.64	10604.97
457.83	10429.43
458.01	10279.63
458.19	10824.98
458.38	10714.97
458.56	10663.48
458.74	10656.46
458.93	11037.97
459.11	10518.37
459.29	10815.62
459.48	10874.13
459.66	10743.06
459.84	11108.18
460.03	11035.63
460.21	10986.47
460.39	10801.57
460.57	11080.10
460.76	11068.39
460.94	11183.08
461.12	11131.59
461.31	11164.36
461.49	11173.72
461.67	11297.77
461.85	11520.12
462.04	11538.84
462.22	11974.18
462.40	11625.44
462.59	11506.07
462.77	11492.03
462.95	11974.18
463.13	11613.74
463.32	11784.60
463.50	11737.79
463.68	11714.38
463.86	11833.75
464.05	11473.31
464.23	11756.51
464.41	12042.06
464.59	11651.19
464.78	12180.15
464.96	11906.31
465.14	11943.75
465.32	12004.61
465.50	12056.10
465.69	12381.43
465.87	12245.68
466.05	11948.43
466.23	12149.72
466.41	12360.37
466.60	12484.42
466.78	12210.57
466.96	12280.79
467.14	12409.52
467.32	12463.35
467.51	12582.72
467.69	12081.85
467.87	12418.88
468.05	12795.71
468.23	12519.53
468.41	12568.68
468.60	12629.53
468.78	12994.65
468.96	12755.92
469.14	12898.69
469.32	12844.86
469.50	12720.81
469.69	13144.45
469.87	13268.50
470.05	13013.38
470.23	13303.60
470.41	12915.08
470.59	13341.05
470.77	13317.65
470.95	13186.58
471.14	13736.60
471.32	13273.18
471.50	13542.34
471.68	13666.39
471.86	13568.09
472.04	13783.41
472.22	14059.60
472.40	13886.40
472.58	14160.24
472.77	13806.82
472.95	14204.71
473.13	14707.93
473.31	14040.87
473.49	14223.44
473.67	14108.75
473.85	14403.66
474.03	14618.99
474.21	14658.78
474.39	14867.08
474.57	14637.71
474.75	14930.28
474.93	14815.59
475.12	15035.60
475.30	15295.40
475.48	14869.42
475.66	15169.01
475.84	15154.97
476.02	15391.36
476.20	15410.09
476.38	15845.43
476.56	16496.10
476.74	15934.37
476.92	16060.76
477.10	16009.26
477.28	16135.65
477.46	16336.94
477.64	16519.50
477.82	16793.34
478.00	17224.00
478.18	16683.34
478.36	17184.21
478.54	16999.31
478.72	17228.68
478.90	17280.18
479.08	17563.38
479.26	17727.22
479.44	17965.95
479.62	17888.71
479.80	18022.12
479.98	18185.96
480.16	18738.33
480.34	18424.70
480.52	18719.60
480.70	18602.58
480.88	18506.62
481.06	18899.83
481.24	18998.13
481.41	19267.29
481.59	19683.91
481.77	19866.47
481.95	19681.56
482.13	19836.04
482.31	20039.67
482.49	20299.47
482.67	20259.68
482.85	20397.77
483.03	20833.11
483.21	20898.64
483.39	20875.24
483.57	21048.44
483.74	21191.21
483.92	21202.91
484.10	21507.18
484.28	22012.74
484.46	21757.62
484.64	22553.40
484.82	22050.19
485.00	22363.82
485.18	22485.53
485.35	23063.64
485.53	22691.49
485.71	22895.12
485.89	23784.52
486.07	23477.91
486.25	23527.06
486.43	23843.04
486.61	23939.00
486.78	24086.45
486.96	24355.61
487.14	24563.92
487.32	24898.62
487.50	25280.13
487.68	25001.60
487.85	25450.99
488.03	25443.96
488.21	26036.12
488.39	25759.94
488.57	26078.25
488.75	26391.88
488.92	26483.16
489.10	26810.84
489.28	27021.48
489.46	27321.07
489.64	27262.56
489.81	27999.83
489.99	27641.73
490.17	27690.88
490.35	28053.66
490.53	28371.97
490.70	28418.78
490.88	28203.46
491.06	28919.66
491.24	28809.65
491.41	29102.22
491.59	29575.01
491.77	29406.49
491.95	29944.81
492.13	29930.77
492.30	30352.07
492.48	30008.01
492.66	30132.06
492.84	30866.98
493.01	30979.33
493.19	30703.15
493.37	31318.71
493.54	31189.98
493.72	31421.69
493.90	31723.62
494.08	31697.88
494.25	32039.59
494.43	32128.53
494.61	32596.64
494.79	32687.92
494.96	32364.93
495.14	32676.22
495.32	33521.15
495.49	33427.53
495.67	33369.02
495.85	33394.76
496.02	33867.55
496.20	34235.02
496.38	34569.71
496.55	34405.88
496.73	34881.00
496.91	34660.99
497.09	35126.76
497.26	34986.33
497.44	35288.26
497.62	35077.61
497.79	36392.99
497.97	35576.14
498.14	36226.81
498.32	36446.82
498.50	36662.15
498.67	36762.79
498.85	36416.40
499.03	36926.63
499.20	36802.58
499.38	37041.32
499.56	37022.59
499.73	37429.85
499.91	37535.17
500.08	37921.36
500.26	37668.58
500.44	37518.79
500.61	37949.45
500.79	38000.94
500.97	38244.35
501.14	38696.08
501.32	38490.11
501.49	38836.51
501.67	38213.93
501.84	39161.84
502.02	39089.29
502.20	39089.29
502.37	39419.30
502.55	39442.71
502.72	39604.20
502.90	39828.90
503.07	39889.75
503.25	39681.44
503.43	39971.67
503.60	40570.85
503.78	40725.32
503.95	40587.23
504.13	40704.26
504.30	40708.94
504.48	41088.10
504.65	40701.92
504.83	41343.22
505.01	41289.39
505.18	41319.82
505.36	41698.98
505.53	41537.49
505.71	41748.14
505.88	41862.82
506.06	41921.34
506.23	42499.45
506.41	42036.02
506.58	42457.32
506.76	42478.38
506.93	42670.31
507.11	42843.51
507.28	43161.82
507.46	43002.66
507.63	43005.00
507.81	43426.30
507.98	43122.03
508.16	43580.78
508.33	43342.04
508.50	43796.10
508.68	43749.29
508.85	44252.51
509.03	43945.90
509.20	44184.63
509.38	44306.34
509.55	44807.22
509.73	44928.92
509.90	45214.47
510.08	44446.77
510.25	44865.73
510.42	44573.16
510.60	45055.31
510.77	45235.53
510.95	45628.74
511.12	45219.15
511.30	45326.81
511.47	45642.79
511.64	45675.55
511.82	46005.57
511.99	46052.38
512.17	46192.81
512.34	46312.18
512.51	46600.07
512.69	46284.09
512.86	46906.68
513.04	46841.14
513.21	46986.25
513.38	46794.33
513.56	47203.92
513.73	46855.18
513.90	46843.48
514.08	47030.72
514.25	47299.89
514.43	47889.70
514.60	48128.44
514.77	47760.97
514.95	47920.13
515.12	47606.50
515.29	48102.69
515.47	48205.67
515.64	48296.95
515.81	47906.08
515.99	48711.23
516.16	48491.22
516.33	48802.51
516.51	49109.12
516.68	48561.44
516.85	48844.64
517.03	49123.16
517.20	49003.80
517.37	48973.37
517.54	49474.24
517.72	49193.38
517.89	49291.68
518.06	49415.73
518.24	49535.10
518.41	49422.75
518.58	49422.75
518.75	49471.90
518.93	49902.56
519.10	49535.10
519.27	50136.62
519.45	50096.83
519.62	50206.83
519.79	50078.10
519.96	50244.28
520.14	50190.45
520.31	50028.95
520.48	50703.03
520.65	50581.32
520.83	50862.18
521.00	50656.21
521.17	50504.08
521.34	50878.57
521.52	51004.95
521.69	50960.48
521.86	51246.03
522.03	51339.65
522.20	51243.69
522.38	51489.45
522.55	51337.31
522.72	51597.11
522.89	51709.46
523.07	51547.96
523.24	51903.72
523.41	51845.21
523.58	51751.59
523.75	52147.14
523.92	52083.94
524.10	52081.60
524.27	52526.30
524.44	52121.39
524.61	52383.53
524.78	52488.85
524.96	52428.00
525.13	52472.47
525.30	52512.26
525.47	52605.88
525.64	52573.11
525.81	52697.16
525.98	52650.35
526.16	52786.10
526.33	52832.91
526.50	53024.84
526.67	53008.45
526.84	53200.38
527.01	52542.69
527.18	53045.90
527.36	53268.25
527.53	53286.98
527.70	53230.80
527.87	53478.90
528.04	53378.26
528.21	53696.57
528.38	53338.47
528.55	53712.95
528.72	53689.55
528.89	53738.70
529.07	53755.08
529.24	53338.47
529.41	53764.45
529.58	54038.29
529.75	53970.41
529.92	53872.11
530.09	53986.80
530.26	54031.27
530.43	54335.54
530.60	53932.96
530.77	53916.58
530.94	54277.02
531.11	54218.51
531.28	54204.47
531.46	54642.15
531.63	54487.67
531.80	54529.80
531.97	54700.66
532.14	54520.44
532.31	54688.96
532.48	54611.72
532.65	54941.74
532.82	54707.68
532.99	54731.09
533.16	54478.31
533.33	54794.28
533.50	55227.28
533.67	55086.85
533.84	54969.82
534.01	55082.17
534.18	54965.14
534.35	55510.49
534.52	55269.41
534.69	55547.93
534.86	55512.83
535.03	55281.11
535.20	55484.74
535.37	55400.48
535.54	55716.45
535.71	55253.03
535.88	55653.26
536.05	55725.81
536.22	55529.21
536.38	55725.81
536.55	55821.78
536.72	55971.57
536.89	55751.56
537.06	55760.92
537.23	56011.36
537.40	55700.07
537.57	55959.87
537.74	56182.22
537.91	56119.02
538.08	56177.54
538.25	55798.37
538.42	55985.61
538.59	56140.09
538.75	56233.71
538.92	56182.22
539.09	56526.28
539.26	56252.44
539.43	56481.81
539.60	56392.87
539.77	56367.12
539.94	56685.43
540.11	56280.52
540.28	56762.67
540.44	56559.05
540.61	56425.64
540.78	56418.61
540.95	56659.69
541.12	56697.14
541.29	56608.20
541.46	56643.30
541.62	56736.93
541.79	56875.02
541.96	56306.27
542.13	56809.48
542.30	56755.65
542.47	56968.64
542.63	56970.98
542.80	57198.01
542.97	57368.87
543.14	57375.89
543.31	57160.56
543.48	57258.87
543.64	57553.77
543.81	57490.58
543.98	57588.88
544.15	57214.40
544.32	57801.87
544.48	57724.63
544.65	57450.79
544.82	57729.31
544.99	57331.42
545.16	57638.03
545.32	57181.63
545.49	57668.46
545.66	57797.19
545.83	57836.98
546.00	57724.63
546.16	57771.44
546.33	57712.93
546.50	57968.05
546.67	57787.83
546.83	57542.07
547.00	57886.13
547.17	58019.54
547.34	57902.51
547.50	58113.16
547.67	58260.62
547.84	58012.52
548.00	58279.34
548.17	58248.91
548.34	58209.12
548.51	58347.21
548.67	58447.86
548.84	58394.03
549.01	58375.30
549.18	58195.08
549.34	58377.64
549.51	58443.18
549.68	58410.41
549.84	58529.78
550.01	58621.06
550.18	58452.54
550.34	58719.36
550.51	58827.02
550.68	58567.23
550.84	58213.80
551.01	58756.81
551.18	58688.93
551.34	58705.32
551.51	58691.27
551.68	58794.26
551.84	58487.65
552.01	58625.74
552.18	58576.59
552.34	58677.23
552.51	59173.42
552.68	58726.38
552.84	58918.31
553.01	59096.19
553.18	59100.87
553.34	59140.66
553.51	58702.98
553.67	58890.22
553.84	59035.33
554.01	59075.12
554.17	58908.94
554.34	59241.30
554.51	59206.19
554.67	59241.30
554.84	59117.25
555.00	59105.55
555.17	59161.72
555.33	59320.88
555.50	59072.78
555.67	59126.61
555.83	59096.19
556.00	59327.90
556.16	59505.78
556.33	59531.53
556.50	59231.94
556.66	59470.67
556.83	59100.87
556.99	59561.95
557.16	59545.57
557.32	59442.59
557.49	59819.41
557.65	59276.41
557.82	59753.88
557.98	59524.50
558.15	59639.19
558.32	59540.89
558.48	59524.50
558.65	59367.69
558.81	59515.14
558.98	59730.47
559.14	59810.05
559.31	59721.11
559.47	60051.12
559.64	59927.08
559.80	59887.29
559.97	59842.82
560.13	59793.67
560.30	59746.86
560.46	59779.62
560.63	59887.29
560.79	59896.65
560.96	60186.88
561.12	60039.42
561.29	60060.49
561.45	60095.60
561.61	59831.11
561.78	59664.94
561.94	59948.14
562.11	60093.25
562.27	59969.21
562.44	60247.73
562.60	60116.66
562.77	60165.81
562.93	59976.23
563.10	60004.31
563.26	60088.57
563.42	60463.06
563.59	60116.66
563.75	60240.71
563.92	59955.16
564.08	60196.24
564.24	60254.75
564.41	60343.69
564.57	60420.93
564.74	60156.45
564.90	60430.29
565.07	60212.62
565.23	60226.66
565.39	60467.74
565.56	60240.71
565.72	60161.13
565.88	60343.69
566.05	60058.15
566.21	60306.24
566.38	60273.48
566.54	60388.16
566.70	60423.27
566.87	60324.97
567.03	60130.70
567.19	60477.10
567.36	60385.82
567.52	60589.45
567.68	60678.39
567.85	60603.49
568.01	60502.85
568.17	60371.78
568.34	60537.96
568.50	60355.39
568.66	60402.21
568.83	60423.27
568.99	60542.64
569.15	60427.95
569.32	60381.14
569.48	60339.01
569.64	60673.71
569.81	60662.00
569.97	60404.55
570.13	60446.68
570.30	60537.96
570.46	60547.32
570.62	60776.69
570.78	60598.81
570.95	60638.60
571.11	60566.04
571.27	60528.59
571.43	60463.06
571.60	60982.66
571.76	60772.01
571.92	60762.65
572.09	60743.92
572.25	60636.26
572.41	60594.13
572.57	60734.56
572.74	60786.05
572.90	60715.84
573.06	60764.99
573.22	60615.19
573.38	60732.22
573.55	60697.11
573.71	60867.97
573.87	60755.63
574.03	60853.93
574.20	60912.44
574.36	60837.54
574.52	60999.04
574.68	60779.03
574.84	61085.64
575.01	60837.54
575.17	60882.02
575.33	60886.70
575.49	60718.18
575.65	60919.46
575.82	61155.86
575.98	60884.36
576.14	60977.98
576.30	61048.19
576.46	60907.76
576.62	60844.57
576.79	60701.79
576.95	60732.22
577.11	60816.48
577.27	60985.00
577.43	60858.61
577.59	60767.33
577.75	60926.49
577.92	60996.70
578.08	60882.02
578.24	61027.13
578.40	61144.16
578.56	61195.65
578.72	60970.96
578.88	61284.59
579.04	61160.54
579.21	61095.00
579.37	61080.96
579.53	61118.41
579.69	60903.08
579.85	61008.40
580.01	60839.89
580.17	60910.10
580.33	61102.03
580.49	61118.41
580.65	61057.56
580.82	60999.04
580.98	60893.72
581.14	60863.29
581.30	61190.97
581.46	61017.77
581.62	60863.29
581.78	60779.03
581.94	60865.63
582.10	61123.09
582.26	61113.73
582.42	61139.47
582.58	61062.24
582.74	61034.15
582.90	60996.70
583.06	61174.58
583.22	60839.89
583.38	61036.49
583.54	61080.96
583.70	61020.11
583.86	61242.46
584.02	60872.65
584.18	61261.18
584.34	61059.90
584.50	61148.84
584.66	60900.74
584.82	61006.06
584.98	61268.20
585.14	61151.18
585.30	60919.46
585.46	61073.94
585.62	61113.73
585.78	61345.44
585.94	61064.58
586.10	61106.71
586.26	61282.25
586.42	61066.92
586.58	61247.14
586.74	61165.22
586.90	61111.39
587.06	61167.56
587.22	61020.11
587.38	61181.60
587.54	61270.54
587.70	61441.40
587.86	61251.82
588.02	61247.14
588.18	61401.61
588.34	61043.51
588.49	61155.86
