SpectraSuite Data File
++++++++++++++++++++++++++++++++++++
Date: Fri Oct 25 11:33:48 EDT 2013
User: price-jones
Dark Spectrum Present: No
Reference Spectrum Present: No
Number of Sampled Component Spectra: 1
Spectrometers: USB2+H05261
Integration Time (usec): 100000 (USB2+H05261)
Spectra Averaged: 1 (USB2+H05261)
Boxcar Smoothing: 0 (USB2+H05261)
Correct for Electrical Dark: No (USB2+H05261)
Strobe/Lamp Enabled: No (USB2+H05261)
Correct for Detector Non-linearity: No (USB2+H05261)
Correct for Stray Light: No (USB2+H05261)
Number of Pixels in Processed Spectrum: 2048
>>>>>Begin Processed Spectral Data<<<<<
365.73	315.97
365.92	315.97
366.12	315.97
366.32	182.56
366.52	173.20
366.72	224.69
366.91	159.16
367.11	170.86
367.31	163.84
367.51	212.99
367.70	166.18
367.90	161.50
368.10	117.03
368.30	198.95
368.49	229.37
368.69	250.44
368.89	135.75
369.09	173.20
369.28	180.22
369.48	175.54
369.68	191.92
369.87	168.52
370.07	262.14
370.27	292.57
370.47	320.65
370.66	472.79
370.86	517.26
371.06	512.58
371.25	571.09
371.45	528.96
371.65	653.01
371.84	589.82
372.04	521.94
372.24	468.11
372.44	526.62
372.63	608.54
372.83	592.16
373.03	510.24
373.22	545.34
373.42	688.12
373.62	631.94
373.81	617.90
374.01	594.50
374.21	699.82
374.40	655.35
374.60	629.60
374.79	695.14
374.99	669.39
375.19	599.18
375.38	683.44
375.58	624.92
375.78	725.57
375.97	706.84
376.17	664.71
376.37	657.69
376.56	753.65
376.76	711.52
376.95	692.80
377.15	709.18
377.35	697.48
377.54	716.20
377.74	636.63
377.93	631.94
378.13	662.37
378.33	751.31
378.52	727.91
378.72	667.05
378.91	690.46
379.11	755.99
379.31	746.63
379.50	655.35
379.70	753.65
379.89	774.72
380.09	718.54
380.28	770.04
380.48	655.35
380.68	727.91
380.87	739.61
381.07	723.23
381.26	767.70
381.46	777.06
381.65	784.08
381.85	758.33
382.04	830.89
382.24	837.91
382.43	741.95
382.63	709.18
382.83	772.38
383.02	809.83
383.22	798.12
383.41	807.48
383.61	851.96
383.80	748.97
384.00	830.89
384.19	739.61
384.39	800.46
384.58	772.38
384.78	908.13
384.97	770.04
385.17	837.91
385.36	830.89
385.56	814.51
385.75	844.93
385.95	849.61
386.14	861.32
386.34	861.32
386.53	917.49
386.72	837.91
386.92	847.27
387.11	943.24
387.31	936.21
387.50	793.44
387.70	873.02
387.89	924.51
388.09	887.06
388.28	912.81
388.48	961.96
388.67	931.53
388.86	898.77
389.06	936.21
389.25	922.17
389.45	1025.15
389.64	908.13
389.84	959.62
390.03	952.60
390.22	992.39
390.42	978.34
390.61	950.26
390.81	980.68
391.00	931.53
391.19	966.64
391.39	1048.56
391.58	1018.13
391.78	997.07
391.97	1118.78
392.16	1020.47
392.36	1053.24
392.55	1057.92
392.75	992.39
392.94	985.37
393.13	987.71
393.33	1034.52
393.52	1093.03
393.71	1109.41
393.91	1078.99
394.10	1043.88
394.29	1165.59
394.49	1069.62
394.68	1083.67
394.88	1151.54
395.07	1144.52
395.26	1165.59
395.46	1186.65
395.65	1181.97
395.84	1203.04
396.04	1240.48
396.23	1188.99
396.42	1116.44
396.62	1196.01
396.81	1224.10
397.00	1270.91
397.19	1284.95
397.39	1233.46
397.58	1247.51
397.77	1217.08
397.97	1249.85
398.16	1252.19
398.35	1294.32
398.55	1214.74
398.74	1320.06
398.93	1303.68
399.12	1343.47
399.32	1352.83
399.51	1350.49
399.70	1348.15
399.90	1291.98
400.09	1343.47
400.28	1380.92
400.47	1460.49
400.67	1420.71
400.86	1469.86
401.05	1427.73
401.24	1441.77
401.44	1418.36
401.63	1434.75
401.82	1439.43
402.01	1420.71
402.21	1516.67
402.40	1504.96
402.59	1460.49
402.78	1481.56
402.97	1495.60
403.17	1439.43
403.36	1486.24
403.55	1577.52
403.74	1636.03
403.93	1650.08
404.13	1701.57
404.32	1586.88
404.51	1596.25
404.70	1629.01
404.89	1675.82
405.09	1661.78
405.28	1652.42
405.47	1750.72
405.66	1687.53
405.85	1682.85
406.05	1853.70
406.24	1706.25
406.43	1743.70
406.62	1736.68
406.81	1799.87
407.00	1781.15
407.20	1832.64
407.39	1746.04
407.58	1846.68
407.77	1802.21
407.96	1954.35
408.15	1893.49
408.34	1827.96
408.54	2003.50
408.73	1937.96
408.92	1952.01
409.11	1949.67
409.30	2076.06
409.49	1888.81
409.68	2078.40
409.87	2132.23
410.07	2017.54
410.26	2043.29
410.45	2080.74
410.64	2043.29
410.83	2083.08
411.02	2085.42
411.21	2155.63
411.40	2127.55
411.59	2282.02
411.78	2155.63
411.98	2174.36
412.17	2277.34
412.36	2298.41
412.55	2300.75
412.74	2380.32
412.93	2448.20
413.12	2319.47
413.31	2321.81
413.50	2459.90
413.69	2377.98
413.88	2497.35
414.07	2321.81
414.26	2392.03
414.45	2562.89
414.64	2581.61
414.83	2534.80
415.02	2626.08
415.22	2560.55
415.41	2530.12
415.60	2623.74
415.79	2708.00
415.98	2700.98
416.17	2712.68
416.36	2787.58
416.55	2700.98
416.74	2813.32
416.93	2815.66
417.12	2796.94
417.31	2874.18
417.50	2899.92
417.69	2923.33
417.88	2995.89
418.07	2937.37
418.26	3002.91
418.45	3028.65
418.64	3045.04
418.83	3080.14
419.02	3070.78
419.21	3077.80
419.39	3066.10
419.58	3012.27
419.77	3129.30
419.96	3141.00
420.15	3262.71
420.34	3180.79
420.53	3112.91
420.72	3145.68
420.91	3187.81
421.10	3206.53
421.29	3246.32
421.48	3236.96
421.67	3370.37
421.86	3417.18
422.05	3412.50
422.24	3316.54
422.43	3325.90
422.61	3440.59
422.80	3485.06
422.99	3475.70
423.18	3421.86
423.37	3485.06
423.56	3445.27
423.75	3398.46
423.94	3314.20
424.13	3110.57
424.32	3269.73
424.50	3417.18
424.69	3466.33
424.88	3630.17
425.07	3353.99
425.26	3314.20
425.45	3482.72
425.64	3316.54
425.83	3386.76
426.01	3538.89
426.20	3578.68
426.39	3534.21
426.58	3501.44
426.77	3459.31
426.96	3508.46
427.15	3574.00
427.33	3674.64
427.52	3524.85
427.71	3588.04
427.90	3641.87
428.09	3742.52
428.28	3840.82
428.46	3688.68
428.65	3702.73
428.84	3700.39
429.03	3719.11
429.22	3630.17
429.40	3679.32
429.59	3625.49
429.78	3723.79
429.97	3595.06
430.16	3796.35
430.34	3770.60
430.53	3857.20
430.72	3896.99
430.91	3822.09
431.10	3758.90
431.28	4067.85
431.47	3985.93
431.66	4119.34
431.85	3882.95
432.03	3925.08
432.22	4182.54
432.41	4039.76
432.60	4095.94
432.79	3946.14
432.97	4063.17
433.16	4105.30
433.35	4053.81
433.54	4051.47
433.72	4191.90
433.91	4255.09
434.10	4201.26
434.28	4109.98
434.47	4236.37
434.66	4353.40
434.85	4238.71
435.03	4327.65
435.22	4224.67
435.41	4435.32
435.59	4308.93
435.78	4456.38
435.97	4264.46
436.16	4430.63
436.34	4332.33
436.53	4557.02
436.72	4547.66
436.90	4510.21
437.09	4545.32
437.28	4416.59
437.46	4645.96
437.65	4617.88
437.84	4477.44
438.02	4594.47
438.21	4547.66
438.40	4400.21
438.58	4830.87
438.77	4858.95
438.96	4641.28
439.14	4758.31
439.33	4922.15
439.52	4999.38
439.70	4779.37
439.89	4997.04
440.08	4985.34
440.26	5025.13
440.45	5008.75
440.63	4964.28
440.82	5121.09
441.01	5224.08
441.19	5240.46
441.38	5205.35
441.57	5247.48
441.75	5416.00
441.94	5308.34
442.12	5320.04
442.31	5565.79
442.50	5507.28
442.68	5284.93
442.87	5385.57
443.05	5355.15
443.24	5631.33
443.43	5437.06
443.61	5495.58
443.80	5769.42
443.98	5408.98
444.17	5350.46
444.35	5579.84
444.54	5736.65
444.73	5673.46
444.91	5577.50
445.10	5565.79
445.28	5563.45
445.47	5535.37
445.65	5694.52
445.84	5802.19
446.02	5685.16
446.21	5734.31
446.39	5610.26
446.58	5830.27
446.77	5678.14
446.95	5640.69
447.14	5757.72
447.32	5734.31
447.51	5731.97
447.69	5722.61
447.88	5956.66
448.06	5708.57
448.25	5678.14
448.43	5823.25
448.62	5647.71
448.80	5699.20
448.99	5900.49
449.17	5966.03
449.36	5877.09
449.54	6024.54
449.73	6029.22
449.91	6139.23
450.10	5959.00
450.28	5991.77
450.46	6136.88
450.65	6146.25
450.83	6099.44
451.02	6272.64
451.20	6174.33
451.39	6230.51
451.57	6181.35
451.76	6111.14
451.94	6171.99
452.13	6155.61
452.31	6319.45
452.49	6272.64
452.68	6427.11
452.86	6307.74
453.05	6408.39
453.23	6436.47
453.42	6296.04
453.60	6129.86
453.78	6242.21
453.97	6317.11
454.15	6382.64
454.34	6249.23
454.52	6523.07
454.70	6684.57
454.89	6494.99
455.07	6609.67
455.26	6654.14
455.44	6593.29
455.62	6752.45
455.81	6722.02
455.99	6642.44
456.17	6705.63
456.36	6829.68
456.54	6874.15
456.73	6855.43
456.91	7091.82
457.09	6960.75
457.28	6827.34
457.46	6871.81
457.64	7176.08
457.83	7000.54
458.01	7049.69
458.19	7183.10
458.38	6958.41
458.56	7133.95
458.74	7138.63
458.93	7152.68
459.11	7304.81
459.29	7232.26
459.48	7279.07
459.66	7208.85
459.84	7548.23
460.03	7492.05
460.21	7431.20
460.39	7272.04
460.57	7646.53
460.76	7407.80
460.94	7454.61
461.12	7522.48
461.31	7487.37
461.49	7569.29
461.67	7454.61
461.85	7655.89
462.04	7714.41
462.22	8049.10
462.40	7655.89
462.59	7962.50
462.77	7796.32
462.95	7705.04
463.13	7644.19
463.32	7824.41
463.50	8032.72
463.68	7894.63
463.86	7840.79
464.05	7852.50
464.23	7847.82
464.41	7962.50
464.59	7822.07
464.78	8170.81
464.96	8004.63
465.14	7974.21
465.32	8154.43
465.50	8077.19
465.69	8322.94
465.87	8077.19
466.05	8032.72
466.23	8184.85
466.41	8079.53
466.60	8210.60
466.78	8336.99
466.96	8278.47
467.14	8278.47
467.32	8238.69
467.51	8252.73
467.69	8100.59
467.87	8304.22
468.05	8306.56
468.23	8002.29
468.41	8194.22
468.60	8477.42
468.78	8512.53
468.96	8578.06
469.14	8484.44
469.32	8685.73
469.50	8402.52
469.69	8540.61
469.87	8636.58
470.05	8678.71
470.23	8809.78
470.41	8884.67
470.59	8755.94
470.77	8863.61
470.95	8753.60
471.14	9114.05
471.32	8821.48
471.50	8938.51
471.68	8966.59
471.86	9104.68
472.04	8922.12
472.22	9291.93
472.40	9053.19
472.58	9345.76
472.77	9231.07
472.95	9427.68
473.13	9673.43
473.31	9556.41
473.49	9497.89
473.67	9294.27
473.85	9490.87
474.03	9767.06
474.21	9715.56
474.39	9692.16
474.57	9760.03
474.75	9928.55
474.93	9806.84
475.12	9994.09
475.30	9973.02
475.48	10047.92
475.66	10101.75
475.84	10040.90
476.02	10204.74
476.20	10188.35
476.38	10478.58
476.56	10626.03
476.74	10391.98
476.92	10689.23
477.10	10516.03
477.28	10810.93
477.46	10534.75
477.64	10775.83
477.82	10930.30
478.00	11147.97
478.18	10977.11
478.36	11154.99
478.54	11377.34
478.72	11337.56
478.90	11489.69
479.08	11566.93
479.26	11716.72
479.44	11744.81
479.62	11946.09
479.80	11756.51
479.98	11950.78
480.16	11925.03
480.34	12018.65
480.52	12278.45
480.70	12386.12
480.88	12044.40
481.06	12250.36
481.24	12402.50
481.41	12755.92
481.59	12828.48
481.77	12891.67
481.95	12943.16
482.13	13043.81
482.31	12889.33
482.49	13362.12
482.67	13310.63
482.85	13481.49
483.03	13373.82
483.21	13348.08
483.39	13572.77
483.57	13848.95
483.74	13769.37
483.92	14017.47
484.10	13958.96
484.28	14480.89
484.46	14291.31
484.64	14618.99
484.82	14443.45
485.00	14782.82
485.18	14953.68
485.35	15225.18
485.53	15016.88
485.71	15136.24
485.89	15477.96
486.07	15269.66
486.25	15775.21
486.43	15646.48
486.61	15721.38
486.78	16042.03
486.96	15990.54
487.14	16142.67
487.32	16301.83
487.50	16348.64
487.68	16514.82
487.85	16791.00
488.03	16629.51
488.21	16891.65
488.39	16870.58
488.57	16950.16
488.75	17109.32
488.92	17673.39
489.10	17617.21
489.28	17495.50
489.46	17488.48
489.64	17607.85
489.81	18164.90
489.99	17972.97
490.17	18291.29
490.35	18377.89
490.53	18455.12
490.70	18511.30
490.88	18408.31
491.06	19040.26
491.24	18881.10
491.41	19061.32
491.59	19185.37
491.77	19227.50
491.95	19311.76
492.13	19445.17
492.30	19627.73
492.48	19426.45
492.66	19749.44
492.84	20070.09
493.01	20229.25
493.19	19969.45
493.37	20383.73
493.54	20280.74
493.72	20407.13
493.90	20573.31
494.08	20978.22
494.25	20900.98
494.43	20879.92
494.61	20947.79
494.79	21378.45
494.96	21329.30
495.14	21589.10
495.32	21830.18
495.49	21631.23
495.67	21593.78
495.85	21958.91
496.02	22024.44
496.20	22068.91
496.38	22338.07
496.55	22410.63
496.73	23080.02
496.91	22831.93
497.09	22855.33
497.26	23124.49
497.44	22897.46
497.62	23080.02
497.79	23290.67
497.97	23271.95
498.14	23606.64
498.32	23882.83
498.50	23648.77
498.67	23931.98
498.85	23798.57
499.03	23936.66
499.20	24065.39
499.38	23824.31
499.56	24208.16
499.73	24505.41
499.91	24723.08
500.08	25226.29
500.26	24570.94
500.44	24964.15
500.61	25111.61
500.79	24697.33
500.97	24989.90
501.14	25312.89
501.32	25214.59
501.49	25130.33
501.67	25486.09
501.84	25572.69
502.02	25628.87
502.20	25701.42
502.37	25862.92
502.55	25947.18
502.72	25715.47
502.90	25624.18
503.07	25902.71
503.25	26209.32
503.43	25982.29
503.60	26581.46
503.78	26263.15
503.95	26459.76
504.13	26888.07
504.30	26829.56
504.48	26703.17
504.65	27262.56
504.83	27035.53
505.01	27147.87
505.18	27089.36
505.36	27419.38
505.53	26979.36
505.71	27360.86
505.88	27566.83
506.06	27026.17
506.23	27515.34
506.41	27400.65
506.58	27688.54
506.76	27749.39
506.93	28025.57
507.11	28203.46
507.28	28465.60
507.46	28297.08
507.63	28020.89
507.81	28472.62
507.98	28252.61
508.16	28477.30
508.33	28687.95
508.50	28421.13
508.68	28725.39
508.85	28971.15
509.03	29120.95
509.20	29097.54
509.38	29593.73
509.55	29287.12
509.73	29315.21
509.90	29750.55
510.08	29378.40
510.25	29490.75
510.42	29551.60
510.60	29874.60
510.77	29619.48
510.95	30433.99
511.12	29516.50
511.30	29804.38
511.47	29876.94
511.64	30127.38
511.82	30242.06
511.99	30279.51
512.17	30876.35
512.34	30258.45
512.51	30529.95
512.69	30981.67
512.86	30782.73
513.04	30696.13
513.21	31075.29
513.38	31309.35
513.56	31449.78
513.73	31194.66
513.90	31112.74
514.08	30995.71
514.25	31311.69
514.43	31765.75
514.60	31395.95
514.77	31580.85
514.95	31468.50
515.12	31576.17
515.29	31667.45
515.47	31751.71
515.64	32018.53
515.81	31976.40
515.99	32067.68
516.16	32606.00
516.33	32180.03
516.51	32650.47
516.68	32189.39
516.85	32535.79
517.03	32587.28
517.20	32694.94
517.37	32554.51
517.54	32980.49
517.72	32776.86
517.89	33141.99
518.06	32788.56
518.24	32673.88
518.41	32769.84
518.58	33003.89
518.75	33008.58
518.93	33521.15
519.10	33046.02
519.27	33570.30
519.45	33462.64
519.62	33954.15
519.79	33631.16
519.96	33654.56
520.14	33895.64
520.31	34094.58
520.48	34000.96
520.65	34012.66
520.83	34321.62
521.00	34560.35
521.17	34806.11
521.34	34232.68
521.52	34754.61
521.69	34401.19
521.86	34658.65
522.03	34752.27
522.20	34742.91
522.38	35079.95
522.55	35285.92
522.72	34911.43
522.89	35068.25
523.07	35412.31
523.24	35625.29
523.41	35381.88
523.58	35124.42
523.75	35597.21
523.92	35412.31
524.10	35431.03
524.27	35597.21
524.44	35831.26
524.61	35651.04
524.78	35531.67
524.96	35613.59
525.13	35777.43
525.30	36002.12
525.47	35910.84
525.64	35929.56
525.81	36168.30
525.98	36215.11
526.16	36713.64
526.33	36135.53
526.50	36657.47
526.67	36371.92
526.84	36165.96
527.01	36376.61
527.18	36774.50
527.36	36837.69
527.53	36561.51
527.70	37256.65
527.87	37151.32
528.04	36659.81
528.21	36898.55
528.38	36809.61
528.55	37514.11
528.72	37139.62
528.89	37092.81
529.07	37614.75
529.24	36877.48
529.41	37439.21
529.58	37574.96
529.75	37532.83
529.92	37436.87
530.09	37738.80
530.26	37366.65
530.43	37717.73
530.60	37312.82
530.77	37872.21
530.94	37874.55
531.11	37902.64
531.28	37801.99
531.46	37907.32
531.63	38281.80
531.80	38293.50
531.97	38403.51
532.14	38038.39
532.31	38330.95
532.48	38799.06
532.65	38326.27
532.82	38361.38
532.99	38705.44
533.16	38394.15
533.33	38635.22
533.50	38958.22
533.67	39192.27
533.84	38227.97
534.01	38574.37
534.18	38513.52
534.35	39550.37
534.52	39100.99
534.69	39147.80
534.86	39297.59
535.03	38986.30
535.20	39538.67
535.37	39330.36
535.54	39426.32
535.71	39498.88
535.88	39477.82
536.05	39955.29
536.22	39838.26
536.38	39466.11
536.55	39395.90
536.72	39721.23
536.89	39412.28
537.06	39606.55
537.23	40130.83
537.40	39885.07
537.57	39716.55
537.74	39964.65
537.91	40177.64
538.08	40163.59
538.25	39754.00
538.42	40495.95
538.59	40409.35
538.75	40437.44
538.92	40032.52
539.09	40421.05
539.26	40444.46
539.43	40062.95
539.60	40577.87
539.77	40594.25
539.94	40837.67
540.11	40620.00
540.28	40669.15
540.44	40554.46
540.61	40491.27
540.78	40823.62
540.95	41045.97
541.12	40673.83
541.29	40818.94
541.46	40886.82
541.62	40652.76
541.79	41249.60
541.96	40952.35
542.13	40942.99
542.30	41226.20
542.47	41404.08
542.63	41680.26
542.80	41560.89
542.97	41560.89
543.14	41600.68
543.31	41846.44
543.48	41596.00
543.64	42157.73
543.81	41918.99
543.98	42021.98
544.15	41769.20
544.32	42171.77
544.48	42672.65
544.65	42267.73
544.82	42085.17
544.99	41820.69
545.16	42419.87
545.32	41923.68
545.49	42579.03
545.66	42637.54
545.83	42724.14
546.00	42174.11
546.16	42937.13
546.33	42674.99
546.50	42476.04
546.67	42899.68
546.83	42108.58
547.00	42777.97
547.17	42462.00
547.34	42717.12
547.50	43096.28
547.67	43206.29
547.84	42983.94
548.00	42876.27
548.17	43409.92
548.34	43016.71
548.51	43412.26
548.67	42974.58
548.84	42939.47
549.01	43400.55
549.18	43398.21
549.34	43503.54
549.51	43313.95
549.68	43503.54
549.84	43438.00
550.01	43166.50
550.18	43187.56
550.34	43349.06
550.51	43725.89
550.68	43674.40
550.84	43531.62
551.01	43496.52
551.18	43136.07
551.34	43548.01
551.51	44123.78
551.68	43768.02
551.84	43562.05
552.01	43494.18
552.18	43988.03
552.34	43550.35
552.51	44168.25
552.68	44168.25
552.84	43817.17
553.01	44020.80
553.18	43906.11
553.34	44381.24
553.51	44189.31
553.67	44339.11
553.84	44397.62
554.01	44105.06
554.17	44311.02
554.34	44376.56
554.51	44561.46
554.67	44442.09
554.84	44683.17
555.00	44240.81
555.17	44250.17
555.33	44919.56
555.50	44641.04
555.67	44074.63
555.83	44472.52
556.00	44547.42
556.16	45366.60
556.33	44952.33
556.50	45141.91
556.66	44741.68
556.83	44720.62
556.99	45413.41
557.16	45001.48
557.32	44811.90
557.49	45408.73
557.65	45031.91
557.82	45041.27
557.98	44968.71
558.15	44949.99
558.32	45240.21
558.48	45221.49
558.65	45191.06
558.81	44882.11
558.98	45329.16
559.14	45228.51
559.31	45111.49
559.47	45343.20
559.64	45078.72
559.80	45673.21
559.97	45359.58
560.13	44739.34
560.30	45141.91
560.46	45476.61
560.63	45778.54
560.79	45832.37
560.96	45834.71
561.12	45574.91
561.29	45593.64
561.45	45853.44
561.61	45546.82
561.78	45717.68
561.94	45347.88
562.11	45621.72
562.27	45970.46
562.44	45310.43
562.60	45813.65
562.77	45743.43
562.93	45497.67
563.10	46000.89
563.26	45647.47
563.42	46211.54
563.59	45762.15
563.75	45595.98
563.92	45734.07
564.08	45668.53
564.24	46307.50
564.41	46220.90
564.57	45907.27
564.74	45977.48
564.90	46071.10
565.07	45696.62
565.23	46075.79
565.39	45935.35
565.56	46454.95
565.72	45792.58
565.88	45972.80
566.05	46319.20
566.21	46085.15
566.38	46026.63
566.54	45986.85
566.70	46136.64
566.87	46513.47
567.03	46014.93
567.19	46637.51
567.36	46550.91
567.52	46426.87
567.68	46686.67
567.85	46368.35
568.01	46270.05
568.17	46611.77
568.34	46124.94
568.50	46609.43
568.66	46057.06
568.83	46417.50
568.99	46499.42
569.15	46124.94
569.32	46602.41
569.48	46373.03
569.64	46644.54
569.81	46136.64
569.97	46469.00
570.13	46864.55
570.30	46284.09
570.46	46478.36
570.62	46469.00
570.78	46873.91
570.95	46841.14
571.11	46923.06
571.27	46684.33
571.43	46752.20
571.60	46810.71
571.76	46651.56
571.92	46894.97
572.09	46239.62
572.25	46529.85
572.41	46256.01
572.57	46873.91
572.74	46897.31
572.90	46789.65
573.06	46520.49
573.22	46862.21
573.38	47114.98
573.55	47349.04
573.71	46801.35
573.87	46674.96
574.03	46632.83
574.20	46756.88
574.36	46459.63
574.52	47070.51
574.68	47030.72
574.84	47091.58
575.01	47065.83
575.17	46974.55
575.33	47229.67
575.49	46604.75
575.65	46780.29
575.82	47157.11
575.98	46492.40
576.14	47145.41
576.30	47175.84
576.46	47166.48
576.62	46653.90
576.79	47196.90
576.95	46698.37
577.11	46632.83
577.27	46581.34
577.43	46728.80
577.59	46937.10
577.75	46887.95
577.92	46600.07
578.08	46876.25
578.24	47096.26
578.40	47356.06
578.56	47222.65
578.72	46822.42
578.88	46916.04
579.04	47260.10
579.21	47157.11
579.37	47201.58
579.53	47580.75
579.69	46955.83
579.85	46958.17
580.01	46871.57
580.17	47012.00
580.33	46988.60
580.49	46965.19
580.65	47253.08
580.82	47299.89
580.98	47194.56
581.14	47145.41
581.30	47489.47
581.46	46810.71
581.62	46967.53
581.78	47164.14
581.94	47650.97
582.10	46850.50
582.26	47021.36
582.42	46794.33
582.58	47133.71
582.74	47168.82
582.90	47367.76
583.06	47208.61
583.22	47255.42
583.38	47105.62
583.54	47000.30
583.70	47526.92
583.86	47395.85
584.02	47393.51
584.18	47433.30
584.34	47716.50
584.50	47622.88
584.66	47016.68
584.82	47650.97
584.98	47641.60
585.14	47592.45
585.30	46930.08
585.46	47435.64
585.62	47194.56
585.78	47084.56
585.94	46838.80
586.10	47545.64
586.26	46707.73
586.42	47267.12
586.58	47114.98
586.74	47540.96
586.90	47250.74
587.06	47505.85
587.22	47143.07
587.38	47150.09
587.54	47627.56
587.70	47997.37
587.86	47522.24
588.02	47601.82
588.18	47704.80
588.34	47578.41
588.49	47416.91
588.65	47255.42
588.81	47049.45
588.97	47353.72
589.13	47625.22
589.29	47271.80
589.45	47552.66
589.61	47562.03
589.77	47913.11
589.93	47643.94
590.08	47477.77
