SpectraSuite Data File
++++++++++++++++++++++++++++++++++++
Date: Fri Oct 25 11:25:20 EDT 2013
User: price-jones
Dark Spectrum Present: No
Reference Spectrum Present: No
Number of Sampled Component Spectra: 1
Spectrometers: USB2+H05261
Integration Time (usec): 100000 (USB2+H05261)
Spectra Averaged: 1 (USB2+H05261)
Boxcar Smoothing: 0 (USB2+H05261)
Correct for Electrical Dark: No (USB2+H05261)
Strobe/Lamp Enabled: No (USB2+H05261)
Correct for Detector Non-linearity: No (USB2+H05261)
Correct for Stray Light: No (USB2+H05261)
Number of Pixels in Processed Spectrum: 2048
>>>>>Begin Processed Spectral Data<<<<<
365.73	215.33
365.92	215.33
366.12	215.33
366.32	124.05
366.52	86.60
366.72	105.32
366.91	159.16
367.11	145.11
367.31	152.13
367.51	166.18
367.70	161.50
367.90	161.50
368.10	142.77
368.30	184.90
368.49	102.98
368.69	177.88
368.89	196.60
369.09	177.88
369.28	163.84
369.48	168.52
369.68	227.03
369.87	196.60
370.07	198.95
370.27	210.65
370.47	264.48
370.66	582.79
370.86	566.41
371.06	613.22
371.25	697.48
371.45	711.52
371.65	692.80
371.84	702.16
372.04	730.25
372.24	669.39
372.44	734.93
372.63	615.56
372.83	781.74
373.03	737.27
373.22	788.76
373.42	699.82
373.62	744.29
373.81	795.78
374.01	793.44
374.21	777.06
374.40	795.78
374.60	819.19
374.79	863.66
374.99	760.67
375.19	844.93
375.38	837.91
375.58	849.61
375.78	847.27
375.97	863.66
376.17	950.26
376.37	863.66
376.56	802.80
376.76	868.34
376.95	861.32
377.15	868.34
377.35	875.36
377.54	891.74
377.74	973.66
377.93	910.47
378.13	889.40
378.33	856.64
378.52	954.94
378.72	917.49
378.91	936.21
379.11	933.87
379.31	954.94
379.50	994.73
379.70	1018.13
379.89	1046.22
380.09	973.66
380.28	999.41
380.48	917.49
380.68	1043.88
380.87	905.79
381.07	978.34
381.26	1104.73
381.46	1053.24
381.65	1149.20
381.85	1078.99
382.04	1027.50
382.24	1001.75
382.43	1135.16
382.63	1057.92
382.83	1043.88
383.02	1048.56
383.22	1149.20
383.41	978.34
383.61	1036.86
383.80	1093.03
384.00	1062.60
384.19	1114.10
384.39	1090.69
384.58	1188.99
384.78	1149.20
384.97	1081.33
385.17	1181.97
385.36	1123.46
385.56	1130.48
385.75	1132.82
385.95	1196.01
386.14	1193.67
386.34	1114.10
386.53	1144.52
386.72	1200.69
386.92	1306.02
387.11	1247.51
387.31	1210.06
387.50	1240.48
387.70	1200.69
387.89	1254.53
388.09	1275.59
388.28	1221.76
388.48	1256.87
388.67	1404.32
388.86	1315.38
389.06	1284.95
389.25	1275.59
389.45	1327.08
389.64	1324.74
389.84	1291.98
390.03	1352.83
390.22	1315.38
390.42	1320.06
390.61	1343.47
390.81	1334.11
391.00	1448.79
391.19	1401.98
391.39	1488.58
391.58	1423.05
391.78	1409.00
391.97	1497.94
392.16	1446.45
392.36	1497.94
392.55	1455.81
392.75	1526.03
392.94	1469.86
393.13	1540.07
393.33	1619.65
393.52	1596.25
393.71	1643.06
393.91	1586.88
394.10	1659.44
394.29	1575.18
394.49	1577.52
394.68	1558.80
394.88	1661.78
395.07	1533.05
395.26	1668.80
395.46	1701.57
395.65	1734.34
395.84	1636.03
396.04	1654.76
396.23	1715.61
396.42	1701.57
396.62	1706.25
396.81	1839.66
397.00	1675.82
397.19	1823.28
397.39	1785.83
397.58	1858.39
397.77	1804.55
397.97	1891.15
398.16	1907.54
398.35	1874.77
398.55	1902.86
398.74	1818.60
398.93	1989.46
399.12	1909.88
399.32	1846.68
399.51	1905.20
399.70	1930.94
399.90	1944.99
400.09	1996.48
400.28	2033.93
400.47	2083.08
400.67	2193.08
400.86	2052.65
401.05	2165.00
401.24	2097.12
401.44	2097.12
401.63	2073.71
401.82	2076.06
402.01	2097.12
402.21	2127.55
402.40	2230.53
402.59	2303.09
402.78	2136.91
402.97	2275.00
403.17	2183.72
403.36	2228.19
403.55	2221.17
403.74	2284.36
403.93	2413.09
404.13	2314.79
404.32	2338.20
404.51	2434.16
404.70	2406.07
404.89	2375.64
405.09	2377.98
405.28	2492.67
405.47	2539.48
405.66	2366.28
405.85	2537.14
406.05	2532.46
406.24	2525.44
406.43	2532.46
406.62	2665.87
406.81	2689.28
407.00	2626.08
407.20	2450.54
407.39	2565.23
407.58	2696.30
407.77	2696.30
407.96	2677.57
408.15	2729.06
408.34	2703.32
408.54	2883.54
408.73	2750.13
408.92	2768.85
409.11	2808.64
409.30	2684.59
409.49	2883.54
409.68	2920.99
409.87	2909.29
410.07	2986.52
410.26	2897.58
410.45	2988.86
410.64	3023.97
410.83	3080.14
411.02	3206.53
411.21	3070.78
411.40	3131.64
411.59	3239.30
411.78	3143.34
411.98	3075.46
412.17	3185.47
412.36	3269.73
412.55	3445.27
412.74	3379.73
412.93	3316.54
413.12	3382.07
413.31	3599.74
413.50	3496.76
413.69	3452.29
413.88	3679.32
414.07	3510.80
414.26	3588.04
414.45	3639.53
414.64	3630.17
414.83	3730.81
415.02	3714.43
415.22	3665.28
415.41	3756.56
415.60	3847.84
415.79	3927.42
415.98	3875.93
416.17	4002.32
416.36	3899.33
416.55	3894.65
416.74	3913.38
416.93	3967.21
417.12	4112.32
417.31	4079.55
417.50	4124.02
417.69	4243.39
417.88	4091.26
418.07	4376.80
418.26	4231.69
418.45	4304.25
418.64	4369.78
418.83	4425.95
419.02	4472.76
419.21	4388.50
419.39	4519.57
419.58	4489.15
419.77	4250.41
419.96	4557.02
420.15	4496.17
420.34	4533.62
420.53	4695.11
420.72	4690.43
420.91	4753.63
421.10	4545.32
421.29	4671.71
421.48	4463.40
421.67	4631.92
421.86	4786.40
422.05	4737.24
422.24	4844.91
422.43	4844.91
422.61	4823.84
422.80	4905.76
422.99	4889.38
423.18	4924.49
423.37	5043.85
423.56	4936.19
423.75	4975.98
423.94	4823.84
424.13	4540.64
424.32	4716.18
424.50	4961.94
424.69	4957.25
424.88	4828.53
425.07	4898.74
425.26	4772.35
425.45	5025.13
425.64	4844.91
425.83	4889.38
426.01	5055.56
426.20	5135.14
426.39	4938.53
426.58	4943.21
426.77	5043.85
426.96	5219.39
427.15	5146.84
427.33	5324.72
427.52	5048.54
427.71	5359.83
427.90	5315.36
428.09	5439.40
428.28	5313.02
428.46	5270.89
428.65	5163.22
428.84	5399.62
429.03	5572.82
429.22	5203.01
429.40	5387.91
429.59	5509.62
429.78	5380.89
429.97	5198.33
430.16	5460.47
430.34	5500.26
430.53	5526.00
430.72	5659.42
430.91	5671.12
431.10	5607.92
431.28	5659.42
431.47	5659.42
431.66	5884.11
431.85	5755.38
432.03	5743.67
432.22	5996.45
432.41	5900.49
432.60	5870.06
432.79	5769.42
432.97	5977.73
433.16	5968.37
433.35	5846.66
433.54	5944.96
433.72	6136.88
433.91	5975.39
434.10	6057.31
434.28	5870.06
434.47	6111.14
434.66	6216.46
434.85	6317.11
435.03	6214.12
435.22	6083.05
435.41	6459.88
435.59	6504.35
435.78	6450.52
435.97	6396.68
436.16	6153.27
436.34	6331.15
436.53	6466.90
436.72	6644.78
436.90	6389.66
437.09	6450.52
437.28	6403.71
437.46	6609.67
437.65	6677.55
437.84	6773.51
438.02	6593.29
438.21	6621.38
438.40	6848.41
438.58	6892.88
438.77	6857.77
438.96	6949.05
439.14	6949.05
439.33	7037.99
439.52	7133.95
439.70	7208.85
439.89	7279.07
440.08	7297.79
440.26	7346.94
440.45	7262.68
440.63	7431.20
440.82	7592.70
441.01	7515.46
441.19	7634.83
441.38	7733.13
441.57	7576.31
441.75	7658.23
441.94	7791.64
442.12	7709.72
442.31	8098.25
442.50	7978.89
442.68	7845.48
442.87	7969.52
443.05	7906.33
443.24	8236.35
443.43	8032.72
443.61	8013.99
443.80	8369.76
443.98	8018.68
444.17	7831.43
444.35	8009.31
444.54	8339.33
444.73	8166.13
444.91	8091.23
445.10	8138.04
445.28	8149.75
445.47	8332.31
445.65	8060.80
445.84	8348.69
446.02	8402.52
446.21	8325.29
446.39	8224.64
446.58	8545.30
446.77	8428.27
446.95	8198.90
447.14	8278.47
447.32	8484.44
447.51	8418.91
447.69	8266.77
447.88	8407.20
448.06	8425.93
448.25	8564.02
448.43	8475.08
448.62	8779.35
448.80	8542.96
448.99	8603.81
449.17	8676.37
449.36	8383.80
449.54	8690.41
449.73	8812.12
449.91	9004.04
450.10	8964.25
450.28	8964.25
450.46	9092.98
450.65	8784.03
450.83	8966.59
451.02	8858.93
451.20	9057.87
451.39	9224.05
451.57	9144.47
451.76	9029.79
451.94	8950.21
452.13	9130.43
452.31	9177.24
452.49	9053.19
452.68	9289.59
452.86	9123.41
453.05	9399.59
453.23	9469.81
453.42	9205.33
453.60	9067.24
453.78	9474.49
453.97	9284.91
454.15	9315.33
454.34	9266.18
454.52	9563.43
454.70	9362.14
454.89	9645.35
455.07	9600.88
455.26	9738.97
455.44	9839.61
455.62	9846.63
455.81	9799.82
455.99	10045.58
456.17	9907.49
456.36	9884.08
456.54	10022.17
456.73	10171.97
456.91	10289.00
457.09	10305.38
457.28	10520.71
457.46	10326.44
457.64	10373.25
457.83	10324.10
458.01	10307.72
458.19	10544.11
458.38	10293.68
458.56	10541.77
458.74	10757.10
458.93	10574.54
459.11	10628.37
459.29	10593.26
459.48	10593.26
459.66	10504.32
459.84	10771.15
460.03	11117.54
460.21	11014.56
460.39	10817.96
460.57	10897.53
460.76	10995.84
460.94	11339.90
461.12	11126.91
461.31	11187.76
461.49	11103.50
461.67	11122.23
461.85	11272.02
462.04	11229.89
462.22	11768.21
462.40	11492.03
462.59	11400.75
462.77	11286.06
462.95	11552.88
463.13	11470.97
463.32	11456.92
463.50	11447.56
463.68	11499.05
463.86	11772.89
464.05	11475.65
464.23	11543.52
464.41	11606.72
464.59	11543.52
464.78	12039.72
464.96	11932.05
465.14	11702.68
465.32	11992.90
465.50	11875.88
465.69	12011.63
465.87	11988.22
466.05	11824.39
466.23	12203.55
466.41	12114.61
466.60	12379.09
466.78	11847.79
466.96	12025.67
467.14	11992.90
467.32	12360.37
467.51	12416.54
467.69	12131.00
467.87	12149.72
468.05	12353.35
468.23	12395.48
468.41	12238.66
468.60	12657.62
468.78	12730.17
468.96	12477.40
469.14	12753.58
469.32	12716.13
469.50	12524.21
469.69	12908.05
469.87	12879.97
470.05	12870.61
470.23	13001.68
470.41	13074.23
470.59	13174.88
470.77	13034.44
470.95	13327.01
471.14	13172.54
471.32	13015.72
471.50	13521.27
471.68	13451.06
471.86	13490.85
472.04	13483.83
472.22	13865.33
472.40	13657.03
472.58	13673.41
472.77	13851.29
472.95	14169.60
473.13	14319.40
473.31	13987.04
473.49	14160.24
473.67	13994.06
473.85	14146.20
474.03	14476.21
474.21	14590.90
474.39	14593.24
474.57	14277.27
474.75	14768.78
474.93	14892.83
475.12	14892.83
475.30	15005.17
475.48	14799.21
475.66	15136.24
475.84	14904.53
476.02	15145.61
476.20	15487.32
476.38	15695.63
476.56	15892.24
476.74	15503.71
476.92	15983.52
477.10	15555.20
477.28	15866.49
477.46	16149.70
477.64	16121.61
477.82	16285.45
478.00	16978.25
478.18	16526.52
478.36	16678.66
478.54	17043.78
478.72	16737.17
478.90	17224.00
479.08	17596.15
479.26	17523.59
479.44	17638.28
479.62	17837.22
479.80	17724.88
479.98	18057.23
480.16	18625.98
480.34	17984.68
480.52	18101.70
480.70	18532.36
480.88	18291.29
481.06	18190.64
481.24	18436.40
481.41	19227.50
481.59	19311.76
481.77	19417.08
481.95	19339.85
482.13	19672.20
482.31	19431.13
482.49	20163.72
482.67	20037.33
482.85	20203.50
483.03	20353.30
483.21	20620.12
483.39	20835.45
483.57	20603.74
483.74	21048.44
483.92	21287.17
484.10	21053.12
484.28	21443.99
484.46	21671.02
484.64	22185.94
484.82	22085.30
485.00	21851.24
485.18	22630.64
485.35	22794.48
485.53	22869.37
485.71	22717.24
485.89	23283.65
486.07	23342.16
486.25	23243.86
486.43	23564.51
486.61	23587.92
486.78	23791.55
486.96	24329.87
487.14	24285.40
487.32	24723.08
487.50	24772.23
487.68	24973.52
487.85	24877.55
488.03	25366.73
488.21	25240.34
488.39	25535.24
488.57	26181.23
488.75	25851.22
488.92	26162.51
489.10	26396.56
489.28	26494.86
489.46	27077.66
489.64	27009.78
489.81	27405.33
489.99	27510.66
490.17	27615.98
490.35	27793.86
490.53	27716.62
490.70	27936.63
490.88	28018.55
491.06	28507.72
491.24	28168.35
491.41	28727.74
491.59	29275.42
491.77	29106.90
491.95	29296.49
492.13	29312.87
492.30	29738.85
492.48	29780.98
492.66	29834.81
492.84	30012.69
493.01	30536.97
493.19	30417.60
493.37	30829.54
493.54	30874.01
493.72	31377.22
493.90	30967.63
494.08	31777.45
494.25	31517.65
494.43	31896.82
494.61	31826.60
494.79	32304.07
494.96	32063.00
495.14	32795.59
495.32	32580.26
495.49	32755.80
495.67	32877.51
495.85	33186.46
496.02	33607.75
496.20	33593.71
496.38	33996.28
496.55	33649.88
496.73	34995.69
496.91	34244.38
497.09	34955.90
497.26	34206.93
497.44	34445.66
497.62	35098.67
497.79	35541.03
497.97	35505.93
498.14	35775.09
498.32	35793.81
498.50	36037.23
498.67	36297.03
498.85	36119.15
499.03	36404.69
499.20	36460.87
499.38	36559.17
499.56	36332.14
499.73	37263.67
499.91	37057.70
500.08	37338.57
500.26	37247.29
500.44	37205.16
500.61	37745.82
500.79	37710.71
500.97	37794.97
501.14	38319.25
501.32	38085.20
501.49	38192.86
501.67	38337.98
501.84	38637.56
502.02	38232.65
502.20	38792.04
502.37	39122.05
502.55	38883.32
502.72	39175.89
502.90	39597.18
503.07	39098.65
503.25	39431.01
503.43	39400.58
503.60	39896.77
503.78	39966.99
503.95	39997.41
504.13	40229.13
504.30	40170.61
504.48	40030.18
504.65	40762.77
504.83	40634.04
505.01	41024.91
505.18	41029.59
505.36	41163.00
505.53	41043.63
505.71	41366.63
505.88	41420.46
506.06	40900.86
506.23	41275.35
506.41	41392.37
506.58	41944.74
506.76	41787.92
506.93	42361.36
507.11	42038.36
507.28	42171.77
507.46	42480.72
507.63	42707.76
507.81	42635.20
507.98	42653.92
508.16	42857.55
508.33	43260.12
508.50	43225.01
508.68	43466.09
508.85	43625.25
509.03	43398.21
509.20	43655.67
509.38	44201.02
509.55	43959.94
509.73	44285.28
509.90	44341.45
510.08	44526.35
510.25	44137.82
510.42	44685.51
510.60	44662.10
510.77	44872.75
510.95	45291.71
511.12	44921.90
511.30	44851.69
511.47	45333.84
511.64	45476.61
511.82	45511.72
511.99	45191.06
512.17	45652.15
512.34	45174.68
512.51	45705.98
512.69	45804.28
512.86	45759.81
513.04	46597.73
513.21	46157.70
513.38	46178.77
513.56	46658.58
513.73	46192.81
513.90	46469.00
514.08	46050.04
514.25	46803.69
514.43	46913.70
514.60	47217.97
514.77	47433.30
514.95	47377.12
515.12	47002.64
515.29	47040.09
515.47	47606.50
515.64	47980.98
515.81	47330.31
515.99	48051.20
516.16	47931.83
516.33	48025.45
516.51	48224.40
516.68	48107.37
516.85	48261.85
517.03	48151.84
517.20	48671.44
517.37	48828.26
517.54	48245.46
517.72	48608.25
517.89	48765.06
518.06	49123.16
518.24	48701.87
518.41	48889.11
518.58	49031.88
518.75	48772.08
518.93	49188.70
519.10	49205.08
519.27	49198.06
519.45	49177.00
519.62	49635.74
519.79	49621.70
519.96	49610.00
520.14	49727.02
520.31	50038.31
520.48	49970.44
520.65	49841.71
520.83	50520.46
521.00	50316.84
521.17	50429.18
521.34	50270.03
521.52	50377.69
521.69	50508.76
521.86	50855.16
522.03	51194.54
522.20	51079.85
522.38	51068.15
522.55	51215.60
522.72	51100.92
522.89	50951.12
523.07	51260.07
523.24	51222.62
523.41	51697.75
523.58	51194.54
523.75	51592.43
523.92	51543.28
524.10	51538.60
524.27	51686.05
524.44	51655.62
524.61	52020.75
524.78	51756.27
524.96	51662.64
525.13	52135.43
525.30	52341.40
525.47	52240.76
525.64	51943.51
525.81	52198.63
525.98	52486.51
526.16	52123.73
526.33	52446.72
526.50	52872.70
526.67	52355.44
526.84	52317.99
527.01	52552.05
527.18	52568.43
527.36	52481.83
527.53	52769.72
527.70	53387.62
527.87	53181.65
528.04	52898.45
528.21	53181.65
528.38	53172.29
528.55	53340.81
528.72	53134.84
528.89	53242.51
529.07	53057.60
529.24	53038.88
529.41	53415.71
529.58	53216.76
529.75	53345.49
529.92	53411.02
530.09	53640.40
530.26	53581.88
530.43	53680.19
530.60	53710.61
530.77	53609.97
530.94	53717.64
531.11	53867.43
531.28	54061.69
531.46	54232.55
531.63	54136.59
531.80	54026.59
531.97	54443.20
532.14	54115.53
532.31	54396.39
532.48	54211.49
532.65	54279.36
532.82	54328.52
532.99	54482.99
533.16	54438.52
533.33	54497.03
533.50	54738.11
533.67	54576.61
533.84	54384.69
534.01	54639.81
534.18	54550.87
534.35	54983.86
534.52	54911.31
534.69	54962.80
534.86	55016.63
535.03	54866.84
535.20	54974.50
535.37	55028.34
535.54	55112.59
535.71	54969.82
535.88	55220.26
536.05	55253.03
536.22	55313.88
536.38	55615.81
536.55	55262.39
536.72	55393.46
536.89	55360.69
537.06	55693.05
537.23	55641.56
537.40	55208.56
537.57	55608.79
537.74	55561.98
537.91	55580.70
538.08	55608.79
538.25	55444.95
538.42	55700.07
538.59	56053.49
538.75	55664.96
538.92	55936.46
539.09	55880.29
539.26	55990.30
539.43	55943.48
539.60	55863.91
539.77	55770.28
539.94	55936.46
540.11	55980.93
540.28	56472.45
540.44	56306.27
540.61	56175.20
540.78	55994.98
540.95	56238.39
541.12	56184.56
541.29	56058.17
541.46	56093.28
541.62	56367.12
541.79	56624.58
541.96	56301.59
542.13	56327.33
542.30	56245.41
542.47	56706.50
542.63	56762.67
542.80	56671.39
542.97	56942.89
543.14	57106.73
543.31	56849.27
543.48	57057.58
543.64	57212.06
543.81	57165.24
543.98	57289.29
544.15	57109.07
544.32	57310.36
544.48	57228.44
544.65	57132.48
544.82	57240.14
544.99	56924.17
545.16	57308.02
545.32	57123.11
545.49	57382.91
545.66	57595.90
545.83	57343.12
546.00	57382.91
546.16	57483.56
546.33	57256.53
546.50	57408.66
546.67	57628.67
546.83	57312.70
547.00	57453.13
547.17	57513.98
547.34	57593.56
547.50	57860.38
547.67	57865.06
547.84	57853.36
548.00	57759.74
548.17	58150.61
548.34	57961.03
548.51	58110.82
548.67	57921.24
548.84	57874.43
549.01	57836.98
549.18	58045.29
549.34	57979.75
549.51	58120.18
549.68	58183.38
549.84	58108.48
550.01	58028.90
550.18	58213.80
550.34	58532.12
550.51	58272.32
550.68	58347.21
550.84	58120.18
551.01	58515.73
551.18	58262.96
551.34	58260.62
551.51	58375.30
551.68	58372.96
551.84	58534.46
552.01	58365.94
552.18	58658.51
552.34	58368.28
552.51	58422.11
552.68	58244.23
552.84	58438.50
553.01	58831.71
553.18	58644.46
553.34	58473.60
553.51	58478.28
553.67	58543.82
553.84	58745.11
554.01	58632.76
554.17	58843.41
554.34	58796.60
554.51	58789.58
554.67	58951.07
554.84	58630.42
555.00	58862.13
555.17	58702.98
555.33	58749.79
555.50	58873.84
555.67	58805.96
555.83	58913.62
556.00	58820.00
556.16	59173.42
556.33	59143.00
556.50	59011.93
556.66	59222.58
556.83	58904.26
556.99	58937.03
557.16	59531.53
557.32	59482.37
557.49	59365.35
557.65	59157.04
557.82	59135.98
557.98	59299.81
558.15	59192.15
558.32	59323.22
558.48	59215.55
558.65	59318.54
558.81	59320.88
558.98	59337.26
559.14	59590.04
559.31	59391.09
559.47	59400.46
559.64	59496.42
559.80	59477.69
559.97	59540.89
560.13	59299.81
560.30	59414.50
560.46	59564.29
560.63	59456.63
560.79	59552.59
560.96	59604.08
561.12	59618.13
561.29	59536.21
561.45	59632.17
561.61	59519.82
561.78	59669.62
561.94	59615.79
562.11	59313.86
562.27	59735.15
562.44	59781.96
562.60	60034.74
562.77	60060.49
562.93	59842.82
563.10	59751.54
563.26	59716.43
563.42	59913.03
563.59	59927.08
563.75	59615.79
563.92	59826.43
564.08	59826.43
564.24	59894.31
564.41	59969.21
564.57	60009.00
564.74	59793.67
564.90	59833.46
565.07	59931.76
565.23	60165.81
565.39	60048.78
565.56	60034.74
565.72	59880.27
565.88	60009.00
566.05	59896.65
566.21	59643.87
566.38	60182.19
566.54	60055.81
566.70	60343.69
566.87	60264.11
567.03	59920.05
567.19	60224.32
567.36	60154.11
567.52	60119.00
567.68	60163.47
567.85	60406.89
568.01	60170.49
568.17	60069.85
568.34	60221.98
568.50	60156.45
568.66	60156.45
568.83	60069.85
568.99	60086.23
569.15	60348.37
569.32	60186.88
569.48	60231.35
569.64	60399.86
569.81	60226.66
569.97	60053.47
570.13	60168.15
570.30	60135.38
570.46	59992.61
570.62	60121.34
570.78	60184.54
570.95	60184.54
571.11	60390.50
571.27	60273.48
571.43	60498.17
571.60	60535.62
571.76	60484.12
571.92	60456.04
572.09	60327.31
572.25	60357.74
572.41	60374.12
572.57	60582.43
572.74	60537.96
572.90	60306.24
573.06	60226.66
573.22	60444.33
573.38	60493.49
573.55	60500.51
573.71	60570.72
573.87	60535.62
574.03	60317.95
574.20	60364.76
574.36	60488.80
574.52	60521.57
574.68	60491.15
574.84	60533.28
575.01	60500.51
575.17	60446.68
575.33	60341.35
575.49	60339.01
575.65	60449.02
575.82	60713.50
575.98	60537.96
576.14	60748.60
576.30	60797.76
576.46	60652.64
576.62	60659.66
576.79	60650.30
576.95	60498.17
577.11	60556.68
577.27	60949.89
577.43	60589.45
577.59	60495.83
577.75	60549.66
577.92	60526.25
578.08	60601.15
578.24	60690.09
578.40	60781.37
578.56	60729.88
578.72	60582.43
578.88	60694.77
579.04	60884.36
579.21	60713.50
579.37	60715.84
579.53	60872.65
579.69	60706.47
579.85	60575.40
580.01	60790.73
580.17	60584.77
580.33	60650.30
580.49	60811.80
580.65	60809.46
580.82	60647.96
580.98	60465.40
581.14	60706.47
581.30	60846.91
581.46	60921.80
581.62	60762.65
581.78	60458.38
581.94	60828.18
582.10	60676.05
582.26	60767.33
582.42	60790.73
582.58	60947.55
582.74	60666.69
582.90	60790.73
583.06	60846.91
583.22	60662.00
583.38	60729.88
583.54	60767.33
583.70	60823.50
583.86	60821.16
584.02	60615.19
584.18	61015.43
584.34	60790.73
584.50	60912.44
584.66	60568.38
584.82	60477.10
584.98	60999.04
585.14	60907.76
585.30	60533.28
585.46	60874.99
585.62	60828.18
585.78	61003.72
585.94	60647.96
586.10	60870.31
586.26	60949.89
586.42	61043.51
586.58	60910.10
586.74	60896.06
586.90	60968.61
587.06	60919.46
587.22	60963.93
587.38	60779.03
587.54	61029.47
587.70	60938.19
587.86	60870.31
588.02	60755.63
588.18	60879.67
588.34	60968.61
588.49	60870.31
