SpectraSuite Data File
++++++++++++++++++++++++++++++++++++
Date: Fri Oct 25 11:26:34 EDT 2013
User: price-jones
Dark Spectrum Present: No
Reference Spectrum Present: No
Number of Sampled Component Spectra: 1
Spectrometers: USB2+H05261
Integration Time (usec): 100000 (USB2+H05261)
Spectra Averaged: 1 (USB2+H05261)
Boxcar Smoothing: 0 (USB2+H05261)
Correct for Electrical Dark: No (USB2+H05261)
Strobe/Lamp Enabled: No (USB2+H05261)
Correct for Detector Non-linearity: No (USB2+H05261)
Correct for Stray Light: No (USB2+H05261)
Number of Pixels in Processed Spectrum: 2048
>>>>>Begin Processed Spectral Data<<<<<
365.73	283.20
365.92	283.20
366.12	283.20
366.32	175.54
366.52	159.16
366.72	77.24
366.91	133.41
367.11	128.73
367.31	140.43
367.51	154.48
367.70	72.56
367.90	135.75
368.10	189.58
368.30	114.69
368.49	173.20
368.69	170.86
368.89	182.56
369.09	124.05
369.28	191.92
369.48	154.48
369.68	159.16
369.87	152.13
370.07	180.22
370.27	266.82
370.47	362.78
370.66	620.24
370.86	641.31
371.06	645.99
371.25	711.52
371.45	624.92
371.65	711.52
371.84	709.18
372.04	725.57
372.24	763.01
372.44	784.08
372.63	793.44
372.83	741.95
373.03	702.16
373.22	748.97
373.42	835.57
373.62	837.91
373.81	828.55
374.01	833.23
374.21	784.08
374.40	840.25
374.60	835.57
374.79	739.61
374.99	786.42
375.19	816.85
375.38	821.53
375.58	828.55
375.78	875.36
375.97	858.98
376.17	959.62
376.37	905.79
376.56	863.66
376.76	816.85
376.95	842.59
377.15	889.40
377.35	809.83
377.54	894.08
377.74	863.66
377.93	882.38
378.13	880.04
378.33	1015.79
378.52	849.61
378.72	1039.20
378.91	947.92
379.11	940.90
379.31	1015.79
379.50	929.19
379.70	1048.56
379.89	1025.15
380.09	1034.52
380.28	1076.65
380.48	1039.20
380.68	987.71
380.87	997.07
381.07	1018.13
381.26	985.37
381.46	1029.84
381.65	929.19
381.85	1027.50
382.04	1074.31
382.24	1142.18
382.43	1062.60
382.63	997.07
382.83	1083.67
383.02	1097.71
383.22	1102.39
383.41	1196.01
383.61	1020.47
383.80	1139.84
384.00	1086.01
384.19	1055.58
384.39	1247.51
384.58	1177.29
384.78	1188.99
384.97	1212.40
385.17	1191.33
385.36	1121.12
385.56	1207.72
385.75	1153.88
385.95	1224.10
386.14	1149.20
386.34	1179.63
386.53	1139.84
386.72	1200.69
386.92	1270.91
387.11	1376.24
387.31	1214.74
387.50	1282.61
387.70	1238.14
387.89	1252.19
388.09	1224.10
388.28	1299.00
388.48	1252.19
388.67	1362.19
388.86	1315.38
389.06	1355.17
389.25	1299.00
389.45	1378.58
389.64	1369.21
389.84	1446.45
390.03	1373.89
390.22	1275.59
390.42	1343.47
390.61	1425.39
390.81	1376.24
391.00	1404.32
391.19	1364.53
391.39	1423.05
391.58	1439.43
391.78	1472.20
391.97	1540.07
392.16	1434.75
392.36	1547.09
392.55	1544.75
392.75	1535.39
392.94	1540.07
393.13	1535.39
393.33	1514.33
393.52	1507.30
393.71	1603.27
393.91	1528.37
394.10	1589.22
394.29	1678.16
394.49	1600.93
394.68	1640.72
394.88	1556.46
395.07	1720.29
395.26	1748.38
395.46	1687.53
395.65	1689.87
395.84	1727.32
396.04	1729.66
396.23	1816.26
396.42	1797.53
396.62	1736.68
396.81	1839.66
397.00	1811.57
397.19	1734.34
397.39	1842.00
397.58	1870.09
397.77	1792.85
397.97	1912.22
398.16	1785.83
398.35	1961.37
398.55	1881.79
398.74	1963.71
398.93	1905.20
399.12	1895.83
399.32	1928.60
399.51	1898.17
399.70	1968.39
399.90	1996.48
400.09	1973.07
400.28	2019.88
400.47	2071.37
400.67	2045.63
400.86	2010.52
401.05	2033.93
401.24	2148.61
401.44	2073.71
401.63	2115.84
401.82	2188.40
402.01	2104.14
402.21	2146.27
402.40	2153.29
402.59	2230.53
402.78	2181.38
402.97	2204.78
403.17	2289.04
403.36	2237.55
403.55	2267.98
403.74	2359.26
403.93	2396.71
404.13	2382.67
404.32	2345.22
404.51	2324.15
404.70	2471.61
404.89	2282.02
405.09	2616.72
405.28	2476.29
405.47	2436.50
405.66	2403.73
405.85	2431.82
406.05	2633.10
406.24	2633.10
406.43	2558.21
406.62	2658.85
406.81	2612.04
407.00	2619.06
407.20	2588.63
407.39	2541.82
407.58	2752.47
407.77	2710.34
407.96	2771.19
408.15	2696.30
408.34	2815.66
408.54	2909.29
408.73	2743.11
408.92	2775.88
409.11	2883.54
409.30	2892.90
409.49	2883.54
409.68	2834.39
409.87	2827.37
410.07	2977.16
410.26	3112.91
410.45	3035.67
410.64	3002.91
410.83	3094.19
411.02	3159.72
411.21	3194.83
411.40	3215.90
411.59	3194.83
411.78	3126.96
411.98	3169.09
412.17	3304.84
412.36	3295.47
412.55	3321.22
412.74	3445.27
412.93	3309.52
413.12	3398.46
413.31	3517.83
413.50	3480.38
413.69	3625.49
413.88	3545.91
414.07	3721.45
414.26	3508.46
414.45	3616.13
414.64	3555.27
414.83	3709.75
415.02	3822.09
415.22	3801.03
415.41	3772.94
415.60	3957.85
415.79	3845.50
415.98	3981.25
416.17	3971.89
416.36	3932.10
416.55	4030.40
416.74	4030.40
416.93	4063.17
417.12	4229.35
417.31	4142.75
417.50	4217.65
417.69	4294.88
417.88	4283.18
418.07	4304.25
418.26	4238.71
418.45	4217.65
418.64	4458.72
418.83	4351.06
419.02	4507.87
419.21	4454.04
419.39	4503.19
419.58	4465.74
419.77	4540.64
419.96	4624.90
420.15	4826.18
420.34	4568.73
420.53	4650.64
420.72	4664.69
420.91	4620.22
421.10	4772.35
421.29	4744.27
421.48	4533.62
421.67	4755.97
421.86	4739.58
422.05	4889.38
422.24	4835.55
422.43	4674.05
422.61	4868.31
422.80	4943.21
422.99	4959.60
423.18	4858.95
423.37	5064.92
423.56	4973.64
423.75	5041.51
423.94	4929.17
424.13	4554.68
424.32	4777.03
424.50	4830.87
424.69	5104.71
424.88	5071.94
425.07	5029.81
425.26	4875.34
425.45	5041.51
425.64	4912.78
425.83	4978.32
426.01	5036.83
426.20	5097.69
426.39	5207.69
426.58	5067.26
426.77	4964.28
426.96	5163.22
427.15	5123.43
427.33	5172.58
427.52	5022.79
427.71	5163.22
427.90	5158.54
428.09	5383.23
428.28	5509.62
428.46	5483.88
428.65	5390.25
428.84	5420.68
429.03	5392.59
429.22	5205.35
429.40	5533.03
429.59	5504.94
429.78	5261.52
429.97	5313.02
430.16	5488.56
430.34	5666.44
430.53	5610.26
430.72	5696.86
430.91	5720.27
431.10	5554.09
431.28	5582.18
431.47	5881.77
431.66	5753.04
431.85	5724.95
432.03	5790.49
432.22	6036.24
432.41	5944.96
432.60	6038.58
432.79	5973.05
432.97	6038.58
433.16	6052.63
433.35	6057.31
433.54	6080.71
433.72	6083.05
433.91	6214.12
434.10	6218.80
434.28	6134.54
434.47	6216.46
434.66	6235.19
434.85	6303.06
435.03	6338.17
435.22	6333.49
435.41	6621.38
435.59	6340.51
435.78	6401.37
435.97	6466.90
436.16	6356.90
436.34	6654.14
436.53	6509.03
436.72	6604.99
436.90	6455.20
437.09	6677.55
437.28	6502.01
437.46	6583.93
437.65	6799.26
437.84	6836.70
438.02	6698.61
438.21	6710.32
438.40	6658.82
438.58	6916.28
438.77	6998.20
438.96	6895.22
439.14	7084.80
439.33	7295.45
439.52	7297.79
439.70	7321.20
439.89	7545.89
440.08	7234.60
440.26	7220.55
440.45	7283.75
440.63	7417.16
440.82	7658.23
441.01	7571.63
441.19	7716.75
441.38	7683.98
441.57	7770.58
441.75	7693.34
441.94	7969.52
442.12	7896.97
442.31	8168.47
442.50	8035.06
442.68	7887.61
442.87	7992.93
443.05	8175.49
443.24	8271.45
443.43	8135.70
443.61	8283.16
443.80	8381.46
443.98	7943.78
444.17	7779.94
444.35	8290.18
444.54	8423.59
444.73	8395.50
444.91	8355.71
445.10	8358.05
445.28	8439.97
445.47	8381.46
445.65	8451.67
445.84	8549.98
446.02	8533.59
446.21	8369.76
446.39	8290.18
446.58	8631.90
446.77	8482.10
446.95	8322.94
447.14	8568.70
447.32	8549.98
447.51	8498.49
447.69	8468.06
447.88	8657.64
448.06	8554.66
448.25	8510.19
448.43	8486.78
448.62	8760.63
448.80	8627.21
448.99	8725.52
449.17	8912.76
449.36	8547.64
449.54	8915.10
449.73	8800.41
449.91	8863.61
450.10	8865.95
450.28	9050.85
450.46	9128.09
450.65	9015.74
450.83	9076.60
451.02	8945.53
451.20	9092.98
451.39	9092.98
451.57	9076.60
451.76	9191.28
451.94	9202.99
452.13	9376.19
452.31	9135.11
452.49	9231.07
452.68	9327.03
452.86	9296.61
453.05	9638.33
453.23	9481.51
453.42	9298.95
453.60	9284.91
453.78	9692.16
453.97	9455.76
454.15	9544.70
454.34	9570.45
454.52	9619.60
454.70	9778.76
454.89	9811.53
455.07	9951.96
455.26	9851.31
455.44	10026.86
455.62	9877.06
455.81	10045.58
455.99	10087.71
456.17	10073.67
456.36	10190.69
456.54	10054.94
456.73	10267.93
456.91	10516.03
457.09	10242.18
457.28	10626.03
457.46	10487.94
457.64	10672.84
457.83	10576.88
458.01	10277.29
458.19	10696.25
458.38	10752.42
458.56	10478.58
458.74	10628.37
458.93	10689.23
459.11	10785.19
459.29	10668.16
459.48	10696.25
459.66	11091.80
459.84	11066.05
460.03	11002.86
460.21	11075.42
460.39	10895.19
460.57	11073.07
460.76	11482.67
460.94	11138.61
461.12	10853.06
461.31	11239.25
461.49	11061.37
461.67	11014.56
461.85	11400.75
462.04	11492.03
462.22	11597.35
462.40	11623.10
462.59	11421.81
462.77	11637.14
462.95	11789.28
463.13	11534.16
463.32	11735.45
463.50	11721.40
463.68	11885.24
463.86	11871.20
464.05	11578.63
464.23	11812.68
464.41	11957.80
464.59	11728.42
464.78	11981.20
464.96	11992.90
465.14	11889.92
465.32	11868.86
465.50	12278.45
465.69	11894.60
465.87	12081.85
466.05	11964.82
466.23	12248.02
466.41	12177.81
466.60	12379.09
466.78	12329.94
466.96	12210.57
467.14	12215.26
467.32	12566.34
467.51	12552.29
467.69	12105.25
467.87	12292.49
468.05	12599.10
468.23	12599.10
468.41	12489.10
468.60	12627.19
468.78	13020.40
468.96	12718.47
469.14	13036.78
469.32	13277.86
469.50	12898.69
469.69	12793.37
469.87	13174.88
470.05	13109.34
470.23	13224.03
470.41	13268.50
470.59	13404.25
470.77	13401.91
470.95	13350.42
471.14	13479.15
471.32	13144.45
471.50	13418.29
471.68	13727.24
471.86	13685.11
472.04	13898.10
472.22	14075.98
472.40	13582.13
472.58	13776.39
472.77	13834.91
472.95	14164.92
473.13	14354.51
473.31	14097.05
473.49	14047.90
473.67	13998.74
473.85	14429.40
474.03	14541.75
474.21	14642.39
474.39	14731.33
474.57	14803.89
474.75	14850.70
474.93	14939.64
475.12	15066.03
475.30	15269.66
475.48	15379.66
475.66	15421.79
475.84	15124.54
476.02	15456.90
476.20	15159.65
476.38	15871.17
476.56	15946.07
476.74	15878.19
476.92	16163.74
477.10	15864.15
477.28	16346.30
477.46	16006.92
477.64	16566.31
477.82	16514.82
478.00	16989.95
478.18	16891.65
478.36	16908.03
478.54	17235.70
478.72	17240.39
478.90	17235.70
479.08	17579.76
479.26	17626.57
479.44	17895.74
479.62	17823.18
479.80	18066.60
479.98	18331.08
480.16	18806.20
480.34	18420.02
480.52	18621.30
480.70	18525.34
480.88	18321.71
481.06	18941.96
481.24	18829.61
481.41	19323.46
481.59	19220.48
481.77	19562.20
481.95	19632.41
482.13	19964.77
482.31	19822.00
482.49	20215.21
482.67	20063.07
482.85	20460.96
483.03	20601.40
483.21	20559.27
483.39	20973.54
483.57	20940.77
483.74	21123.33
483.92	21443.99
484.10	21322.28
484.28	21577.40
484.46	22026.78
484.64	22199.98
484.82	22059.55
485.00	22267.86
485.18	22895.12
485.35	23042.57
485.53	22817.88
485.71	23164.28
485.89	23206.41
486.07	22972.36
486.25	23555.15
486.43	23470.89
486.61	23747.08
486.78	24100.50
486.96	24479.66
487.14	24734.78
487.32	24577.97
487.50	24929.05
487.68	25205.23
487.85	25116.29
488.03	25479.07
488.21	25633.55
488.39	25827.81
488.57	26312.30
488.75	26309.96
488.92	26333.37
489.10	26820.20
489.28	27166.60
489.46	27412.35
489.64	27325.75
489.81	27709.60
489.99	27583.21
490.17	27704.92
490.35	28063.02
490.53	28250.27
490.70	28657.52
490.88	28154.30
491.06	29001.58
491.24	28856.46
491.41	29053.07
491.59	29261.38
491.77	29364.36
491.95	29504.79
492.13	29612.46
492.30	30064.18
492.48	30249.08
492.66	30307.60
492.84	30274.83
493.01	30602.50
493.19	30778.04
493.37	31094.02
493.54	30998.06
493.72	31527.02
493.90	31627.66
494.08	31637.02
494.25	31796.18
494.43	32034.91
494.61	32151.94
494.79	32030.23
494.96	32694.94
495.14	32673.88
495.32	32802.61
495.49	33397.10
495.67	33394.76
495.85	33607.75
496.02	33689.67
496.20	34029.05
496.38	34099.26
496.55	34073.52
496.73	34763.98
496.91	34902.07
497.09	35051.86
497.26	34850.58
497.44	35236.77
497.62	35229.74
497.79	36011.48
497.97	36100.42
498.14	35974.03
498.32	36013.82
498.50	36037.23
498.67	36575.55
498.85	36130.85
499.03	36982.80
499.20	36938.33
499.38	37088.13
499.56	36849.39
499.73	37340.91
499.91	37820.72
500.08	37347.93
500.26	37729.44
500.44	37621.77
500.61	37577.30
500.79	37738.80
500.97	38087.54
501.14	38745.23
501.32	38529.90
501.49	38609.48
501.67	38625.86
501.84	39250.78
502.02	39089.29
502.20	39079.92
502.37	39433.35
502.55	39178.23
502.72	39658.04
502.90	39700.17
503.07	39569.10
503.25	39875.71
503.43	39517.60
503.60	40177.64
503.78	39798.47
503.95	40334.45
504.13	40552.12
504.30	40620.00
504.48	40294.66
504.65	40840.01
504.83	41357.27
505.01	41331.52
505.18	41434.50
505.36	41539.83
505.53	41331.52
505.71	41748.14
505.88	41537.49
506.06	41317.48
506.23	41991.55
506.41	41830.05
506.58	42298.16
506.76	42176.45
506.93	42534.56
507.11	42169.43
507.28	42735.84
507.46	42768.61
507.63	42763.93
507.81	43124.37
507.98	42628.18
508.16	42983.94
508.33	43981.01
508.50	43370.13
508.68	43716.53
508.85	43697.80
509.03	43690.78
509.20	44102.71
509.38	44395.28
509.55	44542.74
509.73	44458.48
509.90	44751.04
510.08	44659.76
510.25	44587.21
510.42	45151.27
510.60	45141.91
510.77	45102.12
510.95	45425.12
511.12	45310.43
511.30	45298.73
511.47	45895.56
511.64	45043.61
511.82	46075.79
511.99	45991.53
512.17	45897.91
512.34	46075.79
512.51	46440.91
512.69	46176.43
512.86	46609.43
513.04	46419.84
513.21	46600.07
513.38	46623.47
513.56	47147.75
513.73	46604.75
513.90	47285.84
514.08	47079.88
514.25	47559.69
514.43	47452.02
514.60	47547.98
514.77	47599.47
514.95	47482.45
515.12	47437.98
515.29	47388.83
515.47	47999.71
515.64	48100.35
515.81	47636.92
515.99	48327.38
516.16	48652.72
516.33	48413.98
516.51	48671.44
516.68	48083.97
516.85	48821.23
517.03	49085.72
517.20	48947.62
517.37	48814.21
517.54	48694.85
517.72	48971.03
517.89	48978.05
518.06	49345.51
518.24	49415.73
518.41	49502.33
518.58	49546.80
518.75	49102.10
518.93	49633.40
519.10	49710.64
519.27	49731.70
519.45	50260.66
519.62	50085.12
519.79	50398.76
519.96	49830.01
520.14	50288.75
520.31	50045.33
520.48	50733.45
520.65	50396.42
520.83	50883.25
521.00	50822.39
521.17	50480.67
521.34	51033.04
521.52	50995.59
521.69	50649.19
521.86	51011.98
522.03	51023.68
522.20	51384.12
522.38	51601.79
522.55	51349.01
522.72	51519.87
522.89	51360.72
523.07	51423.91
523.24	51746.90
523.41	51709.46
523.58	51547.96
523.75	51842.87
523.92	51742.22
524.10	51709.46
524.27	52034.79
524.44	52254.80
524.61	51920.10
524.78	52086.28
524.96	52252.46
525.13	52615.24
525.30	52535.66
525.47	52701.84
525.64	52367.15
525.81	52528.64
525.98	52797.80
526.16	52486.51
526.33	52849.30
526.50	53165.27
526.67	52910.15
526.84	52975.69
527.01	53013.13
527.18	52772.06
527.36	53041.22
527.53	53036.54
527.70	53179.31
527.87	53504.65
528.04	53237.83
528.21	53549.12
528.38	53539.75
528.55	53371.24
528.72	53366.55
528.89	53378.26
529.07	53167.61
529.24	53607.63
529.41	53792.53
529.58	53752.74
529.75	53811.26
529.92	53846.36
530.09	53624.01
530.26	54089.78
530.43	53947.01
530.60	54007.86
530.77	54052.33
530.94	54131.91
531.11	54209.15
531.28	54218.51
531.46	54012.54
531.63	54405.75
531.80	54372.99
531.97	54443.20
532.14	54370.64
532.31	54309.79
532.48	54445.54
532.65	54733.43
532.82	54600.02
532.99	54827.05
533.16	54443.20
533.33	54955.78
533.50	54822.37
533.67	54784.92
533.84	54798.96
534.01	55030.68
534.18	54981.52
534.35	55150.04
534.52	55131.32
534.69	55271.75
534.86	55339.63
535.03	54986.21
535.20	55288.13
535.37	55395.80
535.54	55515.17
535.71	55047.06
535.88	55395.80
536.05	55636.87
536.22	55674.32
536.38	55622.83
536.55	55739.86
536.72	55611.13
536.89	55655.60
537.06	55573.68
537.23	55845.18
537.40	55519.85
537.57	55789.01
537.74	55896.67
537.91	56086.26
538.08	55976.25
538.25	55828.80
538.42	55990.30
538.59	56177.54
538.75	55814.76
538.92	56191.58
539.09	56425.64
539.26	56193.92
539.43	56074.55
539.60	56306.27
539.77	56163.50
539.94	56423.29
540.11	56610.54
540.28	56282.86
540.44	56474.79
540.61	56413.93
540.78	56547.34
540.95	56472.45
541.12	56320.31
541.29	56460.74
541.46	56699.48
541.62	56383.51
541.79	56774.37
541.96	56608.20
542.13	56643.30
542.30	56533.30
542.47	56643.30
542.63	56905.44
542.80	57010.77
542.97	57008.43
543.14	57263.55
543.31	57137.16
543.48	57200.35
543.64	57551.43
543.81	57399.30
543.98	57350.15
544.15	57249.50
544.32	57471.85
544.48	57860.38
544.65	57577.18
544.82	57717.61
544.99	57085.67
545.16	57836.98
545.32	57525.69
545.49	57773.78
545.66	57961.03
545.83	57778.46
546.00	57916.56
546.16	57785.49
546.33	57528.03
546.50	57532.71
546.67	57839.32
546.83	57315.04
547.00	57790.17
547.17	58035.92
547.34	57886.13
547.50	58211.46
547.67	58216.14
547.84	58021.88
548.00	58056.99
548.17	58284.02
548.34	58258.27
548.51	58234.87
548.67	58148.27
548.84	58054.65
549.01	58054.65
549.18	58148.27
549.34	58316.79
549.51	58239.55
549.68	58536.80
549.84	58389.34
550.01	58375.30
550.18	58452.54
550.34	58377.64
550.51	58464.24
550.68	58569.57
550.84	58040.60
551.01	58415.09
551.18	58190.40
551.34	58738.08
551.51	58536.80
551.68	58702.98
551.84	58609.35
552.01	58405.73
552.18	58796.60
552.34	58630.42
552.51	58850.43
552.68	58651.48
552.84	58801.28
553.01	58885.54
553.18	58831.71
553.34	58976.82
553.51	58855.11
553.67	58871.49
553.84	59023.63
554.01	58939.37
554.17	58965.12
554.34	58871.49
554.51	59072.78
554.67	59072.78
554.84	58988.52
555.00	59147.68
555.17	59131.29
555.33	59344.28
555.50	59054.06
555.67	59047.04
555.83	59128.95
556.00	59234.28
556.16	59531.53
556.33	59243.64
556.50	59318.54
556.66	59210.87
556.83	59196.83
556.99	59412.16
557.16	59465.99
557.32	59526.84
557.49	59566.63
557.65	59318.54
557.82	59341.94
557.98	59451.95
558.15	59365.35
558.32	59615.79
558.48	59363.01
558.65	59508.12
558.81	59711.75
558.98	59671.96
559.14	59533.87
559.31	59737.49
559.47	59817.07
559.64	59580.68
559.80	59774.94
559.97	59709.41
560.13	59681.32
560.30	59716.43
560.46	59751.54
560.63	59920.05
560.79	59676.64
560.96	59903.67
561.12	59955.16
561.29	59786.64
561.45	59955.16
561.61	59908.35
561.78	59985.59
561.94	59901.33
562.11	59767.92
562.27	59917.71
562.44	59931.76
562.60	59966.87
562.77	60072.19
562.93	59807.71
563.10	60156.45
563.26	59990.27
563.42	60273.48
563.59	60027.72
563.75	60053.47
563.92	60126.02
564.08	59945.80
564.24	60093.25
564.41	60088.57
564.57	60191.56
564.74	60074.53
564.90	60170.49
565.07	60172.83
565.23	60079.21
565.39	60186.88
565.56	60371.78
565.72	60331.99
565.88	60165.81
566.05	60331.99
566.21	60128.36
566.38	60303.90
566.54	60299.22
566.70	60243.05
566.87	60505.19
567.03	60226.66
567.19	60519.23
567.36	60233.69
567.52	60472.42
567.68	60603.49
567.85	60411.57
568.01	60467.74
568.17	60261.77
568.34	60406.89
568.50	60397.52
568.66	60474.76
568.83	60315.61
568.99	60268.79
569.15	60636.26
569.32	60486.46
569.48	60500.51
569.64	60591.79
569.81	60528.59
569.97	60498.17
570.13	60491.15
570.30	60287.52
570.46	60385.82
570.62	60540.30
570.78	60584.77
570.95	60460.72
571.11	60626.90
571.27	60430.29
571.43	60617.53
571.60	60830.52
571.76	60718.18
571.92	60647.96
572.09	60537.96
572.25	60535.62
572.41	60554.34
572.57	60507.53
572.74	60706.47
572.90	60406.89
573.06	60708.82
573.22	60554.34
573.38	60711.16
573.55	60769.67
573.71	60917.12
573.87	60802.44
574.03	60526.25
574.20	60750.94
574.36	60605.83
574.52	60788.39
574.68	60669.03
574.84	60772.01
575.01	60750.94
575.17	60769.67
575.33	60736.90
575.49	60500.51
575.65	60788.39
575.82	61041.17
575.98	60748.60
576.14	60994.36
576.30	60891.38
576.46	60662.00
576.62	60846.91
576.79	60863.29
576.95	60484.12
577.11	60816.48
577.27	60844.57
577.43	60858.61
577.59	60825.84
577.75	60666.69
577.92	60460.72
578.08	60856.27
578.24	60919.46
578.40	61085.64
578.56	60919.46
578.72	60640.94
578.88	60987.34
579.04	61202.67
579.21	60945.21
579.37	61197.99
579.53	61165.22
579.69	60858.61
579.85	61078.62
580.01	60769.67
580.17	60566.04
580.33	61064.58
580.49	60828.18
580.65	60996.70
580.82	60814.14
580.98	60790.73
581.14	60891.38
581.30	61010.74
581.46	60804.78
581.62	60863.29
581.78	61001.38
581.94	60924.14
582.10	61006.06
582.26	60800.10
582.42	60680.73
582.58	61055.21
582.74	60931.17
582.90	60858.61
583.06	61041.17
583.22	60715.84
583.38	60966.27
583.54	60713.50
583.70	61155.86
583.86	61123.09
584.02	60884.36
584.18	61031.81
584.34	60870.31
584.50	60907.76
584.66	60996.70
584.82	61024.79
584.98	61254.16
585.14	61062.24
585.30	60872.65
585.46	61324.38
585.62	61130.11
585.78	61277.57
585.94	60842.23
586.10	61048.19
586.26	61062.24
586.42	61132.45
586.58	61066.92
586.74	60945.21
586.90	61059.90
587.06	60912.44
587.22	61092.66
587.38	61130.11
587.54	61102.03
587.70	61359.48
587.86	61144.16
588.02	60942.87
588.18	61240.12
588.34	61066.92
