SpectraSuite Data File
++++++++++++++++++++++++++++++++++++
Date: Fri Oct 25 11:34:47 EDT 2013
User: price-jones
Dark Spectrum Present: No
Reference Spectrum Present: No
Number of Sampled Component Spectra: 1
Spectrometers: USB2+H05261
Integration Time (usec): 100000 (USB2+H05261)
Spectra Averaged: 1 (USB2+H05261)
Boxcar Smoothing: 0 (USB2+H05261)
Correct for Electrical Dark: No (USB2+H05261)
Strobe/Lamp Enabled: No (USB2+H05261)
Correct for Detector Non-linearity: No (USB2+H05261)
Correct for Stray Light: No (USB2+H05261)
Number of Pixels in Processed Spectrum: 2048
>>>>>Begin Processed Spectral Data<<<<<
365.73	269.16
365.92	269.16
366.12	269.16
366.32	215.33
366.52	180.22
366.72	187.24
366.91	187.24
367.11	189.58
367.31	156.82
367.51	292.57
367.70	198.95
367.90	259.80
368.10	173.20
368.30	159.16
368.49	168.52
368.69	229.37
368.89	224.69
369.09	271.50
369.28	283.20
369.48	252.78
369.68	290.23
369.87	334.70
370.07	273.84
370.27	189.58
370.47	353.42
370.66	451.72
370.86	519.60
371.06	620.24
371.25	524.28
371.45	484.49
371.65	475.13
371.84	568.75
372.04	561.73
372.24	535.98
372.44	531.30
372.63	660.03
372.83	596.84
373.03	571.09
373.22	531.30
373.42	578.11
373.62	676.41
373.81	592.16
374.01	608.54
374.21	657.69
374.40	573.43
374.60	638.97
374.79	645.99
374.99	667.05
375.19	692.80
375.38	699.82
375.58	627.26
375.78	655.35
375.97	650.67
376.17	690.46
376.37	610.88
376.56	634.29
376.76	615.56
376.95	594.50
377.15	683.44
377.35	692.80
377.54	653.01
377.74	699.82
377.93	580.45
378.13	718.54
378.33	617.90
378.52	720.88
378.72	758.33
378.91	800.46
379.11	678.76
379.31	716.20
379.50	706.84
379.70	678.76
379.89	685.78
380.09	704.50
380.28	718.54
380.48	737.27
380.68	676.41
380.87	683.44
381.07	718.54
381.26	676.41
381.46	711.52
381.65	739.61
381.85	739.61
382.04	798.12
382.24	894.08
382.43	800.46
382.63	791.10
382.83	767.70
383.02	755.99
383.22	901.11
383.41	788.76
383.61	765.36
383.80	772.38
384.00	765.36
384.19	802.80
384.39	816.85
384.58	896.43
384.78	828.55
384.97	809.83
385.17	779.40
385.36	758.33
385.56	746.63
385.75	741.95
385.95	763.01
386.14	807.48
386.34	784.08
386.53	751.31
386.72	720.88
386.92	929.19
387.11	833.23
387.31	882.38
387.50	781.74
387.70	849.61
387.89	856.64
388.09	863.66
388.28	851.96
388.48	894.08
388.67	926.85
388.86	908.13
389.06	943.24
389.25	933.87
389.45	910.47
389.64	926.85
389.84	936.21
390.03	957.28
390.22	994.73
390.42	997.07
390.61	1011.11
390.81	870.68
391.00	1015.79
391.19	1039.20
391.39	980.68
391.58	987.71
391.78	952.60
391.97	1013.45
392.16	1020.47
392.36	1020.47
392.55	961.96
392.75	1069.62
392.94	999.41
393.13	1069.62
393.33	1071.97
393.52	1015.79
393.71	1055.58
393.91	1057.92
394.10	1039.20
394.29	1055.58
394.49	1114.10
394.68	1053.24
394.88	1046.22
395.07	1146.86
395.26	1090.69
395.46	1170.27
395.65	1146.86
395.84	1104.73
396.04	1207.72
396.23	1107.07
396.42	1109.41
396.62	1186.65
396.81	1252.19
397.00	1228.78
397.19	1156.22
397.39	1137.50
397.58	1184.31
397.77	1177.29
397.97	1210.06
398.16	1188.99
398.35	1252.19
398.55	1228.78
398.74	1193.67
398.93	1238.14
399.12	1291.98
399.32	1214.74
399.51	1273.25
399.70	1322.40
399.90	1249.85
400.09	1348.15
400.28	1289.64
400.47	1355.17
400.67	1378.58
400.86	1390.28
401.05	1359.85
401.24	1378.58
401.44	1394.96
401.63	1308.36
401.82	1350.49
402.01	1411.34
402.21	1399.64
402.40	1406.66
402.59	1380.92
402.78	1420.71
402.97	1502.62
403.17	1383.26
403.36	1427.73
403.55	1458.15
403.74	1551.78
403.93	1561.14
404.13	1565.82
404.32	1514.33
404.51	1643.06
404.70	1638.38
404.89	1575.18
405.09	1678.16
405.28	1607.95
405.47	1528.37
405.66	1607.95
405.85	1682.85
406.05	1600.93
406.24	1624.33
406.43	1755.40
406.62	1652.42
406.81	1792.85
407.00	1617.31
407.20	1687.53
407.39	1734.34
407.58	1703.91
407.77	1802.21
407.96	1701.57
408.15	1722.63
408.34	1778.81
408.54	1816.26
408.73	1837.32
408.92	1884.13
409.11	1870.09
409.30	1898.17
409.49	1846.68
409.68	1921.58
409.87	1851.36
410.07	1961.37
410.26	1900.52
410.45	1961.37
410.64	1933.28
410.83	2047.97
411.02	2062.01
411.21	2115.84
411.40	2066.69
411.59	2031.58
411.78	1996.48
411.98	2005.84
412.17	2200.10
412.36	2125.21
412.55	2132.23
412.74	2291.38
412.93	2172.02
413.12	2235.21
413.31	2356.92
413.50	2230.53
413.69	2424.80
413.88	2312.45
414.07	2462.24
414.26	2469.27
414.45	2420.11
414.64	2354.58
414.83	2455.22
415.02	2537.14
415.22	2462.24
415.41	2523.10
415.60	2544.16
415.79	2473.95
415.98	2663.53
416.17	2661.19
416.36	2651.83
416.55	2637.78
416.74	2677.57
416.93	2607.36
417.12	2658.85
417.31	2700.98
417.50	2738.43
417.69	2815.66
417.88	2853.11
418.07	2761.83
418.26	2761.83
418.45	2876.52
418.64	2967.80
418.83	2867.16
419.02	2862.48
419.21	2920.99
419.39	2942.05
419.58	2911.63
419.77	3038.02
419.96	2937.37
420.15	3115.25
420.34	3035.67
420.53	2970.14
420.72	3152.70
420.91	3026.31
421.10	3126.96
421.29	3098.87
421.48	3042.70
421.67	3129.30
421.86	3171.43
422.05	3054.40
422.24	3152.70
422.43	3112.91
422.61	3169.09
422.80	3084.83
422.99	3288.45
423.18	3276.75
423.37	3288.45
423.56	3234.62
423.75	3190.15
423.94	3131.64
424.13	3194.83
424.32	3150.36
424.50	3304.84
424.69	3337.60
424.88	3274.41
425.07	3309.52
425.26	3215.90
425.45	3330.58
425.64	3293.13
425.83	3148.02
426.01	3344.63
426.20	3300.16
426.39	3178.45
426.58	3370.37
426.77	3323.56
426.96	3255.69
427.15	3403.14
427.33	3356.33
427.52	3482.72
427.71	3466.33
427.90	3386.76
428.09	3496.76
428.28	3452.29
428.46	3536.55
428.65	3545.91
428.84	3606.77
429.03	3602.08
429.22	3583.36
429.40	3623.15
429.59	3651.24
429.78	3630.17
429.97	3414.84
430.16	3585.70
430.34	3637.19
430.53	3665.28
430.72	3641.87
430.91	3721.45
431.10	3667.62
431.28	3733.15
431.47	3826.78
431.66	3843.16
431.85	3765.92
432.03	3838.48
432.22	3997.64
432.41	3789.33
432.60	3815.07
432.79	3943.80
432.97	3836.14
433.16	3805.71
433.35	3892.31
433.54	3936.78
433.72	3978.91
433.91	3866.56
434.10	3990.61
434.28	4007.00
434.47	4053.81
434.66	4182.54
434.85	4154.45
435.03	4011.68
435.22	4009.34
435.41	4131.05
435.59	4098.28
435.78	4147.43
435.97	4212.96
436.16	4124.02
436.34	4098.28
436.53	4294.88
436.72	4299.56
436.90	4278.50
437.09	4231.69
437.28	4252.75
437.46	4227.01
437.65	4283.18
437.84	4362.76
438.02	4407.23
438.21	4503.19
438.40	4304.25
438.58	4477.44
438.77	4545.32
438.96	4603.83
439.14	4554.68
439.33	4706.82
439.52	4784.06
439.70	4709.16
439.89	4851.93
440.08	4767.67
440.26	4793.42
440.45	4865.97
440.63	4880.02
440.82	4873.00
441.01	4854.27
441.19	4903.42
441.38	4959.60
441.57	4833.21
441.75	5034.49
441.94	5322.38
442.12	5123.43
442.31	5097.69
442.50	5177.26
442.68	5179.61
442.87	4990.02
443.05	5198.33
443.24	5322.38
443.43	5313.02
443.61	5247.48
443.80	5413.66
443.98	5235.78
444.17	5130.45
444.35	5268.55
444.54	5343.44
444.73	5366.85
444.91	5245.14
445.10	5343.44
445.28	5291.95
445.47	5324.72
445.65	5387.91
445.84	5423.02
446.02	5387.91
446.21	5474.51
446.39	5228.76
446.58	5540.05
446.77	5430.04
446.95	5444.09
447.14	5430.04
447.32	5446.43
447.51	5448.77
447.69	5348.12
447.88	5401.96
448.06	5441.75
448.25	5481.53
448.43	5465.15
448.62	5420.68
448.80	5514.30
448.99	5593.88
449.17	5593.88
449.36	5516.64
449.54	5514.30
449.73	5727.29
449.91	5736.65
450.10	5682.82
450.28	5898.15
450.46	5851.34
450.65	5881.77
450.83	5792.83
451.02	5664.10
451.20	5846.66
451.39	5823.25
451.57	5954.32
451.76	5797.51
451.94	5898.15
452.13	5902.83
452.31	5989.43
452.49	5944.96
452.68	6094.76
452.86	5851.34
453.05	5963.68
453.23	6169.65
453.42	6069.01
453.60	6106.46
453.78	6265.61
453.97	6097.10
454.15	6127.52
454.34	6183.70
454.52	6296.04
454.70	6148.59
454.89	6160.29
455.07	6101.78
455.26	6183.70
455.44	6328.81
455.62	6340.51
455.81	6380.30
455.99	6401.37
456.17	6267.95
456.36	6342.85
456.54	6466.90
456.73	6588.61
456.91	6574.56
457.09	6722.02
457.28	6771.17
457.46	6752.45
457.64	6700.95
457.83	6799.26
458.01	6609.67
458.19	6843.73
458.38	6733.72
458.56	6832.02
458.74	6726.70
458.93	6722.02
459.11	6787.55
459.29	6932.67
459.48	6876.49
459.66	6897.56
459.84	6970.12
460.03	7063.74
460.21	7035.65
460.39	7000.54
460.57	6927.99
460.76	7005.22
460.94	6991.18
461.12	7157.36
461.31	7222.89
461.49	7119.91
461.67	7129.27
461.85	7288.43
462.04	7140.97
462.22	7386.73
462.40	7239.28
462.59	7265.02
462.77	7328.22
462.95	7375.03
463.13	7276.73
463.32	7300.13
463.50	7517.80
463.68	7442.90
463.86	7550.57
464.05	7459.29
464.23	7424.18
464.41	7646.53
464.59	7225.23
464.78	7770.58
464.96	7763.56
465.14	7527.16
465.32	7606.74
465.50	7555.25
465.69	7784.62
465.87	7602.06
466.05	7688.66
466.23	7756.54
466.41	7566.95
466.60	7906.33
466.78	7793.98
466.96	7852.50
467.14	7758.88
467.32	7819.73
467.51	7798.66
467.69	7478.01
467.87	7978.89
468.05	7889.95
468.23	7754.19
468.41	8023.36
468.60	8107.62
468.78	8114.64
468.96	8128.68
469.14	8039.74
469.32	8161.45
469.50	7906.33
469.69	8299.54
469.87	8362.73
470.05	8257.41
470.23	8381.46
470.41	8173.15
470.59	8484.44
470.77	8437.63
470.95	8479.76
471.14	8692.75
471.32	8163.79
471.50	8568.70
471.68	8514.87
471.86	8596.79
472.04	8524.23
472.22	8802.75
472.40	8575.72
472.58	8610.83
472.77	8683.39
472.95	8924.46
473.13	9156.18
473.31	8706.79
473.49	8875.31
473.67	8903.40
473.85	9046.17
474.03	9020.42
474.21	9090.64
474.39	9366.82
474.57	9240.44
474.75	9371.50
474.93	9348.10
475.12	9511.94
475.30	9504.92
475.48	9399.59
475.66	9675.77
475.84	9547.05
476.02	9858.34
476.20	9525.98
476.38	9837.27
476.56	10008.13
476.74	10026.86
476.92	9942.60
477.10	9989.41
477.28	9987.07
477.46	10024.51
477.64	10101.75
477.82	10359.21
478.00	10576.88
478.18	10462.19
478.36	10569.86
478.54	10635.39
478.72	10829.66
478.90	10909.24
479.08	10925.62
479.26	10841.36
479.44	10820.30
479.62	11059.03
479.80	11157.33
479.98	11243.93
480.16	11499.05
480.34	11522.46
480.52	11459.26
480.70	11625.44
480.88	11501.39
481.06	11744.81
481.24	11740.13
481.41	11882.90
481.59	11950.78
481.77	11983.54
481.95	12009.29
482.13	12360.37
482.31	12273.77
482.49	12662.30
482.67	12575.70
482.85	12610.81
483.03	12851.88
483.21	12929.12
483.39	13114.02
483.57	12966.57
483.74	13060.19
483.92	13099.98
484.10	13327.01
484.28	13394.89
484.46	13724.90
484.64	13736.60
484.82	13650.00
485.00	14054.92
485.18	13694.47
485.35	14181.31
485.53	14214.07
485.71	14164.92
485.89	14600.26
486.07	14607.28
486.25	14464.51
486.43	14555.79
486.61	14944.32
486.78	14857.72
486.96	14934.96
487.14	15098.80
487.32	15063.69
487.50	15365.62
487.68	15515.41
487.85	15597.33
488.03	15899.26
488.21	15833.72
488.39	16011.60
488.57	16149.70
488.75	16170.76
488.92	16470.35
489.10	16645.89
489.28	16800.37
489.46	16734.83
489.64	16521.84
489.81	16999.31
489.99	16938.46
490.17	16875.26
490.35	17383.16
490.53	17647.64
490.70	17621.89
490.88	17326.99
491.06	17900.42
491.24	17596.15
491.41	17776.37
491.59	18106.38
491.77	18223.41
491.95	18115.75
492.13	18527.68
492.30	18721.95
492.48	18242.14
492.66	19056.64
492.84	18483.21
493.01	19014.51
493.19	19014.51
493.37	19157.28
493.54	19410.06
493.72	19281.33
493.90	19370.27
494.08	19491.98
494.25	19800.93
494.43	19597.31
494.61	19857.10
494.79	20226.91
494.96	19854.76
495.14	20100.52
495.32	20542.88
495.49	20470.33
495.67	20393.09
495.85	21043.76
496.02	20542.88
496.20	20849.49
496.38	20922.05
496.55	21165.46
496.73	21310.58
496.91	21514.20
497.09	21436.97
497.26	21135.04
497.44	21565.70
497.62	21699.11
497.79	22122.74
497.97	22052.53
498.14	22370.84
498.32	22120.40
498.50	22265.52
498.67	22368.50
498.85	22319.35
499.03	22567.45
499.20	22782.77
499.38	23126.83
499.56	22850.65
499.73	23211.09
499.91	23328.12
500.08	23360.89
500.26	23356.21
500.44	23344.50
500.61	23293.01
500.79	23288.33
500.97	23655.79
501.14	24020.92
501.32	23924.96
501.49	23740.05
501.67	24088.79
501.84	24065.39
502.02	24011.56
502.20	24088.79
502.37	24404.77
502.55	23931.98
502.72	24353.27
502.90	24306.46
503.07	24709.04
503.25	24482.00
503.43	24676.27
503.60	24737.12
503.78	24723.08
503.95	24936.07
504.13	25193.53
504.30	25181.82
504.48	24905.64
504.65	25214.59
504.83	25387.79
505.01	25476.73
505.18	25521.20
505.36	25680.36
505.53	25687.38
505.71	25439.28
505.88	25921.43
506.06	25539.93
506.23	26417.63
506.41	25759.94
506.58	26160.17
506.76	26188.25
506.93	26513.59
507.11	26586.15
507.28	26672.74
507.46	26686.79
507.63	26455.08
507.81	26677.43
507.98	26635.30
508.16	26693.81
508.33	26373.16
508.50	26977.01
508.68	26766.37
508.85	26972.33
509.03	27346.82
509.20	27552.79
509.38	27222.77
509.55	27606.62
509.73	27852.38
509.90	27468.53
510.08	27751.73
510.25	27850.03
510.42	28063.02
510.60	27578.53
510.77	28163.67
510.95	28098.13
511.12	27946.00
511.30	27782.16
511.47	28266.65
511.64	28582.62
511.82	28589.64
511.99	28826.04
512.17	28711.35
512.34	28533.47
512.51	29053.07
512.69	29294.14
512.86	28938.38
513.04	28999.24
513.21	28933.70
513.38	29277.76
513.56	29207.55
513.73	29200.52
513.90	29455.64
514.08	29453.30
514.25	29450.96
514.43	29677.99
514.60	29488.41
514.77	29626.50
514.95	29762.25
515.12	29589.05
515.29	29773.95
515.47	30532.29
515.64	29965.88
515.81	29879.28
515.99	30146.10
516.16	30742.94
516.33	30525.27
516.51	30380.15
516.68	30616.55
516.85	30459.73
517.03	30962.95
517.20	30721.87
517.37	30717.19
517.54	30808.47
517.72	31063.59
517.89	30799.11
518.06	31033.16
518.24	31178.28
518.41	30899.75
518.58	30918.48
518.75	31129.12
518.93	31583.19
519.10	31019.12
519.27	31344.45
519.45	31044.87
519.62	31693.19
519.79	31999.80
519.96	31854.69
520.14	32154.28
520.31	31234.45
520.48	32098.11
520.65	32201.09
520.83	32175.34
521.00	32376.63
521.17	32381.31
521.34	32362.59
521.52	32594.30
521.69	32776.86
521.86	32783.88
522.03	32936.02
522.20	32786.22
522.38	32898.57
522.55	33074.11
522.72	32711.33
522.89	33099.86
523.07	33399.44
523.24	32800.27
523.41	33235.61
523.58	33149.01
523.75	33603.07
523.92	33310.50
524.10	33528.17
524.27	33270.72
524.44	33462.64
524.61	33528.17
524.78	33860.53
524.96	33689.67
525.13	33757.55
525.30	33787.97
525.47	34326.30
525.64	33935.43
525.81	34483.11
525.98	34153.10
526.16	34244.38
526.33	34190.55
526.50	34082.88
526.67	33844.15
526.84	34141.39
527.01	34298.21
527.18	34300.55
527.36	34511.20
527.53	34602.48
527.70	34810.79
527.87	35049.52
528.04	34817.81
528.21	34967.60
528.38	34698.44
528.55	34731.21
528.72	34946.54
528.89	35115.06
529.07	35054.20
529.24	35110.38
529.41	35367.84
529.58	35065.91
529.75	35438.05
529.92	35480.18
530.09	35227.40
530.26	35388.90
530.43	35449.75
530.60	35206.34
530.77	35213.36
530.94	35658.06
531.11	35779.77
531.28	35913.18
531.46	35510.61
531.63	35608.91
531.80	36072.34
531.97	36163.62
532.14	36034.89
532.31	36144.89
532.48	36360.22
532.65	36222.13
532.82	36187.02
532.99	36519.38
533.16	36341.50
533.33	36135.53
533.50	36334.48
533.67	36484.27
533.84	36142.55
534.01	36634.06
534.18	36538.10
534.35	37085.79
534.52	37148.98
534.69	36767.48
534.86	37310.48
535.03	36928.97
535.20	37050.68
535.37	36992.17
535.54	37392.40
535.71	36893.86
535.88	37156.00
536.05	37181.75
536.22	37399.42
536.38	37347.93
536.55	36893.86
536.72	37954.13
536.89	37706.03
537.06	37881.57
537.23	37710.71
537.40	37394.74
537.57	37544.53
537.74	37832.42
537.91	37584.32
538.08	37497.72
538.25	37331.54
538.42	37811.35
538.59	37633.47
538.75	37574.96
538.92	38115.62
539.09	38108.60
539.26	38326.27
539.43	38183.50
539.60	38199.88
539.77	37841.78
539.94	38663.31
540.11	38401.17
540.28	38375.42
540.44	38410.53
540.61	38326.27
540.78	38174.14
540.95	38522.88
541.12	38347.34
541.29	38462.02
541.46	38597.77
541.62	38490.11
541.79	38855.23
541.96	38522.88
542.13	38913.75
542.30	38494.79
542.47	38775.66
542.63	39295.25
542.80	39365.47
542.97	39281.21
543.14	39725.91
543.31	38981.62
543.48	39674.42
543.64	39555.05
543.81	39803.15
543.98	39522.29
544.15	39337.38
544.32	39262.49
544.48	40318.07
544.65	39660.38
544.82	39861.66
544.99	39573.78
545.16	39566.76
545.32	39707.19
545.49	40208.06
545.66	40027.84
545.83	40102.74
546.00	40264.24
546.16	40212.74
546.33	39756.34
546.50	39676.76
546.67	40446.80
546.83	39459.09
547.00	40215.08
547.17	40151.89
547.34	40259.55
547.50	40631.70
547.67	40563.82
547.84	40643.40
548.00	40664.47
548.17	40924.27
548.34	40376.58
548.51	40919.59
548.67	40549.78
548.84	40687.87
549.01	40648.08
549.18	40893.84
549.34	40968.74
549.51	41219.17
549.68	40985.12
549.84	40790.86
550.01	41193.43
550.18	40865.75
550.34	40935.97
550.51	41179.39
550.68	41415.78
550.84	40971.08
551.01	41153.64
551.18	40968.74
551.34	40992.14
551.51	41411.10
551.68	41530.47
551.84	41064.70
552.01	41163.00
552.18	41240.24
552.34	41528.13
552.51	41273.01
552.68	41565.57
552.84	41794.95
553.01	41584.30
553.18	41741.11
553.34	41560.89
553.51	41935.38
553.67	41656.85
553.84	41762.18
554.01	42000.91
554.17	42012.62
554.34	42131.98
554.51	41729.41
554.67	42190.50
554.84	41731.75
555.00	41734.09
555.17	41773.88
555.33	42005.59
555.50	42204.54
555.67	42108.58
555.83	42183.48
556.00	42241.99
556.16	42431.57
556.33	42403.49
556.50	42398.80
556.66	42560.30
556.83	42190.50
556.99	42419.87
557.16	42635.20
557.32	42855.21
557.49	42553.28
557.65	42036.02
557.82	42534.56
557.98	42653.92
558.15	42429.23
558.32	42412.85
558.48	42454.98
558.65	42333.27
558.81	42665.63
558.98	42258.37
559.14	42726.48
559.31	42738.18
559.47	42923.08
559.64	42761.59
559.80	43276.51
559.97	42752.23
560.13	42494.77
560.30	42560.30
560.46	43227.35
560.63	43026.07
560.79	43131.39
560.96	43292.89
561.12	43119.69
561.29	43007.34
561.45	42836.48
561.61	43026.07
561.78	42981.60
561.94	43152.46
562.11	43227.35
562.27	43842.92
562.44	43091.60
562.60	43309.27
562.77	43503.54
562.93	43271.82
563.10	42969.90
563.26	43173.52
563.42	43337.36
563.59	42965.21
563.75	42756.91
563.92	43082.24
564.08	43042.45
564.24	44041.86
564.41	43145.44
564.57	43578.43
564.74	43672.06
564.90	43805.47
565.07	43222.67
565.23	43122.03
565.39	43772.70
565.56	43262.46
565.72	43335.02
565.88	43435.66
566.05	43728.23
566.21	43763.34
566.38	43721.21
566.54	43725.89
566.70	43587.80
566.87	43768.02
567.03	43566.73
567.19	43866.32
567.36	43440.34
567.52	44018.46
567.68	44074.63
567.85	44072.29
568.01	44201.02
568.17	44009.09
568.34	43803.13
568.50	44130.80
568.66	43548.01
568.83	44254.85
568.99	43751.63
569.15	43723.55
569.32	43445.02
569.48	43709.50
569.64	43922.49
569.81	43901.43
569.97	43913.13
570.13	44076.97
570.30	43639.29
570.46	44025.48
570.62	44025.48
570.78	43831.21
570.95	43810.15
571.11	44306.34
571.27	43976.33
571.43	43849.94
571.60	44196.34
571.76	43667.37
571.92	43889.73
572.09	44016.11
572.25	43779.72
572.41	44196.34
572.57	44411.67
572.74	44402.30
572.90	44472.52
573.06	44456.14
573.22	44186.97
573.38	44538.05
573.55	44423.37
573.71	44645.72
573.87	44257.19
574.03	44083.99
574.20	44524.01
574.36	44191.65
574.52	44818.92
574.68	44247.83
574.84	44692.53
575.01	44378.90
575.17	44507.63
575.33	44231.44
575.49	44268.89
575.65	44451.45
575.82	44619.97
575.98	44360.17
576.14	44631.68
576.30	44542.74
576.46	44116.76
576.62	44095.69
576.79	44378.90
576.95	44163.57
577.11	44488.90
577.27	44509.97
577.43	44404.64
577.59	44657.42
577.75	44418.69
577.92	44500.61
578.08	44285.28
578.24	44622.31
578.40	44596.57
578.56	44343.79
578.72	44292.30
578.88	44542.74
579.04	44772.11
579.21	44495.92
579.37	44893.82
579.53	44722.96
579.69	44610.61
579.85	44107.40
580.01	44577.84
580.17	44116.76
580.33	45029.57
580.49	44776.79
580.65	44610.61
580.82	44208.04
580.98	44301.66
581.14	44697.21
581.30	44102.71
581.46	44388.26
581.62	44495.92
581.78	44493.58
581.94	44875.09
582.10	44884.45
582.26	45008.50
582.42	44802.53
582.58	45038.93
582.74	44839.98
582.90	44044.20
583.06	44673.81
583.22	44634.02
583.38	44748.70
583.54	44559.12
583.70	44877.43
583.86	44732.32
584.02	44144.84
584.18	44849.35
584.34	44919.56
584.50	44643.38
584.66	44931.26
584.82	44767.43
584.98	45123.19
585.14	45036.59
585.30	44346.13
585.46	44858.71
585.62	44713.59
585.78	44802.53
585.94	44203.36
586.10	44823.60
586.26	44493.58
586.42	44804.88
586.58	44201.02
586.74	44830.62
586.90	44460.82
587.06	44353.15
587.22	44877.43
587.38	44650.40
587.54	45024.89
587.70	45390.01
587.86	45041.27
588.02	44985.10
588.18	44762.75
588.34	44612.95
588.49	44882.11
588.65	44566.14
588.81	44886.79
588.97	44797.85
589.13	44975.73
589.29	44563.80
589.45	45083.40
589.61	44669.12
589.77	44931.26
589.93	44641.04
590.08	45081.06
