SpectraSuite Data File
++++++++++++++++++++++++++++++++++++
Date: Fri Oct 25 11:34:03 EDT 2013
User: price-jones
Dark Spectrum Present: No
Reference Spectrum Present: No
Number of Sampled Component Spectra: 1
Spectrometers: USB2+H05261
Integration Time (usec): 100000 (USB2+H05261)
Spectra Averaged: 1 (USB2+H05261)
Boxcar Smoothing: 0 (USB2+H05261)
Correct for Electrical Dark: No (USB2+H05261)
Strobe/Lamp Enabled: No (USB2+H05261)
Correct for Detector Non-linearity: No (USB2+H05261)
Correct for Stray Light: No (USB2+H05261)
Number of Pixels in Processed Spectrum: 2048
>>>>>Begin Processed Spectral Data<<<<<
365.73	308.95
365.92	308.95
366.12	308.95
366.32	147.45
366.52	149.79
366.72	175.54
366.91	79.58
367.11	135.75
367.31	180.22
367.51	166.18
367.70	147.45
367.90	175.54
368.10	175.54
368.30	248.10
368.49	140.43
368.69	212.99
368.89	163.84
369.09	175.54
369.28	203.63
369.48	191.92
369.68	241.08
369.87	234.05
370.07	241.08
370.27	255.12
370.47	330.02
370.66	540.66
370.86	512.58
371.06	571.09
371.25	533.64
371.45	475.13
371.65	524.28
371.84	582.79
372.04	479.81
372.24	575.77
372.44	503.22
372.63	564.07
372.83	629.60
373.03	601.52
373.22	615.56
373.42	582.79
373.62	655.35
373.81	662.37
374.01	671.73
374.21	573.43
374.40	622.58
374.60	631.94
374.79	660.03
374.99	655.35
375.19	692.80
375.38	760.67
375.58	730.25
375.78	662.37
375.97	704.50
376.17	650.67
376.37	685.78
376.56	655.35
376.76	681.10
376.95	620.24
377.15	699.82
377.35	662.37
377.54	699.82
377.74	657.69
377.93	585.13
378.13	685.78
378.33	678.76
378.52	660.03
378.72	720.88
378.91	692.80
379.11	711.52
379.31	741.95
379.50	744.29
379.70	671.73
379.89	786.42
380.09	779.40
380.28	676.41
380.48	734.93
380.68	716.20
380.87	727.91
381.07	779.40
381.26	702.16
381.46	786.42
381.65	723.23
381.85	786.42
382.04	704.50
382.24	725.57
382.43	739.61
382.63	802.80
382.83	755.99
383.02	779.40
383.22	816.85
383.41	802.80
383.61	809.83
383.80	727.91
384.00	849.61
384.19	807.48
384.39	812.17
384.58	718.54
384.78	781.74
384.97	781.74
385.17	828.55
385.36	830.89
385.56	772.38
385.75	840.25
385.95	842.59
386.14	870.68
386.34	903.45
386.53	788.76
386.72	767.70
386.92	844.93
387.11	868.34
387.31	828.55
387.50	889.40
387.70	894.08
387.89	837.91
388.09	828.55
388.28	887.06
388.48	894.08
388.67	973.66
388.86	823.87
389.06	959.62
389.25	947.92
389.45	933.87
389.64	940.90
389.84	999.41
390.03	947.92
390.22	987.71
390.42	922.17
390.61	985.37
390.81	947.92
391.00	926.85
391.19	1027.50
391.39	1008.77
391.58	947.92
391.78	1032.18
391.97	1048.56
392.16	968.98
392.36	1153.88
392.55	1039.20
392.75	1142.18
392.94	950.26
393.13	1011.11
393.33	943.24
393.52	1041.54
393.71	1064.94
393.91	1090.69
394.10	1125.80
394.29	1097.71
394.49	1036.86
394.68	1135.16
394.88	1088.35
395.07	1022.81
395.26	1104.73
395.46	1142.18
395.65	1226.44
395.84	1144.52
396.04	1221.76
396.23	1198.35
396.42	1090.69
396.62	1165.59
396.81	1188.99
397.00	1221.76
397.19	1170.27
397.39	1188.99
397.58	1273.25
397.77	1174.95
397.97	1308.36
398.16	1252.19
398.35	1303.68
398.55	1259.21
398.74	1313.04
398.93	1273.25
399.12	1247.51
399.32	1303.68
399.51	1198.35
399.70	1308.36
399.90	1301.34
400.09	1338.79
400.28	1336.45
400.47	1299.00
400.67	1397.30
400.86	1397.30
401.05	1404.32
401.24	1373.89
401.44	1401.98
401.63	1425.39
401.82	1404.32
402.01	1359.85
402.21	1406.66
402.40	1448.79
402.59	1497.94
402.78	1502.62
402.97	1565.82
403.17	1507.30
403.36	1481.56
403.55	1502.62
403.74	1605.61
403.93	1509.65
404.13	1593.90
404.32	1657.10
404.51	1603.27
404.70	1680.50
404.89	1533.05
405.09	1713.27
405.28	1535.39
405.47	1593.90
405.66	1575.18
405.85	1561.14
406.05	1671.14
406.24	1678.16
406.43	1781.15
406.62	1753.06
406.81	1748.38
407.00	1708.59
407.20	1706.25
407.39	1767.10
407.58	1797.53
407.77	1785.83
407.96	1804.55
408.15	1874.77
408.34	1713.27
408.54	1970.73
408.73	1860.73
408.92	1919.24
409.11	1935.62
409.30	1966.05
409.49	1968.39
409.68	1940.30
409.87	1926.26
410.07	1998.82
410.26	2036.27
410.45	2003.50
410.64	2050.31
410.83	2059.67
411.02	2076.06
411.21	2139.25
411.40	2148.61
411.59	2146.27
411.78	2155.63
411.98	2120.53
412.17	2237.55
412.36	2160.31
412.55	2204.78
412.74	2296.07
412.93	2223.51
413.12	2197.76
413.31	2476.29
413.50	2370.96
413.69	2242.23
413.88	2504.37
414.07	2548.84
414.26	2562.89
414.45	2499.69
414.64	2600.34
414.83	2466.92
415.02	2569.91
415.22	2597.99
415.41	2633.10
415.60	2523.10
415.79	2633.10
415.98	2658.85
416.17	2740.77
416.36	2672.89
416.55	2635.44
416.74	2782.90
416.93	2733.75
417.12	2813.32
417.31	2860.13
417.50	2799.28
417.69	2827.37
417.88	2925.67
418.07	2895.24
418.26	2836.73
418.45	3019.29
418.64	3126.96
418.83	3033.33
419.02	3026.31
419.21	3019.29
419.39	3126.96
419.58	3063.76
419.77	2993.55
419.96	3101.21
420.15	3166.74
420.34	3110.57
420.53	3089.51
420.72	3152.70
420.91	3309.52
421.10	3119.93
421.29	3314.20
421.48	3180.79
421.67	3276.75
421.86	3311.86
422.05	3213.56
422.24	3197.17
422.43	3403.14
422.61	3251.00
422.80	3349.31
422.99	3372.71
423.18	3353.99
423.37	3353.99
423.56	3361.01
423.75	3321.22
423.94	3260.37
424.13	3126.96
424.32	3197.17
424.50	3468.67
424.69	3351.65
424.88	3344.63
425.07	3337.60
425.26	3258.03
425.45	3475.70
425.64	3363.35
425.83	3267.39
426.01	3466.33
426.20	3407.82
426.39	3562.30
426.58	3419.52
426.77	3407.82
426.96	3487.40
427.15	3534.21
427.33	3531.87
427.52	3468.67
427.71	3503.78
427.90	3538.89
428.09	3676.98
428.28	3616.13
428.46	3604.42
428.65	3639.53
428.84	3566.98
429.03	3772.94
429.22	3449.95
429.40	3744.86
429.59	3754.22
429.78	3597.40
429.97	3550.59
430.16	3693.37
430.34	3810.39
430.53	3758.90
430.72	3824.44
430.91	3758.90
431.10	3866.56
431.28	3833.80
431.47	3871.25
431.66	3941.46
431.85	3751.88
432.03	3927.42
432.22	4184.88
432.41	3901.67
432.60	4077.21
432.79	3955.51
432.97	4131.05
433.16	4021.04
433.35	4030.40
433.54	4039.76
433.72	3971.89
433.91	4100.62
434.10	4255.09
434.28	3983.59
434.47	4091.26
434.66	4248.07
434.85	4308.93
435.03	4248.07
435.22	4189.56
435.41	4339.35
435.59	4212.96
435.78	4283.18
435.97	4395.53
436.16	4318.29
436.34	4348.72
436.53	4425.95
436.72	4440.00
436.90	4346.37
437.09	4252.75
437.28	4327.65
437.46	4432.97
437.65	4589.79
437.84	4542.98
438.02	4559.36
438.21	4545.32
438.40	4519.57
438.58	4641.28
438.77	4720.86
438.96	4519.57
439.14	4709.16
439.33	4737.24
439.52	4833.21
439.70	4849.59
439.89	5022.79
440.08	4903.42
440.26	4882.36
440.45	4870.65
440.63	4894.06
440.82	5109.39
441.01	5142.16
441.19	5064.92
441.38	5191.31
441.57	5219.39
441.75	5123.43
441.94	5238.12
442.12	5331.74
442.31	5275.57
442.50	5483.88
442.68	5221.74
442.87	5343.44
443.05	5254.50
443.24	5495.58
443.43	5348.12
443.61	5418.34
443.80	5689.84
443.98	5408.98
444.17	5282.59
444.35	5490.90
444.54	5439.40
444.73	5521.32
444.91	5708.57
445.10	5699.20
445.28	5458.13
445.47	5469.83
445.65	5582.18
445.84	5565.79
446.02	5535.37
446.21	5502.60
446.39	5558.77
446.58	5589.20
446.77	5612.60
446.95	5713.25
447.14	5748.36
447.32	5856.02
447.51	5750.70
447.69	5682.82
447.88	5724.95
448.06	5734.31
448.25	5729.63
448.43	5607.92
448.62	5710.91
448.80	5666.44
448.99	5769.42
449.17	5893.47
449.36	5650.05
449.54	5912.19
449.73	5898.15
449.91	6080.71
450.10	6012.84
450.28	6017.52
450.46	6057.31
450.65	5914.53
450.83	5975.39
451.02	6230.51
451.20	5989.43
451.39	6019.86
451.57	6125.18
451.76	6174.33
451.94	6150.93
452.13	6239.87
452.31	6251.57
452.49	6160.29
452.68	6270.30
452.86	6120.50
453.05	6277.32
453.23	6307.74
453.42	6221.14
453.60	6384.98
453.78	6312.42
453.97	6253.91
454.15	6349.87
454.34	6134.54
454.52	6525.41
454.70	6382.64
454.89	6509.03
455.07	6438.81
455.26	6509.03
455.44	6459.88
455.62	6370.94
455.81	6567.54
455.99	6719.68
456.17	6541.80
456.36	6614.35
456.54	6775.85
456.73	6815.64
456.91	6993.52
457.09	6937.35
457.28	7124.59
457.46	6953.73
457.64	6925.65
457.83	6939.69
458.01	6825.00
458.19	7176.08
458.38	6920.96
458.56	7054.37
458.74	7190.13
458.93	7061.40
459.11	7070.76
459.29	7023.95
459.48	7222.89
459.66	7112.89
459.84	7325.88
460.03	7412.48
460.21	7236.94
460.39	7302.47
460.57	7112.89
460.76	7211.19
460.94	7358.64
461.12	7234.60
461.31	7309.49
461.49	7255.66
461.67	7435.88
461.85	7454.61
462.04	7527.16
462.22	7691.00
462.40	7637.17
462.59	7733.13
462.77	7765.90
462.95	7616.10
463.13	7702.70
463.32	7735.47
463.50	7691.00
463.68	7840.79
463.86	7801.01
464.05	7620.78
464.23	7618.44
464.41	7653.55
464.59	7786.96
464.78	7971.86
464.96	7857.18
465.14	7779.94
465.32	7882.92
465.50	7950.80
465.69	8032.72
465.87	7946.12
466.05	7990.59
466.23	7960.16
466.41	7908.67
466.60	8264.43
466.78	8081.87
466.96	8011.65
467.14	8039.74
467.32	8067.83
467.51	8231.66
467.69	8266.77
467.87	8140.38
468.05	8219.96
468.23	8161.45
468.41	8285.50
468.60	8336.99
468.78	8374.44
468.96	8386.14
469.14	8355.71
469.32	8395.50
469.50	8400.18
469.69	8587.43
469.87	8526.57
470.05	8659.98
470.23	8659.98
470.41	8613.17
470.59	8720.84
470.77	8830.84
470.95	8652.96
471.14	8777.01
471.32	8622.53
471.50	8849.57
471.68	8910.42
471.86	8912.76
472.04	8910.42
472.22	9345.76
472.40	8933.82
472.58	9090.64
472.77	9039.15
472.95	9085.96
473.13	9380.87
473.31	9296.61
473.49	9266.18
473.67	9095.32
473.85	9399.59
474.03	9533.00
474.21	9458.10
474.39	9561.09
474.57	9619.60
474.75	9640.67
474.93	9895.78
475.12	9666.41
475.30	9832.59
475.48	9987.07
475.66	10122.82
475.84	9776.42
476.02	10111.11
476.20	10090.05
476.38	10253.89
476.56	10457.51
476.74	10296.02
476.92	10415.38
477.10	10394.32
477.28	10359.21
477.46	10476.24
477.64	10450.49
477.82	10778.17
478.00	11005.20
478.18	10846.04
478.36	11101.16
478.54	11154.99
478.72	11101.16
478.90	11482.67
479.08	11375.00
479.26	11564.59
479.44	11524.80
479.62	11611.40
479.80	11730.76
479.98	11716.72
480.16	11829.07
480.34	11983.54
480.52	11922.69
480.70	12123.98
480.88	11744.81
481.06	12116.95
481.24	12166.10
481.41	12404.84
481.59	12472.71
481.77	12341.64
481.95	12561.66
482.13	12835.50
482.31	12664.64
482.49	13322.33
482.67	13099.98
482.85	13078.91
483.03	13350.42
483.21	13282.54
483.39	13476.80
483.57	13437.02
483.74	13614.90
483.92	13872.36
484.10	13558.72
484.28	13888.74
484.46	14244.50
484.64	14326.42
484.82	14272.59
485.00	14307.69
485.18	14497.28
485.35	14801.55
485.53	14586.22
485.71	15033.26
485.89	15239.23
486.07	14885.81
486.25	15325.83
486.43	15180.71
486.61	15337.53
486.78	15630.10
486.96	15613.71
487.14	15873.51
487.32	16149.70
487.50	15936.71
487.68	16004.58
487.85	16453.97
488.03	16479.71
488.21	16503.12
488.39	16580.36
488.57	16681.00
488.75	16566.31
488.92	17254.43
489.10	17099.95
489.28	17294.22
489.46	17474.44
489.64	17617.21
489.81	17813.82
489.99	17830.20
490.17	17664.02
490.35	18101.70
490.53	18258.52
490.70	18466.83
490.88	18295.97
491.06	18354.48
491.24	18604.92
491.41	18754.71
491.59	18932.59
491.77	19054.30
491.95	18874.08
492.13	19049.62
492.30	19386.66
492.48	19417.08
492.66	19461.55
492.84	19499.00
493.01	20039.67
493.19	19693.27
493.37	19983.49
493.54	20170.74
493.72	20313.51
493.90	20397.77
494.08	20374.36
494.25	20587.35
494.43	20774.60
494.61	20617.78
494.79	20802.68
494.96	20655.23
495.14	21202.91
495.32	21202.91
495.49	21336.32
495.67	21385.47
495.85	21460.37
496.02	21722.51
496.20	21797.41
496.38	22146.15
496.55	22008.06
496.73	22405.95
496.91	22178.92
497.09	22345.09
497.26	22597.87
497.44	22712.56
497.62	23040.23
497.79	23042.57
497.97	23026.19
498.14	23229.82
498.32	23108.11
498.50	23468.55
498.67	23260.24
498.85	23583.24
499.03	23414.72
499.20	23789.20
499.38	23791.55
499.56	23962.40
499.73	24105.18
499.91	24013.90
500.08	24393.06
500.26	24046.66
500.44	23950.70
500.61	24336.89
500.79	24306.46
500.97	24652.86
501.14	24842.45
501.32	24980.54
501.49	24629.46
501.67	24816.70
501.84	25188.85
502.02	24933.73
502.20	25188.85
502.37	25249.70
502.55	24975.86
502.72	25090.54
502.90	25577.37
503.07	25568.01
503.25	25556.31
503.43	25462.69
503.60	25909.73
503.78	25954.20
503.95	25853.56
504.13	26677.43
504.30	26235.06
504.48	26235.06
504.65	26565.08
504.83	26253.79
505.01	26621.25
505.18	26415.29
505.36	26775.73
505.53	26647.00
505.71	27033.19
505.88	26981.70
506.06	27058.93
506.23	27190.00
506.41	26986.38
506.58	27098.72
506.76	27330.44
506.93	27555.13
507.11	26927.86
507.28	27630.02
507.46	27697.90
507.63	27520.02
507.81	27873.44
507.98	27983.44
508.16	27648.75
508.33	28002.17
508.50	27922.59
508.68	28037.28
508.85	28430.49
509.03	28348.57
509.20	28762.84
509.38	28545.17
509.55	28938.38
509.73	28652.84
509.90	28517.09
510.08	28992.22
510.25	28627.09
510.42	29315.21
510.60	28884.55
510.77	29841.83
510.95	29614.80
511.12	29254.36
511.30	29355.00
511.47	29422.87
511.64	29715.44
511.82	29696.72
511.99	29965.88
512.17	29577.35
512.34	29832.47
512.51	30284.19
512.69	30569.74
512.86	30118.01
513.04	30457.39
513.21	30541.65
513.38	30237.38
513.56	30602.50
513.73	30239.72
513.90	30881.03
514.08	30632.93
514.25	30735.92
514.43	30621.23
514.60	30946.56
514.77	31187.64
514.95	31449.78
515.12	31421.69
515.29	31049.55
515.47	31407.65
515.64	31803.20
515.81	31143.17
515.99	31651.06
516.16	31852.35
516.33	31461.48
516.51	31871.07
516.68	31695.53
516.85	31622.98
517.03	32109.81
517.20	32170.66
517.37	32154.28
517.54	32397.70
517.72	32275.99
517.89	32278.33
518.06	32526.42
518.24	32126.19
518.41	32432.80
518.58	32442.17
518.75	32222.16
518.93	32741.75
519.10	32666.86
519.27	32858.78
519.45	32708.99
519.62	32879.85
519.79	33139.65
519.96	33528.17
520.14	33177.09
520.31	33074.11
520.48	33408.81
520.65	33446.26
520.83	34005.64
521.00	33605.41
521.17	33787.97
521.34	33692.01
521.52	33867.55
521.69	33956.49
521.86	34345.02
522.03	33958.83
522.20	34778.02
522.38	34410.56
522.55	34167.14
522.72	34190.55
522.89	33991.60
523.07	34876.32
523.24	34534.60
523.41	34345.02
523.58	34330.98
523.75	34934.84
523.92	34958.24
524.10	34766.32
524.27	35075.27
524.44	34794.40
524.61	35323.36
524.78	35463.80
524.96	35459.12
525.13	35370.18
525.30	35491.88
525.47	35496.56
525.64	35218.04
525.81	35744.66
525.98	35515.29
526.16	35428.69
526.33	35683.81
526.50	36149.57
526.67	35945.95
526.84	35758.70
527.01	35981.06
527.18	35754.02
527.36	36215.11
527.53	35992.76
527.70	36795.56
527.87	36751.09
528.04	35950.63
528.21	36479.59
528.38	36133.19
528.55	36231.49
528.72	36383.63
528.89	36479.59
529.07	36449.16
529.24	36201.07
529.41	37167.71
529.58	36584.91
529.75	36734.71
529.92	37038.98
530.09	36774.50
530.26	36400.01
530.43	37139.62
530.60	36914.93
530.77	36989.83
530.94	37467.30
531.11	37141.96
531.28	37521.13
531.46	37727.10
531.63	37141.96
531.80	37628.79
531.97	37514.11
532.14	37390.06
532.31	37364.31
532.48	37776.25
532.65	37776.25
532.82	38024.34
532.99	37855.82
533.16	37855.82
533.33	38312.23
533.50	38256.06
533.67	38110.94
533.84	37874.55
534.01	38124.99
534.18	38249.03
534.35	38373.08
534.52	38122.65
534.69	38602.46
534.86	38618.84
535.03	38476.07
535.20	38747.57
535.37	38677.35
535.54	38785.02
535.71	38909.07
535.88	38651.61
536.05	38546.28
536.22	38955.88
536.38	38986.30
536.55	38913.75
536.72	39019.07
536.89	38899.70
537.06	39227.38
537.23	39208.65
537.40	38696.08
537.57	38801.40
537.74	39042.48
537.91	39672.08
538.08	39262.49
538.25	39175.89
538.42	39234.40
538.59	40142.53
538.75	39421.64
538.92	39847.62
539.09	39938.90
539.26	39845.28
539.43	39854.64
539.60	39711.87
539.77	39700.17
539.94	40369.56
540.11	39988.05
540.28	40032.52
540.44	40147.21
540.61	40128.48
540.78	39873.37
540.95	39927.20
541.12	40418.71
541.29	39627.61
541.46	40491.27
541.62	40215.08
541.79	40467.86
541.96	40364.88
542.13	40116.78
542.30	40418.71
542.47	40329.77
542.63	40533.40
542.80	40722.98
542.97	41233.22
543.14	41076.40
543.31	40844.69
543.48	40573.19
543.64	41675.58
543.81	41563.23
543.98	41361.95
544.15	41443.87
544.32	41493.02
544.48	41813.67
544.65	41530.47
544.82	41352.58
544.99	41354.93
545.16	41418.12
545.32	41661.54
545.49	41839.42
545.66	41998.57
545.83	41921.34
546.00	41804.31
546.16	41663.88
546.33	41680.26
546.50	41741.11
546.67	41918.99
546.83	41909.63
547.00	42064.11
547.17	41687.28
547.34	41659.20
547.50	41989.21
547.67	42368.38
547.84	41991.55
548.00	42344.97
548.17	42925.42
548.34	42129.64
548.51	42810.74
548.67	42686.69
548.84	42508.81
549.01	42337.95
549.18	42419.87
549.34	42752.23
549.51	42642.22
549.68	42623.50
549.84	42735.84
550.01	42724.14
550.18	42241.99
550.34	42319.23
550.51	42775.63
550.68	42733.50
550.84	42398.80
551.01	43349.06
551.18	42761.59
551.34	42689.03
551.51	43316.29
551.68	43166.50
551.84	42990.96
552.01	42644.56
552.18	43220.33
552.34	42621.16
552.51	43559.71
552.68	43330.34
552.84	42972.24
553.01	43468.43
553.18	43297.57
553.34	43402.89
553.51	42822.44
553.67	43587.80
553.84	43739.93
554.01	43620.56
554.17	43440.34
554.34	43840.57
554.51	43824.19
554.67	43938.88
554.84	44025.48
555.00	43775.04
555.17	44304.00
555.33	43922.49
555.50	43791.42
555.67	43812.49
555.83	43826.53
556.00	43943.56
556.16	44676.15
556.33	44149.53
556.50	44528.69
556.66	43999.73
556.83	43566.73
556.99	44271.23
557.16	44186.97
557.32	44320.38
557.49	44378.90
557.65	43746.95
557.82	44072.29
557.98	44294.64
558.15	44449.11
558.32	44165.91
558.48	44247.83
558.65	44062.93
558.81	44758.06
558.98	44112.08
559.14	44369.54
559.31	44135.48
559.47	44219.74
559.64	44608.27
559.80	44945.31
559.97	45127.87
560.13	44259.53
560.30	44582.52
560.46	44797.85
560.63	45008.50
560.79	45230.85
560.96	45329.16
561.12	44664.44
561.29	44839.98
561.45	44877.43
561.61	44634.02
561.78	44617.63
561.94	44935.95
562.11	44795.51
562.27	45188.72
562.44	44591.89
562.60	45153.62
562.77	45209.79
562.93	44889.13
563.10	45151.27
563.26	45373.63
563.42	45551.51
563.59	45361.92
563.75	45331.50
563.92	45186.38
564.08	45186.38
564.24	45420.44
564.41	45361.92
564.57	45397.03
564.74	45354.90
564.90	44924.24
565.07	45366.60
565.23	45397.03
565.39	45034.25
565.56	45668.53
565.72	45478.95
565.88	45507.04
566.05	45298.73
566.21	45427.46
566.38	45785.56
566.54	45418.10
566.70	45511.72
566.87	45666.19
567.03	45364.26
567.19	45766.84
567.36	45563.21
567.52	45387.67
567.68	46202.18
567.85	45595.98
568.01	45731.73
568.17	45769.18
568.34	45846.41
568.50	45762.15
568.66	45329.16
568.83	45640.45
568.99	45769.18
569.15	45865.14
569.32	45598.32
569.48	45603.00
569.64	46073.45
569.81	45710.66
569.97	46134.30
570.13	46068.76
570.30	45584.27
570.46	46174.09
570.62	46293.46
570.78	45659.17
570.95	45703.64
571.11	46286.43
571.27	45801.94
571.43	45661.51
571.60	45975.14
571.76	45478.95
571.92	45830.03
572.09	45542.14
572.25	45797.26
572.41	45647.47
572.57	46494.74
572.74	46555.60
572.90	45949.40
573.06	45879.18
573.22	46309.84
573.38	46417.50
573.55	46136.64
573.71	46401.12
573.87	46403.46
574.03	46019.61
574.20	46480.70
574.36	46141.32
574.52	46115.58
574.68	46092.17
574.84	46717.09
575.01	46370.69
575.17	46323.88
575.33	46129.62
575.49	46080.47
575.65	45954.08
575.82	46054.72
575.98	46010.25
576.14	46106.21
576.30	46543.89
576.46	46141.32
576.62	46185.79
576.79	46534.53
576.95	46251.33
577.11	46178.77
577.27	45958.76
577.43	46410.48
577.59	46146.00
577.75	46490.06
577.92	45797.26
578.08	46412.82
578.24	46422.19
578.40	46660.92
578.56	46375.37
578.72	46419.84
578.88	46637.51
579.04	46754.54
579.21	46115.58
579.37	46794.33
579.53	46602.41
579.69	46190.47
579.85	46117.92
580.01	46220.90
580.17	46237.28
580.33	47164.14
580.49	46637.51
580.65	46082.81
580.82	46373.03
580.98	46567.30
581.14	46253.67
581.30	46387.08
581.46	46644.54
581.62	46064.08
581.78	46213.88
581.94	46614.11
582.10	46440.91
582.26	46878.59
582.42	46396.44
582.58	46370.69
582.74	46380.06
582.90	46300.48
583.06	46672.62
583.22	46188.13
583.38	46752.20
583.54	46995.62
583.70	46515.81
583.86	46754.54
584.02	46300.48
584.18	47075.19
584.34	46457.29
584.50	46782.63
584.66	46897.31
584.82	46588.36
584.98	46574.32
585.14	46499.42
585.30	46370.69
585.46	46775.61
585.62	46651.56
585.78	46604.75
585.94	46600.07
586.10	46550.91
586.26	46436.23
586.42	46171.75
586.58	46775.61
586.74	46693.69
586.90	46305.16
587.06	46679.64
587.22	47295.21
587.38	46258.35
587.54	46986.25
587.70	47004.98
587.86	46461.97
588.02	46497.08
588.18	46820.08
588.34	46665.60
588.49	46983.91
588.65	46939.44
588.81	46443.25
588.97	46567.30
589.13	46515.81
589.29	46284.09
589.45	46965.19
589.61	47196.90
589.77	47105.62
589.93	46564.96
590.08	46899.65
