SpectraSuite Data File
++++++++++++++++++++++++++++++++++++
Date: Fri Oct 25 10:43:14 EDT 2013
User: price-jones
Dark Spectrum Present: No
Reference Spectrum Present: No
Number of Sampled Component Spectra: 1
Spectrometers: USB2+H05261
Integration Time (usec): 100000 (USB2+H05261)
Spectra Averaged: 1 (USB2+H05261)
Boxcar Smoothing: 0 (USB2+H05261)
Correct for Electrical Dark: No (USB2+H05261)
Strobe/Lamp Enabled: No (USB2+H05261)
Correct for Detector Non-linearity: No (USB2+H05261)
Correct for Stray Light: No (USB2+H05261)
Number of Pixels in Processed Spectrum: 2048
>>>>>Begin Processed Spectral Data<<<<<
365.73	77.24
365.92	77.24
366.12	77.24
366.32	28.09
366.52	0.00
366.72	53.83
366.91	4.68
367.11	30.43
367.31	23.41
367.51	0.00
367.70	63.19
367.90	25.75
368.10	18.72
368.30	37.45
368.49	0.00
368.69	100.64
368.89	0.00
369.09	11.70
369.28	56.17
369.48	63.19
369.68	128.73
369.87	81.92
370.07	95.96
370.27	95.96
370.47	156.82
370.66	400.23
370.86	376.83
371.06	484.49
371.25	421.30
371.45	451.72
371.65	535.98
371.84	458.74
372.04	409.59
372.24	517.26
372.44	440.02
372.63	564.07
372.83	507.90
373.03	531.30
373.22	535.98
373.42	566.41
373.62	566.41
373.81	517.26
374.01	531.30
374.21	557.05
374.40	571.09
374.60	552.37
374.79	512.58
374.99	631.94
375.19	566.41
375.38	526.62
375.58	608.54
375.78	608.54
375.97	535.98
376.17	594.50
376.37	540.66
376.56	660.03
376.76	601.52
376.95	645.99
377.15	671.73
377.35	676.41
377.54	638.97
377.74	638.97
377.93	641.31
378.13	737.27
378.33	624.92
378.52	695.14
378.72	671.73
378.91	660.03
379.11	571.09
379.31	624.92
379.50	655.35
379.70	669.39
379.89	702.16
380.09	692.80
380.28	592.16
380.48	631.94
380.68	624.92
380.87	636.63
381.07	685.78
381.26	758.33
381.46	669.39
381.65	683.44
381.85	709.18
382.04	770.04
382.24	732.59
382.43	772.38
382.63	713.86
382.83	711.52
383.02	692.80
383.22	786.42
383.41	730.25
383.61	767.70
383.80	744.29
384.00	753.65
384.19	791.10
384.39	781.74
384.58	737.27
384.78	870.68
384.97	837.91
385.17	844.93
385.36	734.93
385.56	842.59
385.75	755.99
385.95	903.45
386.14	802.80
386.34	784.08
386.53	854.30
386.72	903.45
386.92	875.36
387.11	814.51
387.31	851.96
387.50	791.10
387.70	816.85
387.89	809.83
388.09	938.55
388.28	903.45
388.48	861.32
388.67	947.92
388.86	940.90
389.06	952.60
389.25	947.92
389.45	891.74
389.64	1029.84
389.84	1076.65
390.03	1060.26
390.22	1029.84
390.42	910.47
390.61	968.98
390.81	987.71
391.00	950.26
391.19	1083.67
391.39	1020.47
391.58	1078.99
391.78	1076.65
391.97	1071.97
392.16	1076.65
392.36	1025.15
392.55	1020.47
392.75	1008.77
392.94	987.71
393.13	966.64
393.33	901.11
393.52	1048.56
393.71	1111.75
393.91	1144.52
394.10	1088.35
394.29	1172.61
394.49	1137.50
394.68	1214.74
394.88	1139.84
395.07	1296.66
395.26	1317.72
395.46	1177.29
395.65	1228.78
395.84	1224.10
396.04	1203.04
396.23	1196.01
396.42	1240.48
396.62	1179.63
396.81	1191.33
397.00	1294.32
397.19	1207.72
397.39	1310.70
397.58	1387.94
397.77	1409.00
397.97	1409.00
398.16	1390.28
398.35	1437.09
398.55	1366.87
398.74	1530.71
398.93	1533.05
399.12	1511.99
399.32	1519.01
399.51	1467.52
399.70	1523.69
399.90	1509.65
400.09	1589.22
400.28	1640.72
400.47	1586.88
400.67	1598.59
400.86	1640.72
401.05	1687.53
401.24	1715.61
401.44	1720.29
401.63	1734.34
401.82	1675.82
402.01	1792.85
402.21	1797.53
402.40	1741.36
402.59	1799.87
402.78	1755.40
402.97	1781.15
403.17	1762.42
403.36	1818.60
403.55	1748.38
403.74	1933.28
403.93	1930.94
404.13	1884.13
404.32	1863.07
404.51	1795.19
404.70	1863.07
404.89	1849.02
405.09	1961.37
405.28	1867.75
405.47	2010.52
405.66	1863.07
405.85	2022.22
406.05	1998.82
406.24	1975.41
406.43	2001.16
406.62	2071.37
406.81	2207.13
407.00	2066.69
407.20	2113.50
407.39	2022.22
407.58	2148.61
407.77	2176.70
407.96	2113.50
408.15	2125.21
408.34	2242.23
408.54	2291.38
408.73	2244.57
408.92	2305.43
409.11	2352.24
409.30	2370.96
409.49	2349.90
409.68	2317.13
409.87	2289.04
410.07	2424.80
410.26	2375.64
410.45	2249.25
410.64	2413.09
410.83	2326.49
411.02	2527.78
411.21	2560.55
411.40	2684.59
411.59	2539.48
411.78	2530.12
411.98	2600.34
412.17	2644.81
412.36	2644.81
412.55	2663.53
412.74	2689.28
412.93	2808.64
413.12	2747.79
413.31	2789.92
413.50	2801.62
413.69	2857.79
413.88	2920.99
414.07	2881.20
414.26	3052.06
414.45	2963.12
414.64	2970.14
414.83	2951.42
415.02	3030.99
415.22	3019.29
415.41	3199.51
415.60	3185.47
415.79	3215.90
415.98	3337.60
416.17	3311.86
416.36	3260.37
416.55	3239.30
416.74	3171.43
416.93	3187.81
417.12	3316.54
417.31	3386.76
417.50	3283.77
417.69	3435.91
417.88	3297.81
418.07	3316.54
418.26	3471.01
418.45	3428.88
418.64	3538.89
418.83	3562.30
419.02	3623.15
419.21	3686.34
419.39	3564.64
419.58	3665.28
419.77	3658.26
419.96	3597.40
420.15	3665.28
420.34	3700.39
420.53	3756.56
420.72	3730.81
420.91	3822.09
421.10	3801.03
421.29	3896.99
421.48	3831.46
421.67	3794.01
421.86	3882.95
422.05	3833.80
422.24	3740.18
422.43	3913.38
422.61	3899.33
422.80	3999.98
422.99	3763.58
423.18	3737.84
423.37	4100.62
423.56	3847.84
423.75	4023.38
423.94	3829.12
424.13	3660.60
424.32	3599.74
424.50	3899.33
424.69	4128.70
424.88	3887.63
425.07	3932.10
425.26	4072.53
425.45	3957.85
425.64	3817.41
425.83	4070.19
426.01	4046.79
426.20	3955.51
426.39	3934.44
426.58	3920.40
426.77	3875.93
426.96	4030.40
427.15	3852.52
427.33	4058.49
427.52	4079.55
427.71	4161.47
427.90	4126.36
428.09	4112.32
428.28	4084.23
428.46	4117.00
428.65	4234.03
428.84	4322.97
429.03	4161.47
429.22	4140.41
429.40	4126.36
429.59	4109.98
429.78	3953.16
429.97	3929.76
430.16	3922.74
430.34	4112.32
430.53	4166.15
430.72	4170.83
430.91	4283.18
431.10	4250.41
431.28	4447.02
431.47	4484.47
431.66	4545.32
431.85	4524.26
432.03	4444.68
432.22	4582.77
432.41	4592.13
432.60	4643.62
432.79	4739.58
432.97	4744.27
433.16	4746.61
433.35	4589.79
433.54	4638.94
433.72	4671.71
433.91	4528.94
434.10	4533.62
434.28	4791.08
434.47	4730.22
434.66	4847.25
434.85	5013.43
435.03	4849.59
435.22	4975.98
435.41	5100.03
435.59	5153.86
435.78	5036.83
435.97	5270.89
436.16	5212.37
436.34	5163.22
436.53	5193.65
436.72	5156.20
436.90	4999.38
437.09	5270.89
437.28	5032.15
437.46	5198.33
437.65	5362.17
437.84	5123.43
438.02	5238.12
438.21	5118.75
438.40	5179.61
438.58	5294.29
438.77	5406.64
438.96	5270.89
439.14	5521.32
439.33	5488.56
439.52	5664.10
439.70	5556.43
439.89	5561.11
440.08	5598.56
440.26	5617.29
440.45	5687.50
440.63	5797.51
440.82	5914.53
441.01	5884.11
441.19	6078.37
441.38	6069.01
441.57	6120.50
441.75	6113.48
441.94	6368.60
442.12	6246.89
442.31	6207.10
442.50	6331.15
442.68	6347.53
442.87	6317.11
443.05	6274.98
443.24	6490.31
443.43	6354.55
443.61	6340.51
443.80	6518.39
443.98	6427.11
444.17	6284.34
444.35	6576.91
444.54	6628.40
444.73	6604.99
444.91	6525.41
445.10	6403.71
445.28	6375.62
445.47	6448.18
445.65	6445.84
445.84	6466.90
446.02	6675.21
446.21	6342.85
446.39	6492.65
446.58	6705.63
446.77	6691.59
446.95	6438.81
447.14	6743.08
447.32	6579.25
447.51	6576.91
447.69	6773.51
447.88	6733.72
448.06	6759.47
448.25	6731.38
448.43	6836.70
448.62	6644.78
448.80	6740.74
448.99	6705.63
449.17	6750.10
449.36	6637.76
449.54	7049.69
449.73	6953.73
449.91	7178.42
450.10	7103.53
450.28	7267.36
450.46	7232.26
450.65	7232.26
450.83	7321.20
451.02	7211.19
451.20	7330.56
451.39	7253.32
451.57	7176.08
451.76	7005.22
451.94	7066.08
452.13	7449.93
452.31	7077.78
452.49	6995.86
452.68	7087.14
452.86	7213.53
453.05	7335.24
453.23	7293.11
453.42	7335.24
453.60	7232.26
453.78	7344.60
453.97	7171.40
454.15	7349.28
454.34	7538.87
454.52	7470.99
454.70	7573.97
454.89	7431.20
455.07	7508.44
455.26	7487.37
455.44	7819.73
455.62	7686.32
455.81	7751.85
455.99	7721.43
456.17	7712.07
456.36	7805.69
456.54	7906.33
456.73	8116.98
456.91	8077.19
457.09	8063.15
457.28	8222.30
457.46	7978.89
457.64	8046.76
457.83	8226.98
458.01	7920.37
458.19	8329.97
458.38	8245.71
458.56	8215.28
458.74	8353.37
458.93	8224.64
459.11	8131.02
459.29	8388.48
459.48	8381.46
459.66	8046.76
459.84	8266.77
460.03	8601.47
460.21	8599.13
460.39	8549.98
460.57	8444.65
460.76	8423.59
460.94	8793.39
461.12	8578.06
461.31	8685.73
461.49	8648.28
461.67	8500.83
461.85	8678.71
462.04	8917.44
462.22	9254.48
462.40	8819.14
462.59	8837.86
462.77	8800.41
462.95	8994.68
463.13	9008.72
463.32	9004.04
463.50	9050.85
463.68	8849.57
463.86	8936.17
464.05	8954.89
464.23	9034.47
464.41	8917.44
464.59	8910.42
464.78	9144.47
464.96	9104.68
465.14	9078.94
465.32	9383.21
465.50	9327.03
465.69	9270.86
465.87	9277.88
466.05	9291.93
466.23	9130.43
466.41	9263.84
466.60	9432.36
466.78	9238.09
466.96	9341.08
467.14	9207.67
467.32	9579.81
467.51	9214.69
467.69	9242.78
467.87	9415.98
468.05	9521.30
468.23	9235.75
468.41	9448.74
468.60	9575.13
468.78	9614.92
468.96	9607.90
469.14	9722.59
469.32	9692.16
469.50	9502.58
469.69	9591.52
469.87	9745.99
470.05	9830.25
470.23	9776.42
470.41	9891.10
470.59	9823.23
470.77	9846.63
470.95	9914.51
471.14	10005.79
471.32	9778.76
471.50	10490.28
471.68	10244.52
471.86	10403.68
472.04	10349.85
472.22	10705.61
472.40	10193.03
472.58	10272.61
472.77	10485.60
472.95	10619.01
473.13	10883.49
473.31	10511.35
473.49	10600.29
473.67	10647.10
473.85	10635.39
474.03	10799.23
474.21	10869.45
474.39	11056.69
474.57	10916.26
474.75	11358.62
474.93	11112.86
475.12	11073.07
475.30	11262.66
475.48	11349.26
475.66	11044.99
475.84	11190.10
476.02	11405.43
476.20	11494.37
476.38	11728.42
476.56	11805.66
476.74	11543.52
476.92	11791.62
477.10	11714.38
477.28	11985.88
477.46	12067.80
477.64	12262.07
477.82	12262.07
478.00	12559.31
478.18	12753.58
478.36	12636.55
478.54	12657.62
478.72	12650.60
478.90	12945.50
479.08	12987.63
479.26	13102.32
479.44	13020.40
479.62	13018.06
479.80	13628.94
479.98	13467.44
480.16	13671.07
480.34	13710.86
480.52	13832.57
480.70	13657.03
480.88	13528.30
481.06	13919.17
481.24	13905.12
481.41	14160.24
481.59	14382.59
481.77	14457.49
481.95	14534.73
482.13	14846.02
482.31	14525.36
482.49	14927.94
482.67	15147.95
482.85	14953.68
483.03	15059.01
483.21	15220.50
483.39	15592.65
483.57	15185.40
483.74	15529.45
483.92	15342.21
484.10	15332.85
484.28	15695.63
484.46	15981.18
484.64	16123.95
484.82	16208.21
485.00	16355.66
485.18	16500.78
485.35	16526.52
485.53	16079.48
485.71	15976.50
485.89	16400.13
486.07	16262.04
486.25	16723.13
486.43	16971.22
486.61	16737.17
486.78	17078.89
486.96	17352.73
487.14	17474.44
487.32	17317.62
487.50	17638.28
487.68	17942.55
487.85	18520.66
488.03	18174.26
488.21	18483.21
488.39	18609.60
488.57	18567.47
488.75	18476.19
488.92	18977.06
489.10	19194.73
489.28	19468.58
489.46	19594.96
489.64	19679.22
489.81	20039.67
489.99	20006.90
490.17	20074.77
490.35	20386.07
490.53	20329.89
490.70	20549.90
490.88	20278.40
491.06	20638.84
491.24	20451.60
491.41	20568.63
491.59	20444.58
491.77	20650.55
491.95	20863.54
492.13	21221.64
492.30	21624.21
492.48	21731.87
492.66	21844.22
492.84	21851.24
493.01	22036.14
493.19	22043.17
493.37	22237.43
493.54	22441.06
493.72	22618.94
493.90	22583.83
494.08	22948.95
494.25	23063.64
494.43	22899.80
494.61	23632.39
494.79	23498.98
494.96	23297.69
495.14	23386.63
495.32	23616.01
495.49	23772.82
495.67	23538.77
495.85	23934.32
496.02	24222.20
496.20	24411.79
496.38	24264.33
496.55	24261.99
496.73	25252.04
496.91	24542.86
497.09	25010.96
497.26	25008.62
497.44	24748.82
497.62	25053.09
497.79	24999.26
497.97	24992.24
498.14	25298.85
498.32	25713.13
498.50	25605.46
498.67	26075.91
498.85	26183.57
499.03	26265.49
499.20	26127.40
499.38	26253.79
499.56	26321.66
499.73	26410.60
499.91	26565.08
500.08	26513.59
500.26	26288.90
500.44	26487.84
500.61	26696.15
500.79	26553.38
500.97	26696.15
501.14	27377.25
501.32	27220.43
501.49	26822.54
501.67	27077.66
501.84	27147.87
502.02	27505.98
502.20	27899.19
502.37	27725.99
502.55	27623.00
502.72	28126.22
502.90	28205.80
503.07	27843.01
503.25	28287.71
503.43	28451.55
503.60	27873.44
503.78	28219.84
503.95	27889.82
504.13	28437.51
504.30	28680.92
504.48	28657.52
504.65	28788.59
504.83	28804.97
505.01	29036.69
505.18	28996.90
505.36	29137.33
505.53	29214.57
505.71	29757.57
505.88	29762.25
506.06	29188.82
506.23	29797.36
506.41	29542.24
506.58	29369.04
506.76	29687.36
506.93	29783.32
507.11	29827.79
507.28	30008.01
507.46	29713.10
507.63	29546.92
507.81	30253.76
507.98	30108.65
508.16	30522.93
508.33	30448.03
508.50	30895.07
508.68	30742.94
508.85	31019.12
509.03	31040.18
509.20	31145.51
509.38	30869.33
509.55	31335.09
509.73	31260.20
509.90	31234.45
510.08	31161.89
510.25	31292.96
510.42	31424.03
510.60	31473.18
510.77	31576.17
510.95	32196.41
511.12	31938.95
511.30	31847.67
511.47	32004.49
511.64	32533.45
511.82	31990.44
511.99	32151.94
512.17	31971.72
512.34	31896.82
512.51	32783.88
512.69	32933.68
512.86	32669.20
513.04	32985.17
513.21	32472.59
513.38	32870.48
513.56	32816.65
513.73	32835.38
513.90	32744.09
514.08	32985.17
514.25	33350.29
514.43	33404.13
514.60	33441.57
514.77	33284.76
514.95	33394.76
515.12	33193.48
515.29	33207.52
515.47	33652.22
515.64	33792.65
515.81	33708.40
515.99	33682.65
516.16	33640.52
516.33	33340.93
516.51	33207.52
516.68	33460.30
516.85	33317.53
517.03	33797.34
517.20	33923.72
517.37	33989.26
517.54	34710.14
517.72	34101.61
517.89	33949.47
518.06	33933.09
518.24	34183.52
518.41	34227.99
518.58	34209.27
518.75	34424.60
518.93	34885.68
519.10	34595.46
519.27	34918.45
519.45	34930.16
519.62	35292.94
519.79	35328.05
519.96	35351.45
520.14	35510.61
520.31	34979.31
520.48	35260.17
520.65	35314.00
520.83	35988.08
521.00	35817.22
521.17	35510.61
521.34	35826.58
521.52	35988.08
521.69	35938.93
521.86	36165.96
522.03	36142.55
522.20	36252.56
522.38	35885.09
522.55	36243.20
522.72	35936.59
522.89	36526.40
523.07	36617.68
523.24	36505.34
523.41	36973.44
523.58	36767.48
523.75	37544.53
523.92	36739.39
524.10	37074.09
524.27	36938.33
524.44	37308.14
524.61	37263.67
524.78	36648.11
524.96	37572.62
525.13	37006.21
525.30	37577.30
525.47	37551.56
525.64	37429.85
525.81	37446.23
525.98	37659.22
526.16	37191.11
526.33	37055.36
526.50	37193.45
526.67	37207.50
526.84	37118.56
527.01	37638.15
527.18	37979.87
527.36	37748.16
527.53	37977.53
527.70	38185.84
527.87	37855.82
528.04	38019.66
528.21	38127.33
528.38	38345.00
528.55	38447.98
528.72	38796.72
528.89	39082.27
529.07	38696.08
529.24	37989.24
529.41	38689.06
529.58	38431.60
529.75	38770.97
529.92	39077.58
530.09	38993.32
530.26	39044.82
530.43	38625.86
530.60	39061.20
530.77	39442.71
530.94	39470.79
531.11	39215.68
531.28	39150.14
531.46	39456.75
531.63	39620.59
531.80	39147.80
531.97	39215.68
532.14	39498.88
532.31	38787.36
532.48	39325.68
532.65	39330.36
532.82	39042.48
532.99	39498.88
533.16	39166.52
533.33	39782.09
533.50	39959.97
533.67	39775.06
533.84	39807.83
534.01	39667.40
534.18	39842.94
534.35	40133.17
534.52	39896.77
534.69	40105.08
534.86	40563.82
535.03	40332.11
535.20	40453.82
535.37	40737.02
535.54	40659.79
535.71	40243.17
535.88	40818.94
536.05	40732.34
536.22	40465.52
536.38	40552.12
536.55	40456.16
536.72	40493.61
536.89	40229.13
537.06	40655.11
537.23	41045.97
537.40	40282.96
537.57	40694.89
537.74	41158.32
537.91	41120.87
538.08	41411.10
538.25	40381.26
538.42	40624.68
538.59	41158.32
538.75	40685.53
538.92	41104.49
539.09	41331.52
539.26	40875.12
539.43	41404.08
539.60	41322.16
539.77	41113.85
539.94	41090.44
540.11	41478.97
540.28	41631.11
540.44	40996.82
540.61	41397.06
540.78	41102.15
540.95	41413.44
541.12	41170.02
541.29	41420.46
541.46	41399.40
541.62	41371.31
541.79	42066.45
541.96	41273.01
542.13	41563.23
542.30	41471.95
542.47	41427.48
542.63	42113.26
542.80	41816.01
542.97	42387.10
543.14	42270.08
543.31	42305.18
543.48	42469.02
543.64	42738.18
543.81	42784.99
543.98	42656.26
544.15	42162.41
544.32	42642.22
544.48	43337.36
544.65	42738.18
544.82	42726.48
544.99	42410.51
545.16	42775.63
545.32	42859.89
545.49	43040.11
545.66	43285.87
545.83	43035.43
546.00	43051.81
546.16	42909.04
546.33	43061.18
546.50	42546.26
546.67	43297.57
546.83	42719.46
547.00	43030.75
547.17	42239.65
547.34	43206.29
547.50	43145.44
547.67	43222.67
547.84	43271.82
548.00	43503.54
548.17	43353.74
548.34	43339.70
548.51	43686.10
548.67	43660.35
548.84	43555.03
549.01	43400.55
549.18	43391.19
549.34	43672.06
549.51	43746.95
549.68	43873.34
549.84	43922.49
550.01	43775.04
550.18	43863.98
550.34	43688.44
550.51	43576.09
550.68	43466.09
550.84	43688.44
551.01	43473.11
551.18	43901.43
551.34	43995.05
551.51	44107.40
551.68	43826.53
551.84	43761.00
552.01	43885.04
552.18	44037.18
552.34	44147.18
552.51	43810.15
552.68	44240.81
552.84	44016.11
553.01	44474.86
553.18	43847.60
553.34	44430.39
553.51	44072.29
553.67	44020.80
553.84	44786.15
554.01	44524.01
554.17	44753.38
554.34	44655.08
554.51	44650.40
554.67	44364.85
554.84	44720.62
555.00	44404.64
555.17	44460.82
555.33	44701.89
555.50	44053.56
555.67	44208.04
555.83	44439.75
556.00	44641.04
556.16	44989.78
556.33	44589.55
556.50	44659.76
556.66	44657.42
556.83	44067.61
556.99	44556.78
557.16	44636.36
557.32	44746.36
557.49	45027.23
557.65	44722.96
557.82	44516.99
557.98	44964.03
558.15	45146.59
558.32	44940.63
558.48	44769.77
558.65	44762.75
558.81	44861.05
558.98	44783.81
559.14	44500.61
559.31	44669.12
559.47	45244.90
559.64	45361.92
559.80	44996.80
559.97	44835.30
560.13	44732.32
560.30	45404.05
560.46	44928.92
560.63	45177.02
560.79	45305.75
560.96	45228.51
561.12	45289.37
561.29	45024.89
561.45	45041.27
561.61	45394.69
561.78	45202.77
561.94	45067.02
562.11	45186.38
562.27	44921.90
562.44	45167.66
562.60	45315.11
562.77	45258.94
562.93	44847.00
563.10	45820.67
563.26	45319.79
563.42	45687.26
563.59	45546.82
563.75	45539.80
563.92	45347.88
564.08	45600.66
564.24	45577.25
564.41	45230.85
564.57	45071.70
564.74	45399.37
564.90	45450.86
565.07	45125.53
565.23	45815.99
565.39	45401.71
565.56	45233.19
565.72	45289.37
565.88	45422.78
566.05	45490.65
566.21	45144.25
566.38	45450.86
566.54	45495.33
566.70	45900.25
566.87	45825.35
567.03	45490.65
567.19	45897.91
567.36	45780.88
567.52	45698.96
567.68	45600.66
567.85	45507.04
568.01	45773.86
568.17	45708.32
568.34	45696.62
568.50	45525.76
568.66	45808.96
568.83	45813.65
568.99	45235.53
569.15	45413.41
569.32	45790.24
569.48	45235.53
569.64	45930.67
569.81	45701.30
569.97	45883.86
570.13	45521.08
570.30	45207.45
570.46	45560.87
570.62	45322.13
570.78	44786.15
570.95	45294.05
571.11	45502.35
571.27	45572.57
571.43	45588.95
571.60	45752.79
571.76	45605.34
571.92	45509.38
572.09	45516.40
572.25	45844.07
572.41	46101.53
572.57	46080.47
572.74	46220.90
572.90	45645.13
573.06	45862.80
573.22	45928.33
573.38	45844.07
573.55	45483.63
573.71	46017.27
573.87	45626.40
574.03	45514.06
574.20	45563.21
574.36	45207.45
574.52	46117.92
574.68	45879.18
574.84	45820.67
575.01	45755.13
575.17	45088.08
575.33	45998.55
575.49	45605.34
575.65	46078.13
575.82	46096.85
575.98	45729.39
576.14	46110.89
576.30	46064.08
576.46	45729.39
576.62	45750.45
576.79	45595.98
576.95	45591.30
577.11	46073.45
577.27	45961.10
577.43	45595.98
577.59	45544.48
577.75	45628.74
577.92	45378.31
578.08	45448.52
578.24	45186.38
578.40	45717.68
578.56	45902.59
578.72	45708.32
578.88	46031.32
579.04	45872.16
579.21	45720.02
579.37	45984.51
579.53	45979.82
579.69	45682.58
579.85	45865.14
580.01	45972.80
580.17	45886.20
580.33	45701.30
580.49	46138.98
580.65	46101.53
580.82	45598.32
580.98	45366.60
581.14	45895.56
581.30	45986.85
581.46	46059.40
581.62	45895.56
581.78	45586.61
581.94	46298.14
582.10	46415.16
582.26	45759.81
582.42	45638.11
582.58	46071.10
582.74	46003.23
582.90	46012.59
583.06	46401.12
583.22	45696.62
583.38	46122.60
583.54	46036.00
583.70	45647.47
583.86	46064.08
584.02	46000.89
584.18	45736.41
584.34	45755.13
584.50	46309.84
584.66	45691.94
584.82	45689.60
584.98	46305.16
585.14	45827.69
585.30	45865.14
585.46	45787.90
585.62	45801.94
585.78	45633.42
585.94	45848.75
586.10	45628.74
586.26	45923.65
586.42	46131.96
586.58	46274.73
586.74	45689.60
586.90	45556.19
587.06	45617.04
587.22	45874.50
587.38	45584.27
587.54	45944.72
587.70	46321.54
587.86	45895.56
588.02	46103.87
588.18	45925.99
588.34	45743.43
588.49	45460.23
588.65	45717.68
588.81	45462.57
588.97	45404.05
589.13	45476.61
589.29	45572.57
589.45	45322.13
589.61	45324.47
589.77	46036.00
589.93	45991.53
590.08	45738.75
