SpectraSuite Data File
++++++++++++++++++++++++++++++++++++
Date: Fri Oct 25 10:43:16 EDT 2013
User: price-jones
Dark Spectrum Present: No
Reference Spectrum Present: No
Number of Sampled Component Spectra: 1
Spectrometers: USB2+H05261
Integration Time (usec): 100000 (USB2+H05261)
Spectra Averaged: 1 (USB2+H05261)
Boxcar Smoothing: 0 (USB2+H05261)
Correct for Electrical Dark: No (USB2+H05261)
Strobe/Lamp Enabled: No (USB2+H05261)
Correct for Detector Non-linearity: No (USB2+H05261)
Correct for Stray Light: No (USB2+H05261)
Number of Pixels in Processed Spectrum: 2048
>>>>>Begin Processed Spectral Data<<<<<
365.73	201.29
365.92	201.29
366.12	201.29
366.32	30.43
366.52	0.00
366.72	100.64
366.91	23.41
367.11	49.15
367.31	0.00
367.51	30.43
367.70	53.83
367.90	35.11
368.10	0.00
368.30	0.00
368.49	0.00
368.69	0.00
368.89	53.83
369.09	65.54
369.28	39.79
369.48	28.09
369.68	124.05
369.87	124.05
370.07	95.96
370.27	110.01
370.47	182.56
370.66	367.46
370.86	430.66
371.06	470.45
371.25	512.58
371.45	433.00
371.65	407.25
371.84	475.13
372.04	381.51
372.24	491.51
372.44	437.68
372.63	433.00
372.83	578.11
373.03	456.40
373.22	465.77
373.42	498.53
373.62	533.64
373.81	470.45
374.01	585.13
374.21	524.28
374.40	608.54
374.60	568.75
374.79	564.07
374.99	568.75
375.19	596.84
375.38	613.22
375.58	601.52
375.78	599.18
375.97	535.98
376.17	557.05
376.37	599.18
376.56	627.26
376.76	573.43
376.95	610.88
377.15	645.99
377.35	589.82
377.54	683.44
377.74	650.67
377.93	573.43
378.13	636.63
378.33	622.58
378.52	692.80
378.72	709.18
378.91	627.26
379.11	573.43
379.31	631.94
379.50	667.05
379.70	596.84
379.89	662.37
380.09	603.86
380.28	676.41
380.48	697.48
380.68	732.59
380.87	704.50
381.07	706.84
381.26	802.80
381.46	613.22
381.65	645.99
381.85	697.48
382.04	688.12
382.24	723.23
382.43	664.71
382.63	732.59
382.83	671.73
383.02	669.39
383.22	723.23
383.41	671.73
383.61	690.46
383.80	763.01
384.00	751.31
384.19	819.19
384.39	781.74
384.58	741.95
384.78	821.53
384.97	947.92
385.17	814.51
385.36	840.25
385.56	725.57
385.75	821.53
385.95	786.42
386.14	833.23
386.34	763.01
386.53	763.01
386.72	741.95
386.92	901.11
387.11	889.40
387.31	816.85
387.50	901.11
387.70	933.87
387.89	891.74
388.09	964.30
388.28	837.91
388.48	924.51
388.67	912.81
388.86	968.98
389.06	997.07
389.25	964.30
389.45	1008.77
389.64	971.32
389.84	1022.81
390.03	987.71
390.22	945.58
390.42	990.05
390.61	919.83
390.81	1027.50
391.00	1029.84
391.19	1048.56
391.39	1004.09
391.58	1029.84
391.78	1081.33
391.97	1055.58
392.16	961.96
392.36	1064.94
392.55	1090.69
392.75	1015.79
392.94	894.08
393.13	1006.43
393.33	978.34
393.52	1004.09
393.71	1006.43
393.91	1149.20
394.10	1064.94
394.29	1132.82
394.49	1167.93
394.68	1256.87
394.88	1242.82
395.07	1181.97
395.26	1247.51
395.46	1231.12
395.65	1247.51
395.84	1210.06
396.04	1366.87
396.23	1135.16
396.42	1034.52
396.62	1198.35
396.81	1219.42
397.00	1200.69
397.19	1214.74
397.39	1277.93
397.58	1306.02
397.77	1308.36
397.97	1364.53
398.16	1334.11
398.35	1406.66
398.55	1420.71
398.74	1528.37
398.93	1535.39
399.12	1434.75
399.32	1516.67
399.51	1416.02
399.70	1521.35
399.90	1619.65
400.09	1535.39
400.28	1629.01
400.47	1624.33
400.67	1687.53
400.86	1593.90
401.05	1626.67
401.24	1668.80
401.44	1673.48
401.63	1661.78
401.82	1806.89
402.01	1769.44
402.21	1694.55
402.40	1802.21
402.59	1706.25
402.78	1708.59
402.97	1764.76
403.17	1715.61
403.36	1741.36
403.55	1816.26
403.74	1926.26
403.93	1870.09
404.13	1769.44
404.32	1811.57
404.51	1877.11
404.70	1984.77
404.89	1935.62
405.09	1966.05
405.28	1921.58
405.47	2064.35
405.66	1975.41
405.85	1998.82
406.05	2057.33
406.24	1996.48
406.43	2076.06
406.62	2153.29
406.81	2087.76
407.00	2083.08
407.20	2010.52
407.39	1973.07
407.58	2172.02
407.77	2284.36
407.96	2228.19
408.15	2312.45
408.34	2143.93
408.54	2307.77
408.73	2314.79
408.92	2359.26
409.11	2284.36
409.30	2298.41
409.49	2356.92
409.68	2356.92
409.87	2216.49
410.07	2396.71
410.26	2410.75
410.45	2431.82
410.64	2406.07
410.83	2399.05
411.02	2485.65
411.21	2574.59
411.40	2544.16
411.59	2588.63
411.78	2651.83
411.98	2642.46
412.17	2647.15
412.36	2679.91
412.55	2761.83
412.74	2789.92
412.93	2768.85
413.12	2841.41
413.31	2848.43
413.50	2815.66
413.69	2825.03
413.88	2960.78
414.07	2738.43
414.26	2937.37
414.45	3026.31
414.64	3000.57
414.83	3112.91
415.02	2956.10
415.22	3033.33
415.41	3124.62
415.60	3098.87
415.79	3295.47
415.98	3234.62
416.17	3239.30
416.36	3318.88
416.55	3342.28
416.74	3311.86
416.93	3194.83
417.12	3279.09
417.31	3321.22
417.50	3400.80
417.69	3478.04
417.88	3449.95
418.07	3332.92
418.26	3433.57
418.45	3471.01
418.64	3611.45
418.83	3583.36
419.02	3698.05
419.21	3705.07
419.39	3623.15
419.58	3513.14
419.77	3655.92
419.96	3684.00
420.15	3705.07
420.34	3754.22
420.53	3786.99
420.72	3971.89
420.91	3840.82
421.10	3801.03
421.29	3889.97
421.48	3676.98
421.67	3836.14
421.86	3885.29
422.05	3747.20
422.24	3798.69
422.43	3770.60
422.61	3784.65
422.80	3922.74
422.99	4053.81
423.18	3850.18
423.37	3969.55
423.56	4084.23
423.75	3950.82
423.94	4025.72
424.13	3611.45
424.32	3768.26
424.50	3920.40
424.69	3995.29
424.88	3932.10
425.07	3995.29
425.26	3992.95
425.45	3904.01
425.64	3892.31
425.83	3911.04
426.01	3908.69
426.20	3969.55
426.39	4042.11
426.58	3873.59
426.77	3882.95
426.96	4002.32
427.15	3957.85
427.33	3992.95
427.52	3936.78
427.71	4166.15
427.90	4124.02
428.09	4095.94
428.28	4088.92
428.46	4215.30
428.65	4056.15
428.84	4098.28
429.03	4332.33
429.22	3995.29
429.40	4128.70
429.59	4002.32
429.78	3906.35
429.97	4079.55
430.16	4173.18
430.34	4063.17
430.53	4180.20
430.72	4264.46
430.91	4170.83
431.10	4308.93
431.28	4461.06
431.47	4564.04
431.66	4545.32
431.85	4568.73
432.03	4617.88
432.22	4606.17
432.41	4671.71
432.60	4564.04
432.79	4781.71
432.97	4800.44
433.16	4784.06
433.35	4545.32
433.54	4606.17
433.72	4648.30
433.91	4542.98
434.10	4568.73
434.28	4734.90
434.47	4889.38
434.66	4887.04
434.85	4903.42
435.03	5093.01
435.22	5039.17
435.41	5275.57
435.59	4896.40
435.78	4987.68
435.97	5013.43
436.16	5107.05
436.34	4926.83
436.53	5151.52
436.72	5385.57
436.90	5259.18
437.09	5102.37
437.28	5146.84
437.46	5111.73
437.65	5151.52
437.84	5128.11
438.02	5231.10
438.21	5310.68
438.40	5151.52
438.58	5301.31
438.77	5411.32
438.96	5364.51
439.14	5514.30
439.33	5692.18
439.52	5675.80
439.70	5586.86
439.89	5628.99
440.08	5729.63
440.26	5703.89
440.45	5769.42
440.63	5820.91
440.82	5944.96
441.01	5877.09
441.19	5893.47
441.38	6064.33
441.57	5998.79
441.75	6106.46
441.94	6230.51
442.12	6090.07
442.31	6403.71
442.50	6293.70
442.68	6263.27
442.87	6190.72
443.05	6441.15
443.24	6225.82
443.43	6359.24
443.61	6417.75
443.80	6590.95
443.98	6289.02
444.17	6303.06
444.35	6534.78
444.54	6729.04
444.73	6548.82
444.91	6459.88
445.10	6389.66
445.28	6518.39
445.47	6384.98
445.65	6417.75
445.84	6462.22
446.02	6609.67
446.21	6628.40
446.39	6731.38
446.58	6485.62
446.77	6794.58
446.95	6483.28
447.14	6740.74
447.32	6778.19
447.51	6658.82
447.69	6597.97
447.88	6815.64
448.06	6792.23
448.25	6614.35
448.43	6895.22
448.62	6766.49
448.80	6773.51
448.99	6832.02
449.17	6787.55
449.36	6813.30
449.54	7056.72
449.73	7073.10
449.91	7030.97
450.10	7213.53
450.28	7176.08
450.46	7094.16
450.65	7246.30
450.83	7232.26
451.02	7283.75
451.20	7197.15
451.39	7037.99
451.57	7037.99
451.76	7176.08
451.94	7307.15
452.13	7234.60
452.31	7194.81
452.49	7016.93
452.68	7131.61
452.86	7389.07
453.05	7494.40
453.23	7323.54
453.42	7316.51
453.60	7304.81
453.78	7433.54
453.97	7321.20
454.15	7342.26
454.34	7391.41
454.52	7494.40
454.70	7513.12
454.89	7515.46
455.07	7648.87
455.26	7517.80
455.44	7833.77
455.62	7679.30
455.81	7592.70
455.99	7728.45
456.17	7796.32
456.36	7936.76
456.54	7831.43
456.73	7981.23
456.91	8009.31
457.09	8229.32
457.28	8147.40
457.46	8013.99
457.64	8006.97
457.83	8201.24
458.01	7786.96
458.19	8116.98
458.38	8222.30
458.56	8285.50
458.74	8116.98
458.93	8257.41
459.11	8393.16
459.29	8301.88
459.48	8407.20
459.66	8362.73
459.84	8486.78
460.03	8348.69
460.21	8601.47
460.39	8435.29
460.57	8456.36
460.76	8730.20
460.94	8645.94
461.12	8594.45
461.31	8695.09
461.49	8744.24
461.67	8688.07
461.85	8805.10
462.04	8800.41
462.22	9364.48
462.40	8950.21
462.59	8954.89
462.77	8987.66
462.95	9036.81
463.13	8833.18
463.32	8793.39
463.50	8940.85
463.68	8903.40
463.86	9039.15
464.05	8828.50
464.23	9004.04
464.41	9226.39
464.59	8601.47
464.78	9153.84
464.96	9057.87
465.14	9036.81
465.32	9357.46
465.50	9193.62
465.69	9296.61
465.87	9177.24
466.05	9350.44
466.23	9130.43
466.41	9139.79
466.60	9263.84
466.78	9214.69
466.96	9153.84
467.14	9205.33
467.32	9383.21
467.51	9394.91
467.69	9202.99
467.87	9434.70
468.05	9441.72
468.23	9472.15
468.41	9434.70
468.60	9507.26
468.78	9565.77
468.96	9430.02
469.14	9680.46
469.32	9666.41
469.50	9495.55
469.69	9621.94
469.87	9811.53
470.05	9748.33
470.23	9970.68
470.41	9877.06
470.59	10178.99
470.77	9884.08
470.95	10132.18
471.14	10218.78
471.32	9888.76
471.50	10296.02
471.68	10281.97
471.86	10565.18
472.04	10399.00
472.22	10733.70
472.40	10431.77
472.58	10490.28
472.77	10424.75
472.95	10572.20
473.13	10864.77
473.31	10319.42
473.49	10562.84
473.67	10707.95
473.85	10588.58
474.03	10883.49
474.21	10874.13
474.39	10902.22
474.57	11185.42
474.75	10970.09
474.93	11154.99
475.12	11187.76
475.30	11208.83
475.48	10958.39
475.66	11360.96
475.84	11169.04
476.02	11199.46
476.20	11393.73
476.38	11492.03
476.56	11892.26
476.74	11875.88
476.92	11873.54
477.10	11758.85
477.28	12332.28
477.46	12100.57
477.64	12074.82
477.82	12425.90
478.00	12346.33
478.18	12566.34
478.36	12461.01
478.54	12788.69
478.72	12772.30
478.90	12980.61
479.08	12854.22
479.26	13099.98
479.44	13104.66
479.62	13174.88
479.80	13200.62
479.98	13476.80
480.16	13568.09
480.34	13535.32
480.52	13652.34
480.70	13870.01
480.88	13673.41
481.06	13891.08
481.24	13994.06
481.41	14207.05
481.59	14312.38
481.77	14321.74
481.95	14501.96
482.13	14595.58
482.31	14462.17
482.49	14815.59
482.67	14801.55
482.85	14899.85
483.03	15131.56
483.21	15393.70
483.39	15644.14
483.57	15330.51
483.74	15468.60
483.92	15370.30
484.10	15456.90
484.28	15889.90
484.46	15995.22
484.64	16393.11
484.82	16215.23
485.00	16318.22
485.18	16458.65
485.35	16531.20
485.53	16065.44
485.71	16081.82
485.89	16617.80
486.07	16255.02
486.25	16671.64
486.43	16786.32
486.61	16933.78
486.78	17067.19
486.96	17294.22
487.14	17731.90
487.32	17326.99
487.50	18101.70
487.68	18047.87
487.85	18298.31
488.03	18485.55
488.21	18600.24
488.39	18384.91
488.57	18394.27
488.75	18684.50
488.92	19232.18
489.10	19211.12
489.28	19372.61
489.46	19414.74
489.64	19901.58
489.81	20147.33
489.99	19983.49
490.17	20046.69
490.35	20177.76
490.53	20201.16
490.70	20156.69
490.88	20421.17
491.06	20460.96
491.24	20477.35
491.41	20690.34
491.59	20844.81
491.77	20751.19
491.95	21041.42
492.13	21195.89
492.30	21528.25
492.48	21678.04
492.66	21589.10
492.84	21738.90
493.01	22122.74
493.19	21898.05
493.37	22288.92
493.54	21851.24
493.72	22408.29
493.90	22387.22
494.08	22478.50
494.25	22972.36
494.43	23096.41
494.61	23171.30
494.79	23494.30
494.96	23428.76
495.14	23580.90
495.32	23953.04
495.49	23648.77
495.67	23662.82
495.85	24163.69
496.02	24247.95
496.20	24505.41
496.38	24671.59
496.55	24336.89
496.73	25149.06
496.91	24673.93
497.09	25111.61
497.26	25235.66
497.44	24723.08
497.62	25319.92
497.79	24931.39
497.97	25170.12
498.14	25373.75
498.32	26068.89
498.50	25963.56
498.67	26029.10
498.85	26001.01
499.03	26426.99
499.20	26452.73
499.38	26291.24
499.56	26108.68
499.73	26403.58
499.91	26242.09
500.08	26443.37
500.26	26122.72
500.44	26555.72
500.61	27112.77
500.79	26679.77
500.97	26780.41
501.14	26991.06
501.32	27012.12
501.49	27311.71
501.67	26864.67
501.84	27147.87
502.02	27300.01
502.20	27700.24
502.37	27669.81
502.55	27611.30
502.72	27953.02
502.90	28077.07
503.07	28423.47
503.25	28034.94
503.43	27943.66
503.60	28037.28
503.78	27922.59
503.95	28634.11
504.13	28460.91
504.30	28519.43
504.48	28496.02
504.65	28863.49
504.83	28790.93
505.01	29144.35
505.18	28711.35
505.36	29226.27
505.53	29661.61
505.71	29530.54
505.88	29441.60
506.06	29572.67
506.23	29799.70
506.41	29544.58
506.58	29436.92
506.76	29832.47
506.93	30000.99
507.11	29876.94
507.28	30288.87
507.46	29837.15
507.63	29715.44
507.81	30181.21
507.98	29773.95
508.16	30616.55
508.33	30443.35
508.50	30824.86
508.68	30946.56
508.85	30822.51
509.03	30829.54
509.20	31161.89
509.38	31147.85
509.55	31215.72
509.73	30969.97
509.90	31421.69
510.08	31222.75
510.25	31290.62
510.42	31735.32
510.60	32039.59
510.77	31639.36
510.95	31749.37
511.12	31775.11
511.30	32002.14
511.47	32217.47
511.64	32105.13
511.82	32280.67
511.99	32187.05
512.17	31957.67
512.34	32219.81
512.51	32425.78
512.69	32503.02
512.86	32301.73
513.04	32856.44
513.21	32830.69
513.38	32720.69
513.56	32758.14
513.73	32966.45
513.90	33020.28
514.08	33015.60
514.25	33127.94
514.43	33289.44
514.60	33270.72
514.77	32980.49
514.95	33563.28
515.12	33181.77
515.29	33467.32
515.47	33441.57
515.64	33900.32
515.81	33846.49
515.99	33670.95
516.16	33439.23
516.33	33436.89
516.51	33778.61
516.68	32950.06
516.85	33310.50
517.03	33294.12
517.20	34246.72
517.37	34139.05
517.54	34352.04
517.72	34237.36
517.89	33865.21
518.06	33722.44
518.24	34078.20
518.41	34251.40
518.58	33991.60
518.75	34295.87
518.93	34796.74
519.10	34796.74
519.27	35101.01
519.45	35131.44
519.62	35442.73
519.79	35662.74
519.96	35370.18
520.14	35526.99
520.31	35311.66
520.48	35075.27
520.65	35440.39
520.83	35772.75
521.00	35796.15
521.17	36161.28
521.34	36194.04
521.52	35868.71
521.69	35791.47
521.86	36575.55
522.03	36285.33
522.20	35793.81
522.38	36449.16
522.55	36554.49
522.72	36039.57
522.89	36332.14
523.07	36589.59
523.24	36395.33
523.41	36802.58
523.58	36629.38
523.75	37146.64
523.92	36971.10
524.10	37263.67
524.27	36875.14
524.44	37347.93
524.61	37113.87
524.78	37319.84
524.96	37205.16
525.13	37446.23
525.30	37865.19
525.47	37699.01
525.64	37986.89
525.81	37322.18
525.98	37139.62
526.16	37507.08
526.33	37366.65
526.50	37031.96
526.67	37034.30
526.84	37251.97
527.01	37343.25
527.18	37801.99
527.36	38007.96
527.53	37900.29
527.70	38045.41
527.87	38356.70
528.04	38139.03
528.21	38272.44
528.38	38239.67
528.55	38780.34
528.72	38476.07
528.89	38979.28
529.07	38754.59
529.24	38841.19
529.41	38368.40
529.58	38513.52
529.75	38785.02
529.92	39086.95
530.09	39131.42
530.26	38955.88
530.43	38934.81
530.60	38609.48
530.77	39372.49
530.94	39349.09
531.11	39438.03
531.28	38998.01
531.46	39260.15
531.63	39702.51
531.80	39321.00
531.97	39115.03
532.14	38993.32
532.31	39196.95
532.48	39353.77
532.65	39494.20
532.82	39292.91
532.99	39580.80
533.16	39548.03
533.33	39875.71
533.50	39826.56
533.67	40076.99
533.84	39779.74
534.01	40252.53
534.18	40004.44
534.35	40453.82
534.52	39915.50
534.69	40292.32
534.86	40369.56
535.03	40205.72
535.20	40275.94
535.37	41111.51
535.54	40900.86
535.71	40582.55
535.88	40566.16
536.05	40596.59
536.22	41282.37
536.38	40505.31
536.55	40402.33
536.72	40624.68
536.89	40203.38
537.06	40657.45
537.23	41137.26
537.40	41060.02
537.57	40823.62
537.74	41017.89
537.91	41411.10
538.08	41226.20
538.25	41057.68
538.42	40786.18
538.59	41097.47
538.75	40840.01
538.92	41177.04
539.09	41179.39
539.26	41207.47
539.43	41177.04
539.60	41340.88
539.77	41120.87
539.94	41296.41
540.11	40821.28
540.28	41488.34
540.44	41411.10
540.61	41146.62
540.78	41336.20
540.95	41188.75
541.12	41317.48
541.29	41216.83
541.46	41673.24
541.62	41591.32
541.79	41375.99
541.96	41469.61
542.13	41886.23
542.30	41928.36
542.47	41858.14
542.63	41909.63
542.80	42256.03
542.97	42396.46
543.14	42682.01
543.31	42483.06
543.48	42302.84
543.64	42684.35
543.81	42691.37
543.98	42370.72
544.15	42274.76
544.32	42651.58
544.48	43152.46
544.65	42560.30
544.82	42644.56
544.99	42153.05
545.16	42642.22
545.32	42576.69
545.49	42892.66
545.66	42806.06
545.83	42946.49
546.00	43203.95
546.16	43058.84
546.33	42756.91
546.50	42302.84
546.67	43210.97
546.83	42911.38
547.00	42946.49
547.17	43173.52
547.34	43002.66
547.50	42953.51
547.67	43061.18
547.84	43487.15
548.00	43477.79
548.17	43753.97
548.34	43707.16
548.51	43955.26
548.67	44154.21
548.84	43428.64
549.01	43391.19
549.18	43718.87
549.34	43393.53
549.51	43861.64
549.68	43973.98
549.84	43538.65
550.01	44079.31
550.18	43999.73
550.34	43917.81
550.51	43828.87
550.68	43681.42
550.84	43592.48
551.01	44034.84
551.18	43828.87
551.34	43861.64
551.51	43915.47
551.68	44189.31
551.84	43746.95
552.01	44055.90
552.18	43681.42
552.34	43903.77
552.51	43943.56
552.68	43894.41
552.84	44154.21
553.01	44201.02
553.18	44069.95
553.34	44292.30
553.51	44126.12
553.67	44135.48
553.84	44708.91
554.01	44839.98
554.17	44615.29
554.34	44879.77
554.51	44484.22
554.67	44177.61
554.84	44446.77
555.00	44591.89
555.17	43882.70
555.33	44715.93
555.50	44879.77
555.67	44767.43
555.83	45095.10
556.00	44772.11
556.16	45193.40
556.33	44776.79
556.50	44547.42
556.66	44545.08
556.83	44671.46
556.99	45148.93
557.16	44638.70
557.32	44594.23
557.49	44839.98
557.65	44942.97
557.82	44643.38
557.98	45034.25
558.15	45106.80
558.32	44989.78
558.48	44720.62
558.65	44914.88
558.81	44832.96
558.98	44828.28
559.14	44877.43
559.31	44825.94
559.47	44940.63
559.64	44996.80
559.80	44933.60
559.97	44905.52
560.13	44884.45
560.30	45181.70
560.46	45113.83
560.63	45195.74
560.79	45191.06
560.96	45670.87
561.12	45097.44
561.29	44921.90
561.45	45148.93
561.61	45055.31
561.78	45270.64
561.94	45151.27
562.11	44928.92
562.27	44575.50
562.44	45422.78
562.60	45179.36
562.77	45020.20
562.93	45432.14
563.10	45689.60
563.26	44847.00
563.42	45654.49
563.59	45523.42
563.75	45422.78
563.92	45724.71
564.08	45570.23
564.24	45698.96
564.41	45287.03
564.57	45574.91
564.74	45476.61
564.90	45668.53
565.07	45186.38
565.23	45621.72
565.39	45453.20
565.56	45457.88
565.72	45595.98
565.88	45495.33
566.05	45422.78
566.21	45153.62
566.38	44926.58
566.54	45574.91
566.70	45710.66
566.87	45979.82
567.03	45818.33
567.19	45911.95
567.36	45797.26
567.52	45677.90
567.68	45752.79
567.85	45666.19
568.01	45586.61
568.17	45567.89
568.34	45900.25
568.50	45570.23
568.66	45551.51
568.83	45883.86
568.99	45160.64
569.15	45481.29
569.32	45516.40
569.48	45523.42
569.64	46024.29
569.81	46117.92
569.97	45511.72
570.13	45375.97
570.30	45235.53
570.46	45507.04
570.62	45429.80
570.78	44961.69
570.95	45455.54
571.11	45879.18
571.27	45429.80
571.43	45895.56
571.60	45593.64
571.76	45794.92
571.92	45958.76
572.09	45907.27
572.25	45935.35
572.41	46361.33
572.57	45507.04
572.74	46064.08
572.90	45947.06
573.06	46092.17
573.22	46192.81
573.38	46021.95
573.55	45406.39
573.71	45759.81
573.87	45923.65
574.03	45670.87
574.20	46031.32
574.36	45581.93
574.52	45851.09
574.68	45954.08
574.84	45818.33
575.01	45556.19
575.17	45883.86
575.33	45659.17
575.49	45514.06
575.65	46000.89
575.82	46134.30
575.98	45703.64
576.14	46328.56
576.30	45717.68
576.46	46073.45
576.62	45418.10
576.79	45942.38
576.95	45539.80
577.11	45883.86
577.27	45785.56
577.43	45787.90
577.59	45144.25
577.75	45703.64
577.92	45207.45
578.08	45727.05
578.24	45188.72
578.40	45769.18
578.56	45495.33
578.72	45769.18
578.88	45633.42
579.04	45968.12
579.21	45521.08
579.37	45509.38
579.53	45750.45
579.69	45773.86
579.85	45638.11
580.01	45778.54
580.17	45715.34
580.33	46082.81
580.49	46141.32
580.65	46204.52
580.82	45663.85
580.98	45771.52
581.14	45368.94
581.30	45668.53
581.46	45546.82
581.62	46068.76
581.78	45956.42
581.94	46396.44
582.10	46031.32
582.26	46014.93
582.42	46094.51
582.58	46061.74
582.74	46092.17
582.90	45944.72
583.06	45797.26
583.22	46153.02
583.38	46227.92
583.54	46443.25
583.70	46120.26
583.86	46075.79
584.02	45949.40
584.18	45715.34
584.34	46028.98
584.50	45923.65
584.66	46127.28
584.82	45766.84
584.98	46174.09
585.14	45757.47
585.30	46096.85
585.46	45535.12
585.62	45184.04
585.78	45998.55
585.94	45546.82
586.10	45965.78
586.26	45879.18
586.42	46195.15
586.58	46021.95
586.74	45860.46
586.90	46293.46
587.06	45998.55
587.22	46052.38
587.38	45968.12
587.54	46099.19
587.70	46265.37
587.86	45867.48
588.02	46415.16
588.18	45993.87
588.34	45949.40
588.49	45268.30
588.65	45174.68
588.81	45387.67
588.97	45766.84
589.13	45401.71
589.29	45862.80
589.45	45413.41
589.61	45638.11
589.77	45804.28
589.93	46192.81
