SpectraSuite Data File
++++++++++++++++++++++++++++++++++++
Date: Fri Oct 25 11:23:32 EDT 2013
User: price-jones
Dark Spectrum Present: No
Reference Spectrum Present: No
Number of Sampled Component Spectra: 1
Spectrometers: USB2+H05261
Integration Time (usec): 100000 (USB2+H05261)
Spectra Averaged: 1 (USB2+H05261)
Boxcar Smoothing: 0 (USB2+H05261)
Correct for Electrical Dark: No (USB2+H05261)
Strobe/Lamp Enabled: No (USB2+H05261)
Correct for Detector Non-linearity: No (USB2+H05261)
Correct for Stray Light: No (USB2+H05261)
Number of Pixels in Processed Spectrum: 2048
>>>>>Begin Processed Spectral Data<<<<<
365.73	210.65
365.92	210.65
366.12	210.65
366.32	131.07
366.52	114.69
366.72	126.39
366.91	88.94
367.11	152.13
367.31	215.33
367.51	187.24
367.70	194.26
367.90	170.86
368.10	170.86
368.30	79.58
368.49	133.41
368.69	205.97
368.89	131.07
369.09	145.11
369.28	156.82
369.48	198.95
369.68	187.24
369.87	201.29
370.07	147.45
370.27	201.29
370.47	315.97
370.66	554.71
370.86	636.63
371.06	723.23
371.25	779.40
371.45	683.44
371.65	631.94
371.84	634.29
372.04	627.26
372.24	688.12
372.44	627.26
372.63	725.57
372.83	755.99
373.03	727.91
373.22	748.97
373.42	805.14
373.62	777.06
373.81	716.20
374.01	837.91
374.21	777.06
374.40	772.38
374.60	856.64
374.79	868.34
374.99	826.21
375.19	912.81
375.38	793.44
375.58	833.23
375.78	933.87
375.97	795.78
376.17	873.02
376.37	809.83
376.56	887.06
376.76	976.00
376.95	837.91
377.15	908.13
377.35	898.77
377.54	889.40
377.74	844.93
377.93	908.13
378.13	959.62
378.33	994.73
378.52	1008.77
378.72	884.72
378.91	887.06
379.11	947.92
379.31	966.64
379.50	966.64
379.70	954.94
379.89	985.37
380.09	997.07
380.28	966.64
380.48	968.98
380.68	990.05
380.87	968.98
381.07	1011.11
381.26	1064.94
381.46	997.07
381.65	976.00
381.85	952.60
382.04	1027.50
382.24	1093.03
382.43	1062.60
382.63	1039.20
382.83	1029.84
383.02	1088.35
383.22	1125.80
383.41	1050.90
383.61	1177.29
383.80	1123.46
384.00	964.30
384.19	1025.15
384.39	1088.35
384.58	1114.10
384.78	1149.20
384.97	1153.88
385.17	1062.60
385.36	1179.63
385.56	1125.80
385.75	1135.16
385.95	1233.46
386.14	1217.08
386.34	1172.61
386.53	1224.10
386.72	1240.48
386.92	1263.89
387.11	1273.25
387.31	1198.35
387.50	1196.01
387.70	1200.69
387.89	1228.78
388.09	1268.57
388.28	1352.83
388.48	1221.76
388.67	1315.38
388.86	1425.39
389.06	1357.51
389.25	1329.42
389.45	1411.34
389.64	1334.11
389.84	1371.55
390.03	1329.42
390.22	1380.92
390.42	1359.85
390.61	1373.89
390.81	1406.66
391.00	1418.36
391.19	1483.90
391.39	1427.73
391.58	1406.66
391.78	1409.00
391.97	1563.48
392.16	1469.86
392.36	1439.43
392.55	1469.86
392.75	1561.14
392.94	1483.90
393.13	1607.95
393.33	1619.65
393.52	1575.18
393.71	1530.71
393.91	1631.35
394.10	1514.33
394.29	1659.44
394.49	1600.93
394.68	1507.30
394.88	1621.99
395.07	1671.14
395.26	1703.91
395.46	1682.85
395.65	1753.06
395.84	1797.53
396.04	1666.46
396.23	1781.15
396.42	1675.82
396.62	1720.29
396.81	1839.66
397.00	1696.89
397.19	1877.11
397.39	1809.23
397.58	1781.15
397.77	1849.02
397.97	1970.73
398.16	1912.22
398.35	1916.90
398.55	1870.09
398.74	1921.58
398.93	1872.43
399.12	2012.86
399.32	1837.32
399.51	1874.77
399.70	2038.61
399.90	1954.35
400.09	1956.69
400.28	2101.80
400.47	2099.46
400.67	2146.27
400.86	2169.68
401.05	2031.58
401.24	2043.29
401.44	2054.99
401.63	2207.13
401.82	2232.87
402.01	2073.71
402.21	2129.89
402.40	2139.25
402.59	2139.25
402.78	2331.17
402.97	2293.72
403.17	2310.11
403.36	2293.72
403.55	2356.92
403.74	2359.26
403.93	2291.38
404.13	2356.92
404.32	2417.77
404.51	2375.64
404.70	2422.45
404.89	2317.13
405.09	2544.16
405.28	2483.31
405.47	2520.76
405.66	2478.63
405.85	2567.57
406.05	2630.76
406.24	2600.34
406.43	2579.27
406.62	2595.65
406.81	2672.89
407.00	2612.04
407.20	2593.31
407.39	2710.34
407.58	2647.15
407.77	2710.34
407.96	2708.00
408.15	2766.51
408.34	2684.59
408.54	2818.00
408.73	2855.45
408.92	2766.51
409.11	2862.48
409.30	2843.75
409.49	2850.77
409.68	2888.22
409.87	2986.52
410.07	3045.04
410.26	2970.14
410.45	2920.99
410.64	3042.70
410.83	2963.12
411.02	3159.72
411.21	3063.76
411.40	3255.69
411.59	3215.90
411.78	3323.56
411.98	3218.24
412.17	3171.43
412.36	3323.56
412.55	3332.92
412.74	3391.44
412.93	3253.34
413.12	3426.54
413.31	3527.19
413.50	3485.06
413.69	3494.42
413.88	3485.06
414.07	3522.51
414.26	3646.55
414.45	3716.77
414.64	3709.75
414.83	3684.00
415.02	3735.50
415.22	3887.63
415.41	3864.22
415.60	3829.12
415.79	3927.42
415.98	4007.00
416.17	4119.34
416.36	3918.06
416.55	4091.26
416.74	4046.79
416.93	4138.07
417.12	4084.23
417.31	3990.61
417.50	4189.56
417.69	4383.82
417.88	4224.67
418.07	4290.20
418.26	4390.84
418.45	4271.48
418.64	4592.13
418.83	4411.91
419.02	4393.19
419.21	4533.62
419.39	4521.92
419.58	4477.44
419.77	4521.92
419.96	4566.39
420.15	4615.54
420.34	4641.28
420.53	4617.88
420.72	4599.15
420.91	4809.80
421.10	4737.24
421.29	4837.89
421.48	4704.48
421.67	4765.33
421.86	4681.07
422.05	4760.65
422.24	4798.10
422.43	5011.09
422.61	4964.28
422.80	4938.53
422.99	4877.68
423.18	5020.45
423.37	5008.75
423.56	4807.46
423.75	5008.75
423.94	4805.12
424.13	4685.75
424.32	4858.95
424.50	4943.21
424.69	5095.35
424.88	4980.66
425.07	4971.30
425.26	5036.83
425.45	4978.32
425.64	4865.97
425.83	5029.81
426.01	5125.77
426.20	5013.43
426.39	5163.22
426.58	5060.24
426.77	5055.56
426.96	5109.39
427.15	4964.28
427.33	5167.90
427.52	5224.08
427.71	5273.23
427.90	5160.88
428.09	5317.70
428.28	5296.63
428.46	5432.38
428.65	5401.96
428.84	5593.88
429.03	5383.23
429.22	5390.25
429.40	5584.52
429.59	5521.32
429.78	5289.61
429.97	5305.99
430.16	5497.92
430.34	5659.42
430.53	5720.27
430.72	5659.42
430.91	5769.42
431.10	5729.63
431.28	5720.27
431.47	5813.89
431.66	5879.43
431.85	5706.23
432.03	5860.70
432.22	6115.82
432.41	5837.30
432.60	5984.75
432.79	6031.56
432.97	6118.16
433.16	6092.41
433.35	6157.95
433.54	5996.45
433.72	6080.71
433.91	6115.82
434.10	6274.98
434.28	6164.97
434.47	6298.38
434.66	6162.63
434.85	6307.74
435.03	6401.37
435.22	6389.66
435.41	6347.53
435.59	6356.90
435.78	6518.39
435.97	6366.26
436.16	6567.54
436.34	6469.24
436.53	6427.11
436.72	6626.06
436.90	6483.28
437.09	6565.20
437.28	6373.28
437.46	6672.87
437.65	6757.13
437.84	6810.96
438.02	6651.80
438.21	6782.87
438.40	6604.99
438.58	7056.72
438.77	7063.74
438.96	6925.65
439.14	7286.09
439.33	7169.06
439.52	7176.08
439.70	7164.38
439.89	7360.98
440.08	7318.86
440.26	7421.84
440.45	7578.65
440.63	7435.88
440.82	7578.65
441.01	7445.24
441.19	7611.42
441.38	7756.54
441.57	7679.30
441.75	7925.05
441.94	7726.11
442.12	8030.38
442.31	8077.19
442.50	7990.59
442.68	7901.65
442.87	8257.41
443.05	8046.76
443.24	8365.07
443.43	8217.62
443.61	8339.33
443.80	8526.57
443.98	8112.30
444.17	7789.30
444.35	8229.32
444.54	8512.53
444.73	8369.76
444.91	8236.35
445.10	8409.54
445.28	8234.00
445.47	8131.02
445.65	8468.06
445.84	8379.12
446.02	8533.59
446.21	8484.44
446.39	8454.02
446.58	8547.64
446.77	8676.37
446.95	8236.35
447.14	8514.87
447.32	8596.79
447.51	8557.00
447.69	8397.84
447.88	8624.87
448.06	8564.02
448.25	8582.74
448.43	8692.75
448.62	8648.28
448.80	8727.86
448.99	8985.32
449.17	8922.12
449.36	8840.20
449.54	8908.08
449.73	8919.78
449.91	9055.53
450.10	9130.43
450.28	9366.82
450.46	9151.49
450.65	9018.08
450.83	9100.00
451.02	9259.16
451.20	9268.52
451.39	9270.86
451.57	9320.01
451.76	9158.52
451.94	9252.14
452.13	9399.59
452.31	9481.51
452.49	9146.81
452.68	9390.23
452.86	9205.33
453.05	9430.02
453.23	9474.49
453.42	9352.78
453.60	9359.80
453.78	9528.32
453.97	9387.89
454.15	9455.76
454.34	9469.81
454.52	9626.62
454.70	9717.90
454.89	9687.48
455.07	9809.19
455.26	9795.14
455.44	10061.96
455.62	9844.29
455.81	9923.87
455.99	10036.22
456.17	10239.84
456.36	10267.93
456.54	10209.42
456.73	10272.61
456.91	10300.70
457.09	10579.22
457.28	10661.14
457.46	10260.91
457.64	10422.41
457.83	10478.58
458.01	10558.16
458.19	10951.37
458.38	10726.68
458.56	10630.71
458.74	10752.42
458.93	10796.89
459.11	10832.00
459.29	10602.63
459.48	10661.14
459.66	10778.17
459.84	10970.09
460.03	11094.14
460.21	11002.86
460.39	11082.44
460.57	11044.99
460.76	11084.78
460.94	11379.68
461.12	11103.50
461.31	11229.89
461.49	11220.53
461.67	11117.54
461.85	11466.28
462.04	11243.93
462.22	11534.16
462.40	11630.12
462.59	11508.41
462.77	11740.13
462.95	11667.57
463.13	11651.19
463.32	11587.99
463.50	11735.45
463.68	11892.26
463.86	12032.69
464.05	11620.76
464.23	11899.28
464.41	11843.11
464.59	11599.70
464.78	12072.48
464.96	12327.60
465.14	11889.92
465.32	12065.46
465.50	12400.16
465.69	12161.42
465.87	12116.95
466.05	12259.73
466.23	12341.64
466.41	12189.51
466.60	12692.73
466.78	12388.46
466.96	12351.01
467.14	12252.70
467.32	12311.22
467.51	12475.06
467.69	12241.00
467.87	12601.44
468.05	12622.51
468.23	12524.21
468.41	12512.50
468.60	12554.63
468.78	12713.79
468.96	12844.86
469.14	12634.21
469.32	13156.15
469.50	12798.05
469.69	12901.03
469.87	13039.12
470.05	12985.29
470.23	13401.91
470.41	13018.06
470.59	13343.39
470.77	13329.35
470.95	13291.90
471.14	13621.92
471.32	13064.87
471.50	13558.72
471.68	13694.47
471.86	13572.77
472.04	13909.80
472.22	14010.45
472.40	13827.88
472.58	13757.67
472.77	14249.18
472.95	14295.99
473.13	14630.69
473.31	14150.88
473.49	14267.91
473.67	14263.22
473.85	14420.04
474.03	14586.22
474.21	14668.14
474.39	15066.03
474.57	14846.02
474.75	15108.16
474.93	14885.81
475.12	15122.20
475.30	15358.60
475.48	15049.64
475.66	15477.96
475.84	14899.85
476.02	15590.31
476.20	15611.37
476.38	15681.59
476.56	16011.60
476.74	15899.26
476.92	16149.70
477.10	15775.21
477.28	16276.09
477.46	16116.93
477.64	16350.98
477.82	16521.84
478.00	16931.44
478.18	16884.62
478.36	17198.26
478.54	17172.51
478.72	17336.35
478.90	17233.36
479.08	17422.95
479.26	17834.88
479.44	17767.01
479.62	17951.91
479.80	18153.20
479.98	18171.92
480.16	18457.46
480.34	18438.74
480.52	18696.20
480.70	18588.53
480.88	18499.59
481.06	19047.28
481.24	19066.00
481.41	19168.99
481.59	19576.24
481.77	19499.00
481.95	19527.09
482.13	19665.18
482.31	20100.52
482.49	20659.91
482.67	20273.72
482.85	20624.80
483.03	20496.07
483.21	20903.32
483.39	20917.37
483.57	21055.46
483.74	21291.85
483.92	21603.14
484.10	21071.84
484.28	21813.79
484.46	22038.48
484.64	22590.85
484.82	22129.77
485.00	22199.98
485.18	22817.88
485.35	23042.57
485.53	22911.50
485.71	22916.19
485.89	23204.07
486.07	23405.36
486.25	23250.88
486.43	23709.63
486.61	23913.25
486.78	24278.38
486.96	24238.59
487.14	25015.65
487.32	24486.68
487.50	25563.33
487.68	25074.16
487.85	25266.08
488.03	25680.36
488.21	26073.57
488.39	25759.94
488.57	26281.88
488.75	26684.45
488.92	26487.84
489.10	26738.28
489.28	26857.65
489.46	27058.93
489.64	26944.25
489.81	27630.02
489.99	27819.61
490.17	27864.08
490.35	28322.82
490.53	28294.74
490.70	28386.02
490.88	28386.02
491.06	28861.15
491.24	29036.69
491.41	28914.98
491.59	29392.45
491.77	29331.59
491.95	29549.26
492.13	29933.11
492.30	30132.06
492.48	30169.51
492.66	30359.09
492.84	30654.00
493.01	30721.87
493.19	30759.32
493.37	31260.20
493.54	31189.98
493.72	31786.82
493.90	31206.36
494.08	31461.48
494.25	32020.87
494.43	32292.37
494.61	32610.68
494.79	32493.66
494.96	32292.37
495.14	32589.62
495.32	33230.93
495.49	33235.61
495.67	33031.98
495.85	33579.67
496.02	33743.50
496.20	34120.33
496.38	34466.73
496.55	34440.98
496.73	35098.67
496.91	34286.51
497.09	35283.58
497.26	35108.04
497.44	35154.85
497.62	35204.00
497.79	35840.62
497.97	35470.82
498.14	35938.93
498.32	36222.13
498.50	36460.87
498.67	36594.28
498.85	36842.37
499.03	37153.66
499.20	36727.69
499.38	37132.60
499.56	37186.43
499.73	37214.52
499.91	37553.90
500.08	37909.66
500.26	37581.98
500.44	37699.01
500.61	38033.71
500.79	37507.08
500.97	38054.77
501.14	38806.08
501.32	38492.45
501.49	38850.55
501.67	38995.67
501.84	38995.67
502.02	39122.05
502.20	38909.07
502.37	39360.79
502.55	39384.19
502.72	39688.46
502.90	39735.27
503.07	39833.58
503.25	40481.91
503.43	39587.82
503.60	40545.10
503.78	40289.98
503.95	40362.54
504.13	40957.03
504.30	40582.55
504.48	40304.02
504.65	40587.23
504.83	41621.75
505.01	41425.14
505.18	41097.47
505.36	41523.44
505.53	41764.52
505.71	41794.95
505.88	41860.48
506.06	41677.92
506.23	42148.37
506.41	42347.31
506.58	42117.94
506.76	42162.41
506.93	42330.93
507.11	42611.79
507.28	42831.80
507.46	42852.87
507.63	43033.09
507.81	43545.67
507.98	43175.86
508.16	43285.87
508.33	43662.69
508.50	43807.81
508.68	43789.08
508.85	44058.24
509.03	43924.83
509.20	44215.06
509.38	44467.84
509.55	44472.52
509.73	44605.93
509.90	44809.56
510.08	44814.24
510.25	44395.28
510.42	44917.22
510.60	45113.83
510.77	45375.97
510.95	46075.79
511.12	45368.94
511.30	45462.57
511.47	45778.54
511.64	45633.42
511.82	45808.96
511.99	45792.58
512.17	46146.00
512.34	46546.23
512.51	46457.29
512.69	46630.49
512.86	46349.63
513.04	46754.54
513.21	46958.17
513.38	46490.06
513.56	46902.00
513.73	46780.29
513.90	47192.22
514.08	47250.74
514.25	47452.02
514.43	47131.37
514.60	47473.09
514.77	47381.80
514.95	47819.49
515.12	47779.70
515.29	47571.39
515.47	48067.58
515.64	48395.26
515.81	48315.68
515.99	48369.51
516.16	48973.37
516.33	48711.23
516.51	49181.68
516.68	48652.72
516.85	48568.46
517.03	48868.05
517.20	49233.17
517.37	49027.20
517.54	49158.27
517.72	49151.25
517.89	49177.00
518.06	49717.66
518.24	49303.38
518.41	49535.10
518.58	49687.23
518.75	49642.76
518.93	49673.19
519.10	49565.52
519.27	49759.79
519.45	49600.63
519.62	49951.71
519.79	50291.09
519.96	50377.69
520.14	50263.00
520.31	50471.31
520.48	50454.93
520.65	50415.14
520.83	50871.54
521.00	50862.18
521.17	50663.24
521.34	50939.42
521.52	50866.86
521.69	50693.66
521.86	51047.08
522.03	51173.47
522.20	51737.54
522.38	51578.39
522.55	51210.92
522.72	51393.48
522.89	51236.67
523.07	51831.16
523.24	51468.38
523.41	51906.06
523.58	51604.13
523.75	51739.88
523.92	52020.75
524.10	52147.14
524.27	51854.57
524.44	52294.59
524.61	52158.84
524.78	52282.89
524.96	52130.75
525.13	52711.20
525.30	52416.30
525.47	52949.94
525.64	52516.94
525.81	52832.91
525.98	52750.99
526.16	52624.60
526.33	52800.15
526.50	53174.63
526.67	52992.07
526.84	52877.38
527.01	52996.75
527.18	53097.39
527.36	53195.70
527.53	52931.22
527.70	53853.39
527.87	53319.74
528.04	53324.43
528.21	53471.88
528.38	53654.44
528.55	53425.07
528.72	53319.74
528.89	53712.95
529.07	53457.84
529.24	53352.51
529.41	54073.40
529.58	53748.06
529.75	53710.61
529.92	53963.39
530.09	54007.86
530.26	53968.07
530.43	54199.79
530.60	53820.62
530.77	53965.73
530.94	54293.41
531.11	54286.39
531.28	54288.73
531.46	54412.77
531.63	54396.39
531.80	54457.24
531.97	54415.11
532.14	54724.07
532.31	54698.32
532.48	54616.40
532.65	54686.62
532.82	54466.61
532.99	55037.70
533.16	54773.22
533.33	54798.96
533.50	55246.00
533.67	54890.24
533.84	54997.91
534.01	54883.22
534.18	55227.28
534.35	55285.79
534.52	54995.57
534.69	55297.50
534.86	55278.77
535.03	55358.35
535.20	55372.39
535.37	55302.18
535.54	55501.12
535.71	55241.32
535.88	55419.20
536.05	55934.12
536.22	55437.93
536.38	55676.66
536.55	55936.46
536.72	55753.90
536.89	55765.60
537.06	55353.67
537.23	55924.76
537.40	55854.54
537.57	55924.76
537.74	55814.76
537.91	56236.05
538.08	56076.90
538.25	55695.39
538.42	56189.24
538.59	56233.71
538.75	56006.68
538.92	56268.82
539.09	56591.81
539.26	56236.05
539.43	56512.23
539.60	56399.89
539.77	56633.94
539.94	56699.48
540.11	56339.04
540.28	56575.43
540.44	56549.68
540.61	56470.11
540.78	56381.16
540.95	56699.48
541.12	56521.60
541.29	56371.80
541.46	56573.09
541.62	56739.27
541.79	56566.07
541.96	56556.70
542.13	56439.68
542.30	56924.17
542.47	57027.15
542.63	57190.99
542.80	57020.13
542.97	57195.67
543.14	57214.40
543.31	57268.23
543.48	57261.21
543.64	57563.14
543.81	57446.11
543.98	57429.72
544.15	57396.96
544.32	57467.17
544.48	57551.43
544.65	57478.88
544.82	57879.11
544.99	57359.51
545.16	57542.07
545.32	57588.88
545.49	57701.23
545.66	57900.17
545.83	58082.73
546.00	57792.51
546.16	57766.76
546.33	57741.02
546.50	57623.99
546.67	57939.96
546.83	57708.25
547.00	57724.63
547.17	57813.57
547.34	57822.93
547.50	57951.66
547.67	58209.12
547.84	58131.89
548.00	58117.84
548.17	58127.20
548.34	57982.09
548.51	58459.56
548.67	58443.18
548.84	58356.58
549.01	58061.67
549.18	58316.79
549.34	58468.92
549.51	58410.41
549.68	58335.51
549.84	58419.77
550.01	58583.61
550.18	58342.53
550.34	58379.98
550.51	58637.44
550.68	58567.23
550.84	58216.14
551.01	58539.14
551.18	58766.17
551.34	58527.44
551.51	58635.10
551.68	58834.05
551.84	58684.25
552.01	58681.91
552.18	58623.40
552.34	58632.76
552.51	58988.52
552.68	58513.39
552.84	58494.67
553.01	59260.02
553.18	58976.82
553.34	59014.27
553.51	58784.90
553.67	58899.58
553.84	58958.09
554.01	59049.38
554.17	59306.83
554.34	59032.99
554.51	59178.10
554.67	59234.28
554.84	59133.63
555.00	59208.53
555.17	58941.71
555.33	59173.42
555.50	59091.51
555.67	59236.62
555.83	59290.45
556.00	59250.66
556.16	59554.93
556.33	59475.35
556.50	59203.85
556.66	59419.18
556.83	59255.34
556.99	59491.74
557.16	59587.70
557.32	59639.19
557.49	59774.94
557.65	59477.69
557.82	59386.41
557.98	59573.66
558.15	59416.84
558.32	59655.57
558.48	59447.27
558.65	59660.26
558.81	59332.58
558.98	59777.28
559.14	59704.73
559.31	59681.32
559.47	59674.30
559.64	59805.37
559.80	59662.60
559.97	59877.93
560.13	59849.84
560.30	59723.45
560.46	59796.01
560.63	59901.33
560.79	59952.82
560.96	59838.14
561.12	59896.65
561.29	59913.03
561.45	60135.38
561.61	59718.77
561.78	59852.18
561.94	59884.95
562.11	59964.52
562.27	59901.33
562.44	59973.89
562.60	60193.90
562.77	60399.86
562.93	60030.06
563.10	60119.00
563.26	59847.50
563.42	60168.15
563.59	60032.40
563.75	59945.80
563.92	60051.12
564.08	60224.32
564.24	60336.67
564.41	60219.64
564.57	60032.40
564.74	60086.23
564.90	60348.37
565.07	60364.76
565.23	60130.70
565.39	60278.16
565.56	60348.37
565.72	60114.32
565.88	60324.97
566.05	60076.87
566.21	60161.13
566.38	60385.82
566.54	60416.25
566.70	60484.12
566.87	60484.12
567.03	60224.32
567.19	60552.00
567.36	60280.50
567.52	60383.48
567.68	60516.89
567.85	60500.51
568.01	60573.06
568.17	60257.09
568.34	60680.73
568.50	60521.57
568.66	60261.77
568.83	60521.57
568.99	60416.25
569.15	60331.99
569.32	60601.15
569.48	60477.10
569.64	60514.55
569.81	60587.11
569.97	60470.08
570.13	60486.46
570.30	60364.76
570.46	60582.43
570.62	60659.66
570.78	60626.90
570.95	60640.94
571.11	60573.06
571.27	60446.68
571.43	60659.66
571.60	60970.96
571.76	60523.91
571.92	60657.32
572.09	60662.00
572.25	60678.39
572.41	60507.53
572.57	61008.40
572.74	61076.28
572.90	60903.08
573.06	60662.00
573.22	60683.07
573.38	60774.35
573.55	60701.79
573.71	60856.27
573.87	60835.20
574.03	60528.59
574.20	60750.94
574.36	60701.79
574.52	60814.14
574.68	61071.60
574.84	60926.49
575.01	60800.10
575.17	60783.71
575.33	60769.67
575.49	60764.99
575.65	60992.02
575.82	60874.99
575.98	60961.59
576.14	60931.17
576.30	60938.19
576.46	60776.69
576.62	60846.91
576.79	60666.69
576.95	60683.07
577.11	60985.00
577.27	60734.56
577.43	60865.63
577.59	60877.33
577.75	60987.34
577.92	60924.14
578.08	60926.49
578.24	60793.07
578.40	60987.34
578.56	60914.78
578.72	60816.48
578.88	61151.18
579.04	60949.89
579.21	61048.19
579.37	60968.61
579.53	61071.60
579.69	60795.42
579.85	60905.42
580.01	60975.64
580.17	61041.17
580.33	61148.84
580.49	60963.93
580.65	61010.74
580.82	60762.65
580.98	61034.15
581.14	60722.86
581.30	61137.13
581.46	61071.60
581.62	61041.17
581.78	60907.76
581.94	61015.43
582.10	61055.21
582.26	60762.65
582.42	61048.19
582.58	60917.12
582.74	61031.81
582.90	61010.74
583.06	60903.08
583.22	60867.97
583.38	61130.11
583.54	60973.30
583.70	60865.63
583.86	61141.81
584.02	60837.54
584.18	61303.31
584.34	61059.90
584.50	60952.23
584.66	61214.37
584.82	60797.76
584.98	60928.83
585.14	61212.03
585.30	60921.80
585.46	61179.26
585.62	60999.04
585.78	61205.01
585.94	60781.37
586.10	61127.77
586.26	61104.37
586.42	61087.98
586.58	61300.97
586.74	60896.06
586.90	60928.83
587.06	61106.71
587.22	61048.19
587.38	61279.91
587.54	61275.22
587.70	61375.87
587.86	61097.34
588.02	61144.16
588.18	61396.93
588.34	61120.75
588.49	61144.16
