SpectraSuite Data File
++++++++++++++++++++++++++++++++++++
Date: Fri Oct 25 11:23:06 EDT 2013
User: price-jones
Dark Spectrum Present: No
Reference Spectrum Present: No
Number of Sampled Component Spectra: 1
Spectrometers: USB2+H05261
Integration Time (usec): 100000 (USB2+H05261)
Spectra Averaged: 1 (USB2+H05261)
Boxcar Smoothing: 0 (USB2+H05261)
Correct for Electrical Dark: No (USB2+H05261)
Strobe/Lamp Enabled: No (USB2+H05261)
Correct for Detector Non-linearity: No (USB2+H05261)
Correct for Stray Light: No (USB2+H05261)
Number of Pixels in Processed Spectrum: 2048
>>>>>Begin Processed Spectral Data<<<<<
365.73	198.95
365.92	198.95
366.12	198.95
366.32	156.82
366.52	131.07
366.72	105.32
366.91	121.71
367.11	166.18
367.31	93.62
367.51	145.11
367.70	145.11
367.90	145.11
368.10	170.86
368.30	135.75
368.49	149.79
368.69	152.13
368.89	166.18
369.09	124.05
369.28	126.39
369.48	149.79
369.68	212.99
369.87	210.65
370.07	102.98
370.27	170.86
370.47	262.14
370.66	528.96
370.86	608.54
371.06	585.13
371.25	697.48
371.45	669.39
371.65	713.86
371.84	744.29
372.04	650.67
372.24	739.61
372.44	685.78
372.63	683.44
372.83	716.20
373.03	840.25
373.22	781.74
373.42	748.97
373.62	770.04
373.81	711.52
374.01	779.40
374.21	784.08
374.40	814.51
374.60	772.38
374.79	734.93
374.99	732.59
375.19	800.46
375.38	805.14
375.58	793.44
375.78	840.25
375.97	880.04
376.17	880.04
376.37	854.30
376.56	828.55
376.76	805.14
376.95	863.66
377.15	861.32
377.35	1006.43
377.54	840.25
377.74	968.98
377.93	959.62
378.13	887.06
378.33	968.98
378.52	887.06
378.72	901.11
378.91	940.90
379.11	952.60
379.31	880.04
379.50	943.24
379.70	961.96
379.89	868.34
380.09	1043.88
380.28	1076.65
380.48	985.37
380.68	992.39
380.87	936.21
381.07	1046.22
381.26	1008.77
381.46	973.66
381.65	1013.45
381.85	1029.84
382.04	1097.71
382.24	1048.56
382.43	997.07
382.63	1055.58
382.83	1121.12
383.02	1043.88
383.22	1151.54
383.41	1125.80
383.61	1060.26
383.80	1156.22
384.00	1146.86
384.19	1153.88
384.39	1116.44
384.58	1144.52
384.78	1097.71
384.97	1060.26
385.17	1130.48
385.36	1137.50
385.56	1200.69
385.75	1240.48
385.95	1184.31
386.14	1181.97
386.34	1196.01
386.53	1156.22
386.72	1153.88
386.92	1277.93
387.11	1170.27
387.31	1261.55
387.50	1203.04
387.70	1186.65
387.89	1233.46
388.09	1366.87
388.28	1348.15
388.48	1266.23
388.67	1261.55
388.86	1301.34
389.06	1380.92
389.25	1387.94
389.45	1291.98
389.64	1324.74
389.84	1423.05
390.03	1348.15
390.22	1390.28
390.42	1392.62
390.61	1509.65
390.81	1411.34
391.00	1366.87
391.19	1446.45
391.39	1439.43
391.58	1385.60
391.78	1476.88
391.97	1397.30
392.16	1479.22
392.36	1519.01
392.55	1621.99
392.75	1631.35
392.94	1490.92
393.13	1493.26
393.33	1497.94
393.52	1661.78
393.71	1526.03
393.91	1633.69
394.10	1589.22
394.29	1654.76
394.49	1565.82
394.68	1554.12
394.88	1636.03
395.07	1636.03
395.26	1598.59
395.46	1692.21
395.65	1685.19
395.84	1708.59
396.04	1799.87
396.23	1694.55
396.42	1783.49
396.62	1795.19
396.81	1825.62
397.00	1851.36
397.19	1788.17
397.39	1842.00
397.58	1856.04
397.77	1767.10
397.97	1865.41
398.16	1940.30
398.35	1994.14
398.55	1788.17
398.74	1933.28
398.93	1996.48
399.12	1916.90
399.32	1923.92
399.51	2029.24
399.70	1970.73
399.90	2015.20
400.09	2078.40
400.28	2026.90
400.47	1963.71
400.67	2022.22
400.86	2040.95
401.05	2136.91
401.24	2092.44
401.44	2190.74
401.63	2157.97
401.82	2207.13
402.01	2179.04
402.21	2305.43
402.40	2165.00
402.59	2249.25
402.78	2174.36
402.97	2335.85
403.17	2328.83
403.36	2214.15
403.55	2375.64
403.74	2303.09
403.93	2310.11
404.13	2530.12
404.32	2347.56
404.51	2410.75
404.70	2420.11
404.89	2429.48
405.09	2417.77
405.28	2504.37
405.47	2457.56
405.66	2553.52
405.85	2480.97
406.05	2534.80
406.24	2647.15
406.43	2576.93
406.62	2750.13
406.81	2544.16
407.00	2499.69
407.20	2600.34
407.39	2724.38
407.58	2672.89
407.77	2700.98
407.96	2747.79
408.15	2736.09
408.34	2789.92
408.54	2827.37
408.73	2799.28
408.92	2815.66
409.11	2820.35
409.30	2923.33
409.49	2876.52
409.68	3033.33
409.87	3009.93
410.07	2843.75
410.26	2967.80
410.45	2951.42
410.64	3042.70
410.83	3061.42
411.02	3115.25
411.21	3293.13
411.40	3075.46
411.59	3309.52
411.78	3236.96
411.98	3328.24
412.17	3283.77
412.36	3281.43
412.55	3471.01
412.74	3363.35
412.93	3393.78
413.12	3487.40
413.31	3641.87
413.50	3566.98
413.69	3555.27
413.88	3730.81
414.07	3538.89
414.26	3693.37
414.45	3782.31
414.64	3695.71
414.83	3801.03
415.02	3796.35
415.22	3868.91
415.41	3957.85
415.60	3882.95
415.79	3922.74
415.98	4004.66
416.17	3985.93
416.36	4009.34
416.55	3953.16
416.74	4091.26
416.93	4056.15
417.12	4231.69
417.31	4152.11
417.50	4168.49
417.69	4435.32
417.88	4355.74
418.07	4210.62
418.26	4409.57
418.45	4269.14
418.64	4538.30
418.83	4409.57
419.02	4538.30
419.21	4648.30
419.39	4526.60
419.58	4390.84
419.77	4526.60
419.96	4636.60
420.15	4629.58
420.34	4554.68
420.53	4681.07
420.72	4706.82
420.91	4669.37
421.10	4767.67
421.29	4856.61
421.48	4865.97
421.67	4781.71
421.86	4971.30
422.05	4746.61
422.24	4891.72
422.43	4919.81
422.61	5020.45
422.80	4992.36
422.99	4837.89
423.18	5034.49
423.37	5071.94
423.56	4961.94
423.75	4922.15
423.94	4798.10
424.13	4580.43
424.32	4732.56
424.50	5039.17
424.69	5156.20
424.88	5179.61
425.07	4924.49
425.26	5041.51
425.45	4940.87
425.64	5032.15
425.83	5210.03
426.01	5172.58
426.20	5029.81
426.39	5233.44
426.58	5041.51
426.77	5156.20
426.96	5093.01
427.15	5043.85
427.33	5191.31
427.52	5193.65
427.71	5348.12
427.90	5373.87
428.09	5554.09
428.28	5371.53
428.46	5547.07
428.65	5174.92
428.84	5638.35
429.03	5481.53
429.22	5385.57
429.40	5621.97
429.59	5444.09
429.78	5441.75
429.97	5107.05
430.16	5621.97
430.34	5685.16
430.53	5638.35
430.72	5811.55
430.91	5661.76
431.10	5713.25
431.28	5783.46
431.47	5830.27
431.66	6010.50
431.85	5994.11
432.03	5968.37
432.22	6038.58
432.41	6174.33
432.60	5877.09
432.79	5996.45
432.97	6057.31
433.16	6059.65
433.35	6010.50
433.54	6129.86
433.72	6162.63
433.91	6235.19
434.10	6195.40
434.28	6012.84
434.47	6300.72
434.66	6216.46
434.85	6324.13
435.03	6499.67
435.22	6342.85
435.41	6600.31
435.59	6328.81
435.78	6661.16
435.97	6656.48
436.16	6487.96
436.34	6506.69
436.53	6621.38
436.72	6651.80
436.90	6525.41
437.09	6672.87
437.28	6558.18
437.46	6567.54
437.65	6764.15
437.84	6815.64
438.02	6930.33
438.21	6813.30
438.40	6841.39
438.58	7035.65
438.77	7021.61
438.96	7026.29
439.14	7094.16
439.33	7197.15
439.52	7290.77
439.70	7339.92
439.89	7346.94
440.08	7592.70
440.26	7573.97
440.45	7311.83
440.63	7611.42
440.82	7543.55
441.01	7431.20
441.19	7707.38
441.38	7665.25
441.57	7864.20
441.75	7812.71
441.94	8149.75
442.12	8133.36
442.31	7981.23
442.50	8161.45
442.68	7953.14
442.87	8140.38
443.05	8107.62
443.24	8402.52
443.43	8262.09
443.61	8430.61
443.80	8503.17
443.98	8147.40
444.17	7929.74
444.35	8210.60
444.54	8311.24
444.73	8439.97
444.91	8348.69
445.10	8533.59
445.28	8564.02
445.47	8236.35
445.65	8297.20
445.84	8482.10
446.02	8578.06
446.21	8631.90
446.39	8528.91
446.58	8493.80
446.77	8507.85
446.95	8496.14
447.14	8634.24
447.32	8566.36
447.51	8674.03
447.69	8512.53
447.88	8484.44
448.06	8709.13
448.25	8507.85
448.43	8753.60
448.62	8760.63
448.80	8842.54
448.99	8922.12
449.17	8947.87
449.36	8688.07
449.54	8961.91
449.73	8861.27
449.91	8922.12
450.10	9144.47
450.28	9109.36
450.46	9174.90
450.65	9303.63
450.83	9132.77
451.02	9217.03
451.20	9242.78
451.39	9329.38
451.57	9247.46
451.76	9217.03
451.94	9376.19
452.13	9453.42
452.31	9371.50
452.49	9252.14
452.68	9561.09
452.86	9408.95
453.05	9420.66
453.23	9483.85
453.42	9411.29
453.60	9448.74
453.78	9621.94
453.97	9490.87
454.15	9694.50
454.34	9533.00
454.52	9877.06
454.70	9720.24
454.89	9907.49
455.07	9872.38
455.26	9980.04
455.44	10162.61
455.62	9902.81
455.81	10052.60
455.99	10153.24
456.17	10211.76
456.36	10277.29
456.54	10146.22
456.73	10331.12
456.91	10637.73
457.09	10509.01
457.28	10679.86
457.46	10296.02
457.64	10553.48
457.83	10745.40
458.01	10693.91
458.19	10934.98
458.38	10640.08
458.56	10874.13
458.74	10930.30
458.93	10843.70
459.11	10930.30
459.29	10855.40
459.48	10897.53
459.66	10977.11
459.84	10986.47
460.03	11021.58
460.21	11052.01
460.39	10988.82
460.57	11124.57
460.76	11311.81
460.94	11098.82
461.12	11325.85
461.31	11524.80
461.49	11267.34
461.67	11417.13
461.85	11569.27
462.04	11382.03
462.22	11616.08
462.40	11901.62
462.59	11808.00
462.77	11672.25
462.95	11939.07
463.13	11686.29
463.32	11817.36
463.50	11627.78
463.68	11913.33
463.86	12067.80
464.05	11915.67
464.23	11875.88
464.41	12049.08
464.59	11880.56
464.78	12030.35
464.96	12233.98
465.14	12046.74
465.32	12372.07
465.50	12219.94
465.69	12257.39
465.87	12201.21
466.05	12273.77
466.23	12135.68
466.41	12355.69
466.60	12833.16
466.78	12369.73
466.96	12306.54
467.14	12463.35
467.32	12676.34
467.51	12767.62
467.69	12243.34
467.87	12571.02
468.05	12774.64
468.23	12496.12
468.41	12439.95
468.60	12702.09
468.78	12723.15
468.96	13025.08
469.14	12978.27
469.32	13238.07
469.50	12847.20
469.69	13025.08
469.87	13334.03
470.05	13439.36
470.23	13273.18
470.41	13312.97
470.59	13439.36
470.77	13486.17
470.95	13722.56
471.14	13666.39
471.32	13418.29
471.50	13540.00
471.68	13682.77
471.86	13832.57
472.04	13839.59
472.22	14225.78
472.40	13832.57
472.58	13977.68
472.77	14384.93
472.95	14487.92
473.13	14750.06
473.31	14043.21
473.49	14197.69
473.67	14417.70
473.85	14733.67
474.03	14773.46
474.21	14532.39
474.39	14839.00
474.57	15049.64
474.75	15051.99
474.93	14829.63
475.12	15147.95
475.30	15468.60
475.48	15173.69
475.66	15520.09
475.84	15138.58
476.02	15623.08
476.20	15683.93
476.38	15637.12
476.56	16074.80
476.74	16318.22
476.92	16250.34
477.10	16140.33
477.28	16500.78
477.46	16320.56
477.64	16475.03
477.82	16482.05
478.00	17095.27
478.18	17003.99
478.36	17158.47
478.54	17240.39
478.72	17586.79
478.90	17514.23
479.08	17706.15
479.26	17755.30
479.44	17972.97
479.62	18024.47
479.80	18340.44
479.98	18352.14
480.16	19199.41
480.34	18668.11
480.52	18951.32
480.70	19035.58
480.88	18504.28
481.06	18806.20
481.24	19035.58
481.41	19524.75
481.59	19606.67
481.77	19737.74
481.95	20156.69
482.13	19906.26
482.31	19789.23
482.49	20669.27
482.67	20322.87
482.85	20414.15
483.03	21151.42
483.21	21088.23
483.39	21109.29
483.57	21123.33
483.74	21500.16
483.92	21884.01
484.10	21369.09
484.28	22232.75
484.46	22515.95
484.64	22494.89
484.82	21708.47
485.00	22256.15
485.18	23065.98
485.35	23576.22
485.53	22874.06
485.71	23194.71
485.89	23751.76
486.07	23545.79
486.25	23585.58
486.43	24067.73
486.61	24252.63
486.78	24170.71
486.96	24758.19
487.14	24835.42
487.32	24606.05
487.50	24959.47
487.68	25083.52
487.85	25909.73
488.03	25891.01
488.21	25975.27
488.39	26118.04
488.57	26408.26
488.75	26422.31
488.92	26827.22
489.10	27236.81
489.28	27037.87
489.46	27496.61
489.64	27470.87
489.81	27873.44
489.99	27936.63
490.17	28601.35
490.35	28493.68
490.53	28500.70
490.70	28439.85
490.88	28638.80
491.06	29411.17
491.24	29067.11
491.41	29359.68
491.59	29902.68
491.77	29572.67
491.95	29865.24
492.13	30195.25
492.30	30408.24
492.48	30277.17
492.66	30321.64
492.84	30249.08
493.01	31185.30
493.19	31124.44
493.37	31421.69
493.54	31220.41
493.72	31915.54
493.90	31728.30
494.08	31957.67
494.25	32137.90
494.43	32458.55
494.61	32613.02
494.79	32985.17
494.96	32657.49
495.14	33160.71
495.32	33603.07
495.49	33790.31
495.67	33900.32
495.85	34188.21
496.02	34015.01
496.20	34370.77
496.38	34534.60
496.55	34515.88
496.73	35185.27
496.91	34998.03
497.09	35096.33
497.26	35489.54
497.44	35407.62
497.62	35667.42
497.79	36135.53
497.97	35761.05
498.14	36507.68
498.32	36629.38
498.50	36788.54
498.67	37207.50
498.85	37090.47
499.03	36931.31
499.20	36947.70
499.38	37425.17
499.56	37673.26
499.73	37586.66
499.91	37855.82
500.08	37804.33
500.26	37890.93
500.44	37621.77
500.61	38447.98
500.79	38110.94
500.97	38242.01
501.14	38684.37
501.32	39239.08
501.49	39421.64
501.67	39000.35
501.84	39351.43
502.02	39325.68
502.20	39349.09
502.37	39669.74
502.55	39480.16
502.72	39873.37
502.90	40161.25
503.07	39573.78
503.25	40692.55
503.43	40025.50
503.60	40727.66
503.78	40678.51
503.95	40872.78
504.13	40692.55
504.30	41104.49
504.48	41226.20
504.65	41310.46
504.83	41235.56
505.01	41687.28
505.18	41750.48
505.36	42225.60
505.53	42003.25
505.71	42075.81
505.88	41848.78
506.06	42012.62
506.23	42178.79
506.41	42408.17
506.58	42445.62
506.76	42618.81
506.93	42955.85
507.11	42656.26
507.28	43005.00
507.46	42981.60
507.63	43339.70
507.81	43842.92
507.98	43576.09
508.16	43725.89
508.33	43976.33
508.50	44128.46
508.68	44257.19
508.85	44327.41
509.03	44406.98
509.20	44383.58
509.38	45008.50
509.55	44650.40
509.73	44722.96
509.90	45078.72
510.08	44687.85
510.25	45294.05
510.42	45605.34
510.60	45574.91
510.77	45710.66
510.95	45780.88
511.12	45429.80
511.30	45603.00
511.47	45940.04
511.64	46073.45
511.82	46422.19
511.99	45933.01
512.17	46124.94
512.34	46253.67
512.51	46396.44
512.69	46623.47
512.86	46567.30
513.04	47140.73
513.21	47381.80
513.38	46916.04
513.56	47459.04
513.73	47374.78
513.90	47653.31
514.08	47278.82
514.25	48041.84
514.43	47983.32
514.60	47728.20
514.77	47913.11
514.95	48107.37
515.12	48219.72
515.29	47828.85
515.47	48346.11
515.64	48893.79
515.81	48158.86
515.99	48610.59
516.16	48676.12
516.33	48776.76
516.51	49614.68
516.68	49099.76
516.85	48617.61
517.03	49785.54
517.20	49347.86
517.37	49387.64
517.54	49366.58
517.72	49064.65
517.89	49359.56
518.06	49659.15
518.24	49546.80
518.41	49832.35
518.58	50024.27
518.75	49476.58
518.93	50035.97
519.10	50096.83
519.27	50248.96
519.45	49961.08
519.62	50356.63
519.79	50272.37
519.96	50300.45
520.14	50614.08
520.31	50567.27
520.48	50777.92
520.65	50820.05
520.83	50806.01
521.00	50951.12
521.17	51330.29
521.34	50941.76
521.52	51283.48
521.69	51276.46
521.86	51718.82
522.03	51442.63
522.20	51929.47
522.38	51777.33
522.55	51592.43
522.72	51833.50
522.89	51620.52
523.07	51941.17
523.24	51980.96
523.41	52236.08
523.58	51774.99
523.75	52191.61
523.92	52240.76
524.10	52456.09
524.27	52257.14
524.44	52308.63
524.61	52446.72
524.78	52715.89
524.96	52467.79
525.13	52767.38
525.30	52877.38
525.47	52910.15
525.64	52823.55
525.81	53048.24
525.98	52961.64
526.16	52989.73
526.33	53111.44
526.50	53385.28
526.67	52980.37
526.84	53420.39
527.01	53263.57
527.18	53478.90
527.36	53226.12
527.53	53193.36
527.70	53593.59
527.87	53806.58
528.04	53542.10
528.21	54021.90
528.38	53888.49
528.55	53565.50
528.72	53839.34
528.89	54007.86
529.07	53649.76
529.24	53790.19
529.41	54080.42
529.58	54174.04
529.75	54003.18
529.92	54092.12
530.09	54237.23
530.26	54365.96
530.43	54363.62
530.60	53961.05
530.77	53972.75
530.94	54302.77
531.11	54199.79
531.28	54410.43
531.46	54408.09
531.63	54712.36
531.80	54686.62
531.97	54618.74
532.14	54813.01
532.31	54873.86
532.48	54974.50
532.65	55145.36
532.82	54862.16
532.99	54876.20
533.16	55023.65
533.33	55229.62
533.50	55128.98
533.67	55070.46
533.84	55105.57
534.01	55238.98
534.18	55283.45
534.35	55660.28
534.52	55540.91
534.69	55728.16
534.86	55489.42
535.03	55334.95
535.20	55379.42
535.37	55664.96
535.54	55505.80
535.71	55381.76
535.88	55927.10
536.05	55648.58
536.22	55880.29
536.38	55971.57
536.55	55683.69
536.72	55732.84
536.89	56130.73
537.06	56142.43
537.23	56229.03
537.40	55873.27
537.57	55987.95
537.74	56130.73
537.91	56320.31
538.08	56236.05
538.25	56053.49
538.42	56313.29
538.59	56226.69
538.75	56259.46
538.92	56519.26
539.09	56652.67
539.26	56453.72
539.43	56371.80
539.60	56425.64
539.77	56458.40
539.94	56970.98
540.11	56500.53
540.28	56797.78
540.44	56596.49
540.61	56907.79
540.78	56582.45
540.95	56774.37
541.12	56706.50
541.29	56846.93
541.46	57092.69
541.62	56788.42
541.79	56884.38
541.96	56598.83
542.13	56802.46
542.30	57017.79
542.47	57106.73
542.63	57034.17
542.80	57174.61
542.97	57382.91
543.14	57476.54
543.31	57518.67
543.48	57528.03
543.64	57647.39
543.81	57822.93
543.98	57598.24
544.15	57703.57
544.32	57839.32
544.48	57722.29
544.65	57712.93
544.82	57731.65
544.99	57439.09
545.16	57818.25
545.32	57996.13
545.49	57865.06
545.66	58197.42
545.83	57956.35
546.00	57930.60
546.16	57965.71
546.33	57806.55
546.50	57736.34
546.67	57935.28
546.83	57537.39
547.00	58124.86
547.17	58080.39
547.34	58071.03
547.50	58354.24
547.67	58328.49
547.84	58106.14
548.00	58478.28
548.17	58607.01
548.34	58534.46
548.51	58471.26
548.67	58520.41
548.84	58274.66
549.01	58527.44
549.18	58609.35
549.34	58375.30
549.51	58450.20
549.68	58674.89
549.84	58489.99
550.01	58625.74
550.18	58567.23
550.34	58691.27
550.51	58808.30
550.68	58752.13
550.84	58492.33
551.01	58976.82
551.18	58890.22
551.34	58859.79
551.51	58951.07
551.68	59054.06
551.84	58733.40
552.01	58969.80
552.18	59077.46
552.34	59089.16
552.51	59091.51
552.68	58834.05
552.84	58894.90
553.01	59203.85
553.18	59143.00
553.34	59138.32
553.51	58920.65
553.67	59208.53
553.84	59196.83
554.01	59199.17
554.17	59051.72
554.34	59203.85
554.51	59215.55
554.67	59283.43
554.84	59561.95
555.00	59498.76
555.17	59269.39
555.33	59295.13
555.50	59044.69
555.67	59456.63
555.83	59517.48
556.00	59384.07
556.16	59847.50
556.33	59477.69
556.50	59585.36
556.66	59678.98
556.83	59187.47
556.99	59653.23
557.16	59760.90
557.32	59716.43
557.49	59739.83
557.65	59568.97
557.82	59664.94
557.98	59686.00
558.15	59716.43
558.32	59803.03
558.48	59583.02
558.65	59756.22
558.81	59636.85
558.98	59779.62
559.14	59894.31
559.31	59891.97
559.47	59859.20
559.64	60069.85
559.80	60044.10
559.97	60079.21
560.13	59887.29
560.30	59898.99
560.46	59931.76
560.63	60100.28
560.79	60261.77
560.96	60331.99
561.12	60273.48
561.29	60116.66
561.45	60170.49
561.61	60083.89
561.78	60273.48
561.94	60229.01
562.11	60322.63
562.27	60285.18
562.44	60411.57
562.60	60271.14
562.77	60172.83
562.93	60048.78
563.10	60397.52
563.26	60020.70
563.42	60563.70
563.59	60252.41
563.75	60264.11
563.92	60123.68
564.08	60282.84
564.24	60441.99
564.41	60411.57
564.57	60411.57
564.74	60367.10
564.90	60383.48
565.07	60357.74
565.23	60350.71
565.39	60631.58
565.56	60390.50
565.72	60341.35
565.88	60481.78
566.05	60416.25
566.21	60434.97
566.38	60444.33
566.54	60697.11
566.70	60697.11
566.87	60598.81
567.03	60334.33
567.19	60683.07
567.36	60720.52
567.52	60420.93
567.68	60757.97
567.85	60654.98
568.01	60577.75
568.17	60479.44
568.34	60795.42
568.50	60650.30
568.66	60474.76
568.83	60816.48
568.99	60596.47
569.15	60664.35
569.32	60690.09
569.48	60575.40
569.64	60687.75
569.81	60807.12
569.97	60406.89
570.13	60687.75
570.30	60617.53
570.46	60842.23
570.62	60708.82
570.78	60832.86
570.95	60748.60
571.11	60769.67
571.27	60666.69
571.43	60715.84
571.60	61080.96
571.76	60849.25
571.92	60980.32
572.09	60825.84
572.25	61050.53
572.41	60811.80
572.57	60959.25
572.74	61116.07
572.90	60795.42
573.06	60980.32
573.22	60975.64
573.38	61165.22
573.55	60734.56
573.71	61069.26
573.87	60989.68
574.03	61045.85
574.20	61090.32
574.36	60839.89
574.52	60940.53
574.68	60931.17
574.84	61183.94
575.01	60987.34
575.17	60849.25
575.33	60963.93
575.49	60947.55
575.65	60963.93
575.82	60877.33
575.98	61055.21
576.14	61333.74
576.30	61043.51
576.46	60935.85
576.62	60977.98
576.79	60863.29
576.95	60692.43
577.11	61003.72
577.27	61151.18
577.43	60994.36
577.59	60982.66
577.75	60935.85
577.92	60736.90
578.08	61078.62
578.24	61144.16
578.40	60966.27
578.56	61207.35
578.72	61083.30
578.88	61118.41
579.04	61340.76
579.21	61270.54
579.37	61240.12
579.53	61410.98
579.69	60938.19
579.85	61057.56
580.01	61111.39
580.17	60985.00
580.33	61066.92
580.49	61343.10
580.65	61162.88
580.82	61062.24
580.98	61083.30
581.14	60846.91
581.30	61155.86
581.46	61249.48
581.62	61202.67
581.78	61183.94
581.94	61333.74
582.10	61080.96
582.26	61059.90
582.42	61228.41
582.58	61268.20
582.74	61155.86
582.90	61095.00
583.06	61165.22
583.22	61062.24
583.38	61265.86
583.54	61343.10
583.70	61240.12
583.86	61160.54
584.02	61073.94
584.18	61518.64
584.34	61251.82
584.50	61326.72
584.66	60877.33
584.82	60898.40
584.98	61350.12
585.14	61319.70
585.30	61179.26
585.46	61336.08
585.62	61139.47
585.78	61361.82
585.94	61205.01
586.10	61319.70
586.26	61214.37
586.42	61396.93
586.58	61282.25
586.74	61233.10
586.90	61127.77
587.06	61279.91
587.22	61310.33
587.38	61120.75
587.54	61469.49
587.70	61523.32
587.86	61312.67
588.02	61380.55
588.18	61481.19
588.34	61268.20
