SpectraSuite Data File
++++++++++++++++++++++++++++++++++++
Date: Fri Oct 25 10:47:40 EDT 2013
User: price-jones
Dark Spectrum Present: No
Reference Spectrum Present: No
Number of Sampled Component Spectra: 1
Spectrometers: USB2+H05261
Integration Time (usec): 100000 (USB2+H05261)
Spectra Averaged: 1 (USB2+H05261)
Boxcar Smoothing: 0 (USB2+H05261)
Correct for Electrical Dark: No (USB2+H05261)
Strobe/Lamp Enabled: No (USB2+H05261)
Correct for Detector Non-linearity: No (USB2+H05261)
Correct for Stray Light: No (USB2+H05261)
Number of Pixels in Processed Spectrum: 2048
>>>>>Begin Processed Spectral Data<<<<<
365.73	88.94
365.92	88.94
366.12	88.94
366.32	37.45
366.52	79.58
366.72	121.71
366.91	74.90
367.11	49.15
367.31	16.38
367.51	0.00
367.70	21.06
367.90	44.47
368.10	51.49
368.30	21.06
368.49	11.70
368.69	51.49
368.89	28.09
369.09	58.51
369.28	142.77
369.48	84.26
369.68	133.41
369.87	110.01
370.07	42.13
370.27	140.43
370.47	215.33
370.66	369.80
370.86	374.49
371.06	400.23
371.25	475.13
371.45	456.40
371.65	477.47
371.84	376.83
372.04	517.26
372.24	416.62
372.44	435.34
372.63	482.15
372.83	447.04
373.03	491.51
373.22	493.85
373.42	547.69
373.62	486.83
373.81	500.87
374.01	589.82
374.21	645.99
374.40	568.75
374.60	521.94
374.79	575.77
374.99	615.56
375.19	526.62
375.38	517.26
375.58	592.16
375.78	585.13
375.97	620.24
376.17	669.39
376.37	528.96
376.56	564.07
376.76	592.16
376.95	571.09
377.15	608.54
377.35	716.20
377.54	725.57
377.74	692.80
377.93	575.77
378.13	610.88
378.33	608.54
378.52	631.94
378.72	725.57
378.91	601.52
379.11	683.44
379.31	631.94
379.50	624.92
379.70	744.29
379.89	620.24
380.09	622.58
380.28	667.05
380.48	650.67
380.68	671.73
380.87	657.69
381.07	655.35
381.26	655.35
381.46	648.33
381.65	671.73
381.85	690.46
382.04	669.39
382.24	716.20
382.43	669.39
382.63	723.23
382.83	643.65
383.02	746.63
383.22	765.36
383.41	608.54
383.61	664.71
383.80	734.93
384.00	753.65
384.19	781.74
384.39	765.36
384.58	753.65
384.78	758.33
384.97	800.46
385.17	758.33
385.36	760.67
385.56	802.80
385.75	826.21
385.95	816.85
386.14	816.85
386.34	746.63
386.53	812.17
386.72	737.27
386.92	795.78
387.11	842.59
387.31	880.04
387.50	777.06
387.70	781.74
387.89	795.78
388.09	793.44
388.28	826.21
388.48	837.91
388.67	814.51
388.86	898.77
389.06	877.70
389.25	936.21
389.45	917.49
389.64	851.96
389.84	910.47
390.03	973.66
390.22	856.64
390.42	823.87
390.61	884.72
390.81	866.00
391.00	1022.81
391.19	954.94
391.39	849.61
391.58	1020.47
391.78	992.39
391.97	959.62
392.16	1032.18
392.36	1029.84
392.55	915.15
392.75	1029.84
392.94	978.34
393.13	1025.15
393.33	980.68
393.52	973.66
393.71	1027.50
393.91	917.49
394.10	1088.35
394.29	1032.18
394.49	1027.50
394.68	1104.73
394.88	1114.10
395.07	1210.06
395.26	1128.14
395.46	1186.65
395.65	1090.69
395.84	1153.88
396.04	1153.88
396.23	1217.08
396.42	1172.61
396.62	1142.18
396.81	1132.82
397.00	1146.86
397.19	1191.33
397.39	1273.25
397.58	1282.61
397.77	1231.12
397.97	1310.70
398.16	1296.66
398.35	1217.08
398.55	1240.48
398.74	1231.12
398.93	1317.72
399.12	1338.79
399.32	1343.47
399.51	1383.26
399.70	1357.51
399.90	1310.70
400.09	1373.89
400.28	1479.22
400.47	1425.39
400.67	1427.73
400.86	1497.94
401.05	1526.03
401.24	1509.65
401.44	1572.84
401.63	1584.54
401.82	1565.82
402.01	1537.73
402.21	1722.63
402.40	1640.72
402.59	1502.62
402.78	1540.07
402.97	1568.16
403.17	1530.71
403.36	1703.91
403.55	1547.09
403.74	1657.10
403.93	1689.87
404.13	1680.50
404.32	1750.72
404.51	1664.12
404.70	1734.34
404.89	1692.21
405.09	1778.81
405.28	1778.81
405.47	1724.97
405.66	1774.13
405.85	1781.15
406.05	1750.72
406.24	1788.17
406.43	1703.91
406.62	1799.87
406.81	1851.36
407.00	1863.07
407.20	1846.68
407.39	1893.49
407.58	1893.49
407.77	1886.47
407.96	1909.88
408.15	1930.94
408.34	2024.56
408.54	2127.55
408.73	2005.84
408.92	1977.75
409.11	2045.63
409.30	2186.06
409.49	2064.35
409.68	2129.89
409.87	2097.12
410.07	2125.21
410.26	2104.14
410.45	2134.57
410.64	2153.29
410.83	2200.10
411.02	2211.81
411.21	2225.85
411.40	2272.66
411.59	2331.17
411.78	2246.91
411.98	2438.84
412.17	2345.22
412.36	2300.75
412.55	2366.28
412.74	2429.48
412.93	2555.86
413.12	2401.39
413.31	2579.27
413.50	2560.55
413.69	2647.15
413.88	2656.51
414.07	2576.93
414.26	2686.94
414.45	2649.49
414.64	2722.04
414.83	2820.35
415.02	2698.64
415.22	2768.85
415.41	2792.26
415.60	2792.26
415.79	2796.94
415.98	2979.50
416.17	2942.05
416.36	2869.50
416.55	3002.91
416.74	2944.39
416.93	2942.05
417.12	2986.52
417.31	3038.02
417.50	3023.97
417.69	3012.27
417.88	3143.34
418.07	3084.83
418.26	3084.83
418.45	3105.89
418.64	3215.90
418.83	3267.39
419.02	3117.59
419.21	3208.87
419.39	3220.58
419.58	3267.39
419.77	3267.39
419.96	3403.14
420.15	3417.18
420.34	3293.13
420.53	3375.05
420.72	3442.93
420.91	3330.58
421.10	3335.26
421.29	3449.95
421.48	3384.41
421.67	3517.83
421.86	3508.46
422.05	3501.44
422.24	3375.05
422.43	3365.69
422.61	3543.57
422.80	3592.72
422.99	3538.89
423.18	3595.06
423.37	3672.30
423.56	3545.91
423.75	3496.76
423.94	3545.91
424.13	3274.41
424.32	3456.97
424.50	3609.11
424.69	3672.30
424.88	3777.62
425.07	3597.40
425.26	3466.33
425.45	3471.01
425.64	3501.44
425.83	3588.04
426.01	3534.21
426.20	3634.85
426.39	3686.34
426.58	3595.06
426.77	3552.93
426.96	3749.54
427.15	3639.53
427.33	3716.77
427.52	3676.98
427.71	3744.86
427.90	3803.37
428.09	3782.31
428.28	3836.14
428.46	3758.90
428.65	3772.94
428.84	3918.06
429.03	3936.78
429.22	3707.41
429.40	3815.07
429.59	3833.80
429.78	3616.13
429.97	3557.61
430.16	3868.91
430.34	3723.79
430.53	3939.12
430.72	3967.21
430.91	3939.12
431.10	4163.81
431.28	4088.92
431.47	4112.32
431.66	4280.84
431.85	4060.83
432.03	4245.73
432.22	4121.68
432.41	4210.62
432.60	4177.86
432.79	4224.67
432.97	4348.72
433.16	4355.74
433.35	4081.89
433.54	4273.82
433.72	4332.33
433.91	4241.05
434.10	4383.82
434.28	4337.01
434.47	4505.53
434.66	4306.59
434.85	4400.21
435.03	4524.26
435.22	4430.63
435.41	4589.79
435.59	4613.20
435.78	4571.07
435.97	4638.94
436.16	4615.54
436.34	4594.47
436.53	4641.28
436.72	4683.41
436.90	4650.64
437.09	4699.80
437.28	4636.60
437.46	4802.78
437.65	4865.97
437.84	4823.84
438.02	4830.87
438.21	4910.44
438.40	4575.75
438.58	4786.40
438.77	4926.83
438.96	4980.66
439.14	4966.62
439.33	5188.97
439.52	5280.25
439.70	5149.18
439.89	5184.29
440.08	5308.34
440.26	5128.11
440.45	5266.21
440.63	5275.57
440.82	5373.87
441.01	5296.63
441.19	5554.09
441.38	5516.64
441.57	5708.57
441.75	5533.03
441.94	5551.75
442.12	5717.93
442.31	5731.97
442.50	5696.86
442.68	5678.14
442.87	5743.67
443.05	5692.18
443.24	5771.76
443.43	5919.21
443.61	6005.81
443.80	5846.66
443.98	5783.46
444.17	5554.09
444.35	5813.89
444.54	6108.80
444.73	5827.93
444.91	6061.99
445.10	5832.62
445.28	5788.14
445.47	5923.90
445.65	5886.45
445.84	5921.56
446.02	6050.28
446.21	5846.66
446.39	5940.28
446.58	6012.84
446.77	6094.76
446.95	6003.47
447.14	5863.04
447.32	5935.60
447.51	6050.28
447.69	5996.45
447.88	6190.72
448.06	6139.23
448.25	5996.45
448.43	6148.59
448.62	6153.27
448.80	5902.83
448.99	6153.27
449.17	6099.44
449.36	6181.35
449.54	6256.25
449.73	6279.66
449.91	6417.75
450.10	6331.15
450.28	6422.43
450.46	6406.05
450.65	6576.91
450.83	6370.94
451.02	6417.75
451.20	6588.61
451.39	6462.22
451.57	6745.42
451.76	6487.96
451.94	6616.69
452.13	6516.05
452.31	6525.41
452.49	6384.98
452.68	6532.44
452.86	6457.54
453.05	6703.29
453.23	6621.38
453.42	6691.59
453.60	6752.45
453.78	6736.06
453.97	6857.77
454.15	6595.63
454.34	6691.59
454.52	6761.81
454.70	6946.71
454.89	6991.18
455.07	6867.13
455.26	6911.60
455.44	7045.01
455.62	7066.08
455.81	7075.44
455.99	7197.15
456.17	6932.67
456.36	7192.47
456.54	7192.47
456.73	7428.86
456.91	7431.20
457.09	7307.15
457.28	7424.18
457.46	7311.83
457.64	7473.33
457.83	7438.22
458.01	7269.70
458.19	7384.39
458.38	7344.60
458.56	7545.89
458.74	7442.90
458.93	7606.74
459.11	7496.74
459.29	7461.63
459.48	7634.83
459.66	7618.44
459.84	7536.52
460.03	7765.90
460.21	7714.41
460.39	7751.85
460.57	7761.22
460.76	7683.98
460.94	7765.90
461.12	7798.66
461.31	7838.45
461.49	7950.80
461.67	7779.94
461.85	7854.84
462.04	7803.35
462.22	8503.17
462.40	7967.18
462.59	7918.03
462.77	7964.84
462.95	8262.09
463.13	8203.58
463.32	7981.23
463.50	8163.79
463.68	8266.77
463.86	8311.24
464.05	8166.13
464.23	8175.49
464.41	8442.31
464.59	8128.68
464.78	8224.64
464.96	8353.37
465.14	8292.52
465.32	8456.36
465.50	8540.61
465.69	8599.13
465.87	8528.91
466.05	8542.96
466.23	8154.43
466.41	8425.93
466.60	8716.16
466.78	8540.61
466.96	8575.72
467.14	8578.06
467.32	8765.31
467.51	8444.65
467.69	8376.78
467.87	8631.90
468.05	8634.24
468.23	8606.15
468.41	8528.91
468.60	8554.66
468.78	8758.28
468.96	8854.25
469.14	8945.53
469.32	8961.91
469.50	8585.08
469.69	8882.33
469.87	9062.55
470.05	9174.90
470.23	9121.07
470.41	9221.71
470.59	9172.56
470.77	8908.08
470.95	9259.16
471.14	9504.92
471.32	8987.66
471.50	9317.67
471.68	9310.65
471.86	9334.06
472.04	9591.52
472.22	9755.35
472.40	9259.16
472.58	9675.77
472.77	9614.92
472.95	9937.91
473.13	9973.02
473.31	9706.20
473.49	9710.88
473.67	9612.58
473.85	9881.74
474.03	9991.75
474.21	10003.45
474.39	10141.54
474.57	9980.04
474.75	10155.58
474.93	10333.47
475.12	10143.88
475.30	10567.52
475.48	10071.33
475.66	10354.53
475.84	10178.99
476.02	10593.26
476.20	10401.34
476.38	10799.23
476.56	11007.54
476.74	10764.12
476.92	10698.59
477.10	10878.81
477.28	11103.50
477.46	11044.99
477.64	11122.23
477.82	11424.15
478.00	11716.72
478.18	11482.67
478.36	11449.90
478.54	11658.21
478.72	11641.82
478.90	11861.84
479.08	11882.90
479.26	12236.32
479.44	12100.57
479.62	12245.68
479.80	12287.81
479.98	12208.23
480.16	12624.85
480.34	12493.78
480.52	12498.46
480.70	12453.99
480.88	12627.19
481.06	12620.17
481.24	12784.01
481.41	12861.24
481.59	13085.94
481.77	13144.45
481.95	13224.03
482.13	13523.62
482.31	13312.97
482.49	13612.56
482.67	13715.54
482.85	13977.68
483.03	14026.83
483.21	14232.80
483.39	14202.37
483.57	14265.57
483.74	14389.61
483.92	14146.20
484.10	14153.22
484.28	14801.55
484.46	14904.53
484.64	15068.37
484.82	14920.92
485.00	15082.41
485.18	15229.87
485.35	15129.22
485.53	15379.66
485.71	15199.44
485.89	15583.29
486.07	15484.98
486.25	15777.55
486.43	15506.05
486.61	16051.39
486.78	15953.09
486.96	15957.77
487.14	16215.23
487.32	16491.41
487.50	16346.30
487.68	16636.53
487.85	17275.49
488.03	17050.80
488.21	17289.54
488.39	17350.39
488.57	17298.90
488.75	17481.46
488.92	17715.51
489.10	17621.89
489.28	18005.74
489.46	18258.52
489.64	17958.93
489.81	18576.83
489.99	18616.62
490.17	18576.83
490.35	18824.93
490.53	18824.93
490.70	18827.27
490.88	18862.38
491.06	19316.44
491.24	19215.80
491.41	19080.05
491.59	19304.74
491.77	19262.61
491.95	19627.73
492.13	19875.83
492.30	20079.46
492.48	19957.75
492.66	20044.35
492.84	20102.86
493.01	20353.30
493.19	20484.37
493.37	20709.06
493.54	20741.83
493.72	20753.53
493.90	20833.11
494.08	21041.42
494.25	21322.28
494.43	21406.54
494.61	21575.06
494.79	21757.62
494.96	21774.00
495.14	21432.29
495.32	22104.02
495.49	22008.06
495.67	22174.24
495.85	22082.95
496.02	22604.89
496.20	22319.35
496.38	22616.60
496.55	22354.46
496.73	23295.35
496.91	22871.72
497.09	22981.72
497.26	23342.16
497.44	23175.98
497.62	23243.86
497.79	23522.38
497.97	23391.31
498.14	23777.50
498.32	24135.60
498.50	23859.42
498.67	24470.30
498.85	24243.27
499.03	24556.90
499.20	24486.68
499.38	24306.46
499.56	24950.11
499.73	24474.98
499.91	24430.51
500.08	24657.54
500.26	24678.61
500.44	24678.61
500.61	24861.17
500.79	24886.92
500.97	24973.52
501.14	25418.22
501.32	25394.81
501.49	25212.25
501.67	25158.42
501.84	25860.58
502.02	25235.66
502.20	25680.36
502.37	25832.49
502.55	25968.24
502.72	26111.02
502.90	26118.04
503.07	26132.08
503.25	25972.92
503.43	25717.81
503.60	26419.97
503.78	26328.69
503.95	26703.17
504.13	26558.06
504.30	26859.99
504.48	26822.54
504.65	27402.99
504.83	27218.09
505.01	27335.12
505.18	27215.75
505.36	27414.69
505.53	27290.65
505.71	27709.60
505.88	27564.49
506.06	27623.00
506.23	27562.15
506.41	27358.52
506.58	28004.51
506.76	28027.92
506.93	27807.90
507.11	28079.41
507.28	27908.55
507.46	28133.24
507.63	28025.57
507.81	28421.13
507.98	28339.21
508.16	28439.85
508.33	28624.75
508.50	28849.44
508.68	29046.05
508.85	29106.90
509.03	29345.64
509.20	28975.83
509.38	29340.96
509.55	29378.40
509.73	29067.11
509.90	29317.55
510.08	29123.29
510.25	29816.08
510.42	29546.92
510.60	29949.50
510.77	29486.07
510.95	29923.75
511.12	30019.71
511.30	30071.20
511.47	30377.81
511.64	29986.94
511.82	30452.71
511.99	30279.51
512.17	30541.65
512.34	30349.73
512.51	30473.78
512.69	30707.83
512.86	30646.97
513.04	31377.22
513.21	30466.75
513.38	30817.83
513.56	30827.20
513.73	30984.01
513.90	31218.07
514.08	31211.04
514.25	31185.30
514.43	31218.07
514.60	31337.43
514.77	31227.43
514.95	31482.55
515.12	31665.11
515.29	31466.16
515.47	32149.60
515.64	31978.74
515.81	31756.39
515.99	31569.15
516.16	31555.10
516.33	31534.04
516.51	32079.38
516.68	31751.71
516.85	31704.90
517.03	31913.20
517.20	31831.29
517.37	32444.51
517.54	32404.72
517.72	32629.41
517.89	32306.41
518.06	32390.67
518.24	32091.09
518.41	32402.38
518.58	32627.07
518.75	32606.00
518.93	33092.83
519.10	33036.66
519.27	33144.33
519.45	32818.99
519.62	33010.92
519.79	33329.23
519.96	32975.81
520.14	33652.22
520.31	33310.50
520.48	33806.70
520.65	33347.95
520.83	34054.79
521.00	34319.28
521.17	33558.60
521.34	33984.58
521.52	34354.38
521.69	33593.71
521.86	34052.45
522.03	34141.39
522.20	34668.02
522.38	34492.47
522.55	34483.11
522.72	34204.59
522.89	34511.20
523.07	34359.06
523.24	34572.05
523.41	34972.28
523.58	34579.07
523.75	35227.40
523.92	34951.22
524.10	35145.48
524.27	35306.98
524.44	35569.12
524.61	35143.14
524.78	35159.53
524.96	35679.13
525.13	35868.71
525.30	35840.62
525.47	35789.13
525.64	35529.33
525.81	35454.44
525.98	35838.28
526.16	35482.52
526.33	35592.53
526.50	36299.37
526.67	35768.07
526.84	35480.18
527.01	35452.09
527.18	35730.62
527.36	35948.29
527.53	35840.62
527.70	36580.23
527.87	36540.44
528.04	36421.08
528.21	36275.96
528.38	35655.72
528.55	36671.51
528.72	36605.98
528.89	36725.35
529.07	36575.55
529.24	36748.75
529.41	36638.75
529.58	36517.04
529.75	36875.14
529.92	36971.10
530.09	36992.17
530.26	36886.84
530.43	37090.47
530.60	36847.05
530.77	37277.71
530.94	37230.90
531.11	37031.96
531.28	37287.07
531.46	37429.85
531.63	37558.58
531.80	37495.38
531.97	37296.44
532.14	37668.58
532.31	37429.85
532.48	38071.15
532.65	37696.67
532.82	38043.07
532.99	37876.89
533.16	37560.92
533.33	37666.24
533.50	37914.34
533.67	37944.76
533.84	37706.03
534.01	38169.46
534.18	37785.61
534.35	38508.83
534.52	37984.55
534.69	38494.79
534.86	38433.94
535.03	39098.65
535.20	38712.46
535.37	38789.70
535.54	38972.26
535.71	38689.06
535.88	38525.22
536.05	38803.74
536.22	38632.88
536.38	39014.39
536.55	39173.55
536.72	38810.76
536.89	39164.18
537.06	38522.88
537.23	39075.24
537.40	39187.59
537.57	39035.45
537.74	39227.38
537.91	39538.67
538.08	38990.98
538.25	38937.15
538.42	39150.14
538.59	39431.01
538.75	39033.11
538.92	39372.49
539.09	39484.84
539.26	39393.56
539.43	39576.12
539.60	39856.98
539.77	39721.23
539.94	39505.90
540.11	39297.59
540.28	39789.11
540.44	39321.00
540.61	39318.66
540.78	39288.23
540.95	39636.97
541.12	39391.22
541.29	39852.30
541.46	39655.70
541.62	39751.66
541.79	40208.06
541.96	39917.84
542.13	39927.20
542.30	39887.41
542.47	40170.61
542.63	39763.36
542.80	40526.38
542.97	40856.39
543.14	40905.54
543.31	40519.35
543.48	40940.65
543.64	41434.50
543.81	40762.77
543.98	40596.59
544.15	40947.67
544.32	41074.06
544.48	41298.75
544.65	40961.72
544.82	41296.41
544.99	40957.03
545.16	41219.17
545.32	41357.27
545.49	41404.08
545.66	41333.86
545.83	41148.96
546.00	41509.40
546.16	41570.25
546.33	41134.92
546.50	41268.33
546.67	41415.78
546.83	41099.81
547.00	41483.66
547.17	41631.11
547.34	41308.11
547.50	41827.71
547.67	41769.20
547.84	41769.20
548.00	41535.15
548.17	41577.28
548.34	41385.35
548.51	41612.38
548.67	42312.20
548.84	41975.17
549.01	41907.29
549.18	41991.55
549.34	42047.72
549.51	42162.41
549.68	42604.77
549.84	42281.78
550.01	42436.25
550.18	41703.67
550.34	42344.97
550.51	42244.33
550.68	42272.42
550.84	41764.52
551.01	42213.90
551.18	42225.60
551.34	42218.58
551.51	42033.68
551.68	42288.80
551.84	42295.82
552.01	42529.87
552.18	42539.24
552.34	42291.14
552.51	42635.20
552.68	42670.31
552.84	42948.83
553.01	42948.83
553.18	42513.49
553.34	42817.76
553.51	42859.89
553.67	43035.43
553.84	42806.06
554.01	42876.27
554.17	43079.90
554.34	43068.20
554.51	43241.40
554.67	42763.93
554.84	42913.72
555.00	43065.86
555.17	42841.17
555.33	42960.53
555.50	43124.37
555.67	43164.16
555.83	43005.00
556.00	42885.64
556.16	43470.77
556.33	43470.77
556.50	42848.19
556.66	43391.19
556.83	43040.11
556.99	43856.96
557.16	43159.48
557.32	43735.25
557.49	43138.41
557.65	43065.86
557.82	43416.94
557.98	43332.68
558.15	43545.67
558.32	43381.83
558.48	43339.70
558.65	43793.76
558.81	43325.66
558.98	43543.33
559.14	43496.52
559.31	43831.21
559.47	43201.61
559.64	43971.64
559.80	43917.81
559.97	43342.04
560.13	43955.26
560.30	43543.33
560.46	43976.33
560.63	43681.42
560.79	43941.22
560.96	44184.63
561.12	43597.16
561.29	43835.89
561.45	43981.01
561.61	44144.84
561.78	43952.92
561.94	44083.99
562.11	43992.71
562.27	43873.34
562.44	43871.00
562.60	44371.88
562.77	44299.32
562.93	44294.64
563.10	43997.39
563.26	43697.80
563.42	44083.99
563.59	43643.97
563.75	44023.14
563.92	44217.40
564.08	44411.67
564.24	44168.25
564.41	44205.70
564.57	44210.38
564.74	44470.18
564.90	44278.25
565.07	44292.30
565.23	44261.87
565.39	44243.15
565.56	44224.42
565.72	44119.10
565.88	44002.07
566.05	44011.43
566.21	44598.91
566.38	44329.75
566.54	44474.86
566.70	44252.51
566.87	44320.38
567.03	44079.31
567.19	44732.32
567.36	44945.31
567.52	44704.23
567.68	44481.88
567.85	44163.57
568.01	44498.26
568.17	44264.21
568.34	44439.75
568.50	44179.95
568.66	44453.79
568.83	44580.18
568.99	44088.67
569.15	44446.77
569.32	44306.34
569.48	44091.01
569.64	44587.21
569.81	44725.30
569.97	44645.72
570.13	44201.02
570.30	44406.98
570.46	44612.95
570.62	43976.33
570.78	43901.43
570.95	44210.38
571.11	44713.59
571.27	44493.58
571.43	44744.02
571.60	45006.16
571.76	44758.06
571.92	44751.04
572.09	44030.16
572.25	44837.64
572.41	44292.30
572.57	44465.50
572.74	45312.77
572.90	44809.56
573.06	44952.33
573.22	44758.06
573.38	44608.27
573.55	44465.50
573.71	44783.81
573.87	44498.26
574.03	44453.79
574.20	44823.60
574.36	44428.05
574.52	44559.12
574.68	45085.74
574.84	44875.09
575.01	44404.64
575.17	44591.89
575.33	44514.65
575.49	44718.28
575.65	45249.58
575.82	44739.34
575.98	44959.35
576.14	45006.16
576.30	44898.50
576.46	44715.93
576.62	44842.32
576.79	44559.12
576.95	44467.84
577.11	44863.39
577.27	45088.08
577.43	44650.40
577.59	44835.30
577.75	44802.53
577.92	44252.51
578.08	44835.30
578.24	44442.09
578.40	44825.94
578.56	45003.82
578.72	44591.89
578.88	44924.24
579.04	45282.34
579.21	44282.94
579.37	44676.15
579.53	44545.08
579.69	44280.60
579.85	44739.34
580.01	44222.08
580.17	44945.31
580.33	45118.51
580.49	45052.97
580.65	44889.13
580.82	44854.03
580.98	44729.98
581.14	44336.77
581.30	45436.82
581.46	44877.43
581.62	44624.65
581.78	44847.00
581.94	45095.10
582.10	44767.43
582.26	45048.29
582.42	45048.29
582.58	44891.48
582.74	44708.91
582.90	44903.18
583.06	44786.15
583.22	44760.40
583.38	45158.30
583.54	44594.23
583.70	44631.68
583.86	45024.89
584.02	44788.49
584.18	44912.54
584.34	44905.52
584.50	45132.55
584.66	44837.64
584.82	45045.95
584.98	45116.17
585.14	45109.14
585.30	45106.80
585.46	44861.05
585.62	44903.18
585.78	45034.25
585.94	44406.98
586.10	44905.52
586.26	44886.79
586.42	44992.12
586.58	45057.65
586.74	44957.01
586.90	44907.86
587.06	44648.06
587.22	44809.56
587.38	44765.09
587.54	45399.37
587.70	45345.54
587.86	45216.81
588.02	45249.58
588.18	45160.64
588.34	45076.38
588.49	44793.17
588.65	44416.35
588.81	44680.83
588.97	44666.78
589.13	44882.11
589.29	45029.57
589.45	45078.72
589.61	44935.95
589.77	45614.70
589.93	45427.46
590.08	45069.36
590.24	45228.51
