SpectraSuite Data File
++++++++++++++++++++++++++++++++++++
Date: Fri Oct 25 11:23:22 EDT 2013
User: price-jones
Dark Spectrum Present: No
Reference Spectrum Present: No
Number of Sampled Component Spectra: 1
Spectrometers: USB2+H05261
Integration Time (usec): 100000 (USB2+H05261)
Spectra Averaged: 1 (USB2+H05261)
Boxcar Smoothing: 0 (USB2+H05261)
Correct for Electrical Dark: No (USB2+H05261)
Strobe/Lamp Enabled: No (USB2+H05261)
Correct for Detector Non-linearity: No (USB2+H05261)
Correct for Stray Light: No (USB2+H05261)
Number of Pixels in Processed Spectrum: 2048
>>>>>Begin Processed Spectral Data<<<<<
365.73	159.16
365.92	159.16
366.12	159.16
366.32	131.07
366.52	53.83
366.72	198.95
366.91	117.03
367.11	145.11
367.31	114.69
367.51	135.75
367.70	67.88
367.90	175.54
368.10	107.66
368.30	126.39
368.49	100.64
368.69	177.88
368.89	124.05
369.09	161.50
369.28	133.41
369.48	105.32
369.68	177.88
369.87	168.52
370.07	194.26
370.27	180.22
370.47	276.18
370.66	528.96
370.86	629.60
371.06	660.03
371.25	645.99
371.45	627.26
371.65	709.18
371.84	690.46
372.04	681.10
372.24	690.46
372.44	657.69
372.63	711.52
372.83	758.33
373.03	704.50
373.22	695.14
373.42	800.46
373.62	681.10
373.81	802.80
374.01	873.02
374.21	812.17
374.40	737.27
374.60	912.81
374.79	763.01
374.99	734.93
375.19	779.40
375.38	758.33
375.58	837.91
375.78	873.02
375.97	730.25
376.17	863.66
376.37	924.51
376.56	844.93
376.76	823.87
376.95	901.11
377.15	891.74
377.35	926.85
377.54	908.13
377.74	894.08
377.93	882.38
378.13	947.92
378.33	961.96
378.52	947.92
378.72	1039.20
378.91	936.21
379.11	931.53
379.31	950.26
379.50	999.41
379.70	961.96
379.89	1090.69
380.09	983.02
380.28	945.58
380.48	954.94
380.68	1074.31
380.87	933.87
381.07	1053.24
381.26	1027.50
381.46	1029.84
381.65	1053.24
381.85	952.60
382.04	1149.20
382.24	1062.60
382.43	1121.12
382.63	1116.44
382.83	978.34
383.02	1125.80
383.22	1081.33
383.41	1074.31
383.61	1125.80
383.80	1151.54
384.00	1041.54
384.19	1163.25
384.39	1137.50
384.58	1102.39
384.78	1231.12
384.97	1287.29
385.17	1011.11
385.36	1088.35
385.56	1090.69
385.75	1144.52
385.95	1207.72
386.14	1158.57
386.34	1193.67
386.53	1240.48
386.72	1214.74
386.92	1153.88
387.11	1352.83
387.31	1226.44
387.50	1151.54
387.70	1219.42
387.89	1249.85
388.09	1289.64
388.28	1207.72
388.48	1287.29
388.67	1327.08
388.86	1387.94
389.06	1294.32
389.25	1451.13
389.45	1385.60
389.64	1352.83
389.84	1359.85
390.03	1385.60
390.22	1380.92
390.42	1341.13
390.61	1306.02
390.81	1434.75
391.00	1378.58
391.19	1448.79
391.39	1483.90
391.58	1409.00
391.78	1476.88
391.97	1497.94
392.16	1500.28
392.36	1488.58
392.55	1533.05
392.75	1519.01
392.94	1554.12
393.13	1593.90
393.33	1577.52
393.52	1638.38
393.71	1584.54
393.91	1586.88
394.10	1500.28
394.29	1537.73
394.49	1462.83
394.68	1692.21
394.88	1526.03
395.07	1741.36
395.26	1680.50
395.46	1678.16
395.65	1717.95
395.84	1671.14
396.04	1734.34
396.23	1788.17
396.42	1715.61
396.62	1764.76
396.81	1837.32
397.00	1790.51
397.19	1792.85
397.39	1816.26
397.58	1858.39
397.77	1771.79
397.97	1916.90
398.16	1769.44
398.35	1900.52
398.55	1781.15
398.74	1879.45
398.93	1912.22
399.12	1914.56
399.32	1881.79
399.51	1874.77
399.70	1916.90
399.90	2052.65
400.09	1956.69
400.28	2038.61
400.47	1975.41
400.67	2087.76
400.86	2104.14
401.05	2012.86
401.24	2136.91
401.44	2090.10
401.63	2083.08
401.82	2221.17
402.01	2043.29
402.21	2179.04
402.40	2186.06
402.59	2167.34
402.78	2097.12
402.97	2256.28
403.17	2286.70
403.36	2296.07
403.55	2347.56
403.74	2272.66
403.93	2289.04
404.13	2377.98
404.32	2263.30
404.51	2303.09
404.70	2293.72
404.89	2436.50
405.09	2502.03
405.28	2429.48
405.47	2420.11
405.66	2560.55
405.85	2558.21
406.05	2455.22
406.24	2581.61
406.43	2516.08
406.62	2619.06
406.81	2633.10
407.00	2527.78
407.20	2633.10
407.39	2649.49
407.58	2726.72
407.77	2703.32
407.96	2724.38
408.15	2787.58
408.34	2813.32
408.54	2967.80
408.73	2750.13
408.92	2771.19
409.11	2920.99
409.30	2904.60
409.49	2942.05
409.68	2918.65
409.87	2944.39
410.07	2909.29
410.26	3080.14
410.45	2951.42
410.64	2981.84
410.83	2991.20
411.02	3080.14
411.21	3002.91
411.40	3138.66
411.59	3131.64
411.78	3138.66
411.98	3068.44
412.17	3346.97
412.36	3356.33
412.55	3337.60
412.74	3375.05
412.93	3424.20
413.12	3428.88
413.31	3557.61
413.50	3585.70
413.69	3461.65
413.88	3648.90
414.07	3595.06
414.26	3578.68
414.45	3768.26
414.64	3606.77
414.83	3660.60
415.02	3826.78
415.22	3812.73
415.41	3810.39
415.60	3889.97
415.79	3868.91
415.98	3955.51
416.17	3981.25
416.36	4074.87
416.55	3997.64
416.74	3999.98
416.93	3988.27
417.12	4229.35
417.31	4156.79
417.50	4255.09
417.69	4304.25
417.88	4290.20
418.07	4257.43
418.26	4376.80
418.45	4269.14
418.64	4491.49
418.83	4383.82
419.02	4379.14
419.21	4528.94
419.39	4503.19
419.58	4538.30
419.77	4510.21
419.96	4620.22
420.15	4650.64
420.34	4571.07
420.53	4505.53
420.72	4657.67
420.91	4774.69
421.10	4613.20
421.29	4681.07
421.48	4601.49
421.67	4655.33
421.86	4784.06
422.05	4786.40
422.24	4807.46
422.43	4933.85
422.61	4835.55
422.80	4905.76
422.99	5022.79
423.18	4926.83
423.37	5025.13
423.56	4873.00
423.75	4882.36
423.94	4854.27
424.13	4573.41
424.32	4664.69
424.50	5135.14
424.69	5001.72
424.88	5149.18
425.07	4896.40
425.26	5029.81
425.45	5107.05
425.64	4910.44
425.83	5034.49
426.01	5207.69
426.20	5006.41
426.39	5076.62
426.58	5123.43
426.77	5097.69
426.96	5114.07
427.15	5261.52
427.33	5097.69
427.52	5125.77
427.71	5362.17
427.90	5207.69
428.09	5294.29
428.28	5252.16
428.46	5523.66
428.65	5460.47
428.84	5483.88
429.03	5575.16
429.22	5434.72
429.40	5392.59
429.59	5390.25
429.78	5341.10
429.97	5315.36
430.16	5317.70
430.34	5495.58
430.53	5479.19
430.72	5598.56
430.91	5600.90
431.10	5561.11
431.28	5797.51
431.47	5933.26
431.66	5823.25
431.85	5919.21
432.03	5818.57
432.22	6097.10
432.41	6012.84
432.60	5996.45
432.79	5839.64
432.97	5959.00
433.16	5996.45
433.35	6017.52
433.54	6054.97
433.72	6080.71
433.91	6160.29
434.10	6235.19
434.28	6218.80
434.47	6164.97
434.66	6202.42
434.85	6277.32
435.03	6363.92
435.22	6366.26
435.41	6457.54
435.59	6305.40
435.78	6513.71
435.97	6509.03
436.16	6569.88
436.34	6434.13
436.53	6377.96
436.72	6686.91
436.90	6445.84
437.09	6644.78
437.28	6492.65
437.46	6569.88
437.65	6560.52
437.84	6705.63
438.02	6693.93
438.21	6759.47
438.40	6698.61
438.58	7005.22
438.77	6932.67
438.96	6871.81
439.14	7087.14
439.33	7227.57
439.52	7283.75
439.70	7187.79
439.89	7258.00
440.08	7300.13
440.26	7353.96
440.45	7417.16
440.63	7384.39
440.82	7768.24
441.01	7510.78
441.19	7683.98
441.38	7679.30
441.57	7857.18
441.75	7812.71
441.94	8098.25
442.12	7716.75
442.31	8079.53
442.50	8004.63
442.68	8189.53
442.87	7997.61
443.05	8098.25
443.24	8234.00
443.43	8205.92
443.61	8222.30
443.80	8353.37
443.98	8079.53
444.17	8154.43
444.35	8266.77
444.54	8552.32
444.73	8596.79
444.91	8311.24
445.10	8416.57
445.28	8437.63
445.47	8252.73
445.65	8255.07
445.84	8557.00
446.02	8545.30
446.21	8425.93
446.39	8250.39
446.58	8493.80
446.77	8404.86
446.95	8372.10
447.14	8510.19
447.32	8669.34
447.51	8517.21
447.69	8542.96
447.88	8566.36
448.06	8482.10
448.25	8285.50
448.43	8716.16
448.62	8657.64
448.80	8589.77
448.99	8788.71
449.17	8894.04
449.36	8566.36
449.54	8868.29
449.73	8924.46
449.91	8861.27
450.10	9055.53
450.28	8940.85
450.46	9149.15
450.65	9022.77
450.83	9111.71
451.02	9181.92
451.20	9387.89
451.39	9109.36
451.57	9139.79
451.76	9135.11
451.94	9184.26
452.13	9397.25
452.31	9268.52
452.49	9312.99
452.68	9317.67
452.86	9483.85
453.05	9614.92
453.23	9563.43
453.42	9458.10
453.60	9444.06
453.78	9823.23
453.97	9448.74
454.15	9472.15
454.34	9551.73
454.52	9614.92
454.70	9575.13
454.89	9804.50
455.07	9774.08
455.26	9823.23
455.44	10129.84
455.62	9846.63
455.81	9998.77
455.99	10071.33
456.17	9809.19
456.36	10026.86
456.54	10359.21
456.73	10174.31
456.91	10420.06
457.09	10771.15
457.28	10480.92
457.46	10391.98
457.64	10429.43
457.83	10417.72
458.01	10487.94
458.19	10775.83
458.38	10654.12
458.56	10829.66
458.74	10719.65
458.93	10670.50
459.11	10499.64
459.29	10991.16
459.48	10745.40
459.66	10698.59
459.84	11052.01
460.03	11248.61
460.21	11056.69
460.39	11110.52
460.57	11035.63
460.76	11183.08
460.94	11136.27
461.12	11229.89
461.31	11339.90
461.49	11124.57
461.67	11321.17
461.85	11566.93
462.04	11496.71
462.22	11248.61
462.40	11508.41
462.59	11351.60
462.77	11566.93
462.95	11742.47
463.13	11606.72
463.32	11611.40
463.50	11868.86
463.68	11789.28
463.86	11805.66
464.05	11613.74
464.23	11943.75
464.41	12018.65
464.59	11854.81
464.78	12081.85
464.96	11925.03
465.14	11833.75
465.32	12013.97
465.50	12156.74
465.69	12290.15
465.87	12379.09
466.05	12285.47
466.23	12341.64
466.41	12175.47
466.60	12325.26
466.78	12243.34
466.96	12149.72
467.14	12540.59
467.32	12327.60
467.51	12479.74
467.69	12273.77
467.87	12678.68
468.05	12793.37
468.23	12538.25
468.41	12564.00
468.60	12767.62
468.78	12851.88
468.96	12510.16
469.14	12784.01
469.32	13092.96
469.50	12627.19
469.69	12915.08
469.87	12891.67
470.05	12924.44
470.23	13280.20
470.41	13280.20
470.59	13357.44
470.77	13202.96
470.95	13350.42
471.14	13762.35
471.32	13114.02
471.50	13593.83
471.68	13603.19
471.86	13788.10
472.04	13858.31
472.22	14237.48
472.40	14010.45
472.58	13778.73
472.77	13902.78
472.95	14312.38
473.13	14628.35
473.31	14066.62
473.49	14246.84
473.67	14160.24
473.85	14356.85
474.03	14956.02
474.21	14808.57
474.39	14778.14
474.57	14623.67
474.75	15234.55
474.93	14951.34
475.12	14902.19
475.30	15096.46
475.48	15066.03
475.66	15269.66
475.84	15159.65
476.02	15454.56
476.20	15335.19
476.38	15934.37
476.56	16086.50
476.74	15920.32
476.92	15915.64
477.10	15978.84
477.28	16114.59
477.46	16072.46
477.64	16369.71
477.82	16933.78
478.00	17160.81
478.18	16938.46
478.36	17029.74
478.54	17259.11
478.72	17025.06
478.90	17401.88
479.08	17717.86
479.26	17703.81
479.44	17556.36
479.62	18001.06
479.80	18134.47
479.98	18143.83
480.16	18857.70
480.34	18377.89
480.52	19056.64
480.70	18548.75
480.88	18331.08
481.06	18602.58
481.24	19028.56
481.41	19386.66
481.59	19496.66
481.77	19590.28
481.95	19814.98
482.13	19758.80
482.31	19744.76
482.49	20357.98
482.67	20226.91
482.85	20751.19
483.03	20594.37
483.21	20898.64
483.39	20849.49
483.57	20945.45
483.74	21404.20
483.92	21404.20
484.10	21310.58
484.28	21935.50
484.46	21989.33
484.64	22408.29
484.82	22302.96
485.00	22691.49
485.18	22918.53
485.35	23065.98
485.53	22906.82
485.71	23030.87
485.89	23419.40
486.07	23587.92
486.25	23613.66
486.43	24030.28
486.61	23772.82
486.78	24154.33
486.96	24388.38
487.14	24896.28
487.32	24456.26
487.50	25179.48
487.68	25219.27
487.85	25422.90
488.03	25869.94
488.21	25839.51
488.39	25869.94
488.57	26080.59
488.75	26087.61
488.92	26738.28
489.10	26691.47
489.28	26742.96
489.46	27164.26
489.64	27126.81
489.81	27962.38
489.99	27611.30
490.17	27831.31
490.35	28718.37
490.53	28299.42
490.70	28636.45
490.88	28362.61
491.06	29160.73
491.24	28842.42
491.41	29191.16
491.59	29362.02
491.77	29778.64
491.95	29572.67
492.13	30031.41
492.30	30106.31
492.48	30300.58
492.66	30284.19
492.84	30412.92
493.01	30885.71
493.19	30696.13
493.37	31105.72
493.54	31119.76
493.72	31346.79
493.90	31651.06
494.08	31653.40
494.25	31960.02
494.43	32215.13
494.61	32154.28
494.79	32699.62
494.96	32610.68
495.14	33357.32
495.32	33326.89
495.49	33113.90
495.67	33495.41
495.85	33652.22
496.02	33844.15
496.20	33996.28
496.38	34309.91
496.55	34195.23
496.73	34904.41
496.91	35110.38
497.09	35093.99
497.26	35243.79
497.44	34754.61
497.62	35466.14
497.79	36367.24
497.97	35363.15
498.14	36437.46
498.32	36229.15
498.50	36488.95
498.67	36938.33
498.85	36769.82
499.03	36872.80
499.20	36671.51
499.38	37120.90
499.56	37205.16
499.73	37462.61
499.91	37736.46
500.08	37731.78
500.26	37310.48
500.44	38075.84
500.61	38059.45
500.79	38249.03
500.97	38356.70
501.14	39019.07
501.32	38546.28
501.49	38778.00
501.67	38691.40
501.84	39091.63
502.02	38347.34
502.20	38888.00
502.37	39452.07
502.55	38953.54
502.72	39351.43
502.90	39246.10
503.07	39592.50
503.25	40025.50
503.43	39721.23
503.60	39728.25
503.78	40285.30
503.95	40247.85
504.13	40884.48
504.30	40999.16
504.48	40968.74
504.65	41127.89
504.83	41041.29
505.01	41354.93
505.18	41359.61
505.36	41773.88
505.53	41670.90
505.71	42057.09
505.88	42389.44
506.06	41701.32
506.23	42424.55
506.41	41687.28
506.58	41895.59
506.76	42387.10
506.93	42754.57
507.11	42714.78
507.28	42447.96
507.46	42859.89
507.63	42955.85
507.81	43791.42
507.98	43168.84
508.16	43026.07
508.33	43859.30
508.50	43723.55
508.68	43648.65
508.85	44079.31
509.03	44076.97
509.20	44353.15
509.38	44624.65
509.55	44612.95
509.73	45181.70
509.90	44818.92
510.08	44280.60
510.25	44605.93
510.42	44526.35
510.60	45603.00
510.77	45043.61
510.95	45364.26
511.12	45265.96
511.30	45263.62
511.47	45600.66
511.64	45769.18
511.82	46162.39
511.99	46047.70
512.17	46071.10
512.34	45991.53
512.51	46576.66
512.69	46859.87
512.86	46674.96
513.04	46595.38
513.21	46518.15
513.38	47007.32
513.56	47227.33
513.73	46799.01
513.90	47346.70
514.08	47206.26
514.25	47400.53
514.43	47639.26
514.60	47409.89
514.77	47351.38
514.95	47859.27
515.12	47807.78
515.29	47852.25
515.47	48048.86
515.64	48397.60
515.81	48397.60
515.99	48296.95
516.16	48945.28
516.33	48362.49
516.51	48917.20
516.68	48779.10
516.85	48243.12
517.03	49291.68
517.20	49504.67
517.37	49214.44
517.54	48975.71
517.72	49389.98
517.89	49237.85
518.06	49701.28
518.24	49450.84
518.41	49460.20
518.58	49588.93
518.75	49310.41
518.93	49415.73
519.10	49712.98
519.27	49860.43
519.45	50265.34
519.62	49813.62
519.79	50167.04
519.96	50241.94
520.14	50363.65
520.31	50377.69
520.48	50555.57
520.65	50361.31
520.83	50501.74
521.00	50864.52
521.17	50862.18
521.34	51014.32
521.52	51250.71
521.69	51079.85
521.86	51079.85
522.03	51405.19
522.20	51428.59
522.38	51372.42
522.55	51580.73
522.72	51686.05
522.89	51372.42
523.07	52004.36
523.24	51327.95
523.41	51995.00
523.58	51559.66
523.75	52215.01
523.92	52093.30
524.10	52238.42
524.27	52048.83
524.44	52116.71
524.61	52109.69
524.78	52477.15
524.96	52545.03
525.13	52556.73
525.30	52924.19
525.47	52725.25
525.64	52559.07
525.81	52727.59
525.98	52715.89
526.16	52828.23
526.33	53073.99
526.50	53183.99
526.67	52938.24
526.84	53076.33
527.01	52928.87
527.18	53188.67
527.36	53148.88
527.53	53071.65
527.70	53528.05
527.87	53469.54
528.04	53385.28
528.21	53286.98
528.38	53408.68
528.55	53684.87
528.72	53439.11
528.89	53652.10
529.07	53722.32
529.24	53570.18
529.41	53942.33
529.58	53616.99
529.75	54007.86
529.92	53792.53
530.09	54150.63
530.26	54167.02
530.43	54127.23
530.60	54092.12
530.77	54326.17
530.94	54087.44
531.11	54164.68
531.28	54326.17
531.46	54305.11
531.63	54574.27
531.80	54382.35
531.97	54478.31
532.14	54536.82
532.31	54569.59
532.48	54869.18
532.65	54695.98
532.82	54504.06
532.99	54948.76
533.16	54745.13
533.33	54880.88
533.50	55070.46
533.67	55047.06
533.84	54712.36
534.01	55178.13
534.18	55313.88
534.35	55238.98
534.52	55185.15
534.69	55391.12
534.86	55512.83
535.03	55231.96
535.20	55302.18
535.37	55557.30
535.54	55435.59
535.71	55323.24
535.88	55538.57
536.05	55889.65
536.22	55716.45
536.38	55817.10
536.55	55536.23
536.72	55875.61
536.89	55695.39
537.06	55702.41
537.23	55796.03
537.40	55877.95
537.57	55821.78
537.74	55894.33
537.91	56060.51
538.08	56065.19
538.25	56046.47
538.42	56093.28
538.59	56147.11
538.75	55941.14
538.92	56055.83
539.09	56327.33
539.26	56413.93
539.43	56088.60
539.60	56388.19
539.77	56339.04
539.94	56479.47
540.11	56498.19
540.28	56488.83
540.44	56406.91
540.61	56367.12
540.78	56673.73
540.95	56669.05
541.12	56626.92
541.29	56559.05
541.46	56828.21
541.62	56655.01
541.79	56779.06
541.96	56308.61
542.13	56528.62
542.30	56708.84
542.47	56912.47
542.63	56598.83
542.80	57050.56
542.97	57109.07
543.14	57432.07
543.31	57357.17
543.48	57083.33
543.64	57518.67
543.81	57481.22
543.98	57539.73
544.15	57539.73
544.32	57450.79
544.48	57738.68
544.65	57233.12
544.82	57546.75
544.99	57375.89
545.16	57724.63
545.32	57406.32
545.49	57879.11
545.66	57787.83
545.83	57741.02
546.00	57895.49
546.16	57790.17
546.33	57633.35
546.50	57757.40
546.67	58028.90
546.83	57755.06
547.00	57818.25
547.17	58092.10
547.34	57946.98
547.50	58216.14
547.67	58279.34
547.84	58052.31
548.00	58337.85
548.17	58419.77
548.34	58361.26
548.51	58494.67
548.67	58330.83
548.84	58166.99
549.01	58379.98
549.18	58361.26
549.34	58340.19
549.51	58548.50
549.68	58522.76
549.84	58480.63
550.01	58571.91
550.18	58438.50
550.34	58614.04
550.51	58782.55
550.68	58595.31
550.84	58443.18
551.01	58663.19
551.18	58632.76
551.34	58592.97
551.51	58597.65
551.68	58698.30
551.84	58693.61
552.01	58660.85
552.18	58906.60
552.34	58782.55
552.51	58885.54
552.68	58791.92
552.84	58541.48
553.01	59105.55
553.18	58953.41
553.34	58955.75
553.51	58915.96
553.67	59007.25
553.84	59035.33
554.01	59049.38
554.17	59152.36
554.34	59187.47
554.51	59049.38
554.67	59236.62
554.84	59051.72
555.00	59032.99
555.17	58997.88
555.33	59175.76
555.50	59086.82
555.67	59147.68
555.83	58988.52
556.00	59135.98
556.16	59573.66
556.33	59620.47
556.50	59353.65
556.66	59465.99
556.83	59171.08
556.99	59491.74
557.16	59650.89
557.32	59597.06
557.49	59671.96
557.65	59388.75
557.82	59386.41
557.98	59463.65
558.15	59711.75
558.32	59632.17
558.48	59517.48
558.65	59458.97
558.81	59753.88
558.98	59725.79
559.14	59749.20
559.31	59655.57
559.47	59667.28
559.64	59906.01
559.80	59852.18
559.97	59898.99
560.13	59831.11
560.30	59828.77
560.46	59938.78
560.63	59990.27
560.79	59880.27
560.96	59941.12
561.12	59980.91
561.29	60062.83
561.45	59959.84
561.61	60030.06
561.78	59819.41
561.94	59882.61
562.11	60025.38
562.27	59987.93
562.44	60224.32
562.60	60175.17
562.77	60301.56
562.93	59959.84
563.10	60055.81
563.26	60055.81
563.42	60130.70
563.59	60119.00
563.75	60079.21
563.92	60189.22
564.08	60119.00
564.24	60376.46
564.41	60177.51
564.57	60266.45
564.74	60205.60
564.90	60310.92
565.07	60156.45
565.23	60425.61
565.39	60247.73
565.56	60238.37
565.72	60369.44
565.88	60296.88
566.05	60294.54
566.21	60266.45
566.38	60514.55
566.54	60395.18
566.70	60584.77
566.87	60521.57
567.03	60292.20
567.19	60472.42
567.36	60554.34
567.52	60322.63
567.68	60645.62
567.85	60481.78
568.01	60584.77
568.17	60441.99
568.34	60509.87
568.50	60334.33
568.66	60488.80
568.83	60292.20
568.99	60355.39
569.15	60526.25
569.32	60580.09
569.48	60474.76
569.64	60486.46
569.81	60530.93
569.97	60416.25
570.13	60577.75
570.30	60385.82
570.46	60542.64
570.62	60757.97
570.78	60636.26
570.95	60673.71
571.11	60846.91
571.27	60533.28
571.43	60622.22
571.60	60800.10
571.76	60615.19
571.92	60647.96
572.09	60800.10
572.25	60720.52
572.41	60896.06
572.57	60781.37
572.74	60851.59
572.90	60699.45
573.06	60715.84
573.22	60687.75
573.38	60669.03
573.55	60690.09
573.71	60989.68
573.87	60631.58
574.03	60652.64
574.20	60856.27
574.36	60917.12
574.52	60917.12
574.68	60704.13
574.84	60959.25
575.01	60945.21
575.17	60830.52
575.33	60835.20
575.49	60779.03
575.65	60837.54
575.82	60912.44
575.98	60931.17
576.14	60977.98
576.30	60879.67
576.46	60842.23
576.62	60774.35
576.79	60769.67
576.95	60650.30
577.11	60797.76
577.27	61069.26
577.43	61022.45
577.59	60989.68
577.75	60870.31
577.92	60671.37
578.08	60844.57
578.24	60825.84
578.40	61190.97
578.56	61024.79
578.72	60945.21
578.88	60992.02
579.04	61092.66
579.21	60985.00
579.37	60914.78
579.53	61017.77
579.69	60786.05
579.85	60781.37
580.01	60891.38
580.17	60870.31
580.33	60935.85
580.49	61038.83
580.65	61017.77
580.82	60884.36
580.98	60874.99
581.14	60912.44
581.30	61176.92
581.46	61043.51
581.62	61116.07
581.78	60985.00
581.94	60830.52
582.10	61134.79
582.26	61160.54
582.42	61155.86
582.58	60982.66
582.74	61008.40
582.90	61120.75
583.06	61066.92
583.22	60919.46
583.38	60980.32
583.54	61165.22
583.70	61279.91
583.86	61078.62
584.02	61034.15
584.18	61095.00
584.34	61160.54
584.50	61254.16
584.66	61097.34
584.82	60938.19
584.98	60999.04
585.14	61036.49
585.30	60935.85
585.46	61134.79
585.62	61153.52
585.78	61305.65
585.94	61031.81
586.10	61146.50
586.26	61043.51
586.42	61195.65
586.58	61235.44
586.74	61226.07
586.90	61132.45
587.06	61062.24
587.22	61319.70
587.38	61158.20
587.54	61415.66
587.70	61303.31
587.86	61006.06
588.02	61165.22
588.18	61090.32
588.34	61216.71
588.49	61247.14
