SpectraSuite Data File
++++++++++++++++++++++++++++++++++++
Date: Fri Oct 25 11:25:45 EDT 2013
User: price-jones
Dark Spectrum Present: No
Reference Spectrum Present: No
Number of Sampled Component Spectra: 1
Spectrometers: USB2+H05261
Integration Time (usec): 100000 (USB2+H05261)
Spectra Averaged: 1 (USB2+H05261)
Boxcar Smoothing: 0 (USB2+H05261)
Correct for Electrical Dark: No (USB2+H05261)
Strobe/Lamp Enabled: No (USB2+H05261)
Correct for Detector Non-linearity: No (USB2+H05261)
Correct for Stray Light: No (USB2+H05261)
Number of Pixels in Processed Spectrum: 2048
>>>>>Begin Processed Spectral Data<<<<<
365.73	138.09
365.92	138.09
366.12	138.09
366.32	170.86
366.52	205.97
366.72	231.71
366.91	159.16
367.11	170.86
367.31	100.64
367.51	112.35
367.70	168.52
367.90	175.54
368.10	177.88
368.30	191.92
368.49	149.79
368.69	149.79
368.89	128.73
369.09	154.48
369.28	201.29
369.48	166.18
369.68	175.54
369.87	205.97
370.07	145.11
370.27	285.55
370.47	346.40
370.66	592.16
370.86	660.03
371.06	634.29
371.25	657.69
371.45	667.05
371.65	648.33
371.84	638.97
372.04	688.12
372.24	711.52
372.44	758.33
372.63	732.59
372.83	702.16
373.03	709.18
373.22	823.87
373.42	793.44
373.62	788.76
373.81	777.06
374.01	753.65
374.21	854.30
374.40	819.19
374.60	795.78
374.79	882.38
374.99	816.85
375.19	837.91
375.38	816.85
375.58	816.85
375.78	891.74
375.97	880.04
376.17	945.58
376.37	765.36
376.56	947.92
376.76	882.38
376.95	870.68
377.15	947.92
377.35	875.36
377.54	896.43
377.74	873.02
377.93	875.36
378.13	994.73
378.33	908.13
378.52	880.04
378.72	945.58
378.91	1022.81
379.11	966.64
379.31	931.53
379.50	1008.77
379.70	1027.50
379.89	994.73
380.09	1001.75
380.28	1025.15
380.48	959.62
380.68	936.21
380.87	912.81
381.07	1090.69
381.26	1020.47
381.46	940.90
381.65	983.02
381.85	1128.14
382.04	1039.20
382.24	990.05
382.43	1036.86
382.63	1046.22
382.83	1090.69
383.02	1123.46
383.22	1104.73
383.41	1109.41
383.61	1083.67
383.80	1100.05
384.00	1114.10
384.19	1193.67
384.39	1118.78
384.58	1128.14
384.78	1074.31
384.97	1083.67
385.17	1041.54
385.36	1172.61
385.56	1207.72
385.75	1160.91
385.95	1214.74
386.14	1153.88
386.34	1165.59
386.53	1266.23
386.72	1280.27
386.92	1270.91
387.11	1268.57
387.31	1240.48
387.50	1191.33
387.70	1188.99
387.89	1200.69
388.09	1289.64
388.28	1329.42
388.48	1277.93
388.67	1303.68
388.86	1289.64
389.06	1282.61
389.25	1329.42
389.45	1369.21
389.64	1329.42
389.84	1390.28
390.03	1416.02
390.22	1362.19
390.42	1387.94
390.61	1376.24
390.81	1371.55
391.00	1334.11
391.19	1406.66
391.39	1462.83
391.58	1469.86
391.78	1451.13
391.97	1533.05
392.16	1483.90
392.36	1533.05
392.55	1504.96
392.75	1526.03
392.94	1535.39
393.13	1509.65
393.33	1425.39
393.52	1570.50
393.71	1544.75
393.91	1650.08
394.10	1666.46
394.29	1544.75
394.49	1558.80
394.68	1657.10
394.88	1612.63
395.07	1657.10
395.26	1596.25
395.46	1654.76
395.65	1722.63
395.84	1671.14
396.04	1673.48
396.23	1741.36
396.42	1755.40
396.62	1750.72
396.81	1722.63
397.00	1783.49
397.19	1778.81
397.39	1858.39
397.58	1734.34
397.77	1760.08
397.97	1891.15
398.16	1874.77
398.35	2015.20
398.55	1893.49
398.74	1879.45
398.93	1966.05
399.12	1900.52
399.32	1888.81
399.51	1968.39
399.70	2001.16
399.90	1921.58
400.09	1914.56
400.28	2071.37
400.47	1966.05
400.67	1961.37
400.86	2031.58
401.05	2139.25
401.24	2078.40
401.44	2092.44
401.63	2099.46
401.82	2097.12
402.01	2146.27
402.21	2165.00
402.40	2132.23
402.59	2216.49
402.78	2186.06
402.97	2270.32
403.17	2366.28
403.36	2230.53
403.55	2256.28
403.74	2214.15
403.93	2385.01
404.13	2483.31
404.32	2354.58
404.51	2385.01
404.70	2380.32
404.89	2520.76
405.09	2466.92
405.28	2478.63
405.47	2403.73
405.66	2459.90
405.85	2537.14
406.05	2485.65
406.24	2448.20
406.43	2572.25
406.62	2572.25
406.81	2672.89
407.00	2469.27
407.20	2462.24
407.39	2708.00
407.58	2661.19
407.77	2693.96
407.96	2766.51
408.15	2855.45
408.34	2771.19
408.54	2747.79
408.73	2752.47
408.92	2778.22
409.11	2876.52
409.30	2909.29
409.49	2888.22
409.68	2883.54
409.87	2871.84
410.07	2932.69
410.26	2956.10
410.45	2949.08
410.64	2874.18
410.83	3049.72
411.02	3056.74
411.21	3117.59
411.40	3344.63
411.59	3148.02
411.78	3185.47
411.98	3166.74
412.17	3234.62
412.36	3215.90
412.55	3276.75
412.74	3297.81
412.93	3375.05
413.12	3335.26
413.31	3522.51
413.50	3459.31
413.69	3459.31
413.88	3478.04
414.07	3531.87
414.26	3616.13
414.45	3592.72
414.64	3665.28
414.83	3721.45
415.02	3775.28
415.22	3901.67
415.41	3866.56
415.60	3887.63
415.79	3927.42
415.98	3962.53
416.17	4042.11
416.36	3908.69
416.55	4070.19
416.74	4023.38
416.93	4072.53
417.12	4124.02
417.31	4100.62
417.50	4173.18
417.69	4191.90
417.88	4252.75
418.07	4154.45
418.26	4252.75
418.45	4259.78
418.64	4390.84
418.83	4360.42
419.02	4383.82
419.21	4411.91
419.39	4442.34
419.58	4463.40
419.77	4500.85
419.96	4524.26
420.15	4596.81
420.34	4573.41
420.53	4575.75
420.72	4622.56
420.91	4620.22
421.10	4671.71
421.29	4631.92
421.48	4718.52
421.67	4697.46
421.86	4692.77
422.05	4917.47
422.24	4875.34
422.43	4718.52
422.61	4856.61
422.80	4875.34
422.99	4917.47
423.18	4910.44
423.37	4985.34
423.56	5046.20
423.75	4933.85
423.94	4915.12
424.13	4685.75
424.32	4744.27
424.50	4964.28
424.69	5130.45
424.88	4915.12
425.07	4894.06
425.26	4887.04
425.45	4968.96
425.64	5097.69
425.83	5085.98
426.01	5055.56
426.20	5107.05
426.39	4980.66
426.58	4987.68
426.77	4971.30
426.96	5270.89
427.15	5228.76
427.33	5135.14
427.52	5303.65
427.71	5348.12
427.90	5212.37
428.09	5235.78
428.28	5329.40
428.46	5383.23
428.65	5378.55
428.84	5502.60
429.03	5619.63
429.22	5327.06
429.40	5551.75
429.59	5497.92
429.78	5378.55
429.97	5341.10
430.16	5427.70
430.34	5593.88
430.53	5577.50
430.72	5528.35
430.91	5612.60
431.10	5605.58
431.28	5680.48
431.47	5570.48
431.66	5935.60
431.85	5652.39
432.03	5797.51
432.22	6012.84
432.41	5907.51
432.60	5823.25
432.79	5966.03
432.97	5907.51
433.16	6010.50
433.35	5930.92
433.54	6071.35
433.72	5963.68
433.91	6183.70
434.10	6162.63
434.28	6097.10
434.47	6139.23
434.66	6260.93
434.85	6209.44
435.03	6244.55
435.22	6305.40
435.41	6408.39
435.59	6380.30
435.78	6476.26
435.97	6328.81
436.16	6459.88
436.34	6534.78
436.53	6354.55
436.72	6572.22
436.90	6441.15
437.09	6530.09
437.28	6417.75
437.46	6719.68
437.65	6623.72
437.84	6630.74
438.02	6642.44
438.21	6771.17
438.40	6719.68
438.58	6960.75
438.77	7143.32
438.96	6857.77
439.14	7131.61
439.33	7155.02
439.52	7225.23
439.70	7220.55
439.89	7403.11
440.08	7311.83
440.26	7094.16
440.45	7309.49
440.63	7536.52
440.82	7564.61
441.01	7522.48
441.19	7611.42
441.38	7805.69
441.57	7581.00
441.75	7630.15
441.94	7871.22
442.12	8016.33
442.31	8203.58
442.50	7854.84
442.68	7896.97
442.87	8044.42
443.05	8140.38
443.24	8236.35
443.43	8229.32
443.61	8231.66
443.80	8465.72
443.98	8095.91
444.17	7812.71
444.35	8196.56
444.54	8468.06
444.73	8339.33
444.91	8362.73
445.10	8329.97
445.28	8409.54
445.47	8283.16
445.65	8210.60
445.84	8339.33
446.02	8304.22
446.21	8472.74
446.39	8322.94
446.58	8526.57
446.77	8512.53
446.95	8145.06
447.14	8402.52
447.32	8348.69
447.51	8262.09
447.69	8409.54
447.88	8601.47
448.06	8329.97
448.25	8344.01
448.43	8503.17
448.62	8503.17
448.80	8301.88
448.99	8629.56
449.17	8692.75
449.36	8449.33
449.54	8725.52
449.73	8830.84
449.91	9055.53
450.10	8786.37
450.28	8987.66
450.46	9123.41
450.65	8856.59
450.83	8908.08
451.02	9022.77
451.20	9137.45
451.39	9123.41
451.57	9195.96
451.76	9048.51
451.94	9118.73
452.13	9364.48
452.31	9387.89
452.49	9238.09
452.68	9329.38
452.86	9256.82
453.05	9399.59
453.23	9249.80
453.42	9516.62
453.60	9277.88
453.78	9605.56
453.97	9432.36
454.15	9385.55
454.34	9483.85
454.52	9474.49
454.70	9659.39
454.89	9809.19
455.07	9776.42
455.26	9675.77
455.44	9916.85
455.62	9720.24
455.81	9977.70
455.99	9963.66
456.17	10050.26
456.36	10052.60
456.54	10022.17
456.73	10153.24
456.91	10272.61
457.09	10162.61
457.28	10534.75
457.46	10204.74
457.64	10277.29
457.83	10314.74
458.01	10387.30
458.19	10792.21
458.38	10455.17
458.56	10684.55
458.74	10642.42
458.93	10803.91
459.11	10637.73
459.29	10801.57
459.48	10871.79
459.66	10633.05
459.84	10890.51
460.03	10946.69
460.21	10895.19
460.39	11061.37
460.57	10904.56
460.76	11063.71
460.94	11152.65
461.12	11211.17
461.31	11222.87
461.49	11253.30
461.67	11208.83
461.85	11466.28
462.04	11250.96
462.22	11590.33
462.40	11494.37
462.59	11571.61
462.77	11637.14
462.95	11541.18
463.13	11548.20
463.32	11646.51
463.50	11583.31
463.68	11646.51
463.86	11939.07
464.05	11587.99
464.23	11625.44
464.41	11761.19
464.59	11597.35
464.78	12154.40
464.96	11878.22
465.14	11709.70
465.32	12063.12
465.50	12201.21
465.69	11941.41
465.87	11925.03
466.05	12358.03
466.23	11988.22
466.41	12336.96
466.60	12381.43
466.78	12079.50
466.96	12360.37
467.14	12287.81
467.32	12217.60
467.51	12477.40
467.69	12299.52
467.87	12442.29
468.05	12510.16
468.23	12273.77
468.41	12463.35
468.60	12594.42
468.78	12566.34
468.96	12425.90
469.14	12835.50
469.32	12769.96
469.50	12753.58
469.69	13008.70
469.87	13062.53
470.05	13167.85
470.23	12989.97
470.41	13104.66
470.59	13277.86
470.77	13041.46
470.95	13027.42
471.14	13523.62
471.32	13118.70
471.50	13631.28
471.68	13654.69
471.86	13645.32
472.04	13682.77
472.22	14038.53
472.40	13790.44
472.58	13956.61
472.77	13947.25
472.95	14127.47
473.13	14398.98
473.31	14005.77
473.49	14012.79
473.67	14033.85
473.85	14471.53
474.03	14476.21
474.21	14707.93
474.39	14593.24
474.57	14593.24
474.75	14747.72
474.93	15150.29
475.12	14881.13
475.30	15012.20
475.48	14965.39
475.66	15229.87
475.84	14993.47
476.02	15407.75
476.20	15384.34
476.38	15716.70
476.56	16159.06
476.74	15782.23
476.92	15775.21
477.10	15925.00
477.28	16166.08
477.46	16273.74
477.64	16224.59
477.82	16362.69
478.00	17050.80
478.18	16606.10
478.36	16961.86
478.54	16891.65
478.72	17053.14
478.90	17238.05
479.08	17385.50
479.26	17516.57
479.44	17905.10
479.62	18071.28
479.80	17935.53
479.98	18162.56
480.16	18487.89
480.34	18459.81
480.52	18480.87
480.70	18677.48
480.88	18211.71
481.06	18860.04
481.24	18883.44
481.41	19044.94
481.59	19316.44
481.77	19417.08
481.95	19503.68
482.13	19667.52
482.31	19704.97
482.49	19810.29
482.67	20170.74
482.85	20107.54
483.03	20374.36
483.21	20624.80
483.39	20582.67
483.57	20695.02
483.74	20938.43
483.92	21186.53
484.10	21270.79
484.28	21582.08
484.46	22017.42
484.64	22183.60
484.82	21771.66
485.00	22160.19
485.18	22494.89
485.35	22838.95
485.53	22789.80
485.71	22913.84
485.89	23742.39
486.07	23225.14
486.25	23096.41
486.43	23580.90
486.61	23538.77
486.78	24142.63
486.96	24252.63
487.14	24453.92
487.32	24638.82
487.50	25167.78
487.68	24994.58
487.85	24772.23
488.03	25577.37
488.21	25671.00
488.39	25364.39
488.57	25560.99
488.75	26015.05
488.92	26300.60
489.10	26527.63
489.28	26513.59
489.46	27101.06
489.64	26686.79
489.81	27393.63
489.99	27543.42
490.17	27466.19
490.35	28051.32
490.53	28081.75
490.70	28371.97
490.88	28437.51
491.06	28243.24
491.24	28870.51
491.41	29057.75
491.59	28987.53
491.77	28999.24
491.95	29422.87
492.13	29731.83
492.30	29560.97
492.48	29890.98
492.66	30331.00
492.84	30389.52
493.01	30361.43
493.19	30735.92
493.37	30979.33
493.54	31014.44
493.72	31314.03
493.90	31459.14
494.08	31534.04
494.25	31931.93
494.43	31583.19
494.61	32081.72
494.79	32414.08
494.96	32348.54
495.14	32486.64
495.32	32943.04
495.49	33156.03
495.67	33085.81
495.85	33170.07
496.02	33572.64
496.20	33935.43
496.38	33823.08
496.55	33694.35
496.73	35145.48
496.91	34410.56
497.09	34843.56
497.26	34859.94
497.44	34972.28
497.62	35161.87
497.79	35913.18
497.97	35227.40
498.14	35950.63
498.32	35948.29
498.50	35648.70
498.67	36715.98
498.85	36243.20
499.03	36706.62
499.20	36400.01
499.38	36847.05
499.56	36966.42
499.73	37132.60
499.91	37394.74
500.08	37493.04
500.26	37085.79
500.44	37464.96
500.61	37237.92
500.79	37729.44
500.97	37977.53
501.14	38415.21
501.32	38227.97
501.49	38431.60
501.67	38789.70
501.84	38799.06
502.02	38543.94
502.20	39129.08
502.37	39108.01
502.55	38670.33
502.72	39737.62
502.90	39374.83
503.07	39047.16
503.25	39185.25
503.43	39395.90
503.60	39765.70
503.78	39772.72
503.95	39924.86
504.13	40353.18
504.30	40627.02
504.48	40399.99
504.65	40341.47
504.83	41031.93
505.01	41090.44
505.18	41336.20
505.36	41198.11
505.53	41141.94
505.71	41668.56
505.88	41333.86
506.06	41399.40
506.23	41825.37
506.41	41708.35
506.58	42204.54
506.76	42087.51
506.93	42576.69
507.11	42256.03
507.28	42625.84
507.46	42768.61
507.63	42644.56
507.81	42986.28
507.98	42693.71
508.16	43203.95
508.33	43091.60
508.50	43215.65
508.68	43220.33
508.85	43770.36
509.03	43716.53
509.20	43590.14
509.38	44041.86
509.55	44556.78
509.73	44711.25
509.90	44278.25
510.08	44289.96
510.25	44364.85
510.42	44566.14
510.60	44854.03
510.77	44940.63
510.95	45371.28
511.12	45167.66
511.30	44884.45
511.47	45139.57
511.64	45446.18
511.82	45815.99
511.99	45525.76
512.17	45577.25
512.34	45579.59
512.51	46534.53
512.69	46284.09
512.86	45933.01
513.04	46784.97
513.21	46223.24
513.38	46480.70
513.56	46288.77
513.73	46433.89
513.90	46649.22
514.08	46436.23
514.25	47224.99
514.43	46763.90
514.60	47257.76
514.77	47428.62
514.95	47566.71
515.12	47105.62
515.29	47482.45
515.47	47782.04
515.64	47828.85
515.81	47950.56
515.99	47791.40
516.16	48507.60
516.33	48294.61
516.51	48570.80
516.68	48502.92
516.85	48098.01
517.03	48744.00
517.20	48622.29
517.37	48744.00
517.54	49120.82
517.72	48924.22
517.89	48956.99
518.06	49184.02
518.24	49102.10
518.41	49066.99
518.58	49368.92
518.75	49059.97
518.93	49476.58
519.10	49392.33
519.27	49525.74
519.45	49322.11
519.62	49696.59
519.79	49801.92
519.96	49776.17
520.14	49972.78
520.31	50181.09
520.48	50218.53
520.65	49975.12
520.83	50326.20
521.00	50138.96
521.17	50138.96
521.34	50686.64
521.52	50768.56
521.69	50604.72
521.86	50773.24
522.03	50817.71
522.20	51239.01
522.38	51690.73
522.55	51554.98
522.72	51444.98
522.89	50981.55
523.07	51531.57
523.24	51498.81
523.41	51531.57
523.58	51416.89
523.75	51718.82
523.92	51735.20
524.10	51810.10
524.27	51992.66
524.44	51709.46
524.61	51985.64
524.78	52023.09
524.96	52060.54
525.13	52151.82
525.30	52224.37
525.47	52516.94
525.64	52151.82
525.81	52598.86
525.98	52610.56
526.16	52453.75
526.33	52556.73
526.50	52790.78
526.67	52320.34
526.84	52865.68
527.01	52589.50
527.18	52765.04
527.36	52718.23
527.53	52734.61
527.70	53499.97
527.87	53148.88
528.04	53233.14
528.21	53336.13
528.38	53141.86
528.55	53336.13
528.72	53289.32
528.89	53518.69
529.07	53048.24
529.24	53425.07
529.41	53511.67
529.58	53729.34
529.75	53483.58
529.92	53813.60
530.09	53659.12
530.26	53979.78
530.43	53930.62
530.60	53485.92
530.77	53743.38
530.94	53895.52
531.11	53801.89
531.28	54054.67
531.46	54204.47
531.63	53979.78
531.80	54073.40
531.97	54515.76
532.14	54321.49
532.31	53942.33
532.48	54087.44
532.65	54426.82
532.82	54457.24
532.99	54913.65
533.16	54578.95
533.33	54621.08
533.50	54967.48
533.67	54625.76
533.84	54644.49
534.01	54934.71
534.18	54770.88
534.35	55114.94
534.52	55107.91
534.69	54944.08
534.86	55297.50
535.03	54946.42
535.20	55054.08
535.37	55264.73
535.54	55224.94
535.71	55503.46
535.88	55344.31
536.05	55257.71
536.22	55508.14
536.38	55655.60
536.55	55576.02
536.72	55363.03
536.89	55388.78
537.06	55554.96
537.23	55704.75
537.40	55578.36
537.57	55524.53
537.74	55688.37
537.91	55543.25
538.08	55718.79
538.25	55821.78
538.42	55758.58
538.59	56025.40
538.75	55924.76
538.92	55849.86
539.09	56210.31
539.26	56016.04
539.43	56114.34
539.60	56053.49
539.77	56165.84
539.94	56376.48
540.11	56245.41
540.28	56203.28
540.44	56229.03
540.61	56336.69
540.78	56186.90
540.95	56282.86
541.12	56275.84
541.29	56336.69
541.46	56500.53
541.62	56757.99
541.79	56498.19
541.96	56320.31
542.13	56470.11
542.30	56598.83
542.47	56652.67
542.63	56788.42
542.80	56659.69
542.97	57031.83
543.14	57024.81
543.31	57029.49
543.48	57144.18
543.64	57179.29
543.81	57228.44
543.98	57293.97
544.15	57396.96
544.32	57446.11
544.48	57352.49
544.65	57251.84
544.82	57322.06
544.99	57099.71
545.16	57425.04
545.32	57394.62
545.49	57443.77
545.66	57588.88
545.83	57478.88
546.00	57513.98
546.16	57305.68
546.33	57333.76
546.50	57371.21
546.67	57581.86
546.83	57263.55
547.00	57806.55
547.17	57694.21
547.34	57743.36
547.50	57780.81
547.67	57942.30
547.84	57872.09
548.00	57972.73
548.17	58087.42
548.34	57724.63
548.51	58049.97
548.67	58169.33
548.84	58197.42
549.01	58056.99
549.18	58148.27
549.34	58159.97
549.51	58220.83
549.68	58047.63
549.84	58220.83
550.01	58174.02
550.18	58148.27
550.34	58323.81
550.51	58305.09
550.68	58312.11
550.84	58237.21
551.01	58464.24
551.18	58328.49
551.34	58394.03
551.51	58550.84
551.68	58728.72
551.84	58649.14
552.01	58372.96
552.18	58471.26
552.34	58319.13
552.51	58574.25
552.68	58286.36
552.84	58644.46
553.01	58897.24
553.18	58756.81
553.34	58824.68
553.51	58621.06
553.67	58658.51
553.84	58674.89
554.01	58782.55
554.17	58763.83
554.34	59114.91
554.51	58635.10
554.67	58930.01
554.84	58862.13
555.00	58869.15
555.17	58820.00
555.33	59007.25
555.50	58897.24
555.67	58763.83
555.83	59030.65
556.00	58969.80
556.16	59339.60
556.33	59159.38
556.50	58960.44
556.66	59435.56
556.83	59215.55
556.99	59185.13
557.16	59480.03
557.32	59461.31
557.49	59531.53
557.65	59189.81
557.82	59407.48
557.98	59262.36
558.15	59601.74
558.32	59475.35
558.48	59238.96
558.65	59501.10
558.81	59182.79
558.98	59561.95
559.14	59629.83
559.31	59480.03
559.47	59636.85
559.64	59475.35
559.80	59566.63
559.97	59557.27
560.13	59543.23
560.30	59578.34
560.46	59707.07
560.63	59819.41
560.79	59678.98
560.96	59908.35
561.12	59718.77
561.29	59576.00
561.45	59896.65
561.61	59550.25
561.78	59681.32
561.94	59810.05
562.11	59814.73
562.27	59678.98
562.44	59852.18
562.60	59884.95
562.77	60046.44
562.93	59557.27
563.10	60130.70
563.26	60018.36
563.42	60186.88
563.59	59957.50
563.75	59833.46
563.92	59934.10
564.08	59938.78
564.24	60264.11
564.41	60252.41
564.57	60165.81
564.74	60060.49
564.90	60069.85
565.07	60023.04
565.23	60018.36
565.39	60048.78
565.56	60156.45
565.72	60243.05
565.88	59964.52
566.05	60102.62
566.21	60074.53
566.38	60217.30
566.54	60023.04
566.70	60317.95
566.87	60231.35
567.03	59999.63
567.19	60381.14
567.36	60360.08
567.52	60086.23
567.68	60432.63
567.85	60212.62
568.01	60416.25
568.17	60301.56
568.34	60413.91
568.50	60257.09
568.66	60441.99
568.83	60367.10
568.99	60395.18
569.15	60348.37
569.32	60350.71
569.48	60383.48
569.64	60392.84
569.81	60465.40
569.97	60257.09
570.13	60568.38
570.30	60200.92
570.46	60486.46
570.62	60376.46
570.78	60437.31
570.95	60327.31
571.11	60441.99
571.27	60308.58
571.43	60317.95
571.60	60411.57
571.76	60479.44
571.92	60474.76
572.09	60542.64
572.25	60491.15
572.41	60296.88
572.57	60540.30
572.74	60453.70
572.90	60650.30
573.06	60488.80
573.22	60463.06
573.38	60559.02
573.55	60406.89
573.71	60647.96
573.87	60584.77
574.03	60357.74
574.20	60662.00
574.36	60486.46
574.52	60720.52
574.68	60479.44
574.84	60781.37
575.01	60671.37
575.17	60741.58
575.33	60451.36
575.49	60369.44
575.65	60797.76
575.82	60837.54
575.98	60685.41
576.14	60746.26
576.30	60739.24
576.46	60603.49
576.62	60650.30
576.79	60795.42
576.95	60500.51
577.11	60647.96
577.27	60547.32
577.43	60575.40
577.59	60666.69
577.75	60449.02
577.92	60437.31
578.08	60708.82
578.24	60802.44
578.40	61265.86
578.56	60767.33
578.72	60743.92
578.88	60846.91
579.04	60931.17
579.21	60891.38
579.37	60830.52
579.53	60830.52
579.69	60458.38
579.85	60650.30
580.01	60552.00
580.17	60743.92
580.33	60743.92
580.49	60945.21
580.65	60914.78
580.82	60867.97
580.98	60912.44
581.14	60830.52
581.30	60940.53
581.46	60715.84
581.62	60701.79
581.78	60741.58
581.94	60802.44
582.10	60746.26
582.26	60690.09
582.42	60676.05
582.58	61085.64
582.74	60718.18
582.90	60928.83
583.06	60947.55
583.22	60772.01
583.38	60865.63
583.54	60643.28
583.70	60874.99
583.86	60905.42
584.02	60729.88
584.18	61099.68
584.34	60933.51
584.50	60933.51
584.66	60818.82
584.82	60666.69
584.98	61010.74
585.14	61003.72
585.30	60781.37
585.46	61050.53
585.62	60860.95
585.78	60889.04
585.94	60818.82
586.10	61006.06
586.26	60985.00
586.42	61034.15
586.58	60886.70
586.74	60959.25
586.90	60860.95
587.06	60865.63
587.22	61055.21
587.38	61059.90
587.54	61029.47
587.70	61073.94
587.86	61073.94
588.02	60844.57
588.18	60968.61
588.34	61003.72
588.49	61015.43
