SpectraSuite Data File
++++++++++++++++++++++++++++++++++++
Date: Fri Oct 25 11:23:06 EDT 2013
User: price-jones
Dark Spectrum Present: No
Reference Spectrum Present: No
Number of Sampled Component Spectra: 1
Spectrometers: USB2+H05261
Integration Time (usec): 100000 (USB2+H05261)
Spectra Averaged: 1 (USB2+H05261)
Boxcar Smoothing: 0 (USB2+H05261)
Correct for Electrical Dark: No (USB2+H05261)
Strobe/Lamp Enabled: No (USB2+H05261)
Correct for Detector Non-linearity: No (USB2+H05261)
Correct for Stray Light: No (USB2+H05261)
Number of Pixels in Processed Spectrum: 2048
>>>>>Begin Processed Spectral Data<<<<<
365.73	203.63
365.92	203.63
366.12	203.63
366.32	138.09
366.52	126.39
366.72	112.35
366.91	25.75
367.11	145.11
367.31	180.22
367.51	140.43
367.70	86.60
367.90	91.28
368.10	126.39
368.30	173.20
368.49	166.18
368.69	138.09
368.89	180.22
369.09	154.48
369.28	175.54
369.48	161.50
369.68	170.86
369.87	194.26
370.07	166.18
370.27	147.45
370.47	369.80
370.66	596.84
370.86	662.37
371.06	683.44
371.25	702.16
371.45	645.99
371.65	685.78
371.84	706.84
372.04	685.78
372.24	674.07
372.44	648.33
372.63	711.52
372.83	763.01
373.03	685.78
373.22	763.01
373.42	763.01
373.62	777.06
373.81	774.72
374.01	737.27
374.21	784.08
374.40	814.51
374.60	851.96
374.79	828.55
374.99	856.64
375.19	861.32
375.38	833.23
375.58	842.59
375.78	990.05
375.97	884.72
376.17	933.87
376.37	826.21
376.56	889.40
376.76	821.53
376.95	739.61
377.15	905.79
377.35	1032.18
377.54	891.74
377.74	847.27
377.93	894.08
378.13	922.17
378.33	908.13
378.52	994.73
378.72	835.57
378.91	961.96
379.11	980.68
379.31	854.30
379.50	936.21
379.70	905.79
379.89	1011.11
380.09	990.05
380.28	945.58
380.48	1029.84
380.68	954.94
380.87	1025.15
381.07	997.07
381.26	1090.69
381.46	1004.09
381.65	1076.65
381.85	936.21
382.04	1034.52
382.24	1039.20
382.43	1022.81
382.63	1081.33
382.83	1004.09
383.02	1217.08
383.22	1060.26
383.41	1083.67
383.61	1053.24
383.80	1219.42
384.00	1055.58
384.19	1165.59
384.39	1109.41
384.58	1191.33
384.78	1184.31
384.97	1242.82
385.17	1076.65
385.36	1156.22
385.56	1256.87
385.75	1221.76
385.95	1261.55
386.14	1163.25
386.34	1186.65
386.53	1240.48
386.72	1123.46
386.92	1259.21
387.11	1193.67
387.31	1259.21
387.50	1273.25
387.70	1149.20
387.89	1188.99
388.09	1322.40
388.28	1341.13
388.48	1252.19
388.67	1336.45
388.86	1336.45
389.06	1306.02
389.25	1364.53
389.45	1343.47
389.64	1268.57
389.84	1413.68
390.03	1352.83
390.22	1416.02
390.42	1317.72
390.61	1437.09
390.81	1488.58
391.00	1378.58
391.19	1430.07
391.39	1469.86
391.58	1540.07
391.78	1439.43
391.97	1530.71
392.16	1472.20
392.36	1558.80
392.55	1502.62
392.75	1593.90
392.94	1441.77
393.13	1490.92
393.33	1544.75
393.52	1544.75
393.71	1629.01
393.91	1640.72
394.10	1640.72
394.29	1614.97
394.49	1579.86
394.68	1638.38
394.88	1605.61
395.07	1682.85
395.26	1743.70
395.46	1769.44
395.65	1776.47
395.84	1647.74
396.04	1842.00
396.23	1806.89
396.42	1788.17
396.62	1734.34
396.81	1778.81
397.00	1769.44
397.19	1797.53
397.39	1734.34
397.58	1881.79
397.77	1923.92
397.97	1954.35
398.16	1858.39
398.35	1781.15
398.55	1905.20
398.74	1926.26
398.93	1942.64
399.12	1919.24
399.32	2106.48
399.51	1949.67
399.70	2019.88
399.90	2029.24
400.09	2003.50
400.28	1982.43
400.47	2129.89
400.67	2141.59
400.86	2005.84
401.05	2076.06
401.24	2115.84
401.44	2155.63
401.63	2125.21
401.82	2127.55
402.01	2225.85
402.21	2087.76
402.40	2230.53
402.59	2193.08
402.78	2221.17
402.97	2200.10
403.17	2317.13
403.36	2204.78
403.55	2286.70
403.74	2303.09
403.93	2438.84
404.13	2375.64
404.32	2197.76
404.51	2441.18
404.70	2406.07
404.89	2415.43
405.09	2520.76
405.28	2434.16
405.47	2476.29
405.66	2520.76
405.85	2614.38
406.05	2520.76
406.24	2764.17
406.43	2518.42
406.62	2602.68
406.81	2616.72
407.00	2647.15
407.20	2605.02
407.39	2743.11
407.58	2696.30
407.77	2782.90
407.96	2766.51
408.15	2722.04
408.34	2754.81
408.54	2836.73
408.73	2869.50
408.92	2944.39
409.11	2935.03
409.30	2885.88
409.49	2913.97
409.68	2988.86
409.87	3094.19
410.07	3052.06
410.26	3033.33
410.45	3016.95
410.64	3028.65
410.83	3084.83
411.02	2984.18
411.21	3178.45
411.40	3148.02
411.59	3344.63
411.78	3316.54
411.98	3382.07
412.17	3386.76
412.36	3225.26
412.55	3243.98
412.74	3492.08
412.93	3353.99
413.12	3478.04
413.31	3611.45
413.50	3541.23
413.69	3583.36
413.88	3620.81
414.07	3744.86
414.26	3625.49
414.45	3583.36
414.64	3775.28
414.83	3756.56
415.02	3908.69
415.22	3857.20
415.41	3913.38
415.60	3932.10
415.79	4028.06
415.98	4011.68
416.17	3995.29
416.36	3889.97
416.55	4037.42
416.74	4098.28
416.93	4086.58
417.12	4056.15
417.31	4107.64
417.50	4184.88
417.69	4341.69
417.88	4292.54
418.07	4386.16
418.26	4409.57
418.45	4313.61
418.64	4489.15
418.83	4479.79
419.02	4540.64
419.21	4477.44
419.39	4638.94
419.58	4615.54
419.77	4547.66
419.96	4587.45
420.15	4533.62
420.34	4664.69
420.53	4564.04
420.72	4681.07
420.91	4664.69
421.10	4720.86
421.29	4760.65
421.48	4868.31
421.67	4835.55
421.86	4910.44
422.05	4784.06
422.24	4959.60
422.43	5032.15
422.61	4961.94
422.80	4905.76
422.99	4952.57
423.18	4851.93
423.37	5132.79
423.56	4924.49
423.75	4954.91
423.94	4917.47
424.13	4634.26
424.32	4716.18
424.50	5116.41
424.69	5036.83
424.88	5198.33
425.07	4959.60
425.26	4999.38
425.45	5013.43
425.64	5043.85
425.83	5043.85
426.01	5186.63
426.20	5128.11
426.39	5167.90
426.58	5217.05
426.77	5135.14
426.96	5144.50
427.15	5233.44
427.33	5153.86
427.52	5238.12
427.71	5357.49
427.90	5331.74
428.09	5362.17
428.28	5509.62
428.46	5359.83
428.65	5320.04
428.84	5748.36
429.03	5640.69
429.22	5408.98
429.40	5551.75
429.59	5547.07
429.78	5373.87
429.97	5495.58
430.16	5551.75
430.34	5696.86
430.53	5832.62
430.72	5706.23
430.91	5746.02
431.10	5701.54
431.28	5764.74
431.47	5982.41
431.66	5849.00
431.85	5841.98
432.03	6031.56
432.22	6171.99
432.41	6071.35
432.60	5881.77
432.79	6090.07
432.97	6141.57
433.16	5933.26
433.35	6080.71
433.54	6012.84
433.72	6317.11
433.91	6157.95
434.10	6340.51
434.28	6157.95
434.47	6193.06
434.66	6427.11
434.85	6284.34
435.03	6450.52
435.22	6361.58
435.41	6595.63
435.59	6434.13
435.78	6553.50
435.97	6565.20
436.16	6654.14
436.34	6586.27
436.53	6658.82
436.72	6782.87
436.90	6478.60
437.09	6656.48
437.28	6450.52
437.46	6703.29
437.65	6736.06
437.84	6792.23
438.02	6925.65
438.21	6829.68
438.40	6785.21
438.58	7077.78
438.77	7157.36
438.96	7073.10
439.14	7105.87
439.33	7077.78
439.52	7194.81
439.70	7494.40
439.89	7581.00
440.08	7412.48
440.26	7609.08
440.45	7478.01
440.63	7679.30
440.82	7536.52
441.01	7424.18
441.19	7829.09
441.38	7822.07
441.57	7756.54
441.75	7805.69
441.94	7995.27
442.12	8006.97
442.31	8056.12
442.50	8044.42
442.68	8175.49
442.87	8124.00
443.05	8184.85
443.24	8201.24
443.43	8215.28
443.61	8383.80
443.80	8329.97
443.98	8159.11
444.17	7981.23
444.35	8362.73
444.54	8479.76
444.73	8472.74
444.91	8475.08
445.10	8226.98
445.28	8435.29
445.47	8475.08
445.65	8205.92
445.84	8540.61
446.02	8507.85
446.21	8542.96
446.39	8624.87
446.58	8631.90
446.77	8823.82
446.95	8329.97
447.14	8538.27
447.32	8912.76
447.51	8767.65
447.69	8725.52
447.88	8704.45
448.06	8561.68
448.25	8688.07
448.43	8613.17
448.62	8659.98
448.80	8634.24
448.99	8872.97
449.17	8882.33
449.36	8683.39
449.54	9053.19
449.73	9235.75
449.91	9268.52
450.10	9191.28
450.28	9226.39
450.46	9432.36
450.65	9191.28
450.83	9163.20
451.02	9027.45
451.20	9284.91
451.39	9291.93
451.57	9172.56
451.76	9097.66
451.94	9357.46
452.13	9301.29
452.31	9441.72
452.49	9331.72
452.68	9497.89
452.86	9549.39
453.05	9685.14
453.23	9694.50
453.42	9343.42
453.60	9226.39
453.78	9851.31
453.97	9472.15
454.15	9703.86
454.34	9591.52
454.52	9841.95
454.70	9926.21
454.89	9989.41
455.07	9888.76
455.26	9916.85
455.44	10022.17
455.62	10230.48
455.81	9975.36
455.99	10073.67
456.17	10352.19
456.36	10214.10
456.54	10375.59
456.73	10420.06
456.91	10796.89
457.09	10607.31
457.28	10553.48
457.46	10281.97
457.64	10565.18
457.83	10572.20
458.01	10555.82
458.19	10803.91
458.38	10672.84
458.56	10808.59
458.74	10822.64
458.93	10736.04
459.11	10871.79
459.29	10974.77
459.48	10853.06
459.66	10750.08
459.84	11131.59
460.03	11234.57
460.21	11164.36
460.39	11110.52
460.57	11075.42
460.76	11269.68
460.94	11452.24
461.12	11375.00
461.31	11286.06
461.49	11330.53
461.67	11122.23
461.85	11543.52
462.04	11637.14
462.22	11559.91
462.40	11899.28
462.59	11674.59
462.77	11695.66
462.95	11896.94
463.13	11822.05
463.32	11676.93
463.50	11962.48
463.68	11875.88
463.86	11857.15
464.05	11831.41
464.23	11901.62
464.41	12056.10
464.59	11686.29
464.78	12411.86
464.96	12187.17
465.14	11896.94
465.32	12222.28
465.50	12482.08
465.69	12299.52
465.87	12243.34
466.05	12547.61
466.23	12184.83
466.41	12369.73
466.60	12807.41
466.78	12549.95
466.96	12329.94
467.14	12421.22
467.32	12688.04
467.51	12816.77
467.69	12287.81
467.87	12793.37
468.05	12638.89
468.23	12603.78
468.41	12692.73
468.60	12908.05
468.78	12856.56
468.96	12585.06
469.14	12999.34
469.32	12924.44
469.50	12709.11
469.69	13228.71
469.87	13371.48
470.05	13132.75
470.23	13387.86
470.41	13329.35
470.59	13462.76
470.77	13298.92
470.95	13486.17
471.14	13696.82
471.32	13462.76
471.50	13650.00
471.68	13408.93
471.86	13860.65
472.04	13767.03
472.22	14031.51
472.40	13853.63
472.58	14216.41
472.77	13877.04
472.95	14223.44
473.13	14934.96
473.31	14225.78
473.49	14403.66
473.67	14047.90
473.85	14265.57
474.03	14780.48
474.21	14698.56
474.39	14904.53
474.57	15061.35
474.75	14998.15
474.93	15094.11
475.12	15117.52
475.30	15475.62
475.48	15068.37
475.66	15480.30
475.84	15021.56
476.02	15564.56
476.20	15714.36
476.38	15665.21
476.56	16058.42
476.74	16262.04
476.92	16435.24
477.10	16006.92
477.28	16411.84
477.46	16444.60
477.64	16812.07
477.82	16631.85
478.00	17179.53
478.18	16910.37
478.36	17209.96
478.54	17376.14
478.72	17401.88
478.90	17406.56
479.08	18071.28
479.26	17804.46
479.44	17980.00
479.62	18092.34
479.80	18305.33
479.98	18450.44
480.16	18965.36
480.34	18501.93
480.52	19014.51
480.70	18637.69
480.88	18714.92
481.06	18757.05
481.24	19042.60
481.41	19372.61
481.59	19470.92
481.77	19733.06
481.95	19674.54
482.13	20093.50
482.31	19999.88
482.49	20500.75
482.67	20421.17
482.85	20748.85
483.03	21053.12
483.21	21156.10
483.39	20891.62
483.57	21144.40
483.74	21420.58
483.92	21612.51
484.10	21734.21
484.28	21818.47
484.46	22331.05
484.64	22745.33
484.82	22232.75
485.00	22998.10
485.18	23108.11
485.35	23124.49
485.53	23145.56
485.71	23410.04
485.89	24018.58
486.07	23620.69
486.25	24034.96
486.43	23772.82
486.61	24137.94
486.78	24325.19
486.96	24484.34
487.14	24854.15
487.32	24985.22
487.50	25043.73
487.68	25291.83
487.85	25605.46
488.03	25715.47
488.21	26274.85
488.39	26225.70
488.57	26778.07
488.75	26644.66
488.92	26719.56
489.10	27068.30
489.28	27311.71
489.46	27569.17
489.64	27381.93
489.81	27852.38
489.99	28107.49
490.17	28147.28
490.35	28383.68
490.53	28727.74
490.70	29006.26
490.88	28669.22
491.06	29455.64
491.24	28826.04
491.41	29378.40
491.59	29324.57
491.77	29401.81
491.95	29947.15
492.13	30057.16
492.30	30579.10
492.48	30338.02
492.66	30431.65
492.84	30700.81
493.01	30864.64
493.19	31007.42
493.37	31578.51
493.54	31335.09
493.72	31740.00
493.90	31878.10
494.08	32275.99
494.25	32919.63
494.43	32673.88
494.61	32753.46
494.79	32954.74
494.96	33343.27
495.14	33474.34
495.32	34052.45
495.49	33951.81
495.67	33736.48
495.85	34106.29
496.02	34176.50
496.20	34618.86
496.38	34541.63
496.55	34499.50
496.73	35159.53
496.91	35002.71
497.09	35316.34
497.26	35337.41
497.44	35175.91
497.62	35641.68
497.79	36198.73
497.97	35545.72
498.14	36713.64
498.32	36634.06
498.50	36521.72
498.67	36926.63
498.85	36992.17
499.03	37205.16
499.20	37244.94
499.38	37364.31
499.56	37354.95
499.73	37354.95
499.91	38007.96
500.08	38251.38
500.26	37874.55
500.44	38614.16
500.61	38267.76
500.79	37986.89
500.97	38340.32
501.14	39037.80
501.32	38958.22
501.49	38895.02
501.67	39498.88
501.84	39463.77
502.02	39440.37
502.20	39814.85
502.37	39772.72
502.55	39864.00
502.72	40219.77
502.90	40168.27
503.07	39723.57
503.25	40268.92
503.43	40128.48
503.60	40832.99
503.78	40591.91
503.95	40624.68
504.13	40821.28
504.30	41251.94
504.48	40910.22
504.65	41509.40
504.83	41167.68
505.01	42061.77
505.18	41801.97
505.36	42213.90
505.53	41731.75
505.71	41944.74
505.88	42333.27
506.06	41778.56
506.23	42548.60
506.41	42396.46
506.58	42511.15
506.76	42679.67
506.93	42773.29
507.11	43023.73
507.28	43105.65
507.46	43470.77
507.63	43309.27
507.81	43847.60
507.98	43519.92
508.16	43861.64
508.33	43924.83
508.50	43927.17
508.68	44034.84
508.85	44397.62
509.03	44353.15
509.20	44479.54
509.38	45069.36
509.55	45127.87
509.73	44739.34
509.90	45125.53
510.08	44999.14
510.25	45478.95
510.42	45230.85
510.60	45399.37
510.77	45895.56
510.95	46054.72
511.12	46223.24
511.30	45361.92
511.47	46000.89
511.64	46019.61
511.82	46082.81
511.99	45860.46
512.17	46321.54
512.34	46433.89
512.51	46651.56
512.69	46674.96
512.86	46546.23
513.04	47047.11
513.21	47585.43
513.38	47213.29
513.56	47203.92
513.73	46955.83
513.90	47409.89
514.08	47665.01
514.25	47515.22
514.43	48205.67
514.60	48055.88
514.77	47660.33
514.95	48343.77
515.12	47885.02
515.29	48013.75
515.47	48531.01
515.64	48720.59
515.81	48182.27
515.99	48554.41
516.16	49081.03
516.33	48736.98
516.51	48835.28
516.68	49125.50
516.85	49237.85
517.03	49497.65
517.20	49340.83
517.37	49085.72
517.54	49371.26
517.72	49272.96
517.89	49867.45
518.06	49778.51
518.24	50138.96
518.41	49640.42
518.58	50110.87
518.75	49736.38
518.93	50574.30
519.10	50153.00
519.27	50550.89
519.45	50356.63
519.62	50433.86
519.79	50576.64
519.96	50422.16
520.14	50424.50
520.31	50665.58
520.48	51213.26
520.65	50932.40
520.83	51016.66
521.00	51136.02
521.17	51075.17
521.34	51323.27
521.52	51044.74
521.69	51058.79
521.86	51444.98
522.03	51732.86
522.20	51512.85
522.38	51746.90
522.55	51833.50
522.72	51789.03
522.89	52018.41
523.07	52109.69
523.24	51859.25
523.41	52240.76
523.58	52072.24
523.75	52231.40
523.92	52538.01
524.10	52229.05
524.27	52584.82
524.44	52404.59
524.61	52486.51
524.78	52610.56
524.96	52594.18
525.13	52877.38
525.30	53073.99
525.47	53034.20
525.64	52861.00
525.81	52975.69
525.98	53036.54
526.16	52837.59
526.33	53102.07
526.50	53804.24
526.67	53296.34
526.84	53350.17
527.01	53099.73
527.18	53137.18
527.36	53420.39
527.53	53574.86
527.70	53947.01
527.87	53734.02
528.04	53523.37
528.21	53808.92
528.38	53633.38
528.55	54075.74
528.72	53769.13
528.89	53935.30
529.07	53860.41
529.24	53968.07
529.41	54106.16
529.58	54450.22
529.75	53890.83
529.92	53949.35
530.09	54188.08
530.26	54057.01
530.43	54471.29
530.60	54232.55
530.77	54059.35
530.94	54387.03
531.11	54244.26
531.28	54417.46
531.46	54707.68
531.63	54607.04
531.80	54415.11
531.97	54930.03
532.14	55114.94
532.31	54972.16
532.48	54967.48
532.65	55285.79
532.82	54878.54
532.99	55269.41
533.16	54768.54
533.33	55241.32
533.50	55351.33
533.67	55351.33
533.84	55049.40
534.01	55278.77
534.18	55262.39
534.35	55590.06
534.52	55451.97
534.69	55793.69
534.86	55786.67
535.03	55576.02
535.20	55664.96
535.37	55615.81
535.54	55576.02
535.71	55576.02
535.88	55686.03
536.05	55763.26
536.22	55913.06
536.38	55838.16
536.55	56053.49
536.72	56140.09
536.89	56041.79
537.06	56065.19
537.23	56259.46
537.40	55927.10
537.57	56184.56
537.74	55945.83
537.91	56296.91
538.08	56158.81
538.25	56238.39
538.42	56273.50
538.59	56346.06
538.75	56004.34
538.92	56432.66
539.09	56561.39
539.26	56498.19
539.43	56252.44
539.60	56523.94
539.77	56605.86
539.94	56898.42
540.11	56743.95
540.28	56676.07
540.44	56666.71
540.61	56804.80
540.78	56697.14
540.95	56652.67
541.12	56655.01
541.29	57010.77
541.46	57169.93
541.62	56875.02
541.79	57160.56
541.96	56898.42
542.13	56886.72
542.30	56870.34
542.47	57343.12
542.63	57165.24
542.80	57256.53
542.97	57495.26
543.14	57633.35
543.31	57237.80
543.48	57584.20
543.64	57698.89
543.81	57780.81
543.98	57677.82
544.15	57958.69
544.32	57659.10
544.48	57968.05
544.65	57724.63
544.82	57724.63
544.99	57441.43
545.16	58003.16
545.32	57790.17
545.49	58101.46
545.66	57951.66
545.83	57858.04
546.00	57956.35
546.16	57982.09
546.33	58052.31
546.50	57806.55
546.67	58007.84
546.83	57635.69
547.00	58031.24
547.17	58085.07
547.34	57993.79
547.50	58440.84
547.67	58494.67
547.84	58471.26
548.00	58323.81
548.17	58316.79
548.34	58557.86
548.51	58457.22
548.67	58541.48
548.84	58501.69
549.01	58363.60
549.18	58440.84
549.34	58475.94
549.51	58639.78
549.68	58731.06
549.84	58740.42
550.01	58745.11
550.18	58628.08
550.34	58768.51
550.51	58745.11
550.68	58803.62
550.84	58539.14
551.01	58843.41
551.18	58820.00
551.34	58810.64
551.51	58803.62
551.68	58932.35
551.84	58913.62
552.01	58777.87
552.18	58925.33
552.34	58674.89
552.51	58932.35
552.68	59032.99
552.84	58930.01
553.01	59126.61
553.18	59299.81
553.34	59128.95
553.51	59143.00
553.67	58913.62
553.84	59229.60
554.01	59147.68
554.17	59175.76
554.34	59419.18
554.51	59264.70
554.67	59454.29
554.84	59210.87
555.00	59292.79
555.17	59297.47
555.33	59339.60
555.50	59068.10
555.67	59281.09
555.83	59302.15
556.00	59384.07
556.16	59664.94
556.33	59737.49
556.50	59522.16
556.66	59709.41
556.83	59449.61
556.99	59798.35
557.16	59791.33
557.32	59856.86
557.49	59999.63
557.65	59543.23
557.82	59641.53
557.98	59756.22
558.15	59817.07
558.32	59835.80
558.48	59681.32
558.65	59622.81
558.81	59648.55
558.98	59955.16
559.14	59763.24
559.31	60058.15
559.47	60137.72
559.64	59985.59
559.80	59936.44
559.97	60165.81
560.13	60027.72
560.30	60151.77
560.46	60182.19
560.63	59973.89
560.79	60158.79
560.96	60205.60
561.12	60299.22
561.29	59898.99
561.45	60058.15
561.61	60203.26
561.78	59994.95
561.94	59943.46
562.11	60399.86
562.27	60121.34
562.44	60079.21
562.60	60406.89
562.77	60212.62
562.93	60067.51
563.10	60301.56
563.26	60362.42
563.42	60434.97
563.59	60383.48
563.75	60172.83
563.92	60491.15
564.08	60254.75
564.24	60303.90
564.41	60395.18
564.57	60491.15
564.74	60299.22
564.90	60519.23
565.07	60313.26
565.23	60430.29
565.39	60285.18
565.56	60275.82
565.72	60371.78
565.88	60528.59
566.05	60559.02
566.21	60413.91
566.38	60523.91
566.54	60591.79
566.70	60804.78
566.87	60568.38
567.03	60589.45
567.19	60762.65
567.36	60762.65
567.52	60514.55
567.68	60828.18
567.85	60591.79
568.01	60807.12
568.17	60580.09
568.34	60816.48
568.50	60582.43
568.66	60399.86
568.83	60797.76
568.99	60743.92
569.15	60596.47
569.32	60584.77
569.48	60537.96
569.64	60746.26
569.81	60959.25
569.97	60610.51
570.13	60701.79
570.30	60718.18
570.46	60825.84
570.62	60764.99
570.78	60837.54
570.95	60811.80
571.11	60907.76
571.27	60830.52
571.43	60882.02
571.60	61008.40
571.76	60802.44
571.92	61055.21
572.09	60736.90
572.25	60942.87
572.41	60926.49
572.57	60835.20
572.74	61172.24
572.90	60959.25
573.06	60910.10
573.22	60921.80
573.38	60795.42
573.55	60722.86
573.71	61216.71
573.87	61097.34
574.03	60931.17
574.20	60968.61
574.36	60921.80
574.52	60947.55
574.68	61071.60
574.84	61130.11
575.01	61235.44
575.17	60947.55
575.33	61045.85
575.49	61066.92
575.65	61165.22
575.82	61106.71
575.98	61216.71
576.14	61338.42
576.30	60994.36
576.46	60992.02
576.62	60931.17
576.79	61137.13
576.95	60879.67
577.11	61265.86
577.27	61160.54
577.43	61097.34
577.59	61038.83
577.75	61080.96
577.92	60750.94
578.08	61085.64
578.24	61127.77
578.40	61207.35
578.56	61352.46
578.72	61212.03
578.88	61230.75
579.04	61317.35
579.21	61307.99
579.37	61228.41
579.53	61415.66
579.69	61034.15
579.85	61197.99
580.01	61031.81
580.17	61024.79
580.33	61329.06
580.49	61221.39
580.65	61059.90
580.82	61221.39
580.98	61165.22
581.14	61066.92
581.30	61322.04
581.46	61134.79
581.62	61350.12
581.78	61209.69
581.94	61254.16
582.10	61092.66
582.26	61329.06
582.42	61022.45
582.58	61219.05
582.74	61080.96
582.90	61179.26
583.06	61300.97
583.22	61193.31
583.38	61303.31
583.54	61432.04
583.70	61329.06
583.86	61333.74
584.02	61240.12
584.18	61630.99
584.34	61073.94
584.50	61474.17
584.66	61235.44
584.82	61010.74
584.98	61471.83
585.14	61289.27
585.30	61237.78
585.46	61137.13
585.62	61394.59
585.78	61310.33
585.94	61298.63
586.10	61336.08
586.26	61270.54
586.42	61282.25
586.58	61387.57
586.74	61563.11
586.90	61375.87
587.06	61179.26
587.22	61462.47
587.38	61230.75
587.54	61462.47
587.70	61340.76
587.86	61513.96
588.02	61462.47
588.18	61516.30
588.34	61343.10
588.49	61315.01
