SpectraSuite Data File
++++++++++++++++++++++++++++++++++++
Date: Fri Oct 25 11:33:48 EDT 2013
User: price-jones
Dark Spectrum Present: No
Reference Spectrum Present: No
Number of Sampled Component Spectra: 1
Spectrometers: USB2+H05261
Integration Time (usec): 100000 (USB2+H05261)
Spectra Averaged: 1 (USB2+H05261)
Boxcar Smoothing: 0 (USB2+H05261)
Correct for Electrical Dark: No (USB2+H05261)
Strobe/Lamp Enabled: No (USB2+H05261)
Correct for Detector Non-linearity: No (USB2+H05261)
Correct for Stray Light: No (USB2+H05261)
Number of Pixels in Processed Spectrum: 2048
>>>>>Begin Processed Spectral Data<<<<<
365.73	252.78
365.92	252.78
366.12	252.78
366.32	255.12
366.52	182.56
366.72	252.78
366.91	140.43
367.11	231.71
367.31	140.43
367.51	198.95
367.70	236.39
367.90	231.71
368.10	184.90
368.30	88.94
368.49	196.60
368.69	175.54
368.89	203.63
369.09	177.88
369.28	271.50
369.48	252.78
369.68	175.54
369.87	194.26
370.07	238.73
370.27	259.80
370.47	257.46
370.66	465.77
370.86	416.62
371.06	479.81
371.25	491.51
371.45	547.69
371.65	540.66
371.84	587.47
372.04	486.83
372.24	528.96
372.44	491.51
372.63	582.79
372.83	587.47
373.03	564.07
373.22	533.64
373.42	568.75
373.62	561.73
373.81	500.87
374.01	620.24
374.21	645.99
374.40	685.78
374.60	739.61
374.79	681.10
374.99	671.73
375.19	594.50
375.38	676.41
375.58	634.29
375.78	676.41
375.97	734.93
376.17	683.44
376.37	648.33
376.56	660.03
376.76	683.44
376.95	695.14
377.15	671.73
377.35	587.47
377.54	690.46
377.74	683.44
377.93	664.71
378.13	678.76
378.33	695.14
378.52	702.16
378.72	653.01
378.91	727.91
379.11	744.29
379.31	704.50
379.50	683.44
379.70	727.91
379.89	812.17
380.09	737.27
380.28	664.71
380.48	755.99
380.68	739.61
380.87	706.84
381.07	809.83
381.26	816.85
381.46	802.80
381.65	795.78
381.85	718.54
382.04	720.88
382.24	802.80
382.43	798.12
382.63	786.42
382.83	779.40
383.02	908.13
383.22	795.78
383.41	784.08
383.61	755.99
383.80	767.70
384.00	751.31
384.19	697.48
384.39	835.57
384.58	753.65
384.78	849.61
384.97	854.30
385.17	833.23
385.36	851.96
385.56	917.49
385.75	791.10
385.95	882.38
386.14	889.40
386.34	835.57
386.53	931.53
386.72	870.68
386.92	919.83
387.11	828.55
387.31	858.98
387.50	861.32
387.70	894.08
387.89	917.49
388.09	908.13
388.28	931.53
388.48	887.06
388.67	821.53
388.86	851.96
389.06	985.37
389.25	973.66
389.45	898.77
389.64	924.51
389.84	922.17
390.03	966.64
390.22	954.94
390.42	985.37
390.61	910.47
390.81	940.90
391.00	919.83
391.19	1013.45
391.39	985.37
391.58	999.41
391.78	919.83
391.97	1057.92
392.16	999.41
392.36	1100.05
392.55	1097.71
392.75	1109.41
392.94	1008.77
393.13	1100.05
393.33	992.39
393.52	1076.65
393.71	1118.78
393.91	1097.71
394.10	1081.33
394.29	1109.41
394.49	1146.86
394.68	1158.57
394.88	1076.65
395.07	1160.91
395.26	1137.50
395.46	1128.14
395.65	1104.73
395.84	1214.74
396.04	1270.91
396.23	1172.61
396.42	1289.64
396.62	1217.08
396.81	1172.61
397.00	1179.63
397.19	1205.38
397.39	1256.87
397.58	1167.93
397.77	1224.10
397.97	1320.06
398.16	1231.12
398.35	1359.85
398.55	1291.98
398.74	1310.70
398.93	1336.45
399.12	1378.58
399.32	1301.34
399.51	1284.95
399.70	1345.81
399.90	1397.30
400.09	1425.39
400.28	1497.94
400.47	1362.19
400.67	1439.43
400.86	1355.17
401.05	1350.49
401.24	1460.49
401.44	1357.51
401.63	1434.75
401.82	1511.99
402.01	1352.83
402.21	1406.66
402.40	1434.75
402.59	1427.73
402.78	1432.41
402.97	1514.33
403.17	1544.75
403.36	1607.95
403.55	1495.60
403.74	1554.12
403.93	1519.01
404.13	1638.38
404.32	1577.52
404.51	1685.19
404.70	1708.59
404.89	1678.16
405.09	1755.40
405.28	1629.01
405.47	1619.65
405.66	1666.46
405.85	1724.97
406.05	1624.33
406.24	1682.85
406.43	1732.00
406.62	1837.32
406.81	1858.39
407.00	1715.61
407.20	1727.32
407.39	1774.13
407.58	1811.57
407.77	1870.09
407.96	1912.22
408.15	1846.68
408.34	1743.70
408.54	1942.64
408.73	1954.35
408.92	1881.79
409.11	1961.37
409.30	1933.28
409.49	2008.18
409.68	1959.03
409.87	1942.64
410.07	1942.64
410.26	2024.56
410.45	2101.80
410.64	2073.71
410.83	2172.02
411.02	2062.01
411.21	2183.72
411.40	2167.34
411.59	2228.19
411.78	2223.51
411.98	2160.31
412.17	2190.74
412.36	2235.21
412.55	2356.92
412.74	2347.56
412.93	2359.26
413.12	2260.96
413.31	2506.71
413.50	2448.20
413.69	2380.32
413.88	2445.86
414.07	2476.29
414.26	2612.04
414.45	2567.57
414.64	2483.31
414.83	2523.10
415.02	2497.35
415.22	2600.34
415.41	2677.57
415.60	2677.57
415.79	2651.83
415.98	2782.90
416.17	2672.89
416.36	2726.72
416.55	2754.81
416.74	2881.20
416.93	2761.83
417.12	2932.69
417.31	2815.66
417.50	2867.16
417.69	3002.91
417.88	2953.76
418.07	2946.73
418.26	3021.63
418.45	2949.08
418.64	3033.33
418.83	3014.61
419.02	3075.46
419.21	3197.17
419.39	3096.53
419.58	3098.87
419.77	3152.70
419.96	3023.97
420.15	3190.15
420.34	3159.72
420.53	3183.13
420.72	3220.58
420.91	3321.22
421.10	3370.37
421.29	3295.47
421.48	3311.86
421.67	3229.94
421.86	3316.54
422.05	3318.88
422.24	3302.50
422.43	3288.45
422.61	3269.73
422.80	3419.52
422.99	3351.65
423.18	3412.50
423.37	3459.31
423.56	3379.73
423.75	3438.25
423.94	3218.24
424.13	3262.71
424.32	3201.85
424.50	3431.23
424.69	3550.59
424.88	3421.86
425.07	3419.52
425.26	3445.27
425.45	3370.37
425.64	3421.86
425.83	3510.80
426.01	3536.55
426.20	3482.72
426.39	3463.99
426.58	3475.70
426.77	3513.14
426.96	3480.38
427.15	3557.61
427.33	3595.06
427.52	3566.98
427.71	3730.81
427.90	3646.55
428.09	3796.35
428.28	3655.92
428.46	3723.79
428.65	3693.37
428.84	3744.86
429.03	3779.97
429.22	3620.81
429.40	3742.52
429.59	3756.56
429.78	3620.81
429.97	3508.46
430.16	3763.58
430.34	3922.74
430.53	3789.33
430.72	3871.25
430.91	3911.04
431.10	3904.01
431.28	3981.25
431.47	4011.68
431.66	4117.00
431.85	3878.27
432.03	3946.14
432.22	4014.02
432.41	3960.19
432.60	3971.89
432.79	4011.68
432.97	4121.68
433.16	4095.94
433.35	4154.45
433.54	4180.20
433.72	4355.74
433.91	4231.69
434.10	4161.47
434.28	4273.82
434.47	4269.14
434.66	4205.94
434.85	4285.52
435.03	4292.54
435.22	4285.52
435.41	4454.04
435.59	4327.65
435.78	4334.67
435.97	4407.23
436.16	4290.20
436.34	4521.92
436.53	4432.97
436.72	4557.02
436.90	4444.68
437.09	4615.54
437.28	4519.57
437.46	4472.76
437.65	4552.34
437.84	4690.43
438.02	4456.38
438.21	4578.09
438.40	4636.60
438.58	4578.09
438.77	4823.84
438.96	4706.82
439.14	4910.44
439.33	4919.81
439.52	4863.63
439.70	4868.31
439.89	5125.77
440.08	5013.43
440.26	5083.64
440.45	5135.14
440.63	5170.24
440.82	5203.01
441.01	5078.96
441.19	5270.89
441.38	5233.44
441.57	5221.74
441.75	5277.91
441.94	5423.02
442.12	5324.72
442.31	5411.32
442.50	5593.88
442.68	5348.12
442.87	5544.73
443.05	5577.50
443.24	5549.41
443.43	5474.51
443.61	5645.37
443.80	5769.42
443.98	5474.51
444.17	5266.21
444.35	5462.81
444.54	5558.77
444.73	5551.75
444.91	5614.95
445.10	5729.63
445.28	5788.14
445.47	5748.36
445.65	5753.04
445.84	5809.21
446.02	5650.05
446.21	5746.02
446.39	5518.98
446.58	5596.22
446.77	5841.98
446.95	5502.60
447.14	5689.84
447.32	5809.21
447.51	5713.25
447.69	5605.58
447.88	5680.48
448.06	5975.39
448.25	5738.99
448.43	5781.12
448.62	5961.34
448.80	5760.06
448.99	5959.00
449.17	5980.07
449.36	5951.98
449.54	6047.94
449.73	5996.45
449.91	6101.78
450.10	6141.57
450.28	6139.23
450.46	6141.57
450.65	6235.19
450.83	6232.85
451.02	6160.29
451.20	6101.78
451.39	6282.00
451.57	6179.01
451.76	6090.07
451.94	6148.59
452.13	6289.02
452.31	6349.87
452.49	6202.42
452.68	6310.08
452.86	6232.85
453.05	6420.09
453.23	6621.38
453.42	6319.45
453.60	6267.95
453.78	6359.24
453.97	6546.48
454.15	6541.80
454.34	6354.55
454.52	6387.32
454.70	6539.46
454.89	6356.90
455.07	6494.99
455.26	6658.82
455.44	6745.42
455.62	6759.47
455.81	6703.29
455.99	6942.03
456.17	6766.49
456.36	6817.98
456.54	6810.96
456.73	6951.39
456.91	7005.22
457.09	7042.67
457.28	7096.50
457.46	7138.63
457.64	7190.13
457.83	7059.06
458.01	7054.37
458.19	7269.70
458.38	7023.95
458.56	7262.68
458.74	7152.68
458.93	7138.63
459.11	7309.49
459.29	7265.02
459.48	7262.68
459.66	7159.70
459.84	7250.98
460.03	7515.46
460.21	7302.47
460.39	7208.85
460.57	7438.22
460.76	7274.38
460.94	7522.48
461.12	7440.56
461.31	7620.78
461.49	7468.65
461.67	7433.54
461.85	7698.02
462.04	7602.06
462.22	7873.56
462.40	7829.09
462.59	7779.94
462.77	7730.79
462.95	7786.96
463.13	7796.32
463.32	7859.52
463.50	7843.14
463.68	7932.08
463.86	7981.23
464.05	7925.05
464.23	7854.84
464.41	7939.10
464.59	7864.20
464.78	8049.10
464.96	7866.54
465.14	7964.84
465.32	7953.14
465.50	8121.66
465.69	8081.87
465.87	8135.70
466.05	7981.23
466.23	8287.84
466.41	8095.91
466.60	8388.48
466.78	8100.59
466.96	8210.60
467.14	8400.18
467.32	8163.79
467.51	8086.55
467.69	8259.75
467.87	8236.35
468.05	8329.97
468.23	8255.07
468.41	8491.46
468.60	8559.34
468.78	8531.25
468.96	8353.37
469.14	8517.21
469.32	8760.63
469.50	8271.45
469.69	8723.18
469.87	8641.26
470.05	8645.94
470.23	8760.63
470.41	8727.86
470.59	8779.35
470.77	8879.99
470.95	9006.38
471.14	8936.17
471.32	8760.63
471.50	8945.53
471.68	9029.79
471.86	9149.15
472.04	9165.54
472.22	9210.01
472.40	9011.06
472.58	9181.92
472.77	9362.14
472.95	9579.81
473.13	9631.30
473.31	9469.81
473.49	9451.08
473.67	9341.08
473.85	9612.58
474.03	9640.67
474.21	9657.05
474.39	9872.38
474.57	9771.74
474.75	9776.42
474.93	9813.87
475.12	9858.34
475.30	10155.58
475.48	10225.80
475.66	10253.89
475.84	10054.94
476.02	10394.32
476.20	10277.29
476.38	10363.89
476.56	10719.65
476.74	10548.79
476.92	10459.85
477.10	10249.21
477.28	10604.97
477.46	10579.22
477.64	10761.78
477.82	11033.29
478.00	11105.84
478.18	10892.85
478.36	11239.25
478.54	11309.47
478.72	11140.95
478.90	11529.48
479.08	11351.60
479.26	11857.15
479.44	11882.90
479.62	11744.81
479.80	11782.26
479.98	11808.00
480.16	12107.59
480.34	11955.46
480.52	12276.11
480.70	12028.01
480.88	12194.19
481.06	12463.35
481.24	12294.83
481.41	12524.21
481.59	12889.33
481.77	12685.70
481.95	12865.92
482.13	12994.65
482.31	13181.90
482.49	13163.17
482.67	13160.83
482.85	13408.93
483.03	13483.83
483.21	13717.88
483.39	13933.21
483.57	13736.60
483.74	13825.54
483.92	14232.80
484.10	14052.58
484.28	14317.06
484.46	14527.71
484.64	14771.12
484.82	14347.48
485.00	14635.37
485.18	14796.87
485.35	15171.35
485.53	15012.20
485.71	15012.20
485.89	15580.95
486.07	15255.61
486.25	15510.73
486.43	15426.47
486.61	15800.96
486.78	15864.15
486.96	16119.27
487.14	16264.38
487.32	16271.40
487.50	16425.88
487.68	16444.60
487.85	16369.71
488.03	16526.52
488.21	16926.75
488.39	16849.52
488.57	17326.99
488.75	17224.00
488.92	17399.54
489.10	17706.15
489.28	17551.68
489.46	17776.37
489.64	17900.42
489.81	17942.55
489.99	18038.51
490.17	18506.62
490.35	18420.02
490.53	18628.32
490.70	18611.94
490.88	18738.33
491.06	18986.43
491.24	18710.24
491.41	18810.89
491.59	18939.62
491.77	19204.10
491.95	19372.61
492.13	19559.86
492.30	19644.12
492.48	19630.07
492.66	20081.80
492.84	19964.77
493.01	20095.84
493.19	19983.49
493.37	20348.62
493.54	20713.74
493.72	20453.94
493.90	20753.53
494.08	20870.56
494.25	21163.12
494.43	21113.97
494.61	21294.19
494.79	21436.97
494.96	21362.07
495.14	21387.82
495.32	21888.69
495.49	21521.23
495.67	21839.54
495.85	21958.91
496.02	21994.01
496.20	22401.27
496.38	22391.91
496.55	22141.47
496.73	23026.19
496.91	22644.68
497.09	22726.60
497.26	23063.64
497.44	22876.40
497.62	23094.07
497.79	23154.92
497.97	22984.06
498.14	23433.44
498.32	23381.95
498.50	23882.83
498.67	24137.94
498.85	23775.16
499.03	23948.36
499.20	24322.85
499.38	23953.04
499.56	24320.51
499.73	24538.18
499.91	24414.13
500.08	24702.01
500.26	24486.68
500.44	24854.15
500.61	24861.17
500.79	25137.35
500.97	24730.10
501.14	24800.32
501.32	25488.43
501.49	25256.72
501.67	25436.94
501.84	25420.56
502.02	25518.86
502.20	25420.56
502.37	25577.37
502.55	25710.78
502.72	25736.53
502.90	25872.28
503.07	26040.80
503.25	26108.68
503.43	26192.94
503.60	26490.18
503.78	26162.51
503.95	26501.89
504.13	26794.45
504.30	26546.36
504.48	26707.85
504.65	26408.26
504.83	27185.32
505.01	27260.22
505.18	27080.00
505.36	27463.85
505.53	26953.61
505.71	27454.48
505.88	27325.75
506.06	27058.93
506.23	27505.98
506.41	27578.53
506.58	27498.95
506.76	27744.71
506.93	27910.89
507.11	27899.19
507.28	28222.18
507.46	27915.57
507.63	28442.19
507.81	28699.65
507.98	28084.09
508.16	28563.90
508.33	28730.08
508.50	28786.25
508.68	28603.69
508.85	29071.79
509.03	28994.56
509.20	29036.69
509.38	29301.17
509.55	28975.83
509.73	29270.74
509.90	29539.90
510.08	29179.46
510.25	29727.14
510.42	29619.48
510.60	30141.42
510.77	30340.36
510.95	30321.64
511.12	29750.55
511.30	29881.62
511.47	30162.48
511.64	29935.45
511.82	30373.13
511.99	30443.35
512.17	30384.83
512.34	30429.30
512.51	30780.39
512.69	31079.97
512.86	30801.45
513.04	30913.80
513.21	31007.42
513.38	31161.89
513.56	31035.50
513.73	31131.47
513.90	31749.37
514.08	31005.08
514.25	31538.72
514.43	31215.72
514.60	31672.13
514.77	31646.38
514.95	31686.17
515.12	31742.35
515.29	31714.26
515.47	32093.43
515.64	32383.65
515.81	31871.07
515.99	32128.53
516.16	32730.05
516.33	32430.46
516.51	32470.25
516.68	32533.45
516.85	32561.53
517.03	32992.19
517.20	32617.71
517.37	32425.78
517.54	32730.05
517.72	32456.21
517.89	33116.24
518.06	33214.54
518.24	32861.12
518.41	33123.26
518.58	32938.36
518.75	33209.86
518.93	33202.84
519.10	33343.27
519.27	33366.68
519.45	33558.60
519.62	33666.27
519.79	33771.59
519.96	33582.01
520.14	33722.44
520.31	33799.68
520.48	34267.78
520.65	34125.01
520.83	34424.60
521.00	34529.92
521.17	34352.04
521.34	34429.28
521.52	34345.02
521.69	34665.67
521.86	34639.93
522.03	34513.54
522.20	34962.92
522.38	35012.07
522.55	34972.28
522.72	34799.08
522.89	35016.75
523.07	35026.12
523.24	35264.85
523.41	35866.37
523.58	34974.63
523.75	35651.04
523.92	35058.88
524.10	35737.64
524.27	35356.13
524.44	35496.56
524.61	35920.20
524.78	36105.10
524.96	35756.36
525.13	36004.46
525.30	36107.44
525.47	35967.01
525.64	35999.78
525.81	36348.52
525.98	36062.97
526.16	36257.24
526.33	36156.60
526.50	36718.32
526.67	36458.52
526.84	36538.10
527.01	36437.46
527.18	36140.21
527.36	36856.42
527.53	37008.55
527.70	37038.98
527.87	37104.51
528.04	36861.10
528.21	36980.46
528.38	36940.68
528.55	37102.17
528.72	37212.18
528.89	37010.89
529.07	37319.84
529.24	36891.52
529.41	37490.70
529.58	37528.15
529.75	37720.07
529.92	37310.48
530.09	37427.51
530.26	37530.49
530.43	38026.68
530.60	37511.77
530.77	37858.17
530.94	37368.99
531.11	37968.17
531.28	37841.78
531.46	38029.02
531.63	38080.52
531.80	37872.21
531.97	38340.32
532.14	38073.49
532.31	38398.83
532.48	38567.35
532.65	38651.61
532.82	38651.61
532.99	38768.63
533.16	37907.32
533.33	38611.82
533.50	38920.77
533.67	38539.26
533.84	38321.59
534.01	38864.60
534.18	38817.78
534.35	39309.30
534.52	38873.96
534.69	38852.89
534.86	39402.92
535.03	38883.32
535.20	39225.04
535.37	39342.06
535.54	39606.55
535.71	39566.76
535.88	39786.77
536.05	39503.56
536.22	39817.19
536.38	39847.62
536.55	39316.32
536.72	39908.47
536.89	39756.34
537.06	39770.38
537.23	40179.98
537.40	39545.69
537.57	39714.21
537.74	40023.16
537.91	39962.31
538.08	40116.78
538.25	40044.23
538.42	39831.24
538.59	40201.04
538.75	40336.79
538.92	40332.11
539.09	40430.41
539.26	40367.22
539.43	40432.75
539.60	40301.68
539.77	40886.82
539.94	41083.42
540.11	40617.66
540.28	40795.54
540.44	40713.62
540.61	40851.71
540.78	40610.64
540.95	40538.08
541.12	41127.89
541.29	40545.10
541.46	40945.33
541.62	41109.17
541.79	41338.54
541.96	40479.57
542.13	40259.55
542.30	40966.40
542.47	41441.53
542.63	41303.43
542.80	41265.99
542.97	41907.29
543.14	41701.32
543.31	41780.90
543.48	42202.20
543.64	41977.51
543.81	41928.36
543.98	41619.41
544.15	41801.97
544.32	42380.08
544.48	42387.10
544.65	42281.78
544.82	42087.51
544.99	41596.00
545.16	42560.30
545.32	42270.08
545.49	42436.25
545.66	42616.47
545.83	42766.27
546.00	42763.93
546.16	42218.58
546.33	42487.74
546.50	42707.76
546.67	42918.40
546.83	42129.64
547.00	42740.52
547.17	42447.96
547.34	42698.39
547.50	43012.02
547.67	43510.56
547.84	43199.27
548.00	43189.91
548.17	43526.94
548.34	43421.62
548.51	43035.43
548.67	43569.07
548.84	43054.15
549.01	43365.45
549.18	42983.94
549.34	43721.21
549.51	43225.01
549.68	43346.72
549.84	43494.18
550.01	43494.18
550.18	43012.02
550.34	43758.66
550.51	43700.14
550.68	43964.62
550.84	42972.24
551.01	43676.74
551.18	43377.15
551.34	43943.56
551.51	43615.88
551.68	44032.50
551.84	43718.87
552.01	43311.61
552.18	44278.25
552.34	43573.75
552.51	43831.21
552.68	43753.97
552.84	44023.14
553.01	43906.11
553.18	43901.43
553.34	44088.67
553.51	43976.33
553.67	44121.44
553.84	44294.64
554.01	44142.50
554.17	43966.96
554.34	44133.14
554.51	44201.02
554.67	44619.97
554.84	44449.11
555.00	44086.33
555.17	44100.37
555.33	44502.95
555.50	44601.25
555.67	44713.59
555.83	44264.21
556.00	44767.43
556.16	45130.21
556.33	44886.79
556.50	44713.59
556.66	45067.02
556.83	44830.62
556.99	45050.63
557.16	45549.17
557.32	45118.51
557.49	45263.62
557.65	44835.30
557.82	45263.62
557.98	45048.29
558.15	44989.78
558.32	44994.46
558.48	44767.43
558.65	45207.45
558.81	45406.39
558.98	45130.21
559.14	45074.04
559.31	45205.11
559.47	45275.32
559.64	45179.36
559.80	44945.31
559.97	45911.95
560.13	45041.27
560.30	45357.24
560.46	45478.95
560.63	45659.17
560.79	45823.01
560.96	45900.25
561.12	45045.95
561.29	45610.02
561.45	45612.36
561.61	45326.81
561.78	45743.43
561.94	45411.07
562.11	45556.19
562.27	45724.71
562.44	45642.79
562.60	46103.87
562.77	45677.90
562.93	45265.96
563.10	45858.12
563.26	45825.35
563.42	45958.76
563.59	45710.66
563.75	45722.37
563.92	45989.19
564.08	45659.17
564.24	45375.97
564.41	45998.55
564.57	46305.16
564.74	46141.32
564.90	45904.93
565.07	45820.67
565.23	46160.05
565.39	45935.35
565.56	46452.61
565.72	46129.62
565.88	45773.86
566.05	45839.39
566.21	46213.88
566.38	45970.46
566.54	46169.41
566.70	46178.77
566.87	46234.94
567.03	46272.39
567.19	46471.34
567.36	46279.41
567.52	46167.07
567.68	46618.79
567.85	46265.37
568.01	46700.71
568.17	46239.62
568.34	46618.79
568.50	46263.03
568.66	46220.90
568.83	46099.19
568.99	46749.86
569.15	46192.81
569.32	46124.94
569.48	46136.64
569.64	46621.13
569.81	46256.01
569.97	46401.12
570.13	46419.84
570.30	46529.85
570.46	46686.67
570.62	46443.25
570.78	46644.54
570.95	46562.62
571.11	46604.75
571.27	46817.74
571.43	46286.43
571.60	46866.89
571.76	46536.87
571.92	46532.19
572.09	46595.38
572.25	46134.30
572.41	46913.70
572.57	46707.73
572.74	47222.65
572.90	46459.63
573.06	46990.94
573.22	47234.35
573.38	47026.04
573.55	47114.98
573.71	47180.52
573.87	46703.05
574.03	47098.60
574.20	47131.37
574.36	46930.08
574.52	46866.89
574.68	46871.57
574.84	47365.42
575.01	47208.61
575.17	47246.05
575.33	47278.82
575.49	46667.94
575.65	46848.16
575.82	47159.45
575.98	46923.06
576.14	46770.93
576.30	47033.07
576.46	47122.01
576.62	47047.11
576.79	47107.96
576.95	46541.55
577.11	46541.55
577.27	46939.44
577.43	46946.47
577.59	46974.55
577.75	46932.42
577.92	46487.72
578.08	46981.57
578.24	47164.14
578.40	47105.62
578.56	47075.19
578.72	47159.45
578.88	47105.62
579.04	47199.24
579.21	47187.54
579.37	47470.75
579.53	47393.51
579.69	46822.42
579.85	47290.52
580.01	47007.32
580.17	47196.90
580.33	47475.43
580.49	46824.76
580.65	47302.23
580.82	47105.62
580.98	46693.69
581.14	47035.41
581.30	47395.85
581.46	46850.50
581.62	47203.92
581.78	47309.25
581.94	47445.00
582.10	46799.01
582.26	47320.95
582.42	46934.76
582.58	47210.95
582.74	47372.44
582.90	47360.74
583.06	47615.86
583.22	47358.40
583.38	47503.51
583.54	47283.50
583.70	47583.09
583.86	47405.21
584.02	47021.36
584.18	47531.60
584.34	47419.25
584.50	47512.88
584.66	47503.51
584.82	47302.23
584.98	47791.40
585.14	47267.12
585.30	47147.75
585.46	47576.07
585.62	47416.91
585.78	47281.16
585.94	47253.08
586.10	46983.91
586.26	47313.93
586.42	47255.42
586.58	47730.54
586.74	47409.89
586.90	47311.59
587.06	47070.51
587.22	47971.62
587.38	47047.11
587.54	47639.26
587.70	47625.22
587.86	47665.01
588.02	47559.69
588.18	47264.78
588.34	46939.44
588.49	47709.48
588.65	47138.39
588.81	47650.97
588.97	47234.35
589.13	47220.31
589.29	47480.11
589.45	47501.17
589.61	47608.84
589.77	47641.60
589.93	47606.50
590.08	47793.74
