SpectraSuite Data File
++++++++++++++++++++++++++++++++++++
Date: Fri Oct 25 10:43:17 EDT 2013
User: price-jones
Dark Spectrum Present: No
Reference Spectrum Present: No
Number of Sampled Component Spectra: 1
Spectrometers: USB2+H05261
Integration Time (usec): 100000 (USB2+H05261)
Spectra Averaged: 1 (USB2+H05261)
Boxcar Smoothing: 0 (USB2+H05261)
Correct for Electrical Dark: No (USB2+H05261)
Strobe/Lamp Enabled: No (USB2+H05261)
Correct for Detector Non-linearity: No (USB2+H05261)
Correct for Stray Light: No (USB2+H05261)
Number of Pixels in Processed Spectrum: 2048
>>>>>Begin Processed Spectral Data<<<<<
365.73	72.56
365.92	72.56
366.12	72.56
366.32	81.92
366.52	51.49
366.72	88.94
366.91	7.02
367.11	37.45
367.31	0.00
367.51	0.00
367.70	11.70
367.90	30.43
368.10	0.00
368.30	67.88
368.49	25.75
368.69	35.11
368.89	58.51
369.09	30.43
369.28	81.92
369.48	65.54
369.68	88.94
369.87	77.24
370.07	91.28
370.27	142.77
370.47	203.63
370.66	351.08
370.86	463.43
371.06	440.02
371.25	500.87
371.45	454.06
371.65	517.26
371.84	531.30
372.04	440.02
372.24	458.74
372.44	489.17
372.63	505.56
372.83	531.30
373.03	425.98
373.22	430.66
373.42	575.77
373.62	535.98
373.81	503.22
374.01	594.50
374.21	554.71
374.40	512.58
374.60	444.70
374.79	596.84
374.99	484.49
375.19	601.52
375.38	585.13
375.58	550.03
375.78	580.45
375.97	613.22
376.17	674.07
376.37	594.50
376.56	587.47
376.76	589.82
376.95	547.69
377.15	629.60
377.35	592.16
377.54	685.78
377.74	664.71
377.93	671.73
378.13	660.03
378.33	695.14
378.52	568.75
378.72	653.01
378.91	662.37
379.11	692.80
379.31	706.84
379.50	657.69
379.70	704.50
379.89	678.76
380.09	620.24
380.28	615.56
380.48	676.41
380.68	641.31
380.87	648.33
381.07	653.01
381.26	753.65
381.46	716.20
381.65	734.93
381.85	669.39
382.04	716.20
382.24	660.03
382.43	685.78
382.63	552.37
382.83	695.14
383.02	774.72
383.22	791.10
383.41	622.58
383.61	734.93
383.80	795.78
384.00	786.42
384.19	774.72
384.39	807.48
384.58	779.40
384.78	767.70
384.97	643.65
385.17	725.57
385.36	812.17
385.56	884.72
385.75	763.01
385.95	840.25
386.14	987.71
386.34	798.12
386.53	908.13
386.72	748.97
386.92	847.27
387.11	884.72
387.31	858.98
387.50	767.70
387.70	882.38
387.89	952.60
388.09	990.05
388.28	863.66
388.48	877.70
388.67	933.87
388.86	910.47
389.06	908.13
389.25	1064.94
389.45	954.94
389.64	901.11
389.84	1001.75
390.03	1032.18
390.22	1048.56
390.42	1048.56
390.61	1022.81
390.81	1011.11
391.00	1041.54
391.19	983.02
391.39	1015.79
391.58	1060.26
391.78	1050.90
391.97	1069.62
392.16	1004.09
392.36	1034.52
392.55	926.85
392.75	976.00
392.94	919.83
393.13	966.64
393.33	1039.20
393.52	1090.69
393.71	1032.18
393.91	1107.07
394.10	1125.80
394.29	1053.24
394.49	1137.50
394.68	1132.82
394.88	1224.10
395.07	1210.06
395.26	1252.19
395.46	1266.23
395.65	1268.57
395.84	1261.55
396.04	1210.06
396.23	1210.06
396.42	1158.57
396.62	1207.72
396.81	1146.86
397.00	1198.35
397.19	1299.00
397.39	1291.98
397.58	1390.28
397.77	1277.93
397.97	1373.89
398.16	1465.18
398.35	1486.24
398.55	1373.89
398.74	1547.09
398.93	1643.06
399.12	1521.35
399.32	1369.21
399.51	1490.92
399.70	1614.97
399.90	1600.93
400.09	1554.12
400.28	1645.40
400.47	1640.72
400.67	1591.56
400.86	1717.95
401.05	1612.63
401.24	1668.80
401.44	1596.25
401.63	1666.46
401.82	1657.10
402.01	1760.08
402.21	1856.04
402.40	1811.57
402.59	1652.42
402.78	1687.53
402.97	1839.66
403.17	1811.57
403.36	1799.87
403.55	1893.49
403.74	1785.83
403.93	1865.41
404.13	1839.66
404.32	1790.51
404.51	1858.39
404.70	2022.22
404.89	1842.00
405.09	2015.20
405.28	1959.03
405.47	1963.71
405.66	1916.90
405.85	1961.37
406.05	2071.37
406.24	2076.06
406.43	2108.82
406.62	2113.50
406.81	2085.42
407.00	1956.69
407.20	2031.58
407.39	2076.06
407.58	2111.16
407.77	2225.85
407.96	2136.91
408.15	2232.87
408.34	2263.30
408.54	2310.11
408.73	2223.51
408.92	2246.91
409.11	2289.04
409.30	2239.89
409.49	2303.09
409.68	2258.62
409.87	2188.40
410.07	2279.68
410.26	2246.91
410.45	2251.60
410.64	2471.61
410.83	2520.76
411.02	2520.76
411.21	2466.92
411.40	2506.71
411.59	2621.40
411.78	2565.23
411.98	2710.34
412.17	2724.38
412.36	2534.80
412.55	2722.04
412.74	2658.85
412.93	2630.76
413.12	2796.94
413.31	2853.11
413.50	2752.47
413.69	2803.96
413.88	2810.98
414.07	2796.94
414.26	2970.14
414.45	2967.80
414.64	2810.98
414.83	2991.20
415.02	3014.61
415.22	3038.02
415.41	3075.46
415.60	3187.81
415.79	3075.46
415.98	3318.88
416.17	3241.64
416.36	3321.22
416.55	3173.77
416.74	3339.94
416.93	3180.79
417.12	3316.54
417.31	3428.88
417.50	3311.86
417.69	3517.83
417.88	3499.10
418.07	3424.20
418.26	3468.67
418.45	3438.25
418.64	3552.93
418.83	3578.68
419.02	3581.02
419.21	3698.05
419.39	3536.55
419.58	3616.13
419.77	3592.72
419.96	3452.29
420.15	3765.92
420.34	3658.26
420.53	3564.64
420.72	3866.56
420.91	3918.06
421.10	3887.63
421.29	3854.86
421.48	3784.65
421.67	3705.07
421.86	3749.54
422.05	3758.90
422.24	3714.43
422.43	3798.69
422.61	3852.52
422.80	3850.18
422.99	3908.69
423.18	3892.31
423.37	3988.27
423.56	3955.51
423.75	3999.98
423.94	3836.14
424.13	3646.55
424.32	3838.48
424.50	4100.62
424.69	4016.36
424.88	3960.19
425.07	4051.47
425.26	3960.19
425.45	3836.14
425.64	3946.14
425.83	4053.81
426.01	4086.58
426.20	3885.29
426.39	3955.51
426.58	3962.53
426.77	3992.95
426.96	3969.55
427.15	4119.34
427.33	3920.40
427.52	4053.81
427.71	4053.81
427.90	4053.81
428.09	4128.70
428.28	4142.75
428.46	4102.96
428.65	4028.06
428.84	4194.24
429.03	4266.80
429.22	3936.78
429.40	4191.90
429.59	4234.03
429.78	3868.91
429.97	3808.05
430.16	3939.12
430.34	4070.19
430.53	4051.47
430.72	4222.33
430.91	4107.64
431.10	4334.67
431.28	4418.93
431.47	4606.17
431.66	4688.09
431.85	4690.43
432.03	4631.92
432.22	4718.52
432.41	4662.35
432.60	4664.69
432.79	4636.60
432.97	4723.20
433.16	4711.50
433.35	4578.09
433.54	4594.47
433.72	4660.01
433.91	4669.37
434.10	4744.27
434.28	4711.50
434.47	4674.05
434.66	4926.83
434.85	4947.89
435.03	4945.55
435.22	4868.31
435.41	5191.31
435.59	4938.53
435.78	5163.22
435.97	5142.16
436.16	5102.37
436.34	5114.07
436.53	5053.22
436.72	5198.33
436.90	5022.79
437.09	5214.71
437.28	5111.73
437.46	5135.14
437.65	5104.71
437.84	5107.05
438.02	5275.57
438.21	5036.83
438.40	5013.43
438.58	5238.12
438.77	5343.44
438.96	5413.66
439.14	5432.38
439.33	5535.37
439.52	5483.88
439.70	5584.52
439.89	5612.60
440.08	5617.29
440.26	5778.78
440.45	5687.50
440.63	5849.00
440.82	5790.49
441.01	5996.45
441.19	6052.63
441.38	6059.65
441.57	6171.99
441.75	6125.18
441.94	6118.16
442.12	6218.80
442.31	6258.59
442.50	6244.55
442.68	6370.94
442.87	6232.85
443.05	6359.24
443.24	6413.07
443.43	6448.18
443.61	6483.28
443.80	6581.59
443.98	6293.70
444.17	6122.84
444.35	6417.75
444.54	6665.85
444.73	6502.01
444.91	6469.24
445.10	6534.78
445.28	6494.99
445.47	6314.77
445.65	6389.66
445.84	6455.20
446.02	6532.44
446.21	6520.73
446.39	6548.82
446.58	6569.88
446.77	6576.91
446.95	6597.97
447.14	6693.93
447.32	6710.32
447.51	6736.06
447.69	6476.26
447.88	6644.78
448.06	6918.62
448.25	6530.09
448.43	6665.85
448.62	6703.29
448.80	6661.16
448.99	6722.02
449.17	6787.55
449.36	6937.35
449.54	7026.29
449.73	7246.30
449.91	7138.63
450.10	6979.48
450.28	7159.70
450.46	7171.40
450.65	7126.93
450.83	7286.09
451.02	7014.59
451.20	7283.75
451.39	7164.38
451.57	7145.66
451.76	7178.42
451.94	7389.07
452.13	7194.81
452.31	7098.84
452.49	6998.20
452.68	7267.36
452.86	7110.55
453.05	7330.56
453.23	7279.07
453.42	7286.09
453.60	7393.75
453.78	7520.14
453.97	7293.11
454.15	7396.09
454.34	7295.45
454.52	7613.76
454.70	7562.27
454.89	7522.48
455.07	7620.78
455.26	7583.34
455.44	7716.75
455.62	7714.41
455.81	7463.97
455.99	7840.79
456.17	7630.15
456.36	7786.96
456.54	8037.40
456.73	7873.56
456.91	7950.80
457.09	8058.46
457.28	8182.51
457.46	8049.10
457.64	8088.89
457.83	7903.99
458.01	7831.43
458.19	8351.03
458.38	7983.57
458.56	8327.63
458.74	8278.47
458.93	8299.54
459.11	8234.00
459.29	8170.81
459.48	8304.22
459.66	8468.06
459.84	8280.82
460.03	8500.83
460.21	8411.89
460.39	8407.20
460.57	8557.00
460.76	8416.57
460.94	8603.81
461.12	8505.51
461.31	8528.91
461.49	8798.07
461.67	8671.68
461.85	8833.18
462.04	8479.76
462.22	9130.43
462.40	8814.46
462.59	8772.33
462.77	8585.08
462.95	8908.08
463.13	8791.05
463.32	8830.84
463.50	9083.62
463.68	9036.81
463.86	8809.78
464.05	8767.65
464.23	8798.07
464.41	8947.87
464.59	8905.74
464.78	9259.16
464.96	8961.91
465.14	9245.12
465.32	9289.59
465.50	9312.99
465.69	9231.07
465.87	9226.39
466.05	9202.99
466.23	8987.66
466.41	8877.65
466.60	9268.52
466.78	9289.59
466.96	9303.63
467.14	9350.44
467.32	9228.73
467.51	9465.13
467.69	9224.05
467.87	9376.19
468.05	9521.30
468.23	9523.64
468.41	9357.46
468.60	9516.62
468.78	9540.02
468.96	9582.15
469.14	9767.06
469.32	9696.84
469.50	9493.21
469.69	9472.15
469.87	9863.02
470.05	9916.85
470.23	9907.49
470.41	9928.55
470.59	9963.66
470.77	9856.00
470.95	9919.19
471.14	10054.94
471.32	10029.20
471.50	10410.70
471.68	10422.41
471.86	10345.17
472.04	10253.89
472.22	10452.83
472.40	10153.24
472.58	10291.34
472.77	10415.38
472.95	10642.42
473.13	10778.17
473.31	10249.21
473.49	10324.10
473.67	10494.96
473.85	10642.42
474.03	10986.47
474.21	10897.53
474.39	10934.98
474.57	10998.18
474.75	11372.66
474.93	11335.21
475.12	11185.42
475.30	11367.98
475.48	11206.48
475.66	11112.86
475.84	11110.52
476.02	11140.95
476.20	11370.32
476.38	11693.32
476.56	11667.57
476.74	11562.25
476.92	11681.61
477.10	11838.43
477.28	12107.59
477.46	11950.78
477.64	11995.25
477.82	12163.76
478.00	12395.48
478.18	12362.71
478.36	12491.44
478.54	12837.84
478.72	12503.14
478.90	12760.60
479.08	12985.29
479.26	13317.65
479.44	13022.74
479.62	13277.86
479.80	13334.03
479.98	13315.31
480.16	13914.48
480.34	13315.31
480.52	13675.75
480.70	13664.05
480.88	13589.15
481.06	14115.77
481.24	13900.44
481.41	14181.31
481.59	14398.98
481.77	14303.01
481.95	14473.87
482.13	14728.99
482.31	14595.58
482.49	14621.33
482.67	14771.12
482.85	15026.24
483.03	14977.09
483.21	15426.47
483.39	15372.64
483.57	15529.45
483.74	15161.99
483.92	15449.88
484.10	15332.85
484.28	15882.88
484.46	16245.66
484.64	16044.37
484.82	15932.03
485.00	15873.51
485.18	16358.00
485.35	16472.69
485.53	16156.72
485.71	16238.64
485.89	16374.39
486.07	16498.44
486.25	16573.33
486.43	16732.49
486.61	16917.39
486.78	17050.80
486.96	17378.48
487.14	17481.46
487.32	17642.96
487.50	17832.54
487.68	18036.17
487.85	18298.31
488.03	18478.53
488.21	18445.76
488.39	18246.82
488.57	18712.58
488.75	18827.27
488.92	18829.61
489.10	18834.29
489.28	19288.35
489.46	19597.31
489.64	19648.80
489.81	19943.70
489.99	19889.87
490.17	20168.40
490.35	20353.30
490.53	20177.76
490.70	20269.04
490.88	20334.57
491.06	20685.65
491.24	20608.42
491.41	20592.03
491.59	20795.66
491.77	20755.87
491.95	21027.37
492.13	21055.46
492.30	21509.52
492.48	21649.96
492.66	21727.19
492.84	21612.51
493.01	21998.70
493.19	22132.11
493.37	22188.28
493.54	21947.20
493.72	22319.35
493.90	22583.83
494.08	22539.36
494.25	23246.20
494.43	23168.96
494.61	23442.81
494.79	23351.52
494.96	23330.46
495.14	23288.33
495.32	23800.91
495.49	23616.01
495.67	23953.04
495.85	23924.96
496.02	23983.47
496.20	24341.57
496.38	24041.98
496.55	24542.86
496.73	24683.29
496.91	24547.54
497.09	24907.98
497.26	24769.89
497.44	24690.31
497.62	25223.95
497.79	25324.60
497.97	25364.39
498.14	25209.91
498.32	25366.73
498.50	25509.50
498.67	26057.18
498.85	26061.87
499.03	26202.30
499.20	26094.63
499.38	25926.11
499.56	26089.95
499.73	26405.92
499.91	26384.86
500.08	26316.98
500.26	26302.94
500.44	26536.99
500.61	26759.34
500.79	26492.52
500.97	26752.32
501.14	27070.64
501.32	27080.00
501.49	27332.78
501.67	26979.36
501.84	27178.30
502.02	27283.62
502.20	27405.33
502.37	27435.76
502.55	27459.16
502.72	27740.03
502.90	28039.62
503.07	27906.21
503.25	28079.41
503.43	27782.16
503.60	27920.25
503.78	28060.68
503.95	27953.02
504.13	28430.49
504.30	28360.27
504.48	28437.51
504.65	28790.93
504.83	28863.49
505.01	29074.13
505.18	28868.17
505.36	29413.51
505.53	29303.51
505.71	29474.37
505.88	29872.26
506.06	29209.89
506.23	29785.66
506.41	29539.90
506.58	29399.47
506.76	29570.33
506.93	29553.94
507.11	30066.52
507.28	29916.73
507.46	29673.31
507.63	29776.30
507.81	30335.68
507.98	29942.47
508.16	29979.92
508.33	30181.21
508.50	30747.62
508.68	30677.40
508.85	30749.96
509.03	31068.27
509.20	31222.75
509.38	31311.69
509.55	31131.47
509.73	31255.51
509.90	31342.11
510.08	31323.39
510.25	31218.07
510.42	31365.52
510.60	31419.35
510.77	31871.07
510.95	31908.52
511.12	31651.06
511.30	31936.61
511.47	32121.51
511.64	32304.07
511.82	32261.94
511.99	31948.31
512.17	32037.25
512.34	32329.82
512.51	32334.50
512.69	32060.66
512.86	32517.06
513.04	33149.01
513.21	32671.54
513.38	32947.72
513.56	32790.91
513.73	32631.75
513.90	32919.63
514.08	32811.97
514.25	33149.01
514.43	33013.26
514.60	32762.82
514.77	33053.05
514.95	33167.73
515.12	33869.89
515.29	33383.06
515.47	33610.09
515.64	33656.90
515.81	33251.99
515.99	33493.07
516.16	33612.43
516.33	33277.74
516.51	33352.63
516.68	33331.57
516.85	32779.20
517.03	33102.20
517.20	33874.57
517.37	33963.51
517.54	34511.20
517.72	34085.22
517.89	33851.17
518.06	33778.61
518.24	34047.77
518.41	33802.02
518.58	34466.73
518.75	34499.50
518.93	34230.33
519.10	34600.14
519.27	34534.60
519.45	35201.66
519.62	35180.59
519.79	35058.88
519.96	35246.13
520.14	35171.23
520.31	35290.60
520.48	35187.61
520.65	35332.73
520.83	35721.26
521.00	35695.51
521.17	35536.35
521.34	35805.52
521.52	35962.33
521.69	35969.35
521.86	35821.90
522.03	36383.63
522.20	36390.65
522.38	36245.54
522.55	36596.62
522.72	36325.11
522.89	36095.74
523.07	36369.58
523.24	36346.18
523.41	36858.76
523.58	36617.68
523.75	37141.96
523.92	36835.35
524.10	37277.71
524.27	36914.93
524.44	37319.84
524.61	36811.95
524.78	36999.19
524.96	36985.15
525.13	37055.36
525.30	37256.65
525.47	37289.42
525.64	37684.97
525.81	37228.56
525.98	37336.23
526.16	37237.92
526.33	37184.09
526.50	37450.91
526.67	36624.70
526.84	37029.62
527.01	37069.40
527.18	37577.30
527.36	37769.22
527.53	37783.27
527.70	38019.66
527.87	38068.81
528.04	38103.92
528.21	38204.56
528.38	38134.35
528.55	38724.16
528.72	38501.81
528.89	38569.69
529.07	38700.76
529.24	38452.66
529.41	38827.15
529.58	38473.73
529.75	38778.00
529.92	38850.55
530.09	39178.23
530.26	38876.30
530.43	39030.77
530.60	38651.61
530.77	39143.12
530.94	39124.40
531.11	39009.71
531.28	39398.24
531.46	38990.98
531.63	39381.85
531.80	38962.90
531.97	39395.90
532.14	39283.55
532.31	39126.74
532.48	39136.10
532.65	39566.76
532.82	39648.68
532.99	39529.31
533.16	39283.55
533.33	39629.95
533.50	39751.66
533.67	39943.58
533.84	39325.68
534.01	40112.10
534.18	39166.52
534.35	40268.92
534.52	39990.39
534.69	40037.20
534.86	39903.79
535.03	40168.27
535.20	40388.28
535.37	40655.11
535.54	40807.24
535.71	40727.66
535.88	40580.21
536.05	40264.24
536.22	40364.88
536.38	40648.08
536.55	40498.29
536.72	40112.10
536.89	40311.05
537.06	40409.35
537.23	41130.23
537.40	40954.69
537.57	40935.97
537.74	40627.02
537.91	41010.87
538.08	40999.16
538.25	40868.09
538.42	40697.24
538.59	41144.28
538.75	40935.97
538.92	41088.10
539.09	41177.04
539.26	41455.57
539.43	41134.92
539.60	41387.69
539.77	41383.01
539.94	41134.92
540.11	40769.79
540.28	41511.74
540.44	40982.78
540.61	41158.32
540.78	41631.11
540.95	41570.25
541.12	41258.96
541.29	41680.26
541.46	41453.23
541.62	41338.54
541.79	41926.02
541.96	41387.69
542.13	41448.55
542.30	41984.53
542.47	41502.38
542.63	41188.75
542.80	41947.08
542.97	41930.70
543.14	42263.05
543.31	42047.72
543.48	42204.54
543.64	42410.51
543.81	42550.94
543.98	42560.30
544.15	42267.73
544.32	42597.75
544.48	43077.56
544.65	42677.33
544.82	42483.06
544.99	42342.63
545.16	42611.79
545.32	42265.39
545.49	42913.72
545.66	42817.76
545.83	43370.13
546.00	42604.77
546.16	43119.69
546.33	43100.97
546.50	42426.89
546.67	42869.25
546.83	42756.91
547.00	42401.14
547.17	42878.61
547.34	43026.07
547.50	42939.47
547.67	43557.37
547.84	43213.31
548.00	43388.85
548.17	43356.08
548.34	43601.84
548.51	43768.02
548.67	43543.33
548.84	43487.15
549.01	43386.51
549.18	43110.33
549.34	43459.07
549.51	43737.59
549.68	43662.69
549.84	43948.24
550.01	43831.21
550.18	43672.06
550.34	44025.48
550.51	43192.25
550.68	43798.44
550.84	42834.14
551.01	43707.16
551.18	43791.42
551.34	43611.20
551.51	43871.00
551.68	43812.49
551.84	43770.36
552.01	43969.30
552.18	43894.41
552.34	43704.82
552.51	44201.02
552.68	43913.13
552.84	44095.69
553.01	44020.80
553.18	44313.36
553.34	44446.77
553.51	44339.11
553.67	44561.46
553.84	44809.56
554.01	44615.29
554.17	44617.63
554.34	44215.06
554.51	44610.61
554.67	44575.50
554.84	44488.90
555.00	44072.29
555.17	44470.18
555.33	44996.80
555.50	44409.32
555.67	44715.93
555.83	44570.82
556.00	44519.33
556.16	44392.94
556.33	44430.39
556.50	44669.12
556.66	44137.82
556.83	44282.94
556.99	44350.81
557.16	44591.89
557.32	44594.23
557.49	44701.89
557.65	44865.73
557.82	44828.28
557.98	45104.46
558.15	44964.03
558.32	44978.07
558.48	44392.94
558.65	44802.53
558.81	44612.95
558.98	44659.76
559.14	44942.97
559.31	44484.22
559.47	44823.60
559.64	44758.06
559.80	45088.08
559.97	44938.29
560.13	44849.35
560.30	44896.16
560.46	45158.30
560.63	45104.46
560.79	45429.80
560.96	45064.67
561.12	44807.22
561.29	45022.54
561.45	44734.66
561.61	45151.27
561.78	44882.11
561.94	45265.96
562.11	45134.89
562.27	45155.96
562.44	45242.56
562.60	45247.24
562.77	44964.03
562.93	45258.94
563.10	45436.82
563.26	45069.36
563.42	45897.91
563.59	45074.04
563.75	45478.95
563.92	45977.48
564.08	45123.19
564.24	45530.44
564.41	45439.16
564.57	45563.21
564.74	45535.12
564.90	45099.78
565.07	45776.20
565.23	45280.00
565.39	45343.20
565.56	45532.78
565.72	45649.81
565.88	45420.44
566.05	45158.30
566.21	45055.31
566.38	45048.29
566.54	45387.67
566.70	45911.95
566.87	45991.53
567.03	45698.96
567.19	45907.27
567.36	45811.31
567.52	45888.54
567.68	45525.76
567.85	45352.56
568.01	45420.44
568.17	45535.12
568.34	45661.51
568.50	45368.94
568.66	45633.42
568.83	45338.52
568.99	45413.41
569.15	45528.10
569.32	45490.65
569.48	45104.46
569.64	45895.56
569.81	45745.77
569.97	45696.62
570.13	45670.87
570.30	45221.49
570.46	45333.84
570.62	45242.56
570.78	45219.15
570.95	45127.87
571.11	45771.52
571.27	45446.18
571.43	45542.14
571.60	45514.06
571.76	45399.37
571.92	45764.49
572.09	45860.46
572.25	45956.42
572.41	45813.65
572.57	45792.58
572.74	45902.59
572.90	45752.79
573.06	46103.87
573.22	45956.42
573.38	45588.95
573.55	45560.87
573.71	45724.71
573.87	45631.08
574.03	45059.99
574.20	45675.55
574.36	45530.44
574.52	45713.00
574.68	45811.31
574.84	45727.05
575.01	45862.80
575.17	45514.06
575.33	45642.79
575.49	45825.35
575.65	46127.28
575.82	45638.11
575.98	45925.99
576.14	45738.75
576.30	45879.18
576.46	45694.28
576.62	45989.19
576.79	45617.04
576.95	45694.28
577.11	45219.15
577.27	45799.60
577.43	45551.51
577.59	45343.20
577.75	45780.88
577.92	45298.73
578.08	45607.68
578.24	45872.16
578.40	45610.02
578.56	46071.10
578.72	45591.30
578.88	45668.53
579.04	45420.44
579.21	45549.17
579.37	45542.14
579.53	45785.56
579.69	45694.28
579.85	45652.15
580.01	45380.65
580.17	45832.37
580.33	45993.87
580.49	46073.45
580.65	45677.90
580.82	45682.58
580.98	45516.40
581.14	45511.72
581.30	46127.28
581.46	45663.85
581.62	46106.21
581.78	46120.26
581.94	45818.33
582.10	46075.79
582.26	46307.50
582.42	45907.27
582.58	46150.68
582.74	45567.89
582.90	45581.93
583.06	46153.02
583.22	45968.12
583.38	46103.87
583.54	45970.46
583.70	46260.69
583.86	46279.41
584.02	45492.99
584.18	46003.23
584.34	46068.76
584.50	45984.51
584.66	45801.94
584.82	45750.45
584.98	45736.41
585.14	45876.84
585.30	45390.01
585.46	45776.20
585.62	45382.99
585.78	45787.90
585.94	45539.80
586.10	45837.05
586.26	45792.58
586.42	46066.42
586.58	46094.51
586.74	45865.14
586.90	45958.76
587.06	45998.55
587.22	46066.42
587.38	45766.84
587.54	46043.02
587.70	46391.76
587.86	46106.21
588.02	45525.76
588.18	45801.94
588.34	45443.84
588.49	45490.65
588.65	45350.22
588.81	45549.17
588.97	45242.56
589.13	45296.39
589.29	45366.60
589.45	45155.96
589.61	45844.07
589.77	46344.95
589.93	45806.62
590.08	45759.81
