SpectraSuite Data File
++++++++++++++++++++++++++++++++++++
Date: Fri Oct 25 10:43:20 EDT 2013
User: price-jones
Dark Spectrum Present: No
Reference Spectrum Present: No
Number of Sampled Component Spectra: 1
Spectrometers: USB2+H05261
Integration Time (usec): 100000 (USB2+H05261)
Spectra Averaged: 1 (USB2+H05261)
Boxcar Smoothing: 0 (USB2+H05261)
Correct for Electrical Dark: No (USB2+H05261)
Strobe/Lamp Enabled: No (USB2+H05261)
Correct for Detector Non-linearity: No (USB2+H05261)
Correct for Stray Light: No (USB2+H05261)
Number of Pixels in Processed Spectrum: 2048
>>>>>Begin Processed Spectral Data<<<<<
365.73	93.62
365.92	93.62
366.12	93.62
366.32	37.45
366.52	16.38
366.72	91.28
366.91	0.00
367.11	49.15
367.31	2.34
367.51	0.00
367.70	0.00
367.90	0.00
368.10	11.70
368.30	51.49
368.49	49.15
368.69	11.70
368.89	42.13
369.09	0.00
369.28	72.56
369.48	86.60
369.68	117.03
369.87	142.77
370.07	0.00
370.27	156.82
370.47	166.18
370.66	320.65
370.86	407.25
371.06	496.19
371.25	416.62
371.45	435.34
371.65	519.60
371.84	423.64
372.04	454.06
372.24	484.49
372.44	514.92
372.63	627.26
372.83	512.58
373.03	477.47
373.22	463.43
373.42	603.86
373.62	571.09
373.81	447.04
374.01	571.09
374.21	615.56
374.40	484.49
374.60	599.18
374.79	566.41
374.99	547.69
375.19	517.26
375.38	512.58
375.58	543.00
375.78	606.20
375.97	610.88
376.17	737.27
376.37	589.82
376.56	624.92
376.76	620.24
376.95	594.50
377.15	585.13
377.35	596.84
377.54	718.54
377.74	631.94
377.93	667.05
378.13	692.80
378.33	622.58
378.52	669.39
378.72	709.18
378.91	566.41
379.11	674.07
379.31	685.78
379.50	634.29
379.70	645.99
379.89	748.97
380.09	624.92
380.28	622.58
380.48	629.60
380.68	653.01
380.87	681.10
381.07	615.56
381.26	781.74
381.46	793.44
381.65	692.80
381.85	671.73
382.04	650.67
382.24	695.14
382.43	751.31
382.63	706.84
382.83	669.39
383.02	739.61
383.22	744.29
383.41	690.46
383.61	716.20
383.80	734.93
384.00	819.19
384.19	711.52
384.39	798.12
384.58	823.87
384.78	814.51
384.97	753.65
385.17	786.42
385.36	720.88
385.56	774.72
385.75	868.34
385.95	882.38
386.14	823.87
386.34	863.66
386.53	812.17
386.72	800.46
386.92	894.08
387.11	812.17
387.31	887.06
387.50	873.02
387.70	844.93
387.89	896.43
388.09	823.87
388.28	912.81
388.48	910.47
388.67	933.87
388.86	903.45
389.06	959.62
389.25	940.90
389.45	1001.75
389.64	898.77
389.84	1008.77
390.03	985.37
390.22	1004.09
390.42	1018.13
390.61	997.07
390.81	1034.52
391.00	1069.62
391.19	1039.20
391.39	1100.05
391.58	1029.84
391.78	1069.62
391.97	997.07
392.16	964.30
392.36	1046.22
392.55	1015.79
392.75	950.26
392.94	971.32
393.13	999.41
393.33	1015.79
393.52	1076.65
393.71	1121.12
393.91	1081.33
394.10	1104.73
394.29	1219.42
394.49	1158.57
394.68	1118.78
394.88	1184.31
395.07	1259.21
395.26	1228.78
395.46	1219.42
395.65	1303.68
395.84	1235.80
396.04	1238.14
396.23	1139.84
396.42	1160.91
396.62	1163.25
396.81	1240.48
397.00	1217.08
397.19	1331.76
397.39	1364.53
397.58	1376.24
397.77	1380.92
397.97	1392.62
398.16	1362.19
398.35	1486.24
398.55	1455.81
398.74	1418.36
398.93	1493.26
399.12	1605.61
399.32	1502.62
399.51	1481.56
399.70	1561.14
399.90	1523.69
400.09	1605.61
400.28	1521.35
400.47	1643.06
400.67	1568.16
400.86	1607.95
401.05	1605.61
401.24	1671.14
401.44	1621.99
401.63	1734.34
401.82	1713.27
402.01	1619.65
402.21	1783.49
402.40	1727.32
402.59	1722.63
402.78	1722.63
402.97	1710.93
403.17	1783.49
403.36	1783.49
403.55	1921.58
403.74	1839.66
403.93	1834.98
404.13	1816.26
404.32	1865.41
404.51	1865.41
404.70	1942.64
404.89	1865.41
405.09	1886.47
405.28	1928.60
405.47	1994.14
405.66	1996.48
405.85	1968.39
406.05	1870.09
406.24	1996.48
406.43	2043.29
406.62	1956.69
406.81	2148.61
407.00	2174.36
407.20	1926.26
407.39	2019.88
407.58	2108.82
407.77	2139.25
407.96	2256.28
408.15	2155.63
408.34	2146.27
408.54	2214.15
408.73	2272.66
408.92	2260.96
409.11	2225.85
409.30	2279.68
409.49	2340.54
409.68	2300.75
409.87	2296.07
410.07	2242.23
410.26	2424.80
410.45	2305.43
410.64	2427.14
410.83	2363.94
411.02	2504.37
411.21	2551.18
411.40	2541.82
411.59	2574.59
411.78	2619.06
411.98	2588.63
412.17	2715.02
412.36	2684.59
412.55	2750.13
412.74	2808.64
412.93	2703.32
413.12	2764.17
413.31	2935.03
413.50	2710.34
413.69	2888.22
413.88	2843.75
414.07	2892.90
414.26	2998.23
414.45	2928.01
414.64	3012.27
414.83	2984.18
415.02	3028.65
415.22	3087.17
415.41	3133.98
415.60	3164.40
415.79	3133.98
415.98	3283.77
416.17	3185.47
416.36	3260.37
416.55	3194.83
416.74	3229.94
416.93	3353.99
417.12	3339.94
417.31	3194.83
417.50	3501.44
417.69	3391.44
417.88	3524.85
418.07	3272.07
418.26	3417.18
418.45	3478.04
418.64	3566.98
418.83	3585.70
419.02	3447.61
419.21	3510.80
419.39	3531.87
419.58	3534.21
419.77	3538.89
419.96	3754.22
420.15	3712.09
420.34	3676.98
420.53	3733.15
420.72	3667.62
420.91	3737.84
421.10	3822.09
421.29	3899.33
421.48	3726.13
421.67	3817.41
421.86	3918.06
422.05	3847.84
422.24	3723.79
422.43	3815.07
422.61	3836.14
422.80	3932.10
422.99	3899.33
423.18	3871.25
423.37	3826.78
423.56	3981.25
423.75	3948.48
423.94	3845.50
424.13	3744.86
424.32	3801.03
424.50	3861.88
424.69	3985.93
424.88	3929.76
425.07	3901.67
425.26	3922.74
425.45	4023.38
425.64	3864.22
425.83	3847.84
426.01	3882.95
426.20	3915.72
426.39	3957.85
426.58	3904.01
426.77	3887.63
426.96	4014.02
427.15	4086.58
427.33	4014.02
427.52	4002.32
427.71	4018.70
427.90	4149.77
428.09	4166.15
428.28	4124.02
428.46	4252.75
428.65	4100.62
428.84	4145.09
429.03	4184.88
429.22	4175.52
429.40	4264.46
429.59	3995.29
429.78	3974.23
429.97	3976.57
430.16	4091.26
430.34	4145.09
430.53	4262.12
430.72	4212.96
430.91	4128.70
431.10	4278.50
431.28	4533.62
431.47	4587.45
431.66	4800.44
431.85	4442.34
432.03	4463.40
432.22	4568.73
432.41	4650.64
432.60	4793.42
432.79	4622.56
432.97	4788.74
433.16	4578.09
433.35	4559.36
433.54	4667.03
433.72	4662.35
433.91	4720.86
434.10	4711.50
434.28	4793.42
434.47	4772.35
434.66	4924.49
434.85	4924.49
435.03	4978.32
435.22	4954.91
435.41	5254.50
435.59	5085.98
435.78	5088.32
435.97	5137.48
436.16	5179.61
436.34	5130.45
436.53	5137.48
436.72	5226.42
436.90	5109.39
437.09	5289.61
437.28	5123.43
437.46	5069.60
437.65	5111.73
437.84	5242.80
438.02	5149.18
438.21	5245.14
438.40	5102.37
438.58	5345.78
438.77	5383.23
438.96	5420.68
439.14	5526.00
439.33	5619.63
439.52	5598.56
439.70	5563.45
439.89	5586.86
440.08	5626.65
440.26	5666.44
440.45	5682.82
440.63	5755.38
440.82	5947.30
441.01	5781.12
441.19	5994.11
441.38	6050.28
441.57	5966.03
441.75	6066.67
441.94	6190.72
442.12	6230.51
442.31	6443.49
442.50	6324.13
442.68	6345.19
442.87	6394.34
443.05	6291.36
443.24	6476.26
443.43	6431.79
443.61	6436.47
443.80	6757.13
443.98	6289.02
444.17	6265.61
444.35	6567.54
444.54	6619.04
444.73	6532.44
444.91	6494.99
445.10	6420.09
445.28	6296.04
445.47	6202.42
445.65	6314.77
445.84	6576.91
446.02	6600.31
446.21	6506.69
446.39	6445.84
446.58	6595.63
446.77	6604.99
446.95	6382.64
447.14	6555.84
447.32	6670.53
447.51	6619.04
447.69	6476.26
447.88	6724.36
448.06	6562.86
448.25	6520.73
448.43	6630.74
448.62	6651.80
448.80	6738.40
448.99	6707.98
449.17	6822.66
449.36	6668.19
449.54	6920.96
449.73	7028.63
449.91	6993.52
450.10	7211.19
450.28	7136.29
450.46	7136.29
450.65	7122.25
450.83	7073.10
451.02	7082.46
451.20	7265.02
451.39	7119.91
451.57	7052.03
451.76	7265.02
451.94	7054.37
452.13	7159.70
452.31	7096.50
452.49	7140.97
452.68	7456.95
452.86	7283.75
453.05	7236.94
453.23	7279.07
453.42	7110.55
453.60	7208.85
453.78	7405.46
453.97	7314.17
454.15	7391.41
454.34	7279.07
454.52	7456.95
454.70	7428.86
454.89	7522.48
455.07	7517.80
455.26	7499.08
455.44	7791.64
455.62	7728.45
455.81	7782.28
455.99	7648.87
456.17	7845.48
456.36	7730.79
456.54	7957.82
456.73	7885.26
456.91	8198.90
457.09	7983.57
457.28	8124.00
457.46	7960.16
457.64	8264.43
457.83	8262.09
458.01	7889.95
458.19	8243.37
458.38	8229.32
458.56	8210.60
458.74	8177.83
458.93	8065.49
459.11	8381.46
459.29	8189.53
459.48	8205.92
459.66	8283.16
459.84	8212.94
460.03	8498.49
460.21	8655.30
460.39	8528.91
460.57	8482.10
460.76	8599.13
460.94	8622.53
461.12	8451.67
461.31	8526.57
461.49	8603.81
461.67	8865.95
461.85	8875.31
462.04	8872.97
462.22	9207.67
462.40	8746.58
462.59	8835.52
462.77	8891.70
462.95	8709.13
463.13	9001.70
463.32	8936.17
463.50	8938.51
463.68	8982.98
463.86	8954.89
464.05	8842.54
464.23	8711.47
464.41	8990.00
464.59	8683.39
464.78	9151.49
464.96	9032.13
465.14	8828.50
465.32	9205.33
465.50	9322.35
465.69	9280.22
465.87	9174.90
466.05	9135.11
466.23	9055.53
466.41	9102.34
466.60	9565.77
466.78	9245.12
466.96	9172.56
467.14	9186.60
467.32	9430.02
467.51	9565.77
467.69	9228.73
467.87	9231.07
468.05	9312.99
468.23	9607.90
468.41	9233.41
468.60	9451.08
468.78	9523.64
468.96	9296.61
469.14	9643.01
469.32	9802.16
469.50	9514.28
469.69	9893.44
469.87	9713.22
470.05	9682.80
470.23	9673.43
470.41	9888.76
470.59	10076.01
470.77	9736.63
470.95	10223.46
471.14	10125.16
471.32	10010.47
471.50	10387.30
471.68	10256.23
471.86	10375.59
472.04	10462.19
472.22	10717.31
472.40	10296.02
472.58	10380.28
472.77	10296.02
472.95	10623.69
473.13	10647.10
473.31	10408.36
473.49	10441.13
473.67	10401.34
473.85	10368.57
474.03	10813.28
474.21	10888.17
474.39	10934.98
474.57	10848.38
474.75	11295.43
474.93	11047.33
475.12	10951.37
475.30	11007.54
475.48	11169.04
475.66	11157.33
475.84	10920.94
476.02	11543.52
476.20	11370.32
476.38	11496.71
476.56	11723.74
476.74	11854.81
476.92	11681.61
477.10	11822.05
477.28	12039.72
477.46	11971.84
477.64	12273.77
477.82	12425.90
478.00	12493.78
478.18	12435.27
478.36	12549.95
478.54	12772.30
478.72	12683.36
478.90	12786.35
479.08	13294.24
479.26	12858.90
479.44	13139.77
479.62	13081.25
479.80	13345.73
479.98	13355.10
480.16	13439.36
480.34	13528.30
480.52	13418.29
480.70	13855.97
480.88	13462.76
481.06	13832.57
481.24	13802.14
481.41	14143.86
481.59	14286.63
481.77	14185.99
481.95	14478.55
482.13	14548.77
482.31	14438.76
482.49	14714.95
482.67	14761.76
482.85	14799.21
483.03	14719.63
483.21	15393.70
483.39	15365.62
483.57	15520.09
483.74	15374.98
483.92	15618.39
484.10	15391.36
484.28	15812.66
484.46	16290.13
484.64	16353.32
484.82	15859.47
485.00	15843.09
485.18	16149.70
485.35	16423.54
485.53	16152.04
485.71	15964.79
485.89	16238.64
486.07	16458.65
486.25	16690.36
486.43	16783.98
486.61	16744.19
486.78	17296.56
486.96	17401.88
487.14	17294.22
487.32	17408.90
487.50	17996.38
487.68	18209.37
487.85	18022.12
488.03	18314.69
488.21	18408.31
488.39	18539.38
488.57	18775.78
488.75	18567.47
488.92	18925.57
489.10	19066.00
489.28	19653.48
489.46	19524.75
489.64	19594.96
489.81	19962.43
489.99	19985.83
490.17	20152.01
490.35	20287.76
490.53	20376.70
490.70	20357.98
490.88	20311.17
491.06	21050.78
491.24	20657.57
491.41	20505.43
491.59	20657.57
491.77	20971.20
491.95	21282.49
492.13	21235.68
492.30	21523.57
492.48	21575.06
492.66	21572.72
492.84	21474.42
493.01	21790.39
493.19	22293.60
493.37	22113.38
493.54	22228.07
493.72	22401.27
493.90	22501.91
494.08	22623.62
494.25	23068.32
494.43	23080.02
494.61	23222.80
494.79	23314.08
494.96	23154.92
495.14	23555.15
495.32	23601.96
495.49	23625.37
495.67	23915.59
495.85	23838.36
496.02	23995.17
496.20	23960.06
496.38	24400.08
496.55	23950.70
496.73	24987.56
496.91	24702.01
497.09	24795.64
497.26	24882.24
497.44	25027.35
497.62	24898.62
497.79	25298.85
497.97	24933.73
498.14	25088.20
498.32	25214.59
498.50	25256.72
498.67	26099.31
498.85	25640.57
499.03	26256.13
499.20	25809.09
499.38	26204.64
499.56	26312.30
499.73	26286.56
499.91	26244.43
500.08	26452.73
500.26	26319.32
500.44	26492.52
500.61	26555.72
500.79	26249.11
500.97	26815.52
501.14	27042.55
501.32	26616.57
501.49	26834.24
501.67	27175.96
501.84	27356.18
502.02	27250.86
502.20	27405.33
502.37	27660.45
502.55	27332.78
502.72	27733.01
502.90	28016.21
503.07	27723.65
503.25	28072.39
503.43	28044.30
503.60	27880.46
503.78	27880.46
503.95	28222.18
504.13	28666.88
504.30	28783.91
504.48	28514.75
504.65	28856.46
504.83	28994.56
505.01	28737.10
505.18	28973.49
505.36	29006.26
505.53	29289.46
505.71	29390.11
505.88	29177.12
506.06	28968.81
506.23	29247.33
506.41	29439.26
506.58	29699.06
506.76	29661.61
506.93	29790.34
507.11	29675.65
507.28	29923.75
507.46	30015.03
507.63	30024.39
507.81	30043.12
507.98	30038.44
508.16	29926.09
508.33	30045.46
508.50	30590.80
508.68	30459.73
508.85	30869.33
509.03	30859.96
509.20	31000.40
509.38	31222.75
509.55	31042.53
509.73	30794.43
509.90	31299.98
510.08	31145.51
510.25	31536.38
510.42	31655.75
510.60	31833.63
510.77	31894.48
510.95	31688.51
511.12	31765.75
511.30	32051.30
511.47	32259.60
511.64	32182.37
511.82	32400.04
511.99	31821.92
512.17	32327.48
512.34	32423.44
512.51	32346.20
512.69	32334.50
512.86	32603.66
513.04	32657.49
513.21	32540.47
513.38	32713.67
513.56	32554.51
513.73	32706.65
513.90	32833.04
514.08	32992.19
514.25	33149.01
514.43	32837.72
514.60	33015.60
514.77	33394.76
514.95	33415.83
515.12	33212.20
515.29	33542.22
515.47	34176.50
515.64	33710.74
515.81	33357.32
515.99	33680.31
516.16	33591.37
516.33	33612.43
516.51	33755.21
516.68	33104.54
516.85	33167.73
517.03	33333.91
517.20	33930.75
517.37	33799.68
517.54	34284.17
517.72	34015.01
517.89	33944.79
518.06	33846.49
518.24	34012.66
518.41	33881.60
518.58	33937.77
518.75	34476.09
518.93	34572.05
519.10	34579.07
519.27	34696.10
519.45	34918.45
519.62	35194.64
519.79	35218.04
519.96	35150.17
520.14	35225.06
520.31	34808.45
520.48	35454.44
520.65	35271.87
520.83	35775.09
521.00	35461.46
521.17	35526.99
521.34	35416.99
521.52	35611.25
521.69	35791.47
521.86	36332.14
522.03	36271.28
522.20	36371.92
522.38	36357.88
522.55	36320.43
522.72	36046.59
522.89	36065.31
523.07	36795.56
523.24	36266.60
523.41	37081.11
523.58	36460.87
523.75	37277.71
523.92	36652.79
524.10	37179.41
524.27	37165.37
524.44	36938.33
524.61	37177.07
524.78	37434.53
524.96	37102.17
525.13	37345.59
525.30	37694.33
525.47	37736.46
525.64	37366.65
525.81	37834.76
525.98	37141.96
526.16	37745.82
526.33	37148.98
526.50	37603.05
526.67	37289.42
526.84	36978.12
527.01	36957.06
527.18	37336.23
527.36	37933.06
527.53	37904.98
527.70	38005.62
527.87	38007.96
528.04	37684.97
528.21	38426.92
528.38	38293.50
528.55	38380.10
528.72	38597.77
528.89	38831.83
529.07	38845.87
529.24	38323.93
529.41	38820.13
529.58	38319.25
529.75	38588.41
529.92	38728.84
530.09	39091.63
530.26	38747.57
530.43	38714.80
530.60	38843.53
530.77	39009.71
530.94	39182.91
531.11	38829.49
531.28	39028.43
531.46	39136.10
531.63	39407.60
531.80	39098.65
531.97	38906.73
532.14	39173.55
532.31	38738.21
532.48	39278.87
532.65	39482.50
532.82	39646.33
532.99	39707.19
533.16	39035.45
533.33	39463.77
533.50	40135.51
533.67	39791.45
533.84	39826.56
534.01	40044.23
534.18	39625.27
534.35	39959.97
534.52	39950.60
534.69	40289.98
534.86	40194.02
535.03	40517.01
535.20	40460.84
535.37	40634.04
535.54	40573.19
535.71	40491.27
535.88	40196.36
536.05	40332.11
536.22	40556.80
536.38	40493.61
536.55	40620.00
536.72	40587.23
536.89	39924.86
537.06	40594.25
537.23	40994.48
537.40	41106.83
537.57	40783.83
537.74	40549.78
537.91	41223.86
538.08	41315.14
538.25	40652.76
538.42	40804.90
538.59	41029.59
538.75	41099.81
538.92	41029.59
539.09	40952.35
539.26	40989.80
539.43	41132.57
539.60	41230.88
539.77	40872.78
539.94	41298.75
540.11	41041.29
540.28	40968.74
540.44	41010.87
540.61	41333.86
540.78	41418.12
540.95	41251.94
541.12	41163.00
541.29	41237.90
541.46	41525.78
541.62	41752.82
541.79	41500.04
541.96	41418.12
542.13	41951.76
542.30	41581.96
542.47	41579.62
542.63	42052.41
542.80	41886.23
542.97	42302.84
543.14	42422.21
543.31	42078.15
543.48	42403.49
543.64	43012.02
543.81	42962.87
543.98	42665.63
544.15	42450.30
544.32	42323.91
544.48	43129.05
544.65	42644.56
544.82	42803.72
544.99	42241.99
545.16	42707.76
545.32	42220.92
545.49	43271.82
545.66	43414.60
545.83	42890.32
546.00	43033.09
546.16	43049.47
546.33	42752.23
546.50	42415.19
546.67	42796.70
546.83	42419.87
547.00	43377.15
547.17	42728.82
547.34	42820.10
547.50	43203.95
547.67	43433.32
547.84	43138.41
548.00	43594.82
548.17	43625.25
548.34	43786.74
548.51	43571.41
548.67	43725.89
548.84	43573.75
549.01	43171.18
549.18	43337.36
549.34	43220.33
549.51	43306.93
549.68	44030.16
549.84	43707.16
550.01	43400.55
550.18	43702.48
550.34	43438.00
550.51	43723.55
550.68	43674.40
550.84	43112.67
551.01	43931.86
551.18	43756.32
551.34	43358.42
551.51	43580.78
551.68	44074.63
551.84	44051.22
552.01	43681.42
552.18	44088.67
552.34	43924.83
552.51	43929.51
552.68	43828.87
552.84	44034.84
553.01	44535.71
553.18	44289.96
553.34	44425.71
553.51	44762.75
553.67	44105.06
553.84	44648.06
554.01	44685.51
554.17	44935.95
554.34	44526.35
554.51	44350.81
554.67	44844.66
554.84	44388.26
555.00	43988.03
555.17	44325.07
555.33	44729.98
555.50	44542.74
555.67	44432.73
555.83	44404.64
556.00	44549.76
556.16	44767.43
556.33	44690.19
556.50	44830.62
556.66	44655.08
556.83	44479.54
556.99	44591.89
557.16	45017.86
557.32	44875.09
557.49	44765.09
557.65	44671.46
557.82	44980.42
557.98	44947.65
558.15	44847.00
558.32	44868.07
558.48	44821.26
558.65	44835.30
558.81	44594.23
558.98	44430.39
559.14	44502.95
559.31	44910.20
559.47	44779.13
559.64	44655.08
559.80	44837.64
559.97	45380.65
560.13	44463.16
560.30	45228.51
560.46	45284.68
560.63	45048.29
560.79	45574.91
560.96	45230.85
561.12	45301.07
561.29	44870.41
561.45	45038.93
561.61	45048.29
561.78	45200.43
561.94	44832.96
562.11	44989.78
562.27	44971.05
562.44	45418.10
562.60	45439.16
562.77	45427.46
562.93	44816.58
563.10	45783.22
563.26	45095.10
563.42	45790.24
563.59	44844.66
563.75	45537.46
563.92	45624.06
564.08	45588.95
564.24	45418.10
564.41	45188.72
564.57	45453.20
564.74	45034.25
564.90	44912.54
565.07	45303.41
565.23	45572.57
565.39	45296.39
565.56	45305.75
565.72	45303.41
565.88	45144.25
566.05	45521.08
566.21	45141.91
566.38	45418.10
566.54	45595.98
566.70	45652.15
566.87	45617.04
567.03	45713.00
567.19	45738.75
567.36	45797.26
567.52	45490.65
567.68	45862.80
567.85	45647.47
568.01	45507.04
568.17	45390.01
568.34	45820.67
568.50	45762.15
568.66	44992.12
568.83	45556.19
568.99	45450.86
569.15	45729.39
569.32	45340.86
569.48	45446.18
569.64	45574.91
569.81	45432.14
569.97	45502.35
570.13	46007.91
570.30	45193.40
570.46	45228.51
570.62	45162.98
570.78	45418.10
570.95	45256.60
571.11	45825.35
571.27	45244.90
571.43	45698.96
571.60	45741.09
571.76	45595.98
571.92	45516.40
572.09	45916.63
572.25	45750.45
572.41	45666.19
572.57	45565.55
572.74	46181.11
572.90	45734.07
573.06	45813.65
573.22	46160.05
573.38	45427.46
573.55	45394.69
573.71	45448.52
573.87	45766.84
574.03	45177.02
574.20	45434.48
574.36	45359.58
574.52	46040.68
574.68	45942.38
574.84	45682.58
575.01	45579.59
575.17	45509.38
575.33	45598.32
575.49	45656.83
575.65	45727.05
575.82	45776.20
575.98	45535.12
576.14	45951.74
576.30	46232.60
576.46	45907.27
576.62	45603.00
576.79	45371.28
576.95	45308.09
577.11	45694.28
577.27	45771.52
577.43	45478.95
577.59	45841.73
577.75	45659.17
577.92	45551.51
578.08	45443.84
578.24	45427.46
578.40	45724.71
578.56	45727.05
578.72	45619.38
578.88	45982.16
579.04	45911.95
579.21	45518.74
579.37	45668.53
579.53	46082.81
579.69	45258.94
579.85	45713.00
580.01	45769.18
580.17	45904.93
580.33	45647.47
580.49	45787.90
580.65	45645.13
580.82	45776.20
580.98	45610.02
581.14	45963.44
581.30	46082.81
581.46	45663.85
581.62	46227.92
581.78	45914.29
581.94	46258.35
582.10	46089.83
582.26	45872.16
582.42	45464.91
582.58	45806.62
582.74	45918.97
582.90	45958.76
583.06	45970.46
583.22	45684.92
583.38	46241.96
583.54	46026.63
583.70	45991.53
583.86	45956.42
584.02	45799.60
584.18	46312.18
584.34	46021.95
584.50	45855.78
584.66	45497.67
584.82	45890.88
584.98	45951.74
585.14	45979.82
585.30	45617.04
585.46	45593.64
585.62	45425.12
585.78	45677.90
585.94	45741.09
586.10	45680.24
586.26	45680.24
586.42	45951.74
586.58	45965.78
586.74	46190.47
586.90	45841.73
587.06	46040.68
587.22	45951.74
587.38	45933.01
587.54	45904.93
587.70	46007.91
587.86	45633.42
588.02	45492.99
588.18	45874.50
588.34	45677.90
588.49	45322.13
588.65	45233.19
588.81	45287.03
588.97	44917.22
589.13	45254.26
589.29	45586.61
589.45	45525.76
589.61	45633.42
589.77	46164.73
589.93	45872.16
590.08	46129.62
