SpectraSuite Data File
++++++++++++++++++++++++++++++++++++
Date: Fri Oct 25 10:43:38 EDT 2013
User: price-jones
Dark Spectrum Present: No
Reference Spectrum Present: No
Number of Sampled Component Spectra: 1
Spectrometers: USB2+H05261
Integration Time (usec): 100000 (USB2+H05261)
Spectra Averaged: 1 (USB2+H05261)
Boxcar Smoothing: 0 (USB2+H05261)
Correct for Electrical Dark: No (USB2+H05261)
Strobe/Lamp Enabled: No (USB2+H05261)
Correct for Detector Non-linearity: No (USB2+H05261)
Correct for Stray Light: No (USB2+H05261)
Number of Pixels in Processed Spectrum: 2048
>>>>>Begin Processed Spectral Data<<<<<
365.73	152.13
365.92	152.13
366.12	152.13
366.32	46.81
366.52	0.00
366.72	23.41
366.91	44.47
367.11	25.75
367.31	4.68
367.51	0.00
367.70	49.15
367.90	102.98
368.10	0.00
368.30	0.00
368.49	0.00
368.69	11.70
368.89	18.72
369.09	110.01
369.28	88.94
369.48	37.45
369.68	74.90
369.87	110.01
370.07	112.35
370.27	128.73
370.47	201.29
370.66	285.55
370.86	418.96
371.06	447.04
371.25	526.62
371.45	465.77
371.65	550.03
371.84	409.59
372.04	465.77
372.24	498.53
372.44	479.81
372.63	538.32
372.83	575.77
373.03	521.94
373.22	524.28
373.42	575.77
373.62	535.98
373.81	510.24
374.01	580.45
374.21	554.71
374.40	503.22
374.60	578.11
374.79	547.69
374.99	592.16
375.19	608.54
375.38	550.03
375.58	550.03
375.78	667.05
375.97	613.22
376.17	606.20
376.37	557.05
376.56	521.94
376.76	535.98
376.95	582.79
377.15	683.44
377.35	634.29
377.54	690.46
377.74	615.56
377.93	695.14
378.13	720.88
378.33	650.67
378.52	599.18
378.72	664.71
378.91	676.41
379.11	582.79
379.31	535.98
379.50	622.58
379.70	660.03
379.89	751.31
380.09	624.92
380.28	692.80
380.48	809.83
380.68	660.03
380.87	667.05
381.07	732.59
381.26	671.73
381.46	765.36
381.65	636.63
381.85	664.71
382.04	681.10
382.24	746.63
382.43	627.26
382.63	723.23
382.83	697.48
383.02	631.94
383.22	795.78
383.41	758.33
383.61	723.23
383.80	807.48
384.00	837.91
384.19	744.29
384.39	851.96
384.58	826.21
384.78	830.89
384.97	800.46
385.17	830.89
385.36	812.17
385.56	802.80
385.75	765.36
385.95	854.30
386.14	877.70
386.34	840.25
386.53	816.85
386.72	854.30
386.92	896.43
387.11	896.43
387.31	908.13
387.50	849.61
387.70	905.79
387.89	826.21
388.09	802.80
388.28	866.00
388.48	882.38
388.67	983.02
388.86	908.13
389.06	875.36
389.25	964.30
389.45	936.21
389.64	1022.81
389.84	999.41
390.03	1032.18
390.22	1053.24
390.42	1011.11
390.61	931.53
390.81	1027.50
391.00	978.34
391.19	994.73
391.39	1069.62
391.58	1004.09
391.78	1032.18
391.97	997.07
392.16	1071.97
392.36	957.28
392.55	973.66
392.75	1048.56
392.94	1022.81
393.13	976.00
393.33	966.64
393.52	1060.26
393.71	1132.82
393.91	1165.59
394.10	1184.31
394.29	1181.97
394.49	1135.16
394.68	1088.35
394.88	1200.69
395.07	1205.38
395.26	1214.74
395.46	1160.91
395.65	1210.06
395.84	1224.10
396.04	1130.48
396.23	1268.57
396.42	1252.19
396.62	1254.53
396.81	1186.65
397.00	1268.57
397.19	1296.66
397.39	1350.49
397.58	1472.20
397.77	1336.45
397.97	1460.49
398.16	1500.28
398.35	1425.39
398.55	1481.56
398.74	1451.13
398.93	1476.88
399.12	1500.28
399.32	1540.07
399.51	1519.01
399.70	1565.82
399.90	1523.69
400.09	1586.88
400.28	1682.85
400.47	1584.54
400.67	1671.14
400.86	1647.74
401.05	1654.76
401.24	1724.97
401.44	1703.91
401.63	1657.10
401.82	1739.02
402.01	1746.04
402.21	1849.02
402.40	1771.79
402.59	1799.87
402.78	1769.44
402.97	1750.72
403.17	1881.79
403.36	1820.94
403.55	1849.02
403.74	1930.94
403.93	1844.34
404.13	1914.56
404.32	1952.01
404.51	1900.52
404.70	1944.99
404.89	1856.04
405.09	1991.80
405.28	1966.05
405.47	1968.39
405.66	1991.80
405.85	2050.31
406.05	1996.48
406.24	2024.56
406.43	2108.82
406.62	2183.72
406.81	2202.44
407.00	2118.18
407.20	2129.89
407.39	2015.20
407.58	2150.95
407.77	2314.79
407.96	2202.44
408.15	2249.25
408.34	2214.15
408.54	2340.54
408.73	2385.01
408.92	2312.45
409.11	2396.71
409.30	2221.17
409.49	2326.49
409.68	2305.43
409.87	2282.02
410.07	2413.09
410.26	2527.78
410.45	2415.43
410.64	2396.71
410.83	2497.35
411.02	2513.74
411.21	2579.27
411.40	2642.46
411.59	2700.98
411.78	2530.12
411.98	2689.28
412.17	2612.04
412.36	2602.68
412.55	2846.09
412.74	2700.98
412.93	2813.32
413.12	2686.94
413.31	2864.82
413.50	2935.03
413.69	2853.11
413.88	2956.10
414.07	2993.55
414.26	2998.23
414.45	3019.29
414.64	3028.65
414.83	3033.33
415.02	3101.21
415.22	3141.00
415.41	3272.07
415.60	3056.74
415.79	3173.77
415.98	3314.20
416.17	3323.56
416.36	3332.92
416.55	3276.75
416.74	3454.63
416.93	3356.33
417.12	3309.52
417.31	3361.01
417.50	3295.47
417.69	3440.59
417.88	3335.26
418.07	3407.82
418.26	3508.46
418.45	3426.54
418.64	3583.36
418.83	3438.25
419.02	3632.51
419.21	3674.64
419.39	3574.00
419.58	3442.93
419.77	3597.40
419.96	3662.94
420.15	3723.79
420.34	3742.52
420.53	3772.94
420.72	3838.48
420.91	3819.75
421.10	3901.67
421.29	3826.78
421.48	3791.67
421.67	3901.67
421.86	3885.29
422.05	3815.07
422.24	3758.90
422.43	3770.60
422.61	3899.33
422.80	3927.42
422.99	3999.98
423.18	4039.76
423.37	3967.21
423.56	3992.95
423.75	3915.72
423.94	4018.70
424.13	3803.37
424.32	3761.24
424.50	4191.90
424.69	3955.51
424.88	4086.58
425.07	4016.36
425.26	3850.18
425.45	3950.82
425.64	3896.99
425.83	3929.76
426.01	4030.40
426.20	3974.23
426.39	4002.32
426.58	4011.68
426.77	3936.78
426.96	3971.89
427.15	3908.69
427.33	4079.55
427.52	4217.65
427.71	4093.60
427.90	4234.03
428.09	4119.34
428.28	4210.62
428.46	4070.19
428.65	4058.49
428.84	4194.24
429.03	4180.20
429.22	4009.34
429.40	4196.58
429.59	4217.65
429.78	3962.53
429.97	4095.94
430.16	4117.00
430.34	4231.69
430.53	4152.11
430.72	4145.09
430.91	4081.89
431.10	4407.23
431.28	4608.51
431.47	4657.67
431.66	4784.06
431.85	4517.23
432.03	4559.36
432.22	4681.07
432.41	4660.01
432.60	4741.93
432.79	4795.76
432.97	4861.29
433.16	4713.84
433.35	4697.46
433.54	4723.20
433.72	4641.28
433.91	4688.09
434.10	4762.99
434.28	4762.99
434.47	4894.06
434.66	5011.09
434.85	5048.54
435.03	5097.69
435.22	5046.20
435.41	5198.33
435.59	4968.96
435.78	5085.98
435.97	5207.69
436.16	5093.01
436.34	5053.22
436.53	5163.22
436.72	5432.38
436.90	5350.46
437.09	5160.88
437.28	5142.16
437.46	5268.55
437.65	5165.56
437.84	5252.16
438.02	5186.63
438.21	5160.88
438.40	5214.71
438.58	5373.87
438.77	5544.73
438.96	5455.79
439.14	5673.46
439.33	5633.67
439.52	5607.92
439.70	5600.90
439.89	5849.00
440.08	5802.19
440.26	5680.48
440.45	5874.74
440.63	5781.12
440.82	6101.78
441.01	6054.97
441.19	6150.93
441.38	6080.71
441.57	6155.61
441.75	6195.40
441.94	6403.71
442.12	6284.34
442.31	6317.11
442.50	6356.90
442.68	6340.51
442.87	6399.02
443.05	6443.49
443.24	6509.03
443.43	6338.17
443.61	6581.59
443.80	6693.93
443.98	6492.65
444.17	6324.13
444.35	6539.46
444.54	6593.29
444.73	6590.95
444.91	6546.48
445.10	6567.54
445.28	6494.99
445.47	6492.65
445.65	6443.49
445.84	6490.31
446.02	6775.85
446.21	6581.59
446.39	6609.67
446.58	6801.60
446.77	6668.19
446.95	6604.99
447.14	6817.98
447.32	6876.49
447.51	6623.72
447.69	6799.26
447.88	6850.75
448.06	6832.02
448.25	6890.54
448.43	6888.20
448.62	6848.41
448.80	6717.34
448.99	6740.74
449.17	6895.22
449.36	6829.68
449.54	6782.87
449.73	7225.23
449.91	6977.14
450.10	7178.42
450.28	7363.33
450.46	7204.17
450.65	7316.51
450.83	7185.44
451.02	7220.55
451.20	7414.82
451.39	7372.69
451.57	7236.94
451.76	7222.89
451.94	7243.96
452.13	7489.71
452.31	7363.33
452.49	7159.70
452.68	7382.05
452.86	7232.26
453.05	7431.20
453.23	7527.16
453.42	7148.00
453.60	7398.43
453.78	7632.49
453.97	7538.87
454.15	7372.69
454.34	7438.22
454.52	7541.21
454.70	7485.03
454.89	7681.64
455.07	7770.58
455.26	7669.94
455.44	7796.32
455.62	7894.63
455.81	7770.58
455.99	7763.56
456.17	7786.96
456.36	8084.21
456.54	8053.78
456.73	7913.35
456.91	8477.42
457.09	8173.15
457.28	8397.84
457.46	8138.04
457.64	8222.30
457.83	8278.47
458.01	8028.04
458.19	8329.97
458.38	8077.19
458.56	8147.40
458.74	8381.46
458.93	8292.52
459.11	8355.71
459.29	8425.93
459.48	8304.22
459.66	8423.59
459.84	8187.19
460.03	8454.02
460.21	8493.80
460.39	8798.07
460.57	8760.63
460.76	8648.28
460.94	8629.56
461.12	8559.34
461.31	8786.37
461.49	8704.45
461.67	8568.70
461.85	9067.24
462.04	8938.51
462.22	9266.18
462.40	9128.09
462.59	9027.45
462.77	8917.44
462.95	8924.46
463.13	8887.01
463.32	9046.17
463.50	8975.95
463.68	9132.77
463.86	9069.58
464.05	8865.95
464.23	9210.01
464.41	9032.13
464.59	8964.25
464.78	9270.86
464.96	9294.27
465.14	9139.79
465.32	9310.65
465.50	9462.79
465.69	9455.76
465.87	9160.86
466.05	9252.14
466.23	9352.78
466.41	9193.62
466.60	9394.91
466.78	9294.27
466.96	9338.74
467.14	9373.85
467.32	9549.39
467.51	9753.01
467.69	9238.09
467.87	9289.59
468.05	9694.50
468.23	9437.04
468.41	9399.59
468.60	9481.51
468.78	9610.24
468.96	9579.81
469.14	9565.77
469.32	9867.70
469.50	9661.73
469.69	9792.80
469.87	9926.21
470.05	9858.34
470.23	9802.16
470.41	9841.95
470.59	9900.47
470.77	9802.16
470.95	9841.95
471.14	10249.21
471.32	9975.36
471.50	10249.21
471.68	10340.49
471.86	10436.45
472.04	10511.35
472.22	10731.36
472.40	10291.34
472.58	10597.95
472.77	10644.76
472.95	10623.69
473.13	10813.28
473.31	10729.02
473.49	10593.26
473.67	10640.08
473.85	10656.46
474.03	10970.09
474.21	11133.93
474.39	11201.80
474.57	11012.22
474.75	11314.15
474.93	11178.40
475.12	11260.32
475.30	11330.53
475.48	11398.41
475.66	11634.80
475.84	11239.25
476.02	11606.72
476.20	11485.01
476.38	11571.61
476.56	11735.45
476.74	12226.96
476.92	11824.39
477.10	12173.13
477.28	12196.53
477.46	12313.56
477.64	12484.42
477.82	12397.82
478.00	12720.81
478.18	12685.70
478.36	12751.24
478.54	12746.56
478.72	12671.66
478.90	13137.43
479.08	13240.41
479.26	13231.05
479.44	13247.43
479.62	13514.25
479.80	13420.63
479.98	13399.57
480.16	13745.97
480.34	13640.64
480.52	13944.91
480.70	13811.50
480.88	13645.32
481.06	14143.86
481.24	14071.30
481.41	14443.45
481.59	14345.14
481.77	14506.64
481.95	14684.52
482.13	14623.67
482.31	14623.67
482.49	15049.64
482.67	14663.46
482.85	14967.73
483.03	15391.36
483.21	15255.61
483.39	15573.92
483.57	15482.64
483.74	15744.78
483.92	15735.42
484.10	15899.26
484.28	15920.32
484.46	16126.29
484.64	16657.59
484.82	16107.57
485.00	16182.46
485.18	16697.38
485.35	16753.55
485.53	16196.51
485.71	16386.09
485.89	16500.78
486.07	16561.63
486.25	16688.02
486.43	17132.72
486.61	17088.25
486.78	17394.86
486.96	17549.34
487.14	17664.02
487.32	17692.11
487.50	17989.36
487.68	17982.34
487.85	18518.32
488.03	18768.76
488.21	18590.88
488.39	18635.35
488.57	19112.81
488.75	18670.45
488.92	19290.70
489.10	19180.69
489.28	19491.98
489.46	19543.47
489.64	19857.10
489.81	20201.16
489.99	20091.16
490.17	20229.25
490.35	20676.29
490.53	20723.10
490.70	20725.44
490.88	20812.04
491.06	20947.79
491.24	20769.91
491.41	20751.19
491.59	20575.65
491.77	21270.79
491.95	21160.78
492.13	21511.86
492.30	21656.98
492.48	21940.18
492.66	22043.17
492.84	21736.56
493.01	22300.62
493.19	22464.46
493.37	22326.37
493.54	22576.81
493.72	22555.74
493.90	22981.72
494.08	23147.90
494.25	23323.44
494.43	23250.88
494.61	23789.20
494.79	23637.07
494.96	23353.87
495.14	23854.74
495.32	24053.69
495.49	24163.69
495.67	23913.25
495.85	24217.52
496.02	24552.22
496.20	24369.66
496.38	24746.48
496.55	24687.97
496.73	25034.37
496.91	25268.42
497.09	25507.16
497.26	25188.85
497.44	25345.66
497.62	25577.37
497.79	25905.05
497.97	25336.30
498.14	25294.17
498.32	25940.16
498.50	25977.61
498.67	26544.02
498.85	26099.31
499.03	26705.51
499.20	26361.45
499.38	26445.71
499.56	26656.36
499.73	27000.42
499.91	26658.70
500.08	26817.86
500.26	26675.09
500.44	26831.90
500.61	26511.25
500.79	26792.11
500.97	27105.74
501.14	27356.18
501.32	27051.91
501.49	27232.13
501.67	27096.38
501.84	27459.16
502.02	27861.74
502.20	27697.90
502.37	28257.29
502.55	27655.77
502.72	28025.57
502.90	28465.60
503.07	28142.60
503.25	28149.62
503.43	27971.74
503.60	28334.53
503.78	28348.57
503.95	28629.43
504.13	28706.67
504.30	28903.28
504.48	28584.96
504.65	28950.09
504.83	29507.13
505.01	29511.81
505.18	29537.56
505.36	29617.14
505.53	29457.98
505.71	30085.25
505.88	29640.54
506.06	29647.57
506.23	30052.48
506.41	29944.81
506.58	29907.37
506.76	30235.04
506.93	30202.27
507.11	30263.13
507.28	30345.05
507.46	30183.55
507.63	30391.86
507.81	30515.90
507.98	30291.21
508.16	30410.58
508.33	30513.56
508.50	31082.31
508.68	30845.92
508.85	31384.24
509.03	31197.00
509.20	31257.85
509.38	31325.73
509.55	31229.77
509.73	31814.90
509.90	31515.31
510.08	31552.76
510.25	31115.08
510.42	31630.00
510.60	31824.26
510.77	31840.65
510.95	32713.67
511.12	32072.36
511.30	32318.12
511.47	32676.22
511.64	33064.75
511.82	32521.74
511.99	32463.23
512.17	32313.44
512.34	32369.61
512.51	32975.81
512.69	33127.94
512.86	32407.06
513.04	32900.91
513.21	32954.74
513.38	32882.19
513.56	33668.61
513.73	33053.05
513.90	33593.71
514.08	33259.01
514.25	33610.09
514.43	33347.95
514.60	33682.65
514.77	33642.86
514.95	34029.05
515.12	33727.12
515.29	34190.55
515.47	34270.12
515.64	34349.70
515.81	34246.72
515.99	34312.25
516.16	33823.08
516.33	33614.77
516.51	34160.12
516.68	33413.49
516.85	33640.52
517.03	33535.20
517.20	33998.62
517.37	34644.61
517.54	34518.22
517.72	34342.68
517.89	34291.19
518.06	33795.00
518.24	34370.77
518.41	34649.29
518.58	34670.36
518.75	34658.65
518.93	35035.48
519.10	35070.59
519.27	35431.03
519.45	35178.25
519.62	35938.93
519.79	35543.38
519.96	35824.24
520.14	35688.49
520.31	34976.97
520.48	35988.08
520.65	36156.60
520.83	36144.89
521.00	36282.98
521.17	35700.19
521.34	36027.87
521.52	36074.68
521.69	36154.26
521.86	36346.18
522.03	36687.90
522.20	36364.90
522.38	36652.79
522.55	36500.65
522.72	37022.59
522.89	36259.58
523.07	36891.52
523.24	36947.70
523.41	37088.13
523.58	36966.42
523.75	37684.97
523.92	37345.59
524.10	37406.44
524.27	37488.36
524.44	37380.70
524.61	37633.47
524.78	37809.01
524.96	37703.69
525.13	38122.65
525.30	38096.90
525.47	37811.35
525.64	37958.81
525.81	37694.33
525.98	37556.24
526.16	37628.79
526.33	37549.21
526.50	37546.87
526.67	37479.00
526.84	37233.24
527.01	37965.83
527.18	38092.22
527.36	38263.08
527.53	38586.07
527.70	38857.57
527.87	38906.73
528.04	38508.83
528.21	38272.44
528.38	38843.53
528.55	39182.91
528.72	38899.70
528.89	39342.06
529.07	39215.68
529.24	38930.13
529.41	39597.18
529.58	39082.27
529.75	38967.58
529.92	39707.19
530.09	39150.14
530.26	39562.08
530.43	39672.08
530.60	39152.48
530.77	39536.33
530.94	40116.78
531.11	39618.25
531.28	39981.03
531.46	39976.35
531.63	39971.67
531.80	39651.02
531.97	39707.19
532.14	39693.15
532.31	39431.01
532.48	39564.42
532.65	39927.20
532.82	39917.84
532.99	39906.13
533.16	39906.13
533.33	40275.94
533.50	40355.52
533.67	40301.68
533.84	39779.74
534.01	40322.75
534.18	40542.76
534.35	40580.21
534.52	40142.53
534.69	40474.88
534.86	40737.02
535.03	40748.73
535.20	41017.89
535.37	41247.26
535.54	40982.78
535.71	40982.78
535.88	40910.22
536.05	40428.07
536.22	40722.98
536.38	40924.27
536.55	40765.11
536.72	40774.47
536.89	40657.45
537.06	40840.01
537.23	41240.24
537.40	40978.10
537.57	41294.07
537.74	41642.81
537.91	41984.53
538.08	41392.37
538.25	41163.00
538.42	41392.37
538.59	41282.37
538.75	40818.94
538.92	41188.75
539.09	41591.32
539.26	41769.20
539.43	41474.29
539.60	41553.87
539.77	41406.42
539.94	41720.05
540.11	41347.90
540.28	41883.89
540.44	41965.81
540.61	41713.03
540.78	41624.09
540.95	41816.01
541.12	41518.76
541.29	41649.83
541.46	41900.27
541.62	42202.20
541.79	42047.72
541.96	41738.77
542.13	42054.75
542.30	42010.28
542.47	42181.13
542.63	42373.06
542.80	41975.17
542.97	42953.51
543.14	43138.41
543.31	43225.01
543.48	43012.02
543.64	42784.99
543.81	43246.08
543.98	42768.61
544.15	43306.93
544.32	43026.07
544.48	43618.22
544.65	43166.50
544.82	43468.43
544.99	42876.27
545.16	43044.79
545.32	43290.55
545.49	43786.74
545.66	43295.23
545.83	43402.89
546.00	43320.98
546.16	43166.50
546.33	43335.02
546.50	42602.43
546.67	43337.36
546.83	42979.26
547.00	43643.97
547.17	43550.35
547.34	43288.21
547.50	43489.49
547.67	43641.63
547.84	43175.86
548.00	43913.13
548.17	44126.12
548.34	43875.68
548.51	44149.53
548.67	44072.29
548.84	44135.48
549.01	43606.52
549.18	43964.62
549.34	44257.19
549.51	43966.96
549.68	43803.13
549.84	44252.51
550.01	44161.23
550.18	43856.96
550.34	43931.86
550.51	44254.85
550.68	44196.34
550.84	43779.72
551.01	44030.16
551.18	44100.37
551.34	44355.49
551.51	44505.29
551.68	44350.81
551.84	44582.52
552.01	44002.07
552.18	44451.45
552.34	44083.99
552.51	44535.71
552.68	44215.06
552.84	44680.83
553.01	44783.81
553.18	44765.09
553.34	44533.37
553.51	44989.78
553.67	44861.05
553.84	45209.79
554.01	44985.10
554.17	45123.19
554.34	45092.76
554.51	44870.41
554.67	45170.00
554.84	45146.59
555.00	44987.44
555.17	44662.10
555.33	44835.30
555.50	45223.83
555.67	45198.09
555.83	44942.97
556.00	45181.70
556.16	45385.33
556.33	44924.24
556.50	45141.91
556.66	45411.07
556.83	44729.98
556.99	45118.51
557.16	45223.83
557.32	45333.84
557.49	45504.70
557.65	45294.05
557.82	45415.76
557.98	45408.73
558.15	45462.57
558.32	45134.89
558.48	45139.57
558.65	45038.93
558.81	45254.26
558.98	45205.11
559.14	44903.18
559.31	44931.26
559.47	45301.07
559.64	45696.62
559.80	45020.20
559.97	45551.51
560.13	44671.46
560.30	45415.76
560.46	45558.53
560.63	45766.84
560.79	45708.32
560.96	45848.75
561.12	45778.54
561.29	45244.90
561.45	45425.12
561.61	45312.77
561.78	45497.67
561.94	45535.12
562.11	45619.38
562.27	45289.37
562.44	45729.39
562.60	45500.01
562.77	45799.60
562.93	45628.74
563.10	45823.01
563.26	45649.81
563.42	45691.94
563.59	45808.96
563.75	46157.70
563.92	45778.54
564.08	45631.08
564.24	46309.84
564.41	45649.81
564.57	45390.01
564.74	45902.59
564.90	46106.21
565.07	46068.76
565.23	45794.92
565.39	45621.72
565.56	45918.97
565.72	45890.88
565.88	45701.30
566.05	45565.55
566.21	45565.55
566.38	45633.42
566.54	45914.29
566.70	46211.54
566.87	46101.53
567.03	45759.81
567.19	46401.12
567.36	46230.26
567.52	46085.15
567.68	46223.24
567.85	45923.65
568.01	45895.56
568.17	45544.48
568.34	46391.76
568.50	46223.24
568.66	45600.66
568.83	46192.81
568.99	45741.09
569.15	46003.23
569.32	46031.32
569.48	45799.60
569.64	45783.22
569.81	46307.50
569.97	45933.01
570.13	45724.71
570.30	46068.76
570.46	45418.10
570.62	45446.18
570.78	45720.02
570.95	45640.45
571.11	46209.20
571.27	46101.53
571.43	45806.62
571.60	46099.19
571.76	45982.16
571.92	45986.85
572.09	46146.00
572.25	46047.70
572.41	46539.21
572.57	46150.68
572.74	46541.55
572.90	45979.82
573.06	46298.14
573.22	46497.08
573.38	46138.98
573.55	46075.79
573.71	46471.34
573.87	46131.96
574.03	46302.82
574.20	46190.47
574.36	45907.27
574.52	46265.37
574.68	46082.81
574.84	46316.86
575.01	46471.34
575.17	46101.53
575.33	45914.29
575.49	45993.87
575.65	46401.12
575.82	46574.32
575.98	46382.40
576.14	46298.14
576.30	46277.07
576.46	46384.74
576.62	45855.78
576.79	45907.27
576.95	45834.71
577.11	46347.29
577.27	46415.16
577.43	46417.50
577.59	46248.99
577.75	45556.19
577.92	45198.09
578.08	45872.16
578.24	45818.33
578.40	45741.09
578.56	46349.63
578.72	45914.29
578.88	46375.37
579.04	46689.01
579.21	46073.45
579.37	46363.67
579.53	46122.60
579.69	45539.80
579.85	45862.80
580.01	46492.40
580.17	45865.14
580.33	46340.27
580.49	46553.26
580.65	46106.21
580.82	46204.52
580.98	46178.77
581.14	45975.14
581.30	46988.60
581.46	46440.91
581.62	46459.63
581.78	46431.55
581.94	46471.34
582.10	46799.01
582.26	46380.06
582.42	46569.64
582.58	46040.68
582.74	46220.90
582.90	46487.72
583.06	46880.93
583.22	46206.86
583.38	46810.71
583.54	46611.77
583.70	46597.73
583.86	46368.35
584.02	46155.36
584.18	46358.99
584.34	46279.41
584.50	46644.54
584.66	46113.23
584.82	46513.47
584.98	46321.54
585.14	46040.68
585.30	46335.59
585.46	46452.61
585.62	45979.82
585.78	46122.60
585.94	46050.04
586.10	46422.19
586.26	46043.02
586.42	46483.04
586.58	46890.29
586.74	46546.23
586.90	46340.27
587.06	46476.02
587.22	46550.91
587.38	46150.68
587.54	46452.61
587.70	46466.66
587.86	46368.35
588.02	46162.39
588.18	46536.87
588.34	46298.14
588.49	46003.23
588.65	45680.24
588.81	45738.75
588.97	46181.11
589.13	45691.94
589.29	45916.63
589.45	46265.37
589.61	46225.58
589.77	46520.49
589.93	46658.58
590.08	46600.07
