SpectraSuite Data File
++++++++++++++++++++++++++++++++++++
Date: Fri Oct 25 10:48:02 EDT 2013
User: price-jones
Dark Spectrum Present: No
Reference Spectrum Present: No
Number of Sampled Component Spectra: 1
Spectrometers: USB2+H05261
Integration Time (usec): 100000 (USB2+H05261)
Spectra Averaged: 1 (USB2+H05261)
Boxcar Smoothing: 0 (USB2+H05261)
Correct for Electrical Dark: No (USB2+H05261)
Strobe/Lamp Enabled: No (USB2+H05261)
Correct for Detector Non-linearity: No (USB2+H05261)
Correct for Stray Light: No (USB2+H05261)
Number of Pixels in Processed Spectrum: 2048
>>>>>Begin Processed Spectral Data<<<<<
365.73	131.07
365.92	131.07
366.12	131.07
366.32	95.96
366.52	0.00
366.72	46.81
366.91	28.09
367.11	16.38
367.31	2.34
367.51	53.83
367.70	21.06
367.90	51.49
368.10	79.58
368.30	84.26
368.49	16.38
368.69	74.90
368.89	107.66
369.09	9.36
369.28	53.83
369.48	9.36
369.68	149.79
369.87	110.01
370.07	124.05
370.27	222.35
370.47	248.10
370.66	327.68
370.86	484.49
371.06	468.11
371.25	416.62
371.45	456.40
371.65	465.77
371.84	486.83
372.04	414.27
372.24	456.40
372.44	507.90
372.63	547.69
372.83	547.69
373.03	517.26
373.22	484.49
373.42	552.37
373.62	521.94
373.81	531.30
374.01	564.07
374.21	524.28
374.40	575.77
374.60	627.26
374.79	486.83
374.99	540.66
375.19	547.69
375.38	645.99
375.58	575.77
375.78	550.03
375.97	599.18
376.17	631.94
376.37	580.45
376.56	568.75
376.76	561.73
376.95	540.66
377.15	608.54
377.35	662.37
377.54	617.90
377.74	596.84
377.93	603.86
378.13	613.22
378.33	641.31
378.52	603.86
378.72	667.05
378.91	559.39
379.11	601.52
379.31	620.24
379.50	557.05
379.70	662.37
379.89	683.44
380.09	629.60
380.28	613.22
380.48	685.78
380.68	627.26
380.87	580.45
381.07	636.63
381.26	676.41
381.46	660.03
381.65	678.76
381.85	650.67
382.04	683.44
382.24	589.82
382.43	695.14
382.63	746.63
382.83	629.60
383.02	725.57
383.22	704.50
383.41	681.10
383.61	739.61
383.80	704.50
384.00	751.31
384.19	732.59
384.39	725.57
384.58	763.01
384.78	781.74
384.97	730.25
385.17	784.08
385.36	788.76
385.56	755.99
385.75	781.74
385.95	741.95
386.14	791.10
386.34	821.53
386.53	884.72
386.72	826.21
386.92	788.76
387.11	781.74
387.31	763.01
387.50	809.83
387.70	840.25
387.89	812.17
388.09	830.89
388.28	767.70
388.48	884.72
388.67	847.27
388.86	835.57
389.06	901.11
389.25	877.70
389.45	856.64
389.64	908.13
389.84	938.55
390.03	976.00
390.22	873.02
390.42	978.34
390.61	952.60
390.81	891.74
391.00	936.21
391.19	968.98
391.39	896.43
391.58	929.19
391.78	915.15
391.97	1018.13
392.16	919.83
392.36	938.55
392.55	858.98
392.75	950.26
392.94	922.17
393.13	992.39
393.33	945.58
393.52	1008.77
393.71	1062.60
393.91	1034.52
394.10	961.96
394.29	1118.78
394.49	1067.28
394.68	1144.52
394.88	1055.58
395.07	1224.10
395.26	1050.90
395.46	1118.78
395.65	1064.94
395.84	1067.28
396.04	1160.91
396.23	1090.69
396.42	1151.54
396.62	1071.97
396.81	1111.75
397.00	1111.75
397.19	1181.97
397.39	1219.42
397.58	1233.46
397.77	1200.69
397.97	1259.21
398.16	1261.55
398.35	1153.88
398.55	1226.44
398.74	1291.98
398.93	1366.87
399.12	1387.94
399.32	1355.17
399.51	1334.11
399.70	1387.94
399.90	1334.11
400.09	1275.59
400.28	1392.62
400.47	1336.45
400.67	1493.26
400.86	1455.81
401.05	1373.89
401.24	1387.94
401.44	1500.28
401.63	1547.09
401.82	1497.94
402.01	1511.99
402.21	1472.20
402.40	1511.99
402.59	1547.09
402.78	1589.22
402.97	1554.12
403.17	1589.22
403.36	1483.90
403.55	1568.16
403.74	1511.99
403.93	1640.72
404.13	1593.90
404.32	1666.46
404.51	1636.03
404.70	1748.38
404.89	1666.46
405.09	1760.08
405.28	1638.38
405.47	1736.68
405.66	1732.00
405.85	1832.64
406.05	1659.44
406.24	1753.06
406.43	1757.74
406.62	1771.79
406.81	1827.96
407.00	1790.51
407.20	1795.19
407.39	1795.19
407.58	1858.39
407.77	1884.13
407.96	1933.28
408.15	2015.20
408.34	2057.33
408.54	1909.88
408.73	1994.14
408.92	1973.07
409.11	2031.58
409.30	1994.14
409.49	2125.21
409.68	1973.07
409.87	1930.94
410.07	2038.61
410.26	2094.78
410.45	2031.58
410.64	2129.89
410.83	2160.31
411.02	2195.42
411.21	2235.21
411.40	2237.55
411.59	2174.36
411.78	2307.77
411.98	2242.23
412.17	2354.58
412.36	2363.94
412.55	2347.56
412.74	2368.62
412.93	2497.35
413.12	2438.84
413.31	2511.39
413.50	2424.80
413.69	2495.01
413.88	2530.12
414.07	2401.39
414.26	2487.99
414.45	2574.59
414.64	2677.57
414.83	2553.52
415.02	2649.49
415.22	2740.77
415.41	2698.64
415.60	2738.43
415.79	2754.81
415.98	2843.75
416.17	2832.05
416.36	2801.62
416.55	2782.90
416.74	2813.32
416.93	2925.67
417.12	2904.60
417.31	3033.33
417.50	2918.65
417.69	3033.33
417.88	3021.63
418.07	2874.18
418.26	2953.76
418.45	2984.18
418.64	3206.53
418.83	3176.11
419.02	3110.57
419.21	3115.25
419.39	3276.75
419.58	3054.40
419.77	3155.04
419.96	3096.53
420.15	3166.74
420.34	3185.47
420.53	3133.98
420.72	3330.58
420.91	3297.81
421.10	3365.69
421.29	3478.04
421.48	3478.04
421.67	3370.37
421.86	3459.31
422.05	3356.33
422.24	3361.01
422.43	3330.58
422.61	3442.93
422.80	3365.69
422.99	3447.61
423.18	3531.87
423.37	3372.71
423.56	3428.88
423.75	3494.42
423.94	3485.06
424.13	3204.19
424.32	3503.78
424.50	3459.31
424.69	3541.23
424.88	3606.77
425.07	3431.23
425.26	3475.70
425.45	3538.89
425.64	3471.01
425.83	3545.91
426.01	3543.57
426.20	3541.23
426.39	3592.72
426.58	3494.42
426.77	3581.02
426.96	3545.91
427.15	3468.67
427.33	3541.23
427.52	3599.74
427.71	3527.19
427.90	3559.95
428.09	3712.09
428.28	3658.26
428.46	3716.77
428.65	3740.18
428.84	3747.20
429.03	3976.57
429.22	3744.86
429.40	3779.97
429.59	3754.22
429.78	3592.72
429.97	3534.21
430.16	3756.56
430.34	3791.67
430.53	4025.72
430.72	3932.10
430.91	3782.31
431.10	3896.99
431.28	3974.23
431.47	4215.30
431.66	4107.64
431.85	3978.91
432.03	4182.54
432.22	4114.66
432.41	4128.70
432.60	4229.35
432.79	4142.75
432.97	4231.69
433.16	4156.79
433.35	4102.96
433.54	4219.99
433.72	4135.73
433.91	4208.28
434.10	4264.46
434.28	4306.59
434.47	4376.80
434.66	4376.80
434.85	4388.50
435.03	4395.53
435.22	4383.82
435.41	4514.89
435.59	4465.74
435.78	4500.85
435.97	4587.45
436.16	4505.53
436.34	4390.84
436.53	4468.08
436.72	4624.90
436.90	4566.39
437.09	4725.54
437.28	4463.40
437.46	4550.00
437.65	4564.04
437.84	4432.97
438.02	4676.39
438.21	4716.18
438.40	4610.86
438.58	4830.87
438.77	4774.69
438.96	4697.46
439.14	4821.50
439.33	4912.78
439.52	5008.75
439.70	4936.19
439.89	5027.47
440.08	5172.58
440.26	5177.26
440.45	5116.41
440.63	5139.82
440.82	5387.91
441.01	5186.63
441.19	5430.04
441.38	5404.30
441.57	5282.59
441.75	5362.17
441.94	5675.80
442.12	5469.83
442.31	5509.62
442.50	5614.95
442.68	5516.64
442.87	5558.77
443.05	5558.77
443.24	5769.42
443.43	5624.31
443.61	5673.46
443.80	5792.83
443.98	5687.50
444.17	5626.65
444.35	5680.48
444.54	5879.43
444.73	5790.49
444.91	5849.00
445.10	5713.25
445.28	5657.07
445.47	5722.61
445.65	5839.64
445.84	5919.21
446.02	5832.62
446.21	5951.98
446.39	5792.83
446.58	5921.56
446.77	5762.40
446.95	5701.54
447.14	5832.62
447.32	5825.59
447.51	6024.54
447.69	5781.12
447.88	5968.37
448.06	5977.73
448.25	5870.06
448.43	5879.43
448.62	5860.70
448.80	5893.47
448.99	5947.30
449.17	5989.43
449.36	5891.13
449.54	6085.39
449.73	6260.93
449.91	6298.38
450.10	6298.38
450.28	6359.24
450.46	6139.23
450.65	6317.11
450.83	6406.05
451.02	6260.93
451.20	6272.64
451.39	6319.45
451.57	6279.66
451.76	6427.11
451.94	6359.24
452.13	6363.92
452.31	6272.64
452.49	6136.88
452.68	6277.32
452.86	6338.17
453.05	6415.41
453.23	6511.37
453.42	6347.53
453.60	6382.64
453.78	6593.29
453.97	6548.82
454.15	6403.71
454.34	6499.67
454.52	6642.44
454.70	6782.87
454.89	6719.68
455.07	6759.47
455.26	6775.85
455.44	6930.33
455.62	6890.54
455.81	6927.99
455.99	6970.12
456.17	6977.14
456.36	7026.29
456.54	6946.71
456.73	7098.84
456.91	7265.02
457.09	7122.25
457.28	7201.83
457.46	7002.88
457.64	7035.65
457.83	7124.59
458.01	7145.66
458.19	7375.03
458.38	7344.60
458.56	7262.68
458.74	7166.72
458.93	7431.20
459.11	7332.90
459.29	7400.77
459.48	7398.43
459.66	7424.18
459.84	7520.14
460.03	7665.25
460.21	7424.18
460.39	7400.77
460.57	7482.69
460.76	7421.84
460.94	7873.56
461.12	7438.22
461.31	7749.51
461.49	7531.84
461.67	7585.68
461.85	7878.24
462.04	7803.35
462.22	8065.49
462.40	8063.15
462.59	7974.21
462.77	7698.02
462.95	7964.84
463.13	7988.25
463.32	7850.16
463.50	8222.30
463.68	8184.85
463.86	7906.33
464.05	7712.07
464.23	7997.61
464.41	8098.25
464.59	7988.25
464.78	8212.94
464.96	8290.18
465.14	8046.76
465.32	8051.44
465.50	8283.16
465.69	8290.18
465.87	8149.75
466.05	8285.50
466.23	8142.72
466.41	8035.06
466.60	8528.91
466.78	8290.18
466.96	8301.88
467.14	8285.50
467.32	8442.31
467.51	8734.88
467.69	8215.28
467.87	8325.29
468.05	8362.73
468.23	8320.60
468.41	8348.69
468.60	8517.21
468.78	8615.51
468.96	8631.90
469.14	8798.07
469.32	8507.85
469.50	8535.93
469.69	8676.37
469.87	8917.44
470.05	8793.39
470.23	8769.99
470.41	8805.10
470.59	9097.66
470.77	8908.08
470.95	8851.91
471.14	8943.19
471.32	8879.99
471.50	9394.91
471.68	9324.69
471.86	9317.67
472.04	9205.33
472.22	9303.63
472.40	9146.81
472.58	9212.35
472.77	9240.44
472.95	9493.21
473.13	9813.87
473.31	9600.88
473.49	9591.52
473.67	9561.09
473.85	9701.52
474.03	9703.86
474.21	9933.23
474.39	9886.42
474.57	9830.25
474.75	9886.42
474.93	10146.22
475.12	9961.32
475.30	10289.00
475.48	9823.23
475.66	10186.01
475.84	10101.75
476.02	10129.84
476.20	10303.04
476.38	10382.62
476.56	10607.31
476.74	10583.90
476.92	10640.08
477.10	10445.81
477.28	10927.96
477.46	10747.74
477.64	10953.71
477.82	10930.30
478.00	11269.68
478.18	11307.13
478.36	11265.00
478.54	11485.01
478.72	11297.77
478.90	11630.12
479.08	11880.56
479.26	11903.96
479.44	11644.17
479.62	11880.56
479.80	11950.78
479.98	11990.56
480.16	12255.04
480.34	12241.00
480.52	12379.09
480.70	12194.19
480.88	12325.26
481.06	12327.60
481.24	12327.60
481.41	12758.26
481.59	12732.51
481.77	12704.43
481.95	13001.68
482.13	13090.62
482.31	13025.08
482.49	13357.44
482.67	13472.12
482.85	13357.44
483.03	13645.32
483.21	13806.82
483.39	13930.87
483.57	13563.40
483.74	14012.79
483.92	14083.00
484.10	14132.15
484.28	14178.97
484.46	14513.66
484.64	14841.34
484.82	14539.41
485.00	14677.50
485.18	14890.49
485.35	15009.86
485.53	14562.81
485.71	14951.34
485.89	15449.88
486.07	15047.30
486.25	15150.29
486.43	15534.14
486.61	15442.85
486.78	15756.49
486.96	15836.06
487.14	15868.83
487.32	16402.47
487.50	16369.71
487.68	16294.81
487.85	16835.47
488.03	16643.55
488.21	16716.11
488.39	16779.30
488.57	16854.20
488.75	17144.42
488.92	17060.16
489.10	17436.99
489.28	17165.49
489.46	17781.05
489.64	18045.53
489.81	18256.18
489.99	18298.31
490.17	18164.90
490.35	18466.83
490.53	18345.12
490.70	18862.38
490.88	18658.75
491.06	18766.42
491.24	18794.50
491.41	18960.68
491.59	18998.13
491.77	19030.90
491.95	19349.21
492.13	19653.48
492.30	19592.62
492.48	19726.04
492.66	19538.79
492.84	19894.55
493.01	20032.65
493.19	20051.37
493.37	20451.60
493.54	20496.07
493.72	20414.15
493.90	20748.85
494.08	20826.09
494.25	21174.83
494.43	21102.27
494.61	21041.42
494.79	21446.33
494.96	21333.98
495.14	21411.22
495.32	21453.35
495.49	21631.23
495.67	21818.47
495.85	21975.29
496.02	22181.26
496.20	22207.00
496.38	22307.65
496.55	22595.53
496.73	22869.37
496.91	22527.66
497.09	22778.09
497.26	22916.19
497.44	22759.37
497.62	22738.30
497.79	22852.99
497.97	23274.29
498.14	23365.57
498.32	23639.41
498.50	23381.95
498.67	23597.28
498.85	23981.13
499.03	23826.65
499.20	24030.28
499.38	23784.52
499.56	24233.91
499.73	24053.69
499.91	23953.04
500.08	24519.45
500.26	24006.87
500.44	24554.56
500.61	24786.27
500.79	24287.74
500.97	24449.24
501.14	24996.92
501.32	24833.08
501.49	25095.22
501.67	24772.23
501.84	25565.67
502.02	25137.35
502.20	25397.15
502.37	25661.63
502.55	25752.91
502.72	25776.32
502.90	25876.96
503.07	25319.92
503.25	25874.62
503.43	25661.63
503.60	26195.28
503.78	25972.92
503.95	25930.80
504.13	26204.64
504.30	26469.12
504.48	26272.51
504.65	26415.29
504.83	26728.92
505.01	26534.65
505.18	26228.04
505.36	27126.81
505.53	26941.91
505.71	26934.88
505.88	27192.34
506.06	27182.98
506.23	27204.05
506.41	26911.48
506.58	27487.25
506.76	27463.85
506.93	27611.30
507.11	27690.88
507.28	27718.96
507.46	27613.64
507.63	28095.79
507.81	27742.37
507.98	27882.80
508.16	27967.06
508.33	28156.64
508.50	28182.39
508.68	28095.79
508.85	28526.45
509.03	28542.83
509.20	28774.55
509.38	28584.96
509.55	28699.65
509.73	28819.02
509.90	28460.91
510.08	28868.17
510.25	28833.06
510.42	29434.58
510.60	29530.54
510.77	29298.83
510.95	29312.87
511.12	29469.69
511.30	29434.58
511.47	29745.87
511.64	29670.97
511.82	29942.47
511.99	29570.33
512.17	30244.40
512.34	30019.71
512.51	30202.27
512.69	30307.60
512.86	30178.87
513.04	30410.58
513.21	30384.83
513.38	30452.71
513.56	30471.43
513.73	30513.56
513.90	31225.09
514.08	30597.82
514.25	30775.70
514.43	31009.76
514.60	30888.05
514.77	30405.90
514.95	31091.68
515.12	30911.46
515.29	31133.81
515.47	31257.85
515.64	31503.61
515.81	31576.17
515.99	31194.66
516.16	31253.17
516.33	31232.11
516.51	31782.13
516.68	31407.65
516.85	31615.96
517.03	31864.05
517.20	31466.16
517.37	31880.44
517.54	31777.45
517.72	31803.20
517.89	31936.61
518.06	32201.09
518.24	31908.52
518.41	32030.23
518.58	32191.73
518.75	32037.25
518.93	32404.72
519.10	32219.81
519.27	32439.82
519.45	32484.30
519.62	32968.79
519.79	32851.76
519.96	32943.04
520.14	32992.19
520.31	33001.55
520.48	33132.62
520.65	33158.37
520.83	33378.38
521.00	33170.07
521.17	33556.26
521.34	33411.15
521.52	33600.73
521.69	33996.28
521.86	33750.52
522.03	34012.66
522.20	33560.94
522.38	33872.23
522.55	34213.95
522.72	33949.47
522.89	34277.15
523.07	34476.09
523.24	33790.31
523.41	34316.93
523.58	34525.24
523.75	34932.50
523.92	34916.11
524.10	34803.77
524.27	34593.12
524.44	35026.12
524.61	34920.79
524.78	35117.40
524.96	34913.77
525.13	34827.17
525.30	35365.49
525.47	35559.76
525.64	35466.14
525.81	35536.35
525.98	35082.29
526.16	34951.22
526.33	35302.30
526.50	35559.76
526.67	35093.99
526.84	35309.32
527.01	35260.17
527.18	35206.34
527.36	35913.18
527.53	36058.29
527.70	36180.00
527.87	36311.07
528.04	35871.05
528.21	36280.64
528.38	36055.95
528.55	35955.31
528.72	36357.88
528.89	36350.86
529.07	36070.00
529.24	36563.85
529.41	36540.44
529.58	36137.87
529.75	35885.09
529.92	36748.75
530.09	36776.84
530.26	36964.08
530.43	37001.53
530.60	36423.42
530.77	36739.39
530.94	36751.09
531.11	37099.83
531.28	36620.02
531.46	36664.49
531.63	36992.17
531.80	36968.76
531.97	36898.55
532.14	37256.65
532.31	37296.44
532.48	37013.23
532.65	37514.11
532.82	37081.11
532.99	37432.19
533.16	37106.85
533.33	37092.81
533.50	38047.75
533.67	37837.10
533.84	37099.83
534.01	37530.49
534.18	37663.90
534.35	38014.98
534.52	37806.67
534.69	38003.28
534.86	37991.58
535.03	37689.65
535.20	37942.42
535.37	38061.79
535.54	38099.24
535.71	38050.09
535.88	38539.26
536.05	38366.06
536.22	38455.00
536.38	38298.19
536.55	38342.66
536.72	38410.53
536.89	38384.79
537.06	38532.24
537.23	38436.28
537.40	38455.00
537.57	38841.19
537.74	38497.13
537.91	38721.82
538.08	38677.35
538.25	38513.52
538.42	39049.50
538.59	39227.38
538.75	38377.76
538.92	38918.43
539.09	38873.96
539.26	38995.67
539.43	39604.20
539.60	39365.47
539.77	39084.61
539.94	39278.87
540.11	39016.73
540.28	39583.14
540.44	39140.78
540.61	39110.35
540.78	38995.67
540.95	39337.38
541.12	39449.73
541.29	39489.52
541.46	39541.01
541.62	39646.33
541.79	39915.50
541.96	39470.79
542.13	39627.61
542.30	39519.95
542.47	39908.47
542.63	39896.77
542.80	39800.81
542.97	40437.44
543.14	40348.50
543.31	40247.85
543.48	40711.28
543.64	40556.80
543.81	40182.32
543.98	40715.96
544.15	40526.38
544.32	40587.23
544.48	40692.55
544.65	40357.86
544.82	40315.73
544.99	40273.60
545.16	40854.05
545.32	40451.48
545.49	41111.51
545.66	41303.43
545.83	40879.80
546.00	41134.92
546.16	40671.49
546.33	40945.33
546.50	40584.89
546.67	41371.31
546.83	40360.20
547.00	41095.13
547.17	40765.11
547.34	41134.92
547.50	40804.90
547.67	41378.33
547.84	40765.11
548.00	41324.50
548.17	41193.43
548.34	41373.65
548.51	41698.98
548.67	41148.96
548.84	41504.72
549.01	41270.67
549.18	41392.37
549.34	41748.14
549.51	41911.97
549.68	41539.83
549.84	41820.69
550.01	41993.89
550.18	41336.20
550.34	41792.61
550.51	41965.81
550.68	41441.53
550.84	41537.49
551.01	42169.43
551.18	41813.67
551.34	41542.17
551.51	41844.10
551.68	41701.32
551.84	42274.76
552.01	41933.04
552.18	42092.19
552.34	41823.03
552.51	42375.40
552.68	42017.30
552.84	42354.33
553.01	42218.58
553.18	42169.43
553.34	42302.84
553.51	42139.00
553.67	42110.92
553.84	42543.92
554.01	42419.87
554.17	42806.06
554.34	42789.67
554.51	42466.68
554.67	42923.08
554.84	42412.85
555.00	42696.05
555.17	42829.46
555.33	42906.70
555.50	42674.99
555.67	42499.45
555.83	42532.22
556.00	42941.81
556.16	43058.84
556.33	42693.71
556.50	43150.12
556.66	42913.72
556.83	42761.59
556.99	43313.95
557.16	43012.02
557.32	43084.58
557.49	42878.61
557.65	43234.38
557.82	42653.92
557.98	42511.15
558.15	43264.80
558.32	43304.59
558.48	43166.50
558.65	43248.42
558.81	42611.79
558.98	42789.67
559.14	43215.65
559.31	43295.23
559.47	43667.37
559.64	43473.11
559.80	43522.26
559.97	43091.60
560.13	42953.51
560.30	43381.83
560.46	43498.86
560.63	43365.45
560.79	43416.94
560.96	43522.26
561.12	43533.96
561.29	43274.16
561.45	43590.14
561.61	43262.46
561.78	43311.61
561.94	43225.01
562.11	43407.58
562.27	43379.49
562.44	43498.86
562.60	43557.37
562.77	43988.03
562.93	43510.56
563.10	43676.74
563.26	43517.58
563.42	43468.43
563.59	43349.06
563.75	43955.26
563.92	44027.82
564.08	43765.68
564.24	43562.05
564.41	43948.24
564.57	43796.10
564.74	43924.83
564.90	43686.10
565.07	44041.86
565.23	43948.24
565.39	44041.86
565.56	43924.83
565.72	43913.13
565.88	43693.12
566.05	43985.69
566.21	44062.93
566.38	43950.58
566.54	43648.65
566.70	44205.70
566.87	44205.70
567.03	44067.61
567.19	44584.86
567.36	44240.81
567.52	44076.97
567.68	44095.69
567.85	44587.21
568.01	43721.21
568.17	44147.18
568.34	44264.21
568.50	44142.50
568.66	43962.28
568.83	44083.99
568.99	43936.54
569.15	43728.23
569.32	44062.93
569.48	44020.80
569.64	44521.67
569.81	44296.98
569.97	43922.49
570.13	44161.23
570.30	44224.42
570.46	44100.37
570.62	43990.37
570.78	43653.33
570.95	43831.21
571.11	43737.59
571.27	43992.71
571.43	44507.63
571.60	44411.67
571.76	44088.67
571.92	44371.88
572.09	44100.37
572.25	44390.60
572.41	44137.82
572.57	43978.67
572.74	44715.93
572.90	44304.00
573.06	44121.44
573.22	44261.87
573.38	44343.79
573.55	44037.18
573.71	44282.94
573.87	44631.68
574.03	43945.90
574.20	44208.04
574.36	43824.19
574.52	44641.04
574.68	44140.16
574.84	44355.49
575.01	44385.92
575.17	44449.11
575.33	44121.44
575.49	44280.60
575.65	44622.31
575.82	44495.92
575.98	44577.84
576.14	44470.18
576.30	44624.65
576.46	44350.81
576.62	44081.65
576.79	44823.60
576.95	43772.70
577.11	44350.81
577.27	44308.68
577.43	44545.08
577.59	43901.43
577.75	44561.46
577.92	44266.55
578.08	44313.36
578.24	43999.73
578.40	44516.99
578.56	43782.06
578.72	44519.33
578.88	44397.62
579.04	44772.11
579.21	44514.65
579.37	44053.56
579.53	44563.80
579.69	44205.70
579.85	44432.73
580.01	44371.88
580.17	44479.54
580.33	45020.20
580.49	44432.73
580.65	44261.87
580.82	44542.74
580.98	44917.22
581.14	44509.97
581.30	44467.84
581.46	44641.04
581.62	43976.33
581.78	44952.33
581.94	45214.47
582.10	44992.12
582.26	44797.85
582.42	44346.13
582.58	44884.45
582.74	44418.69
582.90	44708.91
583.06	44570.82
583.22	44872.75
583.38	44755.72
583.54	44825.94
583.70	44582.52
583.86	44477.20
584.02	44278.25
584.18	44877.43
584.34	44769.77
584.50	44535.71
584.66	44601.25
584.82	44395.28
584.98	44875.09
585.14	44744.02
585.30	44231.44
585.46	44842.32
585.62	44411.67
585.78	44629.34
585.94	44194.00
586.10	44500.61
586.26	44025.48
586.42	44514.65
586.58	44795.51
586.74	44402.30
586.90	44706.57
587.06	44161.23
587.22	44856.37
587.38	44676.15
587.54	45429.80
587.70	44795.51
587.86	44652.74
588.02	44533.37
588.18	44713.59
588.34	44383.58
588.49	44542.74
588.65	44168.25
588.81	44194.00
588.97	44547.42
589.13	44634.02
589.29	44680.83
589.45	44865.73
589.61	44715.93
589.77	45214.47
589.93	44748.70
590.08	44844.66
590.24	44650.40
