SpectraSuite Data File
++++++++++++++++++++++++++++++++++++
Date: Fri Oct 25 11:22:58 EDT 2013
User: price-jones
Dark Spectrum Present: No
Reference Spectrum Present: No
Number of Sampled Component Spectra: 1
Spectrometers: USB2+H05261
Integration Time (usec): 100000 (USB2+H05261)
Spectra Averaged: 1 (USB2+H05261)
Boxcar Smoothing: 0 (USB2+H05261)
Correct for Electrical Dark: No (USB2+H05261)
Strobe/Lamp Enabled: No (USB2+H05261)
Correct for Detector Non-linearity: No (USB2+H05261)
Correct for Stray Light: No (USB2+H05261)
Number of Pixels in Processed Spectrum: 2048
>>>>>Begin Processed Spectral Data<<<<<
365.73	208.31
365.92	208.31
366.12	208.31
366.32	102.98
366.52	63.19
366.72	166.18
366.91	168.52
367.11	138.09
367.31	138.09
367.51	163.84
367.70	86.60
367.90	124.05
368.10	117.03
368.30	149.79
368.49	140.43
368.69	201.29
368.89	124.05
369.09	149.79
369.28	147.45
369.48	138.09
369.68	147.45
369.87	278.52
370.07	180.22
370.27	234.05
370.47	330.02
370.66	629.60
370.86	655.35
371.06	613.22
371.25	648.33
371.45	709.18
371.65	716.20
371.84	704.50
372.04	690.46
372.24	699.82
372.44	725.57
372.63	697.48
372.83	655.35
373.03	798.12
373.22	725.57
373.42	709.18
373.62	819.19
373.81	847.27
374.01	774.72
374.21	758.33
374.40	772.38
374.60	849.61
374.79	826.21
374.99	908.13
375.19	842.59
375.38	849.61
375.58	837.91
375.78	849.61
375.97	856.64
376.17	924.51
376.37	870.68
376.56	905.79
376.76	826.21
376.95	816.85
377.15	894.08
377.35	903.45
377.54	926.85
377.74	957.28
377.93	933.87
378.13	896.43
378.33	999.41
378.52	931.53
378.72	973.66
378.91	1029.84
379.11	901.11
379.31	896.43
379.50	980.68
379.70	947.92
379.89	1011.11
380.09	954.94
380.28	1039.20
380.48	961.96
380.68	980.68
380.87	1062.60
381.07	964.30
381.26	1111.75
381.46	997.07
381.65	1067.28
381.85	978.34
382.04	1160.91
382.24	1081.33
382.43	1036.86
382.63	1036.86
382.83	1081.33
383.02	1095.37
383.22	1149.20
383.41	1078.99
383.61	1057.92
383.80	1217.08
384.00	1069.62
384.19	1144.52
384.39	1076.65
384.58	1088.35
384.78	1210.06
384.97	1097.71
385.17	1174.95
385.36	1121.12
385.56	1109.41
385.75	1095.37
385.95	1174.95
386.14	1240.48
386.34	1123.46
386.53	1219.42
386.72	1296.66
386.92	1200.69
387.11	1238.14
387.31	1203.04
387.50	1322.40
387.70	1228.78
387.89	1245.16
388.09	1334.11
388.28	1331.76
388.48	1268.57
388.67	1301.34
388.86	1329.42
389.06	1383.26
389.25	1275.59
389.45	1329.42
389.64	1284.95
389.84	1390.28
390.03	1338.79
390.22	1366.87
390.42	1294.32
390.61	1336.45
390.81	1378.58
391.00	1448.79
391.19	1493.26
391.39	1383.26
391.58	1406.66
391.78	1437.09
391.97	1486.24
392.16	1490.92
392.36	1556.46
392.55	1439.43
392.75	1511.99
392.94	1533.05
393.13	1497.94
393.33	1619.65
393.52	1544.75
393.71	1600.93
393.91	1488.58
394.10	1558.80
394.29	1586.88
394.49	1572.84
394.68	1685.19
394.88	1650.08
395.07	1673.48
395.26	1614.97
395.46	1694.55
395.65	1694.55
395.84	1685.19
396.04	1804.55
396.23	1710.93
396.42	1753.06
396.62	1788.17
396.81	1757.74
397.00	1748.38
397.19	1851.36
397.39	1900.52
397.58	1858.39
397.77	1727.32
397.97	1764.76
398.16	1804.55
398.35	1879.45
398.55	1980.09
398.74	1926.26
398.93	1937.96
399.12	1991.80
399.32	1944.99
399.51	1916.90
399.70	2024.56
399.90	1949.67
400.09	2108.82
400.28	2033.93
400.47	2188.40
400.67	2108.82
400.86	2047.97
401.05	2108.82
401.24	2214.15
401.44	2125.21
401.63	2078.40
401.82	2169.68
402.01	2115.84
402.21	2193.08
402.40	2310.11
402.59	2157.97
402.78	2162.66
402.97	2270.32
403.17	2160.31
403.36	2251.60
403.55	2277.34
403.74	2394.37
403.93	2413.09
404.13	2410.75
404.32	2349.90
404.51	2377.98
404.70	2441.18
404.89	2385.01
405.09	2445.86
405.28	2539.48
405.47	2485.65
405.66	2532.46
405.85	2562.89
406.05	2600.34
406.24	2497.35
406.43	2546.50
406.62	2668.21
406.81	2583.95
407.00	2609.70
407.20	2668.21
407.39	2661.19
407.58	2644.81
407.77	2738.43
407.96	2745.45
408.15	2771.19
408.34	2857.79
408.54	2785.24
408.73	2848.43
408.92	2857.79
409.11	2850.77
409.30	2974.82
409.49	2881.20
409.68	2864.82
409.87	2920.99
410.07	2953.76
410.26	3038.02
410.45	2993.55
410.64	3155.04
410.83	3108.23
411.02	3152.70
411.21	3241.64
411.40	3040.36
411.59	3274.41
411.78	3258.03
411.98	3066.10
412.17	3466.33
412.36	3353.99
412.55	3346.97
412.74	3405.48
412.93	3520.17
413.12	3353.99
413.31	3396.12
413.50	3456.97
413.69	3508.46
413.88	3641.87
414.07	3737.84
414.26	3574.00
414.45	3688.68
414.64	3667.62
414.83	3747.20
415.02	3892.31
415.22	3859.54
415.41	3941.46
415.60	3817.41
415.79	3721.45
415.98	3859.54
416.17	4011.68
416.36	4032.74
416.55	4037.42
416.74	4142.75
416.93	4086.58
417.12	4131.05
417.31	4217.65
417.50	4248.07
417.69	4388.50
417.88	4271.48
418.07	4182.54
418.26	4318.29
418.45	4379.14
418.64	4484.47
418.83	4374.46
419.02	4482.13
419.21	4451.70
419.39	4578.09
419.58	4472.76
419.77	4568.73
419.96	4503.19
420.15	4849.59
420.34	4697.46
420.53	4636.60
420.72	4755.97
420.91	4751.29
421.10	4826.18
421.29	4816.82
421.48	4746.61
421.67	4833.21
421.86	4873.00
422.05	4784.06
422.24	4880.02
422.43	4938.53
422.61	4978.32
422.80	5008.75
422.99	5008.75
423.18	4929.17
423.37	5097.69
423.56	5027.47
423.75	5046.20
423.94	4709.16
424.13	4636.60
424.32	4858.95
424.50	4954.91
424.69	5195.99
424.88	5153.86
425.07	5097.69
425.26	5001.72
425.45	5011.09
425.64	4957.25
425.83	5071.94
426.01	5205.35
426.20	5130.45
426.39	5100.03
426.58	4990.02
426.77	5177.26
426.96	5217.05
427.15	5198.33
427.33	5198.33
427.52	5317.70
427.71	5298.97
427.90	5322.38
428.09	5462.81
428.28	5582.18
428.46	5432.38
428.65	5320.04
428.84	5586.86
429.03	5631.33
429.22	5455.79
429.40	5535.37
429.59	5563.45
429.78	5280.25
429.97	5343.44
430.16	5603.24
430.34	5584.52
430.53	5687.50
430.72	5652.39
430.91	5727.29
431.10	5884.11
431.28	5806.87
431.47	5900.49
431.66	5834.96
431.85	5743.67
432.03	5905.17
432.22	5959.00
432.41	5891.13
432.60	6083.05
432.79	6054.97
432.97	6108.80
433.16	6052.63
433.35	6108.80
433.54	6160.29
433.72	6186.04
433.91	6052.63
434.10	6160.29
434.28	6069.01
434.47	6363.92
434.66	6504.35
434.85	6392.00
435.03	6403.71
435.22	6352.21
435.41	6469.24
435.59	6576.91
435.78	6497.33
435.97	6476.26
436.16	6450.52
436.34	6429.45
436.53	6607.33
436.72	6656.48
436.90	6476.26
437.09	6782.87
437.28	6710.32
437.46	6525.41
437.65	6717.34
437.84	6867.13
438.02	6855.43
438.21	6839.05
438.40	6775.85
438.58	7005.22
438.77	7035.65
438.96	7014.59
439.14	7213.53
439.33	7279.07
439.52	7133.95
439.70	7206.51
439.89	7391.41
440.08	7414.82
440.26	7499.08
440.45	7360.98
440.63	7417.16
440.82	7641.85
441.01	7730.79
441.19	7698.02
441.38	7817.39
441.57	7929.74
441.75	7852.50
441.94	8016.33
442.12	8252.73
442.31	8173.15
442.50	8248.05
442.68	8074.85
442.87	8271.45
443.05	8276.13
443.24	8266.77
443.43	8313.58
443.61	8463.38
443.80	8531.25
443.98	8149.75
444.17	7946.12
444.35	8304.22
444.54	8407.20
444.73	8374.44
444.91	8362.73
445.10	8404.86
445.28	8479.76
445.47	8355.71
445.65	8395.50
445.84	8432.95
446.02	8662.32
446.21	8519.55
446.39	8535.93
446.58	8716.16
446.77	8444.65
446.95	8411.89
447.14	8564.02
447.32	8627.21
447.51	8428.27
447.69	8500.83
447.88	8725.52
448.06	8652.96
448.25	8528.91
448.43	8772.33
448.62	8500.83
448.80	8688.07
448.99	8741.90
449.17	8554.66
449.36	8725.52
449.54	8919.78
449.73	9109.36
449.91	9151.49
450.10	9174.90
450.28	9104.68
450.46	9123.41
450.65	9076.60
450.83	9097.66
451.02	9114.05
451.20	9268.52
451.39	9221.71
451.57	9200.65
451.76	9289.59
451.94	9235.75
452.13	9504.92
452.31	9514.28
452.49	9448.74
452.68	9500.23
452.86	9511.94
453.05	9465.13
453.23	9647.69
453.42	9387.89
453.60	9441.72
453.78	9722.59
453.97	9500.23
454.15	9530.66
454.34	9668.75
454.52	9900.47
454.70	10005.79
454.89	9888.76
455.07	10043.24
455.26	10052.60
455.44	9888.76
455.62	9863.02
455.81	10141.54
455.99	9966.00
456.17	10047.92
456.36	10178.99
456.54	10335.81
456.73	10244.52
456.91	10658.80
457.09	10401.34
457.28	10417.72
457.46	10281.97
457.64	10841.36
457.83	10501.98
458.01	10883.49
458.19	10799.23
458.38	10721.99
458.56	10759.44
458.74	10869.45
458.93	11154.99
459.11	10799.23
459.29	10672.84
459.48	10738.38
459.66	10963.07
459.84	10827.32
460.03	11133.93
460.21	11199.46
460.39	11204.14
460.57	11035.63
460.76	11187.76
460.94	11445.22
461.12	11077.76
461.31	11290.74
461.49	11295.43
461.67	11169.04
461.85	11597.35
462.04	11454.58
462.22	11850.13
462.40	11536.50
462.59	11569.27
462.77	11646.51
462.95	11988.22
463.13	11566.93
463.32	11700.34
463.50	11714.38
463.68	11967.16
463.86	11885.24
464.05	11669.91
464.23	11878.22
464.41	11927.37
464.59	11847.79
464.78	12273.77
464.96	11932.05
465.14	11983.54
465.32	12056.10
465.50	12077.16
465.69	12446.97
465.87	12159.08
466.05	12229.30
466.23	12362.71
466.41	12362.71
466.60	12554.63
466.78	12273.77
466.96	12290.15
467.14	12526.55
467.32	12709.11
467.51	12571.02
467.69	12245.68
467.87	12308.88
468.05	12678.68
468.23	12568.68
468.41	12393.14
468.60	12774.64
468.78	13013.38
468.96	12760.60
469.14	13153.81
469.32	13153.81
469.50	12739.54
469.69	13282.54
469.87	13142.11
470.05	13275.52
470.23	13408.93
470.41	13322.33
470.59	13254.45
470.77	13064.87
470.95	13483.83
471.14	13640.64
471.32	13212.32
471.50	13710.86
471.68	13837.25
471.86	13994.06
472.04	13954.27
472.22	14267.91
472.40	13937.89
472.58	14160.24
472.77	14202.37
472.95	14211.73
473.13	14827.29
473.31	14204.71
473.49	14438.76
473.67	14356.85
473.85	14413.02
474.03	14782.82
474.21	14848.36
474.39	14883.47
474.57	14944.32
474.75	14958.36
474.93	15215.82
475.12	15044.96
475.30	15117.52
475.48	15466.26
475.66	15440.51
475.84	15351.57
476.02	15634.78
476.20	15583.29
476.38	15810.32
476.56	16152.04
476.74	16046.71
476.92	16273.74
477.10	15971.82
477.28	16177.78
477.46	16292.47
477.64	16362.69
477.82	16659.93
478.00	16898.67
478.18	17041.44
478.36	16879.94
478.54	17221.66
478.72	17525.93
478.90	17539.97
479.08	17525.93
479.26	17785.73
479.44	18061.91
479.62	18087.66
479.80	18394.27
479.98	18649.39
480.16	18717.26
480.34	18541.72
480.52	18707.90
480.70	18834.29
480.88	18728.97
481.06	18743.01
481.24	19171.33
481.41	19374.95
481.59	19655.82
481.77	19838.38
481.95	19597.31
482.13	19868.81
482.31	20067.75
482.49	20372.02
482.67	20348.62
482.85	20606.08
483.03	20695.02
483.21	20929.07
483.39	21532.93
483.57	21071.84
483.74	21607.83
483.92	21647.61
484.10	21699.11
484.28	21848.90
484.46	22305.31
484.64	22728.94
484.82	22356.80
485.00	22698.52
485.18	23126.83
485.35	23030.87
485.53	22967.68
485.71	23049.60
485.89	23798.57
486.07	23805.59
486.25	23681.54
486.43	24098.16
486.61	24154.33
486.78	24060.71
486.96	24325.19
487.14	25125.65
487.32	24758.19
487.50	25507.16
487.68	25022.67
487.85	25514.18
488.03	25736.53
488.21	26405.92
488.39	26068.89
488.57	26267.83
488.75	26478.48
488.92	26745.30
489.10	27077.66
489.28	26817.86
489.46	27527.04
489.64	27620.66
489.81	27892.16
489.99	28208.14
490.17	28348.57
490.35	28332.18
490.53	28458.57
490.70	28933.70
490.88	28903.28
491.06	29118.60
491.24	29249.67
491.41	29640.54
491.59	29546.92
491.77	29825.45
491.95	29771.61
492.13	30651.66
492.30	30298.23
492.48	30050.14
492.66	30270.15
492.84	30639.95
493.01	31393.61
493.19	30850.60
493.37	31419.35
493.54	31761.07
493.72	31983.42
493.90	31915.54
494.08	31950.65
494.25	32182.37
494.43	32470.25
494.61	32439.82
494.79	33160.71
494.96	32737.07
495.14	33235.61
495.32	33469.66
495.49	33427.53
495.67	33708.40
495.85	33956.49
496.02	34227.99
496.20	34206.93
496.38	34291.19
496.55	34616.52
496.73	34756.96
496.91	35093.99
497.09	35276.55
497.26	35299.96
497.44	35344.43
497.62	35648.70
497.79	36252.56
497.97	35718.92
498.14	36641.09
498.32	36844.71
498.50	36823.65
498.67	36973.44
498.85	36896.20
499.03	37090.47
499.20	37120.90
499.38	37104.51
499.56	37591.34
499.73	37516.45
499.91	37914.34
500.08	37804.33
500.26	37624.11
500.44	38300.53
500.61	38415.21
500.79	38045.41
500.97	38251.38
501.14	38787.36
501.32	39100.99
501.49	39040.14
501.67	39267.17
501.84	39562.08
502.02	39438.03
502.20	39519.95
502.37	39496.54
502.55	39414.62
502.72	39828.90
502.90	40006.78
503.07	39782.09
503.25	40039.54
503.43	40205.72
503.60	40479.57
503.78	40744.05
503.95	40645.74
504.13	40835.33
504.30	41146.62
504.48	40900.86
504.65	41212.15
504.83	41350.24
505.01	41825.37
505.18	42010.28
505.36	41972.83
505.53	41677.92
505.71	42071.13
505.88	42398.80
506.06	42136.66
506.23	42237.31
506.41	42466.68
506.58	42197.52
506.76	42972.24
506.93	42869.25
507.11	42522.85
507.28	43091.60
507.46	43573.75
507.63	43791.42
507.81	43742.27
507.98	43339.70
508.16	43714.19
508.33	43337.36
508.50	44107.40
508.68	43831.21
508.85	44367.20
509.03	43803.13
509.20	44367.20
509.38	44816.58
509.55	44940.63
509.73	44959.35
509.90	44903.18
510.08	45469.59
510.25	45052.97
510.42	45195.74
510.60	45511.72
510.77	45755.13
510.95	45462.57
511.12	45413.41
511.30	45691.94
511.47	45930.67
511.64	45879.18
511.82	46291.12
511.99	46300.48
512.17	46141.32
512.34	46508.79
512.51	46513.47
512.69	46616.45
512.86	46916.04
513.04	47215.63
513.21	47084.56
513.38	47400.53
513.56	47236.69
513.73	47344.36
513.90	47494.15
514.08	47079.88
514.25	47885.02
514.43	47938.85
514.60	47936.51
514.77	47992.68
514.95	47695.44
515.12	47988.00
515.29	47964.60
515.47	48531.01
515.64	48713.57
515.81	48741.66
515.99	48685.48
516.16	48807.19
516.33	49151.25
516.51	49031.88
516.68	48926.56
516.85	49186.36
517.03	49202.74
517.20	49144.23
517.37	49336.15
517.54	49144.23
517.72	49551.48
517.89	49233.17
518.06	49336.15
518.24	49453.18
518.41	50031.29
518.58	49595.95
518.75	49572.55
518.93	49984.48
519.10	49787.88
519.27	50153.00
519.45	50103.85
519.62	50660.90
519.79	50527.48
519.96	50356.63
520.14	50422.16
520.31	50129.59
520.48	50483.01
520.65	50532.17
520.83	51147.73
521.00	51178.15
521.17	50944.10
521.34	50988.57
521.52	51114.96
521.69	51110.28
521.86	51641.58
522.03	51573.70
522.20	51650.94
522.38	51917.76
522.55	51838.18
522.72	51803.08
522.89	52032.45
523.07	52177.56
523.24	52142.45
523.41	52217.35
523.58	51987.98
523.75	52526.30
523.92	52116.71
524.10	52498.22
524.27	52547.37
524.44	52360.12
524.61	52474.81
524.78	52306.29
524.96	52610.56
525.13	52701.84
525.30	52973.34
525.47	53041.22
525.64	52617.58
525.81	52900.79
525.98	52973.34
526.16	53193.36
526.33	52884.40
526.50	53401.66
526.67	53055.26
526.84	53359.53
527.01	53310.38
527.18	53289.32
527.36	53368.90
527.53	53385.28
527.70	53717.64
527.87	53755.08
528.04	53422.73
528.21	53890.83
528.38	53708.27
528.55	53890.83
528.72	53881.47
528.89	53684.87
529.07	53855.73
529.24	53694.23
529.41	54185.74
529.58	53991.48
529.75	54129.57
529.92	54080.42
530.09	53970.41
530.26	54248.94
530.43	54321.49
530.60	54106.16
530.77	54042.97
530.94	54672.57
531.11	54312.13
531.28	54396.39
531.46	54625.76
531.63	54497.03
531.80	54600.02
531.97	54646.83
532.14	54845.77
532.31	54726.41
532.48	55213.24
532.65	54932.37
532.82	54892.58
532.99	55407.50
533.16	54951.10
533.33	54904.29
533.50	55243.66
533.67	55213.24
533.84	55227.28
534.01	55103.23
534.18	55173.45
534.35	55515.17
534.52	55400.48
534.69	55660.28
534.86	55636.87
535.03	55227.28
535.20	55636.87
535.37	55529.21
535.54	55707.09
535.71	55524.53
535.88	55810.07
536.05	55515.17
536.22	55899.01
536.38	56013.70
536.55	55793.69
536.72	55852.20
536.89	55817.10
537.06	55863.91
537.23	56296.91
537.40	55819.44
537.57	56053.49
537.74	56058.17
537.91	56212.65
538.08	55938.80
538.25	56030.08
538.42	56158.81
538.59	56624.58
538.75	56219.67
538.92	56427.98
539.09	56594.15
539.26	56383.51
539.43	56364.78
539.60	56479.47
539.77	56566.07
539.94	56498.19
540.11	56549.68
540.28	56788.42
540.44	56676.07
540.61	56825.87
540.78	56704.16
540.95	56704.16
541.12	56633.94
541.29	56725.22
541.46	56807.14
541.62	56825.87
541.79	57151.20
541.96	56694.80
542.13	56849.27
542.30	56963.96
542.47	57195.67
542.63	57151.20
542.80	57226.10
542.97	57272.91
543.14	57443.77
543.31	57209.71
543.48	57375.89
543.64	57769.10
543.81	57434.41
543.98	57670.80
544.15	57696.55
544.32	57563.14
544.48	57806.55
544.65	57502.28
544.82	57691.86
544.99	57544.41
545.16	57932.94
545.32	57729.31
545.49	57659.10
545.66	58024.22
545.83	58054.65
546.00	57902.51
546.16	57989.11
546.33	57822.93
546.50	57822.93
546.67	58047.63
546.83	57827.62
547.00	58078.05
547.17	58213.80
547.34	58227.85
547.50	58204.44
547.67	58204.44
547.84	58417.43
548.00	58379.98
548.17	58485.31
548.34	58351.90
548.51	58543.82
548.67	58489.99
548.84	58272.32
549.01	58492.33
549.18	58536.80
549.34	58417.43
549.51	58515.73
549.68	58520.41
549.84	58651.48
550.01	58815.32
550.18	58592.97
550.34	58763.83
550.51	58644.46
550.68	58719.36
550.84	58595.31
551.01	58862.13
551.18	58691.27
551.34	58876.18
551.51	58794.26
551.68	58843.41
551.84	58922.99
552.01	58927.67
552.18	58911.28
552.34	58628.08
552.51	58869.15
552.68	58796.60
552.84	58836.39
553.01	59152.36
553.18	59264.70
553.34	59084.48
553.51	58855.11
553.67	58972.14
553.84	59089.16
554.01	59253.00
554.17	59302.15
554.34	59103.21
554.51	59208.53
554.67	59405.14
554.84	59220.23
555.00	59456.63
555.17	59316.20
555.33	59377.05
555.50	59079.80
555.67	59313.86
555.83	59367.69
556.00	59489.40
556.16	59718.77
556.33	59529.19
556.50	59566.63
556.66	59732.81
556.83	59297.47
556.99	59444.93
557.16	59758.56
557.32	59835.80
557.49	59814.73
557.65	59608.76
557.82	59622.81
557.98	59487.06
558.15	59686.00
558.32	59721.11
558.48	59646.21
558.65	59676.64
558.81	59777.28
558.98	59941.12
559.14	59788.98
559.31	59861.54
559.47	60172.83
559.64	59934.10
559.80	59887.29
559.97	59945.80
560.13	60107.30
560.30	59852.18
560.46	59894.31
560.63	59966.87
560.79	59859.20
560.96	60111.98
561.12	60207.94
561.29	60126.02
561.45	60060.49
561.61	59978.57
561.78	59922.40
561.94	60093.25
562.11	60030.06
562.27	60371.78
562.44	60243.05
562.60	60252.41
562.77	60392.84
562.93	60065.17
563.10	60243.05
563.26	60259.43
563.42	60502.85
563.59	60133.04
563.75	60273.48
563.92	60638.60
564.08	60339.01
564.24	60350.71
564.41	60341.35
564.57	60341.35
564.74	60441.99
564.90	60444.33
565.07	60179.85
565.23	60481.78
565.39	60413.91
565.56	60505.19
565.72	60449.02
565.88	60444.33
566.05	60378.80
566.21	60388.16
566.38	60594.13
566.54	60479.44
566.70	60584.77
566.87	60580.09
567.03	60399.86
567.19	60678.39
567.36	60474.76
567.52	60533.28
567.68	60757.97
567.85	60378.80
568.01	60640.94
568.17	60491.15
568.34	60720.52
568.50	60704.13
568.66	60732.22
568.83	60537.96
568.99	60631.58
569.15	60580.09
569.32	60664.35
569.48	60692.43
569.64	60837.54
569.81	60615.19
569.97	60589.45
570.13	60762.65
570.30	60685.41
570.46	60837.54
570.62	60816.48
570.78	60793.07
570.95	60942.87
571.11	60835.20
571.27	60690.09
571.43	60842.23
571.60	60963.93
571.76	60926.49
571.92	60865.63
572.09	60874.99
572.25	60931.17
572.41	60772.01
572.57	60811.80
572.74	60959.25
572.90	60917.12
573.06	60734.56
573.22	60931.17
573.38	60926.49
573.55	60954.57
573.71	60963.93
573.87	60999.04
574.03	60704.13
574.20	60900.74
574.36	60830.52
574.52	60853.93
574.68	60959.25
574.84	61244.80
575.01	60980.32
575.17	60982.66
575.33	60818.82
575.49	60874.99
575.65	61268.20
575.82	60767.33
575.98	61024.79
576.14	61317.35
576.30	61155.86
576.46	61172.24
576.62	60961.59
576.79	60931.17
576.95	60954.57
577.11	60966.27
577.27	61017.77
577.43	61120.75
577.59	60837.54
577.75	60919.46
577.92	60907.76
578.08	61010.74
578.24	61123.09
578.40	61151.18
578.56	61366.51
578.72	61062.24
578.88	61041.17
579.04	61305.65
579.21	61202.67
579.37	61240.12
579.53	61317.35
579.69	60893.72
579.85	61134.79
580.01	61057.56
580.17	60931.17
580.33	61254.16
580.49	61186.28
580.65	61118.41
580.82	61153.52
580.98	61212.03
581.14	60999.04
581.30	61296.29
581.46	61235.44
581.62	61099.68
581.78	61254.16
581.94	61256.50
582.10	61354.80
582.26	61158.20
582.42	61450.77
582.58	61326.72
582.74	61230.75
582.90	61013.08
583.06	61249.48
583.22	61118.41
583.38	61148.84
583.54	61242.46
583.70	61401.61
583.86	61319.70
584.02	61205.01
584.18	61242.46
584.34	61366.51
584.50	61347.78
584.66	61261.18
584.82	61038.83
584.98	61385.23
585.14	61422.68
585.30	61230.75
585.46	61270.54
585.62	61233.10
585.78	61410.98
585.94	61286.93
586.10	61293.95
586.26	61216.71
586.42	61270.54
586.58	61415.66
586.74	61172.24
586.90	61106.71
587.06	61303.31
587.22	61354.80
587.38	61282.25
587.54	61495.24
587.70	61563.11
587.86	61251.82
588.02	61223.73
588.18	61434.38
588.34	61488.21
