SpectraSuite Data File
++++++++++++++++++++++++++++++++++++
Date: Fri Oct 25 11:22:31 EDT 2013
User: price-jones
Dark Spectrum Present: No
Reference Spectrum Present: No
Number of Sampled Component Spectra: 1
Spectrometers: USB2+H05261
Integration Time (usec): 100000 (USB2+H05261)
Spectra Averaged: 1 (USB2+H05261)
Boxcar Smoothing: 0 (USB2+H05261)
Correct for Electrical Dark: No (USB2+H05261)
Strobe/Lamp Enabled: No (USB2+H05261)
Correct for Detector Non-linearity: No (USB2+H05261)
Correct for Stray Light: No (USB2+H05261)
Number of Pixels in Processed Spectrum: 2048
>>>>>Begin Processed Spectral Data<<<<<
365.73	252.78
365.92	252.78
366.12	252.78
366.32	91.28
366.52	98.30
366.72	102.98
366.91	110.01
367.11	117.03
367.31	81.92
367.51	189.58
367.70	98.30
367.90	175.54
368.10	128.73
368.30	100.64
368.49	105.32
368.69	124.05
368.89	156.82
369.09	126.39
369.28	147.45
369.48	88.94
369.68	241.08
369.87	241.08
370.07	173.20
370.27	163.84
370.47	313.63
370.66	587.47
370.86	617.90
371.06	660.03
371.25	631.94
371.45	699.82
371.65	657.69
371.84	596.84
372.04	634.29
372.24	767.70
372.44	657.69
372.63	763.01
372.83	709.18
373.03	737.27
373.22	723.23
373.42	763.01
373.62	709.18
373.81	774.72
374.01	805.14
374.21	772.38
374.40	851.96
374.60	917.49
374.79	788.76
374.99	847.27
375.19	863.66
375.38	943.24
375.58	854.30
375.78	858.98
375.97	837.91
376.17	898.77
376.37	877.70
376.56	908.13
376.76	826.21
376.95	805.14
377.15	943.24
377.35	908.13
377.54	901.11
377.74	912.81
377.93	933.87
378.13	896.43
378.33	957.28
378.52	926.85
378.72	917.49
378.91	938.55
379.11	954.94
379.31	912.81
379.50	898.77
379.70	978.34
379.89	1029.84
380.09	1008.77
380.28	887.06
380.48	1004.09
380.68	985.37
380.87	961.96
381.07	1078.99
381.26	1022.81
381.46	978.34
381.65	959.62
381.85	1027.50
382.04	1088.35
382.24	1135.16
382.43	1078.99
382.63	1067.28
382.83	1081.33
383.02	1013.45
383.22	1100.05
383.41	1011.11
383.61	1071.97
383.80	1074.31
384.00	1001.75
384.19	1081.33
384.39	1177.29
384.58	1088.35
384.78	1064.94
384.97	1214.74
385.17	1083.67
385.36	1172.61
385.56	1107.07
385.75	1277.93
385.95	1177.29
386.14	1172.61
386.34	1247.51
386.53	1170.27
386.72	1163.25
386.92	1210.06
387.11	1210.06
387.31	1282.61
387.50	1144.52
387.70	1210.06
387.89	1203.04
388.09	1158.57
388.28	1284.95
388.48	1214.74
388.67	1259.21
388.86	1252.19
389.06	1401.98
389.25	1376.24
389.45	1373.89
389.64	1308.36
389.84	1418.36
390.03	1385.60
390.22	1451.13
390.42	1369.21
390.61	1455.81
390.81	1409.00
391.00	1481.56
391.19	1369.21
391.39	1341.13
391.58	1516.67
391.78	1437.09
391.97	1425.39
392.16	1390.28
392.36	1488.58
392.55	1418.36
392.75	1607.95
392.94	1462.83
393.13	1549.43
393.33	1593.90
393.52	1610.29
393.71	1563.48
393.91	1547.09
394.10	1629.01
394.29	1542.41
394.49	1542.41
394.68	1563.48
394.88	1617.31
395.07	1570.50
395.26	1799.87
395.46	1675.82
395.65	1659.44
395.84	1696.89
396.04	1776.47
396.23	1685.19
396.42	1757.74
396.62	1898.17
396.81	1832.64
397.00	1757.74
397.19	1839.66
397.39	1842.00
397.58	1956.69
397.77	1753.06
397.97	1842.00
398.16	1900.52
398.35	1898.17
398.55	1895.83
398.74	1830.30
398.93	2008.18
399.12	1905.20
399.32	1884.13
399.51	1987.11
399.70	2019.88
399.90	1856.04
400.09	1994.14
400.28	2083.08
400.47	2043.29
400.67	2036.27
400.86	2047.97
401.05	2202.44
401.24	2195.42
401.44	2111.16
401.63	2148.61
401.82	2094.78
402.01	2172.02
402.21	2085.42
402.40	2115.84
402.59	2232.87
402.78	2225.85
402.97	2195.42
403.17	2204.78
403.36	2291.38
403.55	2174.36
403.74	2359.26
403.93	2434.16
404.13	2321.81
404.32	2342.88
404.51	2359.26
404.70	2340.54
404.89	2310.11
405.09	2338.20
405.28	2401.39
405.47	2534.80
405.66	2661.19
405.85	2520.76
406.05	2504.37
406.24	2509.05
406.43	2590.97
406.62	2605.02
406.81	2686.94
407.00	2523.10
407.20	2523.10
407.39	2586.29
407.58	2644.81
407.77	2768.85
407.96	2757.15
408.15	2661.19
408.34	2700.98
408.54	2785.24
408.73	2740.77
408.92	2839.07
409.11	2911.63
409.30	2939.71
409.49	2946.73
409.68	3007.59
409.87	3007.59
410.07	2834.39
410.26	3042.70
410.45	3019.29
410.64	3054.40
410.83	3208.87
411.02	3115.25
411.21	3265.05
411.40	3009.93
411.59	3180.79
411.78	3276.75
411.98	3262.71
412.17	3288.45
412.36	3269.73
412.55	3414.84
412.74	3328.24
412.93	3478.04
413.12	3494.42
413.31	3473.36
413.50	3428.88
413.69	3550.59
413.88	3726.13
414.07	3709.75
414.26	3552.93
414.45	3740.18
414.64	3625.49
414.83	3702.73
415.02	3723.79
415.22	3840.82
415.41	3927.42
415.60	3892.31
415.79	3836.14
415.98	3974.23
416.17	4018.70
416.36	3913.38
416.55	4065.51
416.74	4217.65
416.93	4180.20
417.12	4280.84
417.31	4161.47
417.50	4135.73
417.69	4283.18
417.88	4308.93
418.07	4266.80
418.26	4184.88
418.45	4306.59
418.64	4540.64
418.83	4528.94
419.02	4322.97
419.21	4505.53
419.39	4524.26
419.58	4465.74
419.77	4594.47
419.96	4613.20
420.15	4564.04
420.34	4699.80
420.53	4739.58
420.72	4802.78
420.91	4613.20
421.10	4741.93
421.29	4723.20
421.48	4695.11
421.67	4844.91
421.86	4863.63
422.05	4807.46
422.24	4851.93
422.43	5027.47
422.61	4992.36
422.80	4959.60
422.99	4828.53
423.18	4968.96
423.37	5057.90
423.56	5015.77
423.75	4971.30
423.94	4961.94
424.13	4746.61
424.32	4741.93
424.50	5081.30
424.69	4992.36
424.88	4987.68
425.07	4826.18
425.26	4933.85
425.45	4882.36
425.64	4880.02
425.83	5032.15
426.01	4938.53
426.20	5074.28
426.39	5020.45
426.58	4987.68
426.77	5207.69
426.96	5238.12
427.15	5186.63
427.33	5207.69
427.52	5235.78
427.71	5188.97
427.90	5277.91
428.09	5329.40
428.28	5357.49
428.46	5521.32
428.65	5420.68
428.84	5437.06
429.03	5647.71
429.22	5315.36
429.40	5544.73
429.59	5504.94
429.78	5406.64
429.97	5212.37
430.16	5685.16
430.34	5577.50
430.53	5640.69
430.72	5657.07
430.91	5706.23
431.10	5647.71
431.28	5884.11
431.47	5640.69
431.66	6015.18
431.85	5900.49
432.03	6003.47
432.22	6069.01
432.41	5760.06
432.60	5935.60
432.79	5886.45
432.97	6033.90
433.16	6132.20
433.35	6113.48
433.54	6246.89
433.72	6223.48
433.91	6087.73
434.10	6237.53
434.28	6214.12
434.47	6370.94
434.66	6197.74
434.85	6282.00
435.03	6230.51
435.22	6340.51
435.41	6649.46
435.59	6345.19
435.78	6389.66
435.97	6410.73
436.16	6476.26
436.34	6244.55
436.53	6560.52
436.72	6614.35
436.90	6597.97
437.09	6785.21
437.28	6464.56
437.46	6497.33
437.65	6588.61
437.84	6761.81
438.02	6766.49
438.21	6930.33
438.40	6806.28
438.58	7016.93
438.77	7136.29
438.96	6977.14
439.14	7138.63
439.33	7220.55
439.52	7187.79
439.70	7279.07
439.89	7470.99
440.08	7220.55
440.26	7283.75
440.45	7295.45
440.63	7475.67
440.82	7644.19
441.01	7529.50
441.19	7698.02
441.38	7665.25
441.57	7857.18
441.75	7840.79
441.94	8032.72
442.12	7887.61
442.31	8011.65
442.50	8236.35
442.68	8035.06
442.87	8170.81
443.05	8231.66
443.24	8189.53
443.43	8074.85
443.61	8266.77
443.80	8479.76
443.98	8196.56
444.17	7854.84
444.35	8191.88
444.54	8280.82
444.73	8454.02
444.91	8301.88
445.10	8549.98
445.28	8327.63
445.47	8140.38
445.65	8311.24
445.84	8486.78
446.02	8496.14
446.21	8482.10
446.39	8388.48
446.58	8627.21
446.77	8402.52
446.95	8339.33
447.14	8355.71
447.32	8842.54
447.51	8636.58
447.69	8226.98
447.88	8664.66
448.06	8615.51
448.25	8624.87
448.43	8575.72
448.62	8521.89
448.80	8622.53
448.99	8891.70
449.17	8879.99
449.36	8650.62
449.54	8947.87
449.73	8943.19
449.91	8954.89
450.10	8940.85
450.28	9123.41
450.46	9083.62
450.65	9074.26
450.83	8973.61
451.02	9114.05
451.20	9142.13
451.39	9013.40
451.57	9298.95
451.76	8987.66
451.94	9160.86
452.13	9441.72
452.31	9369.16
452.49	9186.60
452.68	9371.50
452.86	9352.78
453.05	9502.58
453.23	9441.72
453.42	9511.94
453.60	9483.85
453.78	9577.47
453.97	9631.30
454.15	9385.55
454.34	9640.67
454.52	9703.86
454.70	9680.46
454.89	9832.59
455.07	9745.99
455.26	9879.40
455.44	10052.60
455.62	10078.35
455.81	9954.30
455.99	10019.83
456.17	10174.31
456.36	10038.56
456.54	10373.25
456.73	10193.03
456.91	10466.88
457.09	10492.62
457.28	10682.20
457.46	10532.41
457.64	10539.43
457.83	10656.46
458.01	10314.74
458.19	10642.42
458.38	10551.14
458.56	10827.32
458.74	10738.38
458.93	10960.73
459.11	10787.53
459.29	10920.94
459.48	11009.88
459.66	10841.36
459.84	10972.43
460.03	10970.09
460.21	11063.71
460.39	11218.19
460.57	11049.67
460.76	11185.42
460.94	11468.62
461.12	11098.82
461.31	11475.65
461.49	11272.02
461.67	11349.26
461.85	11721.40
462.04	11398.41
462.22	11688.64
462.40	11648.85
462.59	11655.87
462.77	11470.97
462.95	11489.69
463.13	11927.37
463.32	11868.86
463.50	12018.65
463.68	11810.34
463.86	11885.24
464.05	11686.29
464.23	11620.76
464.41	11985.88
464.59	11730.76
464.78	12248.02
464.96	11915.67
465.14	11843.11
465.32	12032.69
465.50	12238.66
465.69	12367.39
465.87	12175.47
466.05	12238.66
466.23	12184.83
466.41	12243.34
466.60	12554.63
466.78	12058.44
466.96	12407.18
467.14	12301.86
467.32	12629.53
467.51	12353.35
467.69	12269.09
467.87	12507.82
468.05	12645.91
468.23	12648.26
468.41	12297.17
468.60	12674.00
468.78	12725.49
468.96	12599.10
469.14	12910.40
469.32	12938.48
469.50	12533.57
469.69	13345.73
469.87	13317.65
470.05	13195.94
470.23	13626.60
470.41	13500.21
470.59	13432.33
470.77	13263.82
470.95	13493.19
471.14	13584.47
471.32	13310.63
471.50	13668.73
471.68	13666.39
471.86	13467.44
472.04	13694.47
472.22	14033.85
472.40	13694.47
472.58	13818.52
472.77	13914.48
472.95	14396.64
473.13	14534.73
473.31	14237.48
473.49	14354.51
473.67	14197.69
473.85	14445.79
474.03	14764.10
474.21	14658.78
474.39	14672.82
474.57	14808.57
474.75	14836.66
474.93	15124.54
475.12	14958.36
475.30	15098.80
475.48	15033.26
475.66	15185.40
475.84	15295.40
476.02	15562.22
476.20	15599.67
476.38	15955.43
476.56	15962.45
476.74	15988.20
476.92	15939.05
477.10	15915.64
477.28	16369.71
477.46	16259.70
477.64	16514.82
477.82	16870.58
478.00	17280.18
478.18	17050.80
478.36	17284.86
478.54	17221.66
478.72	17097.61
478.90	17376.14
479.08	17750.62
479.26	17909.78
479.44	17762.33
479.62	18015.10
479.80	17919.14
479.98	18478.53
480.16	18845.99
480.34	18480.87
480.52	18843.65
480.70	18988.77
480.88	18281.92
481.06	18789.82
481.24	19255.59
481.41	19480.28
481.59	19653.48
481.77	19426.45
481.95	19393.68
482.13	20011.58
482.31	19676.88
482.49	20301.81
482.67	20397.77
482.85	20641.18
483.03	20411.81
483.21	20680.97
483.39	21116.31
483.57	21081.21
483.74	21385.47
483.92	21341.00
484.10	21713.15
484.28	21788.05
484.46	22134.45
484.64	22377.86
484.82	22232.75
485.00	22403.61
485.18	22747.67
485.35	23337.48
485.53	22998.10
485.71	23309.40
485.89	23721.33
486.07	23592.60
486.25	23676.86
486.43	23651.11
486.61	24060.71
486.78	24215.18
486.96	24194.12
487.14	24720.74
487.32	24837.76
487.50	24882.24
487.68	25116.29
487.85	25411.20
488.03	25525.88
488.21	25949.52
488.39	25790.36
488.57	26396.56
488.75	26293.58
488.92	26630.62
489.10	26991.06
489.28	26836.58
489.46	27381.93
489.64	27491.93
489.81	27843.01
489.99	27700.24
490.17	27985.79
490.35	28217.50
490.53	28161.33
490.70	28545.17
490.88	28381.34
491.06	29062.43
491.24	29071.79
491.41	29490.75
491.59	29280.10
491.77	29783.32
491.95	30066.52
492.13	29998.65
492.30	30375.47
492.48	30293.55
492.66	30483.14
492.84	30529.95
493.01	30890.39
493.19	30710.17
493.37	31285.94
493.54	31056.57
493.72	31604.25
493.90	31868.73
494.08	32013.85
494.25	32512.38
494.43	31938.95
494.61	32189.39
494.79	33055.39
494.96	32568.55
495.14	32882.19
495.32	33141.99
495.49	33097.52
495.67	33464.98
495.85	34017.35
496.02	34227.99
496.20	34405.88
496.38	34122.67
496.55	34277.15
496.73	35194.64
496.91	34796.74
497.09	35297.62
497.26	35267.19
497.44	35199.32
497.62	35391.24
497.79	36196.38
497.97	35744.66
498.14	35714.23
498.32	36091.06
498.50	36212.77
498.67	36568.53
498.85	36786.20
499.03	36847.05
499.20	37095.15
499.38	37317.50
499.56	36973.44
499.73	37371.33
499.91	37804.33
500.08	37968.17
500.26	38005.62
500.44	38216.27
500.61	38110.94
500.79	38394.15
500.97	38759.27
501.14	38983.96
501.32	38731.18
501.49	38782.68
501.67	38621.18
501.84	39491.86
502.02	38979.28
502.20	39421.64
502.37	39332.70
502.55	39093.97
502.72	39782.09
502.90	39908.47
503.07	40025.50
503.25	40208.06
503.43	40076.99
503.60	40458.50
503.78	40573.19
503.95	40547.44
504.13	40456.16
504.30	41017.89
504.48	40718.30
504.65	41193.43
504.83	41006.19
505.01	41715.37
505.18	41638.13
505.36	41846.44
505.53	41420.46
505.71	42031.34
505.88	42209.22
506.06	42129.64
506.23	42047.72
506.41	42286.46
506.58	42452.64
506.76	42447.96
506.93	42787.33
507.11	42843.51
507.28	42845.85
507.46	43037.77
507.63	43285.87
507.81	43501.20
507.98	43246.08
508.16	43655.67
508.33	43468.43
508.50	43562.05
508.68	43901.43
508.85	44348.47
509.03	44409.32
509.20	44238.47
509.38	44996.80
509.55	44755.72
509.73	44652.74
509.90	44741.68
510.08	44875.09
510.25	45048.29
510.42	44975.73
510.60	45001.48
510.77	45731.73
510.95	45595.98
511.12	45301.07
511.30	45242.56
511.47	45689.60
511.64	45553.85
511.82	45993.87
511.99	45626.40
512.17	46157.70
512.34	46047.70
512.51	46532.19
512.69	46302.82
512.86	46429.21
513.04	47215.63
513.21	46836.46
513.38	47276.48
513.56	47220.31
513.73	47210.95
513.90	47693.10
514.08	47344.36
514.25	47707.14
514.43	47650.97
514.60	47833.53
514.77	48048.86
514.95	47810.12
515.12	47880.34
515.29	47973.96
515.47	48254.82
515.64	48095.67
515.81	48109.71
515.99	48793.15
516.16	48891.45
516.33	48690.16
516.51	49205.08
516.68	48470.15
516.85	49008.48
517.03	49240.19
517.20	49038.90
517.37	48846.98
517.54	49448.50
517.72	49184.02
517.89	49336.15
518.06	49303.38
518.24	49448.50
518.41	49464.88
518.58	49677.87
518.75	49514.03
518.93	49668.51
519.10	49998.52
519.27	50192.79
519.45	49846.39
519.62	50115.55
519.79	50323.86
519.96	50284.07
520.14	50260.66
520.31	50213.85
520.48	50873.88
520.65	50440.89
520.83	50560.25
521.00	51044.74
521.17	50712.39
521.34	50904.31
521.52	51297.52
521.69	51131.34
521.86	51360.72
522.03	51412.21
522.20	51650.94
522.38	51653.28
522.55	51386.46
522.72	51484.76
522.89	51562.00
523.07	52048.83
523.24	51847.55
523.41	51695.41
523.58	51952.87
523.75	52016.07
523.92	51920.10
524.10	52315.65
524.27	52046.49
524.44	52519.28
524.61	52444.38
524.78	52556.73
524.96	52280.55
525.13	52411.62
525.30	52666.73
525.47	52673.76
525.64	52463.11
525.81	53029.52
525.98	52683.12
526.16	52577.79
526.33	52612.90
526.50	53310.38
526.67	53057.60
526.84	53172.29
527.01	53083.35
527.18	53371.24
527.36	53151.23
527.53	53176.97
527.70	53710.61
527.87	53553.80
528.04	53375.92
528.21	53738.70
528.38	53448.47
528.55	53670.82
528.72	53638.06
528.89	53670.82
529.07	53530.39
529.24	53504.65
529.41	53804.24
529.58	53818.28
529.75	53502.31
529.92	54085.10
530.09	54148.29
530.26	54232.55
530.43	54071.06
530.60	54344.90
530.77	54038.29
530.94	54438.52
531.11	54094.46
531.28	54419.80
531.46	54398.73
531.63	54389.37
531.80	54571.93
531.97	54759.17
532.14	54817.69
532.31	54773.22
532.48	54817.69
532.65	54731.09
532.82	54642.15
532.99	54883.22
533.16	54944.08
533.33	54962.80
533.50	54848.11
533.67	55168.77
533.84	54927.69
534.01	55327.92
534.18	55320.90
534.35	55599.43
534.52	55185.15
534.69	55372.39
534.86	55306.86
535.03	55222.60
535.20	55110.25
535.37	55435.59
535.54	55594.74
535.71	55395.80
535.88	55646.24
536.05	55554.96
536.22	55789.01
536.38	56030.08
536.55	55856.88
536.72	55800.71
536.89	55655.60
537.06	55716.45
537.23	55906.04
537.40	56093.28
537.57	55950.51
537.74	55880.29
537.91	56104.98
538.08	56069.87
538.25	55966.89
538.42	56130.73
538.59	56346.06
538.75	55987.95
538.92	56205.62
539.09	56451.38
539.26	56360.10
539.43	56172.86
539.60	56402.23
539.77	56549.68
539.94	56610.54
540.11	56481.81
540.28	56811.82
540.44	56612.88
540.61	56673.73
540.78	56446.70
540.95	56355.42
541.12	56327.33
541.29	56521.60
541.46	56750.97
541.62	57008.43
541.79	56893.74
541.96	56514.58
542.13	56739.27
542.30	56863.32
542.47	56870.34
542.63	57200.35
542.80	56978.00
542.97	57359.51
543.14	57387.60
543.31	57195.67
543.48	57310.36
543.64	57581.86
543.81	57457.81
543.98	57476.54
544.15	57525.69
544.32	57719.95
544.48	57818.25
544.65	57455.47
544.82	57553.77
544.99	57563.14
545.16	57673.14
545.32	57593.56
545.49	57865.06
545.66	58101.46
545.83	57872.09
546.00	57790.17
546.16	57804.21
546.33	57612.29
546.50	57586.54
546.67	57614.63
546.83	57579.52
547.00	58000.82
547.17	57663.78
547.34	58073.37
547.50	58071.03
547.67	58223.17
547.84	58227.85
548.00	58260.62
548.17	58309.77
548.34	58295.72
548.51	58560.20
548.67	58426.79
548.84	58398.71
549.01	58344.87
549.18	58288.70
549.34	58223.17
549.51	58438.50
549.68	58492.33
549.84	58485.31
550.01	58415.09
550.18	58557.86
550.34	58520.41
550.51	58674.89
550.68	58733.40
550.84	58497.01
551.01	58571.91
551.18	58672.55
551.34	58698.30
551.51	58677.23
551.68	58700.64
551.84	58766.17
552.01	58609.35
552.18	58962.78
552.34	58766.17
552.51	58747.45
552.68	58614.04
552.84	58660.85
553.01	59103.21
553.18	59075.12
553.34	59253.00
553.51	58777.87
553.67	58962.78
553.84	59145.34
554.01	59178.10
554.17	59316.20
554.34	59117.25
554.51	59077.46
554.67	59208.53
554.84	59152.36
555.00	59381.73
555.17	58934.69
555.33	59157.04
555.50	58981.50
555.67	59157.04
555.83	59257.68
556.00	59220.23
556.16	59498.76
556.33	59515.14
556.50	59372.37
556.66	59688.34
556.83	59173.42
556.99	59503.44
557.16	59531.53
557.32	59604.08
557.49	59639.19
557.65	59524.50
557.82	59379.39
557.98	59636.85
558.15	59650.89
558.32	59592.38
558.48	59245.98
558.65	59597.06
558.81	59643.87
558.98	59833.46
559.14	59828.77
559.31	59814.73
559.47	60006.65
559.64	59999.63
559.80	59835.80
559.97	59913.03
560.13	59688.34
560.30	59800.69
560.46	59859.20
560.63	60006.65
560.79	60048.78
560.96	60083.89
561.12	59994.95
561.29	60165.81
561.45	60018.36
561.61	60039.42
561.78	59898.99
561.94	59920.05
562.11	59997.29
562.27	60006.65
562.44	60081.55
562.60	60360.08
562.77	60203.26
562.93	59889.63
563.10	60348.37
563.26	59894.31
563.42	60591.79
563.59	60060.49
563.75	60034.74
563.92	60420.93
564.08	59978.57
564.24	60336.67
564.41	60397.52
564.57	60343.69
564.74	60294.54
564.90	60240.71
565.07	60306.24
565.23	60280.50
565.39	60292.20
565.56	60477.10
565.72	60062.83
565.88	60308.58
566.05	60079.21
566.21	60264.11
566.38	60376.46
566.54	60446.68
566.70	60385.82
566.87	60704.13
567.03	60397.52
567.19	60552.00
567.36	60519.23
567.52	60411.57
567.68	60582.43
567.85	60662.00
568.01	60559.02
568.17	60512.21
568.34	60673.71
568.50	60444.33
568.66	60598.81
568.83	60484.12
568.99	60530.93
569.15	60580.09
569.32	60711.16
569.48	60456.04
569.64	60654.98
569.81	60575.40
569.97	60743.92
570.13	60633.92
570.30	60484.12
570.46	60877.33
570.62	60750.94
570.78	60900.74
570.95	60568.38
571.11	60879.67
571.27	60638.60
571.43	60858.61
571.60	60671.37
571.76	60732.22
571.92	60825.84
572.09	60949.89
572.25	60788.39
572.41	60804.78
572.57	60701.79
572.74	60884.36
572.90	60708.82
573.06	60921.80
573.22	60814.14
573.38	60835.20
573.55	60608.17
573.71	60999.04
573.87	60736.90
574.03	60786.05
574.20	60940.53
574.36	60774.35
574.52	60989.68
574.68	60970.96
574.84	60942.87
575.01	60874.99
575.17	60830.52
575.33	60977.98
575.49	61043.51
575.65	60874.99
575.82	61034.15
575.98	60846.91
576.14	61240.12
576.30	61118.41
576.46	61050.53
576.62	60793.07
576.79	61020.11
576.95	60786.05
577.11	61010.74
577.27	61017.77
577.43	60956.91
577.59	60942.87
577.75	60954.57
577.92	60928.83
578.08	60980.32
578.24	60921.80
578.40	61118.41
578.56	61095.00
578.72	60774.35
578.88	61120.75
579.04	61219.05
579.21	61099.68
579.37	61125.43
579.53	61380.55
579.69	60919.46
579.85	61085.64
580.01	60999.04
580.17	60917.12
580.33	61099.68
580.49	61118.41
580.65	60959.25
580.82	61219.05
580.98	61048.19
581.14	60907.76
581.30	61244.80
581.46	61069.26
581.62	61162.88
581.78	61120.75
581.94	61317.35
582.10	60982.66
582.26	61132.45
582.42	61167.56
582.58	61223.73
582.74	61141.81
582.90	61087.98
583.06	61116.07
583.22	61059.90
583.38	61071.60
583.54	61261.18
583.70	61160.54
583.86	61141.81
584.02	61176.92
584.18	61319.70
584.34	60989.68
584.50	60994.36
584.66	61102.03
584.82	60874.99
584.98	61102.03
585.14	61261.18
585.30	61148.84
585.46	61167.56
585.62	61102.03
585.78	61399.27
585.94	61310.33
586.10	61300.97
586.26	61275.22
586.42	61275.22
586.58	61226.07
586.74	61242.46
586.90	61179.26
587.06	61113.73
587.22	61263.52
587.38	61237.78
587.54	61387.57
587.70	61347.78
587.86	61123.09
588.02	61216.71
588.18	61441.40
588.34	61223.73
588.49	61102.03
