SpectraSuite Data File
++++++++++++++++++++++++++++++++++++
Date: Fri Oct 25 11:34:43 EDT 2013
User: price-jones
Dark Spectrum Present: No
Reference Spectrum Present: No
Number of Sampled Component Spectra: 1
Spectrometers: USB2+H05261
Integration Time (usec): 100000 (USB2+H05261)
Spectra Averaged: 1 (USB2+H05261)
Boxcar Smoothing: 0 (USB2+H05261)
Correct for Electrical Dark: No (USB2+H05261)
Strobe/Lamp Enabled: No (USB2+H05261)
Correct for Detector Non-linearity: No (USB2+H05261)
Correct for Stray Light: No (USB2+H05261)
Number of Pixels in Processed Spectrum: 2048
>>>>>Begin Processed Spectral Data<<<<<
365.73	278.52
365.92	278.52
366.12	278.52
366.32	177.88
366.52	231.71
366.72	166.18
366.91	170.86
367.11	161.50
367.31	145.11
367.51	163.84
367.70	191.92
367.90	196.60
368.10	175.54
368.30	156.82
368.49	198.95
368.69	201.29
368.89	187.24
369.09	149.79
369.28	276.18
369.48	290.23
369.68	243.42
369.87	177.88
370.07	210.65
370.27	287.89
370.47	327.68
370.66	475.13
370.86	468.11
371.06	582.79
371.25	603.86
371.45	505.56
371.65	580.45
371.84	594.50
372.04	498.53
372.24	528.96
372.44	561.73
372.63	587.47
372.83	608.54
373.03	554.71
373.22	580.45
373.42	641.31
373.62	692.80
373.81	636.63
374.01	683.44
374.21	704.50
374.40	636.63
374.60	608.54
374.79	587.47
374.99	589.82
375.19	732.59
375.38	657.69
375.58	631.94
375.78	697.48
375.97	648.33
376.17	711.52
376.37	627.26
376.56	620.24
376.76	624.92
376.95	594.50
377.15	648.33
377.35	697.48
377.54	734.93
377.74	669.39
377.93	645.99
378.13	683.44
378.33	734.93
378.52	645.99
378.72	720.88
378.91	608.54
379.11	683.44
379.31	737.27
379.50	634.29
379.70	777.06
379.89	709.18
380.09	678.76
380.28	655.35
380.48	741.95
380.68	772.38
380.87	734.93
381.07	753.65
381.26	690.46
381.46	800.46
381.65	751.31
381.85	734.93
382.04	718.54
382.24	807.48
382.43	791.10
382.63	765.36
382.83	835.57
383.02	702.16
383.22	805.14
383.41	777.06
383.61	730.25
383.80	746.63
384.00	767.70
384.19	788.76
384.39	755.99
384.58	884.72
384.78	800.46
384.97	748.97
385.17	840.25
385.36	830.89
385.56	856.64
385.75	795.78
385.95	767.70
386.14	950.26
386.34	779.40
386.53	870.68
386.72	842.59
386.92	786.42
387.11	840.25
387.31	884.72
387.50	814.51
387.70	943.24
387.89	851.96
388.09	763.01
388.28	924.51
388.48	894.08
388.67	940.90
388.86	821.53
389.06	873.02
389.25	933.87
389.45	929.19
389.64	896.43
389.84	950.26
390.03	954.94
390.22	959.62
390.42	919.83
390.61	971.32
390.81	896.43
391.00	1011.11
391.19	952.60
391.39	931.53
391.58	1001.75
391.78	994.73
391.97	973.66
392.16	980.68
392.36	1029.84
392.55	964.30
392.75	971.32
392.94	987.71
393.13	987.71
393.33	987.71
393.52	1048.56
393.71	1102.39
393.91	1053.24
394.10	1055.58
394.29	1111.75
394.49	1095.37
394.68	1053.24
394.88	1149.20
395.07	1109.41
395.26	1123.46
395.46	1078.99
395.65	1095.37
395.84	1097.71
396.04	1125.80
396.23	1121.12
396.42	1142.18
396.62	1130.48
396.81	1172.61
397.00	1184.31
397.19	1207.72
397.39	1266.23
397.58	1170.27
397.77	1130.48
397.97	1266.23
398.16	1102.39
398.35	1294.32
398.55	1235.80
398.74	1191.33
398.93	1310.70
399.12	1303.68
399.32	1226.44
399.51	1327.08
399.70	1310.70
399.90	1289.64
400.09	1261.55
400.28	1266.23
400.47	1359.85
400.67	1376.24
400.86	1357.51
401.05	1373.89
401.24	1409.00
401.44	1348.15
401.63	1390.28
401.82	1441.77
402.01	1427.73
402.21	1387.94
402.40	1404.32
402.59	1511.99
402.78	1462.83
402.97	1530.71
403.17	1535.39
403.36	1430.07
403.55	1460.49
403.74	1521.35
403.93	1523.69
404.13	1549.43
404.32	1537.73
404.51	1537.73
404.70	1561.14
404.89	1572.84
405.09	1692.21
405.28	1598.59
405.47	1636.03
405.66	1647.74
405.85	1678.16
406.05	1603.27
406.24	1629.01
406.43	1629.01
406.62	1788.17
406.81	1776.47
407.00	1727.32
407.20	1605.61
407.39	1689.87
407.58	1771.79
407.77	1858.39
407.96	1771.79
408.15	1820.94
408.34	1788.17
408.54	1785.83
408.73	1748.38
408.92	1916.90
409.11	1921.58
409.30	1858.39
409.49	1907.54
409.68	1881.79
409.87	1872.43
410.07	1935.62
410.26	1944.99
410.45	1942.64
410.64	1980.09
410.83	1998.82
411.02	2064.35
411.21	2064.35
411.40	2076.06
411.59	2129.89
411.78	2225.85
411.98	2136.91
412.17	2232.87
412.36	2040.95
412.55	2235.21
412.74	2270.32
412.93	2195.42
413.12	2174.36
413.31	2380.32
413.50	2342.88
413.69	2069.03
413.88	2375.64
414.07	2307.77
414.26	2438.84
414.45	2427.14
414.64	2450.54
414.83	2385.01
415.02	2319.47
415.22	2537.14
415.41	2693.96
415.60	2607.36
415.79	2562.89
415.98	2551.18
416.17	2560.55
416.36	2600.34
416.55	2616.72
416.74	2668.21
416.93	2668.21
417.12	2670.55
417.31	2722.04
417.50	2780.56
417.69	2719.70
417.88	2808.64
418.07	2874.18
418.26	2815.66
418.45	2815.66
418.64	3042.70
418.83	2815.66
419.02	2906.95
419.21	2944.39
419.39	2984.18
419.58	2841.41
419.77	2902.26
419.96	3049.72
420.15	3005.25
420.34	3007.59
420.53	3038.02
420.72	3141.00
420.91	3082.49
421.10	3220.58
421.29	3082.49
421.48	2984.18
421.67	3077.80
421.86	3119.93
422.05	3033.33
422.24	3155.04
422.43	3323.56
422.61	3176.11
422.80	3288.45
422.99	3246.32
423.18	3208.87
423.37	3286.11
423.56	3229.94
423.75	3220.58
423.94	3030.99
424.13	2958.44
424.32	3300.16
424.50	3358.67
424.69	3335.26
424.88	3346.97
425.07	3330.58
425.26	3255.69
425.45	3295.47
425.64	3328.24
425.83	3332.92
426.01	3344.63
426.20	3461.65
426.39	3323.56
426.58	3309.52
426.77	3365.69
426.96	3391.44
427.15	3302.50
427.33	3545.91
427.52	3283.77
427.71	3370.37
427.90	3440.59
428.09	3541.23
428.28	3590.38
428.46	3454.63
428.65	3435.91
428.84	3639.53
429.03	3611.45
429.22	3637.19
429.40	3499.10
429.59	3564.64
429.78	3574.00
429.97	3442.93
430.16	3562.30
430.34	3658.26
430.53	3674.64
430.72	3684.00
430.91	3765.92
431.10	3726.13
431.28	3620.81
431.47	3719.11
431.66	3801.03
431.85	3761.24
432.03	3901.67
432.22	3904.01
432.41	3939.12
432.60	3857.20
432.79	3873.59
432.97	3859.54
433.16	4079.55
433.35	3791.67
433.54	3857.20
433.72	4063.17
433.91	3962.53
434.10	4081.89
434.28	3957.85
434.47	4060.83
434.66	4093.60
434.85	4058.49
435.03	4070.19
435.22	4203.60
435.41	4189.56
435.59	4205.94
435.78	4210.62
435.97	4283.18
436.16	4208.28
436.34	4198.92
436.53	4175.52
436.72	4269.14
436.90	4388.50
437.09	4341.69
437.28	4271.48
437.46	4248.07
437.65	4332.33
437.84	4400.21
438.02	4510.21
438.21	4510.21
438.40	4311.27
438.58	4421.27
438.77	4484.47
438.96	4482.13
439.14	4674.05
439.33	4660.01
439.52	4727.88
439.70	4660.01
439.89	4662.35
440.08	4629.58
440.26	4905.76
440.45	4835.55
440.63	4924.49
440.82	4952.57
441.01	4917.47
441.19	4947.89
441.38	5062.58
441.57	5076.62
441.75	5015.77
441.94	5055.56
442.12	5139.82
442.31	5163.22
442.50	5259.18
442.68	5064.92
442.87	5146.84
443.05	5270.89
443.24	5305.99
443.43	5231.10
443.61	5298.97
443.80	5514.30
443.98	5076.62
444.17	5057.90
444.35	5210.03
444.54	5289.61
444.73	5376.21
444.91	5479.19
445.10	5221.74
445.28	5345.78
445.47	5411.32
445.65	5247.48
445.84	5474.51
446.02	5392.59
446.21	5378.55
446.39	5385.57
446.58	5476.85
446.77	5455.79
446.95	5303.65
447.14	5259.18
447.32	5362.17
447.51	5572.82
447.69	5493.24
447.88	5617.29
448.06	5551.75
448.25	5418.34
448.43	5488.56
448.62	5661.76
448.80	5465.15
448.99	5610.26
449.17	5722.61
449.36	5561.11
449.54	5678.14
449.73	5820.91
449.91	5743.67
450.10	5774.10
450.28	5879.43
450.46	5797.51
450.65	5879.43
450.83	5895.81
451.02	5900.49
451.20	5687.50
451.39	5865.38
451.57	5879.43
451.76	5825.59
451.94	5956.66
452.13	6122.84
452.31	5902.83
452.49	5797.51
452.68	6047.94
452.86	5849.00
453.05	5970.71
453.23	6111.14
453.42	5994.11
453.60	6045.60
453.78	6099.44
453.97	6036.24
454.15	6066.67
454.34	6083.05
454.52	6263.27
454.70	6277.32
454.89	6249.23
455.07	6242.21
455.26	6188.38
455.44	6464.56
455.62	6230.51
455.81	6326.47
455.99	6401.37
456.17	6471.58
456.36	6434.13
456.54	6469.24
456.73	6525.41
456.91	6707.98
457.09	6677.55
457.28	6619.04
457.46	6609.67
457.64	6787.55
457.83	6539.46
458.01	6523.07
458.19	6874.15
458.38	6693.93
458.56	6829.68
458.74	6715.00
458.93	6719.68
459.11	6895.22
459.29	6686.91
459.48	6834.36
459.66	6829.68
459.84	7021.61
460.03	7054.37
460.21	6958.41
460.39	7112.89
460.57	6974.80
460.76	7075.44
460.94	7218.21
461.12	7227.57
461.31	7091.82
461.49	7187.79
461.67	6981.82
461.85	7447.58
462.04	7173.74
462.22	7419.50
462.40	7314.17
462.59	7290.77
462.77	7307.15
462.95	7499.08
463.13	7328.22
463.32	7393.75
463.50	7466.31
463.68	7454.61
463.86	7716.75
464.05	7410.14
464.23	7396.09
464.41	7562.27
464.59	7330.56
464.78	7646.53
464.96	7658.23
465.14	7478.01
465.32	7581.00
465.50	7824.41
465.69	7581.00
465.87	7777.60
466.05	7808.03
466.23	7833.77
466.41	7854.84
466.60	7829.09
466.78	7756.54
466.96	7826.75
467.14	7801.01
467.32	7836.11
467.51	7927.39
467.69	7854.84
467.87	7899.31
468.05	7927.39
468.23	7808.03
468.41	7929.74
468.60	8032.72
468.78	8163.79
468.96	8201.24
469.14	8105.28
469.32	8086.55
469.50	7981.23
469.69	8374.44
469.87	8287.84
470.05	8463.38
470.23	8285.50
470.41	8348.69
470.59	8353.37
470.77	8432.95
470.95	8346.35
471.14	8432.95
471.32	8194.22
471.50	8636.58
471.68	8496.14
471.86	8629.56
472.04	8762.97
472.22	8931.48
472.40	8496.14
472.58	8772.33
472.77	8856.59
472.95	8968.93
473.13	9177.24
473.31	8819.14
473.49	8945.53
473.67	8872.97
473.85	9071.92
474.03	9025.11
474.21	9343.42
474.39	9275.54
474.57	9373.85
474.75	9366.82
474.93	9312.99
475.12	9446.40
475.30	9497.89
475.48	9467.47
475.66	9509.60
475.84	9614.92
476.02	9687.48
476.20	9659.39
476.38	10115.80
476.56	9841.95
476.74	9898.13
476.92	10017.49
477.10	9912.17
477.28	10052.60
477.46	10043.24
477.64	10101.75
477.82	10509.01
478.00	10427.09
478.18	10406.02
478.36	10633.05
478.54	10895.19
478.72	10597.95
478.90	10672.84
479.08	10909.24
479.26	11094.14
479.44	11122.23
479.62	11012.22
479.80	11272.02
479.98	11133.93
480.16	11559.91
480.34	11356.28
480.52	11309.47
480.70	11658.21
480.88	11566.93
481.06	11683.95
481.24	11805.66
481.41	12035.03
481.59	12025.67
481.77	12046.74
481.95	12351.01
482.13	12383.77
482.31	12264.41
482.49	12620.17
482.67	12603.78
482.85	12711.45
483.03	12809.75
483.21	12992.31
483.39	12943.16
483.57	12919.76
483.74	13158.49
483.92	13310.63
484.10	13275.52
484.28	13366.80
484.46	13612.56
484.64	13846.61
484.82	13579.79
485.00	13802.14
485.18	14024.49
485.35	14162.58
485.53	14218.75
485.71	14228.12
485.89	14492.60
486.07	14324.08
486.25	14586.22
486.43	14518.34
486.61	15037.94
486.78	14661.12
486.96	14930.28
487.14	15377.32
487.32	15332.85
487.50	15697.97
487.68	15536.48
487.85	15843.09
488.03	15836.06
488.21	16067.78
488.39	16079.48
488.57	16112.25
488.75	16320.56
488.92	16245.66
489.10	16458.65
489.28	16673.98
489.46	16879.94
489.64	16582.70
489.81	17057.82
489.99	17289.54
490.17	17240.39
490.35	17397.20
490.53	17366.78
490.70	17855.95
490.88	17621.89
491.06	17832.54
491.24	17755.30
491.41	18090.00
491.59	18246.82
491.77	18108.72
491.95	18394.27
492.13	18291.29
492.30	18759.39
492.48	18492.57
492.66	18581.51
492.84	18478.53
493.01	18831.95
493.19	19070.68
493.37	19269.63
493.54	19115.16
493.72	19410.06
493.90	19370.27
494.08	19435.81
494.25	19807.95
494.43	19665.18
494.61	19885.19
494.79	19936.68
494.96	20339.26
495.14	19974.13
495.32	20446.92
495.49	20683.31
495.67	20765.23
495.85	20479.69
496.02	21095.25
496.20	20940.77
496.38	20889.28
496.55	21364.41
496.73	21659.32
496.91	21476.76
497.09	21516.54
497.26	21479.10
497.44	21631.23
497.62	21572.72
497.79	22459.78
497.97	22052.53
498.14	22202.32
498.32	22256.15
498.50	22291.26
498.67	22541.70
498.85	22686.81
499.03	22820.22
499.20	22733.62
499.38	22829.59
499.56	23019.17
499.73	23166.62
499.91	23185.35
500.08	23381.95
500.26	22995.76
500.44	23351.52
500.61	23459.19
500.79	23482.59
500.97	23997.51
501.14	23850.06
501.32	24114.54
501.49	23662.82
501.67	23826.65
501.84	24290.08
502.02	23793.89
502.20	24238.59
502.37	24540.52
502.55	24102.84
502.72	24315.83
502.90	24435.19
503.07	24245.61
503.25	24697.33
503.43	24439.87
503.60	24807.34
503.78	24907.98
503.95	24929.05
504.13	25146.72
504.30	25167.78
504.48	25235.66
504.65	25380.77
504.83	25572.69
505.01	25455.67
505.18	25635.89
505.36	25708.44
505.53	25647.59
505.71	25806.75
505.88	26099.31
506.06	25584.40
506.23	26082.93
506.41	25956.54
506.58	26066.55
506.76	26078.25
506.93	26614.23
507.11	26281.88
507.28	26817.86
507.46	26635.30
507.63	26728.92
507.81	26593.17
507.98	26717.22
508.16	26714.87
508.33	27077.66
508.50	27482.57
508.68	26955.95
508.85	27536.40
509.03	27037.87
509.20	27601.94
509.38	27817.27
509.55	27693.22
509.73	27679.18
509.90	27548.11
510.08	28243.24
510.25	27728.33
510.42	28074.73
510.60	28006.85
510.77	28460.91
510.95	28638.80
511.12	27962.38
511.30	28156.64
511.47	28292.40
511.64	28463.25
511.82	29160.73
511.99	28573.26
512.17	28931.36
512.34	28634.11
512.51	28931.36
512.69	29312.87
512.86	28893.91
513.04	29113.92
513.21	29294.14
513.38	29331.59
513.56	29755.23
513.73	29352.66
513.90	29247.33
514.08	29778.64
514.25	29708.42
514.43	29928.43
514.60	29914.39
514.77	30305.26
514.95	30026.73
515.12	29977.58
515.29	30017.37
515.47	30197.59
515.64	30307.60
515.81	29928.43
515.99	30307.60
516.16	30635.27
516.33	30178.87
516.51	30419.94
516.68	30485.48
516.85	30672.72
517.03	30686.76
517.20	31056.57
517.37	30890.39
517.54	30771.02
517.72	31044.87
517.89	31211.04
518.06	31337.43
518.24	31065.93
518.41	31056.57
518.58	31402.97
518.75	31005.08
518.93	31601.91
519.10	31473.18
519.27	31697.88
519.45	31707.24
519.62	31475.52
519.79	31880.44
519.96	31803.20
520.14	32219.81
520.31	31992.78
520.48	31660.43
520.65	31786.82
520.83	32606.00
521.00	32484.30
521.17	32219.81
521.34	32617.71
521.52	32512.38
521.69	32542.81
521.86	32556.85
522.03	32952.40
522.20	32879.85
522.38	33008.58
522.55	33097.52
522.72	32905.59
522.89	33010.92
523.07	33240.29
523.24	33067.09
523.41	33034.32
523.58	33369.02
523.75	33624.14
523.92	33331.57
524.10	33563.28
524.27	33701.37
524.44	33876.91
524.61	33727.12
524.78	33951.81
524.96	33827.76
525.13	34089.90
525.30	33954.15
525.47	34103.95
525.64	34349.70
525.81	34265.44
525.98	34164.80
526.16	33867.55
526.33	33998.62
526.50	34464.39
526.67	34103.95
526.84	34473.75
527.01	34431.62
527.18	34213.95
527.36	34780.36
527.53	34679.72
527.70	34991.01
527.87	35372.52
528.04	34768.66
528.21	35009.73
528.38	34974.63
528.55	35028.46
528.72	34979.31
528.89	35164.21
529.07	35122.08
529.24	35136.12
529.41	35171.23
529.58	35306.98
529.75	35480.18
529.92	35644.02
530.09	35498.91
530.26	35459.12
530.43	35833.60
530.60	35770.41
530.77	35648.70
530.94	35924.88
531.11	35885.09
531.28	35421.67
531.46	35929.56
531.63	36058.29
531.80	35873.39
531.97	36512.36
532.14	36519.38
532.31	35929.56
532.48	36378.95
532.65	36783.86
532.82	36334.48
532.99	36603.64
533.16	36388.31
533.33	36519.38
533.50	36582.57
533.67	36678.54
533.84	36212.77
534.01	36432.78
534.18	37216.86
534.35	37626.45
534.52	37062.38
534.69	37036.64
534.86	37249.63
535.03	36863.44
535.20	37083.45
535.37	36961.74
535.54	37340.91
535.71	36945.36
535.88	37331.54
536.05	37443.89
536.22	37677.94
536.38	37287.07
536.55	37486.02
536.72	37666.24
536.89	37631.13
537.06	37469.64
537.23	37893.27
537.40	37518.79
537.57	37717.73
537.74	37532.83
537.91	37661.56
538.08	37677.94
538.25	37717.73
538.42	37827.74
538.59	37879.23
538.75	38110.94
538.92	38274.78
539.09	38415.21
539.26	38450.32
539.43	38251.38
539.60	38728.84
539.77	38361.38
539.94	38265.42
540.11	38604.80
540.28	38593.09
540.44	38831.83
540.61	38085.20
540.78	38611.82
540.95	38405.85
541.12	38515.86
541.29	38522.88
541.46	38576.71
541.62	39023.75
541.79	39028.43
541.96	38731.18
542.13	38778.00
542.30	39278.87
542.47	39501.22
542.63	39313.98
542.80	39253.12
542.97	39632.29
543.14	39545.69
543.31	39152.48
543.48	39321.00
543.64	39957.63
543.81	40086.36
543.98	39735.27
544.15	39941.24
544.32	39632.29
544.48	40079.33
544.65	39756.34
544.82	40105.08
544.99	39363.13
545.16	40226.79
545.32	39974.01
545.49	40098.06
545.66	40437.44
545.83	40257.21
546.00	40369.56
546.16	40140.19
546.33	39969.33
546.50	40076.99
546.67	40282.96
546.83	39784.43
547.00	40343.81
547.17	39828.90
547.34	40315.73
547.50	40439.78
547.67	41078.74
547.84	40268.92
548.00	40999.16
548.17	40905.54
548.34	41130.23
548.51	40825.96
548.67	41106.83
548.84	40919.59
549.01	40945.33
549.18	41212.15
549.34	41291.73
549.51	41375.99
549.68	40847.03
549.84	40872.78
550.01	41551.53
550.18	40758.09
550.34	41205.13
550.51	41495.36
550.68	41254.28
550.84	41120.87
551.01	41617.07
551.18	41284.71
551.34	40910.22
551.51	41455.57
551.68	41265.99
551.84	41251.94
552.01	41338.54
552.18	41223.86
552.34	41289.39
552.51	41764.52
552.68	41729.41
552.84	41418.12
553.01	41745.80
553.18	42040.70
553.34	41687.28
553.51	41890.91
553.67	41855.80
553.84	42117.94
554.01	41998.57
554.17	42181.13
554.34	42190.50
554.51	42256.03
554.67	42092.19
554.84	42305.18
555.00	42087.51
555.17	41834.74
555.33	42211.56
555.50	41904.95
555.67	42225.60
555.83	42099.22
556.00	42244.33
556.16	42988.62
556.33	42424.55
556.50	42497.11
556.66	42504.13
556.83	42337.95
556.99	42878.61
557.16	42869.25
557.32	42300.50
557.49	42745.20
557.65	42286.46
557.82	42782.65
557.98	42548.60
558.15	42515.83
558.32	42731.16
558.48	42567.32
558.65	43103.31
558.81	42249.01
558.98	43021.39
559.14	42925.42
559.31	42724.14
559.47	42553.28
559.64	42796.70
559.80	43033.09
559.97	43367.79
560.13	42836.48
560.30	42731.16
560.46	43281.19
560.63	43543.33
560.79	43423.96
560.96	42895.00
561.12	43126.71
561.29	43426.30
561.45	42850.53
561.61	43178.20
561.78	42981.60
561.94	43225.01
562.11	43178.20
562.27	42775.63
562.44	43566.73
562.60	43374.81
562.77	43393.53
562.93	43681.42
563.10	43903.77
563.26	43316.29
563.42	43910.79
563.59	43405.23
563.75	43199.27
563.92	43147.78
564.08	43328.00
564.24	43620.56
564.41	43475.45
564.57	43379.49
564.74	43770.36
564.90	43409.92
565.07	43618.22
565.23	43395.87
565.39	43515.24
565.56	43604.18
565.72	43856.96
565.88	43468.43
566.05	43367.79
566.21	43812.49
566.38	43622.90
566.54	43744.61
566.70	43880.36
566.87	43707.16
567.03	43887.39
567.19	43751.63
567.36	44179.95
567.52	44261.87
567.68	43969.30
567.85	44292.30
568.01	43964.62
568.17	43555.03
568.34	44009.09
568.50	44109.74
568.66	44009.09
568.83	43917.81
568.99	43969.30
569.15	43955.26
569.32	43924.83
569.48	43770.36
569.64	44790.83
569.81	43966.96
569.97	44105.06
570.13	44219.74
570.30	43803.13
570.46	44388.26
570.62	43859.30
570.78	44037.18
570.95	44083.99
571.11	44259.53
571.27	43700.14
571.43	44032.50
571.60	44130.80
571.76	44011.43
571.92	44130.80
572.09	44446.77
572.25	44261.87
572.41	44229.10
572.57	44254.85
572.74	44664.44
572.90	44069.95
573.06	44191.65
573.22	44479.54
573.38	44804.88
573.55	44076.97
573.71	44776.79
573.87	44388.26
574.03	44369.54
574.20	44797.85
574.36	44547.42
574.52	44830.62
574.68	44428.05
574.84	44509.97
575.01	45064.67
575.17	44678.49
575.33	44566.14
575.49	44294.64
575.65	44664.44
575.82	44580.18
575.98	44264.21
576.14	44903.18
576.30	44680.83
576.46	44292.30
576.62	44823.60
576.79	44673.81
576.95	44418.69
577.11	44285.28
577.27	44741.68
577.43	44725.30
577.59	45048.29
577.75	44783.81
577.92	43934.20
578.08	44781.47
578.24	44414.01
578.40	44746.36
578.56	44680.83
578.72	44580.18
578.88	44957.01
579.04	44615.29
579.21	44519.33
579.37	44734.66
579.53	45078.72
579.69	44505.29
579.85	44907.86
580.01	44538.05
580.17	44346.13
580.33	44835.30
580.49	45130.21
580.65	44795.51
580.82	44788.49
580.98	44664.44
581.14	44765.09
581.30	44821.26
581.46	44481.88
581.62	44563.80
581.78	44437.41
581.94	44968.71
582.10	44636.36
582.26	44968.71
582.42	44842.32
582.58	44875.09
582.74	44886.79
582.90	45347.88
583.06	45076.38
583.22	44788.49
583.38	45347.88
583.54	44886.79
583.70	45397.03
583.86	45528.10
584.02	44821.26
584.18	45471.93
584.34	45085.74
584.50	44975.73
584.66	44910.20
584.82	44800.19
584.98	45401.71
585.14	44971.05
585.30	44994.46
585.46	44921.90
585.62	44889.13
585.78	44643.38
585.94	44683.17
586.10	44673.81
586.26	44460.82
586.42	44729.98
586.58	44914.88
586.74	44933.60
586.90	44947.65
587.06	45226.17
587.22	44959.35
587.38	44582.52
587.54	44753.38
587.70	45186.38
587.86	45184.04
588.02	45104.46
588.18	45013.18
588.34	44765.09
588.49	45404.05
588.65	45347.88
588.81	45378.31
588.97	45071.70
589.13	45226.17
589.29	45244.90
589.45	45067.02
589.61	45109.14
589.77	45551.51
589.93	45170.00
590.08	45205.11
590.24	45287.03
