SpectraSuite Data File
++++++++++++++++++++++++++++++++++++
Date: Fri Oct 25 11:23:01 EDT 2013
User: price-jones
Dark Spectrum Present: No
Reference Spectrum Present: No
Number of Sampled Component Spectra: 1
Spectrometers: USB2+H05261
Integration Time (usec): 100000 (USB2+H05261)
Spectra Averaged: 1 (USB2+H05261)
Boxcar Smoothing: 0 (USB2+H05261)
Correct for Electrical Dark: No (USB2+H05261)
Strobe/Lamp Enabled: No (USB2+H05261)
Correct for Detector Non-linearity: No (USB2+H05261)
Correct for Stray Light: No (USB2+H05261)
Number of Pixels in Processed Spectrum: 2048
>>>>>Begin Processed Spectral Data<<<<<
365.73	156.82
365.92	156.82
366.12	156.82
366.32	187.24
366.52	170.86
366.72	161.50
366.91	91.28
367.11	149.79
367.31	184.90
367.51	124.05
367.70	110.01
367.90	100.64
368.10	63.19
368.30	180.22
368.49	63.19
368.69	88.94
368.89	100.64
369.09	196.60
369.28	205.97
369.48	159.16
369.68	215.33
369.87	152.13
370.07	117.03
370.27	278.52
370.47	411.93
370.66	589.82
370.86	561.73
371.06	676.41
371.25	667.05
371.45	636.63
371.65	660.03
371.84	683.44
372.04	702.16
372.24	702.16
372.44	725.57
372.63	711.52
372.83	711.52
373.03	727.91
373.22	847.27
373.42	706.84
373.62	763.01
373.81	760.67
374.01	807.48
374.21	842.59
374.40	779.40
374.60	809.83
374.79	823.87
374.99	828.55
375.19	791.10
375.38	821.53
375.58	847.27
375.78	770.04
375.97	819.19
376.17	898.77
376.37	940.90
376.56	903.45
376.76	840.25
376.95	840.25
377.15	926.85
377.35	940.90
377.54	933.87
377.74	816.85
377.93	891.74
378.13	910.47
378.33	943.24
378.52	933.87
378.72	950.26
378.91	1069.62
379.11	987.71
379.31	980.68
379.50	1015.79
379.70	990.05
379.89	957.28
380.09	931.53
380.28	999.41
380.48	884.72
380.68	985.37
380.87	1034.52
381.07	1050.90
381.26	1088.35
381.46	1053.24
381.65	959.62
381.85	1011.11
382.04	994.73
382.24	1093.03
382.43	1074.31
382.63	994.73
382.83	1125.80
383.02	1036.86
383.22	1130.48
383.41	1123.46
383.61	1053.24
383.80	1130.48
384.00	1111.75
384.19	1139.84
384.39	1181.97
384.58	1170.27
384.78	1102.39
384.97	1174.95
385.17	1139.84
385.36	1053.24
385.56	1160.91
385.75	1228.78
385.95	1158.57
386.14	1259.21
386.34	1198.35
386.53	1191.33
386.72	1275.59
386.92	1179.63
387.11	1181.97
387.31	1196.01
387.50	1167.93
387.70	1233.46
387.89	1303.68
388.09	1270.91
388.28	1359.85
388.48	1355.17
388.67	1217.08
388.86	1233.46
389.06	1341.13
389.25	1338.79
389.45	1383.26
389.64	1437.09
389.84	1371.55
390.03	1378.58
390.22	1364.53
390.42	1462.83
390.61	1313.04
390.81	1416.02
391.00	1472.20
391.19	1411.34
391.39	1451.13
391.58	1462.83
391.78	1432.41
391.97	1462.83
392.16	1401.98
392.36	1511.99
392.55	1549.43
392.75	1514.33
392.94	1586.88
393.13	1446.45
393.33	1617.31
393.52	1586.88
393.71	1600.93
393.91	1519.01
394.10	1565.82
394.29	1636.03
394.49	1561.14
394.68	1741.36
394.88	1614.97
395.07	1636.03
395.26	1657.10
395.46	1748.38
395.65	1757.74
395.84	1629.01
396.04	1788.17
396.23	1797.53
396.42	1792.85
396.62	1823.28
396.81	1710.93
397.00	1827.96
397.19	1795.19
397.39	1846.68
397.58	1865.41
397.77	1837.32
397.97	1842.00
398.16	1844.34
398.35	1902.86
398.55	1895.83
398.74	1926.26
398.93	2019.88
399.12	1902.86
399.32	1947.33
399.51	1891.15
399.70	2015.20
399.90	1996.48
400.09	2076.06
400.28	2071.37
400.47	2078.40
400.67	2113.50
400.86	2186.06
401.05	2115.84
401.24	2160.31
401.44	2099.46
401.63	2204.78
401.82	2120.53
402.01	2162.66
402.21	2174.36
402.40	2225.85
402.59	2118.18
402.78	2263.30
402.97	2174.36
403.17	2228.19
403.36	2230.53
403.55	2310.11
403.74	2209.47
403.93	2335.85
404.13	2319.47
404.32	2441.18
404.51	2354.58
404.70	2394.37
404.89	2401.39
405.09	2497.35
405.28	2424.80
405.47	2506.71
405.66	2527.78
405.85	2583.95
406.05	2480.97
406.24	2668.21
406.43	2523.10
406.62	2670.55
406.81	2724.38
407.00	2616.72
407.20	2558.21
407.39	2726.72
407.58	2733.75
407.77	2661.19
407.96	2745.45
408.15	2792.26
408.34	2843.75
408.54	2885.88
408.73	2750.13
408.92	2693.96
409.11	2843.75
409.30	2906.95
409.49	2946.73
409.68	2949.08
409.87	2946.73
410.07	2939.71
410.26	2864.82
410.45	3000.57
410.64	3143.34
410.83	3068.44
411.02	3080.14
411.21	3159.72
411.40	3136.32
411.59	3096.53
411.78	3274.41
411.98	3133.98
412.17	3183.13
412.36	3332.92
412.55	3384.41
412.74	3304.84
412.93	3361.01
413.12	3316.54
413.31	3581.02
413.50	3447.61
413.69	3527.19
413.88	3517.83
414.07	3527.19
414.26	3606.77
414.45	3801.03
414.64	3737.84
414.83	3782.31
415.02	3836.14
415.22	3730.81
415.41	3861.88
415.60	3824.44
415.79	3929.76
415.98	4018.70
416.17	3964.87
416.36	3985.93
416.55	4056.15
416.74	4138.07
416.93	4002.32
417.12	4154.45
417.31	4133.39
417.50	4182.54
417.69	4248.07
417.88	4290.20
418.07	4234.03
418.26	4372.12
418.45	4339.35
418.64	4498.51
418.83	4585.11
419.02	4437.66
419.21	4348.72
419.39	4587.45
419.58	4440.00
419.77	4559.36
419.96	4620.22
420.15	4503.19
420.34	4636.60
420.53	4641.28
420.72	4858.95
420.91	4718.52
421.10	4636.60
421.29	4727.88
421.48	4557.02
421.67	4800.44
421.86	4800.44
422.05	4779.37
422.24	4849.59
422.43	4954.91
422.61	4861.29
422.80	4968.96
422.99	4870.65
423.18	4961.94
423.37	4973.64
423.56	4994.70
423.75	5083.64
423.94	4898.74
424.13	4674.05
424.32	4758.31
424.50	4940.87
424.69	5149.18
424.88	5163.22
425.07	5032.15
425.26	4994.70
425.45	5034.49
425.64	5069.60
425.83	5006.41
426.01	5048.54
426.20	4966.62
426.39	5057.90
426.58	5158.54
426.77	5100.03
426.96	5102.37
427.15	5135.14
427.33	5149.18
427.52	5259.18
427.71	5275.57
427.90	5294.29
428.09	5224.08
428.28	5467.49
428.46	5315.36
428.65	5390.25
428.84	5373.87
429.03	5418.34
429.22	5188.97
429.40	5441.75
429.59	5600.90
429.78	5200.67
429.97	5364.51
430.16	5455.79
430.34	5645.37
430.53	5699.20
430.72	5823.25
430.91	5643.03
431.10	5561.11
431.28	5851.34
431.47	5680.48
431.66	5851.34
431.85	5898.15
432.03	5809.21
432.22	5905.17
432.41	5994.11
432.60	6043.26
432.79	5926.24
432.97	5940.28
433.16	6097.10
433.35	5973.05
433.54	6111.14
433.72	6108.80
433.91	6101.78
434.10	6218.80
434.28	6122.84
434.47	6267.95
434.66	6218.80
434.85	6485.62
435.03	6546.48
435.22	6319.45
435.41	6562.86
435.59	6420.09
435.78	6497.33
435.97	6438.81
436.16	6490.31
436.34	6445.84
436.53	6516.05
436.72	6705.63
436.90	6602.65
437.09	6780.53
437.28	6546.48
437.46	6715.00
437.65	6583.93
437.84	6766.49
438.02	6853.09
438.21	6792.23
438.40	6803.94
438.58	6930.33
438.77	6993.52
438.96	6946.71
439.14	7054.37
439.33	7353.96
439.52	7190.13
439.70	7286.09
439.89	7438.22
440.08	7389.07
440.26	7630.15
440.45	7386.73
440.63	7410.14
440.82	7529.50
441.01	7517.80
441.19	7815.05
441.38	7475.67
441.57	7737.81
441.75	7906.33
441.94	7974.21
442.12	7948.46
442.31	8215.28
442.50	7983.57
442.68	7981.23
442.87	8030.38
443.05	8100.59
443.24	8208.26
443.43	8250.39
443.61	8278.47
443.80	8414.23
443.98	8217.62
444.17	7801.01
444.35	8243.37
444.54	8243.37
444.73	8271.45
444.91	8360.39
445.10	8505.51
445.28	8280.82
445.47	8280.82
445.65	8388.48
445.84	8542.96
446.02	8477.42
446.21	8444.65
446.39	8400.18
446.58	8545.30
446.77	8547.64
446.95	8402.52
447.14	8432.95
447.32	8514.87
447.51	8573.38
447.69	8521.89
447.88	8510.19
448.06	8484.44
448.25	8655.30
448.43	8638.92
448.62	8603.81
448.80	8851.91
448.99	8713.81
449.17	8762.97
449.36	8788.71
449.54	8894.04
449.73	8950.21
449.91	9027.45
450.10	8870.63
450.28	9083.62
450.46	9219.37
450.65	9142.13
450.83	9048.51
451.02	9149.15
451.20	9226.39
451.39	9277.88
451.57	9200.65
451.76	9219.37
451.94	9184.26
452.13	9476.83
452.31	9275.54
452.49	9362.14
452.68	9369.16
452.86	9303.63
453.05	9460.45
453.23	9572.79
453.42	9261.50
453.60	9331.72
453.78	9528.32
453.97	9495.55
454.15	9397.25
454.34	9348.10
454.52	9736.63
454.70	9881.74
454.89	10104.09
455.07	9872.38
455.26	9970.68
455.44	10284.31
455.62	9863.02
455.81	9935.57
455.99	9954.30
456.17	9977.70
456.36	10122.82
456.54	10251.55
456.73	10389.64
456.91	10621.35
457.09	10417.72
457.28	10848.38
457.46	10403.68
457.64	10579.22
457.83	10541.77
458.01	10534.75
458.19	10693.91
458.38	10672.84
458.56	10888.17
458.74	10857.75
458.93	10913.92
459.11	10972.43
459.29	10738.38
459.48	10855.40
459.66	10827.32
459.84	11063.71
460.03	11068.39
460.21	10930.30
460.39	11234.57
460.57	11166.70
460.76	11173.72
460.94	11325.85
461.12	11176.06
461.31	11265.00
461.49	11414.79
461.67	11257.98
461.85	11463.94
462.04	11286.06
462.22	11765.87
462.40	11449.90
462.59	11445.22
462.77	11658.21
462.95	11754.17
463.13	11590.33
463.32	11648.85
463.50	11899.28
463.68	11910.99
463.86	12116.95
464.05	11754.17
464.23	11894.60
464.41	11840.77
464.59	11854.81
464.78	12468.03
464.96	12065.46
465.14	11981.20
465.32	12170.79
465.50	11962.48
465.69	12343.99
465.87	12182.49
466.05	12201.21
466.23	12400.16
466.41	12564.00
466.60	12767.62
466.78	12142.70
466.96	12348.67
467.14	12135.68
467.32	12423.56
467.51	12732.51
467.69	12301.86
467.87	12503.14
468.05	12603.78
468.23	12629.53
468.41	12449.31
468.60	12732.51
468.78	12755.92
468.96	12624.85
469.14	12840.18
469.32	13296.58
469.50	12526.55
469.69	13186.58
469.87	13107.00
470.05	13055.51
470.23	13184.24
470.41	13317.65
470.59	13509.57
470.77	13420.63
470.95	13451.06
471.14	13469.78
471.32	13575.11
471.50	13635.96
471.68	13652.34
471.86	13788.10
472.04	13865.33
472.22	14073.64
472.40	13900.44
472.58	13837.25
472.77	14127.47
472.95	14043.21
473.13	14719.63
473.31	14108.75
473.49	14174.28
473.67	14363.87
473.85	14298.33
474.03	14932.62
474.21	14576.86
474.39	14963.04
474.57	14934.96
474.75	14771.12
474.93	15178.37
475.12	15220.50
475.30	15300.08
475.48	15023.90
475.66	15037.94
475.84	15236.89
476.02	15279.02
476.20	15459.24
476.38	16086.50
476.56	16369.71
476.74	15978.84
476.92	16215.23
477.10	16100.55
477.28	16137.99
477.46	16161.40
477.64	16849.52
477.82	16678.66
478.00	16812.07
478.18	16819.09
478.36	17144.42
478.54	17270.81
478.72	17500.19
478.90	17692.11
479.08	17703.81
479.26	17605.51
479.44	17862.97
479.62	18026.81
479.80	18359.16
479.98	18265.54
480.16	18628.32
480.34	18427.04
480.52	18553.43
480.70	18778.12
480.88	18731.31
481.06	18813.23
481.24	19166.65
481.41	19208.78
481.59	19358.57
481.77	19573.90
481.95	19901.58
482.13	19843.06
482.31	19924.98
482.49	20222.23
482.67	20166.06
482.85	20652.89
483.03	20788.64
483.21	21406.54
483.39	21163.12
483.57	20788.64
483.74	20964.18
483.92	21785.71
484.10	21341.00
484.28	21668.68
484.46	22270.20
484.64	22104.02
484.82	22415.31
485.00	22672.77
485.18	22916.19
485.35	23089.38
485.53	23246.20
485.71	23316.42
485.89	23733.03
486.07	23587.92
486.25	23463.87
486.43	23892.19
486.61	24114.54
486.78	24219.86
486.96	24299.44
487.14	24676.27
487.32	25167.78
487.50	25099.90
487.68	25181.82
487.85	25378.43
488.03	25956.54
488.21	25876.96
488.39	25844.20
488.57	26625.93
488.75	26361.45
488.92	26588.49
489.10	27159.58
489.28	26897.44
489.46	27470.87
489.64	27278.94
489.81	27995.15
489.99	28107.49
490.17	28039.62
490.35	28130.90
490.53	28280.69
490.70	28664.54
490.88	28219.84
491.06	29027.32
491.24	28847.10
491.41	29085.84
491.59	29326.91
491.77	29500.11
491.95	30050.14
492.13	29930.77
492.30	30167.16
492.48	30300.58
492.66	30417.60
492.84	30555.69
493.01	30600.16
493.19	31000.40
493.37	31545.74
493.54	31323.39
493.72	31833.63
493.90	31498.93
494.08	32081.72
494.25	32095.77
494.43	31835.97
494.61	32629.41
494.79	32652.81
494.96	32470.25
495.14	33165.39
495.32	33408.81
495.49	33305.82
495.67	33476.68
495.85	33415.83
496.02	34265.44
496.20	34183.52
496.38	33912.02
496.55	34462.05
496.73	34951.22
496.91	34611.84
497.09	35002.71
497.26	35133.78
497.44	35119.74
497.62	35508.27
497.79	36542.78
497.97	35770.41
498.14	36257.24
498.32	36329.80
498.50	36292.35
498.67	36608.32
498.85	36884.50
499.03	36833.01
499.20	36966.42
499.38	36905.57
499.56	37275.37
499.73	37567.94
499.91	37633.47
500.08	38022.00
500.26	37977.53
500.44	38192.86
500.61	38220.95
500.79	38185.84
500.97	38211.59
501.14	38836.51
501.32	38682.03
501.49	38724.16
501.67	38756.93
501.84	39150.14
502.02	39056.52
502.20	39173.55
502.37	39866.34
502.55	39978.69
502.72	39864.00
502.90	40055.93
503.07	40257.21
503.25	40282.96
503.43	40074.65
503.60	40610.64
503.78	40233.81
503.95	40594.25
504.13	40933.63
504.30	40847.03
504.48	40877.46
504.65	40933.63
504.83	40950.01
505.01	41839.42
505.18	41504.72
505.36	42047.72
505.53	41834.74
505.71	41640.47
505.88	41876.86
506.06	42344.97
506.23	42307.52
506.41	42684.35
506.58	42768.61
506.76	42583.71
506.93	43171.18
507.11	42761.59
507.28	42607.11
507.46	43466.09
507.63	43208.63
507.81	43154.80
507.98	43173.52
508.16	43718.87
508.33	43660.35
508.50	43650.99
508.68	44102.71
508.85	44098.03
509.03	44320.38
509.20	44481.88
509.38	44385.92
509.55	44210.38
509.73	44556.78
509.90	44933.60
510.08	44917.22
510.25	44905.52
510.42	45045.95
510.60	45181.70
510.77	45294.05
510.95	45673.21
511.12	45710.66
511.30	45322.13
511.47	45738.75
511.64	45516.40
511.82	46052.38
511.99	45698.96
512.17	46328.56
512.34	46375.37
512.51	46464.32
512.69	46850.50
512.86	46876.25
513.04	46981.57
513.21	46911.36
513.38	47112.64
513.56	47342.02
513.73	46958.17
513.90	47042.43
514.08	47098.60
514.25	47402.87
514.43	47569.05
514.60	47966.94
514.77	47917.79
514.95	47849.91
515.12	47477.77
515.29	48165.88
515.47	48126.10
515.64	48374.19
515.81	47908.43
515.99	48725.27
516.16	48631.65
516.33	48617.61
516.51	48978.05
516.68	48839.96
516.85	49118.48
517.03	49181.68
517.20	49120.82
517.37	49242.53
517.54	49368.92
517.72	49556.16
517.89	49345.51
518.06	49780.85
518.24	49661.49
518.41	49397.01
518.58	49757.45
518.75	49387.64
518.93	49677.87
519.10	49764.47
519.27	50068.74
519.45	50031.29
519.62	50424.50
519.79	50347.26
519.96	50340.24
520.14	50010.23
520.31	50518.12
520.48	50761.54
520.65	50628.13
520.83	51023.68
521.00	50955.80
521.17	50848.14
521.34	50686.64
521.52	51239.01
521.69	51131.34
521.86	51278.80
522.03	51529.23
522.20	51819.46
522.38	51957.55
522.55	51770.31
522.72	51725.84
522.89	51613.49
523.07	52037.13
523.24	51840.53
523.41	51917.76
523.58	51428.59
523.75	52231.40
523.92	52130.75
524.10	52282.89
524.27	52247.78
524.44	52425.66
524.61	52313.31
524.78	52521.62
524.96	52552.05
525.13	52612.90
525.30	52793.12
525.47	52886.74
525.64	52765.04
525.81	52921.85
525.98	53312.72
526.16	52992.07
526.33	53176.97
526.50	53207.40
526.67	53083.35
526.84	53226.12
527.01	53120.80
527.18	53340.81
527.36	53378.26
527.53	53368.90
527.70	53453.15
527.87	53532.73
528.04	53593.59
528.21	53595.93
528.38	53755.08
528.55	53722.32
528.72	53715.29
528.89	53694.23
529.07	53656.78
529.24	53727.00
529.41	53858.07
529.58	54007.86
529.75	53846.36
529.92	54045.31
530.09	54066.38
530.26	54026.59
530.43	54412.77
530.60	54014.88
530.77	54117.87
530.94	54536.82
531.11	54394.05
531.28	54262.98
531.46	54508.74
531.63	54614.06
531.80	54389.37
531.97	54637.47
532.14	54726.41
532.31	54677.25
532.48	54845.77
532.65	54969.82
532.82	54768.54
532.99	55065.78
533.16	54791.94
533.33	55217.92
533.50	55091.53
533.67	54815.35
533.84	55136.00
534.01	55143.02
534.18	54983.86
534.35	55533.89
534.52	55400.48
534.69	55381.76
534.86	55466.02
535.03	55171.11
535.20	55550.27
535.37	55276.43
535.54	55650.92
535.71	55442.61
535.88	55669.64
536.05	55915.40
536.22	55913.06
536.38	55870.93
536.55	55838.16
536.72	55751.56
536.89	55660.28
537.06	55868.59
537.23	55920.08
537.40	55686.03
537.57	55831.14
537.74	56107.32
537.91	56306.27
538.08	56095.62
538.25	55920.08
538.42	56320.31
538.59	56346.06
538.75	56128.39
538.92	56350.74
539.09	56416.27
539.26	56493.51
539.43	56322.65
539.60	56521.60
539.77	56336.69
539.94	56587.13
540.11	56795.44
540.28	56662.03
540.44	56640.96
540.61	56336.69
540.78	56673.73
540.95	56530.96
541.12	56568.41
541.29	56638.62
541.46	56722.88
541.62	56800.12
541.79	56830.55
541.96	56542.66
542.13	56725.22
542.30	56919.49
542.47	56999.07
542.63	57015.45
542.80	57130.14
542.97	57031.83
543.14	57528.03
543.31	57090.35
543.48	57429.72
543.64	57607.61
543.81	57574.84
543.98	57411.00
544.15	57497.60
544.32	57605.26
544.48	57780.81
544.65	57448.45
544.82	57532.71
544.99	57481.22
545.16	57689.52
545.32	57682.50
545.49	57836.98
545.66	57764.42
545.83	57939.96
546.00	57923.58
546.16	57909.53
546.33	57911.88
546.50	57661.44
546.67	57865.06
546.83	57581.86
547.00	58007.84
547.17	57942.30
547.34	57904.85
547.50	58124.86
547.67	58368.28
547.84	58220.83
548.00	58433.81
548.17	58419.77
548.34	58267.64
548.51	58284.02
548.67	58403.39
548.84	58408.07
549.01	58387.00
549.18	58482.97
549.34	58497.01
549.51	58422.11
549.68	58487.65
549.84	58487.65
550.01	58827.02
550.18	58541.48
550.34	58513.39
550.51	58810.64
550.68	58597.65
550.84	58609.35
551.01	58967.46
551.18	58857.45
551.34	58520.41
551.51	58623.40
551.68	58871.49
551.84	58745.11
552.01	58663.19
552.18	58733.40
552.34	58569.57
552.51	59077.46
552.68	58731.06
552.84	58803.62
553.01	59248.32
553.18	59091.51
553.34	59042.35
553.51	58951.07
553.67	58848.09
553.84	59203.85
554.01	59185.13
554.17	59124.27
554.34	59341.94
554.51	59276.41
554.67	59365.35
554.84	59262.36
555.00	59171.08
555.17	59126.61
555.33	59199.17
555.50	59054.06
555.67	59117.25
555.83	59147.68
556.00	59288.11
556.16	59606.42
556.33	59491.74
556.50	59189.81
556.66	59381.73
556.83	59461.31
556.99	59594.72
557.16	59744.51
557.32	59709.41
557.49	59915.37
557.65	59657.91
557.82	59433.22
557.98	59669.62
558.15	59540.89
558.32	59594.72
558.48	59482.37
558.65	59674.30
558.81	59784.30
558.98	59817.07
559.14	59690.68
559.31	59917.71
559.47	59877.93
559.64	59931.76
559.80	59777.28
559.97	59845.16
560.13	59765.58
560.30	59856.86
560.46	60053.47
560.63	59833.46
560.79	60004.31
560.96	60041.76
561.12	60086.23
561.29	60055.81
561.45	60034.74
561.61	60177.51
561.78	60093.25
561.94	59772.60
562.11	60069.85
562.27	60069.85
562.44	60266.45
562.60	60140.07
562.77	60114.32
562.93	60128.36
563.10	60163.47
563.26	60079.21
563.42	60479.44
563.59	60034.74
563.75	60149.43
563.92	60076.87
564.08	60149.43
564.24	60273.48
564.41	60203.26
564.57	60151.77
564.74	60348.37
564.90	60458.38
565.07	60336.67
565.23	60430.29
565.39	60456.04
565.56	60343.69
565.72	60404.55
565.88	60161.13
566.05	60369.44
566.21	60273.48
566.38	60453.70
566.54	60446.68
566.70	60430.29
566.87	60441.99
567.03	60275.82
567.19	60589.45
567.36	60509.87
567.52	60507.53
567.68	60685.41
567.85	60484.12
568.01	60727.54
568.17	60474.76
568.34	60704.13
568.50	60537.96
568.66	60622.22
568.83	60439.65
568.99	60388.16
569.15	60610.51
569.32	60502.85
569.48	60392.84
569.64	60734.56
569.81	60673.71
569.97	60556.68
570.13	60657.32
570.30	60495.83
570.46	60816.48
570.62	61027.13
570.78	60760.31
570.95	60755.63
571.11	60800.10
571.27	60654.98
571.43	60795.42
571.60	60809.46
571.76	60814.14
571.92	60739.24
572.09	60858.61
572.25	60713.50
572.41	60647.96
572.57	60764.99
572.74	60973.30
572.90	60952.23
573.06	60704.13
573.22	60643.28
573.38	60760.31
573.55	60774.35
573.71	60917.12
573.87	60807.12
574.03	60767.33
574.20	60645.62
574.36	60807.12
574.52	60788.39
574.68	60889.04
574.84	60947.55
575.01	60832.86
575.17	60996.70
575.33	60844.57
575.49	61120.75
575.65	60748.60
575.82	61003.72
575.98	60872.65
576.14	60903.08
576.30	61034.15
576.46	60762.65
576.62	60919.46
576.79	60825.84
576.95	60905.42
577.11	60870.31
577.27	61027.13
577.43	61087.98
577.59	60926.49
577.75	60790.73
577.92	60715.84
578.08	60987.34
578.24	60999.04
578.40	61172.24
578.56	61008.40
578.72	60942.87
578.88	61106.71
579.04	61272.88
579.21	61120.75
579.37	61083.30
579.53	61256.50
579.69	60835.20
579.85	61139.47
580.01	61151.18
580.17	61017.77
580.33	61235.44
580.49	61153.52
580.65	60818.82
580.82	61069.26
580.98	60999.04
581.14	60933.51
581.30	61059.90
581.46	60987.34
581.62	61293.95
581.78	61055.21
581.94	61176.92
582.10	61111.39
582.26	61228.41
582.42	61169.90
582.58	61176.92
582.74	61010.74
582.90	60935.85
583.06	61172.24
583.22	61102.03
583.38	60985.00
583.54	61193.31
583.70	61151.18
583.86	61137.13
584.02	61050.53
584.18	61003.72
584.34	61310.33
584.50	61160.54
584.66	61057.56
584.82	61024.79
584.98	61212.03
585.14	61340.76
585.30	60903.08
585.46	61303.31
585.62	61174.58
585.78	61396.93
585.94	61092.66
586.10	61153.52
586.26	61279.91
586.42	61350.12
586.58	61324.38
586.74	61319.70
586.90	61109.05
587.06	61195.65
587.22	61219.05
587.38	61345.44
587.54	61492.89
587.70	61331.40
587.86	61251.82
588.02	61123.09
588.18	61638.01
588.34	61139.47
588.49	61141.81
