SpectraSuite Data File
++++++++++++++++++++++++++++++++++++
Date: Fri Oct 25 10:48:33 EDT 2013
User: price-jones
Dark Spectrum Present: No
Reference Spectrum Present: No
Number of Sampled Component Spectra: 1
Spectrometers: USB2+H05261
Integration Time (usec): 100000 (USB2+H05261)
Spectra Averaged: 1 (USB2+H05261)
Boxcar Smoothing: 0 (USB2+H05261)
Correct for Electrical Dark: No (USB2+H05261)
Strobe/Lamp Enabled: No (USB2+H05261)
Correct for Detector Non-linearity: No (USB2+H05261)
Correct for Stray Light: No (USB2+H05261)
Number of Pixels in Processed Spectrum: 2048
>>>>>Begin Processed Spectral Data<<<<<
365.73	189.58
365.92	189.58
366.12	189.58
366.32	114.69
366.52	65.54
366.72	107.66
366.91	60.85
367.11	42.13
367.31	21.06
367.51	0.00
367.70	44.47
367.90	63.19
368.10	79.58
368.30	23.41
368.49	9.36
368.69	70.22
368.89	98.30
369.09	105.32
369.28	0.00
369.48	42.13
369.68	159.16
369.87	86.60
370.07	70.22
370.27	142.77
370.47	184.90
370.66	414.27
370.86	472.79
371.06	477.47
371.25	606.20
371.45	491.51
371.65	440.02
371.84	463.43
372.04	482.15
372.24	526.62
372.44	489.17
372.63	491.51
372.83	552.37
373.03	547.69
373.22	491.51
373.42	524.28
373.62	503.22
373.81	589.82
374.01	629.60
374.21	592.16
374.40	615.56
374.60	606.20
374.79	587.47
374.99	667.05
375.19	599.18
375.38	657.69
375.58	524.28
375.78	683.44
375.97	580.45
376.17	718.54
376.37	592.16
376.56	547.69
376.76	683.44
376.95	697.48
377.15	697.48
377.35	660.03
377.54	777.06
377.74	699.82
377.93	744.29
378.13	753.65
378.33	606.20
378.52	650.67
378.72	720.88
378.91	571.09
379.11	711.52
379.31	720.88
379.50	704.50
379.70	704.50
379.89	786.42
380.09	711.52
380.28	802.80
380.48	800.46
380.68	683.44
380.87	758.33
381.07	777.06
381.26	826.21
381.46	690.46
381.65	688.12
381.85	767.70
382.04	758.33
382.24	774.72
382.43	739.61
382.63	741.95
382.83	683.44
383.02	767.70
383.22	765.36
383.41	858.98
383.61	786.42
383.80	833.23
384.00	774.72
384.19	788.76
384.39	863.66
384.58	875.36
384.78	833.23
384.97	798.12
385.17	814.51
385.36	798.12
385.56	863.66
385.75	840.25
385.95	889.40
386.14	917.49
386.34	882.38
386.53	896.43
386.72	875.36
386.92	919.83
387.11	959.62
387.31	964.30
387.50	856.64
387.70	847.27
387.89	889.40
388.09	1036.86
388.28	978.34
388.48	870.68
388.67	952.60
388.86	901.11
389.06	940.90
389.25	1008.77
389.45	940.90
389.64	936.21
389.84	1060.26
390.03	1081.33
390.22	1093.03
390.42	997.07
390.61	976.00
390.81	1097.71
391.00	1137.50
391.19	1142.18
391.39	1149.20
391.58	1062.60
391.78	1090.69
391.97	990.05
392.16	1081.33
392.36	1095.37
392.55	1137.50
392.75	1076.65
392.94	978.34
393.13	1013.45
393.33	1046.22
393.52	1118.78
393.71	1132.82
393.91	1149.20
394.10	1217.08
394.29	1273.25
394.49	1303.68
394.68	1268.57
394.88	1193.67
395.07	1299.00
395.26	1247.51
395.46	1341.13
395.65	1313.04
395.84	1266.23
396.04	1217.08
396.23	1200.69
396.42	1167.93
396.62	1231.12
396.81	1320.06
397.00	1266.23
397.19	1291.98
397.39	1455.81
397.58	1284.95
397.77	1469.86
397.97	1441.77
398.16	1432.41
398.35	1535.39
398.55	1533.05
398.74	1666.46
398.93	1703.91
399.12	1526.03
399.32	1502.62
399.51	1603.27
399.70	1638.38
399.90	1661.78
400.09	1675.82
400.28	1619.65
400.47	1682.85
400.67	1781.15
400.86	1720.29
401.05	1703.91
401.24	1717.95
401.44	1736.68
401.63	1776.47
401.82	1806.89
402.01	1753.06
402.21	1710.93
402.40	1762.42
402.59	1783.49
402.78	1771.79
402.97	1856.04
403.17	1921.58
403.36	1919.24
403.55	1795.19
403.74	1912.22
403.93	1923.92
404.13	1921.58
404.32	1966.05
404.51	2010.52
404.70	2080.74
404.89	1940.30
405.09	2054.99
405.28	2111.16
405.47	2005.84
405.66	2083.08
405.85	2080.74
406.05	2104.14
406.24	1944.99
406.43	2033.93
406.62	2200.10
406.81	2225.85
407.00	2059.67
407.20	2139.25
407.39	2113.50
407.58	2237.55
407.77	2253.94
407.96	2314.79
408.15	2197.76
408.34	2298.41
408.54	2270.32
408.73	2321.81
408.92	2169.68
409.11	2377.98
409.30	2338.20
409.49	2455.22
409.68	2331.17
409.87	2326.49
410.07	2422.45
410.26	2420.11
410.45	2499.69
410.64	2555.86
410.83	2595.65
411.02	2738.43
411.21	2637.78
411.40	2693.96
411.59	2607.36
411.78	2635.44
411.98	2771.19
412.17	2626.08
412.36	2775.88
412.55	2836.73
412.74	2787.58
412.93	2864.82
413.12	2815.66
413.31	2977.16
413.50	2942.05
413.69	2974.82
413.88	2925.67
414.07	2878.86
414.26	3040.36
414.45	3038.02
414.64	2979.50
414.83	3201.85
415.02	3136.32
415.22	3260.37
415.41	3290.79
415.60	3215.90
415.79	3375.05
415.98	3307.18
416.17	3398.46
416.36	3361.01
416.55	3391.44
416.74	3485.06
416.93	3410.16
417.12	3288.45
417.31	3527.19
417.50	3400.80
417.69	3332.92
417.88	3471.01
418.07	3452.29
418.26	3438.25
418.45	3609.11
418.64	3676.98
418.83	3805.71
419.02	3632.51
419.21	3616.13
419.39	3728.47
419.58	3679.32
419.77	3693.37
419.96	3733.15
420.15	3801.03
420.34	3852.52
420.53	3854.86
420.72	4009.34
420.91	3894.65
421.10	3943.80
421.29	4002.32
421.48	4007.00
421.67	3953.16
421.86	3969.55
422.05	3976.57
422.24	3985.93
422.43	3878.27
422.61	4042.11
422.80	3864.22
422.99	4053.81
423.18	4119.34
423.37	4032.74
423.56	4049.13
423.75	4042.11
423.94	3990.61
424.13	3721.45
424.32	4023.38
424.50	4081.89
424.69	4194.24
424.88	4227.01
425.07	4067.85
425.26	3950.82
425.45	4030.40
425.64	3978.91
425.83	3964.87
426.01	4166.15
426.20	4100.62
426.39	4060.83
426.58	4189.56
426.77	4002.32
426.96	4131.05
427.15	4168.49
427.33	4308.93
427.52	4184.88
427.71	4131.05
427.90	4255.09
428.09	4409.57
428.28	4320.63
428.46	4252.75
428.65	4227.01
428.84	4339.35
429.03	4479.79
429.22	4273.82
429.40	4346.37
429.59	4060.83
429.78	4016.36
429.97	4086.58
430.16	4114.66
430.34	4231.69
430.53	4318.29
430.72	4395.53
430.91	4353.40
431.10	4430.63
431.28	4652.98
431.47	4730.22
431.66	4837.89
431.85	4800.44
432.03	4765.33
432.22	4669.37
432.41	4753.63
432.60	4739.58
432.79	4690.43
432.97	4844.91
433.16	4896.40
433.35	4821.50
433.54	4737.24
433.72	4847.25
433.91	4688.09
434.10	4983.00
434.28	5006.41
434.47	4957.25
434.66	5001.72
434.85	5076.62
435.03	4957.25
435.22	5130.45
435.41	5322.38
435.59	5060.24
435.78	5214.71
435.97	5317.70
436.16	5270.89
436.34	5245.14
436.53	5320.04
436.72	5413.66
436.90	5165.56
437.09	5289.61
437.28	5219.39
437.46	5198.33
437.65	5329.40
437.84	5256.84
438.02	5399.62
438.21	5284.93
438.40	5142.16
438.58	5411.32
438.77	5673.46
438.96	5577.50
439.14	5650.05
439.33	5748.36
439.52	5832.62
439.70	5748.36
439.89	5790.49
440.08	5809.21
440.26	5856.02
440.45	5827.93
440.63	5968.37
440.82	6047.94
441.01	5966.03
441.19	6244.55
441.38	6230.51
441.57	6181.35
441.75	6499.67
441.94	6300.72
442.12	6406.05
442.31	6490.31
442.50	6628.40
442.68	6490.31
442.87	6478.60
443.05	6553.50
443.24	6724.36
443.43	6537.12
443.61	6857.77
443.80	6665.85
443.98	6672.87
444.17	6384.98
444.35	6829.68
444.54	6773.51
444.73	6752.45
444.91	6576.91
445.10	6696.27
445.28	6766.49
445.47	6513.71
445.65	6623.72
445.84	6546.48
446.02	6846.07
446.21	6766.49
446.39	6813.30
446.58	6799.26
446.77	6890.54
446.95	6832.02
447.14	6782.87
447.32	6853.09
447.51	6923.30
447.69	6607.33
447.88	6965.43
448.06	6836.70
448.25	6946.71
448.43	7080.12
448.62	6832.02
448.80	6853.09
448.99	6953.73
449.17	7021.61
449.36	7040.33
449.54	7220.55
449.73	7272.04
449.91	7201.83
450.10	7368.01
450.28	7339.92
450.46	7478.01
450.65	7344.60
450.83	7459.29
451.02	7391.41
451.20	7466.31
451.39	7426.52
451.57	7564.61
451.76	7353.96
451.94	7447.58
452.13	7641.85
452.31	7316.51
452.49	7234.60
452.68	7428.86
452.86	7403.11
453.05	7552.91
453.23	7557.59
453.42	7522.48
453.60	7454.61
453.78	7595.04
453.97	7506.10
454.15	7747.17
454.34	7538.87
454.52	7641.85
454.70	7894.63
454.89	7709.72
455.07	8013.99
455.26	8051.44
455.44	8023.36
455.62	7918.03
455.81	7957.82
455.99	7906.33
456.17	7999.95
456.36	7939.10
456.54	7934.42
456.73	8266.77
456.91	8170.81
457.09	8339.33
457.28	8451.67
457.46	8250.39
457.64	8348.69
457.83	8152.09
458.01	8039.74
458.19	8306.56
458.38	8360.39
458.56	8741.90
458.74	8360.39
458.93	8425.93
459.11	8446.99
459.29	8449.33
459.48	8699.77
459.66	8568.70
459.84	8479.76
460.03	8847.22
460.21	8760.63
460.39	8723.18
460.57	8727.86
460.76	8732.54
460.94	8664.66
461.12	8917.44
461.31	8891.70
461.49	8800.41
461.67	9029.79
461.85	9153.84
462.04	8964.25
462.22	9385.55
462.40	9100.00
462.59	9198.31
462.77	9170.22
462.95	9315.33
463.13	9146.81
463.32	8964.25
463.50	9289.59
463.68	9352.78
463.86	9273.20
464.05	9088.30
464.23	9060.21
464.41	9179.58
464.59	9200.65
464.78	9434.70
464.96	9343.42
465.14	9128.09
465.32	9331.72
465.50	9476.83
465.69	9671.09
465.87	9411.29
466.05	9474.49
466.23	9544.70
466.41	9521.30
466.60	9394.91
466.78	9331.72
466.96	9289.59
467.14	9458.10
467.32	9757.69
467.51	9687.48
467.69	9504.92
467.87	9760.03
468.05	9713.22
468.23	9549.39
468.41	9654.71
468.60	9727.27
468.78	9816.21
468.96	9589.17
469.14	9827.91
469.32	10068.98
469.50	9738.97
469.69	9839.61
469.87	10017.49
470.05	10111.11
470.23	10200.05
470.41	10113.45
470.59	10237.50
470.77	10066.64
470.95	10391.98
471.14	10431.77
471.32	10150.90
471.50	10588.58
471.68	10509.01
471.86	10686.89
472.04	10661.14
472.22	10888.17
472.40	10333.47
472.58	10565.18
472.77	10661.14
472.95	10939.66
473.13	10988.82
473.31	10836.68
473.49	10771.15
473.67	10951.37
473.85	11012.22
474.03	11234.57
474.21	11243.93
474.39	11536.50
474.57	11360.96
474.75	11438.20
474.93	11482.67
475.12	11517.78
475.30	11515.44
475.48	11555.22
475.66	11555.22
475.84	11590.33
476.02	11747.15
476.20	11620.76
476.38	12205.89
476.56	11934.39
476.74	12138.02
476.92	12032.69
477.10	12091.21
477.28	12456.33
477.46	12676.34
477.64	12533.57
477.82	12613.15
478.00	12814.43
478.18	12950.18
478.36	12894.01
478.54	13036.78
478.72	13137.43
478.90	13174.88
479.08	13336.37
479.26	13481.49
479.44	13544.68
479.62	13572.77
479.80	13680.43
479.98	13783.41
480.16	13935.55
480.34	13919.17
480.52	14398.98
480.70	14033.85
480.88	14083.00
481.06	14424.72
481.24	14120.45
481.41	14394.29
481.59	14853.04
481.77	14871.76
481.95	14771.12
482.13	14895.17
482.31	15023.90
482.49	15351.57
482.67	15037.94
482.85	15234.55
483.03	15358.60
483.21	15398.38
483.39	15704.99
483.57	15934.37
483.74	15805.64
483.92	16065.44
484.10	15815.00
484.28	16285.45
484.46	16240.98
484.64	16915.05
484.82	16615.46
485.00	16711.42
485.18	16697.38
485.35	16652.91
485.53	16683.34
485.71	16484.39
485.89	16833.13
486.07	16833.13
486.25	16898.67
486.43	17205.28
486.61	17640.62
486.78	17619.55
486.96	17867.65
487.14	18036.17
487.32	17980.00
487.50	18380.23
487.68	18216.39
487.85	18885.78
488.03	18871.74
488.21	18974.72
488.39	19075.37
488.57	19070.68
488.75	19407.72
488.92	19674.54
489.10	20074.77
489.28	19557.52
489.46	19899.23
489.64	20353.30
489.81	20753.53
489.99	20414.15
490.17	20608.42
490.35	21097.59
490.53	20812.04
490.70	21249.72
490.88	21010.99
491.06	21558.67
491.24	21036.74
491.41	21275.47
491.59	21362.07
491.77	21359.73
491.95	21488.46
492.13	21809.11
492.30	22118.06
492.48	22146.15
492.66	22309.99
492.84	22335.73
493.01	22473.82
493.19	22443.40
493.37	22750.01
493.54	23157.26
493.72	23012.15
493.90	23248.54
494.08	23456.85
494.25	23758.78
494.43	23796.23
494.61	23943.68
494.79	24081.77
494.96	24116.88
495.14	23796.23
495.32	23990.49
495.49	24243.27
495.67	24482.00
495.85	24877.55
496.02	24959.47
496.20	25198.21
496.38	24886.92
496.55	25343.32
496.73	25841.85
496.91	25411.20
497.09	25338.64
497.26	25539.93
497.44	25598.44
497.62	25729.51
497.79	26410.60
497.97	26019.74
498.14	26052.50
498.32	26277.19
498.50	26209.32
498.67	26569.76
498.85	26691.47
499.03	27295.33
499.20	27133.83
499.38	26974.67
499.56	26955.95
499.73	27068.30
499.91	26843.60
500.08	27482.57
500.26	27402.99
500.44	26958.29
500.61	27161.92
500.79	27562.15
500.97	27557.47
501.14	27924.93
501.32	27763.43
501.49	27716.62
501.67	27885.14
501.84	27892.16
502.02	27807.90
502.20	28194.09
502.37	28858.81
502.55	28596.67
502.72	28830.72
502.90	29001.58
503.07	28357.93
503.25	28374.31
503.43	28865.83
503.60	28931.36
503.78	29104.56
503.95	28952.43
504.13	28950.09
504.30	29509.47
504.48	29549.26
504.65	29261.38
504.83	29940.13
505.01	29961.20
505.18	29741.19
505.36	30487.82
505.53	30115.67
505.71	30251.42
505.88	30197.59
506.06	30052.48
506.23	30387.18
506.41	30604.84
506.58	30604.84
506.76	30368.45
506.93	31028.48
507.11	30396.54
507.28	30738.26
507.46	30742.94
507.63	30719.53
507.81	30953.58
507.98	30602.50
508.16	31009.76
508.33	31805.54
508.50	31220.41
508.68	31538.72
508.85	31768.09
509.03	31934.27
509.20	31995.12
509.38	32268.97
509.55	32112.15
509.73	32041.93
509.90	32425.78
510.08	32465.57
510.25	32453.87
510.42	32568.55
510.60	32367.27
510.77	32627.07
510.95	33097.52
511.12	32465.57
511.30	32989.85
511.47	33296.46
511.64	33153.69
511.82	33259.01
511.99	32971.13
512.17	33298.80
512.34	32830.69
512.51	33406.47
512.69	33081.13
512.86	33621.80
513.04	33663.93
513.21	33921.38
513.38	33645.20
513.56	33928.41
513.73	34017.35
513.90	34188.21
514.08	33846.49
514.25	33986.92
514.43	34038.41
514.60	34253.74
514.77	34733.55
514.95	34789.72
515.12	34380.13
515.29	34398.85
515.47	34546.31
515.64	34621.20
515.81	35093.99
515.99	34356.72
516.16	34635.25
516.33	34176.50
516.51	34139.05
516.68	33905.00
516.85	33940.11
517.03	34370.77
517.20	34831.85
517.37	34630.57
517.54	35297.62
517.72	35084.63
517.89	34941.86
518.06	34913.77
518.24	35131.44
518.41	35047.18
518.58	35505.93
518.75	35250.81
518.93	35529.33
519.10	35503.59
519.27	35910.84
519.45	36067.66
519.62	36198.73
519.79	36121.49
519.96	36304.05
520.14	36322.77
520.31	36184.68
520.48	36725.35
520.65	36694.92
520.83	36732.37
521.00	36924.29
521.17	36451.50
521.34	36774.50
521.52	37085.79
521.69	36849.39
521.86	37244.94
522.03	37109.19
522.20	37266.01
522.38	37488.36
522.55	37434.53
522.72	36999.19
522.89	37486.02
523.07	37394.74
523.24	37230.90
523.41	37745.82
523.58	37626.45
523.75	38160.09
523.92	37937.74
524.10	38412.87
524.27	38045.41
524.44	38206.90
524.61	38375.42
524.78	38347.34
524.96	38653.95
525.13	38579.05
525.30	38717.14
525.47	38398.83
525.64	38337.98
525.81	38738.21
525.98	38352.02
526.16	38497.13
526.33	38012.64
526.50	38515.86
526.67	38469.04
526.84	38092.22
527.01	38368.40
527.18	38649.27
527.36	39030.77
527.53	38979.28
527.70	39248.44
527.87	39562.08
528.04	39241.42
528.21	39775.06
528.38	39356.11
528.55	39723.57
528.72	39761.02
528.89	40367.22
529.07	39548.03
529.24	39842.94
529.41	39754.00
529.58	39718.89
529.75	39739.96
529.92	40067.63
530.09	39957.63
530.26	40119.12
530.43	40259.55
530.60	40301.68
530.77	40095.72
530.94	40367.22
531.11	40285.30
531.28	40383.60
531.46	40699.58
531.63	40753.41
531.80	40547.44
531.97	40350.84
532.14	40746.39
532.31	40304.02
532.48	40467.86
532.65	40872.78
532.82	40444.46
532.99	41088.10
533.16	40507.65
533.33	40926.61
533.50	41067.04
533.67	41425.14
533.84	40760.43
534.01	41450.89
534.18	41354.93
534.35	41511.74
534.52	40797.88
534.69	41502.38
534.86	42012.62
535.03	41375.99
535.20	41876.86
535.37	41731.75
535.54	42148.37
535.71	41448.55
535.88	42021.98
536.05	41596.00
536.22	41858.14
536.38	42031.34
536.55	41612.38
536.72	41514.08
536.89	41064.70
537.06	42024.32
537.23	41862.82
537.40	41862.82
537.57	42412.85
537.74	41977.51
537.91	42223.26
538.08	42340.29
538.25	42431.57
538.42	42234.97
538.59	42223.26
538.75	42038.36
538.92	41993.89
539.09	42351.99
539.26	42256.03
539.43	42546.26
539.60	42784.99
539.77	42642.22
539.94	42663.28
540.11	42363.70
540.28	42508.81
540.44	41823.03
540.61	42508.81
540.78	42391.78
540.95	42789.67
541.12	42927.77
541.29	42450.30
541.46	42623.50
541.62	42974.58
541.79	43154.80
541.96	43019.05
542.13	43356.08
542.30	42920.74
542.47	43021.39
542.63	43026.07
542.80	43070.54
542.97	43835.89
543.14	43386.51
543.31	43512.90
543.48	43484.81
543.64	44093.35
543.81	43966.96
543.98	43807.81
544.15	43950.58
544.32	44208.04
544.48	43997.39
544.65	44184.63
544.82	44334.43
544.99	43351.40
545.16	43990.37
545.32	43620.56
545.49	44184.63
545.66	44648.06
545.83	44781.47
546.00	44432.73
546.16	44692.53
546.33	43721.21
546.50	43700.14
546.67	44428.05
546.83	43674.40
547.00	44699.55
547.17	44046.54
547.34	44238.47
547.50	44123.78
547.67	44388.26
547.84	44634.02
548.00	44603.59
548.17	44823.60
548.34	44247.83
548.51	44598.91
548.67	44751.04
548.84	44617.63
549.01	44676.15
549.18	44388.26
549.34	44694.87
549.51	44856.37
549.68	44793.17
549.84	45277.66
550.01	44875.09
550.18	43985.69
550.34	44980.42
550.51	44870.41
550.68	45095.10
550.84	44718.28
551.01	44940.63
551.18	45095.10
551.34	45076.38
551.51	45109.14
551.68	45387.67
551.84	45352.56
552.01	45535.12
552.18	45420.44
552.34	45492.99
552.51	45291.71
552.68	45645.13
552.84	45645.13
553.01	45413.41
553.18	45284.68
553.34	45628.74
553.51	45315.11
553.67	45577.25
553.84	45869.82
554.01	45820.67
554.17	45549.17
554.34	45748.11
554.51	46209.20
554.67	46316.86
554.84	45916.63
555.00	45914.29
555.17	45792.58
555.33	45696.62
555.50	46101.53
555.67	45998.55
555.83	45698.96
556.00	45993.87
556.16	46328.56
556.33	46150.68
556.50	45633.42
556.66	46433.89
556.83	45862.80
556.99	46277.07
557.16	46068.76
557.32	45663.85
557.49	46033.66
557.65	46087.49
557.82	46038.34
557.98	45940.04
558.15	46162.39
558.32	45811.31
558.48	45970.46
558.65	45984.51
558.81	46253.67
558.98	46089.83
559.14	46110.89
559.31	46141.32
559.47	45893.22
559.64	46277.07
559.80	46681.98
559.97	46146.00
560.13	46230.26
560.30	46541.55
560.46	46777.95
560.63	46319.20
560.79	46740.50
560.96	46813.05
561.12	46190.47
561.29	46621.13
561.45	46440.91
561.61	46476.02
561.78	46274.73
561.94	46162.39
562.11	46490.06
562.27	46181.11
562.44	46167.07
562.60	47103.28
562.77	47114.98
562.93	46562.62
563.10	46667.94
563.26	46300.48
563.42	46752.20
563.59	46703.05
563.75	46663.26
563.92	47009.66
564.08	46974.55
564.24	46670.28
564.41	46740.50
564.57	46618.79
564.74	46408.14
564.90	46745.18
565.07	46829.44
565.23	46660.92
565.39	46574.32
565.56	46770.93
565.72	46557.94
565.88	46852.84
566.05	46653.90
566.21	46862.21
566.38	46761.56
566.54	46700.71
566.70	47061.15
566.87	47775.02
567.03	46604.75
567.19	47435.64
567.36	46995.62
567.52	46864.55
567.68	46974.55
567.85	46506.44
568.01	46990.94
568.17	46490.06
568.34	47131.37
568.50	46801.35
568.66	46850.50
568.83	46815.40
568.99	46316.86
569.15	46871.57
569.32	46878.59
569.48	46609.43
569.64	46817.74
569.81	46990.94
569.97	46749.86
570.13	46838.80
570.30	46660.92
570.46	46639.86
570.62	46710.07
570.78	46925.40
570.95	47276.48
571.11	47152.43
571.27	47070.51
571.43	46770.93
571.60	47456.70
571.76	46958.17
571.92	46717.09
572.09	46791.99
572.25	46983.91
572.41	46623.47
572.57	46986.25
572.74	47627.56
572.90	47206.26
573.06	47089.24
573.22	46983.91
573.38	46932.42
573.55	46618.79
573.71	47346.70
573.87	46639.86
574.03	46801.35
574.20	47072.85
574.36	47129.03
574.52	46866.89
574.68	47028.38
574.84	47342.02
575.01	47157.11
575.17	46923.06
575.33	47119.66
575.49	46670.28
575.65	47449.68
575.82	46918.38
575.98	47047.11
576.14	47168.82
576.30	47182.86
576.46	46864.55
576.62	47196.90
576.79	46745.18
576.95	46658.58
577.11	46965.19
577.27	46979.23
577.43	47201.58
577.59	47334.99
577.75	47276.48
577.92	46902.00
578.08	46663.26
578.24	46897.31
578.40	47351.38
578.56	47007.32
578.72	46960.51
578.88	47271.80
579.04	47316.27
579.21	47103.28
579.37	47175.84
579.53	47157.11
579.69	47049.45
579.85	47122.01
580.01	47313.93
580.17	47543.30
580.33	47863.96
580.49	47470.75
580.65	47580.75
580.82	47608.84
580.98	47065.83
581.14	46717.09
581.30	47332.65
581.46	47224.99
581.62	47557.35
581.78	46948.81
581.94	47564.37
582.10	47669.69
582.26	47414.57
582.42	47030.72
582.58	47140.73
582.74	47117.32
582.90	47065.83
583.06	47381.80
583.22	47767.99
583.38	47676.71
583.54	47430.96
583.70	47423.93
583.86	47313.93
584.02	47016.68
584.18	47327.97
584.34	47482.45
584.50	47459.04
584.66	47360.74
584.82	47143.07
584.98	47241.37
585.14	47463.72
585.30	46876.25
585.46	47426.28
585.62	47079.88
585.78	47014.34
585.94	46913.70
586.10	46873.91
586.26	47026.04
586.42	47299.89
586.58	47459.04
586.74	47201.58
586.90	47044.77
587.06	47306.91
587.22	47295.21
587.38	47248.39
587.54	47634.58
587.70	47246.05
587.86	47779.70
588.02	47756.29
588.18	47552.66
588.34	46813.05
588.49	46560.28
588.65	46586.02
588.81	46866.89
588.97	46672.62
589.13	47033.07
589.29	46721.77
589.45	46927.74
589.61	47430.96
589.77	47124.35
