SpectraSuite Data File
++++++++++++++++++++++++++++++++++++
Date: Fri Oct 25 10:44:37 EDT 2013
User: price-jones
Dark Spectrum Present: No
Reference Spectrum Present: No
Number of Sampled Component Spectra: 1
Spectrometers: USB2+H05261
Integration Time (usec): 100000 (USB2+H05261)
Spectra Averaged: 1 (USB2+H05261)
Boxcar Smoothing: 0 (USB2+H05261)
Correct for Electrical Dark: No (USB2+H05261)
Strobe/Lamp Enabled: No (USB2+H05261)
Correct for Detector Non-linearity: No (USB2+H05261)
Correct for Stray Light: No (USB2+H05261)
Number of Pixels in Processed Spectrum: 2048
>>>>>Begin Processed Spectral Data<<<<<
365.73	39.79
365.92	39.79
366.12	39.79
366.32	39.79
366.52	70.22
366.72	135.75
366.91	11.70
367.11	46.81
367.31	25.75
367.51	37.45
367.70	35.11
367.90	56.17
368.10	72.56
368.30	56.17
368.49	0.00
368.69	42.13
368.89	14.04
369.09	0.00
369.28	72.56
369.48	72.56
369.68	131.07
369.87	91.28
370.07	119.37
370.27	105.32
370.47	238.73
370.66	388.53
370.86	430.66
371.06	461.09
371.25	411.93
371.45	444.70
371.65	477.47
371.84	456.40
372.04	341.72
372.24	503.22
372.44	458.74
372.63	498.53
372.83	468.11
373.03	379.17
373.22	524.28
373.42	568.75
373.62	458.74
373.81	575.77
374.01	484.49
374.21	442.36
374.40	482.15
374.60	552.37
374.79	507.90
374.99	643.65
375.19	629.60
375.38	587.47
375.58	575.77
375.78	475.13
375.97	540.66
376.17	596.84
376.37	603.86
376.56	594.50
376.76	510.24
376.95	479.81
377.15	620.24
377.35	620.24
377.54	573.43
377.74	535.98
377.93	599.18
378.13	582.79
378.33	575.77
378.52	601.52
378.72	629.60
378.91	657.69
379.11	653.01
379.31	603.86
379.50	624.92
379.70	699.82
379.89	615.56
380.09	627.26
380.28	610.88
380.48	681.10
380.68	573.43
380.87	643.65
381.07	667.05
381.26	751.31
381.46	660.03
381.65	706.84
381.85	727.91
382.04	636.63
382.24	629.60
382.43	692.80
382.63	718.54
382.83	641.31
383.02	730.25
383.22	711.52
383.41	688.12
383.61	688.12
383.80	713.86
384.00	692.80
384.19	702.16
384.39	809.83
384.58	622.58
384.78	706.84
384.97	763.01
385.17	720.88
385.36	727.91
385.56	777.06
385.75	741.95
385.95	814.51
386.14	816.85
386.34	770.04
386.53	744.29
386.72	692.80
386.92	819.19
387.11	826.21
387.31	816.85
387.50	819.19
387.70	866.00
387.89	741.95
388.09	748.97
388.28	833.23
388.48	805.14
388.67	858.98
388.86	861.32
389.06	889.40
389.25	866.00
389.45	830.89
389.64	863.66
389.84	912.81
390.03	866.00
390.22	868.34
390.42	863.66
390.61	973.66
390.81	908.13
391.00	910.47
391.19	908.13
391.39	1032.18
391.58	964.30
391.78	983.02
391.97	1015.79
392.16	1001.75
392.36	1008.77
392.55	954.94
392.75	1114.10
392.94	915.15
393.13	919.83
393.33	957.28
393.52	940.90
393.71	1025.15
393.91	990.05
394.10	1067.28
394.29	997.07
394.49	957.28
394.68	1090.69
394.88	1116.44
395.07	1151.54
395.26	1086.01
395.46	1064.94
395.65	1172.61
395.84	1177.29
396.04	1130.48
396.23	1172.61
396.42	1067.28
396.62	1174.95
396.81	1153.88
397.00	1174.95
397.19	1088.35
397.39	1212.40
397.58	1289.64
397.77	1240.48
397.97	1238.14
398.16	1217.08
398.35	1296.66
398.55	1210.06
398.74	1294.32
398.93	1238.14
399.12	1345.81
399.32	1270.91
399.51	1280.27
399.70	1451.13
399.90	1425.39
400.09	1441.77
400.28	1418.36
400.47	1343.47
400.67	1409.00
400.86	1462.83
401.05	1439.43
401.24	1453.47
401.44	1490.92
401.63	1439.43
401.82	1455.81
402.01	1460.49
402.21	1511.99
402.40	1563.48
402.59	1563.48
402.78	1577.52
402.97	1516.67
403.17	1561.14
403.36	1561.14
403.55	1643.06
403.74	1605.61
403.93	1558.80
404.13	1664.12
404.32	1584.54
404.51	1678.16
404.70	1713.27
404.89	1661.78
405.09	1781.15
405.28	1715.61
405.47	1659.44
405.66	1757.74
405.85	1760.08
406.05	1834.98
406.24	1776.47
406.43	1888.81
406.62	1792.85
406.81	1895.83
407.00	1916.90
407.20	1888.81
407.39	1851.36
407.58	1865.41
407.77	1832.64
407.96	1959.03
408.15	1963.71
408.34	1902.86
408.54	1944.99
408.73	2078.40
408.92	1984.77
409.11	1956.69
409.30	1989.46
409.49	2134.57
409.68	2038.61
409.87	2122.87
410.07	2094.78
410.26	2080.74
410.45	2188.40
410.64	2253.94
410.83	2097.12
411.02	2150.95
411.21	2296.07
411.40	2232.87
411.59	2239.89
411.78	2197.76
411.98	2284.36
412.17	2361.60
412.36	2347.56
412.55	2321.81
412.74	2434.16
412.93	2396.71
413.12	2363.94
413.31	2530.12
413.50	2476.29
413.69	2567.57
413.88	2511.39
414.07	2502.03
414.26	2637.78
414.45	2651.83
414.64	2553.52
414.83	2668.21
415.02	2782.90
415.22	2705.66
415.41	2675.23
415.60	2665.87
415.79	2764.17
415.98	2909.29
416.17	2775.88
416.36	2869.50
416.55	2850.77
416.74	2974.82
416.93	2930.35
417.12	2902.26
417.31	2920.99
417.50	2939.71
417.69	3138.66
417.88	3094.19
418.07	3047.38
418.26	3073.12
418.45	3229.94
418.64	3150.36
418.83	3190.15
419.02	3166.74
419.21	3288.45
419.39	3272.07
419.58	3162.06
419.77	3124.62
419.96	3414.84
420.15	3258.03
420.34	3272.07
420.53	3201.85
420.72	3461.65
420.91	3449.95
421.10	3274.41
421.29	3314.20
421.48	3435.91
421.67	3239.30
421.86	3368.03
422.05	3506.12
422.24	3426.54
422.43	3412.50
422.61	3501.44
422.80	3435.91
422.99	3585.70
423.18	3627.83
423.37	3442.93
423.56	3492.08
423.75	3433.57
423.94	3466.33
424.13	3417.18
424.32	3391.44
424.50	3501.44
424.69	3686.34
424.88	3606.77
425.07	3545.91
425.26	3342.28
425.45	3611.45
425.64	3620.81
425.83	3501.44
426.01	3552.93
426.20	3609.11
426.39	3552.93
426.58	3588.04
426.77	3571.66
426.96	3655.92
427.15	3775.28
427.33	3735.50
427.52	3618.47
427.71	3723.79
427.90	3674.64
428.09	3742.52
428.28	3794.01
428.46	3777.62
428.65	3850.18
428.84	3854.86
429.03	3932.10
429.22	3789.33
429.40	3756.56
429.59	3817.41
429.78	3576.34
429.97	3658.26
430.16	3709.75
430.34	3794.01
430.53	3812.73
430.72	3838.48
430.91	3889.97
431.10	3943.80
431.28	4105.30
431.47	4128.70
431.66	4334.67
431.85	4138.07
432.03	4156.79
432.22	4369.78
432.41	4184.88
432.60	4280.84
432.79	4159.13
432.97	4224.67
433.16	4369.78
433.35	4145.09
433.54	4191.90
433.72	4409.57
433.91	4292.54
434.10	4325.31
434.28	4341.69
434.47	4397.87
434.66	4369.78
434.85	4344.03
435.03	4440.00
435.22	4456.38
435.41	4538.30
435.59	4517.23
435.78	4615.54
435.97	4732.56
436.16	4498.51
436.34	4601.49
436.53	4468.08
436.72	4746.61
436.90	4564.04
437.09	4643.62
437.28	4716.18
437.46	4671.71
437.65	4655.33
437.84	4716.18
438.02	4636.60
438.21	4615.54
438.40	4751.29
438.58	4865.97
438.77	5015.77
438.96	4933.85
439.14	5022.79
439.33	5083.64
439.52	4922.15
439.70	5186.63
439.89	5224.08
440.08	5231.10
440.26	5203.01
440.45	5053.22
440.63	5245.14
440.82	5242.80
441.01	5240.46
441.19	5153.86
441.38	5568.13
441.57	5558.77
441.75	5453.45
441.94	5687.50
442.12	5593.88
442.31	5652.39
442.50	5638.35
442.68	5687.50
442.87	5727.29
443.05	5832.62
443.24	5895.81
443.43	5729.63
443.61	5715.59
443.80	5994.11
443.98	5692.18
444.17	5804.53
444.35	5776.44
444.54	5959.00
444.73	5935.60
444.91	5830.27
445.10	5884.11
445.28	5785.80
445.47	5710.91
445.65	5947.30
445.84	5891.13
446.02	6143.91
446.21	5900.49
446.39	5980.07
446.58	5944.96
446.77	6113.48
446.95	5708.57
447.14	5980.07
447.32	6193.06
447.51	5872.40
447.69	5790.49
447.88	6057.31
448.06	5937.94
448.25	5970.71
448.43	6083.05
448.62	6029.22
448.80	5959.00
448.99	6043.26
449.17	6300.72
449.36	5912.19
449.54	6244.55
449.73	6307.74
449.91	6211.78
450.10	6359.24
450.28	6380.30
450.46	6413.07
450.65	6366.26
450.83	6483.28
451.02	6384.98
451.20	6539.46
451.39	6502.01
451.57	6314.77
451.76	6422.43
451.94	6445.84
452.13	6422.43
452.31	6621.38
452.49	6338.17
452.68	6567.54
452.86	6478.60
453.05	6520.73
453.23	6565.20
453.42	6604.99
453.60	6642.44
453.78	6726.70
453.97	6579.25
454.15	6581.59
454.34	6656.48
454.52	6808.62
454.70	6719.68
454.89	6813.30
455.07	6885.86
455.26	6766.49
455.44	7101.19
455.62	6825.00
455.81	6810.96
455.99	6998.20
456.17	7126.93
456.36	6979.48
456.54	7220.55
456.73	7077.78
456.91	7222.89
457.09	7279.07
457.28	7370.35
457.46	7250.98
457.64	7126.93
457.83	7250.98
458.01	7140.97
458.19	7375.03
458.38	7213.53
458.56	7426.52
458.74	7562.27
458.93	7517.80
459.11	7368.01
459.29	7573.97
459.48	7662.91
459.66	7520.14
459.84	7400.77
460.03	7754.19
460.21	7632.49
460.39	7592.70
460.57	7368.01
460.76	7873.56
460.94	7761.22
461.12	7662.91
461.31	7793.98
461.49	7683.98
461.67	7779.94
461.85	8100.59
462.04	7742.49
462.22	8035.06
462.40	7822.07
462.59	7861.86
462.77	8035.06
462.95	8030.38
463.13	7871.22
463.32	8042.08
463.50	8138.04
463.68	8035.06
463.86	8084.21
464.05	8018.68
464.23	8351.03
464.41	8308.90
464.59	8002.29
464.78	8353.37
464.96	8379.12
465.14	8098.25
465.32	8362.73
465.50	8329.97
465.69	8236.35
465.87	8212.94
466.05	8212.94
466.23	8325.29
466.41	8189.53
466.60	8713.81
466.78	8318.26
466.96	8446.99
467.14	8318.26
467.32	8446.99
467.51	8444.65
467.69	8315.92
467.87	8526.57
468.05	8772.33
468.23	8526.57
468.41	8657.64
468.60	8615.51
468.78	8482.10
468.96	8580.40
469.14	8795.73
469.32	8889.35
469.50	8617.85
469.69	8922.12
469.87	8952.55
470.05	8971.27
470.23	8922.12
470.41	8727.86
470.59	9048.51
470.77	8950.21
470.95	8828.50
471.14	9301.29
471.32	8877.65
471.50	9298.95
471.68	9322.35
471.86	9249.80
472.04	9284.91
472.22	9528.32
472.40	9163.20
472.58	9280.22
472.77	9549.39
472.95	9404.27
473.13	9757.69
473.31	9600.88
473.49	9507.26
473.67	9661.73
473.85	9767.06
474.03	9907.49
474.21	9888.76
474.39	9891.10
474.57	10038.56
474.75	10040.90
474.93	10260.91
475.12	10104.09
475.30	10118.14
475.48	10113.45
475.66	10328.78
475.84	10448.15
476.02	10525.39
476.20	10300.70
476.38	10672.84
476.56	10787.53
476.74	10684.55
476.92	10504.32
477.10	10644.76
477.28	10960.73
477.46	10979.45
477.64	11183.08
477.82	11082.44
478.00	11517.78
478.18	11396.07
478.36	11377.34
478.54	11358.62
478.72	11686.29
478.90	11810.34
479.08	12058.44
479.26	12109.93
479.44	12058.44
479.62	11871.20
479.80	12049.08
479.98	12191.85
480.16	12683.36
480.34	12088.87
480.52	12503.14
480.70	12472.71
480.88	12428.24
481.06	12491.44
481.24	12594.42
481.41	12809.75
481.59	13085.94
481.77	13078.91
481.95	13090.62
482.13	13231.05
482.31	13156.15
482.49	13561.06
482.67	13689.79
482.85	13851.29
483.03	13802.14
483.21	13961.30
483.39	13982.36
483.57	13996.40
483.74	13944.91
483.92	14122.79
484.10	14459.83
484.28	14265.57
484.46	14525.36
484.64	14984.11
484.82	14572.18
485.00	14656.43
485.18	15061.35
485.35	14949.00
485.53	14759.42
485.71	15033.26
485.89	15304.76
486.07	15440.51
486.25	15194.76
486.43	15492.01
486.61	15541.16
486.78	15807.98
486.96	16135.65
487.14	16060.76
487.32	15943.73
487.50	16500.78
487.68	16355.66
487.85	16753.55
488.03	16737.17
488.21	17011.01
488.39	16996.97
488.57	17137.40
488.75	17139.74
488.92	17530.61
489.10	17841.90
489.28	17598.49
489.46	17940.21
489.64	18085.32
489.81	18251.50
489.99	18235.11
490.17	18525.34
490.35	18679.82
490.53	18523.00
490.70	19042.60
490.88	18349.80
491.06	18963.02
491.24	19147.92
491.41	18909.19
491.59	19180.69
491.77	19262.61
491.95	19424.11
492.13	19243.88
492.30	19704.97
492.48	19585.60
492.66	19943.70
492.84	19719.01
493.01	19939.02
493.19	20524.16
493.37	20350.96
493.54	20582.67
493.72	20390.75
493.90	20755.87
494.08	21102.27
494.25	21130.36
494.43	21048.44
494.61	21057.80
494.79	21790.39
494.96	21497.82
495.14	21474.42
495.32	21708.47
495.49	21844.22
495.67	21795.07
495.85	22216.36
496.02	22258.49
496.20	22534.68
496.38	22459.78
496.55	22368.50
496.73	23056.62
496.91	22843.63
497.09	22766.39
497.26	22738.30
497.44	22939.59
497.62	23131.51
497.79	23161.94
497.97	23129.17
498.14	23463.87
498.32	23353.87
498.50	23901.55
498.67	23821.97
498.85	24002.19
499.03	24077.09
499.20	23702.61
499.38	24446.90
499.56	24446.90
499.73	24233.91
499.91	24741.80
500.08	24528.81
500.26	24416.47
500.44	24655.20
500.61	24629.46
500.79	24823.72
500.97	24755.85
501.14	24865.85
501.32	25242.68
501.49	24678.61
501.67	24856.49
501.84	25036.71
502.02	25064.80
502.20	25474.39
502.37	25720.15
502.55	25649.93
502.72	25652.27
502.90	25984.63
503.07	26192.94
503.25	25853.56
503.43	25701.42
503.60	26398.90
503.78	26146.12
503.95	26298.26
504.13	26024.42
504.30	26352.09
504.48	26473.80
504.65	26647.00
504.83	26789.77
505.01	26930.20
505.18	27197.02
505.36	27318.73
505.53	26925.52
505.71	27433.42
505.88	27407.67
506.06	27157.24
506.23	27428.74
506.41	26972.33
506.58	27569.17
506.76	27405.33
506.93	28119.20
507.11	27800.88
507.28	28144.94
507.46	27768.12
507.63	27906.21
507.81	28336.87
507.98	28044.30
508.16	28198.77
508.33	28732.42
508.50	28610.71
508.68	28514.75
508.85	29181.80
509.03	28432.83
509.20	28851.78
509.38	29027.32
509.55	29060.09
509.73	29242.65
509.90	29010.94
510.08	28929.02
510.25	29345.64
510.42	29455.64
510.60	29427.56
510.77	29369.04
510.95	29591.39
511.12	29656.93
511.30	29610.12
511.47	29902.68
511.64	29874.60
511.82	30239.72
511.99	30026.73
512.17	30134.40
512.34	29558.63
512.51	30361.43
512.69	30223.34
512.86	30609.53
513.04	30260.79
513.21	30511.22
513.38	30480.80
513.56	30618.89
513.73	30565.06
513.90	30827.20
514.08	30712.51
514.25	31012.10
514.43	30953.58
514.60	31140.83
514.77	31056.57
514.95	31372.54
515.12	31365.52
515.29	31487.23
515.47	31974.06
515.64	31721.28
515.81	31363.18
515.99	31508.29
516.16	31709.58
516.33	31271.90
516.51	31885.12
516.68	31749.37
516.85	31440.42
517.03	31358.50
517.20	31892.14
517.37	32030.23
517.54	32210.45
517.72	32044.27
517.89	31969.38
518.06	32027.89
518.24	32215.13
518.41	31948.31
518.58	32275.99
518.75	32147.26
518.93	32531.11
519.10	32617.71
519.27	32741.75
519.45	32863.46
519.62	32828.35
519.79	32989.85
519.96	33270.72
520.14	33139.65
520.31	32940.70
520.48	33198.16
520.65	33031.98
520.83	33666.27
521.00	33972.88
521.17	33500.09
521.34	33663.93
521.52	33914.36
521.69	33682.65
521.86	34078.20
522.03	33593.71
522.20	34195.23
522.38	33783.29
522.55	34050.11
522.72	34185.86
522.89	34026.71
523.07	34225.65
523.24	34284.17
523.41	34387.15
523.58	34653.97
523.75	34700.78
523.92	34981.65
524.10	34859.94
524.27	35316.34
524.44	34930.16
524.61	35044.84
524.78	34904.41
524.96	35166.55
525.13	34558.01
525.30	35337.41
525.47	35559.76
525.64	35344.43
525.81	35292.94
525.98	34969.94
526.16	35105.70
526.33	35054.20
526.50	35475.50
526.67	35180.59
526.84	35332.73
527.01	35353.79
527.18	35627.63
527.36	35608.91
527.53	35849.99
527.70	36060.63
527.87	36158.94
528.04	35875.73
528.21	36353.20
528.38	36135.53
528.55	36825.99
528.72	36498.31
528.89	36271.28
529.07	36280.64
529.24	36435.12
529.41	36666.83
529.58	36638.75
529.75	36935.99
529.92	36694.92
530.09	36568.53
530.26	36985.15
530.43	36507.68
530.60	36847.05
530.77	36704.28
530.94	36748.75
531.11	36924.29
531.28	36842.37
531.46	37455.59
531.63	37230.90
531.80	37104.51
531.97	36973.44
532.14	37308.14
532.31	36961.74
532.48	37483.68
532.65	37586.66
532.82	37504.74
532.99	37460.27
533.16	37053.02
533.33	37544.53
533.50	37610.07
533.67	37673.26
533.84	37593.68
534.01	37783.27
534.18	37411.12
534.35	38012.64
534.52	38148.39
534.69	37797.31
534.86	38007.96
535.03	38019.66
535.20	38305.21
535.37	38272.44
535.54	38532.24
535.71	38080.52
535.88	38216.27
536.05	38239.67
536.22	38321.59
536.38	38443.30
536.55	38635.22
536.72	38693.74
536.89	38110.94
537.06	38455.00
537.23	38682.03
537.40	38888.00
537.57	38478.41
537.74	38742.89
537.91	39159.50
538.08	39299.94
538.25	38515.86
538.42	38473.73
538.59	39089.29
538.75	38883.32
538.92	39185.25
539.09	39232.06
539.26	38710.12
539.43	39185.25
539.60	39297.59
539.77	38710.12
539.94	39325.68
540.11	39084.61
540.28	39658.04
540.44	39402.92
540.61	39236.74
540.78	39044.82
540.95	39250.78
541.12	39091.63
541.29	38981.62
541.46	39253.12
541.62	39428.66
541.79	39714.21
541.96	39597.18
542.13	39297.59
542.30	39861.66
542.47	39613.57
542.63	39983.37
542.80	40212.74
542.97	40126.14
543.14	40282.96
543.31	40044.23
543.48	40346.15
543.64	41148.96
543.81	40767.45
543.98	40477.22
544.15	40622.34
544.32	40835.33
544.48	40741.71
544.65	40563.82
544.82	40903.20
544.99	40463.18
545.16	40940.65
545.32	40793.20
545.49	40861.07
545.66	40975.76
545.83	40952.35
546.00	41273.01
546.16	40912.56
546.33	40620.00
546.50	40456.16
546.67	41003.85
546.83	40755.75
547.00	40999.16
547.17	41418.12
547.34	40926.61
547.50	41453.23
547.67	41413.44
547.84	41495.36
548.00	41399.40
548.17	41507.06
548.34	41347.90
548.51	41743.45
548.67	41158.32
548.84	41698.98
549.01	41626.43
549.18	41326.84
549.34	41907.29
549.51	41785.58
549.68	41886.23
549.84	41762.18
550.01	41710.69
550.18	41642.81
550.34	42005.59
550.51	41647.49
550.68	41958.78
550.84	41656.85
551.01	41659.20
551.18	42103.90
551.34	41762.18
551.51	42223.26
551.68	42157.73
551.84	42307.52
552.01	42209.22
552.18	42078.15
552.34	41972.83
552.51	42234.97
552.68	42007.94
552.84	42581.37
553.01	42206.88
553.18	42335.61
553.34	42188.16
553.51	41874.52
553.67	42342.63
553.84	42527.53
554.01	42244.33
554.17	42396.46
554.34	42600.09
554.51	42682.01
554.67	42651.58
554.84	42480.72
555.00	42497.11
555.17	42614.13
555.33	42646.90
555.50	42518.17
555.67	42672.65
555.83	42316.89
556.00	43098.62
556.16	43168.84
556.33	42141.35
556.50	42635.20
556.66	43072.88
556.83	42672.65
556.99	42710.10
557.16	43070.54
557.32	43133.73
557.49	43103.31
557.65	42686.69
557.82	42754.57
557.98	42852.87
558.15	42997.98
558.32	43316.29
558.48	42761.59
558.65	42759.25
558.81	42958.19
558.98	43175.86
559.14	43070.54
559.31	43061.18
559.47	43117.35
559.64	43299.91
559.80	43339.70
559.97	43313.95
560.13	43182.88
560.30	42775.63
560.46	43100.97
560.63	43379.49
560.79	43873.34
560.96	43653.33
561.12	43461.41
561.29	43725.89
561.45	43407.58
561.61	43580.78
561.78	43372.47
561.94	43161.82
562.11	43515.24
562.27	43519.92
562.44	43278.85
562.60	43920.15
562.77	43770.36
562.93	43606.52
563.10	43934.20
563.26	43775.04
563.42	43517.58
563.59	43356.08
563.75	43463.75
563.92	43709.50
564.08	44240.81
564.24	43662.69
564.41	43777.38
564.57	43819.51
564.74	43730.57
564.90	44004.41
565.07	43339.70
565.23	44006.75
565.39	43732.91
565.56	43936.54
565.72	43856.96
565.88	43856.96
566.05	43655.67
566.21	43728.23
566.38	43524.60
566.54	44210.38
566.70	44264.21
566.87	44083.99
567.03	43683.76
567.19	44610.61
567.36	44201.02
567.52	43798.44
567.68	44325.07
567.85	43805.47
568.01	43906.11
568.17	43779.72
568.34	44002.07
568.50	43866.32
568.66	43859.30
568.83	43915.47
568.99	43578.43
569.15	43620.56
569.32	43683.76
569.48	43824.19
569.64	43889.73
569.81	44636.36
569.97	43786.74
570.13	44041.86
570.30	43388.85
570.46	43592.48
570.62	43805.47
570.78	43882.70
570.95	43585.46
571.11	44329.75
571.27	43866.32
571.43	44095.69
571.60	44182.29
571.76	43924.83
571.92	44069.95
572.09	44060.58
572.25	44016.11
572.41	44095.69
572.57	44547.42
572.74	44247.83
572.90	44020.80
573.06	43988.03
573.22	44280.60
573.38	44025.48
573.55	44175.27
573.71	44123.78
573.87	44051.22
574.03	44060.58
574.20	43948.24
574.36	44325.07
574.52	44109.74
574.68	43878.02
574.84	44500.61
575.01	43873.34
575.17	44222.08
575.33	44095.69
575.49	43775.04
575.65	44336.77
575.82	44516.99
575.98	44161.23
576.14	44390.60
576.30	44301.66
576.46	44458.48
576.62	43753.97
576.79	43985.69
576.95	43807.81
577.11	44175.27
577.27	44435.07
577.43	44079.31
577.59	44222.08
577.75	44409.32
577.92	43957.60
578.08	44201.02
578.24	43761.00
578.40	43622.90
578.56	44051.22
578.72	44245.49
578.88	44210.38
579.04	44865.73
579.21	44247.83
579.37	44198.68
579.53	44257.19
579.69	44219.74
579.85	44182.29
580.01	44287.62
580.17	44280.60
580.33	44767.43
580.49	44271.23
580.65	44619.97
580.82	44563.80
580.98	43934.20
581.14	44156.55
581.30	44954.67
581.46	44460.82
581.62	44093.35
581.78	44409.32
581.94	44734.66
582.10	44357.83
582.26	44245.49
582.42	44172.93
582.58	44194.00
582.74	44088.67
582.90	44350.81
583.06	44385.92
583.22	44435.07
583.38	44395.28
583.54	44460.82
583.70	44793.17
583.86	44404.64
584.02	43835.89
584.18	44507.63
584.34	44147.18
584.50	44601.25
584.66	44608.27
584.82	44360.17
584.98	44484.22
585.14	44648.06
585.30	44573.16
585.46	44636.36
585.62	44236.12
585.78	44341.45
585.94	43988.03
586.10	44432.73
586.26	44540.39
586.42	44477.20
586.58	44233.78
586.74	44341.45
586.90	44327.41
587.06	44006.75
587.22	44425.71
587.38	44041.86
587.54	44350.81
587.70	44535.71
587.86	44612.95
588.02	44479.54
588.18	44662.10
588.34	44348.47
588.49	44016.11
588.65	43964.62
588.81	44198.68
588.97	44210.38
589.13	44137.82
589.29	44072.29
589.45	44699.55
589.61	44755.72
589.77	44444.43
589.93	44739.34
590.08	44425.71
590.24	44540.39
