SpectraSuite Data File
++++++++++++++++++++++++++++++++++++
Date: Fri Oct 25 11:24:04 EDT 2013
User: price-jones
Dark Spectrum Present: No
Reference Spectrum Present: No
Number of Sampled Component Spectra: 1
Spectrometers: USB2+H05261
Integration Time (usec): 100000 (USB2+H05261)
Spectra Averaged: 1 (USB2+H05261)
Boxcar Smoothing: 0 (USB2+H05261)
Correct for Electrical Dark: No (USB2+H05261)
Strobe/Lamp Enabled: No (USB2+H05261)
Correct for Detector Non-linearity: No (USB2+H05261)
Correct for Stray Light: No (USB2+H05261)
Number of Pixels in Processed Spectrum: 2048
>>>>>Begin Processed Spectral Data<<<<<
365.73	180.22
365.92	180.22
366.12	180.22
366.32	77.24
366.52	74.90
366.72	201.29
366.91	100.64
367.11	138.09
367.31	145.11
367.51	84.26
367.70	166.18
367.90	67.88
368.10	124.05
368.30	196.60
368.49	84.26
368.69	138.09
368.89	224.69
369.09	131.07
369.28	215.33
369.48	191.92
369.68	173.20
369.87	131.07
370.07	198.95
370.27	203.63
370.47	287.89
370.66	543.00
370.86	650.67
371.06	599.18
371.25	744.29
371.45	676.41
371.65	791.10
371.84	676.41
372.04	669.39
372.24	795.78
372.44	643.65
372.63	723.23
372.83	753.65
373.03	662.37
373.22	800.46
373.42	826.21
373.62	772.38
373.81	826.21
374.01	809.83
374.21	821.53
374.40	800.46
374.60	875.36
374.79	828.55
374.99	884.72
375.19	847.27
375.38	889.40
375.58	732.59
375.78	795.78
375.97	830.89
376.17	840.25
376.37	830.89
376.56	873.02
376.76	821.53
376.95	800.46
377.15	931.53
377.35	828.55
377.54	844.93
377.74	903.45
377.93	830.89
378.13	938.55
378.33	912.81
378.52	877.70
378.72	910.47
378.91	926.85
379.11	961.96
379.31	924.51
379.50	945.58
379.70	1104.73
379.89	968.98
380.09	1025.15
380.28	943.24
380.48	933.87
380.68	1008.77
380.87	987.71
381.07	992.39
381.26	1121.12
381.46	1027.50
381.65	940.90
381.85	1015.79
382.04	1018.13
382.24	985.37
382.43	1060.26
382.63	992.39
382.83	1025.15
383.02	1046.22
383.22	1146.86
383.41	1008.77
383.61	1011.11
383.80	1095.37
384.00	1114.10
384.19	1165.59
384.39	1078.99
384.58	1086.01
384.78	1186.65
384.97	1128.14
385.17	1170.27
385.36	1174.95
385.56	1090.69
385.75	1149.20
385.95	1196.01
386.14	1245.16
386.34	1188.99
386.53	1245.16
386.72	1174.95
386.92	1254.53
387.11	1210.06
387.31	1210.06
387.50	1270.91
387.70	1172.61
387.89	1331.76
388.09	1268.57
388.28	1291.98
388.48	1291.98
388.67	1287.29
388.86	1387.94
389.06	1416.02
389.25	1294.32
389.45	1263.89
389.64	1352.83
389.84	1392.62
390.03	1369.21
390.22	1371.55
390.42	1488.58
390.61	1359.85
390.81	1474.54
391.00	1451.13
391.19	1444.11
391.39	1385.60
391.58	1434.75
391.78	1479.22
391.97	1591.56
392.16	1441.77
392.36	1523.69
392.55	1570.50
392.75	1556.46
392.94	1523.69
393.13	1584.54
393.33	1612.63
393.52	1647.74
393.71	1685.19
393.91	1724.97
394.10	1441.77
394.29	1563.48
394.49	1617.31
394.68	1607.95
394.88	1621.99
395.07	1612.63
395.26	1729.66
395.46	1664.12
395.65	1675.82
395.84	1696.89
396.04	1699.23
396.23	1750.72
396.42	1675.82
396.62	1706.25
396.81	1806.89
397.00	1795.19
397.19	1813.92
397.39	1755.40
397.58	1860.73
397.77	1870.09
397.97	1788.17
398.16	1853.70
398.35	1935.62
398.55	1956.69
398.74	1996.48
398.93	2031.58
399.12	1867.75
399.32	1898.17
399.51	1881.79
399.70	1961.37
399.90	1940.30
400.09	1987.11
400.28	2050.31
400.47	1984.77
400.67	2064.35
400.86	2043.29
401.05	2235.21
401.24	2150.95
401.44	2083.08
401.63	2284.36
401.82	2134.57
402.01	2125.21
402.21	2200.10
402.40	2143.93
402.59	2143.93
402.78	2188.40
402.97	2237.55
403.17	2211.81
403.36	2296.07
403.55	2265.64
403.74	2310.11
403.93	2298.41
404.13	2340.54
404.32	2312.45
404.51	2422.45
404.70	2335.85
404.89	2473.95
405.09	2349.90
405.28	2593.31
405.47	2490.33
405.66	2525.44
405.85	2644.81
406.05	2569.91
406.24	2565.23
406.43	2600.34
406.62	2731.41
406.81	2754.81
407.00	2628.42
407.20	2612.04
407.39	2640.12
407.58	2719.70
407.77	2768.85
407.96	2747.79
408.15	2818.00
408.34	2761.83
408.54	2813.32
408.73	2743.11
408.92	2848.43
409.11	2839.07
409.30	2909.29
409.49	2939.71
409.68	2979.50
409.87	2970.14
410.07	3002.91
410.26	2998.23
410.45	2958.44
410.64	2993.55
410.83	3068.44
411.02	3119.93
411.21	3197.17
411.40	3166.74
411.59	3084.83
411.78	3213.56
411.98	3157.38
412.17	3234.62
412.36	3323.56
412.55	3274.41
412.74	3529.53
412.93	3344.63
413.12	3417.18
413.31	3566.98
413.50	3520.17
413.69	3566.98
413.88	3555.27
414.07	3606.77
414.26	3674.64
414.45	3798.69
414.64	3768.26
414.83	3679.32
415.02	3726.13
415.22	3810.39
415.41	3932.10
415.60	3801.03
415.79	3913.38
415.98	3950.82
416.17	3936.78
416.36	4049.13
416.55	4121.68
416.74	4180.20
416.93	4131.05
417.12	4081.89
417.31	4273.82
417.50	4252.75
417.69	4255.09
417.88	4231.69
418.07	4245.73
418.26	4400.21
418.45	4329.99
418.64	4571.07
418.83	4301.90
419.02	4428.29
419.21	4606.17
419.39	4482.13
419.58	4547.66
419.77	4510.21
419.96	4535.96
420.15	4557.02
420.34	4648.30
420.53	4662.35
420.72	4847.25
420.91	4636.60
421.10	4877.68
421.29	4795.76
421.48	4641.28
421.67	4784.06
421.86	4828.53
422.05	4709.16
422.24	4676.39
422.43	4959.60
422.61	4828.53
422.80	5046.20
422.99	4999.38
423.18	5130.45
423.37	5116.41
423.56	4873.00
423.75	4947.89
423.94	4819.16
424.13	4692.77
424.32	4830.87
424.50	4898.74
424.69	5193.65
424.88	5118.75
425.07	5029.81
425.26	4994.70
425.45	4983.00
425.64	4990.02
425.83	5036.83
426.01	5116.41
426.20	5013.43
426.39	5219.39
426.58	4973.64
426.77	4990.02
426.96	5238.12
427.15	5158.54
427.33	5233.44
427.52	5163.22
427.71	5336.42
427.90	5277.91
428.09	5315.36
428.28	5380.89
428.46	5322.38
428.65	5296.63
428.84	5563.45
429.03	5533.03
429.22	5418.34
429.40	5563.45
429.59	5600.90
429.78	5371.53
429.97	5273.23
430.16	5511.96
430.34	5533.03
430.53	5727.29
430.72	5823.25
430.91	5724.95
431.10	5633.67
431.28	5734.31
431.47	5879.43
431.66	5930.92
431.85	5823.25
432.03	5914.53
432.22	6129.86
432.41	5809.21
432.60	5870.06
432.79	6038.58
432.97	6092.41
433.16	6092.41
433.35	6118.16
433.54	6101.78
433.72	5984.75
433.91	6019.86
434.10	6284.34
434.28	6143.91
434.47	6321.79
434.66	6289.02
434.85	6183.70
435.03	6317.11
435.22	6249.23
435.41	6368.60
435.59	6413.07
435.78	6459.88
435.97	6438.81
436.16	6558.18
436.34	6480.94
436.53	6415.41
436.72	6661.16
436.90	6429.45
437.09	6630.74
437.28	6600.31
437.46	6729.04
437.65	6663.51
437.84	6633.08
438.02	6970.12
438.21	6892.88
438.40	6586.27
438.58	7033.31
438.77	7110.55
438.96	7045.01
439.14	7180.76
439.33	7470.99
439.52	7339.92
439.70	7222.89
439.89	7428.86
440.08	7332.90
440.26	7393.75
440.45	7403.11
440.63	7473.33
440.82	7517.80
441.01	7676.96
441.19	7681.64
441.38	7625.47
441.57	7756.54
441.75	7960.16
441.94	8215.28
442.12	7971.86
442.31	8100.59
442.50	8021.02
442.68	7929.74
442.87	8187.19
443.05	8154.43
443.24	8395.50
443.43	8109.96
443.61	8191.88
443.80	8542.96
443.98	8121.66
444.17	7894.63
444.35	8257.41
444.54	8224.64
444.73	8334.65
444.91	8339.33
445.10	8482.10
445.28	8449.33
445.47	8430.61
445.65	8409.54
445.84	8603.81
446.02	8489.12
446.21	8489.12
446.39	8442.31
446.58	8418.91
446.77	8475.08
446.95	8456.36
447.14	8519.55
447.32	8643.60
447.51	8496.14
447.69	8456.36
447.88	8659.98
448.06	8470.40
448.25	8425.93
448.43	8608.49
448.62	8498.49
448.80	8652.96
448.99	8830.84
449.17	8718.50
449.36	8587.43
449.54	8945.53
449.73	8844.88
449.91	9193.62
450.10	8954.89
450.28	9233.41
450.46	9144.47
450.65	9060.21
450.83	9373.85
451.02	9308.31
451.20	9371.50
451.39	9341.08
451.57	9090.64
451.76	9280.22
451.94	9207.67
452.13	9451.08
452.31	9561.09
452.49	9312.99
452.68	9418.32
452.86	9322.35
453.05	9411.29
453.23	9387.89
453.42	9598.54
453.60	9362.14
453.78	9645.35
453.97	9399.59
454.15	9685.14
454.34	9582.15
454.52	9654.71
454.70	9837.27
454.89	9951.96
455.07	9802.16
455.26	9851.31
455.44	9956.64
455.62	9975.36
455.81	10083.03
455.99	10272.61
456.17	10143.88
456.36	10139.20
456.54	10024.51
456.73	10520.71
456.91	10707.95
457.09	10562.84
457.28	10597.95
457.46	10321.76
457.64	10789.87
457.83	10675.18
458.01	10445.81
458.19	10799.23
458.38	10499.64
458.56	10855.40
458.74	10885.83
458.93	10860.09
459.11	10892.85
459.29	10696.25
459.48	10960.73
459.66	10782.85
459.84	10881.15
460.03	11110.52
460.21	11075.42
460.39	11133.93
460.57	11059.03
460.76	11049.67
460.94	11304.79
461.12	11480.33
461.31	11545.86
461.49	11098.82
461.67	11351.60
461.85	11466.28
462.04	11323.51
462.22	11506.07
462.40	11583.31
462.59	11587.99
462.77	11452.24
462.95	11644.17
463.13	11693.32
463.32	11653.53
463.50	11751.83
463.68	11676.93
463.86	11969.50
464.05	11768.21
464.23	11793.96
464.41	11793.96
464.59	11726.08
464.78	12126.32
464.96	12131.00
465.14	11985.88
465.32	12145.04
465.50	12173.13
465.69	12166.10
465.87	12285.47
466.05	12241.00
466.23	12147.38
466.41	12489.10
466.60	12397.82
466.78	12292.49
466.96	12266.75
467.14	12601.44
467.32	12533.57
467.51	12882.31
467.69	12320.58
467.87	12657.62
468.05	12812.09
468.23	12634.21
468.41	12510.16
468.60	12531.23
468.78	12856.56
468.96	12767.62
469.14	13006.36
469.32	12894.01
469.50	12674.00
469.69	13209.98
469.87	13483.83
470.05	13107.00
470.23	13310.63
470.41	13275.52
470.59	13467.44
470.77	13085.94
470.95	13296.58
471.14	13394.89
471.32	13259.13
471.50	13668.73
471.68	13872.36
471.86	14001.08
472.04	13745.97
472.22	14150.88
472.40	13984.70
472.58	13827.88
472.77	14225.78
472.95	14249.18
473.13	14754.74
473.31	14106.41
473.49	14251.52
473.67	14413.02
473.85	14193.01
474.03	14583.88
474.21	14946.66
474.39	14937.30
474.57	14988.79
474.75	15080.07
474.93	15101.14
475.12	15089.43
475.30	15199.44
475.48	15267.31
475.66	15279.02
475.84	15410.09
476.02	15716.70
476.20	15440.51
476.38	15873.51
476.56	16285.45
476.74	16009.26
476.92	16105.23
477.10	16004.58
477.28	16573.33
477.46	16114.59
477.64	16395.45
477.82	16854.20
478.00	17043.78
478.18	17092.93
478.36	17083.57
478.54	17380.82
478.72	17207.62
478.90	17462.74
479.08	17898.08
479.26	17776.37
479.44	17767.01
479.62	18090.00
479.80	18008.08
479.98	18246.82
480.16	18569.81
480.34	18340.44
480.52	18644.71
480.70	18595.56
480.88	18611.94
481.06	18988.77
481.24	18932.59
481.41	19541.13
481.59	19145.58
481.77	19374.95
481.95	19700.29
482.13	20264.36
482.31	20072.43
482.49	20467.98
482.67	20229.25
482.85	20638.84
483.03	20842.47
483.21	21067.16
483.39	21195.89
483.57	20922.05
483.74	21553.99
483.92	21493.14
484.10	21448.67
484.28	21886.35
484.46	22148.49
484.64	22515.95
484.82	22167.21
485.00	22504.25
485.18	22867.03
485.35	23133.86
485.53	22705.54
485.71	22948.95
485.89	23534.09
486.07	23403.02
486.25	23454.51
486.43	24077.09
486.61	24519.45
486.78	24016.24
486.96	24250.29
487.14	24538.18
487.32	24896.28
487.50	25113.95
487.68	25209.91
487.85	25553.97
488.03	25694.40
488.21	25888.67
488.39	25752.91
488.57	25848.88
488.75	26377.84
488.92	26698.49
489.10	26794.45
489.28	27089.36
489.46	27285.97
489.64	27180.64
489.81	27730.67
489.99	27812.59
490.17	27845.35
490.35	28250.27
490.53	28130.90
490.70	28584.96
490.88	28552.20
491.06	28961.79
491.24	29212.23
491.41	29488.41
491.59	29259.04
491.77	29734.17
491.95	29809.06
492.13	30019.71
492.30	30478.46
492.48	30649.32
492.66	30345.05
492.84	30756.98
493.01	30782.73
493.19	31016.78
493.37	31379.56
493.54	31351.48
493.72	31798.52
493.90	31562.12
494.08	31913.20
494.25	32304.07
494.43	31894.48
494.61	32552.17
494.79	32708.99
494.96	32900.91
495.14	33139.65
495.32	33003.89
495.49	33303.48
495.67	33558.60
495.85	33752.87
496.02	33883.94
496.20	34031.39
496.38	34387.15
496.55	34499.50
496.73	34794.40
496.91	34457.37
497.09	35065.91
497.26	35171.23
497.44	35269.53
497.62	35211.02
497.79	36039.57
497.97	35775.09
498.14	36409.37
498.32	36388.31
498.50	36772.16
498.67	37102.17
498.85	37127.92
499.03	36517.04
499.20	36711.30
499.38	37579.64
499.56	37383.04
499.73	37291.76
499.91	37584.32
500.08	37518.79
500.26	37734.12
500.44	38003.28
500.61	37865.19
500.79	38066.47
500.97	37975.19
501.14	38820.13
501.32	38740.55
501.49	38738.21
501.67	38642.24
501.84	39349.09
502.02	39311.64
502.20	39154.82
502.37	39353.77
502.55	39498.88
502.72	39402.92
502.90	39999.76
503.07	39695.49
503.25	39730.59
503.43	40243.17
503.60	40421.05
503.78	40289.98
503.95	40521.69
504.13	40907.88
504.30	40882.14
504.48	40727.66
504.65	41109.17
504.83	41392.37
505.01	41612.38
505.18	40971.08
505.36	41947.08
505.53	41476.63
505.71	41752.82
505.88	41823.03
506.06	42267.73
506.23	42237.31
506.41	41748.14
506.58	42316.89
506.76	42651.58
506.93	43005.00
507.11	42501.79
507.28	42834.14
507.46	43269.48
507.63	42941.81
507.81	43468.43
507.98	43295.23
508.16	43339.70
508.33	43533.96
508.50	43564.39
508.68	43562.05
508.85	43992.71
509.03	44252.51
509.20	44343.79
509.38	44294.64
509.55	44832.96
509.73	44406.98
509.90	44982.76
510.08	45078.72
510.25	44839.98
510.42	45144.25
510.60	45067.02
510.77	45713.00
510.95	45556.19
511.12	45390.01
511.30	45989.19
511.47	45853.44
511.64	45942.38
511.82	46256.01
511.99	45773.86
512.17	46342.61
512.34	46223.24
512.51	46408.14
512.69	46866.89
512.86	46506.44
513.04	47168.82
513.21	47037.75
513.38	46983.91
513.56	46780.29
513.73	47194.56
513.90	47014.34
514.08	47093.92
514.25	47828.85
514.43	47824.17
514.60	47512.88
514.77	47653.31
514.95	47618.20
515.12	47863.96
515.29	47999.71
515.47	48280.57
515.64	48495.90
515.81	48320.36
515.99	48231.42
516.16	48212.70
516.33	48718.25
516.51	49172.31
516.68	48734.63
516.85	48788.47
517.03	49172.31
517.20	49347.86
517.37	49078.69
517.54	49172.31
517.72	49502.33
517.89	49617.02
518.06	49172.31
518.24	49179.34
518.41	49600.63
518.58	49546.80
518.75	49542.12
518.93	49593.61
519.10	49645.10
519.27	49998.52
519.45	50045.33
519.62	49801.92
519.79	50335.56
519.96	50291.09
520.14	50513.44
520.31	50354.29
520.48	50763.88
520.65	50731.11
520.83	51079.85
521.00	51054.11
521.17	50831.75
521.34	50656.21
521.52	51011.98
521.69	51129.00
521.86	50976.87
522.03	51732.86
522.20	51859.25
522.38	51477.74
522.55	51613.49
522.72	51952.87
522.89	51793.71
523.07	52074.58
523.24	51810.10
523.41	52142.45
523.58	51587.75
523.75	52114.37
523.92	52266.50
524.10	52095.64
524.27	52357.78
524.44	52280.55
524.61	52481.83
524.78	52491.19
524.96	52388.21
525.13	52584.82
525.30	52786.10
525.47	53062.29
525.64	52671.42
525.81	53090.37
525.98	53010.79
526.16	52853.98
526.33	52968.66
526.50	53301.02
526.67	53059.94
526.84	53024.84
527.01	53017.82
527.18	53457.84
527.36	53251.87
527.53	53179.31
527.70	53628.69
527.87	53612.31
528.04	53230.80
528.21	53460.18
528.38	53551.46
528.55	53862.75
528.72	53286.98
528.89	53923.60
529.07	53614.65
529.24	53684.87
529.41	54049.99
529.58	53827.64
529.75	54005.52
529.92	54073.40
530.09	53954.03
530.26	54195.10
530.43	54323.83
530.60	54120.21
530.77	53956.37
530.94	54354.26
531.11	54447.88
531.28	54358.94
531.46	54684.28
531.63	54375.33
531.80	54291.07
531.97	54700.66
532.14	54719.38
532.31	54787.26
532.48	54703.00
532.65	55051.74
532.82	54927.69
532.99	54815.35
533.16	54845.77
533.33	55119.62
533.50	55325.58
533.67	54995.57
533.84	54691.30
534.01	55011.95
534.18	55157.06
534.35	55356.01
534.52	55147.70
534.69	55430.91
534.86	55372.39
535.03	55079.83
535.20	55723.47
535.37	55341.97
535.54	55487.08
535.71	55416.86
535.88	55718.79
536.05	55674.32
536.22	55688.37
536.38	55758.58
536.55	55664.96
536.72	55784.33
536.89	55657.94
537.06	55639.22
537.23	55615.81
537.40	55697.73
537.57	56016.04
537.74	55891.99
537.91	56207.97
538.08	56095.62
538.25	56076.90
538.42	56062.85
538.59	56416.27
538.75	56175.20
538.92	56381.16
539.09	56519.26
539.26	56324.99
539.43	56416.27
539.60	56470.11
539.77	56334.35
539.94	56699.48
540.11	56587.13
540.28	56886.72
540.44	56722.88
540.61	56540.32
540.78	56266.48
540.95	56694.80
541.12	56385.85
541.29	56666.71
541.46	56676.07
541.62	56914.81
541.79	56816.50
541.96	56582.45
542.13	56905.44
542.30	57090.35
542.47	56842.25
542.63	56999.07
542.80	57198.01
542.97	57303.34
543.14	57237.80
543.31	57336.10
543.48	57553.77
543.64	57640.37
543.81	57495.26
543.98	57490.58
544.15	57530.37
544.32	57607.61
544.48	57944.64
544.65	57382.91
544.82	57752.72
544.99	57291.63
545.16	57640.37
545.32	57663.78
545.49	58087.42
545.66	57958.69
545.83	57790.17
546.00	57993.79
546.16	57883.79
546.33	57862.72
546.50	57808.89
546.67	57872.09
546.83	57778.46
547.00	58052.31
547.17	58101.46
547.34	58059.33
547.50	58185.72
547.67	58251.25
547.84	58251.25
548.00	58403.39
548.17	58319.13
548.34	58305.09
548.51	58302.74
548.67	58473.60
548.84	58419.77
549.01	58211.46
549.18	58211.46
549.34	58618.72
549.51	58387.00
549.68	58651.48
549.84	58702.98
550.01	58637.44
550.18	58412.75
550.34	58691.27
550.51	58674.89
550.68	58717.02
550.84	58501.69
551.01	58820.00
551.18	58630.42
551.34	58710.00
551.51	58918.31
551.68	58976.82
551.84	58817.66
552.01	58599.99
552.18	58937.03
552.34	58672.55
552.51	59014.27
552.68	58759.15
552.84	58906.60
553.01	59320.88
553.18	58836.39
553.34	58951.07
553.51	58670.21
553.67	59063.42
553.84	59391.09
554.01	58972.14
554.17	59133.63
554.34	59135.98
554.51	59236.62
554.67	59171.08
554.84	59021.29
555.00	59096.19
555.17	59238.96
555.33	59253.00
555.50	59217.89
555.67	59072.78
555.83	59192.15
556.00	59157.04
556.16	59686.00
556.33	59419.18
556.50	59285.77
556.66	59348.96
556.83	59203.85
556.99	59496.42
557.16	59793.67
557.32	59653.23
557.49	59671.96
557.65	59568.97
557.82	59465.99
557.98	59592.38
558.15	59583.02
558.32	59707.07
558.48	59667.28
558.65	59707.07
558.81	59435.56
558.98	59671.96
559.14	59725.79
559.31	60016.02
559.47	59833.46
559.64	59831.11
559.80	59856.86
559.97	60119.00
560.13	59859.20
560.30	59793.67
560.46	59934.10
560.63	59678.98
560.79	59971.55
560.96	60154.11
561.12	60083.89
561.29	59990.27
561.45	59877.93
561.61	59898.99
561.78	60088.57
561.94	59983.25
562.11	60193.90
562.27	60090.91
562.44	60299.22
562.60	60142.41
562.77	60383.48
562.93	59896.65
563.10	60310.92
563.26	60161.13
563.42	60376.46
563.59	59985.59
563.75	60254.75
563.92	60163.47
564.08	60041.76
564.24	60343.69
564.41	60186.88
564.57	60458.38
564.74	60336.67
564.90	60434.97
565.07	60303.90
565.23	60278.16
565.39	60292.20
565.56	60432.63
565.72	60278.16
565.88	60441.99
566.05	60186.88
566.21	60287.52
566.38	60519.23
566.54	60554.34
566.70	60633.92
566.87	60369.44
567.03	60514.55
567.19	60556.68
567.36	60432.63
567.52	60301.56
567.68	60767.33
567.85	60596.47
568.01	60577.75
568.17	60526.25
568.34	60467.74
568.50	60313.26
568.66	60530.93
568.83	60603.49
568.99	60741.58
569.15	60449.02
569.32	60556.68
569.48	60694.77
569.64	60680.73
569.81	60711.16
569.97	60610.51
570.13	60858.61
570.30	60474.76
570.46	60762.65
570.62	60999.04
570.78	60605.83
570.95	60488.80
571.11	60734.56
571.27	60589.45
571.43	60786.05
571.60	60832.86
571.76	60764.99
571.92	60779.03
572.09	60926.49
572.25	60764.99
572.41	60732.22
572.57	60640.94
572.74	61013.08
572.90	60556.68
573.06	60856.27
573.22	60779.03
573.38	60863.29
573.55	60900.74
573.71	61130.11
573.87	60860.95
574.03	60830.52
574.20	60842.23
574.36	60725.20
574.52	60844.57
574.68	60891.38
574.84	60804.78
575.01	60896.06
575.17	60877.33
575.33	60793.07
575.49	60502.85
575.65	60905.42
575.82	60753.29
575.98	61008.40
576.14	61137.13
576.30	61006.06
576.46	60917.12
576.62	61087.98
576.79	60767.33
576.95	60807.12
577.11	60891.38
577.27	61031.81
577.43	61001.38
577.59	60912.44
577.75	60821.16
577.92	60750.94
578.08	60947.55
578.24	60938.19
578.40	61223.73
578.56	61048.19
578.72	60989.68
578.88	61216.71
579.04	61095.00
579.21	61048.19
579.37	61183.94
579.53	61233.10
579.69	60711.16
579.85	61041.17
580.01	60889.04
580.17	60966.27
580.33	61357.14
580.49	61265.86
580.65	61146.50
580.82	61064.58
580.98	60926.49
581.14	61137.13
581.30	61104.37
581.46	61144.16
581.62	61116.07
581.78	61052.87
581.94	61085.64
582.10	61066.92
582.26	61043.51
582.42	61015.43
582.58	61153.52
582.74	61027.13
582.90	61104.37
583.06	61043.51
583.22	61006.06
583.38	61050.53
583.54	61158.20
583.70	61130.11
583.86	61190.97
584.02	61020.11
584.18	61291.61
584.34	61104.37
584.50	61013.08
584.66	61006.06
584.82	61137.13
584.98	61303.31
585.14	61113.73
585.30	61017.77
585.46	61059.90
585.62	61183.94
585.78	61261.18
585.94	61066.92
586.10	61190.97
586.26	61083.30
586.42	61256.50
586.58	61272.88
586.74	61333.74
586.90	61144.16
587.06	61127.77
587.22	61263.52
587.38	61289.27
587.54	61317.35
587.70	61380.55
587.86	61080.96
588.02	61197.99
588.18	61387.57
588.34	61127.77
588.49	61385.23
