SpectraSuite Data File
++++++++++++++++++++++++++++++++++++
Date: Fri Oct 25 10:44:07 EDT 2013
User: price-jones
Dark Spectrum Present: No
Reference Spectrum Present: No
Number of Sampled Component Spectra: 1
Spectrometers: USB2+H05261
Integration Time (usec): 100000 (USB2+H05261)
Spectra Averaged: 1 (USB2+H05261)
Boxcar Smoothing: 0 (USB2+H05261)
Correct for Electrical Dark: No (USB2+H05261)
Strobe/Lamp Enabled: No (USB2+H05261)
Correct for Detector Non-linearity: No (USB2+H05261)
Correct for Stray Light: No (USB2+H05261)
Number of Pixels in Processed Spectrum: 2048
>>>>>Begin Processed Spectral Data<<<<<
365.73	166.18
365.92	166.18
366.12	166.18
366.32	56.17
366.52	18.72
366.72	110.01
366.91	0.00
367.11	0.00
367.31	2.34
367.51	56.17
367.70	91.28
367.90	23.41
368.10	42.13
368.30	35.11
368.49	11.70
368.69	102.98
368.89	39.79
369.09	30.43
369.28	35.11
369.48	72.56
369.68	105.32
369.87	142.77
370.07	140.43
370.27	135.75
370.47	149.79
370.66	348.74
370.86	416.62
371.06	414.27
371.25	491.51
371.45	477.47
371.65	374.49
371.84	475.13
372.04	444.70
372.24	489.17
372.44	372.15
372.63	463.43
372.83	468.11
373.03	540.66
373.22	514.92
373.42	463.43
373.62	571.09
373.81	538.32
374.01	582.79
374.21	596.84
374.40	585.13
374.60	559.39
374.79	573.43
374.99	596.84
375.19	566.41
375.38	599.18
375.58	566.41
375.78	545.34
375.97	615.56
376.17	660.03
376.37	624.92
376.56	601.52
376.76	622.58
376.95	603.86
377.15	608.54
377.35	624.92
377.54	568.75
377.74	599.18
377.93	564.07
378.13	622.58
378.33	671.73
378.52	695.14
378.72	627.26
378.91	727.91
379.11	755.99
379.31	643.65
379.50	622.58
379.70	779.40
379.89	697.48
380.09	671.73
380.28	629.60
380.48	704.50
380.68	704.50
380.87	688.12
381.07	723.23
381.26	744.29
381.46	716.20
381.65	725.57
381.85	800.46
382.04	660.03
382.24	688.12
382.43	709.18
382.63	695.14
382.83	739.61
383.02	720.88
383.22	755.99
383.41	823.87
383.61	760.67
383.80	772.38
384.00	791.10
384.19	758.33
384.39	802.80
384.58	697.48
384.78	765.36
384.97	816.85
385.17	823.87
385.36	807.48
385.56	772.38
385.75	805.14
385.95	868.34
386.14	751.31
386.34	858.98
386.53	880.04
386.72	786.42
386.92	842.59
387.11	868.34
387.31	877.70
387.50	919.83
387.70	861.32
387.89	823.87
388.09	880.04
388.28	905.79
388.48	842.59
388.67	938.55
388.86	870.68
389.06	917.49
389.25	1057.92
389.45	908.13
389.64	936.21
389.84	1053.24
390.03	1001.75
390.22	1041.54
390.42	943.24
390.61	1107.07
390.81	992.39
391.00	1064.94
391.19	1064.94
391.39	1104.73
391.58	1067.28
391.78	1081.33
391.97	985.37
392.16	1022.81
392.36	1100.05
392.55	1064.94
392.75	945.58
392.94	870.68
393.13	912.81
393.33	983.02
393.52	1036.86
393.71	1055.58
393.91	1118.78
394.10	1060.26
394.29	1186.65
394.49	1170.27
394.68	1198.35
394.88	1242.82
395.07	1193.67
395.26	1228.78
395.46	1245.16
395.65	1188.99
395.84	1172.61
396.04	1233.46
396.23	1256.87
396.42	1196.01
396.62	1186.65
396.81	1259.21
397.00	1163.25
397.19	1270.91
397.39	1411.34
397.58	1378.58
397.77	1350.49
397.97	1385.60
398.16	1509.65
398.35	1462.83
398.55	1474.54
398.74	1495.60
398.93	1504.96
399.12	1416.02
399.32	1446.45
399.51	1486.24
399.70	1514.33
399.90	1535.39
400.09	1511.99
400.28	1535.39
400.47	1633.69
400.67	1614.97
400.86	1610.29
401.05	1614.97
401.24	1626.67
401.44	1769.44
401.63	1734.34
401.82	1722.63
402.01	1727.32
402.21	1713.27
402.40	1781.15
402.59	1802.21
402.78	1753.06
402.97	1788.17
403.17	1804.55
403.36	1881.79
403.55	1790.51
403.74	1813.92
403.93	1813.92
404.13	1734.34
404.32	1746.04
404.51	1853.70
404.70	1996.48
404.89	1844.34
405.09	1944.99
405.28	1940.30
405.47	1881.79
405.66	2012.86
405.85	1867.75
406.05	1930.94
406.24	1959.03
406.43	2059.67
406.62	2083.08
406.81	2129.89
407.00	2043.29
407.20	2038.61
407.39	2064.35
407.58	2136.91
407.77	2132.23
407.96	2094.78
408.15	2200.10
408.34	2345.22
408.54	2356.92
408.73	2239.89
408.92	2293.72
409.11	2377.98
409.30	2167.34
409.49	2249.25
409.68	2246.91
409.87	2190.74
410.07	2441.18
410.26	2347.56
410.45	2445.86
410.64	2380.32
410.83	2410.75
411.02	2473.95
411.21	2548.84
411.40	2532.46
411.59	2541.82
411.78	2712.68
411.98	2487.99
412.17	2663.53
412.36	2682.25
412.55	2640.12
412.74	2616.72
412.93	2871.84
413.12	2691.62
413.31	2860.13
413.50	2764.17
413.69	2916.31
413.88	2909.29
414.07	3038.02
414.26	2878.86
414.45	2911.63
414.64	2890.56
414.83	2862.48
415.02	3002.91
415.22	3089.51
415.41	3056.74
415.60	3103.55
415.79	3038.02
415.98	3180.79
416.17	3243.98
416.36	3215.90
416.55	3281.43
416.74	3241.64
416.93	3232.28
417.12	3246.32
417.31	3311.86
417.50	3302.50
417.69	3543.57
417.88	3414.84
418.07	3304.84
418.26	3506.12
418.45	3433.57
418.64	3576.34
418.83	3524.85
419.02	3669.96
419.21	3506.12
419.39	3641.87
419.58	3545.91
419.77	3609.11
419.96	3726.13
420.15	3623.15
420.34	3597.40
420.53	3791.67
420.72	3737.84
420.91	3765.92
421.10	3658.26
421.29	3784.65
421.48	3712.09
421.67	3927.42
421.86	3705.07
422.05	3836.14
422.24	3836.14
422.43	3672.30
422.61	3695.71
422.80	3941.46
422.99	3815.07
423.18	3871.25
423.37	4030.40
423.56	3761.24
423.75	3861.88
423.94	3864.22
424.13	3747.20
424.32	3758.90
424.50	3943.80
424.69	3882.95
424.88	4081.89
425.07	3822.09
425.26	3850.18
425.45	3866.56
425.64	3894.65
425.83	3868.91
426.01	3873.59
426.20	3854.86
426.39	4070.19
426.58	3838.48
426.77	3824.44
426.96	3969.55
427.15	4023.38
427.33	3948.48
427.52	3918.06
427.71	4056.15
427.90	4086.58
428.09	4095.94
428.28	4100.62
428.46	4065.51
428.65	4117.00
428.84	4243.39
429.03	4294.88
429.22	4187.22
429.40	4250.41
429.59	4161.47
429.78	3929.76
429.97	3873.59
430.16	3878.27
430.34	3985.93
430.53	4135.73
430.72	4142.75
430.91	4159.13
431.10	4166.15
431.28	4535.96
431.47	4681.07
431.66	4573.41
431.85	4468.08
432.03	4580.43
432.22	4564.04
432.41	4624.90
432.60	4669.37
432.79	4638.94
432.97	4762.99
433.16	4641.28
433.35	4608.51
433.54	4660.01
433.72	4594.47
433.91	4676.39
434.10	4748.95
434.28	4826.18
434.47	4723.20
434.66	4915.12
434.85	4933.85
435.03	4933.85
435.22	4940.87
435.41	4980.66
435.59	4987.68
435.78	5036.83
435.97	5130.45
436.16	5191.31
436.34	5029.81
436.53	5029.81
436.72	5095.35
436.90	5036.83
437.09	5111.73
437.28	4898.74
437.46	5027.47
437.65	5093.01
437.84	5247.48
438.02	5177.26
438.21	5013.43
438.40	5167.90
438.58	5249.82
438.77	5263.86
438.96	5439.40
439.14	5577.50
439.33	5561.11
439.52	5584.52
439.70	5636.01
439.89	5591.54
440.08	5633.67
440.26	5577.50
440.45	5673.46
440.63	5769.42
440.82	5951.98
441.01	5940.28
441.19	6085.39
441.38	5935.60
441.57	6038.58
441.75	6162.63
441.94	6328.81
442.12	6221.14
442.31	6436.47
442.50	6494.99
442.68	6202.42
442.87	6298.38
443.05	6200.08
443.24	6431.79
443.43	6370.94
443.61	6253.91
443.80	6525.41
443.98	6377.96
444.17	6111.14
444.35	6539.46
444.54	6520.73
444.73	6602.65
444.91	6506.69
445.10	6429.45
445.28	6413.07
445.47	6214.12
445.65	6417.75
445.84	6413.07
446.02	6462.22
446.21	6279.66
446.39	6539.46
446.58	6565.20
446.77	6593.29
446.95	6525.41
447.14	6689.25
447.32	6633.08
447.51	6476.26
447.69	6602.65
447.88	6658.82
448.06	6616.69
448.25	6588.61
448.43	6651.80
448.62	6583.93
448.80	6633.08
448.99	6775.85
449.17	6663.51
449.36	6867.13
449.54	6752.45
449.73	7070.76
449.91	7073.10
450.10	6939.69
450.28	7192.47
450.46	7033.31
450.65	7084.80
450.83	7169.06
451.02	7033.31
451.20	7239.28
451.39	7126.93
451.57	7035.65
451.76	7201.83
451.94	7218.21
452.13	7068.42
452.31	7192.47
452.49	7082.46
452.68	7089.48
452.86	7255.66
453.05	7372.69
453.23	7307.15
453.42	7159.70
453.60	7307.15
453.78	7428.86
453.97	7295.45
454.15	7281.41
454.34	7410.14
454.52	7559.93
454.70	7508.44
454.89	7578.65
455.07	7440.56
455.26	7494.40
455.44	7737.81
455.62	7637.17
455.81	7723.77
455.99	7758.88
456.17	7831.43
456.36	7847.82
456.54	8070.17
456.73	7716.75
456.91	8121.66
457.09	8248.05
457.28	8313.58
457.46	7976.55
457.64	8088.89
457.83	8362.73
458.01	8025.70
458.19	8138.04
458.38	8152.09
458.56	8105.28
458.74	8184.85
458.93	8184.85
459.11	8166.13
459.29	8290.18
459.48	8147.40
459.66	8170.81
459.84	8224.64
460.03	8573.38
460.21	8369.76
460.39	8512.53
460.57	8561.68
460.76	8301.88
460.94	8697.43
461.12	8566.36
461.31	8404.86
461.49	8381.46
461.67	8571.04
461.85	8730.20
462.04	8702.11
462.22	9423.00
462.40	8917.44
462.59	8688.07
462.77	8987.66
462.95	9046.17
463.13	8910.42
463.32	8805.10
463.50	8851.91
463.68	8875.31
463.86	8908.08
464.05	8603.81
464.23	9071.92
464.41	9085.96
464.59	8800.41
464.78	9109.36
464.96	9139.79
465.14	8933.82
465.32	9104.68
465.50	9273.20
465.69	9320.01
465.87	8992.34
466.05	9137.45
466.23	8987.66
466.41	9210.01
466.60	9221.71
466.78	9294.27
466.96	9205.33
467.14	9163.20
467.32	9280.22
467.51	9469.81
467.69	9064.89
467.87	9378.53
468.05	9640.67
468.23	9507.26
468.41	9394.91
468.60	9561.09
468.78	9722.59
468.96	9479.17
469.14	9736.63
469.32	9703.86
469.50	9486.19
469.69	9544.70
469.87	9860.68
470.05	9776.42
470.23	9781.10
470.41	9715.56
470.59	9748.33
470.77	9809.19
470.95	9699.18
471.14	10061.96
471.32	9844.29
471.50	10174.31
471.68	10312.40
471.86	10059.62
472.04	10260.91
472.22	10420.06
472.40	10352.19
472.58	10586.24
472.77	10527.73
472.95	10368.57
473.13	10789.87
473.31	10263.25
473.49	10633.05
473.67	10483.26
473.85	10647.10
474.03	10972.43
474.21	10979.45
474.39	11073.07
474.57	10867.11
474.75	10848.38
474.93	11213.51
475.12	10906.90
475.30	11243.93
475.48	11412.45
475.66	11307.13
475.84	11274.36
476.02	11367.98
476.20	11115.20
476.38	11644.17
476.56	11826.73
476.74	11974.18
476.92	11630.12
477.10	11819.71
477.28	11889.92
477.46	12187.17
477.64	12121.63
477.82	12297.17
478.00	12503.14
478.18	12629.53
478.36	12456.33
478.54	12727.83
478.72	12746.56
478.90	13015.72
479.08	12877.63
479.26	12882.31
479.44	13242.75
479.62	13275.52
479.80	13123.38
479.98	13275.52
480.16	13544.68
480.34	13493.19
480.52	13600.85
480.70	13701.50
480.88	13366.80
481.06	13846.61
481.24	14005.77
481.41	14078.32
481.59	14373.23
481.77	14382.59
481.95	14031.51
482.13	14555.79
482.31	14391.95
482.49	15250.93
482.67	14747.72
482.85	14684.52
483.03	15000.49
483.21	15316.47
483.39	15295.40
483.57	15339.87
483.74	15426.47
483.92	15644.14
484.10	15304.76
484.28	15765.85
484.46	16037.35
484.64	16355.66
484.82	15782.23
485.00	16231.62
485.18	16355.66
485.35	16437.58
485.53	16140.33
485.71	16025.65
485.89	16482.05
486.07	16503.12
486.25	16648.23
486.43	16762.92
486.61	17116.34
486.78	17135.06
486.96	16999.31
487.14	17596.15
487.32	17727.22
487.50	17891.06
487.68	17701.47
487.85	18354.48
488.03	18600.24
488.21	18518.32
488.39	18324.05
488.57	18539.38
488.75	18848.33
488.92	19047.28
489.10	19250.91
489.28	19124.52
489.46	19428.79
489.64	19660.50
489.81	19988.18
489.99	19983.49
490.17	19807.95
490.35	20402.45
490.53	20121.59
490.70	20524.16
490.88	20161.37
491.06	20828.43
491.24	20559.27
491.41	20589.69
491.59	20769.91
491.77	20938.43
491.95	20957.16
492.13	21287.17
492.30	21451.01
492.48	21486.12
492.66	21483.78
492.84	21879.33
493.01	21963.59
493.19	21818.47
493.37	22054.87
493.54	21951.88
493.72	22478.50
493.90	22607.23
494.08	22829.59
494.25	23012.15
494.43	23042.57
494.61	23241.52
494.79	23454.51
494.96	23185.35
495.14	23096.41
495.32	23583.24
495.49	23789.20
495.67	23482.59
495.85	24189.44
496.02	24177.73
496.20	24292.42
496.38	24549.88
496.55	24503.07
496.73	24996.92
496.91	24458.60
497.09	24800.32
497.26	25345.66
497.44	25312.89
497.62	25041.39
497.79	24980.54
497.97	24896.28
498.14	25329.28
498.32	25212.25
498.50	25504.82
498.67	25928.45
498.85	25612.48
499.03	25972.92
499.20	26155.49
499.38	25909.73
499.56	26136.76
499.73	26340.39
499.91	26328.69
500.08	26742.96
500.26	26410.60
500.44	26176.55
500.61	26412.95
500.79	26579.12
500.97	26576.78
501.14	27290.65
501.32	27131.49
501.49	26888.07
501.67	26843.60
501.84	27335.12
502.02	27269.58
502.20	27208.73
502.37	27824.29
502.55	27688.54
502.72	27747.05
502.90	28027.92
503.07	27711.94
503.25	28229.20
503.43	27819.61
503.60	27730.67
503.78	27974.08
503.95	28020.89
504.13	28346.23
504.30	28877.53
504.48	28350.91
504.65	28570.92
504.83	28676.24
505.01	28835.40
505.18	29244.99
505.36	29266.06
505.53	29146.69
505.71	29591.39
505.88	29371.38
506.06	29153.71
506.23	29752.89
506.41	29139.67
506.58	29560.97
506.76	29862.90
506.93	29811.40
507.11	30031.41
507.28	29996.31
507.46	29984.60
507.63	29832.47
507.81	30415.26
507.98	29940.13
508.16	30443.35
508.33	30206.95
508.50	30705.49
508.68	31122.10
508.85	31119.76
509.03	30890.39
509.20	31295.30
509.38	31307.01
509.55	31065.93
509.73	30984.01
509.90	31009.76
510.08	31201.68
510.25	31283.60
510.42	31669.79
510.60	31651.06
510.77	31763.41
510.95	31732.98
511.12	31489.57
511.30	31615.96
511.47	32027.89
511.64	32329.82
511.82	32624.73
511.99	31899.16
512.17	32053.64
512.34	31908.52
512.51	32751.12
512.69	32510.04
512.86	32374.29
513.04	33251.99
513.21	33078.79
513.38	32634.09
513.56	32533.45
513.73	32865.80
513.90	32580.26
514.08	32809.63
514.25	32694.94
514.43	33441.57
514.60	32931.34
514.77	33156.03
514.95	33596.05
515.12	33528.17
515.29	33422.85
515.47	34338.00
515.64	33806.70
515.81	33799.68
515.99	33787.97
516.16	33670.95
516.33	33198.16
516.51	33907.34
516.68	33057.73
516.85	33579.67
517.03	33881.60
517.20	33764.57
517.37	33998.62
517.54	34464.39
517.72	34321.62
517.89	34000.96
518.06	34267.78
518.24	34150.76
518.41	34143.74
518.58	34649.29
518.75	34195.23
518.93	34419.92
519.10	34906.75
519.27	34653.97
519.45	34649.29
519.62	35152.51
519.79	35358.47
519.96	35328.05
520.14	35330.39
520.31	35243.79
520.48	35639.34
520.65	35211.02
520.83	35917.86
521.00	35681.47
521.17	35845.30
521.34	35983.40
521.52	36067.66
521.69	35952.97
521.86	35910.84
522.03	36463.21
522.20	36025.53
522.38	36423.42
522.55	36477.25
522.72	36336.82
522.89	36617.68
523.07	36388.31
523.24	36577.89
523.41	36828.33
523.58	36858.76
523.75	37193.45
523.92	37207.50
524.10	37275.37
524.27	37734.12
524.44	37088.13
524.61	36975.78
524.78	37345.59
524.96	37530.49
525.13	37668.58
525.30	37830.08
525.47	37605.39
525.64	37200.47
525.81	37589.00
525.98	37322.18
526.16	37497.72
526.33	37209.84
526.50	37284.73
526.67	37113.87
526.84	37401.76
527.01	37638.15
527.18	37507.08
527.36	38232.65
527.53	37647.52
527.70	38213.93
527.87	38731.18
528.04	38382.45
528.21	38471.39
528.38	38653.95
528.55	38799.06
528.72	38782.68
528.89	39030.77
529.07	38988.64
529.24	38342.66
529.41	38883.32
529.58	38457.34
529.75	39007.37
529.92	38780.34
530.09	39131.42
530.26	39381.85
530.43	39131.42
530.60	38899.70
530.77	39290.57
530.94	38958.22
531.11	38773.31
531.28	39292.91
531.46	39545.69
531.63	39489.52
531.80	39466.11
531.97	39608.89
532.14	39143.12
532.31	39136.10
532.48	39952.94
532.65	39653.36
532.82	39367.81
532.99	39494.20
533.16	39388.88
533.33	40060.61
533.50	39988.05
533.67	40006.78
533.84	39934.22
534.01	39948.26
534.18	40098.06
534.35	40430.41
534.52	40084.01
534.69	40388.28
534.86	40573.19
535.03	40341.47
535.20	40999.16
535.37	40917.25
535.54	40725.32
535.71	40179.98
535.88	40861.07
536.05	40526.38
536.22	40655.11
536.38	40718.30
536.55	40828.30
536.72	40713.62
536.89	40453.82
537.06	40650.42
537.23	41015.55
537.40	41104.49
537.57	40978.10
537.74	40814.26
537.91	41167.68
538.08	40767.45
538.25	41116.19
538.42	41226.20
538.59	41186.41
538.75	41078.74
538.92	40919.59
539.09	41013.21
539.26	41385.35
539.43	41277.69
539.60	41574.94
539.77	40933.63
539.94	41118.53
540.11	41010.87
540.28	41186.41
540.44	41698.98
540.61	41345.56
540.78	41516.42
540.95	41483.66
541.12	41387.69
541.29	41518.76
541.46	41579.62
541.62	41741.11
541.79	42033.68
541.96	41493.02
542.13	41951.76
542.30	41710.69
542.47	41741.11
542.63	42251.35
542.80	42260.71
542.97	42323.91
543.14	42852.87
543.31	42607.11
543.48	42487.74
543.64	43051.81
543.81	42759.25
543.98	42691.37
544.15	42635.20
544.32	43009.68
544.48	43100.97
544.65	42590.73
544.82	43351.40
544.99	42749.88
545.16	42555.62
545.32	42923.08
545.49	43524.60
545.66	43639.29
545.83	43393.53
546.00	43421.62
546.16	42859.89
546.33	42906.70
546.50	43365.45
546.67	43182.88
546.83	42829.46
547.00	42937.13
547.17	43175.86
547.34	43381.83
547.50	43208.63
547.67	43330.34
547.84	43051.81
548.00	43648.65
548.17	43629.93
548.34	43419.28
548.51	43693.12
548.67	44074.63
548.84	43931.86
549.01	43665.03
549.18	43751.63
549.34	43901.43
549.51	43995.05
549.68	43964.62
549.84	43885.04
550.01	43929.51
550.18	43438.00
550.34	44020.80
550.51	43564.39
550.68	43885.04
550.84	43267.14
551.01	44472.52
551.18	43878.02
551.34	44062.93
551.51	44381.24
551.68	43938.88
551.84	44385.92
552.01	44751.04
552.18	44179.95
552.34	43985.69
552.51	44238.47
552.68	44121.44
552.84	44673.81
553.01	43955.26
553.18	44325.07
553.34	44418.69
553.51	43959.94
553.67	44638.70
553.84	44755.72
554.01	44790.83
554.17	44973.39
554.34	44671.46
554.51	45097.44
554.67	44315.70
554.84	44383.58
555.00	44722.96
555.17	44463.16
555.33	44610.61
555.50	44552.10
555.67	44645.72
555.83	44327.41
556.00	44650.40
556.16	45226.17
556.33	44760.40
556.50	44725.30
556.66	45113.83
556.83	44624.65
556.99	45095.10
557.16	44926.58
557.32	44807.22
557.49	45055.31
557.65	44807.22
557.82	45043.61
557.98	44849.35
558.15	45455.54
558.32	44985.10
558.48	44811.90
558.65	44863.39
558.81	44928.92
558.98	44980.42
559.14	45254.26
559.31	45305.75
559.47	45478.95
559.64	45282.34
559.80	45450.86
559.97	45038.93
560.13	44964.03
560.30	45104.46
560.46	45474.27
560.63	45151.27
560.79	45434.48
560.96	45453.20
561.12	45504.70
561.29	45483.63
561.45	45455.54
561.61	45326.81
561.78	45064.67
561.94	45347.88
562.11	45446.18
562.27	45209.79
562.44	45502.35
562.60	45198.09
562.77	45881.52
562.93	45399.37
563.10	45474.27
563.26	45078.72
563.42	45598.32
563.59	45233.19
563.75	45165.32
563.92	45752.79
564.08	45874.50
564.24	45893.22
564.41	45516.40
564.57	45619.38
564.74	45336.18
564.90	45925.99
565.07	45579.59
565.23	45605.34
565.39	45507.04
565.56	45415.76
565.72	45593.64
565.88	45649.81
566.05	45595.98
566.21	45205.11
566.38	45544.48
566.54	45380.65
566.70	46122.60
566.87	46171.75
567.03	45621.72
567.19	46117.92
567.36	46071.10
567.52	45710.66
567.68	45961.10
567.85	45413.41
568.01	45759.81
568.17	45734.07
568.34	45839.39
568.50	45741.09
568.66	45603.00
568.83	45801.94
568.99	45469.59
569.15	45743.43
569.32	45848.75
569.48	45855.78
569.64	46038.34
569.81	45834.71
569.97	45579.59
570.13	46019.61
570.30	45738.75
570.46	45724.71
570.62	45240.21
570.78	45528.10
570.95	45633.42
571.11	46333.24
571.27	45404.05
571.43	46192.81
571.60	45958.76
571.76	46071.10
571.92	45469.59
572.09	46064.08
572.25	45682.58
572.41	45787.90
572.57	46110.89
572.74	46293.46
572.90	46103.87
573.06	46384.74
573.22	45696.62
573.38	45855.78
573.55	45862.80
573.71	46274.73
573.87	46241.96
574.03	46096.85
574.20	46085.15
574.36	45827.69
574.52	45649.81
574.68	45963.44
574.84	45904.93
575.01	45818.33
575.17	45717.68
575.33	45567.89
575.49	45750.45
575.65	46064.08
575.82	46342.61
575.98	46017.27
576.14	46202.18
576.30	46281.75
576.46	45794.92
576.62	45825.35
576.79	45844.07
576.95	45968.12
577.11	46199.83
577.27	46007.91
577.43	46293.46
577.59	45778.54
577.75	45874.50
577.92	45684.92
578.08	45397.03
578.24	45563.21
578.40	45811.31
578.56	46012.59
578.72	45991.53
578.88	46195.15
579.04	46068.76
579.21	46450.27
579.37	45820.67
579.53	46312.18
579.69	46028.98
579.85	45785.56
580.01	46433.89
580.17	46424.53
580.33	46368.35
580.49	46305.16
580.65	46534.53
580.82	46043.02
580.98	46003.23
581.14	45970.46
581.30	46026.63
581.46	46244.30
581.62	46167.07
581.78	46082.81
581.94	46164.73
582.10	46115.58
582.26	45970.46
582.42	46246.65
582.58	46213.88
582.74	46021.95
582.90	46087.49
583.06	46557.94
583.22	46326.22
583.38	46253.67
583.54	46206.86
583.70	46513.47
583.86	46422.19
584.02	45787.90
584.18	46387.08
584.34	46085.15
584.50	45858.12
584.66	46120.26
584.82	45921.31
584.98	46529.85
585.14	46082.81
585.30	46176.43
585.46	45867.48
585.62	45776.20
585.78	46195.15
585.94	45958.76
586.10	45869.82
586.26	45497.67
586.42	46309.84
586.58	46197.49
586.74	46309.84
586.90	46239.62
587.06	45989.19
587.22	46099.19
587.38	45879.18
587.54	46157.70
587.70	46307.50
587.86	46284.09
588.02	45701.30
588.18	46225.58
588.34	45982.16
588.49	45373.63
588.65	45322.13
588.81	45808.96
588.97	46019.61
589.13	45603.00
589.29	45743.43
589.45	45820.67
589.61	45603.00
589.77	46380.06
589.93	46014.93
