SpectraSuite Data File
++++++++++++++++++++++++++++++++++++
Date: Fri Oct 25 10:47:10 EDT 2013
User: price-jones
Dark Spectrum Present: No
Reference Spectrum Present: No
Number of Sampled Component Spectra: 1
Spectrometers: USB2+H05261
Integration Time (usec): 100000 (USB2+H05261)
Spectra Averaged: 1 (USB2+H05261)
Boxcar Smoothing: 0 (USB2+H05261)
Correct for Electrical Dark: No (USB2+H05261)
Strobe/Lamp Enabled: No (USB2+H05261)
Correct for Detector Non-linearity: No (USB2+H05261)
Correct for Stray Light: No (USB2+H05261)
Number of Pixels in Processed Spectrum: 2048
>>>>>Begin Processed Spectral Data<<<<<
365.73	138.09
365.92	138.09
366.12	138.09
366.32	49.15
366.52	14.04
366.72	58.51
366.91	56.17
367.11	39.79
367.31	28.09
367.51	37.45
367.70	0.00
367.90	30.43
368.10	79.58
368.30	88.94
368.49	121.71
368.69	102.98
368.89	72.56
369.09	168.52
369.28	124.05
369.48	35.11
369.68	46.81
369.87	81.92
370.07	189.58
370.27	138.09
370.47	238.73
370.66	388.53
370.86	456.40
371.06	437.68
371.25	449.38
371.45	451.72
371.65	524.28
371.84	437.68
372.04	416.62
372.24	442.36
372.44	524.28
372.63	437.68
372.83	517.26
373.03	601.52
373.22	559.39
373.42	479.81
373.62	435.34
373.81	552.37
374.01	613.22
374.21	500.87
374.40	564.07
374.60	538.32
374.79	573.43
374.99	533.64
375.19	524.28
375.38	528.96
375.58	505.56
375.78	629.60
375.97	486.83
376.17	587.47
376.37	617.90
376.56	620.24
376.76	582.79
376.95	578.11
377.15	580.45
377.35	631.94
377.54	624.92
377.74	578.11
377.93	585.13
378.13	496.19
378.33	617.90
378.52	620.24
378.72	610.88
378.91	629.60
379.11	608.54
379.31	627.26
379.50	692.80
379.70	620.24
379.89	655.35
380.09	718.54
380.28	671.73
380.48	667.05
380.68	664.71
380.87	667.05
381.07	664.71
381.26	629.60
381.46	620.24
381.65	671.73
381.85	657.69
382.04	681.10
382.24	669.39
382.43	758.33
382.63	610.88
382.83	683.44
383.02	622.58
383.22	711.52
383.41	667.05
383.61	737.27
383.80	657.69
384.00	744.29
384.19	650.67
384.39	741.95
384.58	751.31
384.78	744.29
384.97	723.23
385.17	748.97
385.36	657.69
385.56	760.67
385.75	699.82
385.95	723.23
386.14	861.32
386.34	744.29
386.53	791.10
386.72	753.65
386.92	805.14
387.11	821.53
387.31	814.51
387.50	809.83
387.70	800.46
387.89	828.55
388.09	833.23
388.28	856.64
388.48	819.19
388.67	861.32
388.86	861.32
389.06	788.76
389.25	851.96
389.45	896.43
389.64	889.40
389.84	877.70
390.03	868.34
390.22	933.87
390.42	917.49
390.61	887.06
390.81	910.47
391.00	863.66
391.19	908.13
391.39	847.27
391.58	891.74
391.78	964.30
391.97	978.34
392.16	964.30
392.36	987.71
392.55	961.96
392.75	922.17
392.94	936.21
393.13	912.81
393.33	903.45
393.52	999.41
393.71	1029.84
393.91	1027.50
394.10	976.00
394.29	966.64
394.49	1046.22
394.68	1062.60
394.88	1055.58
395.07	1081.33
395.26	1032.18
395.46	1074.31
395.65	1149.20
395.84	1146.86
396.04	1149.20
396.23	1057.92
396.42	1121.12
396.62	1130.48
396.81	1184.31
397.00	1181.97
397.19	1240.48
397.39	1174.95
397.58	1294.32
397.77	1130.48
397.97	1303.68
398.16	1188.99
398.35	1315.38
398.55	1263.89
398.74	1359.85
398.93	1359.85
399.12	1420.71
399.32	1359.85
399.51	1294.32
399.70	1289.64
399.90	1284.95
400.09	1315.38
400.28	1369.21
400.47	1287.29
400.67	1380.92
400.86	1355.17
401.05	1427.73
401.24	1413.68
401.44	1437.09
401.63	1401.98
401.82	1483.90
402.01	1530.71
402.21	1409.00
402.40	1448.79
402.59	1579.86
402.78	1530.71
402.97	1476.88
403.17	1542.41
403.36	1607.95
403.55	1596.25
403.74	1654.76
403.93	1579.86
404.13	1596.25
404.32	1636.03
404.51	1621.99
404.70	1696.89
404.89	1593.90
405.09	1771.79
405.28	1689.87
405.47	1699.23
405.66	1682.85
405.85	1631.35
406.05	1703.91
406.24	1743.70
406.43	1790.51
406.62	1853.70
406.81	1827.96
407.00	1816.26
407.20	1797.53
407.39	1753.06
407.58	1853.70
407.77	1952.01
407.96	1874.77
408.15	1956.69
408.34	1856.04
408.54	1947.33
408.73	1944.99
408.92	1984.77
409.11	2057.33
409.30	2071.37
409.49	1959.03
409.68	1982.43
409.87	1952.01
410.07	2111.16
410.26	2120.53
410.45	2050.31
410.64	2062.01
410.83	2235.21
411.02	2162.66
411.21	2087.76
411.40	2120.53
411.59	2176.70
411.78	2279.68
411.98	2307.77
412.17	2228.19
412.36	2277.34
412.55	2356.92
412.74	2438.84
412.93	2476.29
413.12	2352.24
413.31	2441.18
413.50	2457.56
413.69	2530.12
413.88	2466.92
414.07	2438.84
414.26	2626.08
414.45	2523.10
414.64	2572.25
414.83	2754.81
415.02	2658.85
415.22	2682.25
415.41	2665.87
415.60	2738.43
415.79	2841.41
415.98	2899.92
416.17	2864.82
416.36	2942.05
416.55	2733.75
416.74	2813.32
416.93	2913.97
417.12	2836.73
417.31	2867.16
417.50	2904.60
417.69	2979.50
417.88	2937.37
418.07	2939.71
418.26	2991.20
418.45	2965.46
418.64	3222.92
418.83	3171.43
419.02	3038.02
419.21	3141.00
419.39	3042.70
419.58	3180.79
419.77	2974.82
419.96	3178.45
420.15	3166.74
420.34	3272.07
420.53	3227.60
420.72	3262.71
420.91	3304.84
421.10	3356.33
421.29	3487.40
421.48	3323.56
421.67	3421.86
421.86	3335.26
422.05	3349.31
422.24	3375.05
422.43	3372.71
422.61	3485.06
422.80	3445.27
422.99	3339.94
423.18	3459.31
423.37	3431.23
423.56	3478.04
423.75	3499.10
423.94	3375.05
424.13	3265.05
424.32	3274.41
424.50	3520.17
424.69	3604.42
424.88	3452.29
425.07	3349.31
425.26	3428.88
425.45	3461.65
425.64	3442.93
425.83	3496.76
426.01	3641.87
426.20	3578.68
426.39	3515.48
426.58	3592.72
426.77	3550.59
426.96	3564.64
427.15	3499.10
427.33	3630.17
427.52	3531.87
427.71	3527.19
427.90	3655.92
428.09	3782.31
428.28	3602.08
428.46	3840.82
428.65	3714.43
428.84	3831.46
429.03	3878.27
429.22	3632.51
429.40	3712.09
429.59	3758.90
429.78	3632.51
429.97	3543.57
430.16	3737.84
430.34	3702.73
430.53	3882.95
430.72	3878.27
430.91	3761.24
431.10	3852.52
431.28	4021.04
431.47	4051.47
431.66	4032.74
431.85	3899.33
432.03	4028.06
432.22	4283.18
432.41	4177.86
432.60	4194.24
432.79	4035.08
432.97	4280.84
433.16	4124.02
433.35	4149.77
433.54	4140.41
433.72	4135.73
433.91	4234.03
434.10	4205.94
434.28	4231.69
434.47	4397.87
434.66	4367.44
434.85	4395.53
435.03	4463.40
435.22	4292.54
435.41	4432.97
435.59	4369.78
435.78	4416.59
435.97	4447.02
436.16	4447.02
436.34	4521.92
436.53	4519.57
436.72	4678.73
436.90	4496.17
437.09	4662.35
437.28	4418.93
437.46	4514.89
437.65	4557.02
437.84	4667.03
438.02	4622.56
438.21	4762.99
438.40	4622.56
438.58	4660.01
438.77	4863.63
438.96	4704.48
439.14	4858.95
439.33	4856.61
439.52	4891.72
439.70	5102.37
439.89	5104.71
440.08	5102.37
440.26	5088.32
440.45	5076.62
440.63	5149.18
440.82	5231.10
441.01	5188.97
441.19	5172.58
441.38	5446.43
441.57	5296.63
441.75	5455.79
441.94	5533.03
442.12	5397.28
442.31	5502.60
442.50	5455.79
442.68	5631.33
442.87	5631.33
443.05	5589.20
443.24	5736.65
443.43	5621.97
443.61	5680.48
443.80	5764.74
443.98	5542.39
444.17	5493.24
444.35	5643.03
444.54	5846.66
444.73	5774.10
444.91	5764.74
445.10	5706.23
445.28	5617.29
445.47	5685.16
445.65	5675.80
445.84	5762.40
446.02	5823.25
446.21	5771.76
446.39	5668.78
446.58	5895.81
446.77	5863.04
446.95	5802.19
447.14	5661.76
447.32	5806.87
447.51	5778.78
447.69	5942.62
447.88	5764.74
448.06	5816.23
448.25	5837.30
448.43	5858.36
448.62	5928.58
448.80	5914.53
448.99	5872.40
449.17	5966.03
449.36	5975.39
449.54	6017.52
449.73	6090.07
449.91	6202.42
450.10	6179.01
450.28	6349.87
450.46	6340.51
450.65	6209.44
450.83	6415.41
451.02	5996.45
451.20	6399.02
451.39	6328.81
451.57	6373.28
451.76	6186.04
451.94	6326.47
452.13	6410.73
452.31	6298.38
452.49	6314.77
452.68	6441.15
452.86	6396.68
453.05	6506.69
453.23	6572.22
453.42	6422.43
453.60	6441.15
453.78	6590.95
453.97	6354.55
454.15	6523.07
454.34	6595.63
454.52	6670.53
454.70	6572.22
454.89	6698.61
455.07	6731.38
455.26	6792.23
455.44	6836.70
455.62	6672.87
455.81	6906.92
455.99	6803.94
456.17	6991.18
456.36	6836.70
456.54	7005.22
456.73	7159.70
456.91	7171.40
457.09	7000.54
457.28	7384.39
457.46	7119.91
457.64	7236.94
457.83	7185.44
458.01	7077.78
458.19	7260.34
458.38	7318.86
458.56	7316.51
458.74	7360.98
458.93	7321.20
459.11	7337.58
459.29	7101.19
459.48	7503.76
459.66	7311.83
459.84	7281.41
460.03	7613.76
460.21	7424.18
460.39	7653.55
460.57	7538.87
460.76	7693.34
460.94	7634.83
461.12	7700.36
461.31	7676.96
461.49	7791.64
461.67	7744.83
461.85	7819.73
462.04	7501.42
462.22	8271.45
462.40	8018.68
462.59	7845.48
462.77	7840.79
462.95	7843.14
463.13	7695.68
463.32	7882.92
463.50	7850.16
463.68	7889.95
463.86	7936.76
464.05	7810.37
464.23	7850.16
464.41	8194.22
464.59	7749.51
464.78	8243.37
464.96	7990.59
465.14	8095.91
465.32	8315.92
465.50	8374.44
465.69	8320.60
465.87	8201.24
466.05	8175.49
466.23	8088.89
466.41	8091.23
466.60	8255.07
466.78	8112.30
466.96	8217.62
467.14	8180.17
467.32	8205.92
467.51	8655.30
467.69	8344.01
467.87	8346.35
468.05	8400.18
468.23	8454.02
468.41	8348.69
468.60	8355.71
468.78	8702.11
468.96	8549.98
469.14	8369.76
469.32	8505.51
469.50	8514.87
469.69	8798.07
469.87	8631.90
470.05	8805.10
470.23	8716.16
470.41	8784.03
470.59	8840.20
470.77	8903.40
470.95	8835.52
471.14	8929.14
471.32	8975.95
471.50	9095.32
471.68	9163.20
471.86	9268.52
472.04	9322.35
472.22	9500.23
472.40	9139.79
472.58	9357.46
472.77	9121.07
472.95	9432.36
473.13	9696.84
473.31	9378.53
473.49	9451.08
473.67	9558.75
473.85	9605.56
474.03	9685.14
474.21	9867.70
474.39	9935.57
474.57	10040.90
474.75	9745.99
474.93	9942.60
475.12	9916.85
475.30	9954.30
475.48	10092.39
475.66	9998.77
475.84	9998.77
476.02	10129.84
476.20	10148.56
476.38	10331.12
476.56	10637.73
476.74	10724.33
476.92	10527.73
477.10	10530.07
477.28	10871.79
477.46	10853.06
477.64	10721.99
477.82	10998.18
478.00	11239.25
478.18	11176.06
478.36	11283.72
478.54	11393.73
478.72	11192.44
478.90	11442.88
479.08	11775.24
479.26	11435.86
479.44	11852.47
479.62	11688.64
479.80	11763.53
479.98	12018.65
480.16	12116.95
480.34	12018.65
480.52	12138.02
480.70	12322.92
480.88	12219.94
481.06	12395.48
481.24	12280.79
481.41	12840.18
481.59	12896.35
481.77	12971.25
481.95	13050.83
482.13	13083.59
482.31	12872.95
482.49	13490.85
482.67	13273.18
482.85	13518.93
483.03	13322.33
483.21	13628.94
483.39	13696.82
483.57	13502.55
483.74	14008.11
483.92	13872.36
484.10	13792.78
484.28	14141.52
484.46	14235.14
484.64	14375.57
484.82	14459.83
485.00	14663.46
485.18	14714.95
485.35	14820.27
485.53	14988.79
485.71	14881.13
485.89	15222.84
486.07	15019.22
486.25	15229.87
486.43	15372.64
486.61	15655.84
486.78	15620.74
486.96	15751.81
487.14	16030.33
487.32	16126.29
487.50	16271.40
487.68	16418.86
487.85	16582.70
488.03	16716.11
488.21	16980.59
488.39	16772.28
488.57	16819.09
488.75	17027.40
488.92	17036.76
489.10	17263.79
489.28	17462.74
489.46	17605.51
489.64	17624.23
489.81	18274.90
489.99	18155.54
490.17	18394.27
490.35	18506.62
490.53	18293.63
490.70	18431.72
490.88	18508.96
491.06	18925.57
491.24	18796.84
491.41	18899.83
491.59	18576.83
491.77	18817.91
491.95	19398.36
492.13	19112.81
492.30	19541.13
492.48	19513.05
492.66	19669.86
492.84	19449.85
493.01	19896.89
493.19	20018.60
493.37	20233.93
493.54	20231.59
493.72	20212.87
493.90	20547.56
494.08	20875.24
494.25	20744.17
494.43	20964.18
494.61	21247.38
494.79	21207.59
494.96	21120.99
495.14	21291.85
495.32	21362.07
495.49	21577.40
495.67	21394.84
495.85	21209.93
496.02	21837.20
496.20	22218.71
496.38	22061.89
496.55	22003.38
496.73	22572.13
496.91	22665.75
497.09	22548.72
497.26	22855.33
497.44	22728.94
497.62	22897.46
497.79	22885.76
497.97	23105.77
498.14	23154.92
498.32	23587.92
498.50	23662.82
498.67	23592.60
498.85	23747.08
499.03	23871.12
499.20	24037.30
499.38	24049.00
499.56	24182.42
499.73	24156.67
499.91	24154.33
500.08	24409.45
500.26	23985.81
500.44	24589.67
500.61	24390.72
500.79	24196.46
500.97	24746.48
501.14	24917.34
501.32	25137.35
501.49	25043.73
501.67	24790.95
501.84	25062.46
502.02	25172.46
502.20	25032.03
502.37	25486.09
502.55	25291.83
502.72	25750.57
502.90	25518.86
503.07	25558.65
503.25	25816.11
503.43	25481.41
503.60	25708.44
503.78	26073.57
503.95	25858.24
504.13	26265.49
504.30	26672.74
504.48	26150.81
504.65	26639.98
504.83	26654.02
505.01	26881.05
505.18	26639.98
505.36	26913.82
505.53	26604.87
505.71	26941.91
505.88	27145.53
506.06	26878.71
506.23	26757.00
506.41	27264.90
506.58	27056.59
506.76	27351.50
506.93	27463.85
507.11	27309.37
507.28	27566.83
507.46	27772.80
507.63	27756.41
507.81	28020.89
507.98	27733.01
508.16	27620.66
508.33	28362.61
508.50	28395.38
508.68	28528.79
508.85	28655.18
509.03	28568.58
509.20	28198.77
509.38	29085.84
509.55	28856.46
509.73	28924.34
509.90	29113.92
510.08	29071.79
510.25	28842.42
510.42	28886.89
510.60	29242.65
510.77	29521.18
510.95	28926.68
511.12	29193.50
511.30	29380.74
511.47	29717.78
511.64	29675.65
511.82	29890.98
511.99	30108.65
512.17	29783.32
512.34	29827.79
512.51	30260.79
512.69	29773.95
512.86	30314.62
513.04	30410.58
513.21	30061.84
513.38	30305.26
513.56	30199.93
513.73	30473.78
513.90	30817.83
514.08	30260.79
514.25	30646.97
514.43	30492.50
514.60	31049.55
514.77	30632.93
514.95	31079.97
515.12	31051.89
515.29	31044.87
515.47	31021.46
515.64	31534.04
515.81	31194.66
515.99	31236.79
516.16	31489.57
516.33	31924.91
516.51	31648.72
516.68	31037.84
516.85	31307.01
517.03	31718.94
517.20	31489.57
517.37	32243.22
517.54	32063.00
517.72	31737.66
517.89	31866.39
518.06	32224.50
518.24	31992.78
518.41	31882.78
518.58	32044.27
518.75	32257.26
518.93	32484.30
519.10	32528.77
519.27	32594.30
519.45	32540.47
519.62	33125.60
519.79	32685.58
519.96	32943.04
520.14	33270.72
520.31	32858.78
520.48	32971.13
520.65	33165.39
520.83	33736.48
521.00	33589.03
521.17	33455.62
521.34	33251.99
521.52	33479.02
521.69	33436.89
521.86	33589.03
522.03	33858.19
522.20	33521.15
522.38	34106.29
522.55	34183.52
522.72	34024.37
522.89	33944.79
523.07	33996.28
523.24	34052.45
523.41	34555.67
523.58	34246.72
523.75	34433.96
523.92	34415.24
524.10	34717.17
524.27	34574.39
524.44	34721.85
524.61	34808.45
524.78	34979.31
524.96	35206.34
525.13	34918.45
525.30	35037.82
525.47	35522.31
525.64	34918.45
525.81	34946.54
525.98	35098.67
526.16	34820.15
526.33	34962.92
526.50	35360.81
526.67	35056.54
526.84	35201.66
527.01	35295.28
527.18	35002.71
527.36	35772.75
527.53	35512.95
527.70	35997.44
527.87	35995.10
528.04	35695.51
528.21	36208.09
528.38	35601.89
528.55	36294.69
528.72	36273.62
528.89	36381.29
529.07	36421.08
529.24	35796.15
529.41	36627.04
529.58	36261.92
529.75	36112.13
529.92	36182.34
530.09	36570.87
530.26	36182.34
530.43	36692.58
530.60	36430.44
530.77	36367.24
530.94	36825.99
531.11	36648.11
531.28	37350.27
531.46	37017.91
531.63	37158.34
531.80	37092.81
531.97	37031.96
532.14	37141.96
532.31	36847.05
532.48	37120.90
532.65	36671.51
532.82	37015.57
532.99	37415.80
533.16	37139.62
533.33	37333.89
533.50	37675.60
533.67	37563.26
533.84	37474.32
534.01	37771.57
534.18	37514.11
534.35	37963.49
534.52	37495.38
534.69	37893.27
534.86	38082.86
535.03	37736.46
535.20	38085.20
535.37	38068.81
535.54	38064.13
535.71	37963.49
535.88	37977.53
536.05	38375.42
536.22	38487.77
536.38	38197.54
536.55	38387.13
536.72	38497.13
536.89	37881.57
537.06	38258.40
537.23	38499.47
537.40	38183.50
537.57	38511.17
537.74	38525.22
537.91	39140.78
538.08	38714.80
538.25	38778.00
538.42	38698.42
538.59	38843.53
538.75	38609.48
538.92	38440.96
539.09	38728.84
539.26	39278.87
539.43	38672.67
539.60	39049.50
539.77	38562.67
539.94	39264.83
540.11	39159.50
540.28	38927.79
540.44	39124.40
540.61	39206.31
540.78	39433.35
540.95	38920.77
541.12	39236.74
541.29	39218.02
541.46	39414.62
541.62	39257.81
541.79	39484.84
541.96	38862.26
542.13	39590.16
542.30	39313.98
542.47	39672.08
542.63	39679.10
542.80	40208.06
542.97	39847.62
543.14	39966.99
543.31	40032.52
543.48	40378.92
543.64	40297.00
543.81	40713.62
543.98	40226.79
544.15	40498.29
544.32	40304.02
544.48	40517.01
544.65	40526.38
544.82	40488.93
544.99	39901.45
545.16	40720.64
545.32	40425.73
545.49	40795.54
545.66	40584.89
545.83	41057.68
546.00	41130.23
546.16	40863.41
546.33	40449.14
546.50	40844.69
546.67	40657.45
546.83	40502.97
547.00	41371.31
547.17	40982.78
547.34	40856.39
547.50	41642.81
547.67	41237.90
547.84	40842.35
548.00	40935.97
548.17	41338.54
548.34	41387.69
548.51	41588.98
548.67	41001.50
548.84	41413.44
549.01	41375.99
549.18	41441.53
549.34	41308.11
549.51	41687.28
549.68	41696.64
549.84	41359.61
550.01	41331.52
550.18	41649.83
550.34	41521.10
550.51	41457.91
550.68	41375.99
550.84	41745.80
551.01	41846.44
551.18	41397.06
551.34	41930.70
551.51	41677.92
551.68	41954.10
551.84	41993.89
552.01	41605.36
552.18	42206.88
552.34	41958.78
552.51	42129.64
552.68	42080.49
552.84	42103.90
553.01	42277.10
553.18	42211.56
553.34	42384.76
553.51	41811.33
553.67	42309.86
553.84	42560.30
554.01	42082.83
554.17	42761.59
554.34	42373.06
554.51	42476.04
554.67	42738.18
554.84	42452.64
555.00	42445.62
555.17	42253.69
555.33	42726.48
555.50	42850.53
555.67	42543.92
555.83	42415.19
556.00	42656.26
556.16	43100.97
556.33	43339.70
556.50	42450.30
556.66	42344.97
556.83	42562.64
556.99	42749.88
557.16	42705.41
557.32	43037.77
557.49	42845.85
557.65	42497.11
557.82	42607.11
557.98	42607.11
558.15	43477.79
558.32	43182.88
558.48	43061.18
558.65	42710.10
558.81	42590.73
558.98	42986.28
559.14	43257.78
559.31	43175.86
559.47	43117.35
559.64	43594.82
559.80	43023.73
559.97	43384.17
560.13	43185.22
560.30	43201.61
560.46	43281.19
560.63	43225.01
560.79	43241.40
560.96	43374.81
561.12	43189.91
561.29	43157.14
561.45	43292.89
561.61	43498.86
561.78	43374.81
561.94	43271.82
562.11	43232.04
562.27	43428.64
562.44	43470.77
562.60	43538.65
562.77	43777.38
562.93	43487.15
563.10	43543.33
563.26	43072.88
563.42	43665.03
563.59	43386.51
563.75	43501.20
563.92	43672.06
564.08	43718.87
564.24	43842.92
564.41	43281.19
564.57	43093.94
564.74	43505.88
564.90	43421.62
565.07	44058.24
565.23	43742.27
565.39	43796.10
565.56	43775.04
565.72	43615.88
565.88	43271.82
566.05	43480.13
566.21	44327.41
566.38	43765.68
566.54	43477.79
566.70	43924.83
566.87	43955.26
567.03	43693.12
567.19	44519.33
567.36	43964.62
567.52	43896.75
567.68	44100.37
567.85	43681.42
568.01	43723.55
568.17	43828.87
568.34	44179.95
568.50	43887.39
568.66	43833.55
568.83	44147.18
568.99	44030.16
569.15	43868.66
569.32	43821.85
569.48	44107.40
569.64	44430.39
569.81	44065.27
569.97	43978.67
570.13	43892.07
570.30	43973.98
570.46	43665.03
570.62	43679.08
570.78	43906.11
570.95	43548.01
571.11	44568.48
571.27	43992.71
571.43	44151.87
571.60	44165.91
571.76	44238.47
571.92	44259.53
572.09	44210.38
572.25	43950.58
572.41	43962.28
572.57	44545.08
572.74	44397.62
572.90	44081.65
573.06	44282.94
573.22	44123.78
573.38	43962.28
573.55	43665.03
573.71	44406.98
573.87	44095.69
574.03	43784.40
574.20	44215.06
574.36	43917.81
574.52	44287.62
574.68	44603.59
574.84	44542.74
575.01	44357.83
575.17	44282.94
575.33	43959.94
575.49	44257.19
575.65	44582.52
575.82	44580.18
575.98	44271.23
576.14	44708.91
576.30	44516.99
576.46	44191.65
576.62	43791.42
576.79	44390.60
576.95	44020.80
577.11	44048.88
577.27	44390.60
577.43	44430.39
577.59	44425.71
577.75	44521.67
577.92	43885.04
578.08	44023.14
578.24	43910.79
578.40	44081.65
578.56	44030.16
578.72	44353.15
578.88	44238.47
579.04	44521.67
579.21	43896.75
579.37	44156.55
579.53	44374.22
579.69	43983.35
579.85	44308.68
580.01	44477.20
580.17	44308.68
580.33	44678.49
580.49	44495.92
580.65	44568.48
580.82	44444.43
580.98	44561.46
581.14	44320.38
581.30	44718.28
581.46	44505.29
581.62	44596.57
581.78	44247.83
581.94	44973.39
582.10	44369.54
582.26	44615.29
582.42	44933.60
582.58	44556.78
582.74	44116.76
582.90	44402.30
583.06	44484.22
583.22	44151.87
583.38	44685.51
583.54	44334.43
583.70	44898.50
583.86	44479.54
584.02	43658.01
584.18	44615.29
584.34	44231.44
584.50	44320.38
584.66	44208.04
584.82	44301.66
584.98	44540.39
585.14	44926.58
585.30	44486.56
585.46	44474.86
585.62	44091.01
585.78	44425.71
585.94	44093.35
586.10	44484.22
586.26	44765.09
586.42	44619.97
586.58	44404.64
586.74	44964.03
586.90	44708.91
587.06	44870.41
587.22	44486.56
587.38	44250.17
587.54	44741.68
587.70	44477.20
587.86	44570.82
588.02	44701.89
588.18	45111.49
588.34	44369.54
588.49	44392.94
588.65	43995.05
588.81	44069.95
588.97	44107.40
589.13	44378.90
589.29	44744.02
589.45	44989.78
589.61	44816.58
589.77	44879.77
589.93	44868.07
590.08	45013.18
590.24	44961.69
590.40	45038.93
