SpectraSuite Data File
++++++++++++++++++++++++++++++++++++
Date: Fri Oct 25 11:33:40 EDT 2013
User: price-jones
Dark Spectrum Present: No
Reference Spectrum Present: No
Number of Sampled Component Spectra: 1
Spectrometers: USB2+H05261
Integration Time (usec): 100000 (USB2+H05261)
Spectra Averaged: 1 (USB2+H05261)
Boxcar Smoothing: 0 (USB2+H05261)
Correct for Electrical Dark: No (USB2+H05261)
Strobe/Lamp Enabled: No (USB2+H05261)
Correct for Detector Non-linearity: No (USB2+H05261)
Correct for Stray Light: No (USB2+H05261)
Number of Pixels in Processed Spectrum: 2048
>>>>>Begin Processed Spectral Data<<<<<
365.73	271.50
365.92	271.50
366.12	271.50
366.32	184.90
366.52	161.50
366.72	241.08
366.91	208.31
367.11	208.31
367.31	184.90
367.51	107.66
367.70	117.03
367.90	231.71
368.10	166.18
368.30	201.29
368.49	177.88
368.69	196.60
368.89	208.31
369.09	163.84
369.28	227.03
369.48	198.95
369.68	215.33
369.87	311.29
370.07	276.18
370.27	306.61
370.47	353.42
370.66	416.62
370.86	425.98
371.06	543.00
371.25	589.82
371.45	491.51
371.65	608.54
371.84	568.75
372.04	592.16
372.24	517.26
372.44	610.88
372.63	641.31
372.83	578.11
373.03	580.45
373.22	620.24
373.42	645.99
373.62	678.76
373.81	582.79
374.01	678.76
374.21	741.95
374.40	580.45
374.60	660.03
374.79	671.73
374.99	669.39
375.19	627.26
375.38	657.69
375.58	674.07
375.78	573.43
375.97	683.44
376.17	812.17
376.37	711.52
376.56	690.46
376.76	608.54
376.95	655.35
377.15	657.69
377.35	688.12
377.54	620.24
377.74	718.54
377.93	648.33
378.13	697.48
378.33	709.18
378.52	678.76
378.72	695.14
378.91	699.82
379.11	725.57
379.31	748.97
379.50	725.57
379.70	830.89
379.89	732.59
380.09	765.36
380.28	662.37
380.48	753.65
380.68	732.59
380.87	629.60
381.07	744.29
381.26	814.51
381.46	856.64
381.65	781.74
381.85	774.72
382.04	744.29
382.24	760.67
382.43	734.93
382.63	774.72
382.83	816.85
383.02	746.63
383.22	809.83
383.41	926.85
383.61	774.72
383.80	854.30
384.00	894.08
384.19	866.00
384.39	821.53
384.58	826.21
384.78	908.13
384.97	873.02
385.17	760.67
385.36	737.27
385.56	912.81
385.75	830.89
385.95	828.55
386.14	798.12
386.34	835.57
386.53	826.21
386.72	915.15
386.92	880.04
387.11	882.38
387.31	912.81
387.50	880.04
387.70	880.04
387.89	842.59
388.09	1032.18
388.28	968.98
388.48	840.25
388.67	943.24
388.86	924.51
389.06	943.24
389.25	870.68
389.45	985.37
389.64	926.85
389.84	1057.92
390.03	997.07
390.22	901.11
390.42	910.47
390.61	990.05
390.81	912.81
391.00	875.36
391.19	1013.45
391.39	978.34
391.58	954.94
391.78	997.07
391.97	980.68
392.16	1086.01
392.36	1053.24
392.55	1128.14
392.75	1132.82
392.94	966.64
393.13	973.66
393.33	971.32
393.52	1060.26
393.71	1081.33
393.91	1118.78
394.10	1163.25
394.29	1090.69
394.49	1114.10
394.68	1067.28
394.88	1093.03
395.07	1104.73
395.26	1156.22
395.46	1090.69
395.65	1139.84
395.84	1167.93
396.04	1179.63
396.23	1275.59
396.42	1217.08
396.62	1203.04
396.81	1191.33
397.00	1303.68
397.19	1249.85
397.39	1210.06
397.58	1221.76
397.77	1268.57
397.97	1306.02
398.16	1263.89
398.35	1277.93
398.55	1362.19
398.74	1338.79
398.93	1348.15
399.12	1219.42
399.32	1282.61
399.51	1401.98
399.70	1373.89
399.90	1299.00
400.09	1345.81
400.28	1430.07
400.47	1441.77
400.67	1453.47
400.86	1380.92
401.05	1441.77
401.24	1413.68
401.44	1497.94
401.63	1399.64
401.82	1521.35
402.01	1397.30
402.21	1437.09
402.40	1413.68
402.59	1446.45
402.78	1638.38
402.97	1481.56
403.17	1556.46
403.36	1509.65
403.55	1629.01
403.74	1483.90
403.93	1549.43
404.13	1647.74
404.32	1577.52
404.51	1549.43
404.70	1701.57
404.89	1640.72
405.09	1659.44
405.28	1743.70
405.47	1689.87
405.66	1767.10
405.85	1729.66
406.05	1699.23
406.24	1781.15
406.43	1629.01
406.62	1881.79
406.81	1830.30
407.00	1741.36
407.20	1799.87
407.39	1713.27
407.58	1792.85
407.77	1748.38
407.96	1792.85
408.15	1802.21
408.34	1844.34
408.54	1952.01
408.73	1909.88
408.92	1877.11
409.11	1919.24
409.30	2031.58
409.49	1942.64
409.68	2010.52
409.87	1905.20
410.07	2125.21
410.26	2059.67
410.45	2148.61
410.64	1987.11
410.83	2101.80
411.02	2094.78
411.21	2125.21
411.40	2122.87
411.59	2204.78
411.78	2155.63
411.98	2193.08
412.17	2211.81
412.36	2230.53
412.55	2319.47
412.74	2406.07
412.93	2356.92
413.12	2326.49
413.31	2363.94
413.50	2399.05
413.69	2375.64
413.88	2431.82
414.07	2422.45
414.26	2478.63
414.45	2616.72
414.64	2466.92
414.83	2614.38
415.02	2530.12
415.22	2785.24
415.41	2623.74
415.60	2621.40
415.79	2562.89
415.98	2775.88
416.17	2672.89
416.36	2789.92
416.55	2780.56
416.74	2768.85
416.93	2792.26
417.12	2834.39
417.31	2883.54
417.50	2960.78
417.69	2956.10
417.88	2846.09
418.07	2869.50
418.26	2918.65
418.45	2970.14
418.64	2988.86
418.83	3176.11
419.02	3026.31
419.21	3155.04
419.39	3084.83
419.58	3075.46
419.77	3023.97
419.96	3192.49
420.15	3183.13
420.34	3162.06
420.53	3115.25
420.72	3148.02
420.91	3204.19
421.10	3279.09
421.29	3304.84
421.48	3105.89
421.67	3288.45
421.86	3260.37
422.05	3365.69
422.24	3155.04
422.43	3386.76
422.61	3419.52
422.80	3421.86
422.99	3508.46
423.18	3414.84
423.37	3480.38
423.56	3417.18
423.75	3508.46
423.94	3119.93
424.13	3274.41
424.32	3283.77
424.50	3503.78
424.69	3655.92
424.88	3442.93
425.07	3370.37
425.26	3410.16
425.45	3370.37
425.64	3220.58
425.83	3290.79
426.01	3445.27
426.20	3536.55
426.39	3559.95
426.58	3566.98
426.77	3466.33
426.96	3524.85
427.15	3419.52
427.33	3564.64
427.52	3578.68
427.71	3655.92
427.90	3552.93
428.09	3623.15
428.28	3597.40
428.46	3723.79
428.65	3639.53
428.84	3824.44
429.03	3679.32
429.22	3674.64
429.40	3705.07
429.59	3761.24
429.78	3749.54
429.97	3616.13
430.16	3786.99
430.34	3691.02
430.53	3810.39
430.72	3941.46
430.91	3786.99
431.10	3889.97
431.28	4025.72
431.47	3981.25
431.66	3962.53
431.85	3955.51
432.03	4102.96
432.22	4128.70
432.41	4166.15
432.60	4070.19
432.79	4095.94
432.97	4191.90
433.16	4182.54
433.35	4119.34
433.54	4044.45
433.72	4294.88
433.91	4227.01
434.10	4194.24
434.28	4133.39
434.47	4215.30
434.66	4145.09
434.85	4262.12
435.03	4194.24
435.22	4344.03
435.41	4437.66
435.59	4592.13
435.78	4348.72
435.97	4444.68
436.16	4334.67
436.34	4395.53
436.53	4592.13
436.72	4498.51
436.90	4409.57
437.09	4397.87
437.28	4346.37
437.46	4463.40
437.65	4566.39
437.84	4587.45
438.02	4498.51
438.21	4603.83
438.40	4585.11
438.58	4760.65
438.77	4744.27
438.96	4805.12
439.14	4903.42
439.33	4931.51
439.52	4954.91
439.70	5001.72
439.89	5069.60
440.08	4954.91
440.26	5156.20
440.45	5032.15
440.63	4987.68
440.82	5181.95
441.01	5107.05
441.19	5228.76
441.38	5217.05
441.57	5214.71
441.75	5350.46
441.94	5469.83
442.12	5392.59
442.31	5605.58
442.50	5373.87
442.68	5437.06
442.87	5488.56
443.05	5561.11
443.24	5598.56
443.43	5495.58
443.61	5504.94
443.80	5694.52
443.98	5413.66
444.17	5418.34
444.35	5357.49
444.54	5738.99
444.73	5731.97
444.91	5458.13
445.10	5797.51
445.28	5678.14
445.47	5696.86
445.65	5647.71
445.84	5813.89
446.02	5633.67
446.21	5654.73
446.39	5654.73
446.58	5795.17
446.77	5769.42
446.95	5528.35
447.14	5799.85
447.32	5717.93
447.51	5715.59
447.69	5650.05
447.88	5738.99
448.06	5614.95
448.25	5841.98
448.43	5654.73
448.62	5746.02
448.80	5856.02
448.99	5870.06
449.17	6012.84
449.36	5757.72
449.54	6097.10
449.73	6057.31
449.91	6010.50
450.10	6094.76
450.28	6244.55
450.46	6054.97
450.65	6143.91
450.83	6111.14
451.02	6216.46
451.20	6235.19
451.39	6029.22
451.57	6122.84
451.76	6155.61
451.94	6200.08
452.13	6333.49
452.31	6272.64
452.49	6160.29
452.68	6284.34
452.86	6363.92
453.05	6448.18
453.23	6616.69
453.42	6359.24
453.60	6249.23
453.78	6349.87
453.97	6387.32
454.15	6553.50
454.34	6317.11
454.52	6530.09
454.70	6562.86
454.89	6693.93
455.07	6544.14
455.26	6607.33
455.44	6710.32
455.62	6745.42
455.81	6672.87
455.99	6855.43
456.17	6722.02
456.36	6806.28
456.54	6895.22
456.73	6850.75
456.91	7162.04
457.09	6942.03
457.28	7145.66
457.46	7005.22
457.64	6946.71
457.83	7173.74
458.01	7082.46
458.19	7356.30
458.38	7183.10
458.56	7302.47
458.74	7227.57
458.93	7162.04
459.11	7346.94
459.29	7332.90
459.48	7157.36
459.66	7295.45
459.84	7459.29
460.03	7548.23
460.21	7426.52
460.39	7410.14
460.57	7543.55
460.76	7370.35
460.94	7583.34
461.12	7489.71
461.31	7683.98
461.49	7445.24
461.67	7438.22
461.85	7786.96
462.04	7548.23
462.22	7920.37
462.40	7707.38
462.59	7747.17
462.77	7843.14
462.95	7833.77
463.13	7782.28
463.32	7803.35
463.50	7990.59
463.68	8037.40
463.86	7920.37
464.05	7786.96
464.23	7845.48
464.41	7983.57
464.59	7981.23
464.78	8198.90
464.96	7997.61
465.14	7943.78
465.32	8201.24
465.50	8346.35
465.69	8196.56
465.87	7999.95
466.05	8018.68
466.23	8170.81
466.41	8418.91
466.60	8332.31
466.78	8170.81
466.96	8222.30
467.14	8315.92
467.32	8339.33
467.51	8372.10
467.69	8173.15
467.87	8437.63
468.05	8332.31
468.23	8428.27
468.41	8435.29
468.60	8430.61
468.78	8505.51
468.96	8482.10
469.14	8730.20
469.32	8772.33
469.50	8280.82
469.69	8821.48
469.87	8884.67
470.05	8819.14
470.23	8842.54
470.41	8973.61
470.59	8748.92
470.77	8982.98
470.95	9011.06
471.14	8966.59
471.32	8821.48
471.50	9310.65
471.68	9081.28
471.86	9132.77
472.04	9235.75
472.22	9439.38
472.40	9198.31
472.58	9418.32
472.77	9177.24
472.95	9327.03
473.13	9680.46
473.31	9444.06
473.49	9331.72
473.67	9579.81
473.85	9504.92
474.03	9760.03
474.21	9547.05
474.39	9671.09
474.57	9640.67
474.75	10045.58
474.93	10134.52
475.12	9937.91
475.30	9994.09
475.48	9966.00
475.66	10223.46
475.84	10249.21
476.02	10101.75
476.20	10258.57
476.38	10506.66
476.56	10523.05
476.74	10771.15
476.92	10516.03
477.10	10396.66
477.28	10846.04
477.46	10761.78
477.64	10806.25
477.82	11019.24
478.00	11154.99
478.18	11035.63
478.36	11272.02
478.54	11492.03
478.72	11433.52
478.90	11529.48
479.08	11634.80
479.26	11557.57
479.44	11779.92
479.62	11695.66
479.80	11964.82
479.98	11988.22
480.16	12028.01
480.34	12215.26
480.52	12341.64
480.70	12283.13
480.88	12203.55
481.06	12446.97
481.24	12343.99
481.41	12526.55
481.59	12692.73
481.77	12858.90
481.95	12957.21
482.13	13275.52
482.31	12870.61
482.49	13364.46
482.67	13135.09
482.85	13486.17
483.03	13495.53
483.21	13696.82
483.39	14033.85
483.57	13797.46
483.74	13916.83
483.92	14012.79
484.10	14045.55
484.28	14473.87
484.46	14438.76
484.64	14766.44
484.82	14417.70
485.00	14775.80
485.18	15089.43
485.35	15173.69
485.53	15129.22
485.71	15173.69
485.89	15323.49
486.07	15236.89
486.25	15822.02
486.43	15749.46
486.61	15639.46
486.78	15796.28
486.96	16032.67
487.14	16238.64
487.32	16065.44
487.50	16123.95
487.68	16549.93
487.85	16613.12
488.03	16858.88
488.21	17050.80
488.39	16999.31
488.57	17153.79
488.75	17205.28
488.92	17539.97
489.10	17612.53
489.28	17771.69
489.46	18284.26
489.64	17916.80
489.81	18188.30
489.99	18331.08
490.17	18157.88
490.35	18356.82
490.53	18363.84
490.70	18801.52
490.88	18904.51
491.06	18780.46
491.24	19070.68
491.41	19063.66
491.59	19124.52
491.77	19222.82
491.95	19253.25
492.13	19552.84
492.30	19655.82
492.48	19782.21
492.66	19939.02
492.84	19920.30
493.01	20173.08
493.19	20276.06
493.37	20442.24
493.54	20355.64
493.72	20739.49
493.90	20765.23
494.08	20954.82
494.25	20889.28
494.43	21245.04
494.61	21310.58
494.79	21034.39
494.96	21397.18
495.14	21593.78
495.32	22155.51
495.49	21764.64
495.67	21797.41
495.85	21893.37
496.02	22225.73
496.20	22111.04
496.38	22302.96
496.55	22164.87
496.73	22757.03
496.91	22780.43
497.09	22820.22
497.26	23021.51
497.44	23105.77
497.62	23466.21
497.79	23255.56
497.97	23367.91
498.14	23665.16
498.32	23690.90
498.50	23793.89
498.67	23726.01
498.85	24077.09
499.03	24074.75
499.20	23917.93
499.38	24388.38
499.56	24428.17
499.73	24411.79
499.91	24514.77
500.08	24910.32
500.26	24842.45
500.44	24903.30
500.61	24903.30
500.79	25015.65
500.97	25228.63
501.14	25773.98
501.32	25528.22
501.49	25446.30
501.67	25221.61
501.84	25933.14
502.02	25598.44
502.20	26073.57
502.37	25825.47
502.55	26008.03
502.72	26113.36
502.90	26050.16
503.07	26036.12
503.25	26008.03
503.43	26125.06
503.60	26572.10
503.78	26422.31
503.95	26513.59
504.13	26712.53
504.30	26623.59
504.48	26562.74
504.65	26979.36
504.83	27225.11
505.01	27016.80
505.18	27653.43
505.36	27480.23
505.53	27491.93
505.71	27505.98
505.88	27728.33
506.06	27637.05
506.23	27665.13
506.41	27676.83
506.58	27618.32
506.76	27969.40
506.93	28318.14
507.11	27964.72
507.28	28472.62
507.46	28238.56
507.63	28435.17
507.81	28357.93
507.98	28137.92
508.16	28582.62
508.33	28779.23
508.50	29032.00
508.68	28854.12
508.85	29132.65
509.03	28877.53
509.20	29383.09
509.38	29422.87
509.55	29619.48
509.73	29195.84
509.90	29259.04
510.08	29453.30
510.25	29696.72
510.42	29900.34
510.60	29825.45
510.77	30244.40
510.95	30361.43
511.12	29954.18
511.30	30038.44
511.47	30326.32
511.64	30267.81
511.82	30801.45
511.99	30438.67
512.17	30630.59
512.34	30490.16
512.51	30604.84
512.69	30721.87
512.86	31194.66
513.04	31145.51
513.21	31068.27
513.38	31225.09
513.56	31126.78
513.73	30916.14
513.90	31189.98
514.08	31405.31
514.25	31686.17
514.43	31646.38
514.60	31758.73
514.77	31658.09
514.95	31578.51
515.12	31945.97
515.29	31714.26
515.47	32147.26
515.64	32067.68
515.81	31927.25
515.99	32142.58
516.16	32327.48
516.33	32182.37
516.51	32535.79
516.68	32378.97
516.85	32596.64
517.03	33191.14
517.20	32561.53
517.37	32472.59
517.54	32758.14
517.72	33102.20
517.89	33191.14
518.06	32898.57
518.24	33151.35
518.41	33233.27
518.58	33134.96
518.75	33170.07
518.93	33572.64
519.10	33472.00
519.27	33312.84
519.45	33586.69
519.62	33916.70
519.79	33663.93
519.96	33872.23
520.14	34033.73
520.31	33979.90
520.48	34197.57
520.65	34181.18
520.83	34543.97
521.00	34763.98
521.17	34295.87
521.34	34675.04
521.52	35138.46
521.69	34581.42
521.86	34497.16
522.03	34642.27
522.20	34981.65
522.38	35325.71
522.55	34998.03
522.72	35381.88
522.89	35047.18
523.07	35297.62
523.24	35009.73
523.41	35084.63
523.58	35498.91
523.75	35534.01
523.92	35625.29
524.10	35627.63
524.27	35384.22
524.44	35967.01
524.61	35601.89
524.78	35835.94
524.96	35915.52
525.13	36294.69
525.30	36093.40
525.47	36488.95
525.64	36196.38
525.81	36430.44
525.98	36472.57
526.16	36278.30
526.33	36268.94
526.50	36596.62
526.67	36566.19
526.84	36226.81
527.01	36891.52
527.18	36388.31
527.36	36797.90
527.53	37036.64
527.70	37188.77
527.87	37038.98
528.04	37167.71
528.21	36856.42
528.38	37127.92
528.55	37413.46
528.72	37120.90
528.89	37226.22
529.07	37198.13
529.24	37156.00
529.41	37720.07
529.58	37596.03
529.75	37881.57
529.92	37689.65
530.09	38050.09
530.26	38251.38
530.43	38085.20
530.60	37497.72
530.77	37846.46
530.94	38373.08
531.11	38007.96
531.28	38396.49
531.46	38162.43
531.63	38284.14
531.80	38361.38
531.97	38431.60
532.14	38321.59
532.31	38513.52
532.48	38536.92
532.65	38796.72
532.82	38345.00
532.99	38625.86
533.16	38735.87
533.33	38658.63
533.50	38990.98
533.67	39012.05
533.84	38504.15
534.01	38895.02
534.18	39213.34
534.35	39035.45
534.52	38976.94
534.69	39189.93
534.86	39625.27
535.03	39395.90
535.20	39468.45
535.37	39358.45
535.54	39697.83
535.71	39276.53
535.88	39887.41
536.05	39618.25
536.22	39466.11
536.38	39938.90
536.55	39723.57
536.72	39452.07
536.89	39765.70
537.06	39622.93
537.23	39964.65
537.40	40189.34
537.57	39761.02
537.74	39962.31
537.91	40308.71
538.08	40491.27
538.25	40076.99
538.42	40514.67
538.59	40617.66
538.75	40458.50
538.92	40620.00
539.09	40737.02
539.26	40662.13
539.43	40676.17
539.60	40811.92
539.77	40453.82
539.94	40610.64
540.11	40472.54
540.28	40954.69
540.44	41191.09
540.61	41017.89
540.78	40978.10
540.95	40807.24
541.12	40982.78
541.29	40971.08
541.46	40919.59
541.62	41539.83
541.79	41401.74
541.96	40847.03
542.13	40896.18
542.30	41242.58
542.47	41319.82
542.63	41516.42
542.80	41469.61
542.97	42040.70
543.14	41956.44
543.31	41769.20
543.48	41759.84
543.64	42232.63
543.81	41818.35
543.98	42380.08
544.15	42429.23
544.32	42586.05
544.48	42630.52
544.65	42520.51
544.82	42569.66
544.99	42295.82
545.16	42911.38
545.32	42284.12
545.49	42642.22
545.66	42946.49
545.83	42394.12
546.00	42887.98
546.16	42595.41
546.33	42705.41
546.50	42232.63
546.67	43072.88
546.83	42213.90
547.00	42808.40
547.17	42862.23
547.34	43107.99
547.50	43328.00
547.67	43225.01
547.84	43044.79
548.00	43344.38
548.17	43346.72
548.34	43344.38
548.51	43784.40
548.67	43398.21
548.84	43330.34
549.01	43416.94
549.18	43423.96
549.34	43800.79
549.51	43449.70
549.68	44107.40
549.84	43852.28
550.01	44016.11
550.18	43440.34
550.34	43456.73
550.51	43700.14
550.68	44020.80
550.84	43250.76
551.01	44170.59
551.18	43545.67
551.34	43959.94
551.51	44109.74
551.68	43735.25
551.84	44013.77
552.01	43878.02
552.18	43751.63
552.34	43863.98
552.51	44100.37
552.68	44023.14
552.84	44219.74
553.01	44208.04
553.18	44245.49
553.34	44549.76
553.51	44219.74
553.67	44348.47
553.84	44236.12
554.01	44940.63
554.17	44271.23
554.34	44835.30
554.51	44626.99
554.67	45078.72
554.84	44645.72
555.00	44933.60
555.17	44533.37
555.33	44992.12
555.50	44601.25
555.67	44837.64
555.83	45102.12
556.00	44795.51
556.16	45638.11
556.33	45071.70
556.50	44816.58
556.66	44835.30
556.83	44903.18
556.99	45425.12
557.16	45282.34
557.32	45045.95
557.49	45104.46
557.65	45020.20
557.82	45219.15
557.98	45106.80
558.15	45352.56
558.32	45385.33
558.48	44989.78
558.65	44903.18
558.81	45357.24
558.98	45282.34
559.14	45390.01
559.31	45083.40
559.47	45429.80
559.64	45294.05
559.80	45464.91
559.97	45584.27
560.13	45181.70
560.30	45598.32
560.46	45982.16
560.63	45446.18
560.79	46218.56
560.96	45991.53
561.12	45876.84
561.29	45933.01
561.45	46122.60
561.61	45794.92
561.78	45535.12
561.94	45790.24
562.11	45853.44
562.27	45745.77
562.44	45705.98
562.60	45977.48
562.77	46169.41
562.93	45600.66
563.10	46258.35
563.26	46234.94
563.42	46157.70
563.59	45773.86
563.75	46005.57
563.92	46286.43
564.08	45949.40
564.24	46260.69
564.41	46220.90
564.57	46447.93
564.74	46106.21
564.90	46220.90
565.07	46141.32
565.23	45876.84
565.39	46246.65
565.56	46007.91
565.72	46333.24
565.88	46305.16
566.05	46366.01
566.21	46178.77
566.38	46368.35
566.54	46293.46
566.70	46263.03
566.87	46485.38
567.03	46305.16
567.19	46609.43
567.36	46602.41
567.52	46649.22
567.68	46920.72
567.85	46337.93
568.01	46679.64
568.17	46253.67
568.34	46733.48
568.50	46466.66
568.66	46178.77
568.83	46541.55
568.99	46724.11
569.15	46719.43
569.32	46988.60
569.48	46735.82
569.64	46796.67
569.81	46909.02
569.97	46281.75
570.13	47143.07
570.30	46646.88
570.46	46712.41
570.62	46789.65
570.78	46974.55
570.95	46513.47
571.11	47016.68
571.27	46642.20
571.43	46841.14
571.60	47264.78
571.76	46349.63
571.92	46815.40
572.09	46784.97
572.25	46611.77
572.41	46768.58
572.57	46794.33
572.74	47161.79
572.90	46941.78
573.06	47110.30
573.22	46885.61
573.38	47030.72
573.55	47079.88
573.71	47100.94
573.87	47042.43
574.03	47028.38
574.20	46801.35
574.36	46974.55
574.52	47185.20
574.68	47007.32
574.84	47009.66
575.01	47168.82
575.17	47643.94
575.33	47264.78
575.49	47107.96
575.65	47154.77
575.82	47234.35
575.98	47086.90
576.14	47529.26
576.30	47498.83
576.46	47510.53
576.62	46967.53
576.79	47246.05
576.95	46658.58
577.11	47199.24
577.27	47327.97
577.43	47428.62
577.59	47210.95
577.75	47189.88
577.92	46885.61
578.08	47299.89
578.24	47491.81
578.40	47643.94
578.56	47306.91
578.72	47325.63
578.88	47171.16
579.04	47447.34
579.21	47276.48
579.37	47313.93
579.53	47400.53
579.69	47660.33
579.85	47154.77
580.01	47377.12
580.17	47281.16
580.33	47494.15
580.49	47264.78
580.65	47323.29
580.82	47515.22
580.98	46967.53
581.14	46986.25
581.30	47538.62
581.46	47400.53
581.62	47089.24
581.78	47381.80
581.94	47447.34
582.10	47292.86
582.26	47143.07
582.42	47665.01
582.58	47292.86
582.74	47653.31
582.90	47138.39
583.06	47899.06
583.22	47283.50
583.38	47461.38
583.54	47440.32
583.70	47426.28
583.86	47576.07
584.02	47260.10
584.18	47681.39
584.34	47360.74
584.50	47707.14
584.66	47742.25
584.82	47632.24
584.98	47824.17
585.14	48090.99
585.30	47262.44
585.46	47545.64
585.62	47594.79
585.78	47580.75
585.94	47147.75
586.10	47634.58
586.26	47346.70
586.42	46997.96
586.58	47798.42
586.74	47503.51
586.90	47519.90
587.06	47435.64
587.22	47367.76
587.38	47536.28
587.54	47807.78
587.70	48002.05
587.86	47405.21
588.02	47229.67
588.18	47384.15
588.34	47861.61
588.49	47552.66
588.65	47948.21
588.81	47463.72
588.97	47667.35
589.13	47353.72
589.29	47789.06
589.45	48018.43
589.61	47562.03
589.77	47875.66
589.93	47798.42
590.08	47571.39
