SpectraSuite Data File
++++++++++++++++++++++++++++++++++++
Date: Fri Oct 25 11:23:40 EDT 2013
User: price-jones
Dark Spectrum Present: No
Reference Spectrum Present: No
Number of Sampled Component Spectra: 1
Spectrometers: USB2+H05261
Integration Time (usec): 100000 (USB2+H05261)
Spectra Averaged: 1 (USB2+H05261)
Boxcar Smoothing: 0 (USB2+H05261)
Correct for Electrical Dark: No (USB2+H05261)
Strobe/Lamp Enabled: No (USB2+H05261)
Correct for Detector Non-linearity: No (USB2+H05261)
Correct for Stray Light: No (USB2+H05261)
Number of Pixels in Processed Spectrum: 2048
>>>>>Begin Processed Spectral Data<<<<<
365.73	194.26
365.92	194.26
366.12	194.26
366.32	81.92
366.52	147.45
366.72	227.03
366.91	114.69
367.11	133.41
367.31	114.69
367.51	119.37
367.70	98.30
367.90	110.01
368.10	182.56
368.30	124.05
368.49	163.84
368.69	168.52
368.89	154.48
369.09	117.03
369.28	177.88
369.48	187.24
369.68	161.50
369.87	189.58
370.07	182.56
370.27	159.16
370.47	322.99
370.66	624.92
370.86	676.41
371.06	610.88
371.25	678.76
371.45	650.67
371.65	713.86
371.84	692.80
372.04	645.99
372.24	704.50
372.44	720.88
372.63	603.86
372.83	765.36
373.03	685.78
373.22	697.48
373.42	779.40
373.62	741.95
373.81	751.31
374.01	751.31
374.21	744.29
374.40	800.46
374.60	758.33
374.79	802.80
374.99	830.89
375.19	905.79
375.38	861.32
375.58	823.87
375.78	814.51
375.97	833.23
376.17	891.74
376.37	908.13
376.56	858.98
376.76	847.27
376.95	844.93
377.15	870.68
377.35	889.40
377.54	968.98
377.74	844.93
377.93	870.68
378.13	868.34
378.33	971.32
378.52	877.70
378.72	1008.77
378.91	973.66
379.11	908.13
379.31	889.40
379.50	929.19
379.70	945.58
379.89	978.34
380.09	898.77
380.28	954.94
380.48	924.51
380.68	976.00
380.87	959.62
381.07	1027.50
381.26	966.64
381.46	978.34
381.65	1032.18
381.85	1057.92
382.04	1022.81
382.24	1081.33
382.43	1062.60
382.63	1025.15
382.83	1104.73
383.02	1086.01
383.22	1165.59
383.41	1025.15
383.61	1057.92
383.80	1100.05
384.00	1071.97
384.19	1114.10
384.39	1158.57
384.58	1050.90
384.78	1104.73
384.97	1135.16
385.17	1125.80
385.36	1186.65
385.56	1081.33
385.75	1121.12
385.95	1041.54
386.14	1205.38
386.34	1153.88
386.53	1137.50
386.72	1226.44
386.92	1217.08
387.11	1263.89
387.31	1256.87
387.50	1158.57
387.70	1280.27
387.89	1212.40
388.09	1299.00
388.28	1348.15
388.48	1306.02
388.67	1203.04
388.86	1233.46
389.06	1343.47
389.25	1287.29
389.45	1444.11
389.64	1385.60
389.84	1327.08
390.03	1366.87
390.22	1451.13
390.42	1359.85
390.61	1394.96
390.81	1394.96
391.00	1355.17
391.19	1324.74
391.39	1434.75
391.58	1437.09
391.78	1439.43
391.97	1453.47
392.16	1423.05
392.36	1540.07
392.55	1474.54
392.75	1495.60
392.94	1521.35
393.13	1413.68
393.33	1427.73
393.52	1502.62
393.71	1617.31
393.91	1612.63
394.10	1549.43
394.29	1605.61
394.49	1741.36
394.68	1612.63
394.88	1643.06
395.07	1591.56
395.26	1694.55
395.46	1671.14
395.65	1696.89
395.84	1708.59
396.04	1767.10
396.23	1671.14
396.42	1640.72
396.62	1741.36
396.81	1767.10
397.00	1739.02
397.19	1820.94
397.39	1806.89
397.58	1797.53
397.77	1909.88
397.97	1781.15
398.16	1963.71
398.35	1982.43
398.55	1914.56
398.74	1982.43
398.93	1975.41
399.12	1907.54
399.32	1902.86
399.51	2033.93
399.70	2003.50
399.90	1944.99
400.09	1944.99
400.28	2106.48
400.47	2080.74
400.67	2148.61
400.86	2043.29
401.05	2085.42
401.24	2132.23
401.44	2129.89
401.63	2127.55
401.82	2181.38
402.01	2083.08
402.21	2052.65
402.40	2211.81
402.59	2172.02
402.78	2146.27
402.97	2165.00
403.17	2176.70
403.36	2146.27
403.55	2176.70
403.74	2284.36
403.93	2312.45
404.13	2443.52
404.32	2455.22
404.51	2450.54
404.70	2394.37
404.89	2445.86
405.09	2394.37
405.28	2530.12
405.47	2424.80
405.66	2525.44
405.85	2497.35
406.05	2490.33
406.24	2642.46
406.43	2438.84
406.62	2504.37
406.81	2628.42
407.00	2651.83
407.20	2654.17
407.39	2663.53
407.58	2724.38
407.77	2668.21
407.96	2670.55
408.15	2785.24
408.34	2722.04
408.54	2782.90
408.73	2911.63
408.92	2731.41
409.11	2862.48
409.30	2839.07
409.49	2848.43
409.68	2953.76
409.87	2897.58
410.07	2892.90
410.26	3016.95
410.45	3096.53
410.64	3105.89
410.83	3115.25
411.02	3091.85
411.21	3176.11
411.40	3155.04
411.59	3293.13
411.78	3276.75
411.98	3229.94
412.17	3173.77
412.36	3330.58
412.55	3307.18
412.74	3309.52
412.93	3262.71
413.12	3386.76
413.31	3548.25
413.50	3426.54
413.69	3463.99
413.88	3564.64
414.07	3480.38
414.26	3672.30
414.45	3789.33
414.64	3684.00
414.83	3822.09
415.02	3840.82
415.22	3765.92
415.41	3744.86
415.60	3803.37
415.79	3962.53
415.98	4091.26
416.17	3983.59
416.36	3904.01
416.55	3953.16
416.74	4004.66
416.93	4088.92
417.12	4056.15
417.31	4081.89
417.50	4194.24
417.69	4390.84
417.88	4348.72
418.07	4219.99
418.26	4273.82
418.45	4477.44
418.64	4404.89
418.83	4437.66
419.02	4442.34
419.21	4550.00
419.39	4521.92
419.58	4550.00
419.77	4547.66
419.96	4627.24
420.15	4652.98
420.34	4643.62
420.53	4554.68
420.72	4711.50
420.91	4566.39
421.10	4676.39
421.29	4812.14
421.48	4889.38
421.67	4704.48
421.86	4791.08
422.05	4816.82
422.24	4809.80
422.43	4882.36
422.61	4770.01
422.80	4868.31
422.99	4779.37
423.18	4905.76
423.37	4851.93
423.56	4966.62
423.75	4945.55
423.94	4821.50
424.13	4510.21
424.32	4571.07
424.50	4978.32
424.69	5081.30
424.88	5078.96
425.07	4924.49
425.26	4894.06
425.45	5116.41
425.64	4905.76
425.83	4870.65
426.01	5055.56
426.20	5001.72
426.39	5008.75
426.58	5062.58
426.77	4887.04
426.96	5111.73
427.15	5214.71
427.33	5128.11
427.52	5310.68
427.71	5305.99
427.90	5160.88
428.09	5231.10
428.28	5315.36
428.46	5352.81
428.65	5423.02
428.84	5385.57
429.03	5476.85
429.22	5418.34
429.40	5659.42
429.59	5568.13
429.78	5390.25
429.97	5128.11
430.16	5523.66
430.34	5610.26
430.53	5678.14
430.72	5738.99
430.91	5509.62
431.10	5600.90
431.28	5668.78
431.47	5748.36
431.66	5795.17
431.85	5743.67
432.03	5867.72
432.22	5982.41
432.41	6019.86
432.60	5856.02
432.79	5860.70
432.97	6040.92
433.16	5956.66
433.35	6087.73
433.54	6115.82
433.72	5959.00
433.91	6104.12
434.10	6296.04
434.28	6225.82
434.47	6115.82
434.66	6279.66
434.85	6305.40
435.03	6413.07
435.22	6179.01
435.41	6359.24
435.59	6377.96
435.78	6328.81
435.97	6523.07
436.16	6282.00
436.34	6333.49
436.53	6375.62
436.72	6637.76
436.90	6375.62
437.09	6668.19
437.28	6303.06
437.46	6551.16
437.65	6642.44
437.84	6843.73
438.02	6813.30
438.21	6773.51
438.40	6590.95
438.58	6913.94
438.77	7061.40
438.96	6967.77
439.14	7239.28
439.33	7215.87
439.52	7129.27
439.70	7307.15
439.89	7433.54
440.08	7335.24
440.26	7152.68
440.45	7185.44
440.63	7353.96
440.82	7655.89
441.01	7536.52
441.19	7651.21
441.38	7651.21
441.57	7709.72
441.75	7971.86
441.94	7786.96
442.12	7957.82
442.31	8180.17
442.50	7929.74
442.68	7882.92
442.87	8231.66
443.05	8100.59
443.24	8234.00
443.43	7969.52
443.61	8346.35
443.80	8332.31
443.98	8210.60
444.17	7889.95
444.35	8613.17
444.54	8400.18
444.73	8386.14
444.91	8304.22
445.10	8493.80
445.28	8264.43
445.47	8325.29
445.65	8418.91
445.84	8369.76
446.02	8395.50
446.21	8414.23
446.39	8425.93
446.58	8439.97
446.77	8564.02
446.95	8325.29
447.14	8463.38
447.32	8479.76
447.51	8456.36
447.69	8329.97
447.88	8369.76
448.06	8379.12
448.25	8306.56
448.43	8634.24
448.62	8386.14
448.80	8667.00
448.99	8711.47
449.17	8741.90
449.36	8610.83
449.54	8786.37
449.73	8755.94
449.91	9050.85
450.10	8912.76
450.28	9137.45
450.46	9125.75
450.65	8987.66
450.83	9109.36
451.02	8943.19
451.20	9025.11
451.39	9109.36
451.57	9160.86
451.76	9036.81
451.94	9198.31
452.13	9376.19
452.31	9331.72
452.49	8887.01
452.68	9373.85
452.86	9298.95
453.05	9565.77
453.23	9570.45
453.42	9488.53
453.60	9320.01
453.78	9631.30
453.97	9303.63
454.15	9589.17
454.34	9607.90
454.52	9685.14
454.70	9537.68
454.89	9577.47
455.07	9856.00
455.26	9891.10
455.44	9907.49
455.62	9846.63
455.81	10047.92
455.99	10071.33
456.17	9921.53
456.36	10017.49
456.54	10162.61
456.73	10045.58
456.91	10492.62
457.09	10108.77
457.28	10590.92
457.46	10525.39
457.64	10382.62
457.83	10581.56
458.01	10394.32
458.19	10750.08
458.38	10576.88
458.56	10703.27
458.74	10553.48
458.93	10670.50
459.11	10682.20
459.29	10927.96
459.48	10925.62
459.66	10956.05
459.84	10637.73
460.03	10953.71
460.21	10949.03
460.39	10874.13
460.57	10965.41
460.76	10841.36
460.94	11328.19
461.12	11164.36
461.31	11096.48
461.49	11136.27
461.67	11005.20
461.85	11454.58
462.04	11157.33
462.22	11543.52
462.40	11398.41
462.59	11499.05
462.77	11534.16
462.95	11772.89
463.13	11534.16
463.32	11660.55
463.50	11793.96
463.68	11854.81
463.86	11960.14
464.05	11901.62
464.23	11768.21
464.41	11854.81
464.59	11693.32
464.78	12051.42
464.96	11960.14
465.14	11793.96
465.32	12088.87
465.50	12154.40
465.69	11983.54
465.87	12116.95
466.05	12271.43
466.23	12280.79
466.41	12238.66
466.60	12400.16
466.78	12039.72
466.96	12194.19
467.14	12107.59
467.32	12531.23
467.51	12510.16
467.69	12095.89
467.87	12383.77
468.05	12674.00
468.23	12362.71
468.41	12549.95
468.60	12491.44
468.78	12709.11
468.96	12545.27
469.14	12898.69
469.32	12982.95
469.50	12538.25
469.69	13142.11
469.87	13128.06
470.05	13228.71
470.23	13020.40
470.41	13291.90
470.59	13263.82
470.77	13191.26
470.95	13242.75
471.14	13673.41
471.32	13022.74
471.50	13710.86
471.68	13809.16
471.86	13806.82
472.04	13792.78
472.22	13928.53
472.40	13811.50
472.58	13996.40
472.77	13781.07
472.95	14277.27
473.13	14466.85
473.31	13830.23
473.49	14183.65
473.67	14281.95
473.85	14244.50
474.03	14595.58
474.21	14654.09
474.39	14558.13
474.57	14843.68
474.75	14899.85
474.93	14841.34
475.12	14874.10
475.30	15229.87
475.48	14960.70
475.66	15499.03
475.84	15197.10
476.02	15449.88
476.20	15445.20
476.38	15665.21
476.56	15815.00
476.74	16170.76
476.92	15885.22
477.10	15969.48
477.28	16081.82
477.46	16121.61
477.64	16161.40
477.82	16484.39
478.00	16938.46
478.18	16868.24
478.36	16886.97
478.54	17146.76
478.72	17240.39
478.90	17245.07
479.08	17451.03
479.26	17591.47
479.44	17600.83
479.62	17914.46
479.80	18097.02
479.98	18277.24
480.16	18518.32
480.34	18075.96
480.52	18424.70
480.70	18551.09
480.88	18651.73
481.06	18860.04
481.24	18864.72
481.41	19176.01
481.59	19386.66
481.77	19349.21
481.95	19534.11
482.13	19468.58
482.31	19700.29
482.49	20074.77
482.67	20084.14
482.85	20437.56
483.03	20688.00
483.21	20521.82
483.39	21097.59
483.57	20884.60
483.74	21282.49
483.92	21319.94
484.10	21092.91
484.28	21720.17
484.46	21823.16
484.64	22518.29
484.82	22199.98
485.00	22455.10
485.18	22742.99
485.35	22852.99
485.53	22871.72
485.71	22913.84
485.89	23522.38
486.07	23388.97
486.25	23641.75
486.43	23491.96
486.61	23838.36
486.78	24154.33
486.96	23955.38
487.14	24428.17
487.32	24496.05
487.50	24861.17
487.68	24847.13
487.85	25315.23
488.03	25289.49
488.21	25692.06
488.39	25731.85
488.57	26071.23
488.75	26366.13
488.92	26405.92
489.10	26700.83
489.28	26724.24
489.46	27384.27
489.64	26672.74
489.81	27402.99
489.99	27630.02
490.17	27665.13
490.35	28023.23
490.53	28166.01
490.70	28503.04
490.88	28357.93
491.06	28753.48
491.24	28697.31
491.41	28854.12
491.59	29343.30
491.77	29130.31
491.95	29685.01
492.13	29783.32
492.30	29872.26
492.48	30204.61
492.66	30113.33
492.84	30295.89
493.01	30476.12
493.19	30649.32
493.37	31178.28
493.54	30972.31
493.72	31360.84
493.90	31304.67
494.08	31807.88
494.25	31725.96
494.43	32383.65
494.61	32318.12
494.79	32304.07
494.96	32552.17
495.14	32877.51
495.32	33092.83
495.49	33123.26
495.67	33420.51
495.85	33453.28
496.02	33743.50
496.20	33965.85
496.38	33780.95
496.55	33965.85
496.73	34782.70
496.91	34487.79
497.09	34831.85
497.26	35140.80
497.44	34719.51
497.62	35489.54
497.79	35400.60
497.97	35646.36
498.14	35866.37
498.32	36128.51
498.50	36245.54
498.67	36512.36
498.85	36531.08
499.03	36793.22
499.20	36650.45
499.38	36907.91
499.56	36900.89
499.73	37776.25
499.91	37460.27
500.08	37523.47
500.26	37420.48
500.44	38291.16
500.61	38003.28
500.79	37886.25
500.97	38183.50
501.14	38066.47
501.32	38712.46
501.49	38462.02
501.67	39136.10
501.84	38841.19
502.02	39166.52
502.20	39384.19
502.37	39423.98
502.55	39236.74
502.72	39189.93
502.90	39185.25
503.07	39323.34
503.25	39683.78
503.43	39601.86
503.60	40027.84
503.78	40067.63
503.95	40189.34
504.13	40439.78
504.30	40844.69
504.48	40685.53
504.65	40758.09
504.83	41053.00
505.01	41387.69
505.18	41347.90
505.36	41289.39
505.53	41163.00
505.71	41684.94
505.88	41893.25
506.06	41776.22
506.23	42497.11
506.41	41773.88
506.58	41914.31
506.76	42677.33
506.93	42527.53
507.11	42155.39
507.28	42995.64
507.46	42735.84
507.63	43107.99
507.81	43194.59
507.98	42660.94
508.16	43058.84
508.33	43077.56
508.50	43217.99
508.68	43428.64
508.85	43482.47
509.03	43636.95
509.20	43929.51
509.38	44060.58
509.55	44308.68
509.73	44430.39
509.90	44364.85
510.08	44521.67
510.25	44699.55
510.42	44605.93
510.60	45088.08
510.77	45301.07
510.95	45785.56
511.12	45579.59
511.30	45375.97
511.47	45811.31
511.64	45883.86
511.82	46368.35
511.99	45610.02
512.17	45928.33
512.34	45867.48
512.51	46719.43
512.69	46588.36
512.86	46185.79
513.04	46941.78
513.21	46883.27
513.38	46878.59
513.56	46801.35
513.73	46789.65
513.90	47129.03
514.08	46712.41
514.25	47002.64
514.43	47173.50
514.60	47000.30
514.77	47332.65
514.95	47845.23
515.12	47150.09
515.29	47409.89
515.47	47966.94
515.64	48229.08
515.81	48177.59
515.99	48053.54
516.16	48500.58
516.33	47950.56
516.51	48643.35
516.68	48596.54
516.85	48545.05
517.03	48956.99
517.20	48996.77
517.37	48650.38
517.54	48893.79
517.72	49052.95
517.89	49006.14
518.06	49003.80
518.24	49322.11
518.41	49394.67
518.58	49378.28
518.75	49209.76
518.93	49631.06
519.10	49380.62
519.27	49668.51
519.45	49663.83
519.62	50092.15
519.79	49773.83
519.96	49982.14
520.14	49904.90
520.31	49839.37
520.48	50445.57
520.65	50703.03
520.83	50543.87
521.00	50756.86
521.17	50738.13
521.34	50735.79
521.52	50607.06
521.69	50857.50
521.86	51257.73
522.03	51035.38
522.20	51578.39
522.38	52006.70
522.55	51210.92
522.72	51566.68
522.89	51468.38
523.07	51814.78
523.24	51880.31
523.41	51859.25
523.58	51437.95
523.75	51667.33
523.92	51782.01
524.10	51845.21
524.27	52154.16
524.44	52231.40
524.61	52079.26
524.78	52594.18
524.96	52076.92
525.13	52317.99
525.30	52264.16
525.47	52540.35
525.64	52577.79
525.81	52783.76
525.98	52671.42
526.16	52488.85
526.33	53022.50
526.50	52629.29
526.67	52989.73
526.84	53275.27
527.01	53055.26
527.18	52636.31
527.36	53069.31
527.53	52879.72
527.70	53305.70
527.87	53408.68
528.04	53020.16
528.21	53499.97
528.38	53237.83
528.55	53272.93
528.72	53581.88
528.89	53338.47
529.07	53525.71
529.24	53502.31
529.41	53560.82
529.58	54026.59
529.75	53595.93
529.92	53616.99
530.09	54134.25
530.26	54174.04
530.43	53886.15
530.60	53865.09
530.77	53932.96
530.94	54138.93
531.11	53907.22
531.28	54265.32
531.46	54382.35
531.63	54160.00
531.80	54380.01
531.97	54361.28
532.14	54478.31
532.31	54429.16
532.48	54464.27
532.65	54852.80
532.82	54440.86
532.99	54588.31
533.16	54564.91
533.33	54632.78
533.50	55096.21
533.67	55058.76
533.84	54775.56
534.01	54965.14
534.18	54958.12
534.35	55231.96
534.52	55203.88
534.69	54934.71
534.86	55164.09
535.03	55304.52
535.20	55337.29
535.37	55203.88
535.54	55323.24
535.71	55154.72
535.88	55435.59
536.05	55482.40
536.22	55433.25
536.38	55700.07
536.55	55496.44
536.72	55774.97
536.89	55580.70
537.06	55606.45
537.23	55866.25
537.40	55561.98
537.57	55599.43
537.74	55826.46
537.91	55833.48
538.08	55767.94
538.25	55557.30
538.42	55969.23
538.59	56200.94
538.75	55711.77
538.92	56137.75
539.09	56280.52
539.26	56231.37
539.43	56062.85
539.60	56285.20
539.77	56360.10
539.94	56615.22
540.11	56296.91
540.28	56456.06
540.44	56577.77
540.61	56341.38
540.78	56505.21
540.95	56652.67
541.12	56500.53
541.29	56605.86
541.46	56367.12
541.62	56596.49
541.79	56582.45
541.96	56442.02
542.13	56750.97
542.30	56818.84
542.47	56797.78
542.63	56905.44
542.80	56830.55
542.97	57045.88
543.14	57237.80
543.31	57001.41
543.48	57310.36
543.64	57216.74
543.81	57240.14
543.98	57289.29
544.15	57478.88
544.32	57434.41
544.48	57504.62
544.65	57212.06
544.82	57453.13
544.99	57359.51
545.16	57502.28
545.32	57389.94
545.49	57916.56
545.66	57635.69
545.83	57691.86
546.00	57797.19
546.16	57616.97
546.33	57638.03
546.50	57298.65
546.67	57780.81
546.83	57549.09
547.00	57780.81
547.17	57705.91
547.34	57799.53
547.50	57972.73
547.67	58209.12
547.84	58080.39
548.00	57939.96
548.17	58300.40
548.34	58164.65
548.51	58394.03
548.67	58143.59
548.84	58124.86
549.01	58148.27
549.18	58298.06
549.34	58267.64
549.51	58461.90
549.68	58382.32
549.84	58326.15
550.01	58518.07
550.18	58260.62
550.34	58595.31
550.51	58508.71
550.68	58326.15
550.84	58152.95
551.01	58417.43
551.18	58466.58
551.34	58714.68
551.51	58747.45
551.68	58480.63
551.84	58578.93
552.01	58288.70
552.18	58522.76
552.34	58574.25
552.51	58609.35
552.68	58562.54
552.84	58820.00
553.01	58997.88
553.18	58930.01
553.34	58784.90
553.51	58845.75
553.67	58754.47
553.84	58782.55
554.01	58906.60
554.17	58798.94
554.34	59021.29
554.51	59014.27
554.67	59037.67
554.84	59196.83
555.00	58897.24
555.17	58829.37
555.33	59114.91
555.50	58934.69
555.67	59124.27
555.83	59044.69
556.00	59264.70
556.16	59402.80
556.33	59248.32
556.50	59143.00
556.66	59253.00
556.83	59054.06
556.99	59578.34
557.16	59566.63
557.32	59447.27
557.49	59597.06
557.65	59096.19
557.82	59578.34
557.98	59433.22
558.15	59442.59
558.32	59299.81
558.48	59557.27
558.65	59482.37
558.81	59613.44
558.98	59594.72
559.14	59709.41
559.31	59540.89
559.47	59585.36
559.64	59662.60
559.80	59777.28
559.97	59646.21
560.13	59449.61
560.30	59870.90
560.46	59767.92
560.63	59702.38
560.79	59730.47
560.96	59938.78
561.12	59833.46
561.29	59793.67
561.45	59999.63
561.61	59952.82
561.78	59765.58
561.94	59697.70
562.11	59859.20
562.27	59901.33
562.44	59976.23
562.60	60210.28
562.77	60067.51
562.93	59592.38
563.10	60294.54
563.26	59943.46
563.42	60348.37
563.59	60301.56
563.75	60156.45
563.92	60137.72
564.08	60039.42
564.24	60168.15
564.41	60126.02
564.57	60156.45
564.74	60072.19
564.90	60018.36
565.07	60133.04
565.23	60175.17
565.39	60074.53
565.56	60271.14
565.72	60193.90
565.88	60367.10
566.05	60254.75
566.21	60346.03
566.38	60247.73
566.54	60313.26
566.70	60273.48
566.87	60285.18
567.03	60090.91
567.19	60629.24
567.36	60481.78
567.52	60477.10
567.68	60687.75
567.85	60355.39
568.01	60406.89
568.17	60278.16
568.34	60303.90
568.50	60329.65
568.66	60369.44
568.83	60395.18
568.99	60353.05
569.15	60376.46
569.32	60516.89
569.48	60430.29
569.64	60584.77
569.81	60413.91
569.97	60381.14
570.13	60715.84
570.30	60441.99
570.46	60563.70
570.62	60542.64
570.78	60369.44
570.95	60470.08
571.11	60722.86
571.27	60519.23
571.43	60732.22
571.60	60882.02
571.76	60458.38
571.92	60535.62
572.09	60736.90
572.25	60594.13
572.41	60601.15
572.57	60898.40
572.74	60940.53
572.90	60631.58
573.06	60624.56
573.22	60638.60
573.38	60910.10
573.55	60636.26
573.71	60835.20
573.87	60807.12
574.03	60561.36
574.20	60802.44
574.36	60516.89
574.52	60736.90
574.68	60694.77
574.84	60743.92
575.01	60882.02
575.17	60760.31
575.33	60556.68
575.49	60683.07
575.65	60694.77
575.82	60867.97
575.98	60837.54
576.14	60919.46
576.30	60762.65
576.46	60750.94
576.62	60963.93
576.79	60853.93
576.95	60676.05
577.11	60781.37
577.27	60907.76
577.43	61151.18
577.59	60772.01
577.75	60825.84
577.92	60680.73
578.08	60865.63
578.24	60764.99
578.40	60985.00
578.56	60931.17
578.72	60933.51
578.88	60935.85
579.04	61085.64
579.21	60917.12
579.37	61029.47
579.53	61034.15
579.69	60821.16
579.85	60973.30
580.01	60573.06
580.17	60772.01
580.33	61109.05
580.49	61076.28
580.65	60947.55
580.82	60935.85
580.98	60746.26
581.14	60713.50
581.30	61125.43
581.46	60921.80
581.62	61045.85
581.78	60832.86
581.94	60985.00
582.10	60837.54
582.26	60856.27
582.42	60910.10
582.58	60954.57
582.74	60947.55
582.90	61027.13
583.06	60835.20
583.22	60896.06
583.38	61069.26
583.54	60996.70
583.70	60762.65
583.86	61020.11
584.02	60874.99
584.18	61174.58
584.34	60795.42
584.50	60858.61
584.66	60802.44
584.82	60741.58
584.98	61146.50
585.14	61034.15
585.30	60846.91
585.46	61022.45
585.62	61256.50
585.78	61169.90
585.94	60830.52
586.10	60975.64
586.26	61041.17
586.42	61202.67
586.58	61151.18
586.74	61036.49
586.90	60818.82
587.06	61099.68
587.22	61139.47
587.38	60996.70
587.54	61226.07
587.70	61233.10
587.86	61123.09
588.02	61085.64
588.18	61272.88
588.34	60823.50
588.49	61073.94
