SpectraSuite Data File
++++++++++++++++++++++++++++++++++++
Date: Fri Oct 25 10:47:22 EDT 2013
User: price-jones
Dark Spectrum Present: No
Reference Spectrum Present: No
Number of Sampled Component Spectra: 1
Spectrometers: USB2+H05261
Integration Time (usec): 100000 (USB2+H05261)
Spectra Averaged: 1 (USB2+H05261)
Boxcar Smoothing: 0 (USB2+H05261)
Correct for Electrical Dark: No (USB2+H05261)
Strobe/Lamp Enabled: No (USB2+H05261)
Correct for Detector Non-linearity: No (USB2+H05261)
Correct for Stray Light: No (USB2+H05261)
Number of Pixels in Processed Spectrum: 2048
>>>>>Begin Processed Spectral Data<<<<<
365.73	184.90
365.92	184.90
366.12	184.90
366.32	133.41
366.52	88.94
366.72	77.24
366.91	23.41
367.11	0.00
367.31	4.68
367.51	46.81
367.70	42.13
367.90	51.49
368.10	105.32
368.30	32.77
368.49	30.43
368.69	91.28
368.89	2.34
369.09	100.64
369.28	58.51
369.48	102.98
369.68	170.86
369.87	119.37
370.07	168.52
370.27	149.79
370.47	168.52
370.66	418.96
370.86	416.62
371.06	418.96
371.25	451.72
371.45	475.13
371.65	456.40
371.84	463.43
372.04	423.64
372.24	507.90
372.44	447.04
372.63	512.58
372.83	547.69
373.03	543.00
373.22	578.11
373.42	486.83
373.62	433.00
373.81	557.05
374.01	568.75
374.21	575.77
374.40	564.07
374.60	601.52
374.79	528.96
374.99	535.98
375.19	568.75
375.38	615.56
375.58	636.63
375.78	524.28
375.97	557.05
376.17	608.54
376.37	524.28
376.56	550.03
376.76	571.09
376.95	648.33
377.15	599.18
377.35	552.37
377.54	709.18
377.74	610.88
377.93	564.07
378.13	638.97
378.33	655.35
378.52	627.26
378.72	559.39
378.91	634.29
379.11	566.41
379.31	610.88
379.50	533.64
379.70	664.71
379.89	702.16
380.09	606.20
380.28	615.56
380.48	620.24
380.68	587.47
380.87	653.01
381.07	645.99
381.26	704.50
381.46	730.25
381.65	624.92
381.85	695.14
382.04	702.16
382.24	706.84
382.43	662.37
382.63	678.76
382.83	662.37
383.02	676.41
383.22	770.04
383.41	697.48
383.61	683.44
383.80	753.65
384.00	676.41
384.19	753.65
384.39	727.91
384.58	781.74
384.78	711.52
384.97	741.95
385.17	798.12
385.36	800.46
385.56	751.31
385.75	795.78
385.95	823.87
386.14	830.89
386.34	751.31
386.53	793.44
386.72	763.01
386.92	849.61
387.11	765.36
387.31	819.19
387.50	767.70
387.70	781.74
387.89	933.87
388.09	821.53
388.28	877.70
388.48	908.13
388.67	901.11
388.86	863.66
389.06	765.36
389.25	793.44
389.45	887.06
389.64	856.64
389.84	870.68
390.03	922.17
390.22	997.07
390.42	940.90
390.61	938.55
390.81	875.36
391.00	936.21
391.19	924.51
391.39	954.94
391.58	945.58
391.78	938.55
391.97	943.24
392.16	947.92
392.36	1001.75
392.55	926.85
392.75	961.96
392.94	957.28
393.13	983.02
393.33	964.30
393.52	966.64
393.71	1039.20
393.91	1013.45
394.10	1083.67
394.29	999.41
394.49	1083.67
394.68	1039.20
394.88	1088.35
395.07	1151.54
395.26	1123.46
395.46	1090.69
395.65	1118.78
395.84	1109.41
396.04	1203.04
396.23	1062.60
396.42	1043.88
396.62	1144.52
396.81	1139.84
397.00	1137.50
397.19	1181.97
397.39	1181.97
397.58	1207.72
397.77	1284.95
397.97	1273.25
398.16	1268.57
398.35	1224.10
398.55	1310.70
398.74	1287.29
398.93	1324.74
399.12	1137.50
399.32	1394.96
399.51	1404.32
399.70	1317.72
399.90	1336.45
400.09	1420.71
400.28	1458.15
400.47	1441.77
400.67	1352.83
400.86	1399.64
401.05	1535.39
401.24	1430.07
401.44	1495.60
401.63	1465.18
401.82	1547.09
402.01	1465.18
402.21	1540.07
402.40	1554.12
402.59	1495.60
402.78	1509.65
402.97	1577.52
403.17	1605.61
403.36	1633.69
403.55	1617.31
403.74	1715.61
403.93	1746.04
404.13	1671.14
404.32	1619.65
404.51	1664.12
404.70	1750.72
404.89	1696.89
405.09	1748.38
405.28	1659.44
405.47	1753.06
405.66	1743.70
405.85	1781.15
406.05	1818.60
406.24	1767.10
406.43	1746.04
406.62	1874.77
406.81	1954.35
407.00	1825.62
407.20	1879.45
407.39	1781.15
407.58	1994.14
407.77	1804.55
407.96	1858.39
408.15	1919.24
408.34	1982.43
408.54	2005.84
408.73	1989.46
408.92	1966.05
409.11	1998.82
409.30	2038.61
409.49	2045.63
409.68	1987.11
409.87	2062.01
410.07	2040.95
410.26	2106.48
410.45	2134.57
410.64	2186.06
410.83	2260.96
411.02	2148.61
411.21	2272.66
411.40	2328.83
411.59	2296.07
411.78	2279.68
411.98	2310.11
412.17	2338.20
412.36	2349.90
412.55	2368.62
412.74	2466.92
412.93	2340.54
413.12	2469.27
413.31	2612.04
413.50	2349.90
413.69	2473.95
413.88	2670.55
414.07	2464.58
414.26	2635.44
414.45	2640.12
414.64	2654.17
414.83	2612.04
415.02	2691.62
415.22	2810.98
415.41	2724.38
415.60	2832.05
415.79	2829.71
415.98	2738.43
416.17	2946.73
416.36	2850.77
416.55	2827.37
416.74	2977.16
416.93	2988.86
417.12	2808.64
417.31	3007.59
417.50	3030.99
417.69	3145.68
417.88	3122.27
418.07	3045.04
418.26	3103.55
418.45	3035.67
418.64	3274.41
418.83	3204.19
419.02	3117.59
419.21	3152.70
419.39	3262.71
419.58	3009.93
419.77	3124.62
419.96	3166.74
420.15	3286.11
420.34	3300.16
420.53	3258.03
420.72	3342.28
420.91	3431.23
421.10	3379.73
421.29	3487.40
421.48	3353.99
421.67	3288.45
421.86	3538.89
422.05	3405.48
422.24	3407.82
422.43	3461.65
422.61	3426.54
422.80	3541.23
422.99	3550.59
423.18	3616.13
423.37	3660.60
423.56	3461.65
423.75	3471.01
423.94	3482.72
424.13	3274.41
424.32	3361.01
424.50	3571.66
424.69	3569.32
424.88	3595.06
425.07	3393.78
425.26	3417.18
425.45	3552.93
425.64	3513.14
425.83	3576.34
426.01	3599.74
426.20	3648.90
426.39	3536.55
426.58	3468.67
426.77	3606.77
426.96	3618.47
427.15	3648.90
427.33	3651.24
427.52	3641.87
427.71	3723.79
427.90	3707.41
428.09	3763.58
428.28	3747.20
428.46	3719.11
428.65	3714.43
428.84	3789.33
429.03	3896.99
429.22	3618.47
429.40	3679.32
429.59	3782.31
429.78	3730.81
429.97	3550.59
430.16	3684.00
430.34	3770.60
430.53	3763.58
430.72	3978.91
430.91	3768.26
431.10	3810.39
431.28	3941.46
431.47	4032.74
431.66	4152.11
431.85	4095.94
432.03	4224.67
432.22	4124.02
432.41	4250.41
432.60	4250.41
432.79	4152.11
432.97	4273.82
433.16	4229.35
433.35	4201.26
433.54	4084.23
433.72	4290.20
433.91	4285.52
434.10	4292.54
434.28	4276.16
434.47	4308.93
434.66	4327.65
434.85	4451.70
435.03	4346.37
435.22	4491.49
435.41	4533.62
435.59	4493.83
435.78	4510.21
435.97	4484.47
436.16	4580.43
436.34	4496.17
436.53	4645.96
436.72	4774.69
436.90	4489.15
437.09	4613.20
437.28	4660.01
437.46	4622.56
437.65	4615.54
437.84	4697.46
438.02	4805.12
438.21	4631.92
438.40	4718.52
438.58	4968.96
438.77	4894.06
438.96	4781.71
439.14	4926.83
439.33	5039.17
439.52	5104.71
439.70	5146.84
439.89	5018.11
440.08	5165.56
440.26	4975.98
440.45	5071.94
440.63	5313.02
440.82	5210.03
441.01	5401.96
441.19	5397.28
441.38	5378.55
441.57	5359.83
441.75	5507.28
441.94	5671.12
442.12	5584.52
442.31	5720.27
442.50	5694.52
442.68	5762.40
442.87	5654.73
443.05	5589.20
443.24	5610.26
443.43	5678.14
443.61	5891.13
443.80	5912.19
443.98	5692.18
444.17	5593.88
444.35	5841.98
444.54	5713.25
444.73	5928.58
444.91	5867.72
445.10	5867.72
445.28	5675.80
445.47	5657.07
445.65	5795.17
445.84	6031.56
446.02	5736.65
446.21	5926.24
446.39	5783.46
446.58	5937.94
446.77	5902.83
446.95	5884.11
447.14	5802.19
447.32	6033.90
447.51	5966.03
447.69	6033.90
447.88	5858.36
448.06	6029.22
448.25	5935.60
448.43	6092.41
448.62	5914.53
448.80	6076.03
448.99	6026.88
449.17	6267.95
449.36	5984.75
449.54	6106.46
449.73	6319.45
449.91	6408.39
450.10	6370.94
450.28	6452.86
450.46	6530.09
450.65	6462.22
450.83	6354.55
451.02	6359.24
451.20	6602.65
451.39	6665.85
451.57	6462.22
451.76	6284.34
451.94	6483.28
452.13	6408.39
452.31	6410.73
452.49	6377.96
452.68	6509.03
452.86	6546.48
453.05	6450.52
453.23	6576.91
453.42	6499.67
453.60	6429.45
453.78	6635.42
453.97	6448.18
454.15	6621.38
454.34	6766.49
454.52	6740.74
454.70	6764.15
454.89	6881.18
455.07	6693.93
455.26	6888.20
455.44	6890.54
455.62	6839.05
455.81	6841.39
455.99	7016.93
456.17	7021.61
456.36	6867.13
456.54	7101.19
456.73	7178.42
456.91	7206.51
457.09	7258.00
457.28	7501.42
457.46	7030.97
457.64	7316.51
457.83	7197.15
458.01	7073.10
458.19	7377.37
458.38	7103.53
458.56	7330.56
458.74	7353.96
458.93	7524.82
459.11	7321.20
459.29	7480.35
459.48	7400.77
459.66	7328.22
459.84	7641.85
460.03	7868.88
460.21	7730.79
460.39	7674.62
460.57	7592.70
460.76	7487.37
460.94	7791.64
461.12	7861.86
461.31	7906.33
461.49	7793.98
461.67	7751.85
461.85	7948.46
462.04	7878.24
462.22	8369.76
462.40	8067.83
462.59	7906.33
462.77	7932.08
462.95	8002.29
463.13	8032.72
463.32	8042.08
463.50	8175.49
463.68	8095.91
463.86	8032.72
464.05	8142.72
464.23	8135.70
464.41	8112.30
464.59	7840.79
464.78	8306.56
464.96	8159.11
465.14	8105.28
465.32	8280.82
465.50	8437.63
465.69	8465.72
465.87	8306.56
466.05	8210.60
466.23	8336.99
466.41	8425.93
466.60	8528.91
466.78	8257.41
466.96	8423.59
467.14	8423.59
467.32	8297.20
467.51	8624.87
467.69	8269.11
467.87	8503.17
468.05	8458.70
468.23	8458.70
468.41	8688.07
468.60	8362.73
468.78	8674.03
468.96	8482.10
469.14	8669.34
469.32	8730.20
469.50	8535.93
469.69	8788.71
469.87	8912.76
470.05	8959.57
470.23	8725.52
470.41	8774.67
470.59	9022.77
470.77	8992.34
470.95	8954.89
471.14	9146.81
471.32	9025.11
471.50	9226.39
471.68	9434.70
471.86	9331.72
472.04	9263.84
472.22	9565.77
472.40	9205.33
472.58	9294.27
472.77	9495.55
472.95	9708.54
473.13	9816.21
473.31	9701.52
473.49	9568.11
473.67	9720.24
473.85	9760.03
474.03	9769.40
474.21	9872.38
474.39	9933.23
474.57	10003.45
474.75	9788.12
474.93	10120.48
475.12	9916.85
475.30	10244.52
475.48	10104.09
475.66	10380.28
475.84	10300.70
476.02	10310.06
476.20	10263.25
476.38	10698.59
476.56	10843.70
476.74	10532.41
476.92	10633.05
477.10	10654.12
477.28	11159.67
477.46	11023.92
477.64	10939.66
477.82	11056.69
478.00	11339.90
478.18	11344.58
478.36	11442.88
478.54	11403.09
478.72	11452.24
478.90	11602.04
479.08	11864.18
479.26	11843.11
479.44	11910.99
479.62	11997.59
479.80	12002.27
479.98	12112.27
480.16	12290.15
480.34	12306.54
480.52	12374.41
480.70	12299.52
480.88	12664.64
481.06	12568.68
481.24	12669.32
481.41	12732.51
481.59	13025.08
481.77	12978.27
481.95	13252.11
482.13	13268.50
482.31	13055.51
482.49	13521.27
482.67	13341.05
482.85	13631.28
483.03	13724.90
483.21	13944.91
483.39	13879.38
483.57	14029.17
483.74	14305.35
483.92	14120.45
484.10	14146.20
484.28	14607.28
484.46	14616.65
484.64	14799.21
484.82	14551.11
485.00	14817.93
485.18	15040.28
485.35	15192.42
485.53	15316.47
485.71	15119.86
485.89	15234.55
486.07	15377.32
486.25	15363.28
486.43	15410.09
486.61	15749.46
486.78	15719.04
486.96	15775.21
487.14	16217.57
487.32	16212.89
487.50	16535.88
487.68	16755.90
487.85	16718.45
488.03	16800.37
488.21	17212.30
488.39	17135.06
488.57	17090.59
488.75	17273.15
488.92	17387.84
489.10	17532.95
489.28	17479.12
489.46	17975.31
489.64	18047.87
489.81	18192.98
489.99	18513.64
490.17	18391.93
490.35	18633.00
490.53	18576.83
490.70	18885.78
490.88	18644.71
491.06	19089.41
491.24	19030.90
491.41	19089.41
491.59	19124.52
491.77	19222.82
491.95	19620.71
492.13	20114.56
492.30	20095.84
492.48	19833.70
492.66	20034.99
492.84	19910.94
493.01	20402.45
493.19	20236.27
493.37	20435.22
493.54	20645.87
493.72	20858.85
493.90	20367.34
494.08	21027.37
494.25	21083.55
494.43	21301.22
494.61	21659.32
494.79	21245.04
494.96	21156.10
495.14	21706.13
495.32	21774.00
495.49	21804.43
495.67	21891.03
495.85	22094.66
496.02	22295.94
496.20	22190.62
496.38	22099.34
496.55	22562.76
496.73	22838.95
496.91	22698.52
497.09	23056.62
497.26	22892.78
497.44	22794.48
497.62	23145.56
497.79	23199.39
497.97	23101.09
498.14	23501.32
498.32	23580.90
498.50	23616.01
498.67	23494.30
498.85	23939.00
499.03	24329.87
499.20	24208.16
499.38	23887.51
499.56	24404.77
499.73	24690.31
499.91	24781.59
500.08	24622.44
500.26	24484.34
500.44	24680.95
500.61	24680.95
500.79	24790.95
500.97	24954.79
501.14	24975.86
501.32	25230.98
501.49	25521.20
501.67	24999.26
501.84	25493.12
502.02	25209.91
502.20	25682.70
502.37	25359.70
502.55	25195.87
502.72	26134.42
502.90	25652.27
503.07	25788.02
503.25	26073.57
503.43	25825.47
503.60	26265.49
503.78	25699.08
503.95	26192.94
504.13	26518.27
504.30	26295.92
504.48	26520.61
504.65	26501.89
504.83	27021.48
505.01	27225.11
505.18	26838.92
505.36	27314.05
505.53	26944.25
505.71	27569.17
505.88	27395.97
506.06	26916.16
506.23	27311.71
506.41	27058.93
506.58	27620.66
506.76	27674.49
506.93	27793.86
507.11	27487.25
507.28	28123.88
507.46	27779.82
507.63	28268.99
507.81	28119.20
507.98	28149.62
508.16	28608.37
508.33	28137.92
508.50	28444.53
508.68	28758.16
508.85	28776.89
509.03	28669.22
509.20	28563.90
509.38	28734.76
509.55	28898.59
509.73	29001.58
509.90	28914.98
510.08	29113.92
510.25	29296.49
510.42	29214.57
510.60	29465.00
510.77	29411.17
510.95	29603.10
511.12	29481.39
511.30	29799.70
511.47	29809.06
511.64	29921.41
511.82	29935.45
511.99	29926.09
512.17	30309.94
512.34	29851.19
512.51	30511.22
512.69	30497.18
512.86	30277.17
513.04	30630.59
513.21	30649.32
513.38	30230.36
513.56	30824.86
513.73	30429.30
513.90	30579.10
514.08	30906.77
514.25	30810.81
514.43	31035.50
514.60	30714.85
514.77	31143.17
514.95	31442.76
515.12	31358.50
515.29	31386.58
515.47	31864.05
515.64	31821.92
515.81	31379.56
515.99	31866.39
516.16	31658.09
516.33	31901.50
516.51	31894.48
516.68	31185.30
516.85	31194.66
517.03	31957.67
517.20	31704.90
517.37	31840.65
517.54	32079.38
517.72	32086.40
517.89	32332.16
518.06	32194.07
518.24	32037.25
518.41	32126.19
518.58	32201.09
518.75	32610.68
518.93	32856.44
519.10	32353.23
519.27	32912.61
519.45	32596.64
519.62	32577.92
519.79	33027.30
519.96	33247.31
520.14	33720.10
520.31	32769.84
520.48	33188.80
520.65	33284.76
520.83	33795.00
521.00	33851.17
521.17	33558.60
521.34	33205.18
521.52	33996.28
521.69	33940.11
521.86	34096.92
522.03	33797.34
522.20	33886.28
522.38	34150.76
522.55	34087.56
522.72	34040.75
522.89	34305.23
523.07	34352.04
523.24	34293.53
523.41	34799.08
523.58	34433.96
523.75	34658.65
523.92	34871.64
524.10	34998.03
524.27	34897.39
524.44	35220.38
524.61	34902.07
524.78	34899.73
524.96	35281.24
525.13	35468.48
525.30	35381.88
525.47	35295.28
525.64	35367.84
525.81	35686.15
525.98	35105.70
526.16	35414.65
526.33	35101.01
526.50	35941.27
526.67	35012.07
526.84	35454.44
527.01	35257.83
527.18	35894.46
527.36	35721.26
527.53	35683.81
527.70	35950.63
527.87	35526.99
528.04	36048.93
528.21	36119.15
528.38	36350.86
528.55	36407.03
528.72	36411.71
528.89	36598.96
529.07	36297.03
529.24	36301.71
529.41	36491.29
529.58	36329.80
529.75	36271.28
529.92	36170.64
530.09	36744.07
530.26	36959.40
530.43	36844.71
530.60	36708.96
530.77	36608.32
530.94	37123.24
531.11	37158.34
531.28	37195.79
531.46	37640.50
531.63	36950.04
531.80	37099.83
531.97	37294.10
532.14	36879.82
532.31	37062.38
532.48	37067.06
532.65	37511.77
532.82	37401.76
532.99	37663.90
533.16	37226.22
533.33	37303.46
533.50	37649.86
533.67	38092.22
533.84	37818.38
534.01	38293.50
534.18	37715.39
534.35	38117.96
534.52	38117.96
534.69	37919.02
534.86	37982.21
535.03	37551.56
535.20	38644.59
535.37	38022.00
535.54	38504.15
535.71	38464.36
535.88	38216.27
536.05	38373.08
536.22	38136.69
536.38	38618.84
536.55	38658.63
536.72	38766.29
536.89	38319.25
537.06	38117.96
537.23	38539.26
537.40	38583.73
537.57	38775.66
537.74	38731.18
537.91	39007.37
538.08	39005.03
538.25	39433.35
538.42	38766.29
538.59	39225.04
538.75	39033.11
538.92	39058.86
539.09	39250.78
539.26	39194.61
539.43	38635.22
539.60	39166.52
539.77	39342.06
539.94	39079.92
540.11	39182.91
540.28	39210.99
540.44	39056.52
540.61	39316.32
540.78	39447.39
540.95	39498.88
541.12	39423.98
541.29	39519.95
541.46	39744.64
541.62	39690.80
541.79	40289.98
541.96	39470.79
542.13	39646.33
542.30	39913.16
542.47	39821.87
542.63	39814.85
542.80	40610.64
542.97	40311.05
543.14	40732.34
543.31	40301.68
543.48	40725.32
543.64	41029.59
543.81	40378.92
543.98	40378.92
544.15	40999.16
544.32	40816.60
544.48	40889.16
544.65	40905.54
544.82	40814.26
544.99	40793.20
545.16	40921.93
545.32	40699.58
545.49	40762.77
545.66	41081.08
545.83	41308.11
546.00	40999.16
546.16	41029.59
546.33	40961.72
546.50	40664.47
546.67	41223.86
546.83	40811.92
547.00	41574.94
547.17	40959.38
547.34	40938.31
547.50	41333.86
547.67	41476.63
547.84	41354.93
548.00	41361.95
548.17	41708.35
548.34	41359.61
548.51	41567.91
548.67	41565.57
548.84	41476.63
549.01	41853.46
549.18	41450.89
549.34	41626.43
549.51	41766.86
549.68	41902.61
549.84	41947.08
550.01	42066.45
550.18	41486.00
550.34	41539.83
550.51	41546.85
550.68	42174.11
550.84	41375.99
551.01	42026.66
551.18	41895.59
551.34	42050.06
551.51	42134.32
551.68	42403.49
551.84	42284.12
552.01	42036.02
552.18	42192.84
552.34	42007.94
552.51	42974.58
552.68	42574.34
552.84	42344.97
553.01	42724.14
553.18	42342.63
553.34	42246.67
553.51	42600.09
553.67	42330.93
553.84	43133.73
554.01	43040.11
554.17	42787.33
554.34	43079.90
554.51	42859.89
554.67	43040.11
554.84	43012.02
555.00	42405.83
555.17	42483.06
555.33	42667.97
555.50	42597.75
555.67	42375.40
555.83	42763.93
556.00	43049.47
556.16	43475.45
556.33	43126.71
556.50	42824.78
556.66	43079.90
556.83	42440.93
556.99	43271.82
557.16	43089.26
557.32	43452.05
557.49	43274.16
557.65	42784.99
557.82	43000.32
557.98	42864.57
558.15	43058.84
558.32	43337.36
558.48	43578.43
558.65	43445.02
558.81	43068.20
558.98	43313.95
559.14	43395.87
559.31	43400.55
559.47	43042.45
559.64	43573.75
559.80	43503.54
559.97	43601.84
560.13	42855.21
560.30	43386.51
560.46	43419.28
560.63	43679.08
560.79	43915.47
560.96	43885.04
561.12	43243.74
561.29	43611.20
561.45	43653.33
561.61	43508.22
561.78	43496.52
561.94	43356.08
562.11	43971.64
562.27	44409.32
562.44	43859.30
562.60	43639.29
562.77	44032.50
562.93	43566.73
563.10	43768.02
563.26	43409.92
563.42	43328.00
563.59	43833.55
563.75	43835.89
563.92	43791.42
564.08	43648.65
564.24	43854.62
564.41	43772.70
564.57	43826.53
564.74	43957.60
564.90	44095.69
565.07	43604.18
565.23	44046.54
565.39	43531.62
565.56	44332.09
565.72	43763.34
565.88	43793.76
566.05	44149.53
566.21	44215.06
566.38	43669.72
566.54	44074.63
566.70	44280.60
566.87	44383.58
567.03	44168.25
567.19	44509.97
567.36	43962.28
567.52	44011.43
567.68	44133.14
567.85	44542.74
568.01	44086.33
568.17	43796.10
568.34	44196.34
568.50	44362.51
568.66	44311.02
568.83	44233.78
568.99	44196.34
569.15	44289.96
569.32	44121.44
569.48	43924.83
569.64	44531.03
569.81	44488.90
569.97	43981.01
570.13	44519.33
570.30	44065.27
570.46	43683.76
570.62	43861.64
570.78	43550.35
570.95	43821.85
571.11	44516.99
571.27	44025.48
571.43	44287.62
571.60	44308.68
571.76	44020.80
571.92	44446.77
572.09	44189.31
572.25	44292.30
572.41	44165.91
572.57	44605.93
572.74	44353.15
572.90	44266.55
573.06	44720.62
573.22	44318.04
573.38	44463.16
573.55	44322.72
573.71	44739.34
573.87	43906.11
574.03	44245.49
574.20	44102.71
574.36	44156.55
574.52	44289.96
574.68	44701.89
574.84	44282.94
575.01	44299.32
575.17	44786.15
575.33	44446.77
575.49	44285.28
575.65	44790.83
575.82	44704.23
575.98	44596.57
576.14	44715.93
576.30	44404.64
576.46	44069.95
576.62	44217.40
576.79	44737.00
576.95	44222.08
577.11	44219.74
577.27	44465.50
577.43	44519.33
577.59	44531.03
577.75	44399.96
577.92	44409.32
578.08	43988.03
578.24	44086.33
578.40	44266.55
578.56	44301.66
578.72	44467.84
578.88	44547.42
579.04	44371.88
579.21	44418.69
579.37	44135.48
579.53	44683.17
579.69	44123.78
579.85	44444.43
580.01	44268.89
580.17	44851.69
580.33	44790.83
580.49	44758.06
580.65	44259.53
580.82	45195.74
580.98	44296.98
581.14	44332.09
581.30	44767.43
581.46	44357.83
581.62	44594.23
581.78	44428.05
581.94	44488.90
582.10	44556.78
582.26	44575.50
582.42	44919.56
582.58	44629.34
582.74	44018.46
582.90	44804.88
583.06	44626.99
583.22	44655.08
583.38	45027.23
583.54	44561.46
583.70	44329.75
583.86	44353.15
584.02	43962.28
584.18	44641.04
584.34	44516.99
584.50	44521.67
584.66	44772.11
584.82	44229.10
584.98	44980.42
585.14	44304.00
585.30	44428.05
585.46	44236.12
585.62	44465.50
585.78	44332.09
585.94	44289.96
586.10	44425.71
586.26	44332.09
586.42	45132.55
586.58	44870.41
586.74	44488.90
586.90	44406.98
587.06	44512.31
587.22	44765.09
587.38	44629.34
587.54	44818.92
587.70	44655.08
587.86	44690.19
588.02	45055.31
588.18	44746.36
588.34	44472.52
588.49	44814.24
588.65	44275.91
588.81	44203.36
588.97	44868.07
589.13	44526.35
589.29	44449.11
589.45	44519.33
589.61	44701.89
589.77	44755.72
589.93	45052.97
590.08	45113.83
590.24	44781.47
