SpectraSuite Data File
++++++++++++++++++++++++++++++++++++
Date: Fri Oct 25 10:47:51 EDT 2013
User: price-jones
Dark Spectrum Present: No
Reference Spectrum Present: No
Number of Sampled Component Spectra: 1
Spectrometers: USB2+H05261
Integration Time (usec): 100000 (USB2+H05261)
Spectra Averaged: 1 (USB2+H05261)
Boxcar Smoothing: 0 (USB2+H05261)
Correct for Electrical Dark: No (USB2+H05261)
Strobe/Lamp Enabled: No (USB2+H05261)
Correct for Detector Non-linearity: No (USB2+H05261)
Correct for Stray Light: No (USB2+H05261)
Number of Pixels in Processed Spectrum: 2048
>>>>>Begin Processed Spectral Data<<<<<
365.73	168.52
365.92	168.52
366.12	168.52
366.32	98.30
366.52	100.64
366.72	88.94
366.91	0.00
367.11	102.98
367.31	25.75
367.51	124.05
367.70	7.02
367.90	0.00
368.10	35.11
368.30	44.47
368.49	77.24
368.69	74.90
368.89	42.13
369.09	84.26
369.28	63.19
369.48	79.58
369.68	140.43
369.87	105.32
370.07	100.64
370.27	189.58
370.47	238.73
370.66	360.44
370.86	367.46
371.06	500.87
371.25	489.17
371.45	465.77
371.65	514.92
371.84	411.93
372.04	472.79
372.24	470.45
372.44	461.09
372.63	451.72
372.83	456.40
373.03	545.34
373.22	510.24
373.42	465.77
373.62	573.43
373.81	578.11
374.01	538.32
374.21	498.53
374.40	512.58
374.60	531.30
374.79	545.34
374.99	528.96
375.19	538.32
375.38	655.35
375.58	545.34
375.78	627.26
375.97	575.77
376.17	615.56
376.37	596.84
376.56	629.60
376.76	575.77
376.95	594.50
377.15	543.00
377.35	671.73
377.54	589.82
377.74	528.96
377.93	564.07
378.13	683.44
378.33	697.48
378.52	599.18
378.72	648.33
378.91	608.54
379.11	655.35
379.31	545.34
379.50	631.94
379.70	634.29
379.89	627.26
380.09	594.50
380.28	688.12
380.48	627.26
380.68	636.63
380.87	683.44
381.07	629.60
381.26	702.16
381.46	718.54
381.65	737.27
381.85	732.59
382.04	695.14
382.24	744.29
382.43	676.41
382.63	636.63
382.83	739.61
383.02	746.63
383.22	727.91
383.41	739.61
383.61	678.76
383.80	739.61
384.00	692.80
384.19	739.61
384.39	777.06
384.58	727.91
384.78	842.59
384.97	830.89
385.17	716.20
385.36	826.21
385.56	758.33
385.75	746.63
385.95	814.51
386.14	699.82
386.34	798.12
386.53	763.01
386.72	786.42
386.92	777.06
387.11	851.96
387.31	706.84
387.50	744.29
387.70	779.40
387.89	798.12
388.09	767.70
388.28	842.59
388.48	767.70
388.67	936.21
388.86	875.36
389.06	849.61
389.25	898.77
389.45	903.45
389.64	950.26
389.84	912.81
390.03	1013.45
390.22	938.55
390.42	870.68
390.61	884.72
390.81	884.72
391.00	990.05
391.19	1027.50
391.39	957.28
391.58	933.87
391.78	1004.09
391.97	1036.86
392.16	877.70
392.36	933.87
392.55	1048.56
392.75	936.21
392.94	968.98
393.13	985.37
393.33	997.07
393.52	1053.24
393.71	1053.24
393.91	1048.56
394.10	1043.88
394.29	985.37
394.49	1025.15
394.68	1142.18
394.88	1048.56
395.07	1107.07
395.26	1032.18
395.46	1022.81
395.65	1156.22
395.84	1135.16
396.04	1090.69
396.23	1076.65
396.42	1137.50
396.62	1090.69
396.81	1174.95
397.00	1167.93
397.19	1259.21
397.39	1196.01
397.58	1226.44
397.77	1235.80
397.97	1200.69
398.16	1275.59
398.35	1268.57
398.55	1252.19
398.74	1315.38
398.93	1301.34
399.12	1193.67
399.32	1369.21
399.51	1458.15
399.70	1369.21
399.90	1409.00
400.09	1455.81
400.28	1420.71
400.47	1495.60
400.67	1451.13
400.86	1397.30
401.05	1547.09
401.24	1549.43
401.44	1469.86
401.63	1453.47
401.82	1530.71
402.01	1549.43
402.21	1509.65
402.40	1495.60
402.59	1497.94
402.78	1500.28
402.97	1483.90
403.17	1563.48
403.36	1624.33
403.55	1706.25
403.74	1626.67
403.93	1643.06
404.13	1722.63
404.32	1696.89
404.51	1593.90
404.70	1682.85
404.89	1570.50
405.09	1767.10
405.28	1640.72
405.47	1650.08
405.66	1816.26
405.85	1696.89
406.05	1661.78
406.24	1767.10
406.43	1853.70
406.62	1783.49
406.81	1888.81
407.00	1827.96
407.20	1799.87
407.39	1870.09
407.58	1923.92
407.77	1923.92
407.96	1860.73
408.15	1977.75
408.34	1996.48
408.54	1989.46
408.73	2047.97
408.92	1994.14
409.11	2136.91
409.30	2015.20
409.49	1973.07
409.68	2073.71
409.87	2038.61
410.07	2120.53
410.26	2181.38
410.45	2043.29
410.64	2214.15
410.83	2200.10
411.02	2204.78
411.21	2204.78
411.40	2242.23
411.59	2380.32
411.78	2310.11
411.98	2270.32
412.17	2429.48
412.36	2148.61
412.55	2349.90
412.74	2399.05
412.93	2541.82
413.12	2457.56
413.31	2511.39
413.50	2457.56
413.69	2588.63
413.88	2654.17
414.07	2485.65
414.26	2626.08
414.45	2607.36
414.64	2726.72
414.83	2593.31
415.02	2642.46
415.22	2757.15
415.41	2761.83
415.60	2813.32
415.79	2822.69
415.98	2796.94
416.17	2869.50
416.36	2775.88
416.55	2862.48
416.74	2853.11
416.93	3049.72
417.12	3030.99
417.31	2984.18
417.50	2902.26
417.69	3122.27
417.88	3084.83
418.07	2967.80
418.26	3080.14
418.45	3239.30
418.64	3206.53
418.83	3145.68
419.02	3040.36
419.21	3208.87
419.39	3133.98
419.58	3108.23
419.77	3143.34
419.96	3236.96
420.15	3262.71
420.34	3297.81
420.53	3243.98
420.72	3407.82
420.91	3304.84
421.10	3461.65
421.29	3431.23
421.48	3309.52
421.67	3309.52
421.86	3358.67
422.05	3396.12
422.24	3449.95
422.43	3386.76
422.61	3349.31
422.80	3391.44
422.99	3527.19
423.18	3492.08
423.37	3426.54
423.56	3555.27
423.75	3517.83
423.94	3529.53
424.13	3199.51
424.32	3370.37
424.50	3449.95
424.69	3583.36
424.88	3625.49
425.07	3482.72
425.26	3564.64
425.45	3438.25
425.64	3398.46
425.83	3559.95
426.01	3674.64
426.20	3468.67
426.39	3674.64
426.58	3590.38
426.77	3559.95
426.96	3641.87
427.15	3513.14
427.33	3777.62
427.52	3625.49
427.71	3623.15
427.90	3695.71
428.09	3721.45
428.28	3634.85
428.46	3686.34
428.65	3784.65
428.84	3967.21
429.03	3981.25
429.22	3798.69
429.40	3836.14
429.59	3789.33
429.78	3637.19
429.97	3707.41
430.16	3829.12
430.34	3934.44
430.53	3871.25
430.72	3882.95
430.91	4016.36
431.10	3864.22
431.28	4088.92
431.47	4112.32
431.66	4138.07
431.85	4014.02
432.03	4109.98
432.22	4348.72
432.41	4212.96
432.60	4318.29
432.79	4194.24
432.97	4308.93
433.16	4201.26
433.35	4187.22
433.54	4297.22
433.72	4360.42
433.91	4266.80
434.10	4425.95
434.28	4142.75
434.47	4381.48
434.66	4383.82
434.85	4372.12
435.03	4430.63
435.22	4507.87
435.41	4552.34
435.59	4404.89
435.78	4596.81
435.97	4542.98
436.16	4629.58
436.34	4568.73
436.53	4706.82
436.72	4685.75
436.90	4608.51
437.09	4746.61
437.28	4521.92
437.46	4603.83
437.65	4631.92
437.84	4685.75
438.02	4622.56
438.21	4582.77
438.40	4648.30
438.58	4812.14
438.77	4847.25
438.96	4957.25
439.14	4990.02
439.33	5114.07
439.52	4912.78
439.70	4959.60
439.89	5048.54
440.08	5130.45
440.26	5205.35
440.45	5050.88
440.63	5207.69
440.82	5334.08
441.01	5287.27
441.19	5317.70
441.38	5448.77
441.57	5483.88
441.75	5535.37
441.94	5652.39
442.12	5540.05
442.31	5628.99
442.50	5654.73
442.68	5507.28
442.87	5565.79
443.05	5628.99
443.24	5804.53
443.43	5636.01
443.61	5795.17
443.80	5902.83
443.98	5834.96
444.17	5495.58
444.35	5682.82
444.54	5806.87
444.73	5657.07
444.91	5877.09
445.10	5720.27
445.28	5935.60
445.47	5750.70
445.65	5734.31
445.84	5914.53
446.02	5895.81
446.21	5884.11
446.39	5994.11
446.58	5870.06
446.77	5893.47
446.95	5977.73
447.14	6052.63
447.32	6033.90
447.51	5998.79
447.69	5980.07
447.88	6083.05
448.06	5888.79
448.25	5893.47
448.43	5844.32
448.62	6085.39
448.80	5909.85
448.99	6036.24
449.17	6099.44
449.36	6209.44
449.54	6265.61
449.73	6239.87
449.91	6441.15
450.10	6277.32
450.28	6490.31
450.46	6487.96
450.65	6417.75
450.83	6586.27
451.02	6555.84
451.20	6469.24
451.39	6380.30
451.57	6441.15
451.76	6363.92
451.94	6457.54
452.13	6588.61
452.31	6408.39
452.49	6347.53
452.68	6630.74
452.86	6401.37
453.05	6558.18
453.23	6707.98
453.42	6352.21
453.60	6607.33
453.78	6464.56
453.97	6700.95
454.15	6733.72
454.34	6581.59
454.52	6672.87
454.70	6729.04
454.89	6698.61
455.07	6672.87
455.26	6745.42
455.44	6841.39
455.62	6890.54
455.81	7002.88
455.99	7089.48
456.17	6965.43
456.36	6890.54
456.54	7136.29
456.73	7021.61
456.91	7290.77
457.09	7346.94
457.28	7417.16
457.46	7246.30
457.64	7445.24
457.83	7211.19
458.01	7162.04
458.19	7272.04
458.38	7213.53
458.56	7454.61
458.74	7246.30
458.93	7520.14
459.11	7391.41
459.29	7611.42
459.48	7571.63
459.66	7573.97
459.84	7482.69
460.03	7646.53
460.21	7576.31
460.39	7815.05
460.57	7564.61
460.76	7691.00
460.94	7730.79
461.12	7660.57
461.31	7728.45
461.49	7812.71
461.67	7726.11
461.85	7896.97
462.04	7749.51
462.22	8308.90
462.40	7948.46
462.59	7939.10
462.77	7932.08
462.95	7953.14
463.13	8156.77
463.32	8037.40
463.50	7976.55
463.68	8210.60
463.86	8042.08
464.05	7953.14
464.23	8121.66
464.41	8149.75
464.59	7840.79
464.78	8255.07
464.96	8196.56
465.14	8177.83
465.32	8315.92
465.50	8402.52
465.69	8425.93
465.87	8449.33
466.05	8404.86
466.23	8301.88
466.41	8372.10
466.60	8524.23
466.78	8318.26
466.96	8283.16
467.14	8285.50
467.32	8348.69
467.51	8674.03
467.69	8222.30
467.87	8592.11
468.05	8472.74
468.23	8538.27
468.41	8468.06
468.60	8540.61
468.78	8655.30
468.96	8514.87
469.14	8706.79
469.32	8947.87
469.50	8496.14
469.69	8856.59
469.87	8849.57
470.05	8978.30
470.23	8877.65
470.41	8861.27
470.59	9011.06
470.77	9081.28
470.95	9039.15
471.14	9062.55
471.32	9004.04
471.50	9446.40
471.68	9345.76
471.86	9294.27
472.04	9214.69
472.22	9415.98
472.40	9355.12
472.58	9362.14
472.77	9542.36
472.95	9439.38
473.13	9748.33
473.31	9638.33
473.49	9451.08
473.67	9453.42
473.85	9724.93
474.03	9898.13
474.21	9970.68
474.39	9841.95
474.57	10087.71
474.75	10125.16
474.93	10122.82
475.12	10099.41
475.30	10174.31
475.48	10031.54
475.66	10171.97
475.84	10317.08
476.02	10284.31
476.20	10394.32
476.38	10567.52
476.56	11037.97
476.74	10729.02
476.92	10754.76
477.10	10555.82
477.28	10916.26
477.46	10846.04
477.64	11253.30
477.82	11302.45
478.00	11475.65
478.18	11367.98
478.36	11356.28
478.54	11377.34
478.72	11384.37
478.90	11698.00
479.08	11768.21
479.26	11796.30
479.44	11936.73
479.62	12100.57
479.80	11896.94
479.98	11999.93
480.16	12294.83
480.34	12257.39
480.52	12589.74
480.70	12276.11
480.88	12367.39
481.06	12386.12
481.24	12666.98
481.41	12896.35
481.59	12940.82
481.77	12872.95
481.95	13039.12
482.13	13160.83
482.31	13224.03
482.49	13486.17
482.67	13401.91
482.85	13619.58
483.03	13860.65
483.21	13956.61
483.39	13818.52
483.57	13872.36
483.74	14228.12
483.92	14188.33
484.10	14038.53
484.28	14696.22
484.46	14527.71
484.64	14815.59
484.82	14721.97
485.00	14642.39
485.18	15066.03
485.35	15133.90
485.53	15131.56
485.71	14834.32
485.89	15363.28
486.07	15236.89
486.25	15229.87
486.43	15487.32
486.61	15585.63
486.78	16053.73
486.96	15957.77
487.14	16166.08
487.32	16257.36
487.50	16423.54
487.68	16840.15
487.85	16823.77
488.03	17088.25
488.21	16908.03
488.39	16908.03
488.57	17411.25
488.75	17413.59
488.92	17294.22
489.10	17727.22
489.28	17947.23
489.46	18010.42
489.64	17734.24
489.81	18415.34
489.99	18197.67
490.17	18347.46
490.35	18530.02
490.53	18572.15
490.70	18953.66
490.88	18508.96
491.06	19297.72
491.24	19037.92
491.41	19044.94
491.59	19105.79
491.77	19419.42
491.95	19522.41
492.13	19344.53
492.30	19754.12
492.48	19868.81
492.66	19983.49
492.84	19995.20
493.01	20030.30
493.19	20135.63
493.37	20428.20
493.54	20423.51
493.72	20786.30
493.90	20692.68
494.08	21348.03
494.25	21310.58
494.43	21174.83
494.61	21401.86
494.79	21411.22
494.96	21680.38
495.14	21359.73
495.32	21900.39
495.49	21748.26
495.67	21926.14
495.85	21954.22
496.02	22230.41
496.20	22759.37
496.38	22478.50
496.55	22558.08
496.73	22993.42
496.91	22948.95
497.09	22747.67
497.26	23075.34
497.44	22932.57
497.62	23147.90
497.79	23517.70
497.97	23489.62
498.14	23318.76
498.32	23648.77
498.50	23278.97
498.67	23913.25
498.85	23948.36
499.03	24107.52
499.20	24685.63
499.38	24018.58
499.56	24376.68
499.73	24191.78
499.91	24573.28
500.08	24386.04
500.26	24592.01
500.44	24631.80
500.61	24896.28
500.79	24308.80
500.97	24631.80
501.14	25212.25
501.32	25191.19
501.49	24851.81
501.67	25020.33
501.84	25455.67
502.02	25586.74
502.20	25614.82
502.37	25729.51
502.55	25935.48
502.72	25593.76
502.90	25965.90
503.07	25710.78
503.25	25738.87
503.43	26071.23
503.60	26256.13
503.78	26181.23
503.95	26370.82
504.13	26286.56
504.30	26272.51
504.48	26504.23
504.65	26902.12
504.83	26951.27
505.01	26899.78
505.18	27021.48
505.36	27342.14
505.53	27229.79
505.71	27562.15
505.88	27489.59
506.06	27070.64
506.23	27063.61
506.41	27037.87
506.58	27454.48
506.76	27564.49
506.93	28072.39
507.11	27913.23
507.28	27978.76
507.46	27828.97
507.63	27864.08
507.81	28077.07
507.98	28086.43
508.16	28163.67
508.33	28428.15
508.50	28870.51
508.68	28517.09
508.85	28685.61
509.03	28676.24
509.20	28545.17
509.38	28802.63
509.55	28961.79
509.73	28631.77
509.90	29039.03
510.08	28823.70
510.25	29542.24
510.42	29413.51
510.60	29558.63
510.77	29305.85
510.95	29556.28
511.12	29401.81
511.30	29858.21
511.47	29968.22
511.64	29933.11
511.82	30071.20
511.99	29940.13
512.17	30197.59
512.34	30052.48
512.51	30476.12
512.69	30806.13
512.86	30160.14
513.04	30768.68
513.21	30859.96
513.38	30740.60
513.56	30506.54
513.73	30604.84
513.90	30731.23
514.08	30623.57
514.25	30888.05
514.43	30906.77
514.60	30602.50
514.77	30869.33
514.95	31463.82
515.12	30979.33
515.29	31452.12
515.47	31618.30
515.64	31910.86
515.81	31758.73
515.99	31604.25
516.16	31693.19
516.33	31714.26
516.51	31772.77
516.68	31632.34
516.85	31709.58
517.03	31639.36
517.20	31917.89
517.37	32053.64
517.54	32011.51
517.72	32374.29
517.89	32198.75
518.06	32371.95
518.24	32222.16
518.41	32098.11
518.58	32496.00
518.75	31964.70
518.93	32936.02
519.10	32582.60
519.27	33034.32
519.45	32741.75
519.62	32741.75
519.79	33149.01
519.96	33074.11
520.14	33525.83
520.31	33085.81
520.48	33619.46
520.65	33457.96
520.83	33502.43
521.00	33797.34
521.17	33404.13
521.34	34122.67
521.52	33701.37
521.69	33825.42
521.86	34071.18
522.03	34057.14
522.20	34366.09
522.38	34333.32
522.55	34543.97
522.72	33886.28
522.89	34139.05
523.07	34338.00
523.24	33820.74
523.41	34398.85
523.58	34696.10
523.75	34719.51
523.92	34782.70
524.10	35391.24
524.27	34991.01
524.44	34902.07
524.61	35302.30
524.78	35346.77
524.96	35248.47
525.13	35082.29
525.30	35250.81
525.47	35477.84
525.64	35824.24
525.81	35248.47
525.98	35517.63
526.16	35119.74
526.33	35330.39
526.50	35615.93
526.67	35211.02
526.84	35278.89
527.01	35416.99
527.18	35538.69
527.36	35796.15
527.53	35639.34
527.70	36194.04
527.87	36266.60
528.04	35541.03
528.21	36240.86
528.38	36247.88
528.55	36271.28
528.72	36346.18
528.89	36437.46
529.07	36458.52
529.24	36161.28
529.41	36786.20
529.58	36196.38
529.75	36371.92
529.92	36854.08
530.09	36678.54
530.26	36889.18
530.43	37352.61
530.60	37060.04
530.77	36833.01
530.94	37511.77
531.11	37076.43
531.28	37186.43
531.46	36947.70
531.63	37333.89
531.80	37399.42
531.97	37397.08
532.14	37242.60
532.31	37273.03
532.48	37160.69
532.65	37645.18
532.82	37691.99
532.99	37717.73
533.16	37556.24
533.33	37661.56
533.50	38038.39
533.67	37748.16
533.84	37420.48
534.01	37727.10
534.18	37972.85
534.35	38337.98
534.52	38148.39
534.69	38153.07
534.86	38349.68
535.03	37954.13
535.20	38494.79
535.37	38588.41
535.54	38494.79
535.71	38157.75
535.88	38263.08
536.05	38555.64
536.22	38452.66
536.38	38522.88
536.55	38410.53
536.72	38532.24
536.89	38258.40
537.06	38675.01
537.23	38948.85
537.40	38330.95
537.57	38642.24
537.74	38707.78
537.91	39159.50
538.08	38862.26
538.25	38511.17
538.42	38703.10
538.59	39372.49
538.75	38775.66
538.92	39086.95
539.09	39351.43
539.26	39541.01
539.43	39356.11
539.60	39789.11
539.77	39014.39
539.94	39632.29
540.11	39302.28
540.28	38878.64
540.44	39440.37
540.61	39246.10
540.78	39077.58
540.95	39356.11
541.12	39374.83
541.29	39533.99
541.46	39651.02
541.62	39564.42
541.79	40060.61
541.96	39880.39
542.13	39597.18
542.30	40034.86
542.47	39810.17
542.63	39978.69
542.80	40194.02
542.97	40575.53
543.14	40690.21
543.31	40612.98
543.48	40313.39
543.64	41153.64
543.81	40858.73
543.98	40657.45
544.15	40229.13
544.32	40779.15
544.48	41303.43
544.65	40760.43
544.82	40624.68
544.99	40680.85
545.16	40994.48
545.32	40591.91
545.49	40615.32
545.66	40725.32
545.83	41375.99
546.00	40807.24
546.16	40938.31
546.33	41308.11
546.50	40760.43
546.67	41205.13
546.83	40505.31
547.00	41202.79
547.17	40961.72
547.34	40945.33
547.50	41645.15
547.67	41745.80
547.84	41401.74
548.00	41413.44
548.17	41570.25
548.34	41642.81
548.51	41921.34
548.67	41322.16
548.84	41588.98
549.01	41823.03
549.18	41483.66
549.34	41757.50
549.51	42043.04
549.68	42316.89
549.84	41895.59
550.01	42251.35
550.18	42005.59
550.34	41649.83
550.51	42059.43
550.68	42108.58
550.84	41500.04
551.01	41748.14
551.18	41862.82
551.34	41813.67
551.51	42639.88
551.68	42469.02
551.84	42300.50
552.01	42635.20
552.18	42108.58
552.34	42422.21
552.51	42197.52
552.68	42178.79
552.84	42780.31
553.01	42506.47
553.18	42572.00
553.34	42375.40
553.51	42349.65
553.67	42195.18
553.84	42515.83
554.01	43243.74
554.17	42955.85
554.34	42721.80
554.51	43330.34
554.67	42831.80
554.84	42841.17
555.00	43002.66
555.17	42529.87
555.33	42801.38
555.50	42969.90
555.67	43051.81
555.83	42806.06
556.00	43370.13
556.16	43447.36
556.33	43119.69
556.50	42878.61
556.66	43044.79
556.83	42939.47
556.99	43096.28
557.16	43285.87
557.32	43313.95
557.49	43253.10
557.65	42983.94
557.82	42780.31
557.98	42920.74
558.15	42932.45
558.32	43407.58
558.48	43096.28
558.65	43093.94
558.81	43157.14
558.98	43480.13
559.14	43613.54
559.31	43538.65
559.47	43615.88
559.64	43852.28
559.80	43402.89
559.97	43470.77
560.13	43196.93
560.30	43175.86
560.46	43817.17
560.63	43576.09
560.79	43697.80
560.96	43901.43
561.12	43538.65
561.29	43901.43
561.45	43454.39
561.61	43583.12
561.78	43475.45
561.94	43580.78
562.11	43374.81
562.27	43281.19
562.44	43583.12
562.60	43826.53
562.77	43931.86
562.93	43650.99
563.10	44128.46
563.26	43456.73
563.42	43665.03
563.59	43786.74
563.75	43838.23
563.92	44348.47
564.08	44177.61
564.24	44072.29
564.41	43793.76
564.57	44004.41
564.74	43983.35
564.90	44177.61
565.07	43896.75
565.23	44306.34
565.39	43784.40
565.56	44261.87
565.72	43791.42
565.88	44091.01
566.05	43896.75
566.21	43828.87
566.38	43648.65
566.54	44252.51
566.70	44205.70
566.87	44566.14
567.03	44044.20
567.19	44680.83
567.36	44287.62
567.52	44149.53
567.68	44460.82
567.85	44306.34
568.01	44058.24
568.17	44016.11
568.34	44282.94
568.50	44224.42
568.66	44123.78
568.83	44240.81
568.99	43894.41
569.15	43934.20
569.32	44165.91
569.48	43924.83
569.64	44100.37
569.81	44577.84
569.97	44561.46
570.13	43840.57
570.30	43990.37
570.46	43765.68
570.62	43943.56
570.78	44287.62
570.95	43948.24
571.11	44343.79
571.27	44030.16
571.43	44278.25
571.60	44753.38
571.76	44282.94
571.92	44374.22
572.09	44011.43
572.25	44304.00
572.41	44488.90
572.57	44519.33
572.74	45048.29
572.90	44680.83
573.06	44364.85
573.22	44634.02
573.38	44814.24
573.55	44163.57
573.71	44811.90
573.87	44839.98
574.03	44404.64
574.20	44626.99
574.36	44549.76
574.52	44381.24
574.68	45146.59
574.84	44615.29
575.01	44655.08
575.17	44261.87
575.33	44540.39
575.49	44257.19
575.65	44807.22
575.82	44591.89
575.98	44484.22
576.14	44797.85
576.30	44144.84
576.46	44753.38
576.62	44727.64
576.79	44055.90
576.95	44519.33
577.11	44751.04
577.27	44610.61
577.43	44439.75
577.59	44561.46
577.75	44252.51
577.92	43856.96
578.08	44587.21
578.24	44250.17
578.40	44598.91
578.56	44500.61
578.72	44282.94
578.88	44858.71
579.04	44910.20
579.21	44472.52
579.37	44601.25
579.53	44502.95
579.69	44568.48
579.85	44512.31
580.01	44524.01
580.17	44261.87
580.33	44755.72
580.49	44835.30
580.65	44769.77
580.82	44804.88
580.98	44720.62
581.14	44521.67
581.30	45118.51
581.46	44884.45
581.62	44870.41
581.78	44802.53
581.94	45017.86
582.10	44289.96
582.26	44830.62
582.42	44741.68
582.58	44776.79
582.74	44673.81
582.90	45120.85
583.06	44802.53
583.22	44823.60
583.38	44835.30
583.54	44622.31
583.70	44811.90
583.86	44568.48
584.02	44680.83
584.18	44428.05
584.34	44802.53
584.50	44989.78
584.66	44664.44
584.82	44304.00
584.98	44989.78
585.14	44725.30
585.30	44456.14
585.46	44430.39
585.62	44390.60
585.78	44671.46
585.94	44587.21
586.10	44949.99
586.26	44652.74
586.42	45013.18
586.58	45006.16
586.74	44779.13
586.90	44748.70
587.06	44360.17
587.22	44938.29
587.38	44870.41
587.54	45390.01
587.70	44807.22
587.86	44954.67
588.02	44559.12
588.18	44971.05
588.34	45081.06
588.49	44729.98
588.65	44524.01
588.81	44514.65
588.97	44367.20
589.13	44638.70
589.29	44825.94
589.45	44842.32
589.61	44790.83
589.77	45111.49
589.93	44584.86
590.08	45226.17
590.24	45106.80
