SpectraSuite Data File
++++++++++++++++++++++++++++++++++++
Date: Fri Oct 25 11:23:29 EDT 2013
User: price-jones
Dark Spectrum Present: No
Reference Spectrum Present: No
Number of Sampled Component Spectra: 1
Spectrometers: USB2+H05261
Integration Time (usec): 100000 (USB2+H05261)
Spectra Averaged: 1 (USB2+H05261)
Boxcar Smoothing: 0 (USB2+H05261)
Correct for Electrical Dark: No (USB2+H05261)
Strobe/Lamp Enabled: No (USB2+H05261)
Correct for Detector Non-linearity: No (USB2+H05261)
Correct for Stray Light: No (USB2+H05261)
Number of Pixels in Processed Spectrum: 2048
>>>>>Begin Processed Spectral Data<<<<<
365.73	297.25
365.92	297.25
366.12	297.25
366.32	114.69
366.52	126.39
366.72	133.41
366.91	98.30
367.11	95.96
367.31	152.13
367.51	93.62
367.70	93.62
367.90	124.05
368.10	126.39
368.30	163.84
368.49	135.75
368.69	102.98
368.89	107.66
369.09	105.32
369.28	191.92
369.48	138.09
369.68	149.79
369.87	184.90
370.07	250.44
370.27	194.26
370.47	334.70
370.66	617.90
370.86	688.12
371.06	617.90
371.25	763.01
371.45	622.58
371.65	645.99
371.84	713.86
372.04	690.46
372.24	657.69
372.44	676.41
372.63	734.93
372.83	702.16
373.03	816.85
373.22	704.50
373.42	730.25
373.62	713.86
373.81	760.67
374.01	793.44
374.21	835.57
374.40	781.74
374.60	823.87
374.79	791.10
374.99	835.57
375.19	798.12
375.38	812.17
375.58	847.27
375.78	915.15
375.97	798.12
376.17	844.93
376.37	891.74
376.56	863.66
376.76	833.23
376.95	833.23
377.15	903.45
377.35	896.43
377.54	880.04
377.74	910.47
377.93	830.89
378.13	924.51
378.33	884.72
378.52	870.68
378.72	894.08
378.91	964.30
379.11	971.32
379.31	1013.45
379.50	922.17
379.70	976.00
379.89	910.47
380.09	945.58
380.28	931.53
380.48	1032.18
380.68	1018.13
380.87	1015.79
381.07	938.55
381.26	1053.24
381.46	1006.43
381.65	1032.18
381.85	1032.18
382.04	1029.84
382.24	1083.67
382.43	1025.15
382.63	1076.65
382.83	1116.44
383.02	1050.90
383.22	1139.84
383.41	1107.07
383.61	1069.62
383.80	1123.46
384.00	1111.75
384.19	1048.56
384.39	1067.28
384.58	1100.05
384.78	1128.14
384.97	1095.37
385.17	1104.73
385.36	1121.12
385.56	1114.10
385.75	1167.93
385.95	1160.91
386.14	1205.38
386.34	1210.06
386.53	1144.52
386.72	1217.08
386.92	1247.51
387.11	1242.82
387.31	1275.59
387.50	1228.78
387.70	1280.27
387.89	1282.61
388.09	1219.42
388.28	1277.93
388.48	1252.19
388.67	1259.21
388.86	1214.74
389.06	1338.79
389.25	1378.58
389.45	1287.29
389.64	1280.27
389.84	1355.17
390.03	1385.60
390.22	1469.86
390.42	1338.79
390.61	1357.51
390.81	1345.81
391.00	1413.68
391.19	1448.79
391.39	1423.05
391.58	1460.49
391.78	1479.22
391.97	1533.05
392.16	1519.01
392.36	1521.35
392.55	1418.36
392.75	1586.88
392.94	1465.18
393.13	1519.01
393.33	1493.26
393.52	1542.41
393.71	1591.56
393.91	1504.96
394.10	1535.39
394.29	1542.41
394.49	1598.59
394.68	1678.16
394.88	1582.20
395.07	1631.35
395.26	1657.10
395.46	1724.97
395.65	1722.63
395.84	1659.44
396.04	1858.39
396.23	1661.78
396.42	1732.00
396.62	1863.07
396.81	1734.34
397.00	1865.41
397.19	1851.36
397.39	1774.13
397.58	1748.38
397.77	1753.06
397.97	1820.94
398.16	1867.75
398.35	1963.71
398.55	1844.34
398.74	1954.35
398.93	1888.81
399.12	1893.49
399.32	1930.94
399.51	1858.39
399.70	2062.01
399.90	2045.63
400.09	2066.69
400.28	1963.71
400.47	2017.54
400.67	2101.80
400.86	1959.03
401.05	1975.41
401.24	2052.65
401.44	2073.71
401.63	2136.91
401.82	2106.48
402.01	2069.03
402.21	2115.84
402.40	2176.70
402.59	2249.25
402.78	2193.08
402.97	2134.57
403.17	2244.57
403.36	2293.72
403.55	2204.78
403.74	2462.24
403.93	2408.41
404.13	2249.25
404.32	2352.24
404.51	2382.67
404.70	2483.31
404.89	2509.05
405.09	2385.01
405.28	2345.22
405.47	2487.99
405.66	2651.83
405.85	2537.14
406.05	2523.10
406.24	2560.55
406.43	2534.80
406.62	2469.27
406.81	2607.36
407.00	2581.61
407.20	2724.38
407.39	2597.99
407.58	2689.28
407.77	2813.32
407.96	2635.44
408.15	2747.79
408.34	2733.75
408.54	2682.25
408.73	2771.19
408.92	2813.32
409.11	2885.88
409.30	2850.77
409.49	2928.01
409.68	2984.18
409.87	2932.69
410.07	3021.63
410.26	3054.40
410.45	2960.78
410.64	3063.76
410.83	3021.63
411.02	3061.42
411.21	3197.17
411.40	3204.19
411.59	3150.36
411.78	3225.26
411.98	3211.22
412.17	3138.66
412.36	3368.03
412.55	3325.90
412.74	3346.97
412.93	3482.72
413.12	3290.79
413.31	3637.19
413.50	3529.53
413.69	3435.91
413.88	3538.89
414.07	3618.47
414.26	3630.17
414.45	3648.90
414.64	3620.81
414.83	3747.20
415.02	3803.37
415.22	3772.94
415.41	3847.84
415.60	3880.61
415.79	3981.25
415.98	4070.19
416.17	3885.29
416.36	3988.27
416.55	3978.91
416.74	4128.70
416.93	4086.58
417.12	4095.94
417.31	4177.86
417.50	4259.78
417.69	4402.55
417.88	4369.78
418.07	4248.07
418.26	4245.73
418.45	4390.84
418.64	4571.07
418.83	4416.59
419.02	4430.63
419.21	4491.49
419.39	4400.21
419.58	4454.04
419.77	4601.49
419.96	4592.13
420.15	4594.47
420.34	4573.41
420.53	4545.32
420.72	4652.98
420.91	4657.67
421.10	4713.84
421.29	4765.33
421.48	4645.96
421.67	4821.50
421.86	4791.08
422.05	4798.10
422.24	4751.29
422.43	4823.84
422.61	4720.86
422.80	4905.76
422.99	4854.27
423.18	5046.20
423.37	5135.14
423.56	4919.81
423.75	4933.85
423.94	4840.23
424.13	4662.35
424.32	4851.93
424.50	5055.56
424.69	5085.98
424.88	5121.09
425.07	4910.44
425.26	4947.89
425.45	4990.02
425.64	4973.64
425.83	4865.97
426.01	5085.98
426.20	4933.85
426.39	5193.65
426.58	5034.49
426.77	5132.79
426.96	5118.75
427.15	5149.18
427.33	5273.23
427.52	5008.75
427.71	5184.29
427.90	5261.52
428.09	5355.15
428.28	5451.11
428.46	5352.81
428.65	5446.43
428.84	5509.62
429.03	5659.42
429.22	5359.83
429.40	5408.98
429.59	5582.18
429.78	5329.40
429.97	5373.87
430.16	5490.90
430.34	5650.05
430.53	5769.42
430.72	5654.73
430.91	5568.13
431.10	5638.35
431.28	5776.44
431.47	5654.73
431.66	5827.93
431.85	5722.61
432.03	5951.98
432.22	6083.05
432.41	6019.86
432.60	5921.56
432.79	6108.80
432.97	5916.87
433.16	5982.41
433.35	6115.82
433.54	6197.74
433.72	6195.40
433.91	6059.65
434.10	6200.08
434.28	6246.89
434.47	6153.27
434.66	6286.68
434.85	6216.46
435.03	6370.94
435.22	6373.28
435.41	6635.42
435.59	6604.99
435.78	6647.12
435.97	6487.96
436.16	6267.95
436.34	6396.68
436.53	6530.09
436.72	6672.87
436.90	6642.44
437.09	6628.40
437.28	6541.80
437.46	6628.40
437.65	6642.44
437.84	6640.10
438.02	6918.62
438.21	6853.09
438.40	6682.23
438.58	6862.45
438.77	7068.42
438.96	6965.43
439.14	7028.63
439.33	7222.89
439.52	7201.83
439.70	7288.43
439.89	7302.47
440.08	7358.64
440.26	7382.05
440.45	7323.54
440.63	7363.33
440.82	7639.51
441.01	7517.80
441.19	7691.00
441.38	7812.71
441.57	7775.26
441.75	7763.56
441.94	7936.76
442.12	7861.86
442.31	8088.89
442.50	8042.08
442.68	7983.57
442.87	8081.87
443.05	8194.22
443.24	8334.65
443.43	8191.88
443.61	7992.93
443.80	8348.69
443.98	8138.04
444.17	7946.12
444.35	8367.42
444.54	8278.47
444.73	8367.42
444.91	8400.18
445.10	8430.61
445.28	8383.80
445.47	8182.51
445.65	8390.82
445.84	8428.27
446.02	8236.35
446.21	8435.29
446.39	8568.70
446.58	8458.70
446.77	8475.08
446.95	8421.25
447.14	8428.27
447.32	8486.78
447.51	8409.54
447.69	8446.99
447.88	8496.14
448.06	8641.26
448.25	8578.06
448.43	8720.84
448.62	8554.66
448.80	8610.83
448.99	8898.72
449.17	8837.86
449.36	8821.48
449.54	8791.05
449.73	9212.35
449.91	9008.72
450.10	8959.57
450.28	9111.71
450.46	8982.98
450.65	9163.20
450.83	8842.54
451.02	8947.87
451.20	9177.24
451.39	9210.01
451.57	9071.92
451.76	9114.05
451.94	9338.74
452.13	9371.50
452.31	9387.89
452.49	9156.18
452.68	9287.25
452.86	9430.02
453.05	9516.62
453.23	9437.04
453.42	9256.82
453.60	9434.70
453.78	9745.99
453.97	9460.45
454.15	9701.52
454.34	9678.12
454.52	9877.06
454.70	9757.69
454.89	9954.30
455.07	9769.40
455.26	9738.97
455.44	9991.75
455.62	9879.40
455.81	9980.04
455.99	10190.69
456.17	10129.84
456.36	10040.90
456.54	10321.76
456.73	10401.34
456.91	10509.01
457.09	10501.98
457.28	10626.03
457.46	10162.61
457.64	10712.63
457.83	10417.72
458.01	10555.82
458.19	10906.90
458.38	10682.20
458.56	10871.79
458.74	10619.01
458.93	10595.61
459.11	10661.14
459.29	10909.24
459.48	11068.39
459.66	10909.24
459.84	10890.51
460.03	11124.57
460.21	11243.93
460.39	10967.75
460.57	11077.76
460.76	11176.06
460.94	11344.58
461.12	11309.47
461.31	11225.21
461.49	11126.91
461.67	11164.36
461.85	11477.99
462.04	11470.97
462.22	11810.34
462.40	11632.46
462.59	11499.05
462.77	11531.82
462.95	11550.54
463.13	11726.08
463.32	11637.14
463.50	11845.45
463.68	11768.21
463.86	11894.60
464.05	11761.19
464.23	11688.64
464.41	12006.95
464.59	11749.49
464.78	12236.32
464.96	12002.27
465.14	12006.95
465.32	12039.72
465.50	11988.22
465.69	12077.16
465.87	12222.28
466.05	12159.08
466.23	12248.02
466.41	12374.41
466.60	12575.70
466.78	12383.77
466.96	12086.53
467.14	12493.78
467.32	12411.86
467.51	12472.71
467.69	12074.82
467.87	12659.96
468.05	12526.55
468.23	12594.42
468.41	12596.76
468.60	12779.32
468.78	12999.34
468.96	12615.49
469.14	13172.54
469.32	13006.36
469.50	12952.52
469.69	13207.64
469.87	13085.94
470.05	13109.34
470.23	13483.83
470.41	13303.60
470.59	13462.76
470.77	13195.94
470.95	13556.38
471.14	13600.85
471.32	13146.79
471.50	13572.77
471.68	13771.71
471.86	13577.45
472.04	13652.34
472.22	14260.88
472.40	13846.61
472.58	13933.21
472.77	13909.80
472.95	13973.00
473.13	14590.90
473.31	13968.32
473.49	14382.59
473.67	14207.05
473.85	14541.75
474.03	14611.96
474.21	14848.36
474.39	14714.95
474.57	14963.04
474.75	15028.58
474.93	14937.30
475.12	14899.85
475.30	15459.24
475.48	15044.96
475.66	15112.84
475.84	15124.54
476.02	15660.52
476.20	15524.77
476.38	15765.85
476.56	16269.06
476.74	15967.13
476.92	16065.44
477.10	15824.36
477.28	16350.98
477.46	16009.26
477.64	16407.16
477.82	16582.70
478.00	17130.38
478.18	16835.47
478.36	16783.98
478.54	17163.15
478.72	17439.33
478.90	17504.87
479.08	17654.66
479.26	17762.33
479.44	17532.95
479.62	17647.64
479.80	17989.36
479.98	18300.65
480.16	18637.69
480.34	18501.93
480.52	18974.72
480.70	18712.58
480.88	18288.95
481.06	19073.03
481.24	18827.27
481.41	19286.01
481.59	19351.55
481.77	19812.63
481.95	19859.45
482.13	20088.82
482.31	19922.64
482.49	20128.61
482.67	20350.96
482.85	20432.88
483.03	20950.14
483.21	20673.95
483.39	21062.48
483.57	20912.69
483.74	21097.59
483.92	21511.86
484.10	21158.44
484.28	21949.54
484.46	21905.07
484.64	22199.98
484.82	21937.84
485.00	22417.65
485.18	22838.95
485.35	22813.20
485.53	23019.17
485.71	22857.67
485.89	23648.77
486.07	23707.29
486.25	24070.07
486.43	23618.35
486.61	23810.27
486.78	23906.23
486.96	24372.00
487.14	24641.16
487.32	24671.59
487.50	24666.91
487.68	25238.00
487.85	25380.77
488.03	25537.59
488.21	25984.63
488.39	25886.32
488.57	26242.09
488.75	26356.77
488.92	26899.78
489.10	26934.88
489.28	27091.70
489.46	27477.89
489.64	27379.59
489.81	27578.53
489.99	27889.82
490.17	28084.09
490.35	28294.74
490.53	28470.28
490.70	28582.62
490.88	28273.67
491.06	29252.02
491.24	29036.69
491.41	29287.12
491.59	29280.10
491.77	29504.79
491.95	29846.51
492.13	30197.59
492.30	30195.25
492.48	30148.44
492.66	30314.62
492.84	30541.65
493.01	30899.75
493.19	31063.59
493.37	31278.92
493.54	31180.62
493.72	31447.44
493.90	31573.83
494.08	32105.13
494.25	32170.66
494.43	32350.88
494.61	32655.15
494.79	32526.42
494.96	32320.46
495.14	32741.75
495.32	33141.99
495.49	33385.40
495.67	33432.21
495.85	33603.07
496.02	33797.34
496.20	34227.99
496.38	34501.84
496.55	34368.43
496.73	35126.76
496.91	34548.65
497.09	35239.11
497.26	35342.09
497.44	35213.36
497.62	35269.53
497.79	35683.81
497.97	35810.20
498.14	36004.46
498.32	36423.42
498.50	36350.86
498.67	36769.82
498.85	36484.27
499.03	36964.08
499.20	36538.10
499.38	37249.63
499.56	37326.86
499.73	37446.23
499.91	38087.54
500.08	38075.84
500.26	37467.30
500.44	37837.10
500.61	38223.29
500.79	37921.36
500.97	38225.63
501.14	38778.00
501.32	38995.67
501.49	38625.86
501.67	38930.13
501.84	39508.24
502.02	38660.97
502.20	39438.03
502.37	39475.48
502.55	39611.23
502.72	39601.86
502.90	39864.00
503.07	39908.47
503.25	40016.14
503.43	40135.51
503.60	40170.61
503.78	40233.81
503.95	40332.11
504.13	40512.33
504.30	40371.90
504.48	40308.71
504.65	40989.80
504.83	41104.49
505.01	41450.89
505.18	41813.67
505.36	41591.32
505.53	41486.00
505.71	42089.85
505.88	42131.98
506.06	41872.18
506.23	42225.60
506.41	41769.20
506.58	42487.74
506.76	42574.34
506.93	42852.87
507.11	42576.69
507.28	43030.75
507.46	42815.42
507.63	43016.71
507.81	43363.11
507.98	42850.53
508.16	43632.27
508.33	43681.42
508.50	43454.39
508.68	44280.60
508.85	43948.24
509.03	44020.80
509.20	44308.68
509.38	44886.79
509.55	44980.42
509.73	44245.49
509.90	44566.14
510.08	44584.86
510.25	44847.00
510.42	45134.89
510.60	45413.41
510.77	45890.88
510.95	45893.22
511.12	45371.28
511.30	45420.44
511.47	45801.94
511.64	45745.77
511.82	46054.72
511.99	45975.14
512.17	46258.35
512.34	46344.95
512.51	46274.73
512.69	46766.24
512.86	46312.18
513.04	47276.48
513.21	46815.40
513.38	46766.24
513.56	47009.66
513.73	47168.82
513.90	47452.02
514.08	47023.70
514.25	47632.24
514.43	47770.33
514.60	47737.57
514.77	48076.94
514.95	48285.25
515.12	47655.65
515.29	47807.78
515.47	48018.43
515.64	48271.21
515.81	48467.81
515.99	48133.12
516.16	48933.58
516.33	48531.01
516.51	48952.30
516.68	48418.66
516.85	49015.50
517.03	49050.61
517.20	49514.03
517.37	49165.29
517.54	48956.99
517.72	49481.27
517.89	49226.15
518.06	49359.56
518.24	49324.45
518.41	49279.98
518.58	49682.55
518.75	49193.38
518.93	49825.32
519.10	49907.24
519.27	50211.51
519.45	49792.56
519.62	50000.86
519.79	50019.59
519.96	50272.37
520.14	50323.86
520.31	50157.68
520.48	50672.60
520.65	50651.53
520.83	50969.85
521.00	50997.93
521.17	50911.33
521.34	50869.20
521.52	50831.75
521.69	50939.42
521.86	51246.03
522.03	51278.80
522.20	51791.37
522.38	51660.30
522.55	51416.89
522.72	51466.04
522.89	51662.64
523.07	51545.62
523.24	51576.04
523.41	51969.26
523.58	51763.29
523.75	52121.39
523.92	51938.83
524.10	52313.31
524.27	52149.48
524.44	52395.23
524.61	52301.61
524.78	52332.04
524.96	52495.88
525.13	52591.84
525.30	52821.21
525.47	52884.40
525.64	53022.50
525.81	52835.25
525.98	52912.49
526.16	52732.27
526.33	53020.16
526.50	53315.06
526.67	52966.32
526.84	53059.94
527.01	52760.36
527.18	53394.64
527.36	53186.33
527.53	53062.29
527.70	53399.32
527.87	53680.19
528.04	53169.95
528.21	53326.77
528.38	53588.91
528.55	53748.06
528.72	53488.26
528.89	53701.25
529.07	53680.19
529.24	53684.87
529.41	53984.46
529.58	53736.36
529.75	53921.26
529.92	54047.65
530.09	53862.75
530.26	54040.63
530.43	54099.14
530.60	54019.56
530.77	53841.68
530.94	54398.73
531.11	53993.82
531.28	54380.01
531.46	54576.61
531.63	54426.82
531.80	54574.27
531.97	54782.58
532.14	54894.92
532.31	54611.72
532.48	54733.43
532.65	54803.64
532.82	54583.63
532.99	54593.00
533.16	54585.97
533.33	55061.10
533.50	54981.52
533.67	54918.33
533.84	54953.44
534.01	55171.11
534.18	54831.73
534.35	55255.37
534.52	55283.45
534.69	55430.91
534.86	55365.37
535.03	55388.78
535.20	55131.32
535.37	55526.87
535.54	55512.83
535.71	55423.89
535.88	55468.36
536.05	55512.83
536.22	55749.22
536.38	55763.26
536.55	55641.56
536.72	55735.18
536.89	55489.42
537.06	55833.48
537.23	55873.27
537.40	55739.86
537.57	56030.08
537.74	55847.52
537.91	56095.62
538.08	55987.95
538.25	55751.56
538.42	56002.00
538.59	56376.48
538.75	55973.91
538.92	56175.20
539.09	56245.41
539.26	56186.90
539.43	56301.59
539.60	56350.74
539.77	56212.65
539.94	56498.19
540.11	56530.96
540.28	56332.01
540.44	56626.92
540.61	56528.62
540.78	56589.47
540.95	56498.19
541.12	56507.55
541.29	56715.86
541.46	56732.25
541.62	56715.86
541.79	56629.26
541.96	56896.08
542.13	56753.31
542.30	56949.92
542.47	56952.26
542.63	57062.26
542.80	56830.55
542.97	57144.18
543.14	57422.70
543.31	57113.75
543.48	57399.30
543.64	57352.49
543.81	57467.17
543.98	57649.74
544.15	57401.64
544.32	57684.84
544.48	57689.52
544.65	57455.47
544.82	57666.12
544.99	57609.95
545.16	57642.71
545.32	57345.47
545.49	57923.58
545.66	57839.32
545.83	57776.12
546.00	57888.47
546.16	57701.23
546.33	57567.82
546.50	57439.09
546.67	57851.02
546.83	57694.21
547.00	57914.22
547.17	57883.79
547.34	58143.59
547.50	57977.41
547.67	58223.17
547.84	58129.54
548.00	58225.51
548.17	58445.52
548.34	58099.12
548.51	58443.18
548.67	58265.30
548.84	58300.40
549.01	58272.32
549.18	58213.80
549.34	58211.46
549.51	58504.03
549.68	58511.05
549.84	58333.17
550.01	58590.63
550.18	58424.45
550.34	58525.10
550.51	58571.91
550.68	58747.45
550.84	58443.18
551.01	58747.45
551.18	58735.74
551.34	58602.33
551.51	58808.30
551.68	58822.34
551.84	58728.72
552.01	58721.70
552.18	58955.75
552.34	58756.81
552.51	58920.65
552.68	58693.61
552.84	58822.34
553.01	59049.38
553.18	58932.35
553.34	59021.29
553.51	58885.54
553.67	59070.44
553.84	59049.38
554.01	58974.48
554.17	59054.06
554.34	59079.80
554.51	59236.62
554.67	59222.58
554.84	59072.78
555.00	59068.10
555.17	59117.25
555.33	59187.47
555.50	59171.08
555.67	59084.48
555.83	59175.76
556.00	59131.29
556.16	59484.72
556.33	59372.37
556.50	59540.89
556.66	59423.86
556.83	59206.19
556.99	59454.29
557.16	59690.68
557.32	59615.79
557.49	59681.32
557.65	59276.41
557.82	59484.72
557.98	59489.40
558.15	59627.49
558.32	59611.10
558.48	59477.69
558.65	59601.74
558.81	59510.46
558.98	59697.70
559.14	59662.60
559.31	59587.70
559.47	59849.84
559.64	59817.07
559.80	59791.33
559.97	59931.76
560.13	59671.96
560.30	59611.10
560.46	60051.12
560.63	59671.96
560.79	59978.57
560.96	59929.42
561.12	60013.68
561.29	60006.65
561.45	60079.21
561.61	60037.08
561.78	60039.42
561.94	60097.94
562.11	60055.81
562.27	60051.12
562.44	60177.51
562.60	60123.68
562.77	60048.78
562.93	59945.80
563.10	60203.26
563.26	60079.21
563.42	60346.03
563.59	60135.38
563.75	60221.98
563.92	60109.64
564.08	59945.80
564.24	60212.62
564.41	60203.26
564.57	60247.73
564.74	60341.35
564.90	60371.78
565.07	60360.08
565.23	60140.07
565.39	60507.53
565.56	60301.56
565.72	60217.30
565.88	60303.90
566.05	60243.05
566.21	60214.96
566.38	60245.39
566.54	60395.18
566.70	60685.41
566.87	60547.32
567.03	60486.46
567.19	60673.71
567.36	60697.11
567.52	60402.21
567.68	60528.59
567.85	60444.33
568.01	60521.57
568.17	60327.31
568.34	60371.78
568.50	60467.74
568.66	60502.85
568.83	60540.30
568.99	60537.96
569.15	60411.57
569.32	60575.40
569.48	60683.07
569.64	60664.35
569.81	60537.96
569.97	60507.53
570.13	60521.57
570.30	60647.96
570.46	60657.32
570.62	60549.66
570.78	60746.26
570.95	60626.90
571.11	60757.97
571.27	60699.45
571.43	60662.00
571.60	60844.57
571.76	60669.03
571.92	60725.20
572.09	60732.22
572.25	60652.64
572.41	60624.56
572.57	60764.99
572.74	60940.53
572.90	60781.37
573.06	60842.23
573.22	60713.50
573.38	60680.73
573.55	60891.38
573.71	60949.89
573.87	60860.95
574.03	60563.70
574.20	60725.20
574.36	60603.49
574.52	60849.25
574.68	60896.06
574.84	60891.38
575.01	60952.23
575.17	60736.90
575.33	60757.97
575.49	60729.88
575.65	61116.07
575.82	61015.43
575.98	60905.42
576.14	60966.27
576.30	60940.53
576.46	60795.42
576.62	60697.11
576.79	60891.38
576.95	60736.90
577.11	60865.63
577.27	60963.93
577.43	60907.76
577.59	60666.69
577.75	60769.67
577.92	60839.89
578.08	60727.54
578.24	61008.40
578.40	61045.85
578.56	61207.35
578.72	61057.56
578.88	61099.68
579.04	61141.81
579.21	61048.19
579.37	61008.40
579.53	61109.05
579.69	60882.02
579.85	60823.50
580.01	60926.49
580.17	60856.27
580.33	60933.51
580.49	61137.13
580.65	61083.30
580.82	60905.42
580.98	61057.56
581.14	61034.15
581.30	61062.24
581.46	60910.10
581.62	61148.84
581.78	61106.71
581.94	61062.24
582.10	61151.18
582.26	61104.37
582.42	60938.19
582.58	61134.79
582.74	61109.05
582.90	61261.18
583.06	61125.43
583.22	60800.10
583.38	61268.20
583.54	61055.21
583.70	61221.39
583.86	61120.75
584.02	61132.45
584.18	61151.18
584.34	61209.69
584.50	61099.68
584.66	60994.36
584.82	60907.76
584.98	61230.75
585.14	61095.00
585.30	60999.04
585.46	61062.24
585.62	61291.61
585.78	61357.14
585.94	60945.21
586.10	61193.31
586.26	61195.65
586.42	61256.50
586.58	61317.35
586.74	61373.53
586.90	61041.17
587.06	61123.09
587.22	61212.03
587.38	61095.00
587.54	61263.52
587.70	61504.60
587.86	61106.71
588.02	61144.16
588.18	61352.46
588.34	61176.92
588.49	61233.10
