SpectraSuite Data File
++++++++++++++++++++++++++++++++++++
Date: Fri Oct 25 11:24:02 EDT 2013
User: price-jones
Dark Spectrum Present: No
Reference Spectrum Present: No
Number of Sampled Component Spectra: 1
Spectrometers: USB2+H05261
Integration Time (usec): 100000 (USB2+H05261)
Spectra Averaged: 1 (USB2+H05261)
Boxcar Smoothing: 0 (USB2+H05261)
Correct for Electrical Dark: No (USB2+H05261)
Strobe/Lamp Enabled: No (USB2+H05261)
Correct for Detector Non-linearity: No (USB2+H05261)
Correct for Stray Light: No (USB2+H05261)
Number of Pixels in Processed Spectrum: 2048
>>>>>Begin Processed Spectral Data<<<<<
365.73	264.48
365.92	264.48
366.12	264.48
366.32	63.19
366.52	117.03
366.72	147.45
366.91	84.26
367.11	86.60
367.31	135.75
367.51	131.07
367.70	163.84
367.90	114.69
368.10	124.05
368.30	98.30
368.49	119.37
368.69	128.73
368.89	177.88
369.09	117.03
369.28	184.90
369.48	105.32
369.68	198.95
369.87	170.86
370.07	248.10
370.27	252.78
370.47	280.86
370.66	606.20
370.86	662.37
371.06	664.71
371.25	669.39
371.45	748.97
371.65	667.05
371.84	599.18
372.04	664.71
372.24	699.82
372.44	786.42
372.63	755.99
372.83	758.33
373.03	791.10
373.22	697.48
373.42	765.36
373.62	777.06
373.81	723.23
374.01	870.68
374.21	837.91
374.40	840.25
374.60	772.38
374.79	851.96
374.99	938.55
375.19	828.55
375.38	858.98
375.58	882.38
375.78	833.23
375.97	802.80
376.17	952.60
376.37	833.23
376.56	837.91
376.76	868.34
376.95	868.34
377.15	919.83
377.35	959.62
377.54	966.64
377.74	903.45
377.93	844.93
378.13	931.53
378.33	922.17
378.52	940.90
378.72	924.51
378.91	964.30
379.11	882.38
379.31	891.74
379.50	938.55
379.70	943.24
379.89	926.85
380.09	919.83
380.28	1041.54
380.48	954.94
380.68	1043.88
380.87	976.00
381.07	1015.79
381.26	1107.07
381.46	1046.22
381.65	1020.47
381.85	952.60
382.04	987.71
382.24	1057.92
382.43	1104.73
382.63	1025.15
382.83	1097.71
383.02	1151.54
383.22	1055.58
383.41	1149.20
383.61	1039.20
383.80	1153.88
384.00	1032.18
384.19	1057.92
384.39	1193.67
384.58	1104.73
384.78	1301.34
384.97	1200.69
385.17	1109.41
385.36	1191.33
385.56	1139.84
385.75	1137.50
385.95	1146.86
386.14	1221.76
386.34	1109.41
386.53	1111.75
386.72	1207.72
386.92	1256.87
387.11	1137.50
387.31	1308.36
387.50	1231.12
387.70	1266.23
387.89	1228.78
388.09	1256.87
388.28	1233.46
388.48	1308.36
388.67	1200.69
388.86	1306.02
389.06	1240.48
389.25	1331.76
389.45	1409.00
389.64	1350.49
389.84	1425.39
390.03	1327.08
390.22	1448.79
390.42	1364.53
390.61	1362.19
390.81	1453.47
391.00	1432.41
391.19	1373.89
391.39	1453.47
391.58	1460.49
391.78	1474.54
391.97	1427.73
392.16	1423.05
392.36	1558.80
392.55	1423.05
392.75	1523.69
392.94	1537.73
393.13	1577.52
393.33	1575.18
393.52	1682.85
393.71	1638.38
393.91	1600.93
394.10	1568.16
394.29	1614.97
394.49	1582.20
394.68	1739.02
394.88	1586.88
395.07	1643.06
395.26	1614.97
395.46	1607.95
395.65	1757.74
395.84	1743.70
396.04	1741.36
396.23	1750.72
396.42	1722.63
396.62	1816.26
396.81	1708.59
397.00	1767.10
397.19	1860.73
397.39	1783.49
397.58	1877.11
397.77	1856.04
397.97	1830.30
398.16	1851.36
398.35	1872.43
398.55	1811.57
398.74	1898.17
398.93	1849.02
399.12	1963.71
399.32	1809.23
399.51	1963.71
399.70	1954.35
399.90	2008.18
400.09	1968.39
400.28	1982.43
400.47	2062.01
400.67	2024.56
400.86	2073.71
401.05	2090.10
401.24	2078.40
401.44	2157.97
401.63	2069.03
401.82	2200.10
402.01	2111.16
402.21	2169.68
402.40	2176.70
402.59	2209.47
402.78	2160.31
402.97	2221.17
403.17	2272.66
403.36	2333.51
403.55	2370.96
403.74	2284.36
403.93	2251.60
404.13	2347.56
404.32	2377.98
404.51	2356.92
404.70	2450.54
404.89	2382.67
405.09	2452.88
405.28	2469.27
405.47	2504.37
405.66	2555.86
405.85	2480.97
406.05	2382.67
406.24	2537.14
406.43	2413.09
406.62	2583.95
406.81	2567.57
407.00	2609.70
407.20	2663.53
407.39	2628.42
407.58	2715.02
407.77	2808.64
407.96	2700.98
408.15	2731.41
408.34	2764.17
408.54	2825.03
408.73	2778.22
408.92	2789.92
409.11	2916.31
409.30	2960.78
409.49	2815.66
409.68	2925.67
409.87	2944.39
410.07	3077.80
410.26	2925.67
410.45	3002.91
410.64	3002.91
410.83	3049.72
411.02	3157.38
411.21	3133.98
411.40	3222.92
411.59	3141.00
411.78	3152.70
411.98	3222.92
412.17	3370.37
412.36	3295.47
412.55	3428.88
412.74	3389.10
412.93	3309.52
413.12	3258.03
413.31	3480.38
413.50	3375.05
413.69	3433.57
413.88	3520.17
414.07	3487.40
414.26	3646.55
414.45	3779.97
414.64	3719.11
414.83	3777.62
415.02	3669.96
415.22	3866.56
415.41	3721.45
415.60	3798.69
415.79	3854.86
415.98	3904.01
416.17	4002.32
416.36	3941.46
416.55	3995.29
416.74	3941.46
416.93	4074.87
417.12	4046.79
417.31	4215.30
417.50	4112.32
417.69	4315.95
417.88	4355.74
418.07	4252.75
418.26	4315.95
418.45	4346.37
418.64	4465.74
418.83	4510.21
419.02	4528.94
419.21	4421.27
419.39	4526.60
419.58	4578.09
419.77	4475.10
419.96	4585.11
420.15	4582.77
420.34	4592.13
420.53	4709.16
420.72	4685.75
420.91	4697.46
421.10	4828.53
421.29	4774.69
421.48	4617.88
421.67	4582.77
421.86	4816.82
422.05	4795.76
422.24	4873.00
422.43	4854.27
422.61	4865.97
422.80	4999.38
422.99	4940.87
423.18	4945.55
423.37	5076.62
423.56	4910.44
423.75	4905.76
423.94	4929.17
424.13	4568.73
424.32	4655.33
424.50	5025.13
424.69	5144.50
424.88	5097.69
425.07	5069.60
425.26	4847.25
425.45	4990.02
425.64	4896.40
425.83	5062.58
426.01	5046.20
426.20	5121.09
426.39	5062.58
426.58	5242.80
426.77	4973.64
426.96	5132.79
427.15	5174.92
427.33	5118.75
427.52	5177.26
427.71	5284.93
427.90	5308.34
428.09	5462.81
428.28	5401.96
428.46	5259.18
428.65	5301.31
428.84	5507.28
429.03	5692.18
429.22	5268.55
429.40	5579.84
429.59	5514.30
429.78	5249.82
429.97	5334.08
430.16	5453.45
430.34	5657.07
430.53	5612.60
430.72	5811.55
430.91	5633.67
431.10	5643.03
431.28	5895.81
431.47	5746.02
431.66	5916.87
431.85	5748.36
432.03	5881.77
432.22	5802.19
432.41	5860.70
432.60	5771.76
432.79	5846.66
432.97	6099.44
433.16	6097.10
433.35	5994.11
433.54	6150.93
433.72	6174.33
433.91	6099.44
434.10	6069.01
434.28	6141.57
434.47	6331.15
434.66	6202.42
434.85	6296.04
435.03	6476.26
435.22	6115.82
435.41	6530.09
435.59	6366.26
435.78	6476.26
435.97	6583.93
436.16	6377.96
436.34	6314.77
436.53	6562.86
436.72	6644.78
436.90	6436.47
437.09	6544.14
437.28	6354.55
437.46	6661.16
437.65	6693.93
437.84	6857.77
438.02	6810.96
438.21	6731.38
438.40	6710.32
438.58	7033.31
438.77	7089.48
438.96	7077.78
439.14	7133.95
439.33	7262.68
439.52	7173.74
439.70	7414.82
439.89	7370.35
440.08	7489.71
440.26	7438.22
440.45	7442.90
440.63	7370.35
440.82	7772.92
441.01	7478.01
441.19	7569.29
441.38	7641.85
441.57	7604.40
441.75	7588.02
441.94	7981.23
442.12	7992.93
442.31	8021.02
442.50	8002.29
442.68	8088.89
442.87	8035.06
443.05	8126.34
443.24	8358.05
443.43	8276.13
443.61	8222.30
443.80	8348.69
443.98	8128.68
444.17	7819.73
444.35	8231.66
444.54	8287.84
444.73	8318.26
444.91	8372.10
445.10	8358.05
445.28	8407.20
445.47	8175.49
445.65	8245.71
445.84	8535.93
446.02	8484.44
446.21	8374.44
446.39	8486.78
446.58	8564.02
446.77	8549.98
446.95	8327.63
447.14	8540.61
447.32	8690.41
447.51	8376.78
447.69	8552.32
447.88	8610.83
448.06	8336.99
448.25	8439.97
448.43	8610.83
448.62	8479.76
448.80	8491.46
448.99	8755.94
449.17	8636.58
449.36	8706.79
449.54	8861.27
449.73	8994.68
449.91	8947.87
450.10	8861.27
450.28	9013.40
450.46	9107.02
450.65	9170.22
450.83	8872.97
451.02	9217.03
451.20	9294.27
451.39	9366.82
451.57	9092.98
451.76	9018.08
451.94	9191.28
452.13	9301.29
452.31	9404.27
452.49	9219.37
452.68	9336.40
452.86	9317.67
453.05	9341.08
453.23	9507.26
453.42	9469.81
453.60	9432.36
453.78	9582.15
453.97	9287.25
454.15	9673.43
454.34	9540.02
454.52	9781.10
454.70	9734.29
454.89	9696.84
455.07	9795.14
455.26	9792.80
455.44	9851.31
455.62	10148.56
455.81	9834.93
455.99	10040.90
456.17	9792.80
456.36	10078.35
456.54	10122.82
456.73	10324.10
456.91	10691.57
457.09	10293.68
457.28	10574.54
457.46	10253.89
457.64	10279.63
457.83	10469.22
458.01	10539.43
458.19	10712.63
458.38	10490.28
458.56	10541.77
458.74	10738.38
458.93	10721.99
459.11	10586.24
459.29	10876.47
459.48	10759.44
459.66	11042.65
459.84	10930.30
460.03	10970.09
460.21	11014.56
460.39	10902.22
460.57	11014.56
460.76	11023.92
460.94	11332.87
461.12	11309.47
461.31	11279.04
461.49	11417.13
461.67	11080.10
461.85	11421.81
462.04	11295.43
462.22	11566.93
462.40	11660.55
462.59	11377.34
462.77	11630.12
462.95	11396.07
463.13	11730.76
463.32	11763.53
463.50	11793.96
463.68	11786.94
463.86	11976.52
464.05	11829.07
464.23	11737.79
464.41	12009.29
464.59	11623.10
464.78	12329.94
464.96	12180.15
465.14	11950.78
465.32	12241.00
465.50	12114.61
465.69	12287.81
465.87	12210.57
466.05	12161.42
466.23	12184.83
466.41	12133.34
466.60	12636.55
466.78	12119.29
466.96	12489.10
467.14	12472.71
467.32	12381.43
467.51	12594.42
467.69	12325.26
467.87	12390.80
468.05	12631.87
468.23	12402.50
468.41	12446.97
468.60	12697.41
468.78	12718.47
468.96	12713.79
469.14	12648.26
469.32	12978.27
469.50	12390.80
469.69	12833.16
469.87	13085.94
470.05	13029.76
470.23	13221.69
470.41	13099.98
470.59	13781.07
470.77	13184.24
470.95	13373.82
471.14	13458.08
471.32	13163.17
471.50	13891.08
471.68	13486.17
471.86	13722.56
472.04	13736.60
472.22	14087.68
472.40	13678.09
472.58	13860.65
472.77	14225.78
472.95	14366.21
473.13	14635.37
473.31	14162.58
473.49	14260.88
473.67	14068.96
473.85	14324.08
474.03	14597.92
474.21	14518.34
474.39	14621.33
474.57	14813.25
474.75	14934.96
474.93	15042.62
475.12	15173.69
475.30	15293.06
475.48	15302.42
475.66	15360.94
475.84	15070.71
476.02	15456.90
476.20	15534.14
476.38	16013.95
476.56	16053.73
476.74	15873.51
476.92	15868.83
477.10	15800.96
477.28	16278.43
477.46	16231.62
477.64	16503.12
477.82	16437.58
478.00	17097.61
478.18	16788.66
478.36	16776.96
478.54	17263.79
478.72	17331.67
478.90	17362.09
479.08	17509.55
479.26	18010.42
479.44	17809.14
479.62	17776.37
479.80	18150.85
479.98	17891.06
480.16	18759.39
480.34	18511.30
480.52	18588.53
480.70	18850.67
480.88	18434.06
481.06	18679.82
481.24	18874.08
481.41	18808.54
481.59	19424.11
481.77	19538.79
481.95	19517.73
482.13	19894.55
482.31	19791.57
482.49	20240.95
482.67	19885.19
482.85	20538.20
483.03	20666.93
483.21	20893.96
483.39	20982.90
483.57	21067.16
483.74	21486.12
483.92	21570.38
484.10	21116.31
484.28	21748.26
484.46	22164.87
484.64	22321.69
484.82	22015.08
485.00	22333.39
485.18	23009.81
485.35	23243.86
485.53	23314.08
485.71	22948.95
485.89	23847.72
486.07	23293.01
486.25	23660.48
486.43	23531.75
486.61	23901.55
486.78	24449.24
486.96	24350.93
487.14	24659.88
487.32	24732.44
487.50	24575.62
487.68	25317.57
487.85	25514.18
488.03	25764.62
488.21	26099.31
488.39	26050.16
488.57	26068.89
488.75	25785.68
488.92	26569.76
489.10	26939.57
489.28	26621.25
489.46	27300.01
489.64	26906.80
489.81	27601.94
489.99	27957.70
490.17	27412.35
490.35	28276.01
490.53	28397.72
490.70	28627.09
490.88	28641.14
491.06	28914.98
491.24	28596.67
491.41	28875.19
491.59	29488.41
491.77	29254.36
491.95	29867.58
492.13	29984.60
492.30	29930.77
492.48	30644.63
492.66	30433.99
492.84	30368.45
493.01	30635.27
493.19	30499.52
493.37	31138.49
493.54	31241.47
493.72	31517.65
493.90	31622.98
494.08	31690.85
494.25	32336.84
494.43	32044.27
494.61	32273.65
494.79	32524.08
494.96	32606.00
495.14	32758.14
495.32	33106.88
495.49	33219.22
495.67	33172.41
495.85	33722.44
496.02	33858.19
496.20	33935.43
496.38	34298.21
496.55	34227.99
496.73	34955.90
496.91	34625.89
497.09	34899.73
497.26	35133.78
497.44	34993.35
497.62	35597.21
497.79	36243.20
497.97	35826.58
498.14	35990.42
498.32	36411.71
498.50	36144.89
498.67	36954.72
498.85	36648.11
499.03	36765.14
499.20	36486.61
499.38	37385.38
499.56	37106.85
499.73	36905.57
499.91	37785.61
500.08	37809.01
500.26	37268.35
500.44	38057.11
500.61	38305.21
500.79	37748.16
500.97	38031.36
501.14	38820.13
501.32	38637.56
501.49	38646.93
501.67	38890.34
501.84	39278.87
502.02	39136.10
502.20	39398.24
502.37	39157.16
502.55	39379.51
502.72	39648.68
502.90	39985.71
503.07	39360.79
503.25	40212.74
503.43	39997.41
503.60	40666.81
503.78	40512.33
503.95	40348.50
504.13	40545.10
504.30	40832.99
504.48	40535.74
504.65	40315.73
504.83	41127.89
505.01	41441.53
505.18	41324.50
505.36	41511.74
505.53	41614.72
505.71	41579.62
505.88	42043.04
506.06	41638.13
506.23	42017.30
506.41	41656.85
506.58	41694.30
506.76	42354.33
506.93	42822.44
507.11	42480.72
507.28	43077.56
507.46	43026.07
507.63	42899.68
507.81	43746.95
507.98	43082.24
508.16	43524.60
508.33	43555.03
508.50	43639.29
508.68	43936.54
508.85	43945.90
509.03	43835.89
509.20	44318.04
509.38	44348.47
509.55	44069.95
509.73	45001.48
509.90	44858.71
510.08	44612.95
510.25	44680.83
510.42	44715.93
510.60	45031.91
510.77	45500.01
510.95	45755.13
511.12	45088.08
511.30	45483.63
511.47	45677.90
511.64	45722.37
511.82	46017.27
511.99	45689.60
512.17	45883.86
512.34	46174.09
512.51	46394.10
512.69	46625.81
512.86	46796.67
513.04	46773.27
513.21	46571.98
513.38	46541.55
513.56	47063.49
513.73	46782.63
513.90	47381.80
514.08	47311.59
514.25	47178.18
514.43	47379.46
514.60	47459.04
514.77	47543.30
514.95	48004.39
515.12	47693.10
515.29	48053.54
515.47	48184.61
515.64	48336.74
515.81	47995.03
515.99	48130.78
516.16	48701.87
516.33	48147.16
516.51	48727.61
516.68	48598.88
516.85	48746.34
517.03	49177.00
517.20	49031.88
517.37	49120.82
517.54	49034.22
517.72	49291.68
517.89	49464.88
518.06	49429.77
518.24	49457.86
518.41	48975.71
518.58	49514.03
518.75	49427.43
518.93	49645.10
519.10	49783.19
519.27	50078.10
519.45	49687.23
519.62	49759.79
519.79	50145.98
519.96	50143.64
520.14	50117.89
520.31	50099.17
520.48	50813.03
520.65	50438.54
520.83	51030.70
521.00	50953.46
521.17	50644.51
521.34	50824.73
521.52	51180.49
521.69	50953.46
521.86	51330.29
522.03	51517.53
522.20	51590.09
522.38	51662.64
522.55	51330.29
522.72	51594.77
522.89	51533.92
523.07	51749.24
523.24	51604.13
523.41	51934.15
523.58	51241.35
523.75	52081.60
523.92	51838.18
524.10	52364.81
524.27	51999.68
524.44	52177.56
524.61	52519.28
524.78	52144.80
524.96	52198.63
525.13	52404.59
525.30	52617.58
525.47	52381.19
525.64	52722.91
525.81	52692.48
525.98	52872.70
526.16	52568.43
526.33	52481.83
526.50	53209.74
526.67	52928.87
526.84	53137.18
527.01	53078.67
527.18	52788.44
527.36	53024.84
527.53	53277.61
527.70	53366.55
527.87	53382.94
528.04	53247.19
528.21	53808.92
528.38	53511.67
528.55	53689.55
528.72	53165.27
528.89	53605.29
529.07	53467.20
529.24	53591.25
529.41	53935.30
529.58	53497.62
529.75	53745.72
529.92	53951.69
530.09	53972.75
530.26	54019.56
530.43	54103.82
530.60	53860.41
530.77	53900.20
530.94	54277.02
531.11	54309.79
531.28	54305.11
531.46	54302.77
531.63	54431.50
531.80	54356.60
531.97	54372.99
532.14	54670.23
532.31	54780.24
532.48	54295.75
532.65	54714.70
532.82	54415.11
532.99	54894.92
533.16	54707.68
533.33	54784.92
533.50	54990.89
533.67	55180.47
533.84	54841.09
534.01	55049.40
534.18	54873.86
534.35	55498.78
534.52	54944.08
534.69	55334.95
534.86	55433.25
535.03	55180.47
535.20	55187.49
535.37	55241.32
535.54	55765.60
535.71	55496.44
535.88	55288.13
536.05	55746.88
536.22	55704.75
536.38	55606.45
536.55	55765.60
536.72	55697.73
536.89	55576.02
537.06	55807.73
537.23	55751.56
537.40	55789.01
537.57	55950.51
537.74	55758.58
537.91	56046.47
538.08	56037.11
538.25	55735.18
538.42	56020.72
538.59	56156.47
538.75	56119.02
538.92	56154.13
539.09	56385.85
539.26	56196.26
539.43	56233.71
539.60	56245.41
539.77	56310.95
539.94	56484.15
540.11	56676.07
540.28	56135.41
540.44	56556.70
540.61	56488.83
540.78	56378.82
540.95	56493.51
541.12	56385.85
541.29	56671.39
541.46	56687.78
541.62	56767.35
541.79	56612.88
541.96	56348.40
542.13	56671.39
542.30	56877.36
542.47	56516.92
542.63	56966.30
542.80	56949.92
542.97	57212.06
543.14	57411.00
543.31	57315.04
543.48	57368.87
543.64	57481.22
543.81	57375.89
543.98	57282.27
544.15	57380.57
544.32	57448.45
544.48	57766.76
544.65	57361.85
544.82	57759.74
544.99	57333.76
545.16	57874.43
545.32	57352.49
545.49	57888.47
545.66	57785.49
545.83	57860.38
546.00	57895.49
546.16	57654.42
546.33	57738.68
546.50	57654.42
546.67	57977.41
546.83	57572.50
547.00	57757.40
547.17	57766.76
547.34	57993.79
547.50	58031.24
547.67	58115.50
547.84	57958.69
548.00	58241.89
548.17	58398.71
548.34	58138.91
548.51	58328.49
548.67	58342.53
548.84	58497.01
549.01	58110.82
549.18	58326.15
549.34	58445.52
549.51	58415.09
549.68	58457.22
549.84	58403.39
550.01	58581.27
550.18	58251.25
550.34	58506.37
550.51	58539.14
550.68	58459.56
550.84	58387.00
551.01	58560.20
551.18	58710.00
551.34	58288.70
551.51	58684.25
551.68	58714.68
551.84	58787.24
552.01	58670.21
552.18	58796.60
552.34	58681.91
552.51	58948.73
552.68	58670.21
552.84	58630.42
553.01	59056.40
553.18	58946.39
553.34	59014.27
553.51	59100.87
553.67	59185.13
553.84	59140.66
554.01	59023.63
554.17	58941.71
554.34	59103.21
554.51	59154.70
554.67	59306.83
554.84	59161.72
555.00	58848.09
555.17	59147.68
555.33	59208.53
555.50	59220.23
555.67	59061.08
555.83	59047.04
556.00	59124.27
556.16	59456.63
556.33	59358.33
556.50	59182.79
556.66	59316.20
556.83	59245.98
556.99	59454.29
557.16	59480.03
557.32	59618.13
557.49	59700.04
557.65	59414.50
557.82	59405.14
557.98	59625.15
558.15	59494.08
558.32	59393.43
558.48	59494.08
558.65	59531.53
558.81	59592.38
558.98	59564.29
559.14	59510.46
559.31	59634.51
559.47	59615.79
559.64	59852.18
559.80	59896.65
559.97	59760.90
560.13	59629.83
560.30	59906.01
560.46	59903.67
560.63	59920.05
560.79	59821.75
560.96	59934.10
561.12	60065.17
561.29	59798.35
561.45	59945.80
561.61	59994.95
561.78	59908.35
561.94	59931.76
562.11	59803.03
562.27	59826.43
562.44	59889.63
562.60	60200.92
562.77	60170.49
562.93	59718.77
563.10	60140.07
563.26	59962.18
563.42	60280.50
563.59	60079.21
563.75	60161.13
563.92	60079.21
564.08	60102.62
564.24	60240.71
564.41	60444.33
564.57	60154.11
564.74	60229.01
564.90	60280.50
565.07	60193.90
565.23	60020.70
565.39	60135.38
565.56	60437.31
565.72	60390.50
565.88	60247.73
566.05	60130.70
566.21	60198.58
566.38	60390.50
566.54	60320.29
566.70	60301.56
566.87	60444.33
567.03	60207.94
567.19	60537.96
567.36	60622.22
567.52	60313.26
567.68	60664.35
567.85	60406.89
568.01	60570.72
568.17	60498.17
568.34	60563.70
568.50	60622.22
568.66	60498.17
568.83	60652.64
568.99	60451.36
569.15	60528.59
569.32	60460.72
569.48	60530.93
569.64	60610.51
569.81	60467.74
569.97	60371.78
570.13	60509.87
570.30	60549.66
570.46	60612.85
570.62	60596.47
570.78	60687.75
570.95	60519.23
571.11	60582.43
571.27	60669.03
571.43	60521.57
571.60	60594.13
571.76	60402.21
571.92	60725.20
572.09	60797.76
572.25	60774.35
572.41	60507.53
572.57	60844.57
572.74	60776.69
572.90	60877.33
573.06	60781.37
573.22	60722.86
573.38	60662.00
573.55	60701.79
573.71	60910.10
573.87	60680.73
574.03	60456.04
574.20	60701.79
574.36	60734.56
574.52	60818.82
574.68	60776.69
574.84	61183.94
575.01	60879.67
575.17	60739.24
575.33	60659.66
575.49	60591.79
575.65	60942.87
575.82	60835.20
575.98	60743.92
576.14	60977.98
576.30	60786.05
576.46	60804.78
576.62	60666.69
576.79	60945.21
576.95	60708.82
577.11	60954.57
577.27	60924.14
577.43	60912.44
577.59	60982.66
577.75	60790.73
577.92	60795.42
578.08	60980.32
578.24	60879.67
578.40	60994.36
578.56	61064.58
578.72	60905.42
578.88	60973.30
579.04	61221.39
579.21	61146.50
579.37	61071.60
579.53	60959.25
579.69	61073.94
579.85	60795.42
580.01	60910.10
580.17	61052.87
580.33	61095.00
580.49	61066.92
580.65	60985.00
580.82	60877.33
580.98	61069.26
581.14	60931.17
581.30	61001.38
581.46	60905.42
581.62	61240.12
581.78	60907.76
581.94	61104.37
582.10	61029.47
582.26	61146.50
582.42	61123.09
582.58	61048.19
582.74	60999.04
582.90	61036.49
583.06	61022.45
583.22	60891.38
583.38	61050.53
583.54	61087.98
583.70	61015.43
583.86	61031.81
584.02	60989.68
584.18	61251.82
584.34	60966.27
584.50	60956.91
584.66	60793.07
584.82	60896.06
584.98	61240.12
585.14	61186.28
585.30	60903.08
585.46	61125.43
585.62	60959.25
585.78	61216.71
585.94	61024.79
586.10	60952.23
586.26	61165.22
586.42	61202.67
586.58	61296.29
586.74	61226.07
586.90	61029.47
587.06	61214.37
587.22	61099.68
587.38	61226.07
587.54	61139.47
587.70	61312.67
587.86	61209.69
588.02	61141.81
588.18	61387.57
588.34	61109.05
588.49	61148.84
