SpectraSuite Data File
++++++++++++++++++++++++++++++++++++
Date: Fri Oct 25 10:44:20 EDT 2013
User: price-jones
Dark Spectrum Present: No
Reference Spectrum Present: No
Number of Sampled Component Spectra: 1
Spectrometers: USB2+H05261
Integration Time (usec): 100000 (USB2+H05261)
Spectra Averaged: 1 (USB2+H05261)
Boxcar Smoothing: 0 (USB2+H05261)
Correct for Electrical Dark: No (USB2+H05261)
Strobe/Lamp Enabled: No (USB2+H05261)
Correct for Detector Non-linearity: No (USB2+H05261)
Correct for Stray Light: No (USB2+H05261)
Number of Pixels in Processed Spectrum: 2048
>>>>>Begin Processed Spectral Data<<<<<
365.73	147.45
365.92	147.45
366.12	147.45
366.32	70.22
366.52	2.34
366.72	35.11
366.91	37.45
367.11	53.83
367.31	81.92
367.51	0.00
367.70	0.00
367.90	37.45
368.10	0.00
368.30	11.70
368.49	28.09
368.69	14.04
368.89	0.00
369.09	77.24
369.28	16.38
369.48	110.01
369.68	93.62
369.87	67.88
370.07	86.60
370.27	135.75
370.47	166.18
370.66	376.83
370.86	418.96
371.06	451.72
371.25	451.72
371.45	463.43
371.65	423.64
371.84	423.64
372.04	458.74
372.24	510.24
372.44	519.60
372.63	559.39
372.83	461.09
373.03	578.11
373.22	510.24
373.42	514.92
373.62	557.05
373.81	535.98
374.01	547.69
374.21	578.11
374.40	540.66
374.60	498.53
374.79	519.60
374.99	641.31
375.19	643.65
375.38	660.03
375.58	641.31
375.78	627.26
375.97	585.13
376.17	550.03
376.37	627.26
376.56	624.92
376.76	603.86
376.95	561.73
377.15	636.63
377.35	667.05
377.54	627.26
377.74	566.41
377.93	671.73
378.13	620.24
378.33	650.67
378.52	704.50
378.72	636.63
378.91	690.46
379.11	685.78
379.31	650.67
379.50	655.35
379.70	753.65
379.89	723.23
380.09	664.71
380.28	727.91
380.48	758.33
380.68	723.23
380.87	676.41
381.07	636.63
381.26	713.86
381.46	741.95
381.65	718.54
381.85	784.08
382.04	676.41
382.24	737.27
382.43	765.36
382.63	695.14
382.83	716.20
383.02	739.61
383.22	741.95
383.41	685.78
383.61	765.36
383.80	807.48
384.00	788.76
384.19	779.40
384.39	861.32
384.58	837.91
384.78	758.33
384.97	854.30
385.17	844.93
385.36	882.38
385.56	800.46
385.75	755.99
385.95	866.00
386.14	936.21
386.34	908.13
386.53	777.06
386.72	826.21
386.92	931.53
387.11	851.96
387.31	931.53
387.50	849.61
387.70	861.32
387.89	891.74
388.09	847.27
388.28	863.66
388.48	877.70
388.67	964.30
388.86	985.37
389.06	1022.81
389.25	1004.09
389.45	971.32
389.64	1018.13
389.84	1018.13
390.03	1011.11
390.22	1086.01
390.42	1036.86
390.61	1086.01
390.81	1060.26
391.00	1034.52
391.19	1041.54
391.39	1104.73
391.58	1125.80
391.78	1093.03
391.97	1144.52
392.16	1076.65
392.36	1128.14
392.55	1081.33
392.75	1036.86
392.94	1039.20
393.13	1034.52
393.33	990.05
393.52	1050.90
393.71	1039.20
393.91	1097.71
394.10	1172.61
394.29	1256.87
394.49	1266.23
394.68	1329.42
394.88	1334.11
395.07	1392.62
395.26	1294.32
395.46	1306.02
395.65	1341.13
395.84	1254.53
396.04	1301.34
396.23	1212.40
396.42	1114.10
396.62	1266.23
396.81	1259.21
397.00	1245.16
397.19	1252.19
397.39	1341.13
397.58	1399.64
397.77	1362.19
397.97	1460.49
398.16	1521.35
398.35	1521.35
398.55	1589.22
398.74	1579.86
398.93	1624.33
399.12	1554.12
399.32	1598.59
399.51	1568.16
399.70	1614.97
399.90	1526.03
400.09	1664.12
400.28	1657.10
400.47	1741.36
400.67	1795.19
400.86	1727.32
401.05	1760.08
401.24	1678.16
401.44	1739.02
401.63	1823.28
401.82	1778.81
402.01	1820.94
402.21	1813.92
402.40	1790.51
402.59	1792.85
402.78	1715.61
402.97	1856.04
403.17	1891.15
403.36	1956.69
403.55	1968.39
403.74	1905.20
403.93	1851.36
404.13	1905.20
404.32	1900.52
404.51	1996.48
404.70	1926.26
404.89	1998.82
405.09	2120.53
405.28	2106.48
405.47	1937.96
405.66	2071.37
405.85	1977.75
406.05	2040.95
406.24	2024.56
406.43	2090.10
406.62	2150.95
406.81	2146.27
407.00	2150.95
407.20	2167.34
407.39	2148.61
407.58	2193.08
407.77	2157.97
407.96	2239.89
408.15	2417.77
408.34	2396.71
408.54	2359.26
408.73	2377.98
408.92	2443.52
409.11	2492.67
409.30	2396.71
409.49	2368.62
409.68	2298.41
409.87	2424.80
410.07	2396.71
410.26	2546.50
410.45	2431.82
410.64	2530.12
410.83	2495.01
411.02	2583.95
411.21	2715.02
411.40	2768.85
411.59	2715.02
411.78	2724.38
411.98	2633.10
412.17	2785.24
412.36	2768.85
412.55	2810.98
412.74	2839.07
412.93	2810.98
413.12	2803.96
413.31	3026.31
413.50	2925.67
413.69	2899.92
413.88	2958.44
414.07	3000.57
414.26	3138.66
414.45	3117.59
414.64	2998.23
414.83	3042.70
415.02	3192.49
415.22	3311.86
415.41	3272.07
415.60	3180.79
415.79	3281.43
415.98	3344.63
416.17	3346.97
416.36	3431.23
416.55	3356.33
416.74	3361.01
416.93	3328.24
417.12	3485.06
417.31	3363.35
417.50	3468.67
417.69	3531.87
417.88	3620.81
418.07	3646.55
418.26	3538.89
418.45	3609.11
418.64	3672.30
418.83	3630.17
419.02	3709.75
419.21	3740.18
419.39	3808.05
419.58	3688.68
419.77	3698.05
419.96	3819.75
420.15	3829.12
420.34	3812.73
420.53	3775.28
420.72	3957.85
420.91	3887.63
421.10	4039.76
421.29	3995.29
421.48	3962.53
421.67	4037.42
421.86	3948.48
422.05	4007.00
422.24	3744.86
422.43	3868.91
422.61	4046.79
422.80	4194.24
422.99	4138.07
423.18	3868.91
423.37	4131.05
423.56	3955.51
423.75	4016.36
423.94	3988.27
424.13	3803.37
424.32	4037.42
424.50	4166.15
424.69	4259.78
424.88	4124.02
425.07	4100.62
425.26	4049.13
425.45	3955.51
425.64	4112.32
425.83	4138.07
426.01	4191.90
426.20	4219.99
426.39	4140.41
426.58	4159.13
426.77	4063.17
426.96	4051.47
427.15	4161.47
427.33	4121.68
427.52	4210.62
427.71	4329.99
427.90	4365.10
428.09	4276.16
428.28	4250.41
428.46	4271.48
428.65	4259.78
428.84	4430.63
429.03	4395.53
429.22	4142.75
429.40	4189.56
429.59	4049.13
429.78	4119.34
429.97	4014.02
430.16	4177.86
430.34	4311.27
430.53	4280.84
430.72	4386.16
430.91	4297.22
431.10	4383.82
431.28	4482.13
431.47	4758.31
431.66	4751.29
431.85	4681.07
432.03	4671.71
432.22	4901.08
432.41	4720.86
432.60	4933.85
432.79	4713.84
432.97	4861.29
433.16	4833.21
433.35	4711.50
433.54	4779.37
433.72	4858.95
433.91	4877.68
434.10	4938.53
434.28	4961.94
434.47	5060.24
434.66	5224.08
434.85	5064.92
435.03	5097.69
435.22	4950.23
435.41	5228.76
435.59	5219.39
435.78	5329.40
435.97	5341.10
436.16	5301.31
436.34	5385.57
436.53	5259.18
436.72	5418.34
436.90	5394.93
437.09	5350.46
437.28	5301.31
437.46	5305.99
437.65	5359.83
437.84	5284.93
438.02	5355.15
438.21	5305.99
438.40	5530.69
438.58	5537.71
438.77	5495.58
438.96	5619.63
439.14	5757.72
439.33	5851.34
439.52	5706.23
439.70	5802.19
439.89	5717.93
440.08	5844.32
440.26	5755.38
440.45	5937.94
440.63	6050.28
440.82	6242.21
441.01	6162.63
441.19	6235.19
441.38	6162.63
441.57	6270.30
441.75	6387.32
441.94	6469.24
442.12	6520.73
442.31	6595.63
442.50	6686.91
442.68	6476.26
442.87	6520.73
443.05	6518.39
443.24	6752.45
443.43	6700.95
443.61	6733.72
443.80	6946.71
443.98	6569.88
444.17	6434.13
444.35	6911.60
444.54	6937.35
444.73	6707.98
444.91	6841.39
445.10	6583.93
445.28	6588.61
445.47	6359.24
445.65	6689.25
445.84	6759.47
446.02	6977.14
446.21	6843.73
446.39	6773.51
446.58	6951.39
446.77	6787.55
446.95	6825.00
447.14	6836.70
447.32	6951.39
447.51	6766.49
447.69	7002.88
447.88	6874.15
448.06	6963.09
448.25	6860.11
448.43	7101.19
448.62	7096.50
448.80	7023.95
448.99	6993.52
449.17	7150.34
449.36	6981.82
449.54	7108.21
449.73	7246.30
449.91	7346.94
450.10	7449.93
450.28	7566.95
450.46	7646.53
450.65	7588.02
450.83	7363.33
451.02	7508.44
451.20	7487.37
451.39	7482.69
451.57	7698.02
451.76	7438.22
451.94	7691.00
452.13	7517.80
452.31	7351.62
452.49	7318.86
452.68	7562.27
452.86	7293.11
453.05	7410.14
453.23	7751.85
453.42	7405.46
453.60	7627.81
453.78	7665.25
453.97	7726.11
454.15	7616.10
454.34	7707.38
454.52	7875.90
454.70	7831.43
454.89	7833.77
455.07	7920.37
455.26	7803.35
455.44	8147.40
455.62	7997.61
455.81	7796.32
455.99	7976.55
456.17	8196.56
456.36	8093.57
456.54	8166.13
456.73	8236.35
456.91	8369.76
457.09	8587.43
457.28	8575.72
457.46	8109.96
457.64	8463.38
457.83	8292.52
458.01	8376.78
458.19	8571.04
458.38	8519.55
458.56	8540.61
458.74	8690.41
458.93	8531.25
459.11	8667.00
459.29	8507.85
459.48	8465.72
459.66	8538.27
459.84	8711.47
460.03	8823.82
460.21	8760.63
460.39	8896.38
460.57	8777.01
460.76	8994.68
460.94	8931.48
461.12	9053.19
461.31	8903.40
461.49	9125.75
461.67	9057.87
461.85	9273.20
462.04	9085.96
462.22	9121.07
462.40	9200.65
462.59	9004.04
462.77	9280.22
462.95	9343.42
463.13	8999.36
463.32	9186.60
463.50	9427.68
463.68	9268.52
463.86	9212.35
464.05	9334.06
464.23	9266.18
464.41	9062.55
464.59	9217.03
464.78	9535.34
464.96	9434.70
465.14	9254.48
465.32	9336.40
465.50	9542.36
465.69	9715.56
465.87	9600.88
466.05	9476.83
466.23	9598.54
466.41	9614.92
466.60	9603.22
466.78	9717.90
466.96	9383.21
467.14	9687.48
467.32	9643.01
467.51	9776.42
467.69	9425.34
467.87	9664.07
468.05	9734.29
468.23	9926.21
468.41	9640.67
468.60	9947.28
468.78	9907.49
468.96	9820.89
469.14	9954.30
469.32	10061.96
469.50	9914.51
469.69	9991.75
469.87	10146.22
470.05	10097.07
470.23	10169.63
470.41	10139.20
470.59	10228.14
470.77	10169.63
470.95	10190.69
471.14	10190.69
471.32	10134.52
471.50	10661.14
471.68	10565.18
471.86	10757.10
472.04	10981.79
472.22	10967.75
472.40	10572.20
472.58	10792.21
472.77	10764.12
472.95	10916.26
473.13	11288.40
473.31	10892.85
473.49	10801.57
473.67	10892.85
473.85	11248.61
474.03	11246.27
474.21	11260.32
474.39	11445.22
474.57	11241.59
474.75	11321.17
474.93	11770.55
475.12	11618.42
475.30	11517.78
475.48	11604.38
475.66	11800.98
475.84	11550.54
476.02	11772.89
476.20	11702.68
476.38	11990.56
476.56	12102.91
476.74	12273.77
476.92	12166.10
477.10	12248.02
477.28	12538.25
477.46	12301.86
477.64	12400.16
477.82	12879.97
478.00	13167.85
478.18	12788.69
478.36	13149.13
478.54	13081.25
478.72	12882.31
478.90	13165.51
479.08	13514.25
479.26	13668.73
479.44	13748.31
479.62	13799.80
479.80	13855.97
479.98	13921.51
480.16	14317.06
480.34	14092.37
480.52	14274.93
480.70	14263.22
480.88	14090.02
481.06	14406.00
481.24	14209.39
481.41	14703.25
481.59	14796.87
481.77	15133.90
481.95	14642.39
482.13	15054.33
482.31	15190.08
482.49	15442.85
482.67	15454.56
482.85	15672.23
483.03	15597.33
483.21	15480.30
483.39	15805.64
483.57	15880.53
483.74	15939.05
483.92	16194.17
484.10	15978.84
484.28	16395.45
484.46	16610.78
484.64	16659.93
484.82	16683.34
485.00	16631.85
485.18	16872.92
485.35	16889.31
485.53	16229.27
485.71	16460.99
485.89	16870.58
486.07	16697.38
486.25	16905.69
486.43	17198.26
486.61	17507.21
486.78	17764.67
486.96	17987.02
487.14	18237.45
487.32	18310.01
487.50	18207.03
487.68	18642.37
487.85	18810.89
488.03	18897.49
488.21	18920.89
488.39	18895.14
488.57	19122.18
488.75	19218.14
488.92	19501.34
489.10	19840.72
489.28	19974.13
489.46	20189.46
489.64	20299.47
489.81	20622.46
489.99	20973.54
490.17	20645.87
490.35	21277.81
490.53	21195.89
490.70	20900.98
490.88	20898.64
491.06	21404.20
491.24	21172.49
491.41	21223.98
491.59	21579.74
491.77	21483.78
491.95	21841.88
492.13	21668.68
492.30	22150.83
492.48	22799.16
492.66	22469.14
492.84	22342.75
493.01	22700.86
493.19	22750.01
493.37	22768.73
493.54	22911.50
493.72	23344.50
493.90	23154.92
494.08	23459.19
494.25	23648.77
494.43	23693.24
494.61	24084.11
494.79	24133.26
494.96	23700.26
495.14	24271.36
495.32	24678.61
495.49	24198.80
495.67	24430.51
495.85	24919.68
496.02	24753.51
496.20	25235.66
496.38	25120.97
496.55	25439.28
496.73	26026.76
496.91	25535.24
497.09	25593.76
497.26	26008.03
497.44	25642.91
497.62	25722.49
497.79	25986.97
497.97	26031.44
498.14	26426.99
498.32	26342.73
498.50	26305.28
498.67	26899.78
498.85	26850.63
499.03	26792.11
499.20	26745.30
499.38	27311.71
499.56	27126.81
499.73	27381.93
499.91	27030.85
500.08	27328.10
500.26	27091.70
500.44	27459.16
500.61	27288.31
500.79	27292.99
500.97	27632.36
501.14	28133.24
501.32	27854.72
501.49	28041.96
501.67	27927.27
501.84	28339.21
502.02	28173.03
502.20	28465.60
502.37	28666.88
502.55	28133.24
502.72	28795.61
502.90	28910.30
503.07	28477.30
503.25	28938.38
503.43	29043.71
503.60	28966.47
503.78	28929.02
503.95	28961.79
504.13	29109.24
504.30	29352.66
504.48	29652.25
504.65	29483.73
504.83	29893.32
505.01	29869.92
505.18	30108.65
505.36	30251.42
505.53	30139.08
505.71	30284.19
505.88	30551.01
506.06	30611.87
506.23	30469.09
506.41	30551.01
506.58	30670.38
506.76	30562.72
506.93	30700.81
507.11	30927.84
507.28	30625.91
507.46	30604.84
507.63	30827.20
507.81	31061.25
507.98	30892.73
508.16	31276.58
508.33	31627.66
508.50	31634.68
508.68	31850.01
508.85	31992.78
509.03	31868.73
509.20	32114.49
509.38	32039.59
509.55	31992.78
509.73	32055.98
509.90	32339.18
510.08	31985.76
510.25	31707.24
510.42	32793.25
510.60	32540.47
510.77	32772.18
510.95	32959.42
511.12	32795.59
511.30	33221.56
511.47	33551.58
511.64	33448.60
511.82	32933.68
511.99	32971.13
512.17	33450.94
512.34	33420.51
512.51	33474.34
512.69	33722.44
512.86	33687.33
513.04	33825.42
513.21	33626.48
513.38	33167.73
513.56	33928.41
513.73	33406.47
513.90	34022.03
514.08	33897.98
514.25	34220.97
514.43	33895.64
514.60	34213.95
514.77	33972.88
514.95	34307.57
515.12	34101.61
515.29	34513.54
515.47	34792.06
515.64	34892.71
515.81	34270.12
515.99	34251.40
516.16	34911.43
516.33	34209.27
516.51	34387.15
516.68	34134.37
516.85	34206.93
517.03	34265.44
517.20	34866.96
517.37	35147.82
517.54	35337.41
517.72	34778.02
517.89	34892.71
518.06	35007.39
518.24	35012.07
518.41	35117.40
518.58	35456.78
518.75	35414.65
518.93	35765.73
519.10	35487.20
519.27	35463.80
519.45	36025.53
519.62	35913.18
519.79	36091.06
519.96	36282.98
520.14	36397.67
520.31	36161.28
520.48	36388.31
520.65	36538.10
520.83	37083.45
521.00	37392.40
521.17	37095.15
521.34	37127.92
521.52	37113.87
521.69	37085.79
521.86	37453.25
522.03	37312.82
522.20	37448.57
522.38	37294.10
522.55	37308.14
522.72	36889.18
522.89	37095.15
523.07	37441.55
523.24	37530.49
523.41	37450.91
523.58	37607.73
523.75	38026.68
523.92	38220.95
524.10	37912.00
524.27	38543.94
524.44	38237.33
524.61	38487.77
524.78	38565.01
524.96	38286.48
525.13	38520.54
525.30	38602.46
525.47	38843.53
525.64	38962.90
525.81	38242.01
525.98	38579.05
526.16	38672.67
526.33	38061.79
526.50	38431.60
526.67	38473.73
526.84	38040.73
527.01	38466.70
527.18	38801.40
527.36	39079.92
527.53	39033.11
527.70	39812.51
527.87	39290.57
528.04	39295.25
528.21	39421.64
528.38	39449.73
528.55	39969.33
528.72	39693.15
528.89	40095.72
529.07	40016.14
529.24	39676.76
529.41	39402.92
529.58	40069.97
529.75	39735.27
529.92	40329.77
530.09	40367.22
530.26	39934.22
530.43	40360.20
530.60	40027.84
530.77	40060.61
530.94	40385.94
531.11	40650.42
531.28	40512.33
531.46	40453.82
531.63	40753.41
531.80	40411.69
531.97	40407.01
532.14	40547.44
532.31	39716.55
532.48	40690.21
532.65	40456.16
532.82	40369.56
532.99	40589.57
533.16	40392.97
533.33	40907.88
533.50	41280.03
533.67	41399.40
533.84	41074.06
534.01	41380.67
534.18	41050.66
534.35	41207.47
534.52	41610.04
534.69	41216.83
534.86	41516.42
535.03	41078.74
535.20	41677.92
535.37	41928.36
535.54	42396.46
535.71	41794.95
535.88	41811.33
536.05	41076.40
536.22	42117.94
536.38	41827.71
536.55	41099.81
536.72	41476.63
536.89	41500.04
537.06	41205.13
537.23	41675.58
537.40	41890.91
537.57	41862.82
537.74	41963.46
537.91	42497.11
538.08	42543.92
538.25	41427.48
538.42	42181.13
538.59	42316.89
538.75	42134.32
538.92	41968.15
539.09	41846.44
539.26	41991.55
539.43	42546.26
539.60	42632.86
539.77	42429.23
539.94	42518.17
540.11	41928.36
540.28	42466.68
540.44	42763.93
540.61	42115.60
540.78	42506.47
540.95	42361.36
541.12	42209.22
541.29	42136.66
541.46	43086.92
541.62	42932.45
541.79	42852.87
541.96	42462.00
542.13	42632.86
542.30	43222.67
542.47	43072.88
542.63	43194.59
542.80	43234.38
542.97	43325.66
543.14	43622.90
543.31	43192.25
543.48	43648.65
543.64	44226.76
543.81	43597.16
543.98	44051.22
544.15	43447.36
544.32	43728.23
544.48	43978.67
544.65	43840.57
544.82	43938.88
544.99	43845.26
545.16	43873.34
545.32	43924.83
545.49	44409.32
545.66	44294.64
545.83	44308.68
546.00	44385.92
546.16	44130.80
546.33	44116.76
546.50	43880.36
546.67	43978.67
546.83	43510.56
547.00	43756.32
547.17	44397.62
547.34	44074.63
547.50	44233.78
547.67	44411.67
547.84	44170.59
548.00	44219.74
548.17	44397.62
548.34	44273.57
548.51	44830.62
548.67	44821.26
548.84	44395.28
549.01	44582.52
549.18	44818.92
549.34	44484.22
549.51	44987.44
549.68	44718.28
549.84	44781.47
550.01	45153.62
550.18	45064.67
550.34	45139.57
550.51	45006.16
550.68	44940.63
550.84	44828.28
551.01	44711.25
551.18	45090.42
551.34	44973.39
551.51	45029.57
551.68	45120.85
551.84	45261.28
552.01	44961.69
552.18	44884.45
552.34	45050.63
552.51	45230.85
552.68	44856.37
552.84	45617.04
553.01	45645.13
553.18	45598.32
553.34	45272.98
553.51	45270.64
553.67	45319.79
553.84	45488.31
554.01	45610.02
554.17	45280.00
554.34	45497.67
554.51	45741.09
554.67	45975.14
554.84	45605.34
555.00	45287.03
555.17	45724.71
555.33	45595.98
555.50	45296.39
555.67	45745.77
555.83	45799.60
556.00	46127.28
556.16	45731.73
556.33	45734.07
556.50	45825.35
556.66	45830.03
556.83	45666.19
556.99	45998.55
557.16	46403.46
557.32	46335.59
557.49	46258.35
557.65	45734.07
557.82	45799.60
557.98	45977.48
558.15	46012.59
558.32	46227.92
558.48	45855.78
558.65	45640.45
558.81	45724.71
558.98	45979.82
559.14	45659.17
559.31	45818.33
559.47	46511.13
559.64	46204.52
559.80	46281.75
559.97	46103.87
560.13	46218.56
560.30	46267.71
560.46	46314.52
560.63	46265.37
560.79	46368.35
560.96	46686.67
561.12	46419.84
561.29	46129.62
561.45	46134.30
561.61	46218.56
561.78	46108.55
561.94	46155.36
562.11	46382.40
562.27	46464.32
562.44	46429.21
562.60	46625.81
562.77	46227.92
562.93	46534.53
563.10	46644.54
563.26	46389.42
563.42	46501.76
563.59	46656.24
563.75	46337.93
563.92	46784.97
564.08	46555.60
564.24	47033.07
564.41	46590.70
564.57	46667.94
564.74	46939.44
564.90	46660.92
565.07	46213.88
565.23	46223.24
565.39	46597.73
565.56	46347.29
565.72	46164.73
565.88	46590.70
566.05	46286.43
566.21	46445.59
566.38	46183.45
566.54	46274.73
566.70	46454.95
566.87	46979.23
567.03	46244.30
567.19	47311.59
567.36	46415.16
567.52	46461.97
567.68	47033.07
567.85	46562.62
568.01	46445.59
568.17	46459.63
568.34	46534.53
568.50	46705.39
568.66	46459.63
568.83	46644.54
568.99	46417.50
569.15	46562.62
569.32	46810.71
569.48	46394.10
569.64	46618.79
569.81	46913.70
569.97	46583.68
570.13	46674.96
570.30	46689.01
570.46	46632.83
570.62	45975.14
570.78	46267.71
570.95	46789.65
571.11	46604.75
571.27	46450.27
571.43	46557.94
571.60	46518.15
571.76	46813.05
571.92	46401.12
572.09	46564.96
572.25	46724.11
572.41	46417.50
572.57	46876.25
572.74	47114.98
572.90	46623.47
573.06	47068.17
573.22	46923.06
573.38	46799.01
573.55	46782.63
573.71	46749.86
573.87	46813.05
574.03	46656.24
574.20	46653.90
574.36	46403.46
574.52	46700.71
574.68	46672.62
574.84	46876.25
575.01	46925.40
575.17	46726.46
575.33	46689.01
575.49	46408.14
575.65	46719.43
575.82	46838.80
575.98	46525.17
576.14	47182.86
576.30	47288.18
576.46	46541.55
576.62	46827.10
576.79	46993.28
576.95	46600.07
577.11	47262.44
577.27	46913.70
577.43	46913.70
577.59	46525.17
577.75	46852.84
577.92	46117.92
578.08	46571.98
578.24	46756.88
578.40	46454.95
578.56	46803.69
578.72	46738.16
578.88	46677.30
579.04	47117.32
579.21	46820.08
579.37	46974.55
579.53	46855.18
579.69	46742.84
579.85	47021.36
580.01	46829.44
580.17	46724.11
580.33	46717.09
580.49	47056.47
580.65	47161.79
580.82	46700.71
580.98	46707.73
581.14	46499.42
581.30	47234.35
581.46	47269.46
581.62	46885.61
581.78	47063.49
581.94	47515.22
582.10	46426.87
582.26	47058.81
582.42	47344.36
582.58	47140.73
582.74	47065.83
582.90	47255.42
583.06	47035.41
583.22	46909.02
583.38	47278.82
583.54	47168.82
583.70	46689.01
583.86	47091.58
584.02	46628.15
584.18	46988.60
584.34	47342.02
584.50	47257.76
584.66	46749.86
584.82	46539.21
584.98	46885.61
585.14	47318.61
585.30	47342.02
585.46	47185.20
585.62	46768.58
585.78	46717.09
585.94	46019.61
586.10	46714.75
586.26	46979.23
586.42	47098.60
586.58	47494.15
586.74	46990.94
586.90	46478.36
587.06	46684.33
587.22	46824.76
587.38	46670.28
587.54	47126.69
587.70	47166.48
587.86	47037.75
588.02	47215.63
588.18	46918.38
588.34	46859.87
588.49	46604.75
588.65	46454.95
588.81	46539.21
588.97	46361.33
589.13	46305.16
589.29	46454.95
589.45	46506.44
589.61	46813.05
589.77	46981.57
