SpectraSuite Data File
++++++++++++++++++++++++++++++++++++
Date: Fri Oct 25 11:23:37 EDT 2013
User: price-jones
Dark Spectrum Present: No
Reference Spectrum Present: No
Number of Sampled Component Spectra: 1
Spectrometers: USB2+H05261
Integration Time (usec): 100000 (USB2+H05261)
Spectra Averaged: 1 (USB2+H05261)
Boxcar Smoothing: 0 (USB2+H05261)
Correct for Electrical Dark: No (USB2+H05261)
Strobe/Lamp Enabled: No (USB2+H05261)
Correct for Detector Non-linearity: No (USB2+H05261)
Correct for Stray Light: No (USB2+H05261)
Number of Pixels in Processed Spectrum: 2048
>>>>>Begin Processed Spectral Data<<<<<
365.73	248.10
365.92	248.10
366.12	248.10
366.32	159.16
366.52	159.16
366.72	177.88
366.91	135.75
367.11	30.43
367.31	86.60
367.51	86.60
367.70	100.64
367.90	156.82
368.10	81.92
368.30	117.03
368.49	133.41
368.69	79.58
368.89	142.77
369.09	154.48
369.28	131.07
369.48	201.29
369.68	147.45
369.87	154.48
370.07	145.11
370.27	304.27
370.47	259.80
370.66	603.86
370.86	624.92
371.06	674.07
371.25	667.05
371.45	655.35
371.65	706.84
371.84	695.14
372.04	690.46
372.24	667.05
372.44	809.83
372.63	678.76
372.83	720.88
373.03	688.12
373.22	718.54
373.42	809.83
373.62	730.25
373.81	791.10
374.01	748.97
374.21	816.85
374.40	826.21
374.60	802.80
374.79	826.21
374.99	788.76
375.19	781.74
375.38	858.98
375.58	983.02
375.78	809.83
375.97	887.06
376.17	938.55
376.37	903.45
376.56	936.21
376.76	805.14
376.95	830.89
377.15	868.34
377.35	905.79
377.54	837.91
377.74	985.37
377.93	922.17
378.13	978.34
378.33	903.45
378.52	933.87
378.72	1004.09
378.91	931.53
379.11	992.39
379.31	896.43
379.50	882.38
379.70	929.19
379.89	901.11
380.09	957.28
380.28	990.05
380.48	1004.09
380.68	917.49
380.87	1004.09
381.07	985.37
381.26	997.07
381.46	1027.50
381.65	978.34
381.85	950.26
382.04	1064.94
382.24	1041.54
382.43	1032.18
382.63	1034.52
382.83	1078.99
383.02	1088.35
383.22	1100.05
383.41	961.96
383.61	1160.91
383.80	1160.91
384.00	1163.25
384.19	1158.57
384.39	1062.60
384.58	1238.14
384.78	1109.41
384.97	1184.31
385.17	1167.93
385.36	1142.18
385.56	1226.44
385.75	1188.99
385.95	1198.35
386.14	1242.82
386.34	1151.54
386.53	1144.52
386.72	1167.93
386.92	1224.10
387.11	1275.59
387.31	1203.04
387.50	1226.44
387.70	1259.21
387.89	1294.32
388.09	1238.14
388.28	1315.38
388.48	1256.87
388.67	1282.61
388.86	1327.08
389.06	1294.32
389.25	1399.64
389.45	1296.66
389.64	1306.02
389.84	1357.51
390.03	1359.85
390.22	1409.00
390.42	1303.68
390.61	1425.39
390.81	1355.17
391.00	1439.43
391.19	1434.75
391.39	1418.36
391.58	1462.83
391.78	1334.11
391.97	1472.20
392.16	1483.90
392.36	1500.28
392.55	1540.07
392.75	1535.39
392.94	1530.71
393.13	1535.39
393.33	1500.28
393.52	1530.71
393.71	1523.69
393.91	1511.99
394.10	1572.84
394.29	1586.88
394.49	1591.56
394.68	1643.06
394.88	1638.38
395.07	1596.25
395.26	1708.59
395.46	1647.74
395.65	1659.44
395.84	1668.80
396.04	1877.11
396.23	1699.23
396.42	1732.00
396.62	1762.42
396.81	1703.91
397.00	1671.14
397.19	1741.36
397.39	1764.76
397.58	1846.68
397.77	1753.06
397.97	1837.32
398.16	1816.26
398.35	1884.13
398.55	1846.68
398.74	1872.43
398.93	2050.31
399.12	1879.45
399.32	1980.09
399.51	1900.52
399.70	2083.08
399.90	1968.39
400.09	2054.99
400.28	2045.63
400.47	2022.22
400.67	2066.69
400.86	1977.75
401.05	2080.74
401.24	2026.90
401.44	2146.27
401.63	2153.29
401.82	2136.91
402.01	2139.25
402.21	2059.67
402.40	2223.51
402.59	2157.97
402.78	2244.57
402.97	2193.08
403.17	2298.41
403.36	2321.81
403.55	2209.47
403.74	2394.37
403.93	2422.45
404.13	2394.37
404.32	2345.22
404.51	2443.52
404.70	2340.54
404.89	2382.67
405.09	2541.82
405.28	2464.58
405.47	2392.03
405.66	2480.97
405.85	2471.61
406.05	2499.69
406.24	2623.74
406.43	2581.61
406.62	2635.44
406.81	2747.79
407.00	2626.08
407.20	2537.14
407.39	2633.10
407.58	2740.77
407.77	2759.49
407.96	2787.58
408.15	2675.23
408.34	2651.83
408.54	2736.09
408.73	2815.66
408.92	2878.86
409.11	2757.15
409.30	2899.92
409.49	2869.50
409.68	2850.77
409.87	2979.50
410.07	3138.66
410.26	2890.56
410.45	3070.78
410.64	3023.97
410.83	3089.51
411.02	3063.76
411.21	3096.53
411.40	3094.19
411.59	3206.53
411.78	3194.83
411.98	3265.05
412.17	3358.67
412.36	3199.51
412.55	3452.29
412.74	3351.65
412.93	3358.67
413.12	3461.65
413.31	3548.25
413.50	3363.35
413.69	3485.06
413.88	3761.24
414.07	3662.94
414.26	3501.44
414.45	3653.58
414.64	3686.34
414.83	3648.90
415.02	3871.25
415.22	3712.09
415.41	3904.01
415.60	3775.28
415.79	3836.14
415.98	3946.14
416.17	3894.65
416.36	3999.98
416.55	3852.52
416.74	4070.19
416.93	4051.47
417.12	4105.30
417.31	4175.52
417.50	4212.96
417.69	4222.33
417.88	4311.27
418.07	4358.08
418.26	4294.88
418.45	4353.40
418.64	4442.34
418.83	4428.29
419.02	4554.68
419.21	4575.75
419.39	4552.34
419.58	4512.55
419.77	4458.72
419.96	4568.73
420.15	4542.98
420.34	4741.93
420.53	4631.92
420.72	4620.22
420.91	4814.48
421.10	4842.57
421.29	4779.37
421.48	4774.69
421.67	4770.01
421.86	4868.31
422.05	4800.44
422.24	4800.44
422.43	4854.27
422.61	4851.93
422.80	5018.11
422.99	4968.96
423.18	5027.47
423.37	5114.07
423.56	4983.00
423.75	4917.47
423.94	4851.93
424.13	4671.71
424.32	4828.53
424.50	4947.89
424.69	5186.63
424.88	5151.52
425.07	4809.80
425.26	5001.72
425.45	5015.77
425.64	4983.00
425.83	5034.49
426.01	5090.67
426.20	5036.83
426.39	5142.16
426.58	4940.87
426.77	5011.09
426.96	5198.33
427.15	5135.14
427.33	5242.80
427.52	5203.01
427.71	5247.48
427.90	5238.12
428.09	5184.29
428.28	5364.51
428.46	5334.08
428.65	5355.15
428.84	5638.35
429.03	5547.07
429.22	5324.72
429.40	5509.62
429.59	5439.40
429.78	5270.89
429.97	5205.35
430.16	5490.90
430.34	5387.91
430.53	5654.73
430.72	5781.12
430.91	5542.39
431.10	5542.39
431.28	5673.46
431.47	5657.07
431.66	5881.77
431.85	5729.63
432.03	5921.56
432.22	6083.05
432.41	5982.41
432.60	5961.34
432.79	6033.90
432.97	5947.30
433.16	5975.39
433.35	6024.54
433.54	6026.88
433.72	6129.86
433.91	6174.33
434.10	6139.23
434.28	6076.03
434.47	6368.60
434.66	6221.14
434.85	6296.04
435.03	6429.45
435.22	6324.13
435.41	6626.06
435.59	6279.66
435.78	6516.05
435.97	6424.77
436.16	6502.01
436.34	6502.01
436.53	6555.84
436.72	6707.98
436.90	6471.58
437.09	6527.75
437.28	6525.41
437.46	6658.82
437.65	6649.46
437.84	6752.45
438.02	6665.85
438.21	6668.19
438.40	6679.89
438.58	7063.74
438.77	7241.62
438.96	7019.27
439.14	7059.06
439.33	7145.66
439.52	7190.13
439.70	7152.68
439.89	7293.11
440.08	7323.54
440.26	7377.37
440.45	7363.33
440.63	7424.18
440.82	7445.24
441.01	7611.42
441.19	7674.62
441.38	7714.41
441.57	7714.41
441.75	7742.49
441.94	7927.39
442.12	7864.20
442.31	8318.26
442.50	8032.72
442.68	8163.79
442.87	7976.55
443.05	8166.13
443.24	8262.09
443.43	8180.17
443.61	8248.05
443.80	8336.99
443.98	8116.98
444.17	7911.01
444.35	8297.20
444.54	8294.86
444.73	8278.47
444.91	8301.88
445.10	8482.10
445.28	8393.16
445.47	8299.54
445.65	8379.12
445.84	8451.67
446.02	8486.78
446.21	8479.76
446.39	8215.28
446.58	8521.89
446.77	8493.80
446.95	8301.88
447.14	8458.70
447.32	8463.38
447.51	8493.80
447.69	8292.52
447.88	8547.64
448.06	8613.17
448.25	8428.27
448.43	8620.19
448.62	8519.55
448.80	8407.20
448.99	8709.13
449.17	8730.20
449.36	8812.12
449.54	8973.61
449.73	8894.04
449.91	9025.11
450.10	8844.88
450.28	9118.73
450.46	9114.05
450.65	8933.82
450.83	9167.88
451.02	8879.99
451.20	9034.47
451.39	9123.41
451.57	9027.45
451.76	9142.13
451.94	9018.08
452.13	9352.78
452.31	9167.88
452.49	9153.84
452.68	9376.19
452.86	9488.53
453.05	9507.26
453.23	9504.92
453.42	9455.76
453.60	9327.03
453.78	9603.22
453.97	9261.50
454.15	9535.34
454.34	9586.83
454.52	9729.61
454.70	9687.48
454.89	9792.80
455.07	9811.53
455.26	9806.84
455.44	9863.02
455.62	9863.02
455.81	10099.41
455.99	10001.11
456.17	10001.11
456.36	10019.83
456.54	10298.36
456.73	10164.95
456.91	10443.47
457.09	10284.31
457.28	10417.72
457.46	10389.64
457.64	10635.39
457.83	10719.65
458.01	10569.86
458.19	10675.18
458.38	10509.01
458.56	10736.04
458.74	10619.01
458.93	10857.75
459.11	10869.45
459.29	10888.17
459.48	10696.25
459.66	10794.55
459.84	11056.69
460.03	10923.28
460.21	10799.23
460.39	10956.05
460.57	10981.79
460.76	11122.23
460.94	11166.70
461.12	11040.31
461.31	11044.99
461.49	11344.58
461.67	11426.50
461.85	11492.03
462.04	11243.93
462.22	11723.74
462.40	11578.63
462.59	11485.01
462.77	11707.36
462.95	11929.71
463.13	11899.28
463.32	11735.45
463.50	11763.53
463.68	11829.07
463.86	11737.79
464.05	11735.45
464.23	11805.66
464.41	12013.97
464.59	11541.18
464.78	12360.37
464.96	12067.80
465.14	11723.74
465.32	11939.07
465.50	12224.62
465.69	12334.62
465.87	12170.79
466.05	12119.29
466.23	12245.68
466.41	12301.86
466.60	12554.63
466.78	12046.74
466.96	12491.44
467.14	12402.50
467.32	12390.80
467.51	12676.34
467.69	12229.30
467.87	12376.75
468.05	12587.40
468.23	12423.56
468.41	12372.07
468.60	12615.49
468.78	12723.15
468.96	12526.55
469.14	12854.22
469.32	12978.27
469.50	12730.17
469.69	12894.01
469.87	13142.11
470.05	13130.41
470.23	13149.13
470.41	12933.80
470.59	13549.36
470.77	13261.48
470.95	13355.10
471.14	13518.93
471.32	13242.75
471.50	13504.89
471.68	13273.18
471.86	13619.58
472.04	13680.43
472.22	13914.48
472.40	13752.99
472.58	13816.18
472.77	14064.28
472.95	14185.99
473.13	14640.05
473.31	13870.01
473.49	14026.83
473.67	14256.20
473.85	14253.86
474.03	14600.26
474.21	14626.01
474.39	14834.32
474.57	14656.43
474.75	14789.85
474.93	14946.66
475.12	14778.14
475.30	15040.28
475.48	15225.18
475.66	15220.50
475.84	15260.29
476.02	15515.41
476.20	15585.63
476.38	15712.02
476.56	15789.25
476.74	16290.13
476.92	15992.88
477.10	15875.85
477.28	16346.30
477.46	16180.12
477.64	16294.81
477.82	16477.37
478.00	17053.14
478.18	16828.45
478.36	16922.07
478.54	17144.42
478.72	17163.15
478.90	17280.18
479.08	17383.16
479.26	17572.74
479.44	17935.53
479.62	17972.97
479.80	17982.34
479.98	18441.08
480.16	18324.05
480.34	18153.20
480.52	18672.79
480.70	18520.66
480.88	18408.31
481.06	18764.07
481.24	18855.36
481.41	18663.43
481.59	19550.49
481.77	19653.48
481.95	19609.01
482.13	19719.01
482.31	19721.35
482.49	20301.81
482.67	20196.48
482.85	20587.35
483.03	20809.70
483.21	20884.60
483.39	20945.45
483.57	20910.35
483.74	21003.97
483.92	21436.97
484.10	21359.73
484.28	21816.13
484.46	21968.27
484.64	22071.25
484.82	22015.08
485.00	22314.67
485.18	22864.69
485.35	23002.78
485.53	22878.74
485.71	23281.31
485.89	23662.82
486.07	23033.21
486.25	23681.54
486.43	23445.15
486.61	24137.94
486.78	24350.93
486.96	24463.28
487.14	24629.46
487.32	24840.11
487.50	24622.44
487.68	24905.64
487.85	25340.98
488.03	25783.34
488.21	25645.25
488.39	26120.38
488.57	25989.31
488.75	26312.30
488.92	26705.51
489.10	26698.49
489.28	26967.65
489.46	27182.98
489.64	26998.08
489.81	27704.92
489.99	27484.91
490.17	28025.57
490.35	28240.90
490.53	28011.53
490.70	28514.75
490.88	28126.22
491.06	28947.75
491.24	28666.88
491.41	28758.16
491.59	28973.49
491.77	29142.01
491.95	29490.75
492.13	29619.48
492.30	29628.84
492.48	30033.75
492.66	30328.66
492.84	30274.83
493.01	30616.55
493.19	31007.42
493.37	31082.31
493.54	31264.88
493.72	31524.68
493.90	31674.47
494.08	31662.77
494.25	32079.38
494.43	32165.98
494.61	32236.20
494.79	32741.75
494.96	32872.82
495.14	32423.44
495.32	33116.24
495.49	33186.46
495.67	33130.28
495.85	33631.16
496.02	33797.34
496.20	34169.48
496.38	33834.78
496.55	34047.77
496.73	34939.52
496.91	34918.45
497.09	34487.79
497.26	34824.83
497.44	35091.65
497.62	35459.12
497.79	35770.41
497.97	35583.16
498.14	36034.89
498.32	36397.67
498.50	36149.57
498.67	36311.07
498.85	36734.71
499.03	37071.75
499.20	37076.43
499.38	37184.09
499.56	37385.38
499.73	37305.80
499.91	37682.62
500.08	37645.18
500.26	37308.14
500.44	37699.01
500.61	38164.78
500.79	38045.41
500.97	38394.15
501.14	38672.67
501.32	38768.63
501.49	38504.15
501.67	38218.61
501.84	38677.35
502.02	39082.27
502.20	39229.72
502.37	39452.07
502.55	39182.91
502.72	39494.20
502.90	39833.58
503.07	39756.34
503.25	39723.57
503.43	40161.25
503.60	39856.98
503.78	39962.31
503.95	40231.47
504.13	40577.87
504.30	40903.20
504.48	40917.25
504.65	40594.25
504.83	41177.04
505.01	41333.86
505.18	41195.77
505.36	41226.20
505.53	41420.46
505.71	41773.88
505.88	42115.60
506.06	41385.35
506.23	42136.66
506.41	42036.02
506.58	42012.62
506.76	42775.63
506.93	42391.78
507.11	42820.10
507.28	42485.40
507.46	42646.90
507.63	43049.47
507.81	42969.90
507.98	43257.78
508.16	43229.69
508.33	43519.92
508.50	43566.73
508.68	43674.40
508.85	44041.86
509.03	43800.79
509.20	44278.25
509.38	44491.24
509.55	44353.15
509.73	44397.62
509.90	45043.61
510.08	44470.18
510.25	44694.87
510.42	45095.10
510.60	45375.97
510.77	45062.33
510.95	45509.38
511.12	45280.00
511.30	45226.17
511.47	45329.16
511.64	45867.48
511.82	46213.88
511.99	45677.90
512.17	46546.23
512.34	46052.38
512.51	46471.34
512.69	46412.82
512.86	46316.86
513.04	46499.42
513.21	46665.60
513.38	46913.70
513.56	46873.91
513.73	46859.87
513.90	47093.92
514.08	47103.28
514.25	46974.55
514.43	47234.35
514.60	47686.07
514.77	47257.76
514.95	47807.78
515.12	47606.50
515.29	47840.55
515.47	48093.33
515.64	48233.76
515.81	48065.24
515.99	48133.12
516.16	48706.55
516.33	48507.60
516.51	48390.58
516.68	48575.48
516.85	48715.91
517.03	48949.96
517.20	48765.06
517.37	48978.05
517.54	49219.13
517.72	48956.99
517.89	49081.03
518.06	49748.09
518.24	49076.35
518.41	49485.95
518.58	49361.90
518.75	49663.83
518.93	49911.92
519.10	49696.59
519.27	49961.08
519.45	49855.75
519.62	49855.75
519.79	49984.48
519.96	50110.87
520.14	49911.92
520.31	49975.12
520.48	50129.59
520.65	50272.37
520.83	50546.21
521.00	50513.44
521.17	50274.71
521.34	50796.65
521.52	51065.81
521.69	50806.01
521.86	51131.34
522.03	51510.51
522.20	51283.48
522.38	51700.09
522.55	51540.94
522.72	51573.70
522.89	51470.72
523.07	51709.46
523.24	51751.59
523.41	51746.90
523.58	51433.27
523.75	51896.70
523.92	51833.50
524.10	52306.29
524.27	51842.87
524.44	51922.44
524.61	52212.67
524.78	52317.99
524.96	52516.94
525.13	52252.46
525.30	52416.30
525.47	52549.71
525.64	52645.67
525.81	52535.66
525.98	52769.72
526.16	52559.07
526.33	52727.59
526.50	53286.98
526.67	52861.00
526.84	52903.13
527.01	53104.41
527.18	52914.83
527.36	52961.64
527.53	52912.49
527.70	53385.28
527.87	53485.92
528.04	53277.61
528.21	53544.44
528.38	53485.92
528.55	53457.84
528.72	53492.94
528.89	53694.23
529.07	53429.75
529.24	53294.00
529.41	53705.93
529.58	53923.60
529.75	53684.87
529.92	53984.46
530.09	53860.41
530.26	54244.26
530.43	54064.03
530.60	53925.94
530.77	54033.61
530.94	54042.97
531.11	54265.32
531.28	54138.93
531.46	54412.77
531.63	54539.16
531.80	54349.58
531.97	54487.67
532.14	54663.21
532.31	54417.46
532.48	54382.35
532.65	54843.43
532.82	54417.46
532.99	54665.55
533.16	54663.21
533.33	54756.83
533.50	55079.83
533.67	54593.00
533.84	54904.29
534.01	54822.37
534.18	55068.12
534.35	55323.24
534.52	55004.93
534.69	55234.30
534.86	55360.69
535.03	54962.80
535.20	55117.28
535.37	55077.49
535.54	55384.10
535.71	55128.98
535.88	55590.06
536.05	55590.06
536.22	55571.34
536.38	55564.32
536.55	55554.96
536.72	55613.47
536.89	55559.64
537.06	55573.68
537.23	56119.02
537.40	55669.64
537.57	55854.54
537.74	55763.26
537.91	56240.73
538.08	55945.83
538.25	55650.92
538.42	55934.12
538.59	56214.99
538.75	56044.13
538.92	56266.48
539.09	56343.72
539.26	56069.87
539.43	56126.05
539.60	56207.97
539.77	56107.32
539.94	56390.53
540.11	56378.82
540.28	56516.92
540.44	56219.67
540.61	56453.72
540.78	56563.73
540.95	56589.47
541.12	56444.36
541.29	56465.42
541.46	56655.01
541.62	56530.96
541.79	56729.90
541.96	56324.99
542.13	56451.38
542.30	56643.30
542.47	56837.57
542.63	56797.78
542.80	56842.25
542.97	57080.98
543.14	57183.97
543.31	57387.60
543.48	57195.67
543.64	57614.63
543.81	57354.83
543.98	57167.58
544.15	57411.00
544.32	57549.09
544.48	57893.15
544.65	57219.08
544.82	57462.49
544.99	57411.00
545.16	57666.12
545.32	57434.41
545.49	57654.42
545.66	57668.46
545.83	57605.26
546.00	57764.42
546.16	57921.24
546.33	57602.92
546.50	57663.78
546.67	57914.22
546.83	57661.44
547.00	57977.41
547.17	57780.81
547.34	57893.15
547.50	58155.29
547.67	58176.36
547.84	58244.23
548.00	58166.99
548.17	58291.04
548.34	58183.38
548.51	58412.75
548.67	58291.04
548.84	58171.67
549.01	58033.58
549.18	58342.53
549.34	58281.68
549.51	58468.92
549.68	58499.35
549.84	58342.53
550.01	58482.97
550.18	58391.68
550.34	58478.28
550.51	58384.66
550.68	58492.33
550.84	58379.98
551.01	58660.85
551.18	58511.05
551.34	58525.10
551.51	58710.00
551.68	58562.54
551.84	58487.65
552.01	58721.70
552.18	58642.12
552.34	58504.03
552.51	58644.46
552.68	58695.95
552.84	58628.08
553.01	58817.66
553.18	58508.71
553.34	58787.24
553.51	58894.90
553.67	58906.60
553.84	59063.42
554.01	59138.32
554.17	59145.34
554.34	59028.31
554.51	59002.56
554.67	59189.81
554.84	59133.63
555.00	59058.74
555.17	58873.84
555.33	59061.08
555.50	58738.08
555.67	59011.93
555.83	58988.52
556.00	59187.47
556.16	59470.67
556.33	59480.03
556.50	59126.61
556.66	59234.28
556.83	59143.00
556.99	59433.22
557.16	59664.94
557.32	59538.55
557.49	59693.02
557.65	59325.56
557.82	59470.67
557.98	59529.19
558.15	59442.59
558.32	59491.74
558.48	59604.08
558.65	59561.95
558.81	59608.76
558.98	59557.27
559.14	59746.86
559.31	59700.04
559.47	59770.26
559.64	59723.45
559.80	59887.29
559.97	59639.19
560.13	59409.82
560.30	59805.37
560.46	59826.43
560.63	59859.20
560.79	59840.48
560.96	59983.25
561.12	60016.02
561.29	59854.52
561.45	59910.69
561.61	60009.00
561.78	59948.14
561.94	59826.43
562.11	60027.72
562.27	59962.18
562.44	60240.71
562.60	60133.04
562.77	60100.28
562.93	59817.07
563.10	60156.45
563.26	59962.18
563.42	60205.60
563.59	59934.10
563.75	60083.89
563.92	60221.98
564.08	60165.81
564.24	60392.84
564.41	60149.43
564.57	60177.51
564.74	60233.69
564.90	60189.22
565.07	60001.97
565.23	60170.49
565.39	60315.61
565.56	60252.41
565.72	60233.69
565.88	60177.51
566.05	60353.05
566.21	60224.32
566.38	60399.86
566.54	60308.58
566.70	60535.62
566.87	60449.02
567.03	60463.06
567.19	60465.40
567.36	60432.63
567.52	60205.60
567.68	60505.19
567.85	60364.76
568.01	60486.46
568.17	60205.60
568.34	60491.15
568.50	60463.06
568.66	60346.03
568.83	60285.18
568.99	60477.10
569.15	60516.89
569.32	60605.83
569.48	60336.67
569.64	60786.05
569.81	60463.06
569.97	60395.18
570.13	60664.35
570.30	60238.37
570.46	60676.05
570.62	60683.07
570.78	60566.04
570.95	60528.59
571.11	60554.34
571.27	60561.36
571.43	60757.97
571.60	60722.86
571.76	60612.85
571.92	60860.95
572.09	60727.54
572.25	60699.45
572.41	60692.43
572.57	60481.78
572.74	60690.09
572.90	60568.38
573.06	60441.99
573.22	60647.96
573.38	60755.63
573.55	60727.54
573.71	60910.10
573.87	60654.98
574.03	60659.66
574.20	60629.24
574.36	60687.75
574.52	60907.76
574.68	60858.61
574.84	60802.44
575.01	60973.30
575.17	60795.42
575.33	60757.97
575.49	60622.22
575.65	60800.10
575.82	61020.11
575.98	60919.46
576.14	60956.91
576.30	60694.77
576.46	60811.80
576.62	60872.65
576.79	60767.33
576.95	60491.15
577.11	60776.69
577.27	60928.83
577.43	60802.44
577.59	60772.01
577.75	60874.99
577.92	60643.28
578.08	60767.33
578.24	60809.46
578.40	60975.64
578.56	61113.73
578.72	61116.07
578.88	60917.12
579.04	61247.14
579.21	61052.87
579.37	61001.38
579.53	60980.32
579.69	60877.33
579.85	60905.42
580.01	60673.71
580.17	60748.60
580.33	60935.85
580.49	61041.17
580.65	60977.98
580.82	60802.44
580.98	60830.52
581.14	60804.78
581.30	61066.92
581.46	60720.52
581.62	61113.73
581.78	60935.85
581.94	61027.13
582.10	60977.98
582.26	60872.65
582.42	61064.58
582.58	61055.21
582.74	61045.85
582.90	61109.05
583.06	60816.48
583.22	60996.70
583.38	60734.56
583.54	61001.38
583.70	60980.32
583.86	61010.74
584.02	60893.72
584.18	61076.28
584.34	61190.97
584.50	60896.06
584.66	60767.33
584.82	60704.13
584.98	61249.48
585.14	61029.47
585.30	61048.19
585.46	61022.45
585.62	61111.39
585.78	61106.71
585.94	61057.56
586.10	61041.17
586.26	60942.87
586.42	61197.99
586.58	60860.95
586.74	61015.43
586.90	60919.46
587.06	60865.63
587.22	61228.41
587.38	61240.12
587.54	61221.39
587.70	61200.33
587.86	61230.75
588.02	61167.56
588.18	61104.37
588.34	61001.38
588.49	61104.37
