SpectraSuite Data File
++++++++++++++++++++++++++++++++++++
Date: Fri Oct 25 11:25:43 EDT 2013
User: price-jones
Dark Spectrum Present: No
Reference Spectrum Present: No
Number of Sampled Component Spectra: 1
Spectrometers: USB2+H05261
Integration Time (usec): 100000 (USB2+H05261)
Spectra Averaged: 1 (USB2+H05261)
Boxcar Smoothing: 0 (USB2+H05261)
Correct for Electrical Dark: No (USB2+H05261)
Strobe/Lamp Enabled: No (USB2+H05261)
Correct for Detector Non-linearity: No (USB2+H05261)
Correct for Stray Light: No (USB2+H05261)
Number of Pixels in Processed Spectrum: 2048
>>>>>Begin Processed Spectral Data<<<<<
365.73	229.37
365.92	229.37
366.12	229.37
366.32	133.41
366.52	163.84
366.72	149.79
366.91	117.03
367.11	154.48
367.31	140.43
367.51	126.39
367.70	131.07
367.90	205.97
368.10	107.66
368.30	180.22
368.49	147.45
368.69	194.26
368.89	152.13
369.09	201.29
369.28	161.50
369.48	147.45
369.68	142.77
369.87	182.56
370.07	159.16
370.27	220.01
370.47	315.97
370.66	594.50
370.86	629.60
371.06	627.26
371.25	739.61
371.45	711.52
371.65	662.37
371.84	732.59
372.04	706.84
372.24	725.57
372.44	674.07
372.63	739.61
372.83	737.27
373.03	788.76
373.22	718.54
373.42	758.33
373.62	770.04
373.81	779.40
374.01	805.14
374.21	866.00
374.40	861.32
374.60	802.80
374.79	798.12
374.99	814.51
375.19	748.97
375.38	887.06
375.58	844.93
375.78	905.79
375.97	840.25
376.17	849.61
376.37	851.96
376.56	851.96
376.76	912.81
376.95	861.32
377.15	980.68
377.35	854.30
377.54	823.87
377.74	877.70
377.93	851.96
378.13	940.90
378.33	919.83
378.52	889.40
378.72	873.02
378.91	990.05
379.11	954.94
379.31	992.39
379.50	973.66
379.70	922.17
379.89	945.58
380.09	910.47
380.28	1050.90
380.48	1055.58
380.68	985.37
380.87	1064.94
381.07	978.34
381.26	1057.92
381.46	990.05
381.65	1076.65
381.85	1027.50
382.04	992.39
382.24	978.34
382.43	1130.48
382.63	1121.12
382.83	1090.69
383.02	1135.16
383.22	1057.92
383.41	1043.88
383.61	1053.24
383.80	1046.22
384.00	1078.99
384.19	1104.73
384.39	1172.61
384.58	1132.82
384.78	1219.42
384.97	1184.31
385.17	1118.78
385.36	1156.22
385.56	1142.18
385.75	1217.08
385.95	1205.38
386.14	1184.31
386.34	1249.85
386.53	1263.89
386.72	1205.38
386.92	1193.67
387.11	1203.04
387.31	1217.08
387.50	1331.76
387.70	1273.25
387.89	1266.23
388.09	1261.55
388.28	1242.82
388.48	1315.38
388.67	1364.53
388.86	1303.68
389.06	1329.42
389.25	1299.00
389.45	1350.49
389.64	1460.49
389.84	1430.07
390.03	1394.96
390.22	1350.49
390.42	1411.34
390.61	1387.94
390.81	1362.19
391.00	1364.53
391.19	1540.07
391.39	1479.22
391.58	1451.13
391.78	1366.87
391.97	1497.94
392.16	1383.26
392.36	1451.13
392.55	1500.28
392.75	1486.24
392.94	1490.92
393.13	1507.30
393.33	1600.93
393.52	1619.65
393.71	1526.03
393.91	1563.48
394.10	1502.62
394.29	1458.15
394.49	1631.35
394.68	1640.72
394.88	1565.82
395.07	1607.95
395.26	1610.29
395.46	1678.16
395.65	1722.63
395.84	1666.46
396.04	1760.08
396.23	1732.00
396.42	1788.17
396.62	1879.45
396.81	1783.49
397.00	1778.81
397.19	1863.07
397.39	1844.34
397.58	1788.17
397.77	1914.56
397.97	1870.09
398.16	1813.92
398.35	1867.75
398.55	1933.28
398.74	1919.24
398.93	1863.07
399.12	1991.80
399.32	1900.52
399.51	1991.80
399.70	1902.86
399.90	2012.86
400.09	1956.69
400.28	2047.97
400.47	2022.22
400.67	2001.16
400.86	2099.46
401.05	2160.31
401.24	2066.69
401.44	2129.89
401.63	2104.14
401.82	2160.31
402.01	2097.12
402.21	2165.00
402.40	2099.46
402.59	2258.62
402.78	2169.68
402.97	2148.61
403.17	2246.91
403.36	2253.94
403.55	2317.13
403.74	2385.01
403.93	2307.77
404.13	2441.18
404.32	2448.20
404.51	2375.64
404.70	2422.45
404.89	2307.77
405.09	2492.67
405.28	2525.44
405.47	2462.24
405.66	2560.55
405.85	2495.01
406.05	2443.52
406.24	2509.05
406.43	2525.44
406.62	2560.55
406.81	2612.04
407.00	2572.25
407.20	2497.35
407.39	2672.89
407.58	2640.12
407.77	2668.21
407.96	2691.62
408.15	2752.47
408.34	2710.34
408.54	2881.20
408.73	2818.00
408.92	2731.41
409.11	2920.99
409.30	2796.94
409.49	2916.31
409.68	2911.63
409.87	2839.07
410.07	2967.80
410.26	2904.60
410.45	3023.97
410.64	2967.80
410.83	3117.59
411.02	3171.43
411.21	3269.73
411.40	3143.34
411.59	3246.32
411.78	3190.15
411.98	3176.11
412.17	3105.89
412.36	3234.62
412.55	3370.37
412.74	3588.04
412.93	3400.80
413.12	3442.93
413.31	3552.93
413.50	3398.46
413.69	3566.98
413.88	3536.55
414.07	3651.24
414.26	3592.72
414.45	3681.66
414.64	3529.53
414.83	3747.20
415.02	3838.48
415.22	3840.82
415.41	3765.92
415.60	3864.22
415.79	3929.76
415.98	3829.12
416.17	3976.57
416.36	3857.20
416.55	4037.42
416.74	3957.85
416.93	4007.00
417.12	4161.47
417.31	4095.94
417.50	4138.07
417.69	4271.48
417.88	4222.33
418.07	4278.50
418.26	4273.82
418.45	4435.32
418.64	4547.66
418.83	4409.57
419.02	4512.55
419.21	4498.51
419.39	4482.13
419.58	4475.10
419.77	4444.68
419.96	4468.08
420.15	4489.15
420.34	4538.30
420.53	4603.83
420.72	4699.80
420.91	4795.76
421.10	4690.43
421.29	4835.55
421.48	4671.71
421.67	4725.54
421.86	4645.96
422.05	4905.76
422.24	4868.31
422.43	4915.12
422.61	5015.77
422.80	4819.16
422.99	4851.93
423.18	4849.59
423.37	4983.00
423.56	4814.48
423.75	4959.60
423.94	4870.65
424.13	4678.73
424.32	4713.84
424.50	4926.83
424.69	5139.82
424.88	4952.57
425.07	5025.13
425.26	4898.74
425.45	5076.62
425.64	4865.97
425.83	4931.51
426.01	5158.54
426.20	4947.89
426.39	5095.35
426.58	4980.66
426.77	4997.04
426.96	5170.24
427.15	5160.88
427.33	5102.37
427.52	5188.97
427.71	5287.27
427.90	5214.71
428.09	5238.12
428.28	5313.02
428.46	5420.68
428.65	5390.25
428.84	5423.02
429.03	5607.92
429.22	5528.35
429.40	5387.91
429.59	5394.93
429.78	5298.97
429.97	5338.76
430.16	5495.58
430.34	5554.09
430.53	5645.37
430.72	5579.84
430.91	5626.65
431.10	5687.50
431.28	5771.76
431.47	5685.16
431.66	5696.86
431.85	5750.70
432.03	6040.92
432.22	6050.28
432.41	5839.64
432.60	5928.58
432.79	5987.09
432.97	6043.26
433.16	6090.07
433.35	5963.68
433.54	6085.39
433.72	6167.31
433.91	6005.81
434.10	6003.47
434.28	6197.74
434.47	6195.40
434.66	6286.68
434.85	6258.59
435.03	6317.11
435.22	6232.85
435.41	6466.90
435.59	6452.86
435.78	6553.50
435.97	6286.68
436.16	6354.55
436.34	6511.37
436.53	6548.82
436.72	6532.44
436.90	6441.15
437.09	6654.14
437.28	6399.02
437.46	6597.97
437.65	6707.98
437.84	6764.15
438.02	6548.82
438.21	6764.15
438.40	6607.33
438.58	7007.56
438.77	6991.18
438.96	6843.73
439.14	6881.18
439.33	7040.33
439.52	7070.76
439.70	7241.62
439.89	7503.76
440.08	7552.91
440.26	7454.61
440.45	7131.61
440.63	7417.16
440.82	7653.55
441.01	7562.27
441.19	7705.04
441.38	7737.81
441.57	7613.76
441.75	7728.45
441.94	7920.37
442.12	7728.45
442.31	7808.03
442.50	8030.38
442.68	8011.65
442.87	8060.80
443.05	8145.06
443.24	8128.68
443.43	8189.53
443.61	8086.55
443.80	8283.16
443.98	8030.38
444.17	7854.84
444.35	8255.07
444.54	8367.42
444.73	8259.75
444.91	8393.16
445.10	8341.67
445.28	8416.57
445.47	8238.69
445.65	8315.92
445.84	8269.11
446.02	8430.61
446.21	8425.93
446.39	8388.48
446.58	8409.54
446.77	8531.25
446.95	8257.41
447.14	8271.45
447.32	8538.27
447.51	8477.42
447.69	8365.07
447.88	8603.81
448.06	8533.59
448.25	8444.65
448.43	8376.78
448.62	8652.96
448.80	8397.84
448.99	8753.60
449.17	8706.79
449.36	8542.96
449.54	8718.50
449.73	8936.17
449.91	8936.17
450.10	8929.14
450.28	9116.39
450.46	9048.51
450.65	9100.00
450.83	8919.78
451.02	9004.04
451.20	9116.39
451.39	9041.49
451.57	9135.11
451.76	9025.11
451.94	9167.88
452.13	9118.73
452.31	9144.47
452.49	9146.81
452.68	9312.99
452.86	9240.44
453.05	9504.92
453.23	9481.51
453.42	9151.49
453.60	9200.65
453.78	9488.53
453.97	9525.98
454.15	9425.34
454.34	9336.40
454.52	9495.55
454.70	9680.46
454.89	10003.45
455.07	9741.31
455.26	9661.73
455.44	9879.40
455.62	9617.26
455.81	9895.78
455.99	10024.51
456.17	9980.04
456.36	9863.02
456.54	10076.01
456.73	10284.31
456.91	10459.85
457.09	10497.30
457.28	10452.83
457.46	10291.34
457.64	10677.52
457.83	10494.96
458.01	10202.40
458.19	10644.76
458.38	10501.98
458.56	10757.10
458.74	10527.73
458.93	10712.63
459.11	10516.03
459.29	10771.15
459.48	10703.27
459.66	10534.75
459.84	10853.06
460.03	10967.75
460.21	11023.92
460.39	11061.37
460.57	10984.13
460.76	10977.11
460.94	11073.07
461.12	11101.16
461.31	11049.67
461.49	11131.59
461.67	11080.10
461.85	11461.60
462.04	11246.27
462.22	11578.63
462.40	11576.29
462.59	11492.03
462.77	11407.77
462.95	11705.02
463.13	11475.65
463.32	11772.89
463.50	11782.26
463.68	11744.81
463.86	11646.51
464.05	11501.39
464.23	11758.85
464.41	11941.41
464.59	11382.03
464.78	12273.77
464.96	12088.87
465.14	11534.16
465.32	12205.89
465.50	12161.42
465.69	12212.92
465.87	12140.36
466.05	12332.28
466.23	12233.98
466.41	12128.66
466.60	12212.92
466.78	11974.18
466.96	12306.54
467.14	12056.10
467.32	12194.19
467.51	12400.16
467.69	12131.00
467.87	12390.80
468.05	12669.32
468.23	12615.49
468.41	12346.33
468.60	12500.80
468.78	12688.04
468.96	12507.82
469.14	12713.79
469.32	12676.34
469.50	12400.16
469.69	12886.99
469.87	12954.87
470.05	12973.59
470.23	12964.23
470.41	13123.38
470.59	13240.41
470.77	13146.79
470.95	13322.33
471.14	13277.86
471.32	13160.83
471.50	13476.80
471.68	13493.19
471.86	13469.78
472.04	13352.76
472.22	13895.76
472.40	13640.64
472.58	13668.73
472.77	13783.41
472.95	14022.15
473.13	14303.01
473.31	14162.58
473.49	14061.94
473.67	14153.22
473.85	14413.02
474.03	14593.24
474.21	14335.78
474.39	14534.73
474.57	14633.03
474.75	14916.23
474.93	14920.92
475.12	14927.94
475.30	15129.22
475.48	15077.73
475.66	14949.00
475.84	14862.40
476.02	15241.57
476.20	15587.97
476.38	15726.06
476.56	15704.99
476.74	15674.57
476.92	15829.04
477.10	15714.36
477.28	16133.31
477.46	15903.94
477.64	16147.36
477.82	16456.31
478.00	16908.03
478.18	16830.79
478.36	16861.22
478.54	17043.78
478.72	16973.56
478.90	17415.93
479.08	17394.86
479.26	17720.20
479.44	17607.85
479.62	17692.11
479.80	17785.73
479.98	18164.90
480.16	18113.41
480.34	17930.84
480.52	18621.30
480.70	18478.53
480.88	18377.89
481.06	18738.33
481.24	18649.39
481.41	18923.23
481.59	19328.14
481.77	19515.39
481.95	19363.25
482.13	19494.32
482.31	19562.20
482.49	20037.33
482.67	20060.73
482.85	20269.04
483.03	20603.74
483.21	20500.75
483.39	21249.72
483.57	20968.86
483.74	21018.01
483.92	21284.83
484.10	20889.28
484.28	21699.11
484.46	21685.06
484.64	22356.80
484.82	21893.37
485.00	22127.42
485.18	22352.12
485.35	22967.68
485.53	22558.08
485.71	22927.89
485.89	23374.93
486.07	23063.64
486.25	23323.44
486.43	23721.33
486.61	23337.48
486.78	23763.46
486.96	24215.18
487.14	24627.12
487.32	24409.45
487.50	24615.41
487.68	24905.64
487.85	24964.15
488.03	25364.39
488.21	25680.36
488.39	25640.57
488.57	25851.22
488.75	26284.22
488.92	26705.51
489.10	26476.14
489.28	26539.33
489.46	27023.83
489.64	26902.12
489.81	27672.15
489.99	27651.09
490.17	27847.69
490.35	27761.09
490.53	27805.56
490.70	28135.58
490.88	28329.84
491.06	28774.55
491.24	28414.10
491.41	28980.51
491.59	29165.42
491.77	29017.96
491.95	29507.13
492.13	29340.96
492.30	29982.26
492.48	29872.26
492.66	29949.50
492.84	30326.32
493.01	30513.56
493.19	30359.09
493.37	30848.26
493.54	31119.76
493.72	31655.75
493.90	31342.11
494.08	31625.32
494.25	32147.26
494.43	32070.02
494.61	32299.39
494.79	32257.26
494.96	32350.88
495.14	32409.40
495.32	32865.80
495.49	33237.95
495.67	33221.56
495.85	33013.26
496.02	34057.14
496.20	33593.71
496.38	33659.24
496.55	34080.54
496.73	34852.92
496.91	34499.50
497.09	34792.06
497.26	34799.08
497.44	34782.70
497.62	35028.46
497.79	35676.79
497.97	35688.49
498.14	35620.61
498.32	36123.83
498.50	36210.43
498.67	36573.21
498.85	36091.06
499.03	36236.17
499.20	36397.67
499.38	36116.81
499.56	36517.04
499.73	36931.31
499.91	36849.39
500.08	37020.25
500.26	36814.29
500.44	37563.26
500.61	37226.22
500.79	37523.47
500.97	37584.32
501.14	38022.00
501.32	38352.02
501.49	38672.67
501.67	38438.62
501.84	38820.13
502.02	38630.54
502.20	38836.51
502.37	38850.55
502.55	39112.69
502.72	38965.24
502.90	39569.10
503.07	39356.11
503.25	39660.38
503.43	39597.18
503.60	40163.59
503.78	40130.83
503.95	40149.55
504.13	40355.52
504.30	40376.58
504.48	40165.93
504.65	40540.42
504.83	40517.01
505.01	41296.41
505.18	41198.11
505.36	41242.58
505.53	40830.65
505.71	41523.44
505.88	41752.82
506.06	41588.98
506.23	41734.09
506.41	41851.12
506.58	42096.88
506.76	42029.00
506.93	42122.62
507.11	42082.83
507.28	42518.17
507.46	42309.86
507.63	42412.85
507.81	43082.24
507.98	43030.75
508.16	42890.32
508.33	43452.05
508.50	43079.90
508.68	43466.09
508.85	43646.31
509.03	43716.53
509.20	43934.20
509.38	44083.99
509.55	44165.91
509.73	44442.09
509.90	44318.04
510.08	44086.33
510.25	44254.85
510.42	44718.28
510.60	45085.74
510.77	45113.83
510.95	45226.17
511.12	45298.73
511.30	45123.19
511.47	45277.66
511.64	45289.37
511.82	45930.67
511.99	45359.58
512.17	45918.97
512.34	45689.60
512.51	46279.41
512.69	45844.07
512.86	45907.27
513.04	46190.47
513.21	46202.18
513.38	46754.54
513.56	46827.10
513.73	46403.46
513.90	47166.48
514.08	46705.39
514.25	47021.36
514.43	47248.39
514.60	47157.11
514.77	47124.35
514.95	47400.53
515.12	47702.46
515.29	47466.06
515.47	47660.33
515.64	47955.24
515.81	47215.63
515.99	48381.21
516.16	47800.76
516.33	48383.55
516.51	48285.25
516.68	48505.26
516.85	48381.21
517.03	48664.42
517.20	48861.02
517.37	48533.35
517.54	48446.75
517.72	48973.37
517.89	48839.96
518.06	48877.41
518.24	49195.72
518.41	49074.01
518.58	49247.21
518.75	49017.84
518.93	49109.12
519.10	48952.30
519.27	49876.82
519.45	49509.35
519.62	49652.12
519.79	49677.87
519.96	49904.90
520.14	49921.29
520.31	49771.49
520.48	50120.23
520.65	50452.59
520.83	50464.29
521.00	50405.78
521.17	50270.03
521.34	50770.90
521.52	50651.53
521.69	50777.92
521.86	50815.37
522.03	50703.03
522.20	50899.63
522.38	51339.65
522.55	51372.42
522.72	51320.93
522.89	51105.60
523.07	51351.35
523.24	51402.85
523.41	51407.53
523.58	50974.53
523.75	51325.61
523.92	51875.63
524.10	52076.92
524.27	51643.92
524.44	51503.49
524.61	51814.78
524.78	52310.97
524.96	51793.71
525.13	52119.05
525.30	52189.27
525.47	52390.55
525.64	52287.57
525.81	52610.56
525.98	52523.96
526.16	52261.82
526.33	52404.59
526.50	52846.96
526.67	52610.56
526.84	52795.46
527.01	52975.69
527.18	52741.63
527.36	52779.08
527.53	53071.65
527.70	52800.15
527.87	53277.61
528.04	53123.14
528.21	53352.51
528.38	53436.77
528.55	53631.04
528.72	53095.05
528.89	53427.41
529.07	53151.23
529.24	52956.96
529.41	53626.35
529.58	53652.10
529.75	53502.31
529.92	53476.56
530.09	53593.59
530.26	53600.61
530.43	53961.05
530.60	53656.78
530.77	53598.27
530.94	54033.61
531.11	53619.33
531.28	53790.19
531.46	54190.42
531.63	54274.68
531.80	54195.10
531.97	54031.27
532.14	54232.55
532.31	54300.43
532.48	54422.14
532.65	54574.27
532.82	54522.78
532.99	54721.72
533.16	54468.95
533.33	54490.01
533.50	54864.50
533.67	54604.70
533.84	54525.12
534.01	54616.40
534.18	54937.05
534.35	54845.77
534.52	54850.45
534.69	54864.50
534.86	55316.22
535.03	54864.50
535.20	55028.34
535.37	55093.87
535.54	55180.47
535.71	55182.81
535.88	55231.96
536.05	55358.35
536.22	55323.24
536.38	55430.91
536.55	55117.28
536.72	55377.08
536.89	55126.64
537.06	55475.38
537.23	55547.93
537.40	55395.80
537.57	55641.56
537.74	55655.60
537.91	55938.80
538.08	55847.52
538.25	55400.48
538.42	55613.47
538.59	56114.34
538.75	55849.86
538.92	55969.23
539.09	56039.45
539.26	56170.52
539.43	55798.37
539.60	56079.24
539.77	56149.45
539.94	56734.59
540.11	56233.71
540.28	56317.97
540.44	56233.71
540.61	56486.49
540.78	56502.87
540.95	56315.63
541.12	56327.33
541.29	56219.67
541.46	56385.85
541.62	56245.41
541.79	56526.28
541.96	56076.90
542.13	56545.00
542.30	56343.72
542.47	56722.88
542.63	56924.17
542.80	56493.51
542.97	57090.35
543.14	57043.54
543.31	57198.01
543.48	57069.28
543.64	57261.21
543.81	57403.98
543.98	57382.91
544.15	57265.89
544.32	57357.17
544.48	57268.23
544.65	57205.03
544.82	57263.55
544.99	56853.95
545.16	57471.85
545.32	57233.12
545.49	57827.62
545.66	57715.27
545.83	57532.71
546.00	57703.57
546.16	57336.10
546.33	57509.30
546.50	57385.25
546.67	57418.02
546.83	57219.08
547.00	57560.79
547.17	57485.90
547.34	57598.24
547.50	57764.42
547.67	58230.19
547.84	57764.42
548.00	57946.98
548.17	58049.97
548.34	57977.41
548.51	58241.89
548.67	58166.99
548.84	57904.85
549.01	57900.17
549.18	58164.65
549.34	58241.89
549.51	58150.61
549.68	58372.96
549.84	58176.36
550.01	58412.75
550.18	58262.96
550.34	58197.42
550.51	58328.49
550.68	58522.76
550.84	57956.35
551.01	58344.87
551.18	58251.25
551.34	58370.62
551.51	58349.56
551.68	58494.67
551.84	58347.21
552.01	58405.73
552.18	58614.04
552.34	58599.99
552.51	58592.97
552.68	58461.90
552.84	58429.13
553.01	58646.80
553.18	58639.78
553.34	58515.73
553.51	58541.48
553.67	58693.61
553.84	58890.22
554.01	58930.01
554.17	58965.12
554.34	59004.91
554.51	58754.47
554.67	58920.65
554.84	58754.47
555.00	58955.75
555.17	58897.24
555.33	59063.42
555.50	58918.31
555.67	58738.08
555.83	58742.77
556.00	58805.96
556.16	59428.54
556.33	59201.51
556.50	59227.26
556.66	59061.08
556.83	58979.16
556.99	59339.60
557.16	59421.52
557.32	59325.56
557.49	59524.50
557.65	59222.58
557.82	59245.98
557.98	59182.79
558.15	59119.59
558.32	59295.13
558.48	59419.18
558.65	59384.07
558.81	59341.94
558.98	59325.56
559.14	59515.14
559.31	59323.22
559.47	59302.15
559.64	59564.29
559.80	59618.13
559.97	59831.11
560.13	59325.56
560.30	59746.86
560.46	59700.04
560.63	59821.75
560.79	59594.72
560.96	59798.35
561.12	59714.09
561.29	59765.58
561.45	59650.89
561.61	59901.33
561.78	59634.51
561.94	59863.88
562.11	59873.24
562.27	59657.91
562.44	59880.27
562.60	60093.25
562.77	59852.18
562.93	59674.30
563.10	59859.20
563.26	59847.50
563.42	59971.55
563.59	59922.40
563.75	59887.29
563.92	59915.37
564.08	59971.55
564.24	60048.78
564.41	60196.24
564.57	59913.03
564.74	59929.42
564.90	60147.09
565.07	59943.46
565.23	60076.87
565.39	59810.05
565.56	60168.15
565.72	59927.08
565.88	59936.44
566.05	59962.18
566.21	60013.68
566.38	60013.68
566.54	60168.15
566.70	60425.61
566.87	60229.01
567.03	59861.54
567.19	60081.55
567.36	60231.35
567.52	60156.45
567.68	60509.87
567.85	60083.89
568.01	60533.28
568.17	60299.22
568.34	60341.35
568.50	60329.65
568.66	60104.96
568.83	60158.79
568.99	60182.19
569.15	60317.95
569.32	60275.82
569.48	60161.13
569.64	60434.97
569.81	60212.62
569.97	60109.64
570.13	60324.97
570.30	60437.31
570.46	60224.32
570.62	60320.29
570.78	60261.77
570.95	60395.18
571.11	60521.57
571.27	60367.10
571.43	60320.29
571.60	60404.55
571.76	60409.23
571.92	60360.08
572.09	60310.92
572.25	60472.42
572.41	60346.03
572.57	60378.80
572.74	60643.28
572.90	60425.61
573.06	60512.21
573.22	60547.32
573.38	60451.36
573.55	60456.04
573.71	60741.58
573.87	60559.02
574.03	60491.15
574.20	60322.63
574.36	60563.70
574.52	60748.60
574.68	60591.79
574.84	60610.51
575.01	60704.13
575.17	60643.28
575.33	60390.50
575.49	60495.83
575.65	60654.98
575.82	60573.06
575.98	60779.03
576.14	60715.84
576.30	60610.51
576.46	60844.57
576.62	60500.51
576.79	60701.79
576.95	60418.59
577.11	60767.33
577.27	60521.57
577.43	60692.43
577.59	60580.09
577.75	60849.25
577.92	60456.04
578.08	60542.64
578.24	60563.70
578.40	61050.53
578.56	60842.23
578.72	60610.51
578.88	61017.77
579.04	60823.50
579.21	60591.79
579.37	60779.03
579.53	60968.61
579.69	60516.89
579.85	60772.01
580.01	60610.51
580.17	60650.30
580.33	60982.66
580.49	60605.83
580.65	60713.50
580.82	60748.60
580.98	60619.88
581.14	60654.98
581.30	61064.58
581.46	60652.64
581.62	60891.38
581.78	60811.80
581.94	60828.18
582.10	60636.26
582.26	60601.15
582.42	60706.47
582.58	60687.75
582.74	60722.86
582.90	60753.29
583.06	60762.65
583.22	60690.09
583.38	60910.10
583.54	60640.94
583.70	60683.07
583.86	60889.04
584.02	60779.03
584.18	60842.23
584.34	60856.27
584.50	60882.02
584.66	60781.37
584.82	60671.37
584.98	60949.89
585.14	61041.17
585.30	60664.35
585.46	60992.02
585.62	60949.89
585.78	60940.53
585.94	60753.29
586.10	60800.10
586.26	60891.38
586.42	60931.17
586.58	60926.49
586.74	60942.87
586.90	61027.13
587.06	60753.29
587.22	61125.43
587.38	60699.45
587.54	60999.04
587.70	61151.18
587.86	60940.53
588.02	60800.10
588.18	60985.00
588.34	60949.89
588.49	60781.37
