SpectraSuite Data File
++++++++++++++++++++++++++++++++++++
Date: Fri Oct 25 11:25:09 EDT 2013
User: price-jones
Dark Spectrum Present: No
Reference Spectrum Present: No
Number of Sampled Component Spectra: 1
Spectrometers: USB2+H05261
Integration Time (usec): 100000 (USB2+H05261)
Spectra Averaged: 1 (USB2+H05261)
Boxcar Smoothing: 0 (USB2+H05261)
Correct for Electrical Dark: No (USB2+H05261)
Strobe/Lamp Enabled: No (USB2+H05261)
Correct for Detector Non-linearity: No (USB2+H05261)
Correct for Stray Light: No (USB2+H05261)
Number of Pixels in Processed Spectrum: 2048
>>>>>Begin Processed Spectral Data<<<<<
365.73	220.01
365.92	220.01
366.12	220.01
366.32	187.24
366.52	149.79
366.72	56.17
366.91	182.56
367.11	95.96
367.31	173.20
367.51	119.37
367.70	112.35
367.90	149.79
368.10	98.30
368.30	170.86
368.49	86.60
368.69	135.75
368.89	215.33
369.09	180.22
369.28	156.82
369.48	180.22
369.68	184.90
369.87	208.31
370.07	198.95
370.27	236.39
370.47	348.74
370.66	498.53
370.86	603.86
371.06	678.76
371.25	723.23
371.45	620.24
371.65	730.25
371.84	627.26
372.04	641.31
372.24	734.93
372.44	746.63
372.63	798.12
372.83	854.30
373.03	681.10
373.22	784.08
373.42	758.33
373.62	737.27
373.81	786.42
374.01	737.27
374.21	777.06
374.40	730.25
374.60	821.53
374.79	861.32
374.99	821.53
375.19	779.40
375.38	854.30
375.58	812.17
375.78	894.08
375.97	826.21
376.17	943.24
376.37	884.72
376.56	847.27
376.76	915.15
376.95	814.51
377.15	847.27
377.35	938.55
377.54	917.49
377.74	917.49
377.93	903.45
378.13	891.74
378.33	947.92
378.52	917.49
378.72	884.72
378.91	966.64
379.11	1039.20
379.31	945.58
379.50	884.72
379.70	915.15
379.89	954.94
380.09	940.90
380.28	992.39
380.48	954.94
380.68	1020.47
380.87	966.64
381.07	992.39
381.26	1043.88
381.46	1060.26
381.65	1029.84
381.85	1032.18
382.04	1060.26
382.24	1046.22
382.43	1107.07
382.63	1064.94
382.83	987.71
383.02	1029.84
383.22	1081.33
383.41	1055.58
383.61	1118.78
383.80	1174.95
384.00	1196.01
384.19	1114.10
384.39	1156.22
384.58	1203.04
384.78	1177.29
384.97	1151.54
385.17	1095.37
385.36	1139.84
385.56	1116.44
385.75	1191.33
385.95	1188.99
386.14	1181.97
386.34	1179.63
386.53	1184.31
386.72	1188.99
386.92	1299.00
387.11	1245.16
387.31	1284.95
387.50	1203.04
387.70	1256.87
387.89	1282.61
388.09	1273.25
388.28	1254.53
388.48	1287.29
388.67	1331.76
388.86	1306.02
389.06	1249.85
389.25	1380.92
389.45	1385.60
389.64	1369.21
389.84	1444.11
390.03	1345.81
390.22	1387.94
390.42	1324.74
390.61	1308.36
390.81	1416.02
391.00	1387.94
391.19	1493.26
391.39	1446.45
391.58	1404.32
391.78	1448.79
391.97	1409.00
392.16	1413.68
392.36	1558.80
392.55	1474.54
392.75	1490.92
392.94	1533.05
393.13	1432.41
393.33	1411.34
393.52	1500.28
393.71	1586.88
393.91	1493.26
394.10	1448.79
394.29	1673.48
394.49	1579.86
394.68	1556.46
394.88	1631.35
395.07	1703.91
395.26	1605.61
395.46	1661.78
395.65	1703.91
395.84	1760.08
396.04	1774.13
396.23	1675.82
396.42	1692.21
396.62	1621.99
396.81	1767.10
397.00	1774.13
397.19	1666.46
397.39	1799.87
397.58	1746.04
397.77	1816.26
397.97	1790.51
398.16	1870.09
398.35	1877.11
398.55	1858.39
398.74	1842.00
398.93	1926.26
399.12	1914.56
399.32	1928.60
399.51	1954.35
399.70	1942.64
399.90	2022.22
400.09	2003.50
400.28	2108.82
400.47	1919.24
400.67	2113.50
400.86	2005.84
401.05	2040.95
401.24	2160.31
401.44	2031.58
401.63	2057.33
401.82	2157.97
402.01	2080.74
402.21	2162.66
402.40	2155.63
402.59	2172.02
402.78	2235.21
402.97	2092.44
403.17	2256.28
403.36	2197.76
403.55	2188.40
403.74	2368.62
403.93	2303.09
404.13	2328.83
404.32	2377.98
404.51	2380.32
404.70	2289.04
404.89	2338.20
405.09	2485.65
405.28	2298.41
405.47	2443.52
405.66	2401.39
405.85	2502.03
406.05	2480.97
406.24	2558.21
406.43	2537.14
406.62	2562.89
406.81	2562.89
407.00	2541.82
407.20	2539.48
407.39	2612.04
407.58	2771.19
407.77	2724.38
407.96	2841.41
408.15	2820.35
408.34	2775.88
408.54	2813.32
408.73	2792.26
408.92	2857.79
409.11	2951.42
409.30	2801.62
409.49	2803.96
409.68	2799.28
409.87	2836.73
410.07	2970.14
410.26	2953.76
410.45	3009.93
410.64	3049.72
410.83	3021.63
411.02	2991.20
411.21	3260.37
411.40	3117.59
411.59	3185.47
411.78	3185.47
411.98	3190.15
412.17	3314.20
412.36	3328.24
412.55	3297.81
412.74	3508.46
412.93	3309.52
413.12	3183.13
413.31	3508.46
413.50	3517.83
413.69	3459.31
413.88	3487.40
414.07	3517.83
414.26	3597.40
414.45	3599.74
414.64	3681.66
414.83	3712.09
415.02	3836.14
415.22	3782.31
415.41	3929.76
415.60	3782.31
415.79	3859.54
415.98	3948.48
416.17	3964.87
416.36	3911.04
416.55	3976.57
416.74	3967.21
416.93	3932.10
417.12	4100.62
417.31	4245.73
417.50	4147.43
417.69	4259.78
417.88	4210.62
418.07	4095.94
418.26	4320.63
418.45	4297.22
418.64	4402.55
418.83	4287.86
419.02	4414.25
419.21	4535.96
419.39	4482.13
419.58	4414.25
419.77	4437.66
419.96	4521.92
420.15	4608.51
420.34	4638.94
420.53	4676.39
420.72	4702.14
420.91	4669.37
421.10	4821.50
421.29	4781.71
421.48	4582.77
421.67	4585.11
421.86	4784.06
422.05	4751.29
422.24	4669.37
422.43	4751.29
422.61	4854.27
422.80	4823.84
422.99	4875.34
423.18	4809.80
423.37	4968.96
423.56	4887.04
423.75	4978.32
423.94	4821.50
424.13	4484.47
424.32	4758.31
424.50	4793.42
424.69	5085.98
424.88	5050.88
425.07	4793.42
425.26	4950.23
425.45	4865.97
425.64	4947.89
425.83	5004.07
426.01	5181.95
426.20	5057.90
426.39	5149.18
426.58	4947.89
426.77	4870.65
426.96	5078.96
427.15	5142.16
427.33	5121.09
427.52	5102.37
427.71	5198.33
427.90	5060.24
428.09	5135.14
428.28	5221.74
428.46	5310.68
428.65	5200.67
428.84	5376.21
429.03	5397.28
429.22	5313.02
429.40	5441.75
429.59	5502.60
429.78	5245.14
429.97	5167.90
430.16	5399.62
430.34	5570.48
430.53	5537.71
430.72	5741.33
430.91	5636.01
431.10	5631.33
431.28	5685.16
431.47	5645.37
431.66	5757.72
431.85	5692.18
432.03	5771.76
432.22	5975.39
432.41	5839.64
432.60	5818.57
432.79	5837.30
432.97	5900.49
433.16	5933.26
433.35	5975.39
433.54	5975.39
433.72	6202.42
433.91	5851.34
434.10	6050.28
434.28	6085.39
434.47	6216.46
434.66	6319.45
434.85	6321.79
435.03	6188.38
435.22	6265.61
435.41	6279.66
435.59	6251.57
435.78	6352.21
435.97	6296.04
436.16	6328.81
436.34	6321.79
436.53	6303.06
436.72	6656.48
436.90	6289.02
437.09	6541.80
437.28	6403.71
437.46	6593.29
437.65	6766.49
437.84	6754.79
438.02	6710.32
438.21	6682.23
438.40	6530.09
438.58	6977.14
438.77	6930.33
438.96	6895.22
439.14	7059.06
439.33	7164.38
439.52	7267.36
439.70	7232.26
439.89	7295.45
440.08	7272.04
440.26	7269.70
440.45	7293.11
440.63	7466.31
440.82	7597.38
441.01	7368.01
441.19	7529.50
441.38	7730.79
441.57	7721.43
441.75	7611.42
441.94	7925.05
442.12	7829.09
442.31	7918.03
442.50	8126.34
442.68	8046.76
442.87	7953.14
443.05	7992.93
443.24	8093.57
443.43	8013.99
443.61	8208.26
443.80	8409.54
443.98	8035.06
444.17	7737.81
444.35	8252.73
444.54	8257.41
444.73	8205.92
444.91	8121.66
445.10	8304.22
445.28	8301.88
445.47	8163.79
445.65	8294.86
445.84	8241.03
446.02	8278.47
446.21	8276.13
446.39	8215.28
446.58	8468.06
446.77	8451.67
446.95	8238.69
447.14	8589.77
447.32	8456.36
447.51	8545.30
447.69	8376.78
447.88	8388.48
448.06	8496.14
448.25	8596.79
448.43	8706.79
448.62	8559.34
448.80	8486.78
448.99	8411.89
449.17	8631.90
449.36	8667.00
449.54	8758.28
449.73	8823.82
449.91	8865.95
450.10	8812.12
450.28	8896.38
450.46	9083.62
450.65	9078.94
450.83	8938.51
451.02	8968.93
451.20	9109.36
451.39	9146.81
451.57	8887.01
451.76	8894.04
451.94	9170.22
452.13	9343.42
452.31	9165.54
452.49	9055.53
452.68	9221.71
452.86	9334.06
453.05	9434.70
453.23	9364.48
453.42	9291.93
453.60	9188.94
453.78	9544.70
453.97	9310.65
454.15	9483.85
454.34	9631.30
454.52	9540.02
454.70	9563.43
454.89	9823.23
455.07	9830.25
455.26	9774.08
455.44	9699.18
455.62	9987.07
455.81	9816.21
455.99	9891.10
456.17	10068.98
456.36	9860.68
456.54	9741.31
456.73	10204.74
456.91	10471.56
457.09	10471.56
457.28	10361.55
457.46	10195.37
457.64	10312.40
457.83	10492.62
458.01	10567.52
458.19	10686.89
458.38	10466.88
458.56	10511.35
458.74	10565.18
458.93	10562.84
459.11	10850.72
459.29	10743.06
459.48	10738.38
459.66	10689.23
459.84	10888.17
460.03	10981.79
460.21	10635.39
460.39	10771.15
460.57	10956.05
460.76	11150.31
460.94	11169.04
461.12	11253.30
461.31	11068.39
461.49	11007.54
461.67	11215.85
461.85	11246.27
462.04	11028.60
462.22	11740.13
462.40	11463.94
462.59	11616.08
462.77	11262.66
462.95	11428.84
463.13	11384.37
463.32	11618.42
463.50	11578.63
463.68	11644.17
463.86	11845.45
464.05	11604.38
464.23	11573.95
464.41	11693.32
464.59	11592.67
464.78	12084.19
464.96	11793.96
465.14	11873.54
465.32	12072.48
465.50	11672.25
465.69	12042.06
465.87	12393.14
466.05	12056.10
466.23	11939.07
466.41	11957.80
466.60	12453.99
466.78	12271.43
466.96	12065.46
467.14	12091.21
467.32	12542.93
467.51	12435.27
467.69	11850.13
467.87	12259.73
468.05	12599.10
468.23	12283.13
468.41	12589.74
468.60	12638.89
468.78	12568.68
468.96	12901.03
469.14	12784.01
469.32	12919.76
469.50	12589.74
469.69	12751.24
469.87	13060.19
470.05	13022.74
470.23	13057.85
470.41	12840.18
470.59	13167.85
470.77	13064.87
470.95	12929.12
471.14	13296.58
471.32	13057.85
471.50	13357.44
471.68	13561.06
471.86	13610.22
472.04	13790.44
472.22	13916.83
472.40	13710.86
472.58	13764.69
472.77	13722.56
472.95	13762.35
473.13	14490.26
473.31	13666.39
473.49	14181.31
473.67	13982.36
473.85	14164.92
474.03	14530.05
474.21	14546.43
474.39	14483.24
474.57	14494.94
474.75	14750.06
474.93	14862.40
475.12	14946.66
475.30	14956.02
475.48	14658.78
475.66	14993.47
475.84	14993.47
476.02	15190.08
476.20	15117.52
476.38	15410.09
476.56	15875.85
476.74	15882.88
476.92	15775.21
477.10	15765.85
477.28	16046.71
477.46	15974.16
477.64	16035.01
477.82	16641.21
478.00	16788.66
478.18	16779.30
478.36	16627.17
478.54	17156.13
478.72	16868.24
478.90	17219.32
479.08	17369.12
479.26	17577.42
479.44	17518.91
479.62	17783.39
479.80	17825.52
479.98	17930.84
480.16	18408.31
480.34	18104.04
480.52	18403.63
480.70	18347.46
480.88	18373.21
481.06	18684.50
481.24	18796.84
481.41	18888.12
481.59	19037.92
481.77	19288.35
481.95	19234.52
482.13	19391.34
482.31	19630.07
482.49	20091.16
482.67	19939.02
482.85	20116.90
483.03	20428.20
483.21	20538.20
483.39	20943.11
483.57	20386.07
483.74	20889.28
483.92	21273.13
484.10	20861.19
484.28	21692.08
484.46	21715.49
484.64	22504.25
484.82	21961.25
485.00	21961.25
485.18	22649.36
485.35	22525.32
485.53	22668.09
485.71	23101.09
485.89	23426.42
486.07	23206.41
486.25	23222.80
486.43	23428.76
486.61	23779.84
486.78	23988.15
486.96	23875.80
487.14	24603.71
487.32	24177.73
487.50	24730.10
487.68	24746.48
487.85	24828.40
488.03	25233.32
488.21	25841.85
488.39	25713.13
488.57	25930.80
488.75	25832.49
488.92	26181.23
489.10	26621.25
489.28	26651.68
489.46	27009.78
489.64	26913.82
489.81	27421.72
489.99	27414.69
490.17	27536.40
490.35	27957.70
490.53	27999.83
490.70	28053.66
490.88	27894.50
491.06	28395.38
491.24	28650.50
491.41	29046.05
491.59	29043.71
491.77	29020.30
491.95	29383.09
492.13	29755.23
492.30	30019.71
492.48	29516.50
492.66	30108.65
492.84	30000.99
493.01	30546.33
493.19	30373.13
493.37	30866.98
493.54	30588.46
493.72	31571.49
493.90	30754.64
494.08	31487.23
494.25	31653.40
494.43	31793.84
494.61	32173.00
494.79	32219.81
494.96	32568.55
495.14	32561.53
495.32	33177.09
495.49	32807.29
495.67	33151.35
495.85	33429.87
496.02	33504.77
496.20	34089.90
496.38	33352.63
496.55	33949.47
496.73	34232.68
496.91	34363.75
497.09	34703.12
497.26	34792.06
497.44	34731.21
497.62	34902.07
497.79	35309.32
497.97	35178.25
498.14	35576.14
498.32	35676.79
498.50	35842.96
498.67	36325.11
498.85	36304.05
499.03	36577.89
499.20	36725.35
499.38	36257.24
499.56	36538.10
499.73	37046.00
499.91	36800.24
500.08	37116.22
500.26	36964.08
500.44	37343.25
500.61	37429.85
500.79	37406.44
500.97	37703.69
501.14	38541.60
501.32	38239.67
501.49	38288.82
501.67	38314.57
501.84	38862.26
502.02	38834.17
502.20	38731.18
502.37	39337.38
502.55	39260.15
502.72	39367.81
502.90	39374.83
503.07	39386.54
503.25	39875.71
503.43	39337.38
503.60	39501.22
503.78	40240.83
503.95	39697.83
504.13	40671.49
504.30	40095.72
504.48	40390.62
504.65	40694.89
504.83	40818.94
505.01	40847.03
505.18	40428.07
505.36	41523.44
505.53	41165.34
505.71	41263.64
505.88	41563.23
506.06	41069.38
506.23	41766.86
506.41	41654.51
506.58	42033.68
506.76	42040.70
506.93	42178.79
507.11	41886.23
507.28	42153.05
507.46	42614.13
507.63	42473.70
507.81	42653.92
507.98	42841.17
508.16	42380.08
508.33	43161.82
508.50	42981.60
508.68	43138.41
508.85	43482.47
509.03	43742.27
509.20	43849.94
509.38	44327.41
509.55	43873.34
509.73	44067.61
509.90	44519.33
510.08	44353.15
510.25	44374.22
510.42	44528.69
510.60	44828.28
510.77	45359.58
510.95	45207.45
511.12	44748.70
511.30	45125.53
511.47	45137.23
511.64	45507.04
511.82	45663.85
511.99	45195.74
512.17	45420.44
512.34	45558.53
512.51	46199.83
512.69	45944.72
512.86	46138.98
513.04	46244.30
513.21	46176.43
513.38	46562.62
513.56	46597.73
513.73	46447.93
513.90	46681.98
514.08	46600.07
514.25	47072.85
514.43	47313.93
514.60	47084.56
514.77	46899.65
514.95	47131.37
515.12	47313.93
515.29	47412.23
515.47	47498.83
515.64	47679.05
515.81	47611.18
515.99	48079.28
516.16	48247.80
516.33	47805.44
516.51	48601.22
516.68	48079.28
516.85	48809.53
517.03	48788.47
517.20	48570.80
517.37	48456.11
517.54	48341.42
517.72	48549.73
517.89	48678.46
518.06	49008.48
518.24	49111.46
518.41	49251.89
518.58	49050.61
518.75	48800.17
518.93	49258.91
519.10	49081.03
519.27	49422.75
519.45	49724.68
519.62	49563.18
519.79	49984.48
519.96	49717.66
520.14	49918.95
520.31	49663.83
520.48	50057.04
520.65	49853.41
520.83	50129.59
521.00	50309.82
521.17	49989.16
521.34	50445.57
521.52	50272.37
521.69	50731.11
521.86	50698.34
522.03	51063.47
522.20	51185.18
522.38	51030.70
522.55	50848.14
522.72	50901.97
522.89	50990.91
523.07	51063.47
523.24	51124.32
523.41	51576.04
523.58	51491.79
523.75	51620.52
523.92	51540.94
524.10	51774.99
524.27	51440.29
524.44	51985.64
524.61	51611.15
524.78	51800.74
524.96	51751.59
525.13	51976.28
525.30	52149.48
525.47	52119.05
525.64	52404.59
525.81	52332.04
525.98	52381.19
526.16	52123.73
526.33	52268.84
526.50	52816.53
526.67	52516.94
526.84	52753.33
527.01	52774.40
527.18	52626.95
527.36	52669.08
527.53	52818.87
527.70	53226.12
527.87	53165.27
528.04	52982.71
528.21	53418.05
528.38	53214.42
528.55	53020.16
528.72	53308.04
528.89	53345.49
529.07	53099.73
529.24	53286.98
529.41	53296.34
529.58	53240.17
529.75	53146.54
529.92	53502.31
530.09	53609.97
530.26	53717.64
530.43	53970.41
530.60	53584.22
530.77	53488.26
530.94	53563.16
531.11	53909.56
531.28	53947.01
531.46	53916.58
531.63	54085.10
531.80	54101.48
531.97	54017.22
532.14	54262.98
532.31	54281.70
532.48	54281.70
532.65	54515.76
532.82	54106.16
532.99	54534.48
533.16	54258.30
533.33	54478.31
533.50	54805.98
533.67	54590.66
533.84	54415.11
534.01	54794.28
534.18	54461.93
534.35	54887.90
534.52	54831.73
534.69	54869.18
534.86	55145.36
535.03	54955.78
535.20	54848.11
535.37	55105.57
535.54	54988.55
535.71	55054.08
535.88	55271.75
536.05	55281.11
536.22	55662.62
536.38	55679.00
536.55	55372.39
536.72	55526.87
536.89	55318.56
537.06	55133.66
537.23	55690.71
537.40	55267.07
537.57	55615.81
537.74	55444.95
537.91	55817.10
538.08	55550.27
538.25	55550.27
538.42	55660.28
538.59	55927.10
538.75	55573.68
538.92	56025.40
539.09	56044.13
539.26	56149.45
539.43	55861.57
539.60	55976.25
539.77	56154.13
539.94	56198.60
540.11	55999.66
540.28	56357.76
540.44	56175.20
540.61	56114.34
540.78	56303.93
540.95	56151.79
541.12	56282.86
541.29	56182.22
541.46	56484.15
541.62	56451.38
541.79	56505.21
541.96	56259.46
542.13	56308.61
542.30	56427.98
542.47	56596.49
542.63	56804.80
542.80	56779.06
542.97	56837.57
543.14	57031.83
543.31	57071.62
543.48	57083.33
543.64	57471.85
543.81	57099.71
543.98	57338.44
544.15	57195.67
544.32	57141.84
544.48	57193.33
544.65	57071.62
544.82	57251.84
544.99	57216.74
545.16	57439.09
545.32	57277.59
545.49	57418.02
545.66	57396.96
545.83	57382.91
546.00	57719.95
546.16	57572.50
546.33	57368.87
546.50	57258.87
546.67	57439.09
546.83	57198.01
547.00	57490.58
547.17	57584.20
547.34	57497.60
547.50	57766.76
547.67	57668.46
547.84	57839.32
548.00	57991.45
548.17	57986.77
548.34	57965.71
548.51	57951.66
548.67	57993.79
548.84	57951.66
549.01	57888.47
549.18	57858.04
549.34	58024.22
549.51	58124.86
549.68	58155.29
549.84	58389.34
550.01	58218.49
550.18	58265.30
550.34	58375.30
550.51	58454.88
550.68	58277.00
550.84	58096.78
551.01	58330.83
551.18	58312.11
551.34	58379.98
551.51	58459.56
551.68	58445.52
551.84	58251.25
552.01	58368.28
552.18	58506.37
552.34	58178.70
552.51	58443.18
552.68	58520.41
552.84	58354.24
553.01	58834.05
553.18	58614.04
553.34	58775.53
553.51	58560.20
553.67	58700.64
553.84	58756.81
554.01	58831.71
554.17	58946.39
554.34	58965.12
554.51	58749.79
554.67	58890.22
554.84	58766.17
555.00	58780.21
555.17	58775.53
555.33	58719.36
555.50	58763.83
555.67	58747.45
555.83	58756.81
556.00	58852.77
556.16	59180.45
556.33	59040.01
556.50	59047.04
556.66	59157.04
556.83	58969.80
556.99	59105.55
557.16	59306.83
557.32	59187.47
557.49	59503.44
557.65	59082.14
557.82	59332.58
557.98	59086.82
558.15	59299.81
558.32	59311.52
558.48	59484.72
558.65	59419.18
558.81	59440.24
558.98	59358.33
559.14	59552.59
559.31	59316.20
559.47	59430.88
559.64	59384.07
559.80	59552.59
559.97	59611.10
560.13	59442.59
560.30	59442.59
560.46	59561.95
560.63	59728.13
560.79	59643.87
560.96	59725.79
561.12	59788.98
561.29	59753.88
561.45	59728.13
561.61	59510.46
561.78	59580.68
561.94	59550.25
562.11	59587.70
562.27	59842.82
562.44	59826.43
562.60	59962.18
562.77	59711.75
562.93	59604.08
563.10	59861.54
563.26	59632.17
563.42	59943.46
563.59	59840.48
563.75	59852.18
563.92	59709.41
564.08	59922.40
564.24	59992.61
564.41	59994.95
564.57	59831.11
564.74	59917.71
564.90	60030.06
565.07	59842.82
565.23	59821.75
565.39	60041.76
565.56	60009.00
565.72	59922.40
565.88	59973.89
566.05	59957.50
566.21	59927.08
566.38	60058.15
566.54	59992.61
566.70	60149.43
566.87	60285.18
567.03	60048.78
567.19	60030.06
567.36	60219.64
567.52	59936.44
567.68	60587.11
567.85	60200.92
568.01	60212.62
568.17	60119.00
568.34	60399.86
568.50	59976.23
568.66	60200.92
568.83	60151.77
568.99	60072.19
569.15	60336.67
569.32	60294.54
569.48	60238.37
569.64	60322.63
569.81	60163.47
569.97	60151.77
570.13	60193.90
570.30	60273.48
570.46	60385.82
570.62	60161.13
570.78	60245.39
570.95	60458.38
571.11	60516.89
571.27	60081.55
571.43	60409.23
571.60	60451.36
571.76	60313.26
571.92	60416.25
572.09	60423.27
572.25	60678.39
572.41	60392.84
572.57	60385.82
572.74	60563.70
572.90	60259.43
573.06	60306.24
573.22	60573.06
573.38	60406.89
573.55	60397.52
573.71	60523.91
573.87	60521.57
574.03	60474.76
574.20	60486.46
574.36	60486.46
574.52	60507.53
574.68	60601.15
574.84	60638.60
575.01	60608.17
575.17	60561.36
575.33	60441.99
575.49	60357.74
575.65	60659.66
575.82	60470.08
575.98	60559.02
576.14	60685.41
576.30	60582.43
576.46	60453.70
576.62	60378.80
576.79	60313.26
576.95	60282.84
577.11	60636.26
577.27	60816.48
577.43	60608.17
577.59	60449.02
577.75	60612.85
577.92	60397.52
578.08	60587.11
578.24	60451.36
578.40	60790.73
578.56	60757.97
578.72	60762.65
578.88	60823.50
579.04	60945.21
579.21	60629.24
579.37	60753.29
579.53	60676.05
579.69	60409.23
579.85	60357.74
580.01	60594.13
580.17	60519.23
580.33	60804.78
580.49	60832.86
580.65	60638.60
580.82	60582.43
580.98	60659.66
581.14	60601.15
581.30	60748.60
581.46	60584.77
581.62	60807.12
581.78	60601.15
581.94	60516.89
582.10	60528.59
582.26	60704.13
582.42	60537.96
582.58	60762.65
582.74	60877.33
582.90	60891.38
583.06	60566.04
583.22	60559.02
583.38	60835.20
583.54	60940.53
583.70	60797.76
583.86	60851.59
584.02	60790.73
584.18	60816.48
584.34	60921.80
584.50	60814.14
584.66	60647.96
584.82	60612.85
584.98	60851.59
585.14	60804.78
585.30	60640.94
585.46	60877.33
585.62	60762.65
585.78	60940.53
585.94	60631.58
586.10	60891.38
586.26	60746.26
586.42	60912.44
586.58	60968.61
586.74	60947.55
586.90	60783.71
587.06	60598.81
587.22	60968.61
587.38	60966.27
587.54	60956.91
587.70	61087.98
587.86	60828.18
588.02	60919.46
588.18	60980.32
588.34	60676.05
588.49	60961.59
