SpectraSuite Data File
++++++++++++++++++++++++++++++++++++
Date: Fri Oct 25 10:44:13 EDT 2013
User: price-jones
Dark Spectrum Present: No
Reference Spectrum Present: No
Number of Sampled Component Spectra: 1
Spectrometers: USB2+H05261
Integration Time (usec): 100000 (USB2+H05261)
Spectra Averaged: 1 (USB2+H05261)
Boxcar Smoothing: 0 (USB2+H05261)
Correct for Electrical Dark: No (USB2+H05261)
Strobe/Lamp Enabled: No (USB2+H05261)
Correct for Detector Non-linearity: No (USB2+H05261)
Correct for Stray Light: No (USB2+H05261)
Number of Pixels in Processed Spectrum: 2048
>>>>>Begin Processed Spectral Data<<<<<
365.73	107.66
365.92	107.66
366.12	107.66
366.32	56.17
366.52	77.24
366.72	18.72
366.91	49.15
367.11	63.19
367.31	65.54
367.51	23.41
367.70	46.81
367.90	37.45
368.10	88.94
368.30	95.96
368.49	44.47
368.69	67.88
368.89	74.90
369.09	0.00
369.28	63.19
369.48	28.09
369.68	53.83
369.87	74.90
370.07	86.60
370.27	210.65
370.47	168.52
370.66	372.15
370.86	449.38
371.06	472.79
371.25	489.17
371.45	425.98
371.65	411.93
371.84	461.09
372.04	461.09
372.24	510.24
372.44	524.28
372.63	521.94
372.83	500.87
373.03	465.77
373.22	463.43
373.42	458.74
373.62	533.64
373.81	524.28
374.01	582.79
374.21	517.26
374.40	505.56
374.60	575.77
374.79	557.05
374.99	608.54
375.19	638.97
375.38	648.33
375.58	580.45
375.78	580.45
375.97	566.41
376.17	620.24
376.37	662.37
376.56	638.97
376.76	585.13
376.95	669.39
377.15	638.97
377.35	624.92
377.54	636.63
377.74	638.97
377.93	627.26
378.13	664.71
378.33	648.33
378.52	683.44
378.72	657.69
378.91	657.69
379.11	596.84
379.31	622.58
379.50	638.97
379.70	706.84
379.89	786.42
380.09	741.95
380.28	667.05
380.48	582.79
380.68	641.31
380.87	723.23
381.07	664.71
381.26	760.67
381.46	746.63
381.65	697.48
381.85	727.91
382.04	720.88
382.24	774.72
382.43	711.52
382.63	657.69
382.83	685.78
383.02	755.99
383.22	784.08
383.41	660.03
383.61	788.76
383.80	746.63
384.00	772.38
384.19	767.70
384.39	777.06
384.58	833.23
384.78	849.61
384.97	908.13
385.17	840.25
385.36	753.65
385.56	823.87
385.75	725.57
385.95	807.48
386.14	798.12
386.34	788.76
386.53	805.14
386.72	894.08
386.92	889.40
387.11	870.68
387.31	877.70
387.50	833.23
387.70	823.87
387.89	842.59
388.09	833.23
388.28	866.00
388.48	966.64
388.67	903.45
388.86	912.81
389.06	805.14
389.25	983.02
389.45	947.92
389.64	987.71
389.84	1053.24
390.03	983.02
390.22	1011.11
390.42	1022.81
390.61	983.02
390.81	1043.88
391.00	990.05
391.19	1078.99
391.39	1090.69
391.58	1013.45
391.78	1008.77
391.97	968.98
392.16	976.00
392.36	1088.35
392.55	1004.09
392.75	992.39
392.94	1004.09
393.13	1048.56
393.33	997.07
393.52	1097.71
393.71	1088.35
393.91	1095.37
394.10	1198.35
394.29	1181.97
394.49	1196.01
394.68	1221.76
394.88	1184.31
395.07	1217.08
395.26	1193.67
395.46	1214.74
395.65	1242.82
395.84	1156.22
396.04	1219.42
396.23	1121.12
396.42	1149.20
396.62	1111.75
396.81	1256.87
397.00	1198.35
397.19	1301.34
397.39	1334.11
397.58	1439.43
397.77	1411.34
397.97	1399.64
398.16	1432.41
398.35	1416.02
398.55	1427.73
398.74	1474.54
398.93	1577.52
399.12	1507.30
399.32	1540.07
399.51	1565.82
399.70	1514.33
399.90	1561.14
400.09	1593.90
400.28	1671.14
400.47	1687.53
400.67	1617.31
400.86	1673.48
401.05	1549.43
401.24	1638.38
401.44	1638.38
401.63	1671.14
401.82	1626.67
402.01	1675.82
402.21	1788.17
402.40	1706.25
402.59	1689.87
402.78	1755.40
402.97	1790.51
403.17	1834.98
403.36	1757.74
403.55	1746.04
403.74	1907.54
403.93	1701.57
404.13	1898.17
404.32	1858.39
404.51	1860.73
404.70	1919.24
404.89	1827.96
405.09	1914.56
405.28	1898.17
405.47	1984.77
405.66	1949.67
405.85	2066.69
406.05	2066.69
406.24	2015.20
406.43	2062.01
406.62	2031.58
406.81	2085.42
407.00	1893.49
407.20	1984.77
407.39	2083.08
407.58	2167.34
407.77	2097.12
407.96	2190.74
408.15	2125.21
408.34	2150.95
408.54	2200.10
408.73	2186.06
408.92	2218.83
409.11	2326.49
409.30	2232.87
409.49	2260.96
409.68	2258.62
409.87	2239.89
410.07	2310.11
410.26	2380.32
410.45	2380.32
410.64	2417.77
410.83	2422.45
411.02	2370.96
411.21	2462.24
411.40	2553.52
411.59	2595.65
411.78	2588.63
411.98	2513.74
412.17	2684.59
412.36	2588.63
412.55	2731.41
412.74	2780.56
412.93	2731.41
413.12	2677.57
413.31	2801.62
413.50	2848.43
413.69	2867.16
413.88	2956.10
414.07	2895.24
414.26	2904.60
414.45	2918.65
414.64	2850.77
414.83	3082.49
415.02	2923.33
415.22	3042.70
415.41	3173.77
415.60	3054.40
415.79	3187.81
415.98	3171.43
416.17	3281.43
416.36	3438.25
416.55	3227.60
416.74	3344.63
416.93	3222.92
417.12	3190.15
417.31	3323.56
417.50	3297.81
417.69	3552.93
417.88	3543.57
418.07	3363.35
418.26	3379.73
418.45	3428.88
418.64	3496.76
418.83	3461.65
419.02	3552.93
419.21	3531.87
419.39	3566.98
419.58	3478.04
419.77	3461.65
419.96	3623.15
420.15	3698.05
420.34	3623.15
420.53	3747.20
420.72	3875.93
420.91	3733.15
421.10	3712.09
421.29	3775.28
421.48	3803.37
421.67	3803.37
421.86	3882.95
422.05	3735.50
422.24	3770.60
422.43	3742.52
422.61	3796.35
422.80	3885.29
422.99	3978.91
423.18	3859.54
423.37	3852.52
423.56	3794.01
423.75	3901.67
423.94	3843.16
424.13	3681.66
424.32	3772.94
424.50	3990.61
424.69	3995.29
424.88	4002.32
425.07	3878.27
425.26	3866.56
425.45	3889.97
425.64	3885.29
425.83	3929.76
426.01	3868.91
426.20	3936.78
426.39	4025.72
426.58	3878.27
426.77	3889.97
426.96	3957.85
427.15	3983.59
427.33	4109.98
427.52	4145.09
427.71	4131.05
427.90	4114.66
428.09	4098.28
428.28	4042.11
428.46	4042.11
428.65	4037.42
428.84	4180.20
429.03	4177.86
429.22	4065.51
429.40	4145.09
429.59	4187.22
429.78	4023.38
429.97	3920.40
430.16	4058.49
430.34	4058.49
430.53	4159.13
430.72	4135.73
430.91	4341.69
431.10	4117.00
431.28	4503.19
431.47	4498.51
431.66	4720.86
431.85	4557.02
432.03	4613.20
432.22	4568.73
432.41	4678.73
432.60	4575.75
432.79	4601.49
432.97	4777.03
433.16	4765.33
433.35	4568.73
433.54	4617.88
433.72	4720.86
433.91	4699.80
434.10	4699.80
434.28	4734.90
434.47	4837.89
434.66	5050.88
434.85	4950.23
435.03	4954.91
435.22	4861.29
435.41	5226.42
435.59	4994.70
435.78	5046.20
435.97	5118.75
436.16	5095.35
436.34	5158.54
436.53	5210.03
436.72	5111.73
436.90	5060.24
437.09	5198.33
437.28	5064.92
437.46	5221.74
437.65	5130.45
437.84	5231.10
438.02	5071.94
438.21	5135.14
438.40	5114.07
438.58	5270.89
438.77	5390.25
438.96	5378.55
439.14	5465.15
439.33	5469.83
439.52	5523.66
439.70	5598.56
439.89	5596.22
440.08	5678.14
440.26	5591.54
440.45	5535.37
440.63	5874.74
440.82	5998.79
441.01	5928.58
441.19	5930.92
441.38	5975.39
441.57	6045.60
441.75	6073.69
441.94	6171.99
442.12	6239.87
442.31	6143.91
442.50	6260.93
442.68	6244.55
442.87	6263.27
443.05	6375.62
443.24	6293.70
443.43	6408.39
443.61	6349.87
443.80	6630.74
443.98	6256.25
444.17	6169.65
444.35	6523.07
444.54	6602.65
444.73	6499.67
444.91	6471.58
445.10	6387.32
445.28	6459.88
445.47	6466.90
445.65	6363.92
445.84	6340.51
446.02	6588.61
446.21	6382.64
446.39	6626.06
446.58	6588.61
446.77	6647.12
446.95	6509.03
447.14	6520.73
447.32	6684.57
447.51	6590.95
447.69	6623.72
447.88	6731.38
448.06	6843.73
448.25	6764.15
448.43	6691.59
448.62	6637.76
448.80	6663.51
448.99	6724.36
449.17	6712.66
449.36	6885.86
449.54	6993.52
449.73	7122.25
449.91	6892.88
450.10	7148.00
450.28	7234.60
450.46	7227.57
450.65	7232.26
450.83	7152.68
451.02	7140.97
451.20	7155.02
451.39	7267.36
451.57	7077.78
451.76	6911.60
451.94	7258.00
452.13	7307.15
452.31	7143.32
452.49	6988.84
452.68	7339.92
452.86	7208.85
453.05	7157.36
453.23	7330.56
453.42	7419.50
453.60	7297.79
453.78	7456.95
453.97	7323.54
454.15	7286.09
454.34	7356.30
454.52	7412.48
454.70	7480.35
454.89	7571.63
455.07	7576.31
455.26	7674.62
455.44	7651.21
455.62	7611.42
455.81	7651.21
455.99	7695.68
456.17	7971.86
456.36	7662.91
456.54	7625.47
456.73	7801.01
456.91	8025.70
457.09	7969.52
457.28	8177.83
457.46	8119.32
457.64	8028.04
457.83	7976.55
458.01	7894.63
458.19	8348.69
458.38	7999.95
458.56	8180.17
458.74	8175.49
458.93	8074.85
459.11	8280.82
459.29	8116.98
459.48	8313.58
459.66	8325.29
459.84	8482.10
460.03	8411.89
460.21	8346.35
460.39	8404.86
460.57	8414.23
460.76	8500.83
460.94	8435.29
461.12	8456.36
461.31	8718.50
461.49	8762.97
461.67	8517.21
461.85	8709.13
462.04	8807.44
462.22	8725.52
462.40	8688.07
462.59	8634.24
462.77	8769.99
462.95	8922.12
463.13	8723.18
463.32	8863.61
463.50	8891.70
463.68	9025.11
463.86	8982.98
464.05	8938.51
464.23	8837.86
464.41	8835.52
464.59	9062.55
464.78	9041.49
464.96	8919.78
465.14	9167.88
465.32	9324.69
465.50	9369.16
465.69	9259.16
465.87	9179.58
466.05	9167.88
466.23	9011.06
466.41	9132.77
466.60	9184.26
466.78	8990.00
466.96	9102.34
467.14	9135.11
467.32	9521.30
467.51	9352.78
467.69	8990.00
467.87	9092.98
468.05	9561.09
468.23	9486.19
468.41	9310.65
468.60	9420.66
468.78	9600.88
468.96	9249.80
469.14	9717.90
469.32	9640.67
469.50	9448.74
469.69	9701.52
469.87	9731.95
470.05	9830.25
470.23	9701.52
470.41	9666.41
470.59	9998.77
470.77	9846.63
470.95	9958.98
471.14	10111.11
471.32	10101.75
471.50	10218.78
471.68	10296.02
471.86	10193.03
472.04	10342.83
472.22	10668.16
472.40	10228.14
472.58	10183.67
472.77	10406.02
472.95	10326.44
473.13	10871.79
473.31	10359.21
473.49	10403.68
473.67	10616.67
473.85	10675.18
474.03	10897.53
474.21	10925.62
474.39	10967.75
474.57	10892.85
474.75	11108.18
474.93	11129.25
475.12	11288.40
475.30	11087.12
475.48	11096.48
475.66	11101.16
475.84	11211.17
476.02	11328.19
476.20	11421.81
476.38	11435.86
476.56	11859.49
476.74	11822.05
476.92	11571.61
477.10	11690.98
477.28	12013.97
477.46	12063.12
477.64	12100.57
477.82	12346.33
478.00	12610.81
478.18	12444.63
478.36	12531.23
478.54	12636.55
478.72	12599.10
478.90	12779.32
479.08	12849.54
479.26	13027.42
479.44	13048.49
479.62	13004.02
479.80	13422.97
479.98	13219.35
480.16	13628.94
480.34	13518.93
480.52	13540.00
480.70	13549.36
480.88	13467.44
481.06	13874.70
481.24	13987.04
481.41	13965.98
481.59	14391.95
481.77	14396.64
481.95	14340.46
482.13	14511.32
482.31	14614.30
482.49	14771.12
482.67	14691.54
482.85	14761.76
483.03	15096.46
483.21	15321.15
483.39	15351.57
483.57	15382.00
483.74	15609.03
483.92	15573.92
484.10	15510.73
484.28	15697.97
484.46	15896.92
484.64	16395.45
484.82	15854.79
485.00	16215.23
485.18	16322.90
485.35	16453.97
485.53	16107.57
485.71	15913.30
485.89	16479.71
486.07	16472.69
486.25	16865.90
486.43	16954.84
486.61	17111.66
486.78	17064.85
486.96	17329.33
487.14	17706.15
487.32	17523.59
487.50	17813.82
487.68	18143.83
487.85	18113.41
488.03	18244.48
488.21	18721.95
488.39	18441.08
488.57	18586.19
488.75	18904.51
488.92	18941.96
489.10	19276.65
489.28	19630.07
489.46	19740.08
489.64	19728.38
489.81	20166.06
489.99	19957.75
490.17	20196.48
490.35	20100.52
490.53	20018.60
490.70	20477.35
490.88	20437.56
491.06	20704.38
491.24	20702.04
491.41	21064.82
491.59	20809.70
491.77	21015.67
491.95	20917.37
492.13	21329.30
492.30	21525.91
492.48	21579.74
492.66	21425.26
492.84	21975.29
493.01	21972.95
493.19	21727.19
493.37	22218.71
493.54	22335.73
493.72	22387.22
493.90	22368.50
494.08	22647.02
494.25	23082.36
494.43	23089.38
494.61	23335.14
494.79	23332.80
494.96	23225.14
495.14	23630.05
495.32	23843.04
495.49	23557.49
495.67	23868.78
495.85	24046.66
496.02	24203.48
496.20	24046.66
496.38	24407.11
496.55	24278.38
496.73	24463.28
496.91	24299.44
497.09	24910.32
497.26	25170.12
497.44	25170.12
497.62	25118.63
497.79	25474.39
497.97	25167.78
498.14	25542.27
498.32	25298.85
498.50	25553.97
498.67	25640.57
498.85	26202.30
499.03	26068.89
499.20	26272.51
499.38	26059.52
499.56	26228.04
499.73	26354.43
499.91	26476.14
500.08	26391.88
500.26	26513.59
500.44	26735.94
500.61	26977.01
500.79	26370.82
500.97	26536.99
501.14	26897.44
501.32	26962.97
501.49	26850.63
501.67	27126.81
501.84	27377.25
502.02	27173.62
502.20	27414.69
502.37	28039.62
502.55	27623.00
502.72	27679.18
502.90	28121.54
503.07	28222.18
503.25	28243.24
503.43	27899.19
503.60	28070.04
503.78	28107.49
503.95	28180.05
504.13	28299.42
504.30	28840.08
504.48	28620.07
504.65	28769.86
504.83	29111.58
505.01	29001.58
505.18	29027.32
505.36	29219.25
505.53	29266.06
505.71	29696.72
505.88	29481.39
506.06	29565.65
506.23	29813.74
506.41	29553.94
506.58	29975.24
506.76	29701.40
506.93	30237.38
507.11	30316.96
507.28	29858.21
507.46	29795.02
507.63	29982.26
507.81	30008.01
507.98	29930.77
508.16	30295.89
508.33	30761.66
508.50	30689.10
508.68	30656.34
508.85	31189.98
509.03	31133.81
509.20	30946.56
509.38	30902.09
509.55	31028.48
509.73	30845.92
509.90	31318.71
510.08	30969.97
510.25	31173.60
510.42	31262.54
510.60	31929.59
510.77	31393.61
510.95	31917.89
511.12	31917.89
511.30	32109.81
511.47	32325.14
511.64	32261.94
511.82	32594.30
511.99	32570.90
512.17	32418.76
512.34	32105.13
512.51	32404.72
512.69	32449.19
512.86	32816.65
513.04	32699.62
513.21	32554.51
513.38	32734.73
513.56	33118.58
513.73	32781.54
513.90	32760.48
514.08	33104.54
514.25	33165.39
514.43	33308.16
514.60	33572.64
514.77	33174.75
514.95	33703.71
515.12	33207.52
515.29	33614.77
515.47	33893.30
515.64	33944.79
515.81	33542.22
515.99	33745.84
516.16	33661.58
516.33	33582.01
516.51	33755.21
516.68	33687.33
516.85	33359.66
517.03	33614.77
517.20	33626.48
517.37	33862.87
517.54	34525.24
517.72	34012.66
517.89	34043.09
518.06	34000.96
518.24	34068.84
518.41	34396.51
518.58	34536.94
518.75	34735.89
518.93	34660.99
519.10	34815.47
519.27	35227.40
519.45	34913.77
519.62	35005.05
519.79	35185.27
519.96	35555.08
520.14	35475.50
520.31	35370.18
520.48	35655.72
520.65	35318.68
520.83	36187.02
521.00	35601.89
521.17	35725.94
521.34	35873.39
521.52	35730.62
521.69	36531.08
521.86	36362.56
522.03	36006.80
522.20	36318.09
522.38	36596.62
522.55	35922.54
522.72	36098.08
522.89	36105.10
523.07	36655.13
523.24	35857.01
523.41	36816.63
523.58	36727.69
523.75	37322.18
523.92	37579.64
524.10	37312.82
524.27	37415.80
524.44	37106.85
524.61	37298.78
524.78	37282.39
524.96	37535.17
525.13	37823.06
525.30	37581.98
525.47	38115.62
525.64	37546.87
525.81	37785.61
525.98	37486.02
526.16	37633.47
526.33	36992.17
526.50	37617.09
526.67	37521.13
526.84	37429.85
527.01	37607.73
527.18	37951.79
527.36	38284.14
527.53	38234.99
527.70	38354.36
527.87	38361.38
528.04	38099.24
528.21	38370.74
528.38	38569.69
528.55	38792.04
528.72	38937.15
528.89	38983.96
529.07	38951.20
529.24	38878.64
529.41	38724.16
529.58	38745.23
529.75	38527.56
529.92	38679.69
530.09	39042.48
530.26	38979.28
530.43	39234.40
530.60	38953.54
530.77	39159.50
530.94	39330.36
531.11	39538.67
531.28	39105.67
531.46	39538.67
531.63	39522.29
531.80	39442.71
531.97	39386.54
532.14	39412.28
532.31	39154.82
532.48	39751.66
532.65	39765.70
532.82	39627.61
532.99	40133.17
533.16	39679.10
533.33	39716.55
533.50	39983.37
533.67	40163.59
533.84	39735.27
534.01	40027.84
534.18	40163.59
534.35	40648.08
534.52	40088.70
534.69	40453.82
534.86	40336.79
535.03	40294.66
535.20	40582.55
535.37	40566.16
535.54	40748.73
535.71	40671.49
535.88	40769.79
536.05	40367.22
536.22	41296.41
536.38	40954.69
536.55	40912.56
536.72	40280.62
536.89	40212.74
537.06	40863.41
537.23	40739.36
537.40	40935.97
537.57	41296.41
537.74	41099.81
537.91	41380.67
538.08	41340.88
538.25	40896.18
538.42	41294.07
538.59	41661.54
538.75	41333.86
538.92	41460.25
539.09	41544.51
539.26	41060.02
539.43	41268.33
539.60	41296.41
539.77	41799.63
539.94	41294.07
540.11	41111.51
540.28	41556.21
540.44	41165.34
540.61	41289.39
540.78	41659.20
540.95	41640.47
541.12	41301.09
541.29	41373.65
541.46	41813.67
541.62	41958.78
541.79	42017.30
541.96	41436.84
542.13	41713.03
542.30	42157.73
542.47	42085.17
542.63	42253.69
542.80	42026.66
542.97	42284.12
543.14	42433.91
543.31	42340.29
543.48	42646.90
543.64	43210.97
543.81	42880.95
543.98	42719.46
544.15	42717.12
544.32	43217.99
544.48	43377.15
544.65	42721.80
544.82	43171.18
544.99	42789.67
545.16	42749.88
545.32	42892.66
545.49	43386.51
545.66	43508.22
545.83	43313.95
546.00	43749.29
546.16	43430.98
546.33	42988.62
546.50	42728.82
546.67	42586.05
546.83	42749.88
547.00	42934.79
547.17	43316.29
547.34	43054.15
547.50	43543.33
547.67	43847.60
547.84	43580.78
548.00	43669.72
548.17	43758.66
548.34	43625.25
548.51	43555.03
548.67	43882.70
548.84	43629.93
549.01	43784.40
549.18	44158.89
549.34	43735.25
549.51	43866.32
549.68	43927.17
549.84	43641.63
550.01	44371.88
550.18	43697.80
550.34	44151.87
550.51	44006.75
550.68	44109.74
550.84	43433.32
551.01	44240.81
551.18	44154.21
551.34	43976.33
551.51	44275.91
551.68	44266.55
551.84	44453.79
552.01	44196.34
552.18	44308.68
552.34	44140.16
552.51	44069.95
552.68	44065.27
552.84	44851.69
553.01	44353.15
553.18	44034.84
553.34	44404.64
553.51	44102.71
553.67	44402.30
553.84	45067.02
554.01	44596.57
554.17	44863.39
554.34	44910.20
554.51	44931.26
554.67	45165.32
554.84	44701.89
555.00	44205.70
555.17	44797.85
555.33	44788.49
555.50	44617.63
555.67	44325.07
555.83	44634.02
556.00	44706.57
556.16	44847.00
556.33	44907.86
556.50	45041.27
556.66	44996.80
556.83	44755.72
556.99	45556.19
557.16	45214.47
557.32	45207.45
557.49	45275.32
557.65	44664.44
557.82	44842.32
557.98	45532.78
558.15	45081.06
558.32	45010.84
558.48	45411.07
558.65	45078.72
558.81	44921.90
558.98	44741.68
559.14	45481.29
559.31	44821.26
559.47	45485.97
559.64	45242.56
559.80	45457.88
559.97	45205.11
560.13	45282.34
560.30	45432.14
560.46	45357.24
560.63	45420.44
560.79	45780.88
560.96	45399.37
561.12	45139.57
561.29	45249.58
561.45	45315.11
561.61	45600.66
561.78	45457.88
561.94	45603.00
562.11	45373.63
562.27	45272.98
562.44	45045.95
562.60	45638.11
562.77	45535.12
562.93	45682.58
563.10	45581.93
563.26	45333.84
563.42	45727.05
563.59	45420.44
563.75	45691.94
563.92	45191.06
564.08	45638.11
564.24	45780.88
564.41	45961.10
564.57	45874.50
564.74	45638.11
564.90	45804.28
565.07	45656.83
565.23	45563.21
565.39	45684.92
565.56	45780.88
565.72	45680.24
565.88	45755.13
566.05	45736.41
566.21	45827.69
566.38	45825.35
566.54	45708.32
566.70	45940.04
566.87	46314.52
567.03	46028.98
567.19	46564.96
567.36	45467.25
567.52	45834.71
567.68	45832.37
567.85	46174.09
568.01	46326.22
568.17	45734.07
568.34	45713.00
568.50	45736.41
568.66	46021.95
568.83	45659.17
568.99	45979.82
569.15	45764.49
569.32	45488.31
569.48	45893.22
569.64	46061.74
569.81	46387.08
569.97	45872.16
570.13	46148.34
570.30	45670.87
570.46	45514.06
570.62	45525.76
570.78	45420.44
570.95	45799.60
571.11	45717.68
571.27	45853.44
571.43	45511.72
571.60	45872.16
571.76	45680.24
571.92	45666.19
572.09	45813.65
572.25	45684.92
572.41	45710.66
572.57	46220.90
572.74	46447.93
572.90	45928.33
573.06	46237.28
573.22	46122.60
573.38	46026.63
573.55	45530.44
573.71	46213.88
573.87	45851.09
574.03	46213.88
574.20	45874.50
574.36	45771.52
574.52	45663.85
574.68	45947.06
574.84	46321.54
575.01	46038.34
575.17	46256.01
575.33	45469.59
575.49	46075.79
575.65	46244.30
575.82	46410.48
575.98	46052.38
576.14	45993.87
576.30	46323.88
576.46	45928.33
576.62	46415.16
576.79	45993.87
576.95	45886.20
577.11	46014.93
577.27	46225.58
577.43	45872.16
577.59	46216.22
577.75	46368.35
577.92	45743.43
578.08	46000.89
578.24	45909.61
578.40	45970.46
578.56	46272.39
578.72	46094.51
578.88	46607.09
579.04	45968.12
579.21	46085.15
579.37	46071.10
579.53	45958.76
579.69	45741.09
579.85	45904.93
580.01	46155.36
580.17	45820.67
580.33	46204.52
580.49	46358.99
580.65	46300.48
580.82	46375.37
580.98	46401.12
581.14	46319.20
581.30	46071.10
581.46	46167.07
581.62	46113.23
581.78	46354.31
581.94	46876.25
582.10	45907.27
582.26	46101.53
582.42	46075.79
582.58	46579.00
582.74	46045.36
582.90	46389.42
583.06	45986.85
583.22	46391.76
583.38	46499.42
583.54	46284.09
583.70	46038.34
583.86	46476.02
584.02	45954.08
584.18	46333.24
584.34	46422.19
584.50	45904.93
584.66	45830.03
584.82	45815.99
584.98	46298.14
585.14	46597.73
585.30	46513.47
585.46	46312.18
585.62	45956.42
585.78	46340.27
585.94	46010.25
586.10	45923.65
586.26	46038.34
586.42	46426.87
586.58	46483.04
586.74	46562.62
586.90	46375.37
587.06	46227.92
587.22	46452.61
587.38	46447.93
587.54	46387.08
587.70	46763.90
587.86	46616.45
588.02	46602.41
588.18	46630.49
588.34	46155.36
588.49	45778.54
588.65	45731.73
588.81	45432.14
588.97	46033.66
589.13	45755.13
589.29	46066.42
589.45	46309.84
589.61	46120.26
589.77	46696.03
589.93	46050.04
