SpectraSuite Data File
++++++++++++++++++++++++++++++++++++
Date: Fri Oct 25 11:25:21 EDT 2013
User: price-jones
Dark Spectrum Present: No
Reference Spectrum Present: No
Number of Sampled Component Spectra: 1
Spectrometers: USB2+H05261
Integration Time (usec): 100000 (USB2+H05261)
Spectra Averaged: 1 (USB2+H05261)
Boxcar Smoothing: 0 (USB2+H05261)
Correct for Electrical Dark: No (USB2+H05261)
Strobe/Lamp Enabled: No (USB2+H05261)
Correct for Detector Non-linearity: No (USB2+H05261)
Correct for Stray Light: No (USB2+H05261)
Number of Pixels in Processed Spectrum: 2048
>>>>>Begin Processed Spectral Data<<<<<
365.73	159.16
365.92	159.16
366.12	159.16
366.32	145.11
366.52	126.39
366.72	124.05
366.91	105.32
367.11	63.19
367.31	107.66
367.51	159.16
367.70	91.28
367.90	187.24
368.10	119.37
368.30	191.92
368.49	124.05
368.69	140.43
368.89	154.48
369.09	145.11
369.28	161.50
369.48	173.20
369.68	163.84
369.87	217.67
370.07	133.41
370.27	245.76
370.47	292.57
370.66	535.98
370.86	624.92
371.06	653.01
371.25	645.99
371.45	615.56
371.65	608.54
371.84	578.11
372.04	641.31
372.24	669.39
372.44	765.36
372.63	770.04
372.83	828.55
373.03	777.06
373.22	725.57
373.42	699.82
373.62	798.12
373.81	765.36
374.01	844.93
374.21	753.65
374.40	795.78
374.60	889.40
374.79	763.01
374.99	858.98
375.19	809.83
375.38	821.53
375.58	727.91
375.78	826.21
375.97	875.36
376.17	950.26
376.37	936.21
376.56	868.34
376.76	880.04
376.95	830.89
377.15	926.85
377.35	915.15
377.54	915.15
377.74	884.72
377.93	840.25
378.13	915.15
378.33	954.94
378.52	997.07
378.72	931.53
378.91	971.32
379.11	933.87
379.31	936.21
379.50	936.21
379.70	968.98
379.89	994.73
380.09	938.55
380.28	889.40
380.48	968.98
380.68	966.64
380.87	959.62
381.07	980.68
381.26	1001.75
381.46	978.34
381.65	1041.54
381.85	999.41
382.04	1001.75
382.24	1036.86
382.43	1064.94
382.63	1036.86
382.83	1053.24
383.02	1156.22
383.22	1153.88
383.41	1078.99
383.61	1102.39
383.80	1123.46
384.00	1149.20
384.19	1067.28
384.39	1067.28
384.58	1137.50
384.78	1158.57
384.97	1151.54
385.17	1132.82
385.36	1062.60
385.56	1193.67
385.75	1137.50
385.95	1137.50
386.14	1135.16
386.34	1156.22
386.53	1207.72
386.72	1259.21
386.92	1263.89
387.11	1217.08
387.31	1310.70
387.50	1259.21
387.70	1151.54
387.89	1310.70
388.09	1275.59
388.28	1181.97
388.48	1291.98
388.67	1399.64
388.86	1263.89
389.06	1282.61
389.25	1252.19
389.45	1308.36
389.64	1341.13
389.84	1380.92
390.03	1437.09
390.22	1390.28
390.42	1369.21
390.61	1401.98
390.81	1397.30
391.00	1430.07
391.19	1425.39
391.39	1462.83
391.58	1521.35
391.78	1404.32
391.97	1380.92
392.16	1430.07
392.36	1521.35
392.55	1495.60
392.75	1533.05
392.94	1556.46
393.13	1519.01
393.33	1472.20
393.52	1577.52
393.71	1589.22
393.91	1636.03
394.10	1490.92
394.29	1558.80
394.49	1612.63
394.68	1607.95
394.88	1586.88
395.07	1680.50
395.26	1603.27
395.46	1643.06
395.65	1640.72
395.84	1706.25
396.04	1785.83
396.23	1741.36
396.42	1755.40
396.62	1830.30
396.81	1806.89
397.00	1701.57
397.19	1867.75
397.39	1846.68
397.58	1905.20
397.77	1813.92
397.97	1809.23
398.16	1802.21
398.35	1844.34
398.55	1870.09
398.74	1842.00
398.93	1977.75
399.12	2001.16
399.32	1909.88
399.51	1959.03
399.70	1952.01
399.90	1856.04
400.09	2031.58
400.28	2062.01
400.47	1994.14
400.67	2022.22
400.86	2054.99
401.05	2038.61
401.24	2010.52
401.44	2132.23
401.63	2099.46
401.82	2209.47
402.01	2139.25
402.21	2148.61
402.40	2148.61
402.59	2155.63
402.78	2193.08
402.97	2298.41
403.17	2216.49
403.36	2172.02
403.55	2291.38
403.74	2312.45
403.93	2263.30
404.13	2370.96
404.32	2225.85
404.51	2445.86
404.70	2373.30
404.89	2272.66
405.09	2483.31
405.28	2420.11
405.47	2438.84
405.66	2506.71
405.85	2471.61
406.05	2473.95
406.24	2473.95
406.43	2553.52
406.62	2586.29
406.81	2614.38
407.00	2626.08
407.20	2670.55
407.39	2541.82
407.58	2637.78
407.77	2686.94
407.96	2733.75
408.15	2693.96
408.34	2794.60
408.54	2775.88
408.73	2738.43
408.92	2820.35
409.11	2860.13
409.30	2829.71
409.49	2918.65
409.68	2883.54
409.87	2911.63
410.07	2958.44
410.26	2937.37
410.45	3002.91
410.64	3030.99
410.83	3101.21
411.02	3096.53
411.21	3023.97
411.40	3112.91
411.59	3141.00
411.78	3152.70
411.98	3122.27
412.17	3314.20
412.36	3302.50
412.55	3356.33
412.74	3372.71
412.93	3442.93
413.12	3335.26
413.31	3599.74
413.50	3417.18
413.69	3398.46
413.88	3480.38
414.07	3496.76
414.26	3637.19
414.45	3588.04
414.64	3646.55
414.83	3637.19
415.02	3740.18
415.22	3730.81
415.41	3829.12
415.60	3878.27
415.79	3946.14
415.98	3990.61
416.17	3964.87
416.36	3819.75
416.55	3899.33
416.74	4042.11
416.93	4156.79
417.12	4091.26
417.31	4067.85
417.50	4201.26
417.69	4308.93
417.88	4191.90
418.07	4135.73
418.26	4278.50
418.45	4292.54
418.64	4465.74
418.83	4416.59
419.02	4390.84
419.21	4535.96
419.39	4444.68
419.58	4566.39
419.77	4386.16
419.96	4564.04
420.15	4592.13
420.34	4622.56
420.53	4723.20
420.72	4823.84
420.91	4613.20
421.10	4823.84
421.29	4795.76
421.48	4578.09
421.67	4559.36
421.86	4681.07
422.05	4720.86
422.24	4608.51
422.43	4884.70
422.61	4875.34
422.80	4772.35
422.99	4819.16
423.18	4873.00
423.37	4896.40
423.56	4950.23
423.75	4868.31
423.94	4727.88
424.13	4582.77
424.32	4711.50
424.50	4994.70
424.69	4954.91
424.88	5008.75
425.07	4919.81
425.26	4807.46
425.45	4961.94
425.64	4961.94
425.83	5060.24
426.01	5015.77
426.20	5137.48
426.39	5109.39
426.58	5149.18
426.77	5109.39
426.96	5048.54
427.15	5060.24
427.33	5151.52
427.52	5109.39
427.71	5191.31
427.90	5144.50
428.09	5181.95
428.28	5322.38
428.46	5336.42
428.65	5416.00
428.84	5371.53
429.03	5603.24
429.22	5210.03
429.40	5493.24
429.59	5418.34
429.78	5259.18
429.97	5273.23
430.16	5523.66
430.34	5570.48
430.53	5603.24
430.72	5657.07
430.91	5605.58
431.10	5598.56
431.28	5809.21
431.47	5860.70
431.66	5804.53
431.85	5699.20
432.03	5689.84
432.22	5926.24
432.41	6122.84
432.60	5949.64
432.79	5823.25
432.97	5916.87
433.16	5912.19
433.35	5760.06
433.54	5891.13
433.72	6024.54
433.91	6249.23
434.10	6019.86
434.28	6061.99
434.47	6150.93
434.66	6118.16
434.85	6293.70
435.03	6193.06
435.22	6183.70
435.41	6424.77
435.59	6260.93
435.78	6413.07
435.97	6396.68
436.16	6356.90
436.34	6462.22
436.53	6293.70
436.72	6548.82
436.90	6340.51
437.09	6459.88
437.28	6532.44
437.46	6614.35
437.65	6565.20
437.84	6785.21
438.02	6780.53
438.21	6541.80
438.40	6651.80
438.58	7068.42
438.77	7030.97
438.96	6705.63
439.14	7164.38
439.33	7321.20
439.52	7250.98
439.70	7143.32
439.89	7405.46
440.08	7316.51
440.26	7087.14
440.45	7452.27
440.63	7419.50
440.82	7606.74
441.01	7468.65
441.19	7485.03
441.38	7566.95
441.57	7538.87
441.75	7644.19
441.94	7927.39
442.12	7899.31
442.31	7978.89
442.50	8035.06
442.68	7815.05
442.87	7843.14
443.05	7988.25
443.24	8098.25
443.43	8219.96
443.61	8273.79
443.80	8308.90
443.98	8011.65
444.17	7712.07
444.35	8119.32
444.54	8070.17
444.73	8091.23
444.91	8128.68
445.10	8264.43
445.28	8397.84
445.47	8344.01
445.65	8334.65
445.84	8315.92
446.02	8475.08
446.21	8397.84
446.39	8461.04
446.58	8451.67
446.77	8446.99
446.95	8173.15
447.14	8456.36
447.32	8493.80
447.51	8533.59
447.69	8224.64
447.88	8299.54
448.06	8395.50
448.25	8421.25
448.43	8610.83
448.62	8585.08
448.80	8486.78
448.99	8723.18
449.17	8624.87
449.36	8610.83
449.54	8648.28
449.73	8887.01
449.91	9085.96
450.10	8856.59
450.28	8919.78
450.46	8945.53
450.65	8884.67
450.83	9055.53
451.02	9224.05
451.20	9006.38
451.39	8975.95
451.57	9114.05
451.76	9018.08
451.94	9137.45
452.13	9455.76
452.31	9341.08
452.49	9043.83
452.68	9439.38
452.86	9263.84
453.05	9312.99
453.23	9331.72
453.42	9177.24
453.60	9317.67
453.78	9467.47
453.97	9476.83
454.15	9406.61
454.34	9565.77
454.52	9680.46
454.70	9650.03
454.89	9600.88
455.07	9760.03
455.26	9736.63
455.44	9923.87
455.62	9891.10
455.81	9783.44
455.99	9867.70
456.17	10038.56
456.36	9858.34
456.54	10118.14
456.73	9989.41
456.91	10333.47
457.09	10370.91
457.28	10342.83
457.46	10087.71
457.64	10345.17
457.83	10487.94
458.01	10281.97
458.19	10672.84
458.38	10352.19
458.56	10619.01
458.74	10661.14
458.93	10597.95
459.11	10649.44
459.29	10705.61
459.48	10651.78
459.66	10696.25
459.84	10808.59
460.03	10904.56
460.21	10810.93
460.39	10803.91
460.57	10960.73
460.76	11028.60
460.94	11248.61
461.12	11243.93
461.31	11152.65
461.49	11187.76
461.67	11047.33
461.85	11496.71
462.04	11180.74
462.22	11698.00
462.40	11431.18
462.59	11257.98
462.77	11332.87
462.95	11569.27
463.13	11351.60
463.32	11473.31
463.50	11564.59
463.68	11440.54
463.86	11714.38
464.05	11485.01
464.23	11386.71
464.41	11698.00
464.59	11747.15
464.78	12053.76
464.96	11730.76
465.14	11449.90
465.32	11868.86
465.50	11918.01
465.69	11962.48
465.87	12161.42
466.05	12233.98
466.23	12016.31
466.41	12184.83
466.60	12386.12
466.78	11976.52
466.96	12116.95
467.14	12362.71
467.32	12299.52
467.51	12500.80
467.69	12074.82
467.87	12365.05
468.05	12437.61
468.23	12416.54
468.41	12493.78
468.60	12629.53
468.78	12779.32
468.96	12428.24
469.14	12952.52
469.32	12980.61
469.50	12573.36
469.69	12765.28
469.87	12870.61
470.05	12863.58
470.23	12819.11
470.41	13039.12
470.59	13193.60
470.77	13064.87
470.95	13238.07
471.14	13343.39
471.32	13247.43
471.50	13350.42
471.68	13589.15
471.86	13509.57
472.04	13542.34
472.22	14083.00
472.40	13727.24
472.58	13855.97
472.77	13778.73
472.95	14059.60
473.13	14473.87
473.31	14153.22
473.49	14174.28
473.67	13806.82
473.85	14094.71
474.03	14403.66
474.21	14567.49
474.39	14656.43
474.57	14649.41
474.75	14827.29
474.93	14827.29
475.12	14979.43
475.30	15136.24
475.48	14981.77
475.66	14890.49
475.84	14974.75
476.02	15342.21
476.20	15236.89
476.38	15564.56
476.56	15889.90
476.74	15597.33
476.92	15913.30
477.10	15604.35
477.28	15934.37
477.46	16035.01
477.64	16358.00
477.82	16517.16
478.00	17027.40
478.18	16535.88
478.36	16823.77
478.54	16973.56
478.72	17172.51
478.90	17165.49
479.08	17270.81
479.26	17207.62
479.44	17425.29
479.62	17771.69
479.80	18052.55
479.98	18232.77
480.16	18483.21
480.34	17970.63
480.52	18710.24
480.70	18274.90
480.88	18448.10
481.06	18574.49
481.24	18523.00
481.41	19143.24
481.59	19328.14
481.77	19468.58
481.95	19316.44
482.13	19592.62
482.31	19470.92
482.49	20194.14
482.67	20056.05
482.85	20084.14
483.03	20627.14
483.21	20744.17
483.39	20884.60
483.57	20919.71
483.74	21156.10
483.92	21420.58
484.10	21153.76
484.28	21568.04
484.46	21944.86
484.64	22530.00
484.82	22099.34
485.00	22127.42
485.18	22221.05
485.35	23005.13
485.53	22703.20
485.71	22752.35
485.89	23515.36
486.07	23269.61
486.25	23302.37
486.43	23482.59
486.61	23810.27
486.78	24133.26
486.96	23737.71
487.14	24327.53
487.32	24741.80
487.50	24882.24
487.68	24699.67
487.85	24865.85
488.03	25055.43
488.21	25582.06
488.39	25708.44
488.57	25720.15
488.75	26068.89
488.92	26211.66
489.10	26508.91
489.28	26434.01
489.46	27005.10
489.64	26684.45
489.81	27477.89
489.99	27630.02
490.17	27599.60
490.35	28205.80
490.53	28065.36
490.70	28655.18
490.88	27915.57
491.06	28453.89
491.24	28510.07
491.41	28929.02
491.59	29167.76
491.77	28931.36
491.95	29532.88
492.13	29542.24
492.30	29397.13
492.48	29970.56
492.66	29790.34
492.84	30026.73
493.01	30487.82
493.19	30352.07
493.37	30679.74
493.54	31005.08
493.72	31218.07
493.90	30864.64
494.08	31391.26
494.25	31653.40
494.43	31917.89
494.61	32020.87
494.79	31967.04
494.96	32077.04
495.14	32575.58
495.32	32636.43
495.49	32872.82
495.67	32865.80
495.85	32826.01
496.02	33053.05
496.20	33500.09
496.38	33890.96
496.55	33806.70
496.73	34913.77
496.91	34237.36
497.09	34602.48
497.26	34546.31
497.44	34679.72
497.62	34740.57
497.79	35431.03
497.97	34972.28
498.14	35882.75
498.32	35861.69
498.50	35718.92
498.67	36093.40
498.85	36290.01
499.03	36449.16
499.20	36182.34
499.38	36163.62
499.56	36477.25
499.73	36861.10
499.91	36804.92
500.08	37296.44
500.26	37036.64
500.44	37104.51
500.61	37532.83
500.79	37684.97
500.97	37649.86
501.14	38824.81
501.32	38146.05
501.49	37635.81
501.67	38309.89
501.84	38644.59
502.02	38440.96
502.20	38501.81
502.37	39229.72
502.55	39210.99
502.72	39175.89
502.90	39239.08
503.07	39058.86
503.25	39608.89
503.43	39461.43
503.60	40025.50
503.78	39683.78
503.95	39833.58
504.13	40334.45
504.30	40187.00
504.48	39976.35
504.65	40294.66
504.83	40641.06
505.01	40835.33
505.18	41088.10
505.36	41081.08
505.53	41053.00
505.71	41242.58
505.88	41560.89
506.06	41125.55
506.23	41958.78
506.41	41378.33
506.58	41710.69
506.76	42349.65
506.93	41935.38
507.11	41996.23
507.28	42272.42
507.46	42195.18
507.63	42337.95
507.81	42995.64
507.98	42810.74
508.16	43019.05
508.33	43269.48
508.50	43510.56
508.68	43496.52
508.85	43445.02
509.03	43002.66
509.20	43648.65
509.38	44030.16
509.55	43800.79
509.73	44065.27
509.90	44416.35
510.08	43641.63
510.25	44264.21
510.42	44587.21
510.60	44945.31
510.77	44516.99
510.95	44818.92
511.12	44617.63
511.30	44685.51
511.47	45205.11
511.64	44919.56
511.82	45228.51
511.99	45535.12
512.17	45420.44
512.34	45326.81
512.51	45799.60
512.69	45893.22
512.86	46017.27
513.04	46234.94
513.21	45904.93
513.38	46169.41
513.56	46256.01
513.73	46396.44
513.90	46686.67
514.08	46756.88
514.25	46794.33
514.43	46962.85
514.60	47014.34
514.77	47171.16
514.95	47377.12
515.12	47164.14
515.29	47180.52
515.47	47669.69
515.64	47643.94
515.81	47833.53
515.99	47838.21
516.16	47980.98
516.33	48004.39
516.51	48477.18
516.68	48306.32
516.85	48065.24
517.03	48868.05
517.20	48821.23
517.37	48486.54
517.54	48980.39
517.72	48968.69
517.89	48753.36
518.06	48531.01
518.24	48858.68
518.41	49329.13
518.58	48914.86
518.75	48673.78
518.93	49317.43
519.10	49155.93
519.27	49778.51
519.45	49368.92
519.62	49876.82
519.79	49717.66
519.96	49684.89
520.14	49691.91
520.31	49925.97
520.48	50127.25
520.65	50164.70
520.83	50342.58
521.00	50600.04
521.17	50288.75
521.34	50635.15
521.52	50766.22
521.69	50248.96
521.86	50714.73
522.03	50810.69
522.20	50838.78
522.38	51290.50
522.55	51426.25
522.72	51093.89
522.89	50857.50
523.07	51246.03
523.24	50920.70
523.41	51447.32
523.58	51327.95
523.75	51667.33
523.92	51407.53
524.10	51543.28
524.27	51632.22
524.44	51674.35
524.61	51899.04
524.78	52088.62
524.96	52067.56
525.13	51929.47
525.30	52065.22
525.47	52189.27
525.64	52257.14
525.81	52287.57
525.98	52397.57
526.16	52388.21
526.33	52425.66
526.50	52500.56
526.67	52636.31
526.84	52650.35
527.01	52622.26
527.18	52538.01
527.36	52657.37
527.53	53071.65
527.70	53008.45
527.87	53176.97
528.04	52701.84
528.21	52945.26
528.38	53298.68
528.55	53095.05
528.72	53013.13
528.89	53357.19
529.07	53165.27
529.24	53183.99
529.41	53422.73
529.58	53434.43
529.75	53396.98
529.92	53577.20
530.09	53537.41
530.26	53748.06
530.43	53876.79
530.60	53839.34
530.77	53602.95
530.94	53565.50
531.11	53530.39
531.28	53855.73
531.46	54038.29
531.63	53867.43
531.80	54183.40
531.97	54155.32
532.14	53909.56
532.31	54349.58
532.48	54028.93
532.65	54490.01
532.82	54087.44
532.99	54635.13
533.16	54424.48
533.33	54389.37
533.50	54834.07
533.67	54667.89
533.84	54635.13
534.01	54560.23
534.18	54686.62
534.35	55014.29
534.52	54698.32
534.69	54871.52
534.86	55224.94
535.03	54873.86
535.20	54967.48
535.37	55323.24
535.54	55002.59
535.71	54944.08
535.88	55143.02
536.05	55416.86
536.22	55238.98
536.38	55269.41
536.55	55213.24
536.72	55536.23
536.89	55302.18
537.06	55409.84
537.23	55381.76
537.40	55210.90
537.57	55414.52
537.74	55543.25
537.91	55690.71
538.08	55856.88
538.25	55356.01
538.42	55648.58
538.59	55807.73
538.75	55828.80
538.92	55702.41
539.09	56041.79
539.26	55922.42
539.43	55877.95
539.60	56100.30
539.77	56004.34
539.94	56479.47
540.11	56088.60
540.28	56006.68
540.44	56420.95
540.61	56069.87
540.78	56037.11
540.95	56203.28
541.12	56142.43
541.29	56420.95
541.46	56371.80
541.62	56360.10
541.79	56708.84
541.96	56104.98
542.13	56168.18
542.30	56444.36
542.47	56484.15
542.63	56605.86
542.80	56917.15
542.97	56945.23
543.14	56797.78
543.31	57059.92
543.48	56912.47
543.64	56921.83
543.81	57326.74
543.98	57139.50
544.15	56996.73
544.32	57354.83
544.48	57322.06
544.65	57106.73
544.82	57176.95
544.99	56994.39
545.16	57340.78
545.32	57158.22
545.49	57396.96
545.66	57539.73
545.83	57322.06
546.00	57506.96
546.16	57544.41
546.33	57464.83
546.50	57275.25
546.67	57429.72
546.83	57350.15
547.00	57572.50
547.17	57579.52
547.34	57719.95
547.50	57591.22
547.67	57984.43
547.84	57937.62
548.00	58136.57
548.17	58031.24
548.34	57633.35
548.51	58028.90
548.67	58103.80
548.84	58047.63
549.01	57958.69
549.18	57963.37
549.34	58094.44
549.51	58262.96
549.68	58143.59
549.84	58230.19
550.01	58445.52
550.18	57989.11
550.34	58356.58
550.51	58403.39
550.68	58379.98
550.84	57991.45
551.01	58480.63
551.18	58316.79
551.34	58394.03
551.51	58239.55
551.68	58473.60
551.84	58375.30
552.01	58443.18
552.18	58436.16
552.34	58136.57
552.51	58721.70
552.68	58365.94
552.84	58461.90
553.01	58707.66
553.18	58539.14
553.34	58766.17
553.51	58651.48
553.67	58721.70
553.84	58784.90
554.01	58770.85
554.17	58597.65
554.34	58747.45
554.51	58705.32
554.67	58857.45
554.84	58873.84
555.00	58791.92
555.17	58773.19
555.33	58983.84
555.50	58775.53
555.67	58756.81
555.83	58859.79
556.00	58878.52
556.16	59110.23
556.33	59253.00
556.50	59112.57
556.66	59023.63
556.83	58965.12
556.99	59203.85
557.16	59250.66
557.32	59377.05
557.49	59377.05
557.65	59217.89
557.82	59117.25
557.98	59260.02
558.15	59334.92
558.32	59409.82
558.48	59433.22
558.65	59332.58
558.81	59412.16
558.98	59346.62
559.14	59346.62
559.31	59269.39
559.47	59545.57
559.64	59538.55
559.80	59576.00
559.97	59594.72
560.13	59428.54
560.30	59566.63
560.46	59477.69
560.63	59625.15
560.79	59636.85
560.96	59625.15
561.12	59571.32
561.29	59503.44
561.45	59669.62
561.61	59604.08
561.78	59793.67
561.94	59618.13
562.11	59772.60
562.27	59716.43
562.44	59800.69
562.60	59877.93
562.77	59592.38
562.93	59545.57
563.10	59625.15
563.26	59835.80
563.42	59875.58
563.59	59889.63
563.75	59859.20
563.92	59880.27
564.08	59753.88
564.24	60072.19
564.41	60055.81
564.57	60032.40
564.74	59756.22
564.90	60013.68
565.07	59922.40
565.23	59971.55
565.39	59805.37
565.56	60032.40
565.72	59903.67
565.88	60147.09
566.05	59917.71
566.21	59903.67
566.38	60102.62
566.54	59966.87
566.70	60261.77
566.87	60287.52
567.03	60238.37
567.19	60254.75
567.36	60097.94
567.52	60130.70
567.68	60374.12
567.85	60245.39
568.01	60133.04
568.17	60154.11
568.34	60259.43
568.50	60144.75
568.66	60331.99
568.83	60130.70
568.99	60247.73
569.15	60273.48
569.32	60259.43
569.48	60388.16
569.64	60392.84
569.81	60278.16
569.97	60238.37
570.13	60549.66
570.30	60161.13
570.46	60243.05
570.62	60303.90
570.78	60200.92
570.95	60346.03
571.11	60111.98
571.27	60397.52
571.43	60271.14
571.60	60275.82
571.76	60439.65
571.92	60214.96
572.09	60463.06
572.25	60495.83
572.41	60456.04
572.57	60556.68
572.74	60699.45
572.90	60149.43
573.06	60472.42
573.22	60559.02
573.38	60472.42
573.55	60432.63
573.71	60559.02
573.87	60622.22
574.03	60458.38
574.20	60636.26
574.36	60434.97
574.52	60647.96
574.68	60589.45
574.84	60430.29
575.01	60502.85
575.17	60654.98
575.33	60563.70
575.49	60547.32
575.65	60633.92
575.82	60734.56
575.98	60561.36
576.14	60729.88
576.30	60629.24
576.46	60652.64
576.62	60481.78
576.79	60554.34
576.95	60439.65
577.11	60633.92
577.27	60516.89
577.43	60680.73
577.59	60645.62
577.75	60488.80
577.92	60654.98
578.08	60673.71
578.24	60772.01
578.40	60750.94
578.56	61027.13
578.72	60732.22
578.88	60931.17
579.04	60905.42
579.21	60757.97
579.37	60657.32
579.53	60809.46
579.69	60446.68
579.85	60701.79
580.01	60587.11
580.17	60451.36
580.33	60767.33
580.49	60699.45
580.65	60837.54
580.82	60725.20
580.98	60594.13
581.14	60662.00
581.30	60858.61
581.46	60563.70
581.62	60786.05
581.78	60664.35
581.94	60699.45
582.10	60481.78
582.26	60612.85
582.42	60851.59
582.58	60633.92
582.74	60544.98
582.90	60846.91
583.06	60706.47
583.22	60764.99
583.38	60849.25
583.54	60748.60
583.70	60762.65
583.86	60800.10
584.02	60846.91
584.18	60968.61
584.34	60870.31
584.50	60715.84
584.66	60570.72
584.82	60694.77
584.98	60989.68
585.14	60722.86
585.30	60835.20
585.46	60891.38
585.62	60893.72
585.78	60954.57
585.94	60640.94
586.10	60912.44
586.26	60762.65
586.42	60945.21
586.58	60924.14
586.74	60961.59
586.90	60732.22
587.06	60748.60
587.22	60982.66
587.38	60828.18
587.54	60989.68
587.70	60980.32
587.86	61015.43
588.02	60954.57
588.18	60828.18
588.34	60753.29
588.49	60992.02
