SpectraSuite Data File
++++++++++++++++++++++++++++++++++++
Date: Fri Oct 25 10:48:14 EDT 2013
User: price-jones
Dark Spectrum Present: No
Reference Spectrum Present: No
Number of Sampled Component Spectra: 1
Spectrometers: USB2+H05261
Integration Time (usec): 100000 (USB2+H05261)
Spectra Averaged: 1 (USB2+H05261)
Boxcar Smoothing: 0 (USB2+H05261)
Correct for Electrical Dark: No (USB2+H05261)
Strobe/Lamp Enabled: No (USB2+H05261)
Correct for Detector Non-linearity: No (USB2+H05261)
Correct for Stray Light: No (USB2+H05261)
Number of Pixels in Processed Spectrum: 2048
>>>>>Begin Processed Spectral Data<<<<<
365.73	131.07
365.92	131.07
366.12	131.07
366.32	60.85
366.52	88.94
366.72	58.51
366.91	4.68
367.11	84.26
367.31	0.00
367.51	16.38
367.70	23.41
367.90	42.13
368.10	2.34
368.30	42.13
368.49	95.96
368.69	84.26
368.89	110.01
369.09	110.01
369.28	95.96
369.48	95.96
369.68	117.03
369.87	119.37
370.07	140.43
370.27	201.29
370.47	145.11
370.66	362.78
370.86	348.74
371.06	489.17
371.25	489.17
371.45	491.51
371.65	458.74
371.84	386.19
372.04	407.25
372.24	447.04
372.44	468.11
372.63	543.00
372.83	505.56
373.03	540.66
373.22	547.69
373.42	425.98
373.62	517.26
373.81	531.30
374.01	634.29
374.21	552.37
374.40	519.60
374.60	545.34
374.79	519.60
374.99	575.77
375.19	603.86
375.38	627.26
375.58	603.86
375.78	545.34
375.97	643.65
376.17	592.16
376.37	594.50
376.56	545.34
376.76	575.77
376.95	568.75
377.15	578.11
377.35	648.33
377.54	638.97
377.74	601.52
377.93	615.56
378.13	667.05
378.33	690.46
378.52	662.37
378.72	648.33
378.91	709.18
379.11	578.11
379.31	578.11
379.50	601.52
379.70	638.97
379.89	734.93
380.09	709.18
380.28	655.35
380.48	730.25
380.68	657.69
380.87	669.39
381.07	667.05
381.26	690.46
381.46	674.07
381.65	657.69
381.85	699.82
382.04	713.86
382.24	641.31
382.43	727.91
382.63	760.67
382.83	671.73
383.02	730.25
383.22	739.61
383.41	683.44
383.61	681.10
383.80	772.38
384.00	746.63
384.19	662.37
384.39	755.99
384.58	835.57
384.78	770.04
384.97	791.10
385.17	781.74
385.36	823.87
385.56	774.72
385.75	709.18
385.95	812.17
386.14	795.78
386.34	837.91
386.53	816.85
386.72	830.89
386.92	858.98
387.11	882.38
387.31	800.46
387.50	828.55
387.70	858.98
387.89	887.06
388.09	828.55
388.28	945.58
388.48	849.61
388.67	917.49
388.86	882.38
389.06	924.51
389.25	915.15
389.45	1008.77
389.64	896.43
389.84	954.94
390.03	971.32
390.22	919.83
390.42	987.71
390.61	926.85
390.81	983.02
391.00	971.32
391.19	929.19
391.39	1013.45
391.58	1001.75
391.78	980.68
391.97	954.94
392.16	1027.50
392.36	1001.75
392.55	912.81
392.75	1025.15
392.94	973.66
393.13	924.51
393.33	924.51
393.52	1025.15
393.71	1046.22
393.91	1104.73
394.10	1076.65
394.29	1088.35
394.49	1020.47
394.68	1064.94
394.88	1062.60
395.07	1170.27
395.26	1153.88
395.46	1172.61
395.65	1193.67
395.84	1186.65
396.04	1100.05
396.23	1151.54
396.42	1200.69
396.62	1165.59
396.81	1179.63
397.00	1116.44
397.19	1109.41
397.39	1261.55
397.58	1249.85
397.77	1263.89
397.97	1254.53
398.16	1320.06
398.35	1233.46
398.55	1289.64
398.74	1369.21
398.93	1394.96
399.12	1392.62
399.32	1411.34
399.51	1439.43
399.70	1385.60
399.90	1406.66
400.09	1507.30
400.28	1460.49
400.47	1490.92
400.67	1516.67
400.86	1575.18
401.05	1453.47
401.24	1500.28
401.44	1453.47
401.63	1467.52
401.82	1565.82
402.01	1533.05
402.21	1551.78
402.40	1570.50
402.59	1514.33
402.78	1563.48
402.97	1551.78
403.17	1682.85
403.36	1706.25
403.55	1629.01
403.74	1762.42
403.93	1713.27
404.13	1614.97
404.32	1659.44
404.51	1764.76
404.70	1781.15
404.89	1746.04
405.09	1774.13
405.28	1795.19
405.47	1767.10
405.66	1804.55
405.85	1799.87
406.05	1809.23
406.24	1783.49
406.43	1851.36
406.62	1872.43
406.81	1991.80
407.00	1909.88
407.20	1792.85
407.39	1928.60
407.58	1984.77
407.77	2029.24
407.96	2036.27
408.15	2031.58
408.34	1989.46
408.54	2047.97
408.73	2043.29
408.92	2122.87
409.11	2064.35
409.30	2090.10
409.49	2097.12
409.68	2172.02
409.87	2101.80
410.07	2106.48
410.26	2141.59
410.45	2125.21
410.64	2190.74
410.83	2249.25
411.02	2333.51
411.21	2265.64
411.40	2298.41
411.59	2324.15
411.78	2399.05
411.98	2338.20
412.17	2373.30
412.36	2368.62
412.55	2443.52
412.74	2502.03
412.93	2565.23
413.12	2373.30
413.31	2462.24
413.50	2609.70
413.69	2612.04
413.88	2525.44
414.07	2586.29
414.26	2651.83
414.45	2686.94
414.64	2663.53
414.83	2825.03
415.02	2895.24
415.22	2906.95
415.41	2768.85
415.60	2789.92
415.79	3021.63
415.98	3009.93
416.17	2951.42
416.36	3012.27
416.55	2916.31
416.74	3040.36
416.93	2935.03
417.12	3063.76
417.31	3075.46
417.50	3105.89
417.69	3138.66
417.88	3272.07
418.07	3239.30
418.26	3162.06
418.45	3279.09
418.64	3393.78
418.83	3248.66
419.02	3351.65
419.21	3260.37
419.39	3405.48
419.58	3213.56
419.77	3375.05
419.96	3253.34
420.15	3356.33
420.34	3309.52
420.53	3417.18
420.72	3538.89
420.91	3595.06
421.10	3557.61
421.29	3506.12
421.48	3468.67
421.67	3630.17
421.86	3433.57
422.05	3454.63
422.24	3454.63
422.43	3590.38
422.61	3527.19
422.80	3503.78
422.99	3599.74
423.18	3630.17
423.37	3574.00
423.56	3566.98
423.75	3623.15
423.94	3634.85
424.13	3478.04
424.32	3417.18
424.50	3545.91
424.69	3686.34
424.88	3772.94
425.07	3620.81
425.26	3513.14
425.45	3691.02
425.64	3627.83
425.83	3524.85
426.01	3691.02
426.20	3634.85
426.39	3662.94
426.58	3625.49
426.77	3595.06
426.96	3595.06
427.15	3765.92
427.33	3744.86
427.52	3770.60
427.71	3875.93
427.90	3754.22
428.09	3772.94
428.28	3852.52
428.46	3857.20
428.65	3899.33
428.84	3936.78
429.03	3922.74
429.22	3796.35
429.40	3850.18
429.59	3899.33
429.78	3747.20
429.97	3662.94
430.16	3847.84
430.34	3859.54
430.53	3896.99
430.72	3995.29
430.91	3913.38
431.10	3918.06
431.28	4306.59
431.47	4308.93
431.66	4201.26
431.85	4224.67
432.03	4306.59
432.22	4306.59
432.41	4147.43
432.60	4353.40
432.79	4180.20
432.97	4383.82
433.16	4374.46
433.35	4250.41
433.54	4227.01
433.72	4248.07
433.91	4411.91
434.10	4454.04
434.28	4395.53
434.47	4503.19
434.66	4435.32
434.85	4510.21
435.03	4475.10
435.22	4463.40
435.41	4650.64
435.59	4568.73
435.78	4615.54
435.97	4821.50
436.16	4798.10
436.34	4760.65
436.53	4704.48
436.72	4835.55
436.90	4667.03
437.09	4985.34
437.28	4774.69
437.46	4784.06
437.65	4692.77
437.84	4964.28
438.02	4847.25
438.21	4746.61
438.40	4807.46
438.58	4819.16
438.77	4922.15
438.96	4919.81
439.14	5165.56
439.33	5195.99
439.52	5231.10
439.70	5064.92
439.89	5322.38
440.08	5188.97
440.26	5305.99
440.45	5107.05
440.63	5385.57
440.82	5427.70
441.01	5378.55
441.19	5474.51
441.38	5516.64
441.57	5537.71
441.75	5764.74
441.94	5832.62
442.12	5757.72
442.31	5788.14
442.50	5785.80
442.68	5865.38
442.87	5701.54
443.05	5769.42
443.24	5856.02
443.43	5736.65
443.61	5806.87
443.80	6061.99
443.98	5755.38
444.17	5701.54
444.35	6038.58
444.54	6193.06
444.73	5994.11
444.91	6043.26
445.10	5989.43
445.28	5968.37
445.47	5926.24
445.65	6022.20
445.84	5954.32
446.02	6150.93
446.21	6003.47
446.39	5949.64
446.58	6101.78
446.77	6235.19
446.95	5956.66
447.14	5881.77
447.32	6076.03
447.51	6047.94
447.69	6111.14
447.88	6078.37
448.06	6090.07
448.25	6363.92
448.43	6127.52
448.62	6083.05
448.80	6071.35
448.99	6469.24
449.17	6370.94
449.36	6169.65
449.54	6410.73
449.73	6630.74
449.91	6450.52
450.10	6766.49
450.28	6642.44
450.46	6513.71
450.65	6703.29
450.83	6572.22
451.02	6413.07
451.20	6616.69
451.39	6698.61
451.57	6768.83
451.76	6626.06
451.94	6630.74
452.13	6834.36
452.31	6729.04
452.49	6686.91
452.68	6740.74
452.86	6637.76
453.05	6668.19
453.23	6867.13
453.42	6637.76
453.60	6574.56
453.78	6906.92
453.97	6780.53
454.15	6888.20
454.34	6864.79
454.52	6979.48
454.70	6850.75
454.89	6822.66
455.07	6939.69
455.26	7059.06
455.44	7077.78
455.62	7045.01
455.81	7061.40
455.99	7225.23
456.17	7290.77
456.36	7066.08
456.54	7288.43
456.73	7281.41
456.91	7660.57
457.09	7447.58
457.28	7424.18
457.46	7400.77
457.64	7382.05
457.83	7499.08
458.01	7419.50
458.19	7559.93
458.38	7487.37
458.56	7786.96
458.74	7485.03
458.93	7606.74
459.11	7796.32
459.29	7470.99
459.48	7667.60
459.66	7700.36
459.84	7691.00
460.03	7943.78
460.21	7723.77
460.39	7691.00
460.57	7761.22
460.76	7751.85
460.94	7918.03
461.12	7955.48
461.31	7955.48
461.49	8016.33
461.67	8002.29
461.85	8072.51
462.04	8025.70
462.22	8592.11
462.40	8187.19
462.59	8018.68
462.77	8025.70
462.95	8285.50
463.13	8212.94
463.32	8231.66
463.50	8149.75
463.68	8222.30
463.86	8299.54
464.05	8149.75
464.23	8381.46
464.41	8262.09
464.59	8341.67
464.78	8648.28
464.96	8365.07
465.14	8365.07
465.32	8538.27
465.50	8613.17
465.69	8601.47
465.87	8461.04
466.05	8531.25
466.23	8505.51
466.41	8613.17
466.60	8767.65
466.78	8381.46
466.96	8540.61
467.14	8299.54
467.32	8479.76
467.51	9001.70
467.69	8435.29
467.87	8526.57
468.05	8861.27
468.23	8720.84
468.41	8669.34
468.60	8690.41
468.78	8805.10
468.96	8624.87
469.14	9006.38
469.32	9100.00
469.50	8795.73
469.69	9039.15
469.87	9116.39
470.05	8917.44
470.23	9132.77
470.41	9170.22
470.59	9158.52
470.77	9142.13
470.95	9081.28
471.14	9378.53
471.32	9282.56
471.50	9497.89
471.68	9643.01
471.86	9439.38
472.04	9540.02
472.22	9776.42
472.40	9504.92
472.58	9661.73
472.77	9565.77
472.95	9664.07
473.13	10054.94
473.31	9905.15
473.49	9743.65
473.67	9727.27
473.85	9743.65
474.03	10052.60
474.21	10193.03
474.39	10375.59
474.57	10246.87
474.75	10059.62
474.93	10314.74
475.12	10324.10
475.30	10249.21
475.48	10363.89
475.66	10436.45
475.84	10483.26
476.02	10775.83
476.20	10628.37
476.38	10747.74
476.56	11061.37
476.74	10895.19
476.92	10899.87
477.10	11103.50
477.28	11136.27
477.46	11131.59
477.64	11309.47
477.82	11283.72
478.00	11599.70
478.18	11669.91
478.36	11442.88
478.54	11824.39
478.72	11740.13
478.90	11997.59
479.08	12018.65
479.26	11992.90
479.44	12332.28
479.62	12257.39
479.80	12472.71
479.98	12547.61
480.16	12641.23
480.34	12739.54
480.52	12741.88
480.70	12706.77
480.88	12566.34
481.06	12734.85
481.24	13025.08
481.41	12999.34
481.59	13076.57
481.77	13317.65
481.95	13219.35
482.13	13348.08
482.31	13703.84
482.49	13741.29
482.67	13872.36
482.85	14139.18
483.03	14111.09
483.21	14181.31
483.39	14356.85
483.57	14207.05
483.74	14253.86
483.92	14370.89
484.10	14375.57
484.28	14743.03
484.46	15157.31
484.64	15016.88
484.82	14801.55
485.00	15005.17
485.18	15304.76
485.35	15442.85
485.53	15131.56
485.71	15630.10
485.89	15676.91
486.07	15611.37
486.25	15676.91
486.43	15845.43
486.61	15805.64
486.78	16004.58
486.96	16343.96
487.14	16484.39
487.32	16531.20
487.50	16772.28
487.68	16699.72
487.85	17350.39
488.03	17158.47
488.21	17544.66
488.39	17109.32
488.57	17848.93
488.75	17834.88
488.92	18150.85
489.10	17912.12
489.28	17914.46
489.46	18045.53
489.64	18185.96
489.81	18654.07
489.99	18457.46
490.17	18838.97
490.35	19021.53
490.53	18869.40
490.70	18946.64
490.88	19161.97
491.06	19501.34
491.24	19393.68
491.41	19391.34
491.59	19616.03
491.77	19644.12
491.95	19927.32
492.13	20067.75
492.30	20231.59
492.48	20322.87
492.66	20044.35
492.84	20400.11
493.01	20711.40
493.19	20837.79
493.37	20929.07
493.54	20746.51
493.72	21139.72
493.90	21483.78
494.08	21231.00
494.25	21626.55
494.43	21671.02
494.61	21909.75
494.79	22160.19
494.96	22139.13
495.14	22026.78
495.32	22338.07
495.49	22342.75
495.67	22405.95
495.85	22307.65
496.02	22675.11
496.20	22752.35
496.38	22817.88
496.55	23014.49
496.73	23627.71
496.91	23403.02
497.09	23330.46
497.26	23534.09
497.44	23197.05
497.62	23381.95
497.79	23812.61
497.97	23857.08
498.14	23852.40
498.32	24449.24
498.50	24084.11
498.67	24463.28
498.85	24409.45
499.03	24599.03
499.20	24940.75
499.38	25020.33
499.56	24601.37
499.73	24629.46
499.91	24795.64
500.08	25184.16
500.26	24870.53
500.44	25041.39
500.61	25135.01
500.79	24907.98
500.97	25479.07
501.14	25560.99
501.32	25605.46
501.49	25689.72
501.67	25872.28
501.84	26052.50
502.02	25598.44
502.20	26089.95
502.37	26073.57
502.55	26019.74
502.72	26356.77
502.90	26345.07
503.07	26288.90
503.25	26249.11
503.43	27077.66
503.60	26649.34
503.78	26642.32
503.95	26455.08
504.13	27241.50
504.30	26600.19
504.48	27042.55
504.65	27276.60
504.83	27363.20
505.01	27297.67
505.18	27470.87
505.36	27669.81
505.53	27395.97
505.71	28006.85
505.88	27772.80
506.06	27758.75
506.23	28041.96
506.41	27592.58
506.58	27683.86
506.76	28039.62
506.93	28023.23
507.11	28355.59
507.28	28243.24
507.46	28343.89
507.63	28423.47
507.81	28662.20
507.98	28257.29
508.16	28671.56
508.33	28776.89
508.50	29146.69
508.68	28828.38
508.85	29490.75
509.03	29151.37
509.20	29247.33
509.38	29446.28
509.55	29771.61
509.73	29507.13
509.90	29535.22
510.08	29191.16
510.25	29701.40
510.42	29668.63
510.60	29841.83
510.77	29944.81
510.95	30661.02
511.12	30309.94
511.30	30616.55
511.47	30572.08
511.64	30782.73
511.82	30948.90
511.99	30412.92
512.17	30522.93
512.34	30579.10
512.51	31049.55
512.69	30909.11
512.86	30967.63
513.04	31442.76
513.21	31260.20
513.38	31096.36
513.56	31023.80
513.73	30752.30
513.90	31592.55
514.08	31484.89
514.25	31541.06
514.43	31550.42
514.60	31484.89
514.77	31510.63
514.95	31899.16
515.12	31655.75
515.29	31842.99
515.47	31999.80
515.64	32355.57
515.81	32275.99
515.99	32023.21
516.16	31910.86
516.33	32051.30
516.51	32046.62
516.68	32215.13
516.85	31896.82
517.03	32563.87
517.20	32566.21
517.37	32716.01
517.54	32610.68
517.72	33031.98
517.89	32629.41
518.06	32664.52
518.24	32781.54
518.41	32547.49
518.58	32938.36
518.75	32917.29
518.93	33195.82
519.10	33343.27
519.27	33392.42
519.45	33656.90
519.62	33638.18
519.79	33799.68
519.96	34022.03
520.14	34012.66
520.31	33745.84
520.48	33710.74
520.65	33951.81
520.83	34113.31
521.00	34352.04
521.17	34270.12
521.34	34277.15
521.52	34265.44
521.69	34539.29
521.86	34986.33
522.03	34707.80
522.20	34455.03
522.38	34747.59
522.55	34801.43
522.72	34539.29
522.89	34394.17
523.07	34946.54
523.24	34780.36
523.41	35042.50
523.58	35117.40
523.75	35564.44
523.92	35463.80
524.10	35409.96
524.27	35328.05
524.44	35646.36
524.61	36027.87
524.78	35679.13
524.96	35747.00
525.13	36039.57
525.30	35995.10
525.47	36004.46
525.64	36023.19
525.81	36582.57
525.98	35999.78
526.16	35728.28
526.33	35538.69
526.50	36086.38
526.67	35737.64
526.84	35840.62
527.01	36187.02
527.18	36271.28
527.36	36355.54
527.53	36400.01
527.70	36814.29
527.87	36680.88
528.04	36327.45
528.21	36676.19
528.38	36774.50
528.55	36793.22
528.72	37050.68
528.89	37191.11
529.07	37104.51
529.24	36961.74
529.41	37076.43
529.58	36964.08
529.75	37305.80
529.92	37532.83
530.09	36847.05
530.26	37521.13
530.43	37612.41
530.60	37230.90
530.77	37376.01
530.94	37469.64
531.11	37619.43
531.28	37659.22
531.46	38012.64
531.63	37467.30
531.80	37771.57
531.97	38000.94
532.14	38291.16
532.31	37687.31
532.48	37549.21
532.65	38106.26
532.82	37933.06
532.99	38167.12
533.16	37661.56
533.33	37888.59
533.50	38146.05
533.67	38445.64
533.84	37691.99
534.01	38450.32
534.18	38085.20
534.35	38295.85
534.52	38534.58
534.69	38775.66
534.86	38904.38
535.03	38710.12
535.20	38707.78
535.37	38822.47
535.54	39028.43
535.71	38899.70
535.88	38562.67
536.05	39206.31
536.22	39133.76
536.38	39171.21
536.55	39206.31
536.72	39826.56
536.89	38663.31
537.06	39358.45
537.23	39330.36
537.40	39213.34
537.57	39395.90
537.74	38911.41
537.91	39449.73
538.08	39496.54
538.25	39346.75
538.42	39662.72
538.59	39643.99
538.75	39501.22
538.92	39742.30
539.09	39679.10
539.26	39615.91
539.43	39812.51
539.60	40058.27
539.77	39824.22
539.94	39821.87
540.11	39681.44
540.28	39800.81
540.44	39941.24
540.61	39866.34
540.78	39676.76
540.95	40179.98
541.12	39625.27
541.29	40182.32
541.46	40039.54
541.62	40233.81
541.79	40297.00
541.96	40058.27
542.13	40133.17
542.30	40713.62
542.47	40362.54
542.63	40084.01
542.80	40392.97
542.97	40666.81
543.14	41163.00
543.31	41148.96
543.48	41331.52
543.64	41436.84
543.81	41041.29
543.98	41177.04
544.15	40692.55
544.32	41425.14
544.48	41682.60
544.65	41359.61
544.82	41738.77
544.99	41195.77
545.16	41673.24
545.32	41277.69
545.49	41853.46
545.66	41443.87
545.83	41469.61
546.00	42078.15
546.16	41813.67
546.33	41221.52
546.50	41591.32
546.67	41883.89
546.83	41696.64
547.00	41661.54
547.17	41848.78
547.34	41773.88
547.50	41918.99
547.67	42232.63
547.84	42003.25
548.00	42494.77
548.17	42040.70
548.34	41684.94
548.51	42501.79
548.67	42337.95
548.84	42574.34
549.01	42305.18
549.18	42073.47
549.34	42153.05
549.51	42464.34
549.68	42611.79
549.84	42419.87
550.01	42740.52
550.18	41841.76
550.34	42316.89
550.51	42227.95
550.68	42246.67
550.84	42316.89
551.01	42567.32
551.18	42583.71
551.34	42462.00
551.51	42267.73
551.68	42263.05
551.84	42511.15
552.01	42483.06
552.18	42799.04
552.34	42677.33
552.51	42714.78
552.68	42616.47
552.84	43136.07
553.01	43283.53
553.18	43274.16
553.34	42962.87
553.51	42653.92
553.67	42948.83
553.84	43349.06
554.01	43533.96
554.17	43409.92
554.34	43662.69
554.51	42796.70
554.67	43421.62
554.84	43199.27
555.00	43014.37
555.17	43072.88
555.33	43339.70
555.50	43524.60
555.67	43194.59
555.83	43964.62
556.00	43592.48
556.16	44072.29
556.33	43587.80
556.50	43161.82
556.66	43552.69
556.83	43498.86
556.99	43377.15
557.16	43665.03
557.32	43555.03
557.49	44261.87
557.65	43456.73
557.82	43571.41
557.98	43384.17
558.15	43627.59
558.32	44151.87
558.48	43723.55
558.65	43868.66
558.81	43885.04
558.98	43775.04
559.14	43423.96
559.31	43683.76
559.47	43845.26
559.64	44320.38
559.80	43899.09
559.97	44091.01
560.13	43885.04
560.30	43880.36
560.46	44231.44
560.63	44116.76
560.79	44369.54
560.96	44147.18
561.12	43931.86
561.29	44493.58
561.45	44025.48
561.61	44236.12
561.78	44271.23
561.94	43983.35
562.11	44100.37
562.27	44156.55
562.44	44257.19
562.60	44278.25
562.77	44381.24
562.93	44318.04
563.10	44512.31
563.26	43697.80
563.42	44105.06
563.59	44240.81
563.75	44708.91
563.92	44528.69
564.08	44194.00
564.24	44769.77
564.41	44336.77
564.57	44568.48
564.74	44739.34
564.90	44783.81
565.07	44610.61
565.23	44678.49
565.39	44514.65
565.56	44205.70
565.72	44512.31
565.88	44648.06
566.05	44582.52
566.21	44577.84
566.38	44500.61
566.54	44435.07
566.70	44891.48
566.87	44900.84
567.03	44928.92
567.19	44926.58
567.36	44891.48
567.52	44418.69
567.68	44980.42
567.85	44636.36
568.01	44299.32
568.17	44467.84
568.34	44271.23
568.50	44713.59
568.66	44680.83
568.83	44322.72
568.99	44760.40
569.15	44472.52
569.32	44465.50
569.48	44744.02
569.64	44779.13
569.81	44669.12
569.97	44608.27
570.13	44568.48
570.30	44526.35
570.46	44671.46
570.62	44467.84
570.78	44568.48
570.95	44463.16
571.11	45125.53
571.27	44631.68
571.43	44655.08
571.60	44973.39
571.76	44671.46
571.92	44891.48
572.09	44919.56
572.25	44973.39
572.41	45067.02
572.57	45109.14
572.74	45488.31
572.90	45308.09
573.06	44875.09
573.22	45071.70
573.38	44467.84
573.55	44704.23
573.71	44992.12
573.87	44849.35
574.03	44814.24
574.20	45172.34
574.36	44987.44
574.52	45340.86
574.68	44591.89
574.84	45518.74
575.01	44762.75
575.17	44753.38
575.33	44882.11
575.49	44875.09
575.65	45453.20
575.82	44839.98
575.98	44769.77
576.14	44818.92
576.30	44999.14
576.46	45223.83
576.62	45207.45
576.79	44662.10
576.95	44900.84
577.11	44741.68
577.27	45226.17
577.43	45366.60
577.59	44612.95
577.75	44973.39
577.92	44591.89
578.08	44636.36
578.24	45029.57
578.40	44910.20
578.56	44914.88
578.72	45191.06
578.88	45446.18
579.04	44954.67
579.21	44484.22
579.37	44488.90
579.53	44832.96
579.69	44959.35
579.85	45441.50
580.01	44914.88
580.17	45268.30
580.33	44891.48
580.49	45088.08
580.65	45385.33
580.82	44924.24
580.98	44994.46
581.14	45148.93
581.30	44854.03
581.46	45216.81
581.62	45591.30
581.78	44971.05
581.94	45322.13
582.10	45235.53
582.26	45296.39
582.42	45162.98
582.58	45165.32
582.74	44933.60
582.90	45153.62
583.06	45422.78
583.22	45670.87
583.38	45336.18
583.54	45242.56
583.70	44968.71
583.86	45228.51
584.02	45104.46
584.18	45230.85
584.34	45078.72
584.50	44994.46
584.66	45542.14
584.82	44914.88
584.98	45193.40
585.14	45247.24
585.30	45228.51
585.46	45418.10
585.62	45282.34
585.78	44940.63
585.94	44926.58
586.10	44858.71
586.26	45076.38
586.42	45565.55
586.58	45188.72
586.74	45090.42
586.90	45109.14
587.06	44987.44
587.22	45221.49
587.38	45088.08
587.54	45106.80
587.70	45422.78
587.86	45024.89
588.02	45359.58
588.18	45663.85
588.34	45591.30
588.49	45031.91
588.65	44624.65
588.81	44989.78
588.97	44978.07
589.13	44847.00
589.29	45104.46
589.45	45265.96
589.61	45420.44
589.77	45443.84
589.93	45368.94
590.08	45492.99
