SpectraSuite Data File
++++++++++++++++++++++++++++++++++++
Date: Fri Oct 25 10:47:45 EDT 2013
User: price-jones
Dark Spectrum Present: No
Reference Spectrum Present: No
Number of Sampled Component Spectra: 1
Spectrometers: USB2+H05261
Integration Time (usec): 100000 (USB2+H05261)
Spectra Averaged: 1 (USB2+H05261)
Boxcar Smoothing: 0 (USB2+H05261)
Correct for Electrical Dark: No (USB2+H05261)
Strobe/Lamp Enabled: No (USB2+H05261)
Correct for Detector Non-linearity: No (USB2+H05261)
Correct for Stray Light: No (USB2+H05261)
Number of Pixels in Processed Spectrum: 2048
>>>>>Begin Processed Spectral Data<<<<<
365.73	135.75
365.92	135.75
366.12	135.75
366.32	51.49
366.52	35.11
366.72	86.60
366.91	93.62
367.11	28.09
367.31	65.54
367.51	0.00
367.70	53.83
367.90	65.54
368.10	16.38
368.30	63.19
368.49	102.98
368.69	21.06
368.89	79.58
369.09	49.15
369.28	51.49
369.48	42.13
369.68	77.24
369.87	51.49
370.07	131.07
370.27	173.20
370.47	222.35
370.66	400.23
370.86	388.53
371.06	451.72
371.25	489.17
371.45	533.64
371.65	435.34
371.84	470.45
372.04	479.81
372.24	507.90
372.44	470.45
372.63	458.74
372.83	416.62
373.03	524.28
373.22	437.68
373.42	512.58
373.62	545.34
373.81	535.98
374.01	596.84
374.21	531.30
374.40	538.32
374.60	550.03
374.79	517.26
374.99	601.52
375.19	554.71
375.38	510.24
375.58	552.37
375.78	582.79
375.97	533.64
376.17	622.58
376.37	554.71
376.56	608.54
376.76	596.84
376.95	573.43
377.15	629.60
377.35	622.58
377.54	580.45
377.74	564.07
377.93	606.20
378.13	610.88
378.33	638.97
378.52	645.99
378.72	645.99
378.91	624.92
379.11	589.82
379.31	636.63
379.50	664.71
379.70	564.07
379.89	620.24
380.09	674.07
380.28	650.67
380.48	631.94
380.68	601.52
380.87	596.84
381.07	636.63
381.26	685.78
381.46	660.03
381.65	704.50
381.85	645.99
382.04	739.61
382.24	732.59
382.43	683.44
382.63	603.86
382.83	732.59
383.02	751.31
383.22	755.99
383.41	706.84
383.61	704.50
383.80	751.31
384.00	685.78
384.19	713.86
384.39	809.83
384.58	751.31
384.78	753.65
384.97	706.84
385.17	755.99
385.36	763.01
385.56	737.27
385.75	746.63
385.95	788.76
386.14	791.10
386.34	842.59
386.53	819.19
386.72	833.23
386.92	861.32
387.11	809.83
387.31	847.27
387.50	770.04
387.70	826.21
387.89	870.68
388.09	812.17
388.28	809.83
388.48	828.55
388.67	940.90
388.86	835.57
389.06	875.36
389.25	896.43
389.45	931.53
389.64	908.13
389.84	959.62
390.03	940.90
390.22	945.58
390.42	840.25
390.61	985.37
390.81	844.93
391.00	966.64
391.19	978.34
391.39	950.26
391.58	933.87
391.78	1018.13
391.97	964.30
392.16	908.13
392.36	1027.50
392.55	1029.84
392.75	938.55
392.94	1029.84
393.13	1022.81
393.33	952.60
393.52	999.41
393.71	940.90
393.91	1029.84
394.10	1029.84
394.29	1057.92
394.49	1034.52
394.68	1097.71
394.88	1090.69
395.07	1055.58
395.26	1151.54
395.46	1146.86
395.65	1128.14
395.84	1163.25
396.04	1181.97
396.23	1144.52
396.42	1130.48
396.62	1111.75
396.81	1172.61
397.00	1191.33
397.19	1151.54
397.39	1181.97
397.58	1191.33
397.77	1287.29
397.97	1128.14
398.16	1256.87
398.35	1320.06
398.55	1247.51
398.74	1343.47
398.93	1313.04
399.12	1441.77
399.32	1294.32
399.51	1399.64
399.70	1301.34
399.90	1437.09
400.09	1310.70
400.28	1420.71
400.47	1437.09
400.67	1493.26
400.86	1589.22
401.05	1437.09
401.24	1406.66
401.44	1359.85
401.63	1514.33
401.82	1401.98
402.01	1504.96
402.21	1549.43
402.40	1455.81
402.59	1547.09
402.78	1579.86
402.97	1439.43
403.17	1605.61
403.36	1549.43
403.55	1629.01
403.74	1673.48
403.93	1703.91
404.13	1722.63
404.32	1727.32
404.51	1715.61
404.70	1591.56
404.89	1650.08
405.09	1785.83
405.28	1708.59
405.47	1699.23
405.66	1785.83
405.85	1797.53
406.05	1743.70
406.24	1753.06
406.43	1839.66
406.62	1893.49
406.81	1933.28
407.00	1823.28
407.20	1720.29
407.39	1898.17
407.58	1809.23
407.77	1874.77
407.96	1928.60
408.15	2019.88
408.34	1944.99
408.54	1952.01
408.73	1980.09
408.92	1982.43
409.11	2101.80
409.30	2001.16
409.49	1961.37
409.68	1961.37
409.87	2040.95
410.07	2092.44
410.26	2127.55
410.45	2118.18
410.64	1996.48
410.83	2204.78
411.02	2272.66
411.21	2272.66
411.40	2387.35
411.59	2352.24
411.78	2312.45
411.98	2209.47
412.17	2300.75
412.36	2307.77
412.55	2387.35
412.74	2448.20
412.93	2349.90
413.12	2356.92
413.31	2532.46
413.50	2452.88
413.69	2452.88
413.88	2562.89
414.07	2647.15
414.26	2600.34
414.45	2640.12
414.64	2640.12
414.83	2663.53
415.02	2649.49
415.22	2715.02
415.41	2773.53
415.60	2787.58
415.79	2829.71
415.98	2771.19
416.17	2949.08
416.36	2906.95
416.55	2883.54
416.74	2902.26
416.93	2825.03
417.12	2925.67
417.31	2958.44
417.50	2963.12
417.69	3096.53
417.88	3040.36
418.07	2848.43
418.26	3056.74
418.45	3012.27
418.64	3145.68
418.83	3136.32
419.02	3178.45
419.21	3138.66
419.39	3236.96
419.58	3246.32
419.77	3150.36
419.96	3229.94
420.15	3318.88
420.34	3377.39
420.53	3428.88
420.72	3318.88
420.91	3346.97
421.10	3361.01
421.29	3396.12
421.48	3337.60
421.67	3377.39
421.86	3431.23
422.05	3382.07
422.24	3508.46
422.43	3332.92
422.61	3475.70
422.80	3520.17
422.99	3555.27
423.18	3611.45
423.37	3447.61
423.56	3478.04
423.75	3353.99
423.94	3543.57
424.13	3342.28
424.32	3372.71
424.50	3499.10
424.69	3695.71
424.88	3545.91
425.07	3473.36
425.26	3543.57
425.45	3536.55
425.64	3559.95
425.83	3459.31
426.01	3730.81
426.20	3583.36
426.39	3520.17
426.58	3524.85
426.77	3543.57
426.96	3751.88
427.15	3447.61
427.33	3688.68
427.52	3684.00
427.71	3702.73
427.90	3775.28
428.09	3639.53
428.28	3758.90
428.46	3765.92
428.65	3866.56
428.84	3777.62
429.03	3927.42
429.22	3782.31
429.40	3777.62
429.59	3950.82
429.78	3613.79
429.97	3585.70
430.16	3700.39
430.34	3878.27
430.53	3882.95
430.72	3901.67
430.91	3896.99
431.10	3847.84
431.28	4070.19
431.47	4063.17
431.66	4161.47
431.85	4109.98
432.03	4140.41
432.22	4124.02
432.41	3978.91
432.60	4084.23
432.79	4222.33
432.97	4217.65
433.16	4344.03
433.35	4072.53
433.54	4219.99
433.72	4255.09
433.91	4184.88
434.10	4318.29
434.28	4175.52
434.47	4322.97
434.66	4449.36
434.85	4379.14
435.03	4381.48
435.22	4390.84
435.41	4601.49
435.59	4482.13
435.78	4660.01
435.97	4610.86
436.16	4559.36
436.34	4592.13
436.53	4540.64
436.72	4627.24
436.90	4552.34
437.09	4744.27
437.28	4648.30
437.46	4662.35
437.65	4622.56
437.84	4657.67
438.02	4643.62
438.21	4777.03
438.40	4617.88
438.58	4781.71
438.77	4908.10
438.96	4809.80
439.14	4975.98
439.33	4990.02
439.52	5076.62
439.70	5170.24
439.89	4952.57
440.08	5036.83
440.26	5137.48
440.45	5203.01
440.63	5083.64
440.82	5324.72
441.01	5181.95
441.19	5247.48
441.38	5444.09
441.57	5497.92
441.75	5706.23
441.94	5404.30
442.12	5507.28
442.31	5811.55
442.50	5645.37
442.68	5509.62
442.87	5610.26
443.05	5661.76
443.24	5769.42
443.43	5628.99
443.61	5844.32
443.80	5891.13
443.98	5783.46
444.17	5518.98
444.35	5706.23
444.54	6071.35
444.73	5867.72
444.91	5806.87
445.10	5806.87
445.28	5879.43
445.47	5781.12
445.65	5753.04
445.84	5884.11
446.02	5900.49
446.21	5975.39
446.39	6029.22
446.58	5806.87
446.77	5870.06
446.95	5795.17
447.14	6066.67
447.32	6092.41
447.51	6003.47
447.69	5874.74
447.88	6022.20
448.06	5954.32
448.25	6092.41
448.43	6047.94
448.62	5921.56
448.80	5975.39
448.99	6090.07
449.17	6160.29
449.36	6115.82
449.54	6069.01
449.73	6450.52
449.91	6452.86
450.10	6459.88
450.28	6434.13
450.46	6277.32
450.65	6431.79
450.83	6373.28
451.02	6438.81
451.20	6487.96
451.39	6487.96
451.57	6530.09
451.76	6253.91
451.94	6483.28
452.13	6635.42
452.31	6394.34
452.49	6441.15
452.68	6403.71
452.86	6640.10
453.05	6502.01
453.23	6539.46
453.42	6445.84
453.60	6619.04
453.78	6604.99
453.97	6469.24
454.15	6621.38
454.34	6771.17
454.52	6731.38
454.70	6899.90
454.89	6738.40
455.07	6993.52
455.26	6752.45
455.44	7019.27
455.62	6930.33
455.81	6867.13
455.99	6935.01
456.17	6927.99
456.36	7009.90
456.54	7002.88
456.73	7314.17
456.91	7283.75
457.09	7073.10
457.28	7485.03
457.46	7232.26
457.64	7442.90
457.83	7232.26
458.01	7101.19
458.19	7459.29
458.38	7185.44
458.56	7311.83
458.74	7421.84
458.93	7218.21
459.11	7452.27
459.29	7398.43
459.48	7360.98
459.66	7368.01
459.84	7463.97
460.03	7632.49
460.21	7529.50
460.39	7410.14
460.57	7492.05
460.76	7595.04
460.94	7679.30
461.12	7623.12
461.31	7829.09
461.49	7723.77
461.67	7716.75
461.85	7995.27
462.04	7789.30
462.22	8329.97
462.40	8021.02
462.59	7906.33
462.77	7894.63
462.95	8016.33
463.13	7969.52
463.32	7817.39
463.50	8121.66
463.68	8077.19
463.86	8039.74
464.05	7978.89
464.23	8023.36
464.41	8121.66
464.59	8004.63
464.78	8086.55
464.96	8285.50
465.14	8138.04
465.32	8346.35
465.50	8262.09
465.69	8402.52
465.87	8336.99
466.05	8411.89
466.23	8407.20
466.41	8292.52
466.60	8493.80
466.78	8159.11
466.96	8341.67
467.14	8400.18
467.32	8376.78
467.51	8519.55
467.69	8266.77
467.87	8573.38
468.05	8589.77
468.23	8566.36
468.41	8571.04
468.60	8346.35
468.78	8571.04
468.96	8552.32
469.14	8638.92
469.32	8720.84
469.50	8779.35
469.69	8826.16
469.87	8823.82
470.05	8898.72
470.23	8922.12
470.41	8997.02
470.59	9036.81
470.77	8992.34
470.95	9020.42
471.14	9198.31
471.32	9046.17
471.50	9210.01
471.68	9191.28
471.86	9212.35
472.04	9310.65
472.22	9621.94
472.40	9263.84
472.58	9530.66
472.77	9362.14
472.95	9614.92
473.13	9977.70
473.31	9558.75
473.49	9509.60
473.67	9547.05
473.85	9509.60
474.03	9961.32
474.21	9750.67
474.39	9942.60
474.57	10026.86
474.75	10181.33
474.93	9987.07
475.12	10235.16
475.30	10204.74
475.48	10202.40
475.66	10073.67
475.84	10141.54
476.02	10347.51
476.20	10501.98
476.38	10389.64
476.56	10916.26
476.74	10721.99
476.92	10691.57
477.10	10537.09
477.28	10827.32
477.46	10920.94
477.64	10998.18
477.82	11185.42
478.00	11407.77
478.18	11197.12
478.36	11274.36
478.54	11377.34
478.72	11496.71
478.90	11761.19
479.08	11735.45
479.26	11749.49
479.44	11887.58
479.62	12105.25
479.80	12084.19
479.98	12091.21
480.16	12542.93
480.34	12404.84
480.52	12482.08
480.70	12580.38
480.88	12252.70
481.06	12468.03
481.24	12531.23
481.41	12879.97
481.59	13041.46
481.77	13165.51
481.95	13259.13
482.13	13111.68
482.31	13179.56
482.49	13518.93
482.67	13504.89
482.85	13415.95
483.03	13844.27
483.21	13834.91
483.39	13764.69
483.57	13991.72
483.74	14111.09
483.92	14239.82
484.10	14230.46
484.28	14623.67
484.46	14593.24
484.64	14998.15
484.82	14693.88
485.00	14768.78
485.18	14885.81
485.35	15047.30
485.53	14792.19
485.71	15143.27
485.89	15264.97
486.07	15309.44
486.25	15288.38
486.43	15517.75
486.61	15569.24
486.78	15878.19
486.96	16056.08
487.14	16039.69
487.32	16451.63
487.50	16603.76
487.68	16521.84
487.85	16709.08
488.03	16767.60
488.21	17106.98
488.39	16812.07
488.57	17266.13
488.75	17296.56
488.92	17598.49
489.10	17638.28
489.28	17486.14
489.46	17949.57
489.64	17928.50
489.81	18064.25
489.99	18391.93
490.17	18583.85
490.35	18586.19
490.53	18462.15
490.70	18745.35
490.88	19077.71
491.06	18848.33
491.24	19005.15
491.41	18750.03
491.59	19337.51
491.77	18995.79
491.95	19332.82
492.13	19686.25
492.30	19719.01
492.48	19765.82
492.66	20034.99
492.84	19915.62
493.01	20306.49
493.19	20156.69
493.37	20615.44
493.54	20762.89
493.72	20950.14
493.90	20992.26
494.08	20875.24
494.25	20971.20
494.43	21249.72
494.61	21130.36
494.79	21319.94
494.96	21422.92
495.14	21465.05
495.32	21837.20
495.49	21778.68
495.67	21834.86
495.85	21919.12
496.02	22373.18
496.20	22417.65
496.38	22436.38
496.55	22551.06
496.73	23014.49
496.91	22703.20
497.09	22972.36
497.26	22773.41
497.44	22815.54
497.62	23026.19
497.79	23183.01
497.97	23346.84
498.14	23285.99
498.32	23372.59
498.50	23590.26
498.67	23789.20
498.85	23948.36
499.03	24114.54
499.20	24271.36
499.38	23913.25
499.56	24381.36
499.73	24673.93
499.91	24467.96
500.08	24458.60
500.26	24662.22
500.44	24552.22
500.61	24863.51
500.79	24683.29
500.97	25076.50
501.14	25352.68
501.32	25446.30
501.49	25153.74
501.67	25329.28
501.84	25242.68
502.02	25551.63
502.20	25483.75
502.37	25628.87
502.55	25268.42
502.72	25865.26
502.90	25647.59
503.07	25818.45
503.25	26005.69
503.43	25703.76
503.60	26230.38
503.78	26106.34
503.95	25923.77
504.13	26466.78
504.30	26377.84
504.48	26139.10
504.65	26642.32
504.83	26923.18
505.01	27229.79
505.18	26679.77
505.36	27094.04
505.53	27271.92
505.71	27208.73
505.88	27110.43
506.06	27421.72
506.23	27393.63
506.41	27297.67
506.58	27365.54
506.76	27599.60
506.93	27763.43
507.11	27852.38
507.28	27948.34
507.46	27725.99
507.63	27854.72
507.81	27833.65
507.98	28034.94
508.16	28264.31
508.33	28458.57
508.50	28481.98
508.68	28477.30
508.85	29186.48
509.03	28694.97
509.20	29226.27
509.38	29109.24
509.55	29003.92
509.73	29244.99
509.90	29067.11
510.08	28657.52
510.25	28980.51
510.42	29312.87
510.60	29600.76
510.77	29633.52
510.95	29457.98
511.12	29455.64
511.30	29797.36
511.47	30394.20
511.64	30192.91
511.82	30228.02
511.99	29902.68
512.17	30202.27
512.34	30036.09
512.51	30160.14
512.69	30384.83
512.86	30298.23
513.04	30717.19
513.21	30541.65
513.38	30478.46
513.56	30710.17
513.73	30487.82
513.90	30822.51
514.08	30822.51
514.25	31012.10
514.43	31140.83
514.60	30888.05
514.77	31241.47
514.95	31660.43
515.12	31307.01
515.29	31550.42
515.47	31658.09
515.64	31592.55
515.81	31669.79
515.99	31356.16
516.16	31665.11
516.33	31578.51
516.51	32079.38
516.68	31433.39
516.85	31566.81
517.03	31515.31
517.20	31988.10
517.37	32126.19
517.54	32044.27
517.72	32327.48
517.89	31676.81
518.06	31906.18
518.24	32004.49
518.41	32327.48
518.58	32390.67
518.75	32615.37
518.93	32865.80
519.10	32526.42
519.27	32837.72
519.45	32790.91
519.62	32903.25
519.79	32840.06
519.96	32816.65
520.14	33287.10
520.31	33193.48
520.48	33500.09
520.65	33628.82
520.83	33975.22
521.00	33813.72
521.17	33401.79
521.34	33582.01
521.52	33600.73
521.69	34209.27
521.86	34237.36
522.03	34110.97
522.20	33663.93
522.38	33972.88
522.55	34529.92
522.72	34206.93
522.89	34132.03
523.07	34548.65
523.24	34499.50
523.41	34298.21
523.58	34370.77
523.75	34560.35
523.92	34756.96
524.10	34497.16
524.27	35159.53
524.44	35283.58
524.61	35166.55
524.78	35101.01
524.96	35316.34
525.13	35157.19
525.30	35328.05
525.47	36032.55
525.64	35175.91
525.81	35372.52
525.98	35342.09
526.16	35321.02
526.33	35386.56
526.50	35739.98
526.67	35360.81
526.84	35236.77
527.01	35325.71
527.18	35805.52
527.36	35917.86
527.53	36273.62
527.70	36034.89
527.87	36378.95
528.04	35934.24
528.21	36353.20
528.38	36229.15
528.55	36327.45
528.72	36191.70
528.89	36610.66
529.07	36315.75
529.24	36161.28
529.41	36605.98
529.58	36285.33
529.75	36268.94
529.92	37022.59
530.09	36297.03
530.26	37170.05
530.43	36910.25
530.60	36655.13
530.77	36856.42
530.94	37280.05
531.11	37027.28
531.28	37064.72
531.46	37504.74
531.63	37046.00
531.80	37422.83
531.97	37174.73
532.14	37223.88
532.31	36858.76
532.48	37897.95
532.65	37504.74
532.82	37483.68
532.99	37780.93
533.16	37277.71
533.33	37331.54
533.50	37823.06
533.67	37773.91
533.84	37270.69
534.01	38057.11
534.18	37811.35
534.35	38246.69
534.52	37755.18
534.69	38225.63
534.86	37752.84
535.03	37944.76
535.20	38085.20
535.37	38553.30
535.54	38649.27
535.71	38628.20
535.88	38080.52
536.05	38253.72
536.22	38529.90
536.38	38527.56
536.55	38724.16
536.72	38429.26
536.89	38689.06
537.06	38667.99
537.23	38981.62
537.40	38597.77
537.57	38562.67
537.74	38953.54
537.91	38944.17
538.08	38565.01
538.25	38745.23
538.42	39138.44
538.59	38902.04
538.75	38831.83
538.92	39257.81
539.09	39196.95
539.26	39548.03
539.43	39220.36
539.60	39587.82
539.77	39405.26
539.94	39215.68
540.11	39440.37
540.28	39435.69
540.44	39686.12
540.61	39271.85
540.78	39597.18
540.95	39505.90
541.12	39447.39
541.29	39440.37
541.46	39440.37
541.62	39723.57
541.79	40130.83
541.96	39763.36
542.13	39194.61
542.30	39887.41
542.47	39784.43
542.63	39761.02
542.80	40187.00
542.97	40442.12
543.14	40795.54
543.31	40343.81
543.48	40294.66
543.64	40854.05
543.81	40854.05
543.98	40655.11
544.15	40730.00
544.32	40928.95
544.48	40954.69
544.65	40788.52
544.82	40884.48
544.99	40264.24
545.16	40346.15
545.32	40643.40
545.49	41081.08
545.66	41392.37
545.83	41053.00
546.00	41141.94
546.16	40987.46
546.33	40893.84
546.50	40788.52
546.67	40989.80
546.83	40741.71
547.00	41017.89
547.17	41106.83
547.34	40980.44
547.50	41251.94
547.67	41659.20
547.84	41413.44
548.00	41867.50
548.17	41757.50
548.34	41303.43
548.51	41940.06
548.67	41895.59
548.84	41968.15
549.01	41598.34
549.18	41591.32
549.34	41890.91
549.51	41848.78
549.68	41668.56
549.84	42124.96
550.01	42080.49
550.18	41628.77
550.34	41706.01
550.51	41914.31
550.68	42024.32
550.84	41752.82
551.01	41839.42
551.18	42124.96
551.34	41993.89
551.51	41977.51
551.68	41841.76
551.84	42321.57
552.01	41755.16
552.18	42426.89
552.34	41951.76
552.51	42462.00
552.68	42335.61
552.84	42216.24
553.01	42412.85
553.18	42611.79
553.34	42560.30
553.51	42499.45
553.67	42494.77
553.84	43143.09
554.01	42983.94
554.17	42824.78
554.34	42684.35
554.51	42911.38
554.67	43079.90
554.84	42724.14
555.00	42721.80
555.17	42508.81
555.33	42958.19
555.50	43014.37
555.67	42763.93
555.83	42623.50
556.00	42880.95
556.16	43227.35
556.33	43105.65
556.50	42628.18
556.66	43241.40
556.83	43033.09
556.99	43426.30
557.16	42885.64
557.32	42836.48
557.49	43063.52
557.65	42555.62
557.82	43276.51
557.98	43407.58
558.15	43082.24
558.32	43257.78
558.48	43147.78
558.65	43210.97
558.81	43416.94
558.98	43414.60
559.14	43463.75
559.31	43065.86
559.47	43533.96
559.64	43227.35
559.80	43653.33
559.97	43618.22
560.13	43569.07
560.30	43157.14
560.46	43536.30
560.63	43278.85
560.79	43620.56
560.96	44030.16
561.12	43686.10
561.29	43540.99
561.45	44091.01
561.61	43648.65
561.78	43990.37
561.94	43543.33
562.11	43819.51
562.27	43496.52
562.44	43545.67
562.60	43824.19
562.77	43643.97
562.93	43798.44
563.10	43966.96
563.26	43536.30
563.42	43983.35
563.59	44186.97
563.75	43505.88
563.92	43548.01
564.08	43505.88
564.24	44348.47
564.41	44114.42
564.57	43894.41
564.74	44030.16
564.90	43866.32
565.07	43988.03
565.23	43601.84
565.39	44299.32
565.56	44175.27
565.72	43557.37
565.88	44100.37
566.05	44123.78
566.21	44294.64
566.38	44004.41
566.54	44275.91
566.70	44229.10
566.87	44472.52
567.03	44322.72
567.19	44397.62
567.36	44254.85
567.52	44030.16
567.68	44538.05
567.85	44247.83
568.01	44222.08
568.17	44168.25
568.34	44217.40
568.50	44016.11
568.66	44516.99
568.83	44186.97
568.99	43885.04
569.15	44385.92
569.32	44060.58
569.48	43838.23
569.64	44509.97
569.81	44076.97
569.97	44165.91
570.13	44119.10
570.30	44011.43
570.46	44467.84
570.62	44130.80
570.78	44374.22
570.95	44233.78
571.11	44507.63
571.27	44329.75
571.43	44240.81
571.60	44259.53
571.76	44189.31
571.92	44186.97
572.09	44086.33
572.25	44821.26
572.41	44332.09
572.57	44800.19
572.74	44830.62
572.90	44486.56
573.06	44636.36
573.22	44374.22
573.38	44306.34
573.55	44315.70
573.71	44416.35
573.87	44435.07
574.03	44088.67
574.20	44355.49
574.36	44444.43
574.52	44350.81
574.68	44711.25
574.84	44229.10
575.01	44938.29
575.17	44648.06
575.33	44156.55
575.49	44275.91
575.65	44886.79
575.82	44870.41
575.98	44470.18
576.14	44818.92
576.30	44760.40
576.46	44652.74
576.62	44425.71
576.79	44755.72
576.95	44369.54
577.11	44524.01
577.27	44495.92
577.43	44905.52
577.59	43959.94
577.75	44425.71
577.92	44608.27
578.08	44524.01
578.24	44165.91
578.40	44402.30
578.56	44737.00
578.72	44296.98
578.88	44662.10
579.04	44751.04
579.21	44542.74
579.37	44311.02
579.53	44215.06
579.69	44673.81
579.85	44596.57
580.01	44795.51
580.17	44418.69
580.33	44828.28
580.49	44900.84
580.65	44524.01
580.82	44959.35
580.98	44727.64
581.14	44584.86
581.30	44921.90
581.46	44430.39
581.62	44713.59
581.78	45076.38
581.94	45104.46
582.10	44591.89
582.26	44776.79
582.42	44524.01
582.58	44952.33
582.74	44339.11
582.90	44608.27
583.06	45308.09
583.22	45010.84
583.38	44828.28
583.54	44666.78
583.70	44500.61
583.86	44554.44
584.02	44364.85
584.18	44666.78
584.34	45057.65
584.50	44643.38
584.66	44727.64
584.82	44559.12
584.98	44858.71
585.14	44753.38
585.30	44392.94
585.46	44566.14
585.62	44690.19
585.78	44666.78
585.94	44362.51
586.10	44528.69
586.26	44547.42
586.42	44900.84
586.58	44844.66
586.74	45057.65
586.90	44463.16
587.06	44467.84
587.22	44898.50
587.38	44666.78
587.54	45195.74
587.70	45109.14
587.86	45373.63
588.02	44584.86
588.18	45158.30
588.34	44708.91
588.49	44421.03
588.65	44456.14
588.81	44416.35
588.97	44615.29
589.13	44753.38
589.29	44538.05
589.45	44294.64
589.61	44968.71
589.77	44938.29
589.93	44720.62
590.08	45179.36
590.24	44968.71
