SpectraSuite Data File
++++++++++++++++++++++++++++++++++++
Date: Fri Oct 25 11:33:15 EDT 2013
User: price-jones
Dark Spectrum Present: No
Reference Spectrum Present: No
Number of Sampled Component Spectra: 1
Spectrometers: USB2+H05261
Integration Time (usec): 100000 (USB2+H05261)
Spectra Averaged: 1 (USB2+H05261)
Boxcar Smoothing: 0 (USB2+H05261)
Correct for Electrical Dark: No (USB2+H05261)
Strobe/Lamp Enabled: No (USB2+H05261)
Correct for Detector Non-linearity: No (USB2+H05261)
Correct for Stray Light: No (USB2+H05261)
Number of Pixels in Processed Spectrum: 2048
>>>>>Begin Processed Spectral Data<<<<<
365.73	339.38
365.92	339.38
366.12	339.38
366.32	156.82
366.52	168.52
366.72	159.16
366.91	114.69
367.11	142.77
367.31	140.43
367.51	149.79
367.70	184.90
367.90	170.86
368.10	175.54
368.30	156.82
368.49	182.56
368.69	229.37
368.89	205.97
369.09	145.11
369.28	140.43
369.48	278.52
369.68	161.50
369.87	177.88
370.07	262.14
370.27	227.03
370.47	292.57
370.66	442.36
370.86	475.13
371.06	463.43
371.25	575.77
371.45	538.32
371.65	559.39
371.84	524.28
372.04	554.71
372.24	624.92
372.44	587.47
372.63	589.82
372.83	627.26
373.03	641.31
373.22	585.13
373.42	617.90
373.62	664.71
373.81	657.69
374.01	653.01
374.21	667.05
374.40	667.05
374.60	669.39
374.79	641.31
374.99	564.07
375.19	645.99
375.38	716.20
375.58	636.63
375.78	727.91
375.97	636.63
376.17	634.29
376.37	669.39
376.56	699.82
376.76	678.76
376.95	671.73
377.15	667.05
377.35	732.59
377.54	716.20
377.74	664.71
377.93	692.80
378.13	636.63
378.33	723.23
378.52	671.73
378.72	713.86
378.91	725.57
379.11	699.82
379.31	681.10
379.50	699.82
379.70	753.65
379.89	751.31
380.09	725.57
380.28	739.61
380.48	791.10
380.68	725.57
380.87	713.86
381.07	732.59
381.26	706.84
381.46	753.65
381.65	711.52
381.85	812.17
382.04	861.32
382.24	800.46
382.43	830.89
382.63	800.46
382.83	753.65
383.02	805.14
383.22	823.87
383.41	760.67
383.61	793.44
383.80	896.43
384.00	739.61
384.19	779.40
384.39	819.19
384.58	791.10
384.78	891.74
384.97	777.06
385.17	800.46
385.36	791.10
385.56	873.02
385.75	802.80
385.95	873.02
386.14	823.87
386.34	793.44
386.53	844.93
386.72	814.51
386.92	891.74
387.11	901.11
387.31	978.34
387.50	833.23
387.70	774.72
387.89	858.98
388.09	884.72
388.28	814.51
388.48	896.43
388.67	1043.88
388.86	894.08
389.06	868.34
389.25	971.32
389.45	884.72
389.64	924.51
389.84	922.17
390.03	926.85
390.22	938.55
390.42	990.05
390.61	961.96
390.81	985.37
391.00	992.39
391.19	1067.28
391.39	1004.09
391.58	1008.77
391.78	1008.77
391.97	980.68
392.16	936.21
392.36	973.66
392.55	1013.45
392.75	1083.67
392.94	994.73
393.13	1013.45
393.33	1081.33
393.52	1081.33
393.71	1083.67
393.91	1123.46
394.10	1111.75
394.29	1097.71
394.49	1095.37
394.68	1179.63
394.88	1121.12
395.07	1174.95
395.26	1074.31
395.46	1137.50
395.65	1102.39
395.84	1188.99
396.04	1327.08
396.23	1125.80
396.42	1259.21
396.62	1226.44
396.81	1247.51
397.00	1296.66
397.19	1188.99
397.39	1146.86
397.58	1247.51
397.77	1252.19
397.97	1259.21
398.16	1240.48
398.35	1256.87
398.55	1275.59
398.74	1266.23
398.93	1399.64
399.12	1406.66
399.32	1172.61
399.51	1336.45
399.70	1376.24
399.90	1235.80
400.09	1376.24
400.28	1380.92
400.47	1420.71
400.67	1437.09
400.86	1378.58
401.05	1345.81
401.24	1469.86
401.44	1542.41
401.63	1479.22
401.82	1497.94
402.01	1418.36
402.21	1404.32
402.40	1495.60
402.59	1591.56
402.78	1561.14
402.97	1528.37
403.17	1497.94
403.36	1556.46
403.55	1558.80
403.74	1621.99
403.93	1661.78
404.13	1675.82
404.32	1647.74
404.51	1621.99
404.70	1624.33
404.89	1633.69
405.09	1631.35
405.28	1689.87
405.47	1696.89
405.66	1678.16
405.85	1732.00
406.05	1696.89
406.24	1785.83
406.43	1654.76
406.62	1694.55
406.81	1839.66
407.00	1774.13
407.20	1717.95
407.39	1760.08
407.58	1802.21
407.77	1870.09
407.96	1930.94
408.15	1823.28
408.34	1851.36
408.54	1912.22
408.73	1870.09
408.92	1975.41
409.11	2001.16
409.30	2017.54
409.49	1952.01
409.68	1926.26
409.87	2040.95
410.07	2090.10
410.26	2036.27
410.45	2033.93
410.64	2031.58
410.83	2090.10
411.02	2036.27
411.21	2153.29
411.40	2165.00
411.59	2251.60
411.78	2186.06
411.98	2289.04
412.17	2270.32
412.36	2225.85
412.55	2230.53
412.74	2385.01
412.93	2303.09
413.12	2300.75
413.31	2478.63
413.50	2427.14
413.69	2335.85
413.88	2506.71
414.07	2459.90
414.26	2436.50
414.45	2497.35
414.64	2588.63
414.83	2583.95
415.02	2525.44
415.22	2630.76
415.41	2567.57
415.60	2733.75
415.79	2675.23
415.98	2881.20
416.17	2827.37
416.36	2801.62
416.55	2736.09
416.74	2757.15
416.93	2780.56
417.12	2785.24
417.31	2890.56
417.50	2803.96
417.69	2932.69
417.88	2991.20
418.07	2963.12
418.26	2993.55
418.45	3096.53
418.64	3033.33
418.83	3007.59
419.02	3019.29
419.21	3068.44
419.39	3197.17
419.58	3115.25
419.77	3124.62
419.96	3063.76
420.15	3258.03
420.34	3255.69
420.53	3199.51
420.72	3417.18
420.91	3239.30
421.10	3300.16
421.29	3346.97
421.48	3246.32
421.67	3267.39
421.86	3253.34
422.05	3372.71
422.24	3417.18
422.43	3407.82
422.61	3419.52
422.80	3318.88
422.99	3449.95
423.18	3496.76
423.37	3459.31
423.56	3269.73
423.75	3485.06
423.94	3353.99
424.13	3276.75
424.32	3281.43
424.50	3377.39
424.69	3478.04
424.88	3578.68
425.07	3323.56
425.26	3487.40
425.45	3407.82
425.64	3335.26
425.83	3382.07
426.01	3468.67
426.20	3468.67
426.39	3492.08
426.58	3506.12
426.77	3595.06
426.96	3513.14
427.15	3440.59
427.33	3564.64
427.52	3480.38
427.71	3688.68
427.90	3688.68
428.09	3719.11
428.28	3794.01
428.46	3674.64
428.65	3543.57
428.84	3632.51
429.03	3864.22
429.22	3735.50
429.40	3962.53
429.59	3866.56
429.78	3794.01
429.97	3637.19
430.16	3833.80
430.34	3817.41
430.53	3922.74
430.72	3854.86
430.91	3854.86
431.10	3735.50
431.28	4044.45
431.47	3815.07
431.66	4065.51
431.85	4011.68
432.03	4058.49
432.22	4086.58
432.41	4271.48
432.60	4016.36
432.79	4039.76
432.97	4109.98
433.16	4154.45
433.35	4016.36
433.54	4072.53
433.72	4259.78
433.91	4138.07
434.10	4177.86
434.28	4283.18
434.47	4264.46
434.66	4360.42
434.85	4334.67
435.03	4365.10
435.22	4273.82
435.41	4479.79
435.59	4465.74
435.78	4505.53
435.97	4404.89
436.16	4418.93
436.34	4477.44
436.53	4409.57
436.72	4636.60
436.90	4374.46
437.09	4472.76
437.28	4379.14
437.46	4484.47
437.65	4596.81
437.84	4601.49
438.02	4585.11
438.21	4493.83
438.40	4517.23
438.58	4732.56
438.77	4779.37
438.96	4793.42
439.14	4896.40
439.33	4854.27
439.52	4905.76
439.70	4861.29
439.89	5165.56
440.08	5050.88
440.26	5125.77
440.45	5050.88
440.63	5139.82
440.82	5193.65
441.01	5121.09
441.19	5259.18
441.38	5322.38
441.57	5275.57
441.75	5371.53
441.94	5416.00
442.12	5315.36
442.31	5528.35
442.50	5568.13
442.68	5486.22
442.87	5528.35
443.05	5460.47
443.24	5736.65
443.43	5427.70
443.61	5657.07
443.80	5771.76
443.98	5427.70
444.17	5416.00
444.35	5710.91
444.54	5898.15
444.73	5738.99
444.91	5738.99
445.10	5771.76
445.28	5809.21
445.47	5834.96
445.65	5664.10
445.84	5844.32
446.02	5804.53
446.21	5717.93
446.39	5547.07
446.58	5724.95
446.77	5832.62
446.95	5746.02
447.14	5830.27
447.32	5816.23
447.51	5685.16
447.69	5720.27
447.88	5874.74
448.06	5802.19
448.25	5818.57
448.43	5863.04
448.62	5881.77
448.80	5914.53
448.99	5823.25
449.17	5888.79
449.36	5841.98
449.54	5966.03
449.73	6129.86
449.91	6171.99
450.10	6033.90
450.28	6183.70
450.46	5963.68
450.65	6195.40
450.83	6232.85
451.02	6155.61
451.20	6260.93
451.39	6155.61
451.57	6104.12
451.76	6118.16
451.94	6354.55
452.13	6392.00
452.31	6286.68
452.49	6195.40
452.68	6270.30
452.86	6394.34
453.05	6431.79
453.23	6279.66
453.42	6452.86
453.60	6174.33
453.78	6504.35
453.97	6368.60
454.15	6221.14
454.34	6434.13
454.52	6558.18
454.70	6520.73
454.89	6682.23
455.07	6705.63
455.26	6684.57
455.44	6792.23
455.62	6888.20
455.81	6619.04
455.99	6801.60
456.17	6825.00
456.36	6684.57
456.54	6895.22
456.73	6904.58
456.91	7007.56
457.09	7023.95
457.28	7105.87
457.46	7002.88
457.64	7152.68
457.83	6970.12
458.01	7059.06
458.19	7169.06
458.38	7162.04
458.56	7267.36
458.74	7279.07
458.93	7379.71
459.11	7126.93
459.29	7260.34
459.48	7335.24
459.66	7447.58
459.84	7400.77
460.03	7428.86
460.21	7225.23
460.39	7531.84
460.57	7346.94
460.76	7342.26
460.94	7405.46
461.12	7426.52
461.31	7466.31
461.49	7482.69
461.67	7665.25
461.85	7784.62
462.04	7662.91
462.22	8114.64
462.40	7744.83
462.59	7698.02
462.77	7801.01
462.95	7857.18
463.13	7691.00
463.32	7894.63
463.50	7995.27
463.68	8063.15
463.86	7761.22
464.05	7791.64
464.23	7934.42
464.41	8116.98
464.59	7913.35
464.78	8229.32
464.96	7927.39
465.14	7939.10
465.32	7948.46
465.50	8070.17
465.69	8004.63
465.87	8081.87
466.05	8156.77
466.23	8351.03
466.41	8320.60
466.60	8407.20
466.78	8327.63
466.96	8395.50
467.14	8234.00
467.32	8400.18
467.51	8299.54
467.69	8126.34
467.87	8285.50
468.05	8402.52
468.23	8404.86
468.41	8451.67
468.60	8245.71
468.78	8514.87
468.96	8449.33
469.14	8718.50
469.32	8631.90
469.50	8505.51
469.69	8592.11
469.87	8713.81
470.05	8695.09
470.23	8798.07
470.41	8802.75
470.59	8964.25
470.77	8842.54
470.95	8755.94
471.14	8905.74
471.32	8865.95
471.50	9202.99
471.68	9078.94
471.86	9128.09
472.04	9193.62
472.22	9345.76
472.40	9111.71
472.58	9207.67
472.77	9245.12
472.95	9465.13
473.13	9750.67
473.31	9287.25
473.49	9479.17
473.67	9565.77
473.85	9540.02
474.03	9701.52
474.21	9724.93
474.39	9820.89
474.57	9909.83
474.75	10071.33
474.93	10181.33
475.12	10012.81
475.30	10008.13
475.48	10071.33
475.66	10129.84
475.84	10010.47
476.02	10197.71
476.20	10256.23
476.38	10300.70
476.56	10640.08
476.74	10391.98
476.92	10532.41
477.10	10422.41
477.28	10693.91
477.46	10773.49
477.64	10967.75
477.82	11108.18
478.00	11353.94
478.18	11164.36
478.36	11089.46
478.54	11517.78
478.72	11375.00
478.90	11470.97
479.08	11639.48
479.26	11665.23
479.44	11698.00
479.62	11742.47
479.80	11950.78
479.98	12051.42
480.16	12444.63
480.34	12201.21
480.52	12453.99
480.70	12418.88
480.88	12358.03
481.06	12554.63
481.24	12390.80
481.41	12812.09
481.59	12805.07
481.77	12966.57
481.95	13004.02
482.13	13142.11
482.31	12966.57
482.49	13385.52
482.67	13476.80
482.85	13647.66
483.03	13570.43
483.21	13727.24
483.39	13891.08
483.57	13802.14
483.74	14019.81
483.92	14045.55
484.10	13900.44
484.28	14476.21
484.46	14436.42
484.64	14710.27
484.82	14583.88
485.00	14658.78
485.18	14871.76
485.35	15269.66
485.53	15208.80
485.71	15272.00
485.89	15524.77
486.07	15435.83
486.25	15578.61
486.43	15489.67
486.61	15892.24
486.78	15819.68
486.96	15838.41
487.14	16353.32
487.32	16018.63
487.50	16173.10
487.68	16301.83
487.85	16711.42
488.03	16823.77
488.21	16919.73
488.39	16896.33
488.57	17245.07
488.75	17387.84
488.92	17312.94
489.10	17991.70
489.28	17617.21
489.46	17675.73
489.64	17991.70
489.81	18214.05
489.99	18270.22
490.17	18249.16
490.35	18412.99
490.53	18466.83
490.70	18700.88
490.88	18986.43
491.06	19037.92
491.24	18953.66
491.41	19264.95
491.59	19426.45
491.77	19246.23
491.95	19662.84
492.13	19814.98
492.30	19896.89
492.48	19754.12
492.66	19882.85
492.84	20259.68
493.01	20460.96
493.19	20362.66
493.37	20547.56
493.54	20723.10
493.72	20746.51
493.90	20704.38
494.08	21106.95
494.25	21177.17
494.43	20971.20
494.61	21280.15
494.79	21408.88
494.96	21301.22
495.14	21378.45
495.32	21689.74
495.49	21874.65
495.67	21799.75
495.85	22047.85
496.02	22338.07
496.20	22373.18
496.38	22548.72
496.55	22195.30
496.73	23264.92
496.91	23175.98
497.09	22810.86
497.26	22906.82
497.44	23068.32
497.62	23421.74
497.79	23510.68
497.97	23314.08
498.14	23819.63
498.32	23737.71
498.50	24006.87
498.67	24407.11
498.85	24109.86
499.03	24100.50
499.20	24051.34
499.38	24423.49
499.56	24503.07
499.73	24697.33
499.91	24683.29
500.08	25015.65
500.26	24566.26
500.44	25238.00
500.61	24657.54
500.79	24833.08
500.97	25067.14
501.14	25446.30
501.32	25458.01
501.49	25352.68
501.67	25472.05
501.84	25649.93
502.02	25830.15
502.20	26047.82
502.37	25436.94
502.55	25539.93
502.72	26129.74
502.90	25891.01
503.07	25839.51
503.25	26277.19
503.43	26340.39
503.60	26394.22
503.78	26382.52
503.95	26539.33
504.13	26930.20
504.30	26354.43
504.48	26897.44
504.65	27068.30
504.83	27166.60
505.01	27068.30
505.18	27063.61
505.36	27477.89
505.53	27288.31
505.71	27419.38
505.88	27592.58
506.06	27704.92
506.23	27906.21
506.41	27749.39
506.58	27889.82
506.76	28077.07
506.93	28594.32
507.11	28158.99
507.28	28451.55
507.46	28215.16
507.63	28505.38
507.81	28823.70
507.98	28606.03
508.16	28402.40
508.33	28671.56
508.50	29071.79
508.68	29263.72
508.85	29230.95
509.03	29287.12
509.20	29207.55
509.38	29385.43
509.55	29324.57
509.73	29614.80
509.90	29766.93
510.08	29965.88
510.25	29600.76
510.42	29846.51
510.60	29802.04
510.77	29905.02
510.95	29919.07
511.12	29942.47
511.30	30333.34
511.47	30387.18
511.64	30382.49
511.82	30878.69
511.99	30389.52
512.17	30270.15
512.34	30424.62
512.51	30974.65
512.69	30749.96
512.86	30834.22
513.04	31608.93
513.21	31140.83
513.38	31009.76
513.56	31133.81
513.73	31412.33
513.90	31466.16
514.08	31241.47
514.25	31845.33
514.43	31842.99
514.60	32109.81
514.77	31903.84
514.95	32030.23
515.12	31847.67
515.29	32037.25
515.47	31945.97
515.64	32170.66
515.81	32140.24
515.99	32430.46
516.16	32486.64
516.33	32437.48
516.51	32463.23
516.68	33071.77
516.85	32542.81
517.03	32891.55
517.20	33064.75
517.37	32943.04
517.54	33446.26
517.72	32781.54
517.89	33006.23
518.06	33181.77
518.24	33331.57
518.41	32847.08
518.58	33261.35
518.75	33151.35
518.93	33369.02
519.10	33535.20
519.27	33317.53
519.45	33514.13
519.62	33825.42
519.79	33937.77
519.96	33699.03
520.14	33886.28
520.31	33865.21
520.48	34249.06
520.65	34293.53
520.83	34859.94
521.00	34653.97
521.17	34424.60
521.34	34735.89
521.52	34466.73
521.69	34403.53
521.86	35253.15
522.03	34698.44
522.20	35145.48
522.38	34962.92
522.55	35002.71
522.72	35388.90
522.89	35173.57
523.07	35828.92
523.24	35297.62
523.41	35278.89
523.58	35358.47
523.75	35761.05
523.92	35676.79
524.10	35716.58
524.27	35662.74
524.44	35908.50
524.61	36456.18
524.78	36217.45
524.96	36463.21
525.13	36212.77
525.30	36488.95
525.47	36105.10
525.64	36018.50
525.81	36704.28
525.98	36655.13
526.16	36528.74
526.33	36823.65
526.50	36821.31
526.67	36727.69
526.84	36692.58
527.01	36451.50
527.18	36833.01
527.36	36669.17
527.53	37139.62
527.70	37214.52
527.87	37495.38
528.04	37104.51
528.21	36863.44
528.38	37511.77
528.55	37085.79
528.72	37507.08
528.89	37233.24
529.07	37488.36
529.24	37563.26
529.41	37989.24
529.58	37401.76
529.75	37806.67
529.92	37640.50
530.09	37741.14
530.26	37965.83
530.43	38075.84
530.60	37874.55
530.77	38190.52
530.94	38590.75
531.11	37834.76
531.28	38403.51
531.46	38752.25
531.63	38436.28
531.80	38494.79
531.97	38799.06
532.14	38543.94
532.31	38447.98
532.48	38696.08
532.65	38731.18
532.82	38501.81
532.99	38752.25
533.16	38803.74
533.33	38897.36
533.50	38810.76
533.67	39292.91
533.84	39122.05
534.01	38712.46
534.18	39086.95
534.35	39765.70
534.52	39246.10
534.69	39491.86
534.86	39618.25
535.03	39257.81
535.20	39620.59
535.37	39564.42
535.54	39468.45
535.71	39866.34
535.88	39852.30
536.05	39765.70
536.22	39959.97
536.38	39917.84
536.55	39887.41
536.72	40203.38
536.89	39711.87
537.06	39906.13
537.23	40381.26
537.40	39969.33
537.57	39866.34
537.74	39976.35
537.91	40306.37
538.08	40655.11
538.25	40023.16
538.42	40512.33
538.59	40942.99
538.75	40547.44
538.92	40706.60
539.09	40589.57
539.26	40886.82
539.43	40898.52
539.60	40772.13
539.77	40992.14
539.94	40982.78
540.11	41010.87
540.28	41013.21
540.44	40996.82
540.61	40973.42
540.78	41258.96
540.95	41060.02
541.12	41251.94
541.29	41113.85
541.46	41104.49
541.62	41521.10
541.79	41486.00
541.96	40987.46
542.13	40753.41
542.30	41223.86
542.47	41326.84
542.63	41993.89
542.80	41532.81
542.97	41935.38
543.14	41968.15
543.31	41670.90
543.48	41947.08
543.64	42478.38
543.81	42335.61
543.98	42237.31
544.15	42377.74
544.32	42265.39
544.48	42642.22
544.65	42337.95
544.82	42677.33
544.99	42160.07
545.16	42253.69
545.32	42579.03
545.49	42927.77
545.66	42291.14
545.83	42574.34
546.00	43019.05
546.16	42836.48
546.33	42557.96
546.50	42691.37
546.67	43302.25
546.83	42726.48
547.00	42689.03
547.17	42838.83
547.34	42859.89
547.50	43257.78
547.67	43746.95
547.84	43023.73
548.00	43213.31
548.17	43786.74
548.34	43178.20
548.51	43695.46
548.67	43349.06
548.84	43363.11
549.01	43466.09
549.18	43920.15
549.34	43709.50
549.51	43758.66
549.68	43669.72
549.84	43386.51
550.01	43901.43
550.18	43875.68
550.34	43887.39
550.51	43957.60
550.68	43901.43
550.84	43676.74
551.01	43676.74
551.18	43938.88
551.34	43557.37
551.51	44308.68
551.68	43641.63
551.84	43985.69
552.01	43896.75
552.18	44641.04
552.34	44069.95
552.51	44350.81
552.68	44266.55
552.84	44355.49
553.01	44222.08
553.18	44343.79
553.34	44444.43
553.51	44236.12
553.67	44718.28
553.84	44540.39
554.01	44708.91
554.17	44566.14
554.34	44933.60
554.51	44542.74
554.67	45167.66
554.84	45071.70
555.00	44748.70
555.17	44961.69
555.33	44802.53
555.50	44905.52
555.67	44945.31
555.83	44748.70
556.00	45001.48
556.16	45343.20
556.33	45404.05
556.50	44921.90
556.66	45118.51
556.83	44722.96
556.99	45216.81
557.16	45670.87
557.32	45684.92
557.49	45570.23
557.65	44795.51
557.82	45399.37
557.98	45277.66
558.15	45434.48
558.32	45165.32
558.48	45687.26
558.65	45291.71
558.81	45591.30
558.98	45626.40
559.14	45207.45
559.31	45055.31
559.47	45722.37
559.64	45422.78
559.80	45940.04
559.97	45797.26
560.13	45743.43
560.30	45619.38
560.46	45921.31
560.63	46036.00
560.79	46026.63
560.96	46256.01
561.12	45628.74
561.29	46398.78
561.45	46127.28
561.61	46148.34
561.78	45696.62
561.94	45670.87
562.11	45703.64
562.27	45612.36
562.44	45921.31
562.60	46101.53
562.77	46136.64
562.93	46258.35
563.10	46277.07
563.26	45904.93
563.42	46679.64
563.59	45715.34
563.75	46227.92
563.92	45921.31
564.08	45731.73
564.24	46036.00
564.41	46426.87
564.57	46052.38
564.74	46052.38
564.90	46454.95
565.07	46440.91
565.23	46370.69
565.39	46248.99
565.56	46611.77
565.72	46213.88
565.88	46045.36
566.05	46340.27
566.21	46651.56
566.38	46398.78
566.54	46543.89
566.70	46167.07
566.87	46333.24
567.03	46103.87
567.19	46703.05
567.36	46822.42
567.52	46440.91
567.68	46822.42
567.85	46939.44
568.01	46801.35
568.17	46703.05
568.34	47065.83
568.50	46848.16
568.66	46469.00
568.83	46609.43
568.99	46822.42
569.15	46511.13
569.32	46909.02
569.48	46129.62
569.64	47014.34
569.81	46642.20
569.97	46979.23
570.13	46892.63
570.30	46469.00
570.46	46703.05
570.62	46988.60
570.78	46925.40
570.95	47019.02
571.11	47049.45
571.27	46403.46
571.43	46909.02
571.60	46843.48
571.76	47173.50
571.92	46600.07
572.09	46670.28
572.25	46981.57
572.41	46969.87
572.57	47222.65
572.74	47140.73
572.90	46920.72
573.06	47154.77
573.22	47117.32
573.38	47138.39
573.55	47356.06
573.71	47274.14
573.87	47459.04
574.03	46930.08
574.20	47386.49
574.36	46794.33
574.52	47405.21
574.68	47187.54
574.84	47292.86
575.01	47489.47
575.17	47718.84
575.33	47356.06
575.49	47292.86
575.65	47061.15
575.82	47232.01
575.98	47112.64
576.14	47494.15
576.30	47782.04
576.46	47262.44
576.62	47187.54
576.79	47384.15
576.95	46911.36
577.11	47016.68
577.27	47384.15
577.43	47274.14
577.59	47440.32
577.75	46969.87
577.92	46993.28
578.08	47456.70
578.24	47449.68
578.40	47281.16
578.56	47538.62
578.72	47133.71
578.88	47721.18
579.04	47234.35
579.21	47304.57
579.37	47545.64
579.53	47540.96
579.69	47171.16
579.85	47477.77
580.01	47461.38
580.17	47440.32
580.33	47709.48
580.49	47421.59
580.65	47398.19
580.82	47297.55
580.98	47367.76
581.14	47351.38
581.30	47309.25
581.46	47484.79
581.62	47625.22
581.78	47384.15
581.94	47723.52
582.10	47215.63
582.26	47480.11
582.42	47473.09
582.58	47597.13
582.74	47880.34
582.90	47416.91
583.06	48034.81
583.22	47276.48
583.38	47430.96
583.54	47547.98
583.70	47910.77
583.86	48044.18
584.02	47709.48
584.18	47941.19
584.34	47793.74
584.50	48156.52
584.66	48098.01
584.82	47608.84
584.98	48210.35
585.14	47735.23
585.30	47512.88
585.46	47840.55
585.62	47400.53
585.78	47475.43
585.94	47608.84
586.10	47292.86
586.26	47430.96
586.42	47611.18
586.58	47665.01
586.74	47690.76
586.90	47496.49
587.06	47665.01
587.22	47709.48
587.38	47555.00
587.54	47571.39
587.70	48271.21
587.86	48119.07
588.02	47545.64
588.18	47555.00
588.34	47517.56
588.49	47938.85
588.65	47236.69
588.81	47639.26
588.97	47983.32
589.13	47674.37
589.29	48027.79
589.45	48177.59
589.61	47426.28
589.77	48203.33
589.93	47962.26
