SpectraSuite Data File
++++++++++++++++++++++++++++++++++++
Date: Fri Oct 25 11:33:52 EDT 2013
User: price-jones
Dark Spectrum Present: No
Reference Spectrum Present: No
Number of Sampled Component Spectra: 1
Spectrometers: USB2+H05261
Integration Time (usec): 100000 (USB2+H05261)
Spectra Averaged: 1 (USB2+H05261)
Boxcar Smoothing: 0 (USB2+H05261)
Correct for Electrical Dark: No (USB2+H05261)
Strobe/Lamp Enabled: No (USB2+H05261)
Correct for Detector Non-linearity: No (USB2+H05261)
Correct for Stray Light: No (USB2+H05261)
Number of Pixels in Processed Spectrum: 2048
>>>>>Begin Processed Spectral Data<<<<<
365.73	280.86
365.92	280.86
366.12	280.86
366.32	170.86
366.52	191.92
366.72	205.97
366.91	203.63
367.11	180.22
367.31	147.45
367.51	156.82
367.70	93.62
367.90	170.86
368.10	138.09
368.30	180.22
368.49	147.45
368.69	191.92
368.89	238.73
369.09	224.69
369.28	234.05
369.48	227.03
369.68	257.46
369.87	280.86
370.07	283.20
370.27	262.14
370.47	341.72
370.66	423.64
370.86	557.05
371.06	592.16
371.25	543.00
371.45	531.30
371.65	571.09
371.84	528.96
372.04	526.62
372.24	507.90
372.44	624.92
372.63	603.86
372.83	561.73
373.03	503.22
373.22	580.45
373.42	638.97
373.62	561.73
373.81	690.46
374.01	667.05
374.21	692.80
374.40	634.29
374.60	613.22
374.79	571.09
374.99	641.31
375.19	655.35
375.38	603.86
375.58	648.33
375.78	643.65
375.97	669.39
376.17	739.61
376.37	655.35
376.56	631.94
376.76	702.16
376.95	624.92
377.15	737.27
377.35	648.33
377.54	702.16
377.74	713.86
377.93	697.48
378.13	777.06
378.33	713.86
378.52	688.12
378.72	739.61
378.91	741.95
379.11	751.31
379.31	699.82
379.50	704.50
379.70	697.48
379.89	734.93
380.09	660.03
380.28	648.33
380.48	744.29
380.68	772.38
380.87	737.27
381.07	732.59
381.26	779.40
381.46	741.95
381.65	730.25
381.85	807.48
382.04	741.95
382.24	858.98
382.43	758.33
382.63	837.91
382.83	739.61
383.02	706.84
383.22	835.57
383.41	763.01
383.61	823.87
383.80	873.02
384.00	837.91
384.19	751.31
384.39	842.59
384.58	837.91
384.78	805.14
384.97	777.06
385.17	781.74
385.36	868.34
385.56	788.76
385.75	823.87
385.95	875.36
386.14	805.14
386.34	807.48
386.53	915.15
386.72	830.89
386.92	929.19
387.11	950.26
387.31	887.06
387.50	814.51
387.70	877.70
387.89	870.68
388.09	887.06
388.28	931.53
388.48	952.60
388.67	931.53
388.86	866.00
389.06	943.24
389.25	950.26
389.45	950.26
389.64	924.51
389.84	931.53
390.03	1013.45
390.22	1001.75
390.42	894.08
390.61	901.11
390.81	1001.75
391.00	1032.18
391.19	938.55
391.39	985.37
391.58	1043.88
391.78	1011.11
391.97	1018.13
392.16	1104.73
392.36	1074.31
392.55	1057.92
392.75	1118.78
392.94	1088.35
393.13	1097.71
393.33	992.39
393.52	1048.56
393.71	1081.33
393.91	1217.08
394.10	1111.75
394.29	1062.60
394.49	1100.05
394.68	1128.14
394.88	1125.80
395.07	1179.63
395.26	1170.27
395.46	1160.91
395.65	1233.46
395.84	1139.84
396.04	1289.64
396.23	1198.35
396.42	1191.33
396.62	1219.42
396.81	1282.61
397.00	1109.41
397.19	1191.33
397.39	1240.48
397.58	1245.16
397.77	1238.14
397.97	1240.48
398.16	1254.53
398.35	1275.59
398.55	1282.61
398.74	1296.66
398.93	1338.79
399.12	1362.19
399.32	1359.85
399.51	1366.87
399.70	1310.70
399.90	1327.08
400.09	1373.89
400.28	1317.72
400.47	1315.38
400.67	1404.32
400.86	1425.39
401.05	1366.87
401.24	1460.49
401.44	1371.55
401.63	1455.81
401.82	1432.41
402.01	1444.11
402.21	1425.39
402.40	1406.66
402.59	1537.73
402.78	1549.43
402.97	1497.94
403.17	1465.18
403.36	1448.79
403.55	1570.50
403.74	1591.56
403.93	1610.29
404.13	1612.63
404.32	1488.58
404.51	1624.33
404.70	1720.29
404.89	1659.44
405.09	1652.42
405.28	1654.76
405.47	1720.29
405.66	1687.53
405.85	1593.90
406.05	1720.29
406.24	1610.29
406.43	1774.13
406.62	1774.13
406.81	1802.21
407.00	1774.13
407.20	1865.41
407.39	1736.68
407.58	1804.55
407.77	1895.83
407.96	1849.02
408.15	1952.01
408.34	1851.36
408.54	1959.03
408.73	1792.85
408.92	1886.47
409.11	1900.52
409.30	1937.96
409.49	1926.26
409.68	1954.35
409.87	2017.54
410.07	1989.46
410.26	2008.18
410.45	1966.05
410.64	2073.71
410.83	2125.21
411.02	2197.76
411.21	2157.97
411.40	2097.12
411.59	2153.29
411.78	2172.02
411.98	2225.85
412.17	2223.51
412.36	2202.44
412.55	2232.87
412.74	2317.13
412.93	2356.92
413.12	2312.45
413.31	2452.88
413.50	2333.51
413.69	2410.75
413.88	2403.73
414.07	2476.29
414.26	2492.67
414.45	2448.20
414.64	2551.18
414.83	2562.89
415.02	2562.89
415.22	2651.83
415.41	2799.28
415.60	2644.81
415.79	2647.15
415.98	2780.56
416.17	2663.53
416.36	2686.94
416.55	2675.23
416.74	2911.63
416.93	2871.84
417.12	2808.64
417.31	2806.30
417.50	2803.96
417.69	2974.82
417.88	2869.50
418.07	2904.60
418.26	2951.42
418.45	3026.31
418.64	3183.13
418.83	3066.10
419.02	3126.96
419.21	3269.73
419.39	2986.52
419.58	3075.46
419.77	3136.32
419.96	3176.11
420.15	3136.32
420.34	3206.53
420.53	3141.00
420.72	3185.47
420.91	3234.62
421.10	3309.52
421.29	3361.01
421.48	3251.00
421.67	3302.50
421.86	3363.35
422.05	3232.28
422.24	3375.05
422.43	3309.52
422.61	3316.54
422.80	3293.13
422.99	3274.41
423.18	3396.12
423.37	3435.91
423.56	3396.12
423.75	3274.41
423.94	3318.88
424.13	3274.41
424.32	3176.11
424.50	3417.18
424.69	3510.80
424.88	3447.61
425.07	3396.12
425.26	3435.91
425.45	3466.33
425.64	3239.30
425.83	3424.20
426.01	3452.29
426.20	3358.67
426.39	3480.38
426.58	3330.58
426.77	3508.46
426.96	3424.20
427.15	3463.99
427.33	3480.38
427.52	3592.72
427.71	3660.60
427.90	3641.87
428.09	3595.06
428.28	3726.13
428.46	3709.75
428.65	3684.00
428.84	3822.09
429.03	3838.48
429.22	3700.39
429.40	3801.03
429.59	3899.33
429.78	3623.15
429.97	3583.36
430.16	3822.09
430.34	3747.20
430.53	3761.24
430.72	3873.59
430.91	3896.99
431.10	3868.91
431.28	4058.49
431.47	3920.40
431.66	3953.16
431.85	3850.18
432.03	4081.89
432.22	4140.41
432.41	4084.23
432.60	3999.98
432.79	4058.49
432.97	4018.70
433.16	4098.28
433.35	4114.66
433.54	4107.64
433.72	4224.67
433.91	4093.60
434.10	4234.03
434.28	4203.60
434.47	4290.20
434.66	4344.03
434.85	4329.99
435.03	4215.30
435.22	4276.16
435.41	4425.95
435.59	4283.18
435.78	4351.06
435.97	4308.93
436.16	4355.74
436.34	4334.67
436.53	4334.67
436.72	4468.08
436.90	4421.27
437.09	4442.34
437.28	4348.72
437.46	4475.10
437.65	4271.48
437.84	4489.15
438.02	4596.81
438.21	4638.94
438.40	4613.20
438.58	4774.69
438.77	4791.08
438.96	4774.69
439.14	4861.29
439.33	4908.10
439.52	5057.90
439.70	5090.67
439.89	4880.02
440.08	4959.60
440.26	4952.57
440.45	4835.55
440.63	5067.26
440.82	5048.54
441.01	5076.62
441.19	5195.99
441.38	5390.25
441.57	5259.18
441.75	5310.68
441.94	5460.47
442.12	5378.55
442.31	5448.77
442.50	5511.96
442.68	5376.21
442.87	5394.93
443.05	5423.02
443.24	5540.05
443.43	5542.39
443.61	5563.45
443.80	5708.57
443.98	5451.11
444.17	5200.67
444.35	5664.10
444.54	5764.74
444.73	5547.07
444.91	5715.59
445.10	5593.88
445.28	5586.86
445.47	5621.97
445.65	5659.42
445.84	5582.18
446.02	5626.65
446.21	5682.82
446.39	5547.07
446.58	5722.61
446.77	5614.95
446.95	5680.48
447.14	5830.27
447.32	5867.72
447.51	5849.00
447.69	5685.16
447.88	5680.48
448.06	5673.46
448.25	5701.54
448.43	5823.25
448.62	5738.99
448.80	5729.63
448.99	5888.79
449.17	5935.60
449.36	5930.92
449.54	5961.34
449.73	6122.84
449.91	6031.56
450.10	5884.11
450.28	6244.55
450.46	6057.31
450.65	6090.07
450.83	6003.47
451.02	6209.44
451.20	6183.70
451.39	6207.10
451.57	5996.45
451.76	6171.99
451.94	6225.82
452.13	6373.28
452.31	6193.06
452.49	6244.55
452.68	6303.06
452.86	6246.89
453.05	6452.86
453.23	6509.03
453.42	6190.72
453.60	6277.32
453.78	6251.57
453.97	6319.45
454.15	6272.64
454.34	6253.91
454.52	6406.05
454.70	6408.39
454.89	6469.24
455.07	6502.01
455.26	6607.33
455.44	6717.34
455.62	6775.85
455.81	6614.35
455.99	6672.87
456.17	6619.04
456.36	6649.46
456.54	6874.15
456.73	6988.84
456.91	6927.99
457.09	7140.97
457.28	7052.03
457.46	6965.43
457.64	6965.43
457.83	7122.25
458.01	6970.12
458.19	7148.00
458.38	6939.69
458.56	7122.25
458.74	7183.10
458.93	7152.68
459.11	7117.57
459.29	7185.44
459.48	7314.17
459.66	7358.64
459.84	7309.49
460.03	7407.80
460.21	7456.95
460.39	7393.75
460.57	7410.14
460.76	7431.20
460.94	7592.70
461.12	7442.90
461.31	7492.05
461.49	7517.80
461.67	7798.66
461.85	7707.38
462.04	7569.29
462.22	8187.19
462.40	7602.06
462.59	7515.46
462.77	7763.56
462.95	7901.65
463.13	7761.22
463.32	7707.38
463.50	7978.89
463.68	7822.07
463.86	7948.46
464.05	7653.55
464.23	7882.92
464.41	7920.37
464.59	7913.35
464.78	8112.30
464.96	7932.08
465.14	7950.80
465.32	7918.03
465.50	8107.62
465.69	8280.82
465.87	8334.65
466.05	7939.10
466.23	7801.01
466.41	8044.42
466.60	8201.24
466.78	8149.75
466.96	8114.64
467.14	8177.83
467.32	8355.71
467.51	8259.75
467.69	7985.91
467.87	8173.15
468.05	8329.97
468.23	8114.64
468.41	8290.18
468.60	8325.29
468.78	8402.52
468.96	8257.41
469.14	8552.32
469.32	8760.63
469.50	8358.05
469.69	8636.58
469.87	8772.33
470.05	8592.11
470.23	8702.11
470.41	8641.26
470.59	8655.30
470.77	8877.65
470.95	8760.63
471.14	9090.64
471.32	8755.94
471.50	8992.34
471.68	9029.79
471.86	9008.72
472.04	8929.14
472.22	9224.05
472.40	9036.81
472.58	9097.66
472.77	9233.41
472.95	9259.16
473.13	9902.81
473.31	9294.27
473.49	9294.27
473.67	9444.06
473.85	9301.29
474.03	9682.80
474.21	9673.43
474.39	9884.08
474.57	9724.93
474.75	9750.67
474.93	9806.84
475.12	9788.12
475.30	9933.23
475.48	9930.89
475.66	10108.77
475.84	9961.32
476.02	10223.46
476.20	10160.27
476.38	10380.28
476.56	10494.96
476.74	10590.92
476.92	10492.62
477.10	10347.51
477.28	10560.50
477.46	10548.79
477.64	10824.98
477.82	11002.86
478.00	11131.59
478.18	11075.42
478.36	11059.03
478.54	11154.99
478.72	11396.07
478.90	11587.99
479.08	11632.46
479.26	11508.41
479.44	11726.08
479.62	11768.21
479.80	11885.24
479.98	11889.92
480.16	12180.15
480.34	11992.90
480.52	12044.40
480.70	12198.87
480.88	12198.87
481.06	12294.83
481.24	12407.18
481.41	12610.81
481.59	12676.34
481.77	12706.77
481.95	13039.12
482.13	12989.97
482.31	12805.07
482.49	13200.62
482.67	13146.79
482.85	13359.78
483.03	13327.01
483.21	13547.02
483.39	13813.84
483.57	13605.53
483.74	13736.60
483.92	13844.27
484.10	13973.00
484.28	14127.47
484.46	14375.57
484.64	14993.47
484.82	14193.01
485.00	14731.33
485.18	15033.26
485.35	15009.86
485.53	15054.33
485.71	15101.14
485.89	15372.64
486.07	15391.36
486.25	15276.68
486.43	15307.10
486.61	15620.74
486.78	15733.08
486.96	15573.92
487.14	16039.69
487.32	16058.42
487.50	16198.85
487.68	16456.31
487.85	16751.21
488.03	16877.60
488.21	16868.24
488.39	16812.07
488.57	17216.98
488.75	17099.95
488.92	17053.14
489.10	17462.74
489.28	17446.35
489.46	17474.44
489.64	17685.09
489.81	18017.44
489.99	18218.73
490.17	18003.40
490.35	18171.92
490.53	18291.29
490.70	18616.62
490.88	18518.32
491.06	18590.88
491.24	18607.26
491.41	19112.81
491.59	19007.49
491.77	19098.77
491.95	19353.89
492.13	19480.28
492.30	19686.25
492.48	19782.21
492.66	19903.92
492.84	19934.34
493.01	20091.16
493.19	20067.75
493.37	20100.52
493.54	20212.87
493.72	20521.82
493.90	20814.38
494.08	20645.87
494.25	20774.60
494.43	20950.14
494.61	21228.66
494.79	21111.63
494.96	21287.17
495.14	21214.62
495.32	21518.89
495.49	21467.39
495.67	21764.64
495.85	21940.18
496.02	22008.06
496.20	22356.80
496.38	21979.97
496.55	22480.85
496.73	22595.53
496.91	22647.02
497.09	22794.48
497.26	22651.70
497.44	22576.81
497.62	22813.20
497.79	23599.62
497.97	23089.38
498.14	23477.91
498.32	23491.96
498.50	23515.36
498.67	23772.82
498.85	23470.89
499.03	23924.96
499.20	23880.49
499.38	24044.32
499.56	24121.56
499.73	24203.48
499.91	24620.10
500.08	24704.35
500.26	24542.86
500.44	24680.95
500.61	24666.91
500.79	24577.97
500.97	24837.76
501.14	25305.87
501.32	25298.85
501.49	24924.36
501.67	24982.88
501.84	25331.62
502.02	25617.16
502.20	25420.56
502.37	25586.74
502.55	25553.97
502.72	25565.67
502.90	25685.04
503.07	25507.16
503.25	25830.15
503.43	26157.83
503.60	26183.57
503.78	26185.91
503.95	26146.12
504.13	26302.94
504.30	26476.14
504.48	26881.05
504.65	26817.86
504.83	27002.76
505.01	27040.21
505.18	26977.01
505.36	26977.01
505.53	26937.23
505.71	27304.69
505.88	27260.22
506.06	27208.73
506.23	27754.07
506.41	27658.11
506.58	27304.69
506.76	27868.76
506.93	27819.61
507.11	28006.85
507.28	28168.35
507.46	27653.43
507.63	27875.78
507.81	28226.86
507.98	28222.18
508.16	28650.50
508.33	28299.42
508.50	28657.52
508.68	28711.35
508.85	28526.45
509.03	28608.37
509.20	28552.20
509.38	29209.89
509.55	29308.19
509.73	29336.27
509.90	29221.59
510.08	29198.18
510.25	29413.51
510.42	29207.55
510.60	29343.30
510.77	29483.73
510.95	29858.21
511.12	29799.70
511.30	30010.35
511.47	29755.23
511.64	29935.45
511.82	30391.86
511.99	30134.40
512.17	30614.21
512.34	30183.55
512.51	30548.67
512.69	30326.32
512.86	30979.33
513.04	30698.47
513.21	30876.35
513.38	30976.99
513.56	31236.79
513.73	30675.06
513.90	31330.41
514.08	31021.46
514.25	31414.67
514.43	31335.09
514.60	31330.41
514.77	31552.76
514.95	31543.40
515.12	31814.90
515.29	31618.30
515.47	31861.71
515.64	31852.35
515.81	31768.09
515.99	31999.80
516.16	32163.64
516.33	32388.33
516.51	32460.89
516.68	32123.85
516.85	32559.19
517.03	32725.37
517.20	32835.38
517.37	32437.48
517.54	32507.70
517.72	32886.87
517.89	32575.58
518.06	32973.47
518.24	32945.38
518.41	33078.79
518.58	32783.88
518.75	33109.22
518.93	33270.72
519.10	33118.58
519.27	33345.61
519.45	33418.17
519.62	33649.88
519.79	33848.83
519.96	33663.93
520.14	33757.55
520.31	33647.54
520.48	33680.31
520.65	33867.55
520.83	34218.63
521.00	34415.24
521.17	34045.43
521.34	34349.70
521.52	34085.22
521.69	34403.53
521.86	34555.67
522.03	34691.42
522.20	35047.18
522.38	35115.06
522.55	34827.17
522.72	34815.47
522.89	34855.26
523.07	35171.23
523.24	34976.97
523.41	35178.25
523.58	34892.71
523.75	35384.22
523.92	35180.59
524.10	35606.57
524.27	35686.15
524.44	35248.47
524.61	35828.92
524.78	35871.05
524.96	35835.94
525.13	35770.41
525.30	36114.47
525.47	36191.70
525.64	35737.64
525.81	35833.60
525.98	36273.62
526.16	35782.11
526.33	36364.90
526.50	36643.43
526.67	35625.29
526.84	36542.78
527.01	36381.29
527.18	36315.75
527.36	36182.34
527.53	36807.26
527.70	36786.20
527.87	37069.40
528.04	36966.42
528.21	37055.36
528.38	36982.80
528.55	37415.80
528.72	37111.53
528.89	37277.71
529.07	37319.84
529.24	36732.37
529.41	37111.53
529.58	37106.85
529.75	37046.00
529.92	37254.31
530.09	37235.58
530.26	37184.09
530.43	37881.57
530.60	37544.53
530.77	37317.50
530.94	37521.13
531.11	37542.19
531.28	37668.58
531.46	37827.74
531.63	38132.01
531.80	37769.22
531.97	38174.14
532.14	38110.94
532.31	38040.73
532.48	38375.42
532.65	38349.68
532.82	38106.26
532.99	38440.96
533.16	38635.22
533.33	38529.90
533.50	38604.80
533.67	38499.47
533.84	38436.28
534.01	38789.70
534.18	38621.18
534.35	39044.82
534.52	38658.63
534.69	39187.59
534.86	39395.90
535.03	39047.16
535.20	39091.63
535.37	39421.64
535.54	39543.35
535.71	38649.27
535.88	39351.43
536.05	39342.06
536.22	39538.67
536.38	39452.07
536.55	39608.89
536.72	39255.46
536.89	39119.71
537.06	39819.53
537.23	40037.20
537.40	39847.62
537.57	39515.26
537.74	39454.41
537.91	40259.55
538.08	39955.29
538.25	39522.29
538.42	39854.64
538.59	40598.93
538.75	39641.65
538.92	40488.93
539.09	40870.43
539.26	39840.60
539.43	40048.91
539.60	40196.36
539.77	40189.34
539.94	40589.57
540.11	40617.66
540.28	40718.30
540.44	41069.38
540.61	40701.92
540.78	40526.38
540.95	40086.36
541.12	40720.64
541.29	40699.58
541.46	40804.90
541.62	40566.16
541.79	40931.29
541.96	40903.20
542.13	40989.80
542.30	41256.62
542.47	41317.48
542.63	41015.55
542.80	41572.60
542.97	41450.89
543.14	41350.24
543.31	41467.27
543.48	41139.60
543.64	41986.87
543.81	41933.04
543.98	41933.04
544.15	41741.11
544.32	41897.93
544.48	42529.87
544.65	42216.24
544.82	42279.44
544.99	42029.00
545.16	41942.40
545.32	41942.40
545.49	42401.14
545.66	42342.63
545.83	42167.09
546.00	42457.32
546.16	42426.89
546.33	42216.24
546.50	42131.98
546.67	42838.83
546.83	42153.05
547.00	42333.27
547.17	42171.77
547.34	42698.39
547.50	42457.32
547.67	43239.06
547.84	42359.02
548.00	42885.64
548.17	42871.59
548.34	43000.32
548.51	43332.68
548.67	43115.01
548.84	43459.07
549.01	42651.58
549.18	42916.06
549.34	43255.44
549.51	43344.38
549.68	43234.38
549.84	43449.70
550.01	43658.01
550.18	43398.21
550.34	43175.86
550.51	43438.00
550.68	43650.99
550.84	43358.42
551.01	43842.92
551.18	43302.25
551.34	43337.36
551.51	43690.78
551.68	43456.73
551.84	43098.62
552.01	43948.24
552.18	43660.35
552.34	43590.14
552.51	43690.78
552.68	43501.20
552.84	43562.05
553.01	43934.20
553.18	43489.49
553.34	44055.90
553.51	44091.01
553.67	44364.85
553.84	44205.70
554.01	44170.59
554.17	44339.11
554.34	44285.28
554.51	44182.29
554.67	44348.47
554.84	44428.05
555.00	44844.66
555.17	44196.34
555.33	44147.18
555.50	44327.41
555.67	44329.75
555.83	44603.59
556.00	44376.56
556.16	45083.40
556.33	44362.51
556.50	44615.29
556.66	44474.86
556.83	44547.42
556.99	45059.99
557.16	45319.79
557.32	45127.87
557.49	44767.43
557.65	44961.69
557.82	44774.45
557.98	45003.82
558.15	45078.72
558.32	44947.65
558.48	45214.47
558.65	44854.03
558.81	44678.49
558.98	44854.03
559.14	44762.75
559.31	44905.52
559.47	44889.13
559.64	44938.29
559.80	45153.62
559.97	45352.56
560.13	44865.73
560.30	44987.44
560.46	45333.84
560.63	45333.84
560.79	45607.68
560.96	45317.45
561.12	45418.10
561.29	45558.53
561.45	45165.32
561.61	45485.97
561.78	45371.28
561.94	45640.45
562.11	45113.83
562.27	45322.13
562.44	45748.11
562.60	45713.00
562.77	45701.30
562.93	45558.53
563.10	46066.42
563.26	45390.01
563.42	45799.60
563.59	46279.41
563.75	45677.90
563.92	45647.47
564.08	45450.86
564.24	45954.08
564.41	45790.24
564.57	45460.23
564.74	45631.08
564.90	45525.76
565.07	45450.86
565.23	45478.95
565.39	46014.93
565.56	46103.87
565.72	46012.59
565.88	46541.55
566.05	46171.75
566.21	46265.37
566.38	46241.96
566.54	46028.98
566.70	46050.04
566.87	46253.67
567.03	45684.92
567.19	45942.38
567.36	45947.06
567.52	46272.39
567.68	46263.03
567.85	46162.39
568.01	46567.30
568.17	46124.94
568.34	46621.13
568.50	46403.46
568.66	45954.08
568.83	46122.60
568.99	46005.57
569.15	46445.59
569.32	46560.28
569.48	46515.81
569.64	46548.57
569.81	46340.27
569.97	46543.89
570.13	46518.15
570.30	46050.04
570.46	46155.36
570.62	46440.91
570.78	46796.67
570.95	46330.90
571.11	46454.95
571.27	46480.70
571.43	46085.15
571.60	46593.04
571.76	46609.43
571.92	46375.37
572.09	46298.14
572.25	46405.80
572.41	46106.21
572.57	46721.77
572.74	47430.96
572.90	46574.32
573.06	46754.54
573.22	46464.32
573.38	46820.08
573.55	46784.97
573.71	46913.70
573.87	46897.31
574.03	46543.89
574.20	47150.09
574.36	46363.67
574.52	46394.10
574.68	46761.56
574.84	46829.44
575.01	46569.64
575.17	46824.76
575.33	46738.16
575.49	46450.27
575.65	47143.07
575.82	46539.21
575.98	46197.49
576.14	46864.55
576.30	47122.01
576.46	46871.57
576.62	46583.68
576.79	47199.24
576.95	46698.37
577.11	46731.14
577.27	46553.26
577.43	46735.82
577.59	46892.63
577.75	46623.47
577.92	46836.46
578.08	47112.64
578.24	46550.91
578.40	47339.68
578.56	47217.97
578.72	46960.51
578.88	46953.49
579.04	46986.25
579.21	46813.05
579.37	46981.57
579.53	46953.49
579.69	46941.78
579.85	46700.71
580.01	46766.24
580.17	46808.37
580.33	47192.22
580.49	46628.15
580.65	47168.82
580.82	46763.90
580.98	46611.77
581.14	46958.17
581.30	46923.06
581.46	46892.63
581.62	47122.01
581.78	46843.48
581.94	46944.12
582.10	46946.47
582.26	46906.68
582.42	47110.30
582.58	47349.04
582.74	46684.33
582.90	47360.74
583.06	47313.93
583.22	46897.31
583.38	46766.24
583.54	47028.38
583.70	47351.38
583.86	47313.93
584.02	47306.91
584.18	47136.05
584.34	46845.82
584.50	47178.18
584.66	47260.10
584.82	46909.02
584.98	47618.20
585.14	47152.43
585.30	47042.43
585.46	47227.33
585.62	46857.52
585.78	47393.51
585.94	47068.17
586.10	46988.60
586.26	46838.80
586.42	47505.85
586.58	47136.05
586.74	46848.16
586.90	47016.68
587.06	47269.46
587.22	47590.11
587.38	46740.50
587.54	47044.77
587.70	47386.49
587.86	47342.02
588.02	47040.09
588.18	47426.28
588.34	47234.35
588.49	46960.51
588.65	46960.51
588.81	47360.74
588.97	47262.44
589.13	47187.54
589.29	47559.69
589.45	48032.47
589.61	47367.76
589.77	47475.43
589.93	47753.95
590.08	47707.14
