SpectraSuite Data File
++++++++++++++++++++++++++++++++++++
Date: Fri Oct 25 11:22:55 EDT 2013
User: price-jones
Dark Spectrum Present: No
Reference Spectrum Present: No
Number of Sampled Component Spectra: 1
Spectrometers: USB2+H05261
Integration Time (usec): 100000 (USB2+H05261)
Spectra Averaged: 1 (USB2+H05261)
Boxcar Smoothing: 0 (USB2+H05261)
Correct for Electrical Dark: No (USB2+H05261)
Strobe/Lamp Enabled: No (USB2+H05261)
Correct for Detector Non-linearity: No (USB2+H05261)
Correct for Stray Light: No (USB2+H05261)
Number of Pixels in Processed Spectrum: 2048
>>>>>Begin Processed Spectral Data<<<<<
365.73	292.57
365.92	292.57
366.12	292.57
366.32	163.84
366.52	184.90
366.72	98.30
366.91	110.01
367.11	145.11
367.31	67.88
367.51	112.35
367.70	119.37
367.90	170.86
368.10	121.71
368.30	51.49
368.49	133.41
368.69	149.79
368.89	95.96
369.09	117.03
369.28	114.69
369.48	154.48
369.68	173.20
369.87	194.26
370.07	154.48
370.27	203.63
370.47	215.33
370.66	610.88
370.86	690.46
371.06	699.82
371.25	669.39
371.45	631.94
371.65	688.12
371.84	599.18
372.04	690.46
372.24	763.01
372.44	641.31
372.63	732.59
372.83	711.52
373.03	793.44
373.22	781.74
373.42	819.19
373.62	751.31
373.81	788.76
374.01	826.21
374.21	788.76
374.40	863.66
374.60	809.83
374.79	772.38
374.99	957.28
375.19	826.21
375.38	866.00
375.58	800.46
375.78	816.85
375.97	835.57
376.17	950.26
376.37	828.55
376.56	908.13
376.76	828.55
376.95	861.32
377.15	945.58
377.35	889.40
377.54	901.11
377.74	882.38
377.93	950.26
378.13	917.49
378.33	880.04
378.52	816.85
378.72	873.02
378.91	931.53
379.11	915.15
379.31	947.92
379.50	973.66
379.70	976.00
379.89	1027.50
380.09	1015.79
380.28	901.11
380.48	1018.13
380.68	903.45
380.87	990.05
381.07	1083.67
381.26	980.68
381.46	1076.65
381.65	952.60
381.85	1050.90
382.04	1144.52
382.24	1015.79
382.43	1074.31
382.63	1116.44
382.83	1086.01
383.02	1064.94
383.22	1081.33
383.41	1053.24
383.61	1132.82
383.80	1165.59
384.00	1074.31
384.19	1191.33
384.39	1170.27
384.58	1130.48
384.78	1172.61
384.97	1137.50
385.17	1151.54
385.36	1132.82
385.56	1193.67
385.75	1226.44
385.95	1219.42
386.14	1184.31
386.34	1179.63
386.53	1118.78
386.72	1210.06
386.92	1198.35
387.11	1224.10
387.31	1291.98
387.50	1207.72
387.70	1224.10
387.89	1212.40
388.09	1357.51
388.28	1200.69
388.48	1299.00
388.67	1366.87
388.86	1280.27
389.06	1268.57
389.25	1334.11
389.45	1310.70
389.64	1378.58
389.84	1371.55
390.03	1378.58
390.22	1350.49
390.42	1366.87
390.61	1362.19
390.81	1420.71
391.00	1348.15
391.19	1397.30
391.39	1427.73
391.58	1369.21
391.78	1467.52
391.97	1455.81
392.16	1465.18
392.36	1540.07
392.55	1540.07
392.75	1504.96
392.94	1509.65
393.13	1659.44
393.33	1500.28
393.52	1596.25
393.71	1659.44
393.91	1584.54
394.10	1488.58
394.29	1605.61
394.49	1624.33
394.68	1694.55
394.88	1685.19
395.07	1739.02
395.26	1732.00
395.46	1633.69
395.65	1743.70
395.84	1631.35
396.04	1813.92
396.23	1795.19
396.42	1813.92
396.62	1771.79
396.81	1750.72
397.00	1764.76
397.19	1839.66
397.39	1930.94
397.58	1846.68
397.77	1755.40
397.97	1937.96
398.16	1891.15
398.35	1867.75
398.55	1832.64
398.74	1919.24
398.93	1994.14
399.12	1919.24
399.32	1942.64
399.51	2029.24
399.70	2076.06
399.90	1916.90
400.09	1970.73
400.28	2052.65
400.47	2076.06
400.67	2057.33
400.86	2083.08
401.05	2090.10
401.24	2186.06
401.44	2106.48
401.63	2085.42
401.82	2190.74
402.01	2064.35
402.21	2188.40
402.40	2296.07
402.59	2139.25
402.78	2188.40
402.97	2186.06
403.17	2310.11
403.36	2434.16
403.55	2389.69
403.74	2452.88
403.93	2305.43
404.13	2338.20
404.32	2312.45
404.51	2417.77
404.70	2389.69
404.89	2450.54
405.09	2513.74
405.28	2462.24
405.47	2450.54
405.66	2565.23
405.85	2511.39
406.05	2647.15
406.24	2581.61
406.43	2583.95
406.62	2600.34
406.81	2766.51
407.00	2637.78
407.20	2588.63
407.39	2626.08
407.58	2761.83
407.77	2722.04
407.96	2792.26
408.15	2782.90
408.34	2813.32
408.54	2810.98
408.73	2803.96
408.92	2806.30
409.11	2867.16
409.30	2904.60
409.49	2965.46
409.68	3038.02
409.87	2925.67
410.07	3091.85
410.26	3023.97
410.45	2972.48
410.64	3009.93
410.83	3061.42
411.02	3117.59
411.21	3201.85
411.40	3087.17
411.59	3274.41
411.78	3290.79
411.98	3185.47
412.17	3335.26
412.36	3251.00
412.55	3368.03
412.74	3377.39
412.93	3431.23
413.12	3522.51
413.31	3487.40
413.50	3566.98
413.69	3522.51
413.88	3583.36
414.07	3597.40
414.26	3754.22
414.45	3653.58
414.64	3737.84
414.83	3712.09
415.02	3878.27
415.22	3810.39
415.41	3978.91
415.60	3791.67
415.79	3918.06
415.98	3955.51
416.17	3889.97
416.36	3929.76
416.55	4093.60
416.74	4145.09
416.93	4058.49
417.12	4084.23
417.31	4173.18
417.50	4337.01
417.69	4311.27
417.88	4390.84
418.07	4292.54
418.26	4280.84
418.45	4442.34
418.64	4526.60
418.83	4388.50
419.02	4449.36
419.21	4521.92
419.39	4514.89
419.58	4554.68
419.77	4571.07
419.96	4645.96
420.15	4603.83
420.34	4704.48
420.53	4674.05
420.72	4847.25
420.91	4664.69
421.10	4786.40
421.29	4765.33
421.48	4601.49
421.67	4882.36
421.86	4882.36
422.05	4774.69
422.24	4884.70
422.43	4910.44
422.61	4887.04
422.80	5006.41
422.99	5064.92
423.18	5034.49
423.37	4999.38
423.56	4990.02
423.75	4894.06
423.94	4936.19
424.13	4652.98
424.32	4957.25
424.50	5039.17
424.69	5027.47
424.88	5032.15
425.07	4952.57
425.26	4851.93
425.45	4943.21
425.64	5085.98
425.83	4985.34
426.01	5100.03
426.20	5179.61
426.39	5078.96
426.58	5081.30
426.77	5046.20
426.96	5125.77
427.15	5071.94
427.33	5366.85
427.52	5308.34
427.71	5430.04
427.90	5399.62
428.09	5338.76
428.28	5310.68
428.46	5406.64
428.65	5313.02
428.84	5439.40
429.03	5528.35
429.22	5432.38
429.40	5540.05
429.59	5371.53
429.78	5329.40
429.97	5460.47
430.16	5526.00
430.34	5614.95
430.53	5647.71
430.72	5741.33
430.91	5717.93
431.10	5682.82
431.28	5860.70
431.47	5788.14
431.66	6031.56
431.85	5717.93
432.03	5837.30
432.22	6076.03
432.41	6059.65
432.60	5935.60
432.79	6019.86
432.97	6038.58
433.16	6045.60
433.35	6146.25
433.54	6090.07
433.72	6153.27
433.91	6012.84
434.10	6169.65
434.28	6099.44
434.47	6349.87
434.66	6429.45
434.85	6394.34
435.03	6387.32
435.22	6258.59
435.41	6445.84
435.59	6504.35
435.78	6483.28
435.97	6480.94
436.16	6513.71
436.34	6396.68
436.53	6494.99
436.72	6722.02
436.90	6471.58
437.09	6803.94
437.28	6469.24
437.46	6607.33
437.65	6623.72
437.84	6850.75
438.02	6736.06
438.21	6899.90
438.40	6757.13
438.58	7059.06
438.77	7108.21
438.96	7199.49
439.14	7211.19
439.33	7232.26
439.52	7328.22
439.70	7173.74
439.89	7300.13
440.08	7431.20
440.26	7407.80
440.45	7232.26
440.63	7573.97
440.82	7620.78
441.01	7674.62
441.19	7798.66
441.38	7936.76
441.57	8032.72
441.75	8013.99
441.94	8056.12
442.12	8081.87
442.31	8086.55
442.50	8070.17
442.68	8194.22
442.87	8093.57
443.05	8107.62
443.24	8219.96
443.43	8271.45
443.61	8421.25
443.80	8634.24
443.98	8032.72
444.17	8042.08
444.35	8482.10
444.54	8514.87
444.73	8299.54
444.91	8283.16
445.10	8533.59
445.28	8542.96
445.47	8437.63
445.65	8582.74
445.84	8538.27
446.02	8594.45
446.21	8641.26
446.39	8573.38
446.58	8503.17
446.77	8641.26
446.95	8315.92
447.14	8535.93
447.32	8533.59
447.51	8521.89
447.69	8589.77
447.88	8622.53
448.06	8720.84
448.25	8589.77
448.43	8730.20
448.62	8802.75
448.80	8748.92
448.99	8769.99
449.17	8744.24
449.36	8943.19
449.54	9074.26
449.73	9020.42
449.91	9217.03
450.10	9165.54
450.28	9092.98
450.46	9020.42
450.65	9104.68
450.83	9188.94
451.02	9170.22
451.20	9249.80
451.39	9128.09
451.57	9013.40
451.76	9158.52
451.94	9263.84
452.13	9596.20
452.31	9305.97
452.49	9280.22
452.68	9441.72
452.86	9411.29
453.05	9460.45
453.23	9682.80
453.42	9781.10
453.60	9451.08
453.78	9530.66
453.97	9483.85
454.15	9579.81
454.34	9551.73
454.52	9661.73
454.70	9790.46
454.89	9745.99
455.07	9827.91
455.26	9900.47
455.44	9912.17
455.62	10129.84
455.81	9982.38
455.99	9987.07
456.17	10188.35
456.36	10190.69
456.54	10286.65
456.73	10300.70
456.91	10389.64
457.09	10532.41
457.28	10806.25
457.46	10420.06
457.64	10534.75
457.83	10326.44
458.01	10427.09
458.19	10998.18
458.38	10633.05
458.56	10761.78
458.74	10689.23
458.93	10841.36
459.11	10860.09
459.29	10672.84
459.48	10883.49
459.66	10862.43
459.84	10970.09
460.03	11220.53
460.21	10942.00
460.39	11239.25
460.57	10934.98
460.76	11133.93
460.94	11421.81
461.12	11145.63
461.31	11403.09
461.49	11398.41
461.67	11267.34
461.85	11700.34
462.04	11363.30
462.22	11922.69
462.40	11702.68
462.59	11730.76
462.77	11672.25
462.95	11639.48
463.13	11688.64
463.32	11800.98
463.50	12135.68
463.68	11829.07
463.86	12058.44
464.05	11669.91
464.23	11861.84
464.41	11903.96
464.59	11620.76
464.78	12131.00
464.96	12226.96
465.14	11969.50
465.32	12065.46
465.50	12222.28
465.69	12161.42
465.87	12458.67
466.05	12318.24
466.23	12306.54
466.41	12360.37
466.60	12657.62
466.78	12250.36
466.96	12248.02
467.14	12463.35
467.32	12334.62
467.51	12774.64
467.69	12400.16
467.87	12439.95
468.05	12666.98
468.23	12652.94
468.41	12638.89
468.60	12622.51
468.78	12863.58
468.96	12657.62
469.14	12894.01
469.32	13235.73
469.50	12856.56
469.69	13121.04
469.87	13212.32
470.05	13067.21
470.23	13399.57
470.41	13334.03
470.59	13350.42
470.77	13163.17
470.95	13434.68
471.14	13755.33
471.32	13334.03
471.50	13596.17
471.68	13898.10
471.86	13898.10
472.04	14047.90
472.22	14061.94
472.40	13965.98
472.58	14015.13
472.77	14026.83
472.95	14225.78
473.13	14740.69
473.31	14223.44
473.49	14239.82
473.67	14443.45
473.85	14511.32
474.03	14860.06
474.21	14616.65
474.39	14647.07
474.57	15225.18
474.75	14815.59
474.93	14820.27
475.12	15080.07
475.30	15288.38
475.48	15253.27
475.66	15424.13
475.84	15412.43
476.02	15480.30
476.20	15552.86
476.38	15836.06
476.56	16081.82
476.74	15953.09
476.92	16304.17
477.10	16327.58
477.28	16409.50
477.46	16456.31
477.64	16549.93
477.82	16982.93
478.00	17366.78
478.18	16833.13
478.36	17057.82
478.54	17628.92
478.72	17355.07
478.90	17649.98
479.08	17657.00
479.26	17774.03
479.44	17834.88
479.62	18097.02
479.80	18113.41
479.98	18263.20
480.16	18995.79
480.34	18424.70
480.52	18728.97
480.70	18714.92
480.88	18822.59
481.06	18761.73
481.24	19094.09
481.41	19353.89
481.59	19407.72
481.77	19786.89
481.95	19922.64
482.13	19871.15
482.31	19871.15
482.49	20390.75
482.67	20734.81
482.85	20514.80
483.03	20627.14
483.21	20966.52
483.39	20872.90
483.57	20877.58
483.74	21549.31
483.92	21678.04
484.10	21104.61
484.28	21914.44
484.46	22239.77
484.64	22918.53
484.82	22169.55
485.00	22499.57
485.18	22946.61
485.35	23243.86
485.53	23232.16
485.71	23206.41
485.89	23594.94
486.07	23379.61
486.25	24051.34
486.43	23653.45
486.61	24100.50
486.78	24254.97
486.96	24599.03
487.14	24826.06
487.32	24608.39
487.50	25001.60
487.68	25188.85
487.85	25483.75
488.03	25825.47
488.21	26316.98
488.39	26206.98
488.57	26604.87
488.75	26302.94
488.92	26621.25
489.10	27185.32
489.28	27061.27
489.46	27552.79
489.64	27325.75
489.81	28240.90
489.99	27964.72
490.17	28161.33
490.35	27990.47
490.53	28556.88
490.70	28858.81
490.88	28701.99
491.06	28973.49
491.24	28987.53
491.41	29134.99
491.59	29593.73
491.77	29832.47
491.95	29724.80
492.13	29947.15
492.30	30075.88
492.48	30277.17
492.66	30380.15
492.84	30665.70
493.01	31307.01
493.19	30543.99
493.37	31173.60
493.54	31412.33
493.72	31990.44
493.90	31878.10
494.08	32053.64
494.25	32444.51
494.43	32430.46
494.61	32720.69
494.79	32407.06
494.96	32870.48
495.14	32879.85
495.32	32947.72
495.49	33743.50
495.67	33486.04
495.85	33757.55
496.02	34316.93
496.20	34316.93
496.38	34401.19
496.55	34415.24
496.73	34953.56
496.91	35082.29
497.09	35168.89
497.26	36039.57
497.44	35405.28
497.62	35789.13
497.79	36470.23
497.97	35948.29
498.14	36425.76
498.32	36409.37
498.50	37060.04
498.67	37181.75
498.85	36531.08
499.03	36912.59
499.20	37158.34
499.38	37123.24
499.56	37357.29
499.73	37202.82
499.91	38038.39
500.08	38115.62
500.26	37881.57
500.44	37801.99
500.61	38246.69
500.79	38012.64
500.97	38574.37
501.14	39365.47
501.32	38909.07
501.49	39339.72
501.67	39009.71
501.84	39346.75
502.02	39482.50
502.20	39363.13
502.37	39618.25
502.55	39880.39
502.72	39875.71
502.90	40011.46
503.07	39978.69
503.25	39962.31
503.43	40552.12
503.60	40348.50
503.78	40603.61
503.95	40727.66
504.13	41022.57
504.30	41013.21
504.48	40891.50
504.65	41195.77
504.83	41478.97
505.01	41731.75
505.18	41565.57
505.36	42040.70
505.53	41867.50
505.71	41813.67
505.88	42307.52
506.06	41897.93
506.23	42216.24
506.41	42480.72
506.58	42756.91
506.76	42637.54
506.93	43213.31
507.11	42644.56
507.28	42892.66
507.46	42810.74
507.63	43255.44
507.81	43688.44
507.98	43550.35
508.16	43246.08
508.33	43728.23
508.50	43810.15
508.68	44215.06
508.85	44009.09
509.03	44498.26
509.20	44376.56
509.38	44921.90
509.55	44989.78
509.73	45258.94
509.90	45666.19
510.08	45146.59
510.25	44961.69
510.42	44765.09
510.60	45298.73
510.77	45986.85
510.95	45860.46
511.12	45434.48
511.30	45432.14
511.47	45984.51
511.64	46281.75
511.82	46066.42
511.99	46167.07
512.17	46522.83
512.34	46216.22
512.51	46525.17
512.69	46967.53
512.86	46892.63
513.04	46684.33
513.21	47208.61
513.38	46894.97
513.56	47206.26
513.73	46995.62
513.90	47208.61
514.08	47487.13
514.25	48060.56
514.43	48002.05
514.60	47796.08
514.77	47880.34
514.95	48231.42
515.12	48236.10
515.29	47983.32
515.47	48390.58
515.64	48641.01
515.81	48406.96
515.99	48933.58
516.16	48701.87
516.33	48921.88
516.51	49059.97
516.68	49186.36
516.85	48793.15
517.03	49003.80
517.20	49331.47
517.37	49216.78
517.54	49226.15
517.72	49284.66
517.89	49577.23
518.06	49577.23
518.24	49350.20
518.41	49750.43
518.58	49984.48
518.75	49893.20
518.93	50110.87
519.10	49684.89
519.27	50211.51
519.45	50082.78
519.62	50618.77
519.79	50480.67
519.96	50286.41
520.14	50686.64
520.31	50529.83
520.48	50548.55
520.65	50609.40
520.83	50944.10
521.00	50885.59
521.17	50777.92
521.34	50768.56
521.52	51154.75
521.69	51255.39
521.86	51370.08
522.03	51491.79
522.20	51407.53
522.38	51861.59
522.55	51763.29
522.72	51751.59
522.89	51508.17
523.07	52053.51
523.24	52105.01
523.41	52273.52
523.58	51662.64
523.75	52275.87
523.92	52215.01
524.10	52570.77
524.27	52538.01
524.44	52453.75
524.61	52722.91
524.78	52622.26
524.96	52512.26
525.13	52858.66
525.30	52956.96
525.47	52914.83
525.64	52521.62
525.81	52914.83
525.98	52849.30
526.16	53097.39
526.33	53020.16
526.50	53380.60
526.67	53207.40
526.84	53455.50
527.01	53073.99
527.18	53066.97
527.36	53467.20
527.53	53469.54
527.70	53607.63
527.87	53769.13
528.04	53696.57
528.21	53535.07
528.38	53663.80
528.55	54103.82
528.72	53694.23
528.89	53879.13
529.07	53858.07
529.24	53764.45
529.41	54218.51
529.58	53776.15
529.75	54138.93
529.92	54162.34
530.09	54372.99
530.26	54049.99
530.43	54188.08
530.60	53907.22
530.77	54047.65
530.94	54396.39
531.11	54064.03
531.28	54588.31
531.46	54454.90
531.63	54298.09
531.80	54651.51
531.97	54972.16
532.14	54815.35
532.31	54740.45
532.48	54756.83
532.65	54873.86
532.82	54691.30
532.99	55049.40
533.16	54859.82
533.33	54927.69
533.50	55220.26
533.67	55339.63
533.84	54960.46
534.01	54934.71
534.18	55112.59
534.35	55660.28
534.52	55407.50
534.69	55725.81
534.86	55573.68
535.03	55491.76
535.20	55524.53
535.37	55622.83
535.54	55819.44
535.71	55508.14
535.88	55894.33
536.05	55620.49
536.22	55826.46
536.38	56055.83
536.55	55966.89
536.72	55922.42
536.89	55880.29
537.06	56013.70
537.23	56116.68
537.40	55929.44
537.57	55903.70
537.74	56198.60
537.91	56423.29
538.08	56308.61
538.25	56123.71
538.42	56151.79
538.59	56636.28
538.75	56128.39
538.92	56423.29
539.09	56357.76
539.26	56542.66
539.43	56257.12
539.60	56404.57
539.77	56423.29
539.94	56999.07
540.11	56624.58
540.28	56769.69
540.44	56776.72
540.61	56545.00
540.78	56647.99
540.95	56690.12
541.12	56790.76
541.29	56708.84
541.46	56676.07
541.62	56882.04
541.79	57038.86
541.96	56650.33
542.13	56882.04
542.30	57141.84
542.47	57183.97
542.63	57085.67
542.80	57359.51
542.97	57113.75
543.14	57387.60
543.31	57418.02
543.48	57408.66
543.64	57736.34
543.81	57703.57
543.98	57626.33
544.15	57478.88
544.32	57813.57
544.48	57745.70
544.65	57663.78
544.82	57780.81
544.99	57565.48
545.16	57762.08
545.32	57865.06
545.49	57977.41
545.66	58089.76
545.83	58241.89
546.00	57968.05
546.16	57867.40
546.33	57949.32
546.50	57825.28
546.67	58099.12
546.83	57733.99
547.00	58206.78
547.17	57907.19
547.34	58202.10
547.50	58253.59
547.67	58330.83
547.84	58181.04
548.00	58424.45
548.17	58585.95
548.34	58330.83
548.51	58820.00
548.67	58485.31
548.84	58457.22
549.01	58452.54
549.18	58541.48
549.34	58389.34
549.51	58269.98
549.68	58475.94
549.84	58887.88
550.01	58738.08
550.18	58489.99
550.34	58691.27
550.51	58745.11
550.68	58756.81
550.84	58461.90
551.01	58911.28
551.18	58761.49
551.34	58838.73
551.51	58808.30
551.68	58859.79
551.84	58841.07
552.01	58820.00
552.18	58969.80
552.34	58623.40
552.51	59025.97
552.68	58695.95
552.84	58981.50
553.01	59288.11
553.18	59044.69
553.34	59135.98
553.51	59154.70
553.67	58932.35
553.84	59419.18
554.01	59281.09
554.17	59166.40
554.34	59330.24
554.51	59051.72
554.67	59358.33
554.84	59269.39
555.00	59133.63
555.17	59208.53
555.33	59288.11
555.50	59192.15
555.67	59241.30
555.83	59262.36
556.00	59283.43
556.16	59835.80
556.33	59578.34
556.50	59428.54
556.66	59522.16
556.83	59271.73
556.99	59632.17
557.16	59847.50
557.32	59835.80
557.49	60011.34
557.65	59533.87
557.82	59662.60
557.98	59505.78
558.15	59753.88
558.32	59910.69
558.48	59465.99
558.65	59821.75
558.81	59718.77
558.98	59896.65
559.14	60039.42
559.31	59770.26
559.47	59891.97
559.64	59945.80
559.80	59882.61
559.97	60046.44
560.13	59964.52
560.30	59784.30
560.46	59917.71
560.63	59980.91
560.79	60130.70
560.96	60116.66
561.12	60041.76
561.29	60104.96
561.45	59924.74
561.61	59978.57
561.78	60013.68
561.94	60107.30
562.11	60168.15
562.27	60261.77
562.44	60334.33
562.60	60385.82
562.77	60329.65
562.93	59948.14
563.10	60128.36
563.26	60046.44
563.42	60327.31
563.59	60299.22
563.75	60257.09
563.92	60233.69
564.08	60261.77
564.24	60364.76
564.41	60371.78
564.57	60341.35
564.74	60282.84
564.90	60250.07
565.07	60409.23
565.23	60362.42
565.39	60416.25
565.56	60601.15
565.72	60516.89
565.88	60423.27
566.05	60465.40
566.21	60360.08
566.38	60317.95
566.54	60535.62
566.70	60463.06
566.87	60467.74
567.03	60451.36
567.19	60617.53
567.36	60636.26
567.52	60432.63
567.68	60804.78
567.85	60521.57
568.01	60575.40
568.17	60776.69
568.34	60566.04
568.50	60521.57
568.66	60474.76
568.83	60549.66
568.99	60690.09
569.15	60601.15
569.32	60678.39
569.48	60605.83
569.64	60748.60
569.81	60900.74
569.97	60669.03
570.13	60800.10
570.30	60544.98
570.46	60741.58
570.62	60835.20
570.78	60809.46
570.95	60898.40
571.11	60673.71
571.27	60619.88
571.43	60931.17
571.60	60910.10
571.76	60760.31
571.92	60835.20
572.09	60589.45
572.25	60924.14
572.41	60863.29
572.57	60774.35
572.74	61080.96
572.90	60947.55
573.06	60996.70
573.22	60968.61
573.38	60743.92
573.55	60809.46
573.71	61146.50
573.87	60905.42
574.03	60863.29
574.20	60755.63
574.36	60954.57
574.52	60933.51
574.68	60945.21
574.84	61205.01
575.01	60992.02
575.17	60734.56
575.33	61090.32
575.49	60914.78
575.65	60853.93
575.82	61008.40
575.98	60970.96
576.14	61258.84
576.30	61064.58
576.46	60999.04
576.62	60917.12
576.79	60877.33
576.95	60821.16
577.11	61190.97
577.27	61062.24
577.43	60956.91
577.59	60837.54
577.75	61080.96
577.92	60837.54
578.08	60940.53
578.24	61076.28
578.40	61251.82
578.56	61186.28
578.72	61017.77
578.88	61272.88
579.04	61368.85
579.21	61219.05
579.37	61242.46
579.53	61333.74
579.69	60910.10
579.85	61036.49
580.01	60963.93
580.17	61059.90
580.33	61162.88
580.49	61249.48
580.65	61113.73
580.82	61055.21
580.98	60961.59
581.14	60989.68
581.30	61188.63
581.46	61193.31
581.62	61153.52
581.78	60882.02
581.94	61041.17
582.10	61151.18
582.26	61401.61
582.42	61254.16
582.58	61251.82
582.74	61141.81
582.90	61200.33
583.06	61228.41
583.22	61172.24
583.38	61050.53
583.54	61235.44
583.70	61382.89
583.86	61312.67
584.02	61223.73
584.18	61315.01
584.34	61125.43
584.50	61219.05
584.66	61104.37
584.82	60980.32
584.98	61371.19
585.14	61279.91
585.30	61097.34
585.46	61251.82
585.62	61205.01
585.78	61357.14
585.94	61289.27
586.10	61244.80
586.26	61371.19
586.42	61228.41
586.58	61237.78
586.74	61307.99
586.90	61181.60
587.06	61181.60
587.22	61427.36
587.38	61249.48
587.54	61380.55
587.70	61551.41
587.86	61130.11
588.02	61429.70
588.18	61532.68
588.34	61106.71
588.49	61354.80
