SpectraSuite Data File
++++++++++++++++++++++++++++++++++++
Date: Fri Oct 25 11:25:38 EDT 2013
User: price-jones
Dark Spectrum Present: No
Reference Spectrum Present: No
Number of Sampled Component Spectra: 1
Spectrometers: USB2+H05261
Integration Time (usec): 100000 (USB2+H05261)
Spectra Averaged: 1 (USB2+H05261)
Boxcar Smoothing: 0 (USB2+H05261)
Correct for Electrical Dark: No (USB2+H05261)
Strobe/Lamp Enabled: No (USB2+H05261)
Correct for Detector Non-linearity: No (USB2+H05261)
Correct for Stray Light: No (USB2+H05261)
Number of Pixels in Processed Spectrum: 2048
>>>>>Begin Processed Spectral Data<<<<<
365.73	243.42
365.92	243.42
366.12	243.42
366.32	98.30
366.52	114.69
366.72	166.18
366.91	117.03
367.11	135.75
367.31	84.26
367.51	182.56
367.70	110.01
367.90	124.05
368.10	173.20
368.30	208.31
368.49	110.01
368.69	154.48
368.89	182.56
369.09	217.67
369.28	236.39
369.48	154.48
369.68	175.54
369.87	241.08
370.07	126.39
370.27	212.99
370.47	386.19
370.66	615.56
370.86	571.09
371.06	648.33
371.25	725.57
371.45	641.31
371.65	730.25
371.84	650.67
372.04	655.35
372.24	720.88
372.44	746.63
372.63	739.61
372.83	678.76
373.03	774.72
373.22	744.29
373.42	770.04
373.62	763.01
373.81	793.44
374.01	854.30
374.21	840.25
374.40	835.57
374.60	828.55
374.79	828.55
374.99	854.30
375.19	812.17
375.38	837.91
375.58	891.74
375.78	919.83
375.97	882.38
376.17	870.68
376.37	882.38
376.56	964.30
376.76	856.64
376.95	844.93
377.15	868.34
377.35	849.61
377.54	889.40
377.74	933.87
377.93	915.15
378.13	910.47
378.33	922.17
378.52	863.66
378.72	947.92
378.91	898.77
379.11	954.94
379.31	875.36
379.50	903.45
379.70	968.98
379.89	968.98
380.09	901.11
380.28	1029.84
380.48	990.05
380.68	971.32
380.87	952.60
381.07	971.32
381.26	1027.50
381.46	1104.73
381.65	1100.05
381.85	971.32
382.04	1067.28
382.24	1064.94
382.43	1060.26
382.63	1004.09
382.83	1107.07
383.02	1062.60
383.22	1069.62
383.41	1076.65
383.61	1018.13
383.80	1067.28
384.00	1121.12
384.19	1163.25
384.39	1109.41
384.58	1263.89
384.78	1203.04
384.97	1160.91
385.17	1062.60
385.36	1158.57
385.56	1114.10
385.75	1116.44
385.95	1198.35
386.14	1186.65
386.34	1245.16
386.53	1226.44
386.72	1135.16
386.92	1301.34
387.11	1142.18
387.31	1252.19
387.50	1254.53
387.70	1181.97
387.89	1198.35
388.09	1308.36
388.28	1203.04
388.48	1284.95
388.67	1212.40
388.86	1313.04
389.06	1409.00
389.25	1439.43
389.45	1294.32
389.64	1364.53
389.84	1416.02
390.03	1416.02
390.22	1455.81
390.42	1359.85
390.61	1352.83
390.81	1345.81
391.00	1397.30
391.19	1441.77
391.39	1376.24
391.58	1460.49
391.78	1453.47
391.97	1565.82
392.16	1373.89
392.36	1568.16
392.55	1549.43
392.75	1530.71
392.94	1472.20
393.13	1448.79
393.33	1614.97
393.52	1554.12
393.71	1535.39
393.91	1547.09
394.10	1554.12
394.29	1568.16
394.49	1633.69
394.68	1717.95
394.88	1640.72
395.07	1650.08
395.26	1614.97
395.46	1689.87
395.65	1802.21
395.84	1739.02
396.04	1750.72
396.23	1785.83
396.42	1760.08
396.62	1722.63
396.81	1741.36
397.00	1856.04
397.19	1706.25
397.39	1727.32
397.58	1851.36
397.77	1856.04
397.97	1799.87
398.16	1865.41
398.35	1900.52
398.55	1860.73
398.74	1914.56
398.93	1944.99
399.12	1970.73
399.32	1900.52
399.51	1942.64
399.70	1970.73
399.90	2001.16
400.09	1989.46
400.28	1975.41
400.47	1998.82
400.67	2073.71
400.86	2143.93
401.05	2090.10
401.24	2167.34
401.44	2136.91
401.63	2188.40
401.82	2193.08
402.01	2167.34
402.21	2059.67
402.40	2155.63
402.59	2087.76
402.78	2132.23
402.97	2218.83
403.17	2263.30
403.36	2186.06
403.55	2352.24
403.74	2354.58
403.93	2352.24
404.13	2406.07
404.32	2321.81
404.51	2291.38
404.70	2485.65
404.89	2361.60
405.09	2511.39
405.28	2413.09
405.47	2485.65
405.66	2658.85
405.85	2502.03
406.05	2539.48
406.24	2511.39
406.43	2630.76
406.62	2581.61
406.81	2621.40
407.00	2565.23
407.20	2518.42
407.39	2567.57
407.58	2668.21
407.77	2677.57
407.96	2717.36
408.15	2761.83
408.34	2719.70
408.54	2745.45
408.73	2902.26
408.92	2848.43
409.11	2789.92
409.30	2810.98
409.49	2803.96
409.68	2909.29
409.87	2855.45
410.07	2998.23
410.26	3012.27
410.45	2911.63
410.64	3040.36
410.83	3185.47
411.02	3054.40
411.21	3173.77
411.40	3009.93
411.59	3145.68
411.78	3145.68
411.98	3166.74
412.17	3246.32
412.36	3349.31
412.55	3300.16
412.74	3358.67
412.93	3342.28
413.12	3316.54
413.31	3473.36
413.50	3389.10
413.69	3595.06
413.88	3564.64
414.07	3695.71
414.26	3691.02
414.45	3583.36
414.64	3646.55
414.83	3777.62
415.02	3801.03
415.22	3794.01
415.41	3955.51
415.60	3798.69
415.79	3915.72
415.98	4081.89
416.17	3964.87
416.36	3955.51
416.55	3901.67
416.74	4032.74
416.93	4079.55
417.12	4100.62
417.31	4133.39
417.50	4205.94
417.69	4294.88
417.88	4290.20
418.07	4271.48
418.26	4229.35
418.45	4292.54
418.64	4276.16
418.83	4351.06
419.02	4329.99
419.21	4458.72
419.39	4519.57
419.58	4538.30
419.77	4454.04
419.96	4456.38
420.15	4636.60
420.34	4489.15
420.53	4526.60
420.72	4767.67
420.91	4643.62
421.10	4676.39
421.29	4823.84
421.48	4702.14
421.67	4730.22
421.86	4816.82
422.05	4706.82
422.24	4884.70
422.43	4847.25
422.61	4821.50
422.80	4975.98
422.99	4983.00
423.18	4877.68
423.37	5008.75
423.56	4947.89
423.75	4905.76
423.94	4695.11
424.13	4610.86
424.32	4837.89
424.50	4983.00
424.69	5163.22
424.88	5069.60
425.07	4919.81
425.26	4844.91
425.45	4854.27
425.64	4800.44
425.83	4908.10
426.01	4931.51
426.20	5093.01
426.39	5116.41
426.58	4945.55
426.77	5114.07
426.96	5210.03
427.15	4971.30
427.33	5109.39
427.52	5027.47
427.71	5373.87
427.90	5074.28
428.09	5305.99
428.28	5266.21
428.46	5259.18
428.65	5158.54
428.84	5476.85
429.03	5507.28
429.22	5439.40
429.40	5373.87
429.59	5441.75
429.78	5259.18
429.97	5195.99
430.16	5481.53
430.34	5682.82
430.53	5708.57
430.72	5600.90
430.91	5673.46
431.10	5526.00
431.28	5722.61
431.47	5703.89
431.66	5849.00
431.85	5687.50
432.03	5858.36
432.22	6052.63
432.41	5947.30
432.60	5956.66
432.79	5937.94
432.97	5982.41
433.16	5959.00
433.35	5832.62
433.54	6071.35
433.72	6111.14
433.91	5951.98
434.10	5949.64
434.28	6097.10
434.47	6136.88
434.66	6076.03
434.85	6310.08
435.03	6127.52
435.22	6303.06
435.41	6403.71
435.59	6406.05
435.78	6415.41
435.97	6579.25
436.16	6396.68
436.34	6553.50
436.53	6485.62
436.72	6665.85
436.90	6331.15
437.09	6799.26
437.28	6457.54
437.46	6513.71
437.65	6796.92
437.84	6747.76
438.02	6822.66
438.21	6822.66
438.40	6715.00
438.58	6967.77
438.77	6885.86
438.96	6775.85
439.14	7077.78
439.33	7082.46
439.52	7241.62
439.70	7375.03
439.89	7325.88
440.08	7370.35
440.26	7227.57
440.45	7232.26
440.63	7414.82
440.82	7515.46
441.01	7351.62
441.19	7588.02
441.38	7822.07
441.57	7576.31
441.75	7819.73
441.94	7882.92
442.12	7714.41
442.31	8107.62
442.50	7964.84
442.68	7892.29
442.87	8009.31
443.05	8058.46
443.24	8255.07
443.43	8133.36
443.61	8311.24
443.80	8308.90
443.98	7927.39
444.17	7812.71
444.35	8201.24
444.54	8336.99
444.73	8112.30
444.91	8191.88
445.10	8341.67
445.28	8299.54
445.47	8264.43
445.65	8315.92
445.84	8463.38
446.02	8376.78
446.21	8173.15
446.39	8273.79
446.58	8538.27
446.77	8482.10
446.95	8238.69
447.14	8367.42
447.32	8493.80
447.51	8472.74
447.69	8308.90
447.88	8428.27
448.06	8622.53
448.25	8482.10
448.43	8739.56
448.62	8557.00
448.80	8645.94
448.99	8793.39
449.17	8610.83
449.36	8482.10
449.54	8767.65
449.73	8905.74
449.91	9090.64
450.10	8870.63
450.28	8968.93
450.46	9043.83
450.65	8990.00
450.83	9011.06
451.02	9172.56
451.20	9139.79
451.39	9195.96
451.57	9198.31
451.76	9111.71
451.94	9224.05
452.13	9277.88
452.31	9146.81
452.49	9001.70
452.68	9296.61
452.86	9315.33
453.05	9291.93
453.23	9500.23
453.42	9444.06
453.60	9301.29
453.78	9586.83
453.97	9366.82
454.15	9231.07
454.34	9331.72
454.52	9685.14
454.70	9635.99
454.89	9593.86
455.07	9851.31
455.26	9811.53
455.44	9956.64
455.62	9881.74
455.81	10012.81
455.99	9956.64
456.17	9984.73
456.36	9989.41
456.54	9958.98
456.73	10270.27
456.91	10363.89
457.09	10352.19
457.28	10499.64
457.46	10169.63
457.64	10555.82
457.83	10438.79
458.01	10326.44
458.19	10827.32
458.38	10602.63
458.56	10675.18
458.74	10576.88
458.93	10675.18
459.11	10597.95
459.29	10565.18
459.48	10808.59
459.66	10775.83
459.84	10923.28
460.03	11077.76
460.21	10899.87
460.39	10850.72
460.57	10892.85
460.76	11091.80
460.94	11201.80
461.12	11300.11
461.31	11295.43
461.49	11239.25
461.67	10967.75
461.85	11382.03
462.04	11318.83
462.22	11698.00
462.40	11447.56
462.59	11517.78
462.77	11318.83
462.95	11398.41
463.13	11466.28
463.32	11571.61
463.50	11620.76
463.68	11908.65
463.86	11683.95
464.05	11599.70
464.23	11831.41
464.41	11609.06
464.59	11632.46
464.78	11903.96
464.96	12025.67
465.14	11838.43
465.32	11871.20
465.50	12105.25
465.69	12081.85
465.87	12163.76
466.05	12079.50
466.23	11948.43
466.41	12297.17
466.60	12437.61
466.78	12322.92
466.96	12163.76
467.14	12276.11
467.32	12329.94
467.51	12362.71
467.69	12119.29
467.87	12070.14
468.05	12542.93
468.23	12119.29
468.41	12528.89
468.60	12732.51
468.78	12606.13
468.96	12507.82
469.14	12788.69
469.32	13036.78
469.50	12531.23
469.69	12922.10
469.87	12959.55
470.05	13341.05
470.23	12940.82
470.41	13160.83
470.59	13465.10
470.77	13090.62
470.95	13324.67
471.14	13226.37
471.32	12982.95
471.50	13568.09
471.68	13619.58
471.86	13640.64
472.04	13619.58
472.22	14068.96
472.40	13486.17
472.58	13774.05
472.77	13919.17
472.95	13888.74
473.13	14478.55
473.31	14104.07
473.49	13980.02
473.67	14183.65
473.85	14345.14
474.03	14719.63
474.21	14373.23
474.39	14757.08
474.57	14705.59
474.75	14803.89
474.93	15119.86
475.12	15026.24
475.30	15108.16
475.48	14883.47
475.66	15372.64
475.84	15370.30
476.02	15293.06
476.20	15295.40
476.38	15503.71
476.56	16011.60
476.74	15925.00
476.92	15985.86
477.10	15749.46
477.28	16264.38
477.46	16058.42
477.64	16173.10
477.82	16503.12
478.00	17109.32
478.18	16594.40
478.36	16685.68
478.54	16938.46
478.72	17088.25
478.90	17301.24
479.08	17518.91
479.26	17586.79
479.44	17874.67
479.62	17799.77
479.80	17877.01
479.98	18026.81
480.16	18204.69
480.34	18462.15
480.52	18548.75
480.70	18567.47
480.88	18029.15
481.06	18714.92
481.24	18651.73
481.41	18810.89
481.59	19396.02
481.77	19293.04
481.95	19311.76
482.13	19798.59
482.31	19646.46
482.49	20032.65
482.67	20219.89
482.85	20304.15
483.03	20615.44
483.21	20896.30
483.39	20631.82
483.57	20821.41
483.74	21050.78
483.92	21268.45
484.10	21174.83
484.28	21738.90
484.46	22024.44
484.64	22129.77
484.82	21912.10
485.00	22377.86
485.18	22630.64
485.35	22773.41
485.53	22960.66
485.71	23030.87
485.89	23473.23
486.07	23489.62
486.25	23285.99
486.43	23566.85
486.61	23763.46
486.78	24126.24
486.96	24191.78
487.14	24666.91
487.32	24098.16
487.50	24542.86
487.68	24790.95
487.85	25238.00
488.03	25366.73
488.21	25371.41
488.39	25731.85
488.57	25998.67
488.75	25837.17
488.92	26494.86
489.10	26412.95
489.28	26501.89
489.46	27283.62
489.64	27037.87
489.81	27480.23
489.99	27428.74
490.17	27896.85
490.35	28112.17
490.53	28266.65
490.70	28538.15
490.88	28243.24
491.06	28694.97
491.24	28446.87
491.41	28978.17
491.59	29493.09
491.77	29450.96
491.95	29553.94
492.13	29860.55
492.30	29738.85
492.48	29743.53
492.66	29949.50
492.84	30190.57
493.01	30637.61
493.19	30520.59
493.37	30834.22
493.54	30890.39
493.72	31426.37
493.90	31119.76
494.08	31749.37
494.25	32041.93
494.43	31669.79
494.61	32140.24
494.79	32114.49
494.96	32301.73
495.14	32598.98
495.32	33369.02
495.49	32889.21
495.67	33366.68
495.85	33174.75
496.02	33378.38
496.20	34052.45
496.38	33408.81
496.55	34096.92
496.73	34562.69
496.91	34543.97
497.09	34740.57
497.26	34806.11
497.44	34602.48
497.62	35208.68
497.79	35597.21
497.97	35124.42
498.14	36027.87
498.32	35971.69
498.50	36236.17
498.67	36479.59
498.85	36315.75
499.03	36385.97
499.20	36226.81
499.38	36519.38
499.56	36802.58
499.73	36744.07
499.91	37048.34
500.08	37713.05
500.26	37418.14
500.44	37188.77
500.61	37619.43
500.79	37687.31
500.97	38178.82
501.14	38665.65
501.32	38560.33
501.49	38539.26
501.67	38459.68
501.84	38859.91
502.02	38766.29
502.20	39213.34
502.37	39246.10
502.55	39199.29
502.72	39494.20
502.90	39449.73
503.07	39047.16
503.25	39435.69
503.43	39828.90
503.60	40243.17
503.78	40460.84
503.95	40041.88
504.13	40060.61
504.30	40905.54
504.48	40629.36
504.65	40624.68
504.83	40634.04
505.01	40978.10
505.18	41165.34
505.36	41397.06
505.53	40903.20
505.71	41673.24
505.88	41560.89
506.06	41268.33
506.23	41979.85
506.41	41738.77
506.58	41888.57
506.76	42059.43
506.93	42321.57
507.11	42139.00
507.28	42281.78
507.46	42454.98
507.63	42735.84
507.81	43000.32
507.98	42689.03
508.16	42990.96
508.33	43021.39
508.50	43583.12
508.68	43531.62
508.85	43393.53
509.03	43697.80
509.20	43660.35
509.38	44198.68
509.55	43995.05
509.73	44259.53
509.90	44243.15
510.08	44477.20
510.25	44739.34
510.42	44638.70
510.60	44594.23
510.77	45097.44
510.95	45324.47
511.12	44582.52
511.30	44987.44
511.47	45177.02
511.64	45317.45
511.82	45677.90
511.99	45504.70
512.17	45640.45
512.34	45539.80
512.51	46267.71
512.69	46506.44
512.86	45991.53
513.04	46513.47
513.21	46075.79
513.38	46731.14
513.56	46733.48
513.73	46721.77
513.90	47175.84
514.08	46850.50
514.25	47220.31
514.43	47562.03
514.60	47388.83
514.77	47035.41
514.95	47688.42
515.12	47147.75
515.29	47594.79
515.47	47742.25
515.64	47693.10
515.81	47557.35
515.99	48123.75
516.16	48357.81
516.33	48346.11
516.51	48533.35
516.68	47969.28
516.85	48306.32
517.03	49223.81
517.20	49022.52
517.37	48839.96
517.54	48732.29
517.72	48662.08
517.89	48538.03
518.06	49057.63
518.24	49357.22
518.41	49024.86
518.58	49083.37
518.75	49244.87
518.93	49036.56
519.10	48954.64
519.27	49757.45
519.45	49745.75
519.62	49813.62
519.79	49958.73
519.96	49546.80
520.14	50061.72
520.31	49951.71
520.48	50354.29
520.65	50307.47
520.83	50684.30
521.00	50529.83
521.17	50501.74
521.34	50248.96
521.52	50944.10
521.69	50485.36
521.86	50614.08
522.03	50852.82
522.20	51152.41
522.38	51480.08
522.55	51239.01
522.72	51306.88
522.89	51412.21
523.07	51435.61
523.24	51051.76
523.41	51620.52
523.58	51880.31
523.75	51995.00
523.92	51819.46
524.10	51774.99
524.27	51770.31
524.44	52020.75
524.61	51899.04
524.78	51927.13
524.96	52060.54
525.13	52140.11
525.30	52210.33
525.47	52404.59
525.64	52325.02
525.81	52601.20
525.98	52631.63
526.16	52350.76
526.33	52631.63
526.50	53151.23
526.67	52762.70
526.84	52790.78
527.01	52629.29
527.18	52837.59
527.36	52872.70
527.53	53202.72
527.70	53013.13
527.87	53081.01
528.04	52945.26
528.21	53193.36
528.38	53446.13
528.55	53378.26
528.72	53191.01
528.89	53134.84
529.07	53043.56
529.24	53244.85
529.41	53696.57
529.58	53591.25
529.75	53591.25
529.92	53689.55
530.09	53829.98
530.26	53680.19
530.43	53996.16
530.60	53869.77
530.77	53677.85
530.94	54171.70
531.11	54014.88
531.28	54134.25
531.46	54054.67
531.63	54099.14
531.80	54227.87
531.97	54305.11
532.14	54447.88
532.31	54291.07
532.48	54616.40
532.65	54660.87
532.82	54300.43
532.99	54820.03
533.16	54656.19
533.33	54679.60
533.50	54913.65
533.67	54733.43
533.84	54688.96
534.01	54838.75
534.18	54813.01
534.35	54979.18
534.52	55110.25
534.69	54967.48
534.86	55255.37
535.03	54759.17
535.20	54976.84
535.37	55348.99
535.54	55341.97
535.71	54974.50
535.88	55491.76
536.05	55697.73
536.22	55512.83
536.38	55470.70
536.55	55264.73
536.72	55533.89
536.89	55175.79
537.06	55608.79
537.23	55613.47
537.40	55456.65
537.57	55620.49
537.74	55803.05
537.91	55505.80
538.08	55859.23
538.25	55552.62
538.42	55800.71
538.59	55959.87
538.75	55800.71
538.92	55884.97
539.09	56280.52
539.26	56109.66
539.43	55873.27
539.60	56126.05
539.77	56186.90
539.94	56182.22
540.11	56287.54
540.28	56254.78
540.44	56303.93
540.61	56486.49
540.78	56137.75
540.95	56392.87
541.12	56427.98
541.29	56392.87
541.46	56488.83
541.62	56418.61
541.79	56678.41
541.96	56449.04
542.13	56402.23
542.30	56374.14
542.47	56699.48
542.63	56886.72
542.80	56877.36
542.97	56992.04
543.14	57080.98
543.31	56912.47
543.48	57277.59
543.64	57317.38
543.81	57441.43
543.98	57200.35
544.15	57345.47
544.32	57378.23
544.48	57567.82
544.65	57347.81
544.82	57436.75
544.99	57265.89
545.16	57464.83
545.32	57326.74
545.49	57811.23
545.66	57780.81
545.83	57537.39
546.00	57612.29
546.16	57567.82
546.33	57382.91
546.50	57502.28
546.67	57647.39
546.83	57207.37
547.00	57549.09
547.17	57600.58
547.34	57797.19
547.50	57729.31
547.67	57996.13
547.84	57834.64
548.00	58178.70
548.17	58094.44
548.34	58110.82
548.51	57958.69
548.67	58099.12
548.84	58192.74
549.01	58003.16
549.18	58019.54
549.34	57991.45
549.51	58181.04
549.68	58202.10
549.84	58447.86
550.01	58253.59
550.18	58033.58
550.34	58337.85
550.51	58459.56
550.68	58358.92
550.84	58361.26
551.01	58539.14
551.18	58459.56
551.34	58354.24
551.51	58391.68
551.68	58607.01
551.84	58401.05
552.01	58445.52
552.18	58417.43
552.34	58447.86
552.51	58604.67
552.68	58546.16
552.84	58527.44
553.01	58822.34
553.18	58604.67
553.34	58805.96
553.51	58735.74
553.67	58850.43
553.84	59007.25
554.01	58866.81
554.17	58918.31
554.34	59065.76
554.51	58972.14
554.67	58944.05
554.84	58885.54
555.00	59093.85
555.17	58937.03
555.33	58871.49
555.50	58717.02
555.67	58852.77
555.83	58908.94
556.00	59145.34
556.16	59377.05
556.33	59047.04
556.50	59056.40
556.66	59311.52
556.83	59103.21
556.99	59231.94
557.16	59416.84
557.32	59288.11
557.49	59519.82
557.65	59311.52
557.82	59238.96
557.98	59241.30
558.15	59454.29
558.32	59524.50
558.48	59217.89
558.65	59419.18
558.81	59135.98
558.98	59515.14
559.14	59358.33
559.31	59599.40
559.47	59522.16
559.64	59695.36
559.80	59650.89
559.97	59777.28
560.13	59501.10
560.30	59671.96
560.46	59674.30
560.63	59739.83
560.79	59772.60
560.96	59861.54
561.12	59653.23
561.29	59821.75
561.45	59938.78
561.61	59985.59
561.78	59693.02
561.94	59611.10
562.11	59786.64
562.27	59800.69
562.44	59964.52
562.60	59849.84
562.77	59910.69
562.93	59599.40
563.10	60076.87
563.26	59994.95
563.42	60142.41
563.59	59943.46
563.75	59803.03
563.92	59973.89
564.08	59994.95
564.24	59891.97
564.41	60062.83
564.57	60198.58
564.74	60238.37
564.90	60062.83
565.07	60093.25
565.23	59917.71
565.39	60090.91
565.56	60121.34
565.72	60224.32
565.88	60140.07
566.05	60086.23
566.21	60069.85
566.38	60060.49
566.54	60243.05
566.70	60273.48
566.87	60261.77
567.03	60081.55
567.19	60343.69
567.36	60285.18
567.52	60348.37
567.68	60441.99
567.85	60299.22
568.01	60320.29
568.17	60273.48
568.34	60285.18
568.50	60259.43
568.66	60133.04
568.83	60348.37
568.99	60144.75
569.15	60418.59
569.32	60413.91
569.48	60287.52
569.64	60437.31
569.81	60484.12
569.97	60465.40
570.13	60413.91
570.30	60271.14
570.46	60418.59
570.62	60451.36
570.78	60324.97
570.95	60540.30
571.11	60437.31
571.27	60608.17
571.43	60381.14
571.60	60711.16
571.76	60521.57
571.92	60355.39
572.09	60746.26
572.25	60666.69
572.41	60289.86
572.57	60594.13
572.74	60680.73
572.90	60507.53
573.06	60523.91
573.22	60640.94
573.38	60463.06
573.55	60713.50
573.71	60907.76
573.87	60704.13
574.03	60434.97
574.20	60460.72
574.36	60605.83
574.52	60573.06
574.68	60669.03
574.84	60715.84
575.01	60598.81
575.17	60570.72
575.33	60657.32
575.49	60535.62
575.65	60807.12
575.82	60699.45
575.98	60610.51
576.14	60884.36
576.30	60781.37
576.46	60659.66
576.62	60746.26
576.79	60772.01
576.95	60554.34
577.11	60678.39
577.27	60741.58
577.43	60741.58
577.59	60645.62
577.75	60736.90
577.92	60783.71
578.08	60537.96
578.24	60753.29
578.40	60774.35
578.56	60966.27
578.72	60676.05
578.88	60882.02
579.04	60893.72
579.21	60905.42
579.37	60814.14
579.53	60910.10
579.69	60750.94
579.85	60807.12
580.01	60666.69
580.17	60666.69
580.33	60853.93
580.49	60867.97
580.65	60678.39
580.82	60828.18
580.98	60825.84
581.14	60863.29
581.30	60832.86
581.46	60893.72
581.62	60977.98
581.78	60617.53
581.94	60893.72
582.10	60748.60
582.26	60865.63
582.42	60877.33
582.58	60837.54
582.74	60715.84
582.90	60783.71
583.06	60708.82
583.22	60725.20
583.38	60907.76
583.54	60764.99
583.70	61029.47
583.86	60804.78
584.02	60722.86
584.18	61080.96
584.34	60970.96
584.50	60949.89
584.66	60779.03
584.82	60722.86
584.98	60966.27
585.14	60996.70
585.30	60877.33
585.46	61015.43
585.62	61027.13
585.78	61052.87
585.94	60757.97
586.10	60931.17
586.26	61160.54
586.42	61176.92
586.58	60849.25
586.74	61010.74
586.90	60910.10
587.06	60809.46
587.22	60956.91
587.38	60912.44
587.54	61090.32
587.70	61102.03
587.86	61069.26
588.02	60907.76
588.18	61193.31
588.34	61020.11
588.49	61020.11
