SpectraSuite Data File
++++++++++++++++++++++++++++++++++++
Date: Fri Oct 25 10:44:13 EDT 2013
User: price-jones
Dark Spectrum Present: No
Reference Spectrum Present: No
Number of Sampled Component Spectra: 1
Spectrometers: USB2+H05261
Integration Time (usec): 100000 (USB2+H05261)
Spectra Averaged: 1 (USB2+H05261)
Boxcar Smoothing: 0 (USB2+H05261)
Correct for Electrical Dark: No (USB2+H05261)
Strobe/Lamp Enabled: No (USB2+H05261)
Correct for Detector Non-linearity: No (USB2+H05261)
Correct for Stray Light: No (USB2+H05261)
Number of Pixels in Processed Spectrum: 2048
>>>>>Begin Processed Spectral Data<<<<<
365.73	91.28
365.92	91.28
366.12	91.28
366.32	51.49
366.52	0.00
366.72	25.75
366.91	0.00
367.11	65.54
367.31	49.15
367.51	0.00
367.70	0.00
367.90	86.60
368.10	72.56
368.30	0.00
368.49	28.09
368.69	93.62
368.89	51.49
369.09	0.00
369.28	60.85
369.48	58.51
369.68	28.09
369.87	0.00
370.07	91.28
370.27	126.39
370.47	205.97
370.66	402.57
370.86	472.79
371.06	456.40
371.25	411.93
371.45	404.91
371.65	540.66
371.84	433.00
372.04	451.72
372.24	540.66
372.44	435.34
372.63	498.53
372.83	465.77
373.03	578.11
373.22	472.79
373.42	470.45
373.62	552.37
373.81	564.07
374.01	587.47
374.21	650.67
374.40	461.09
374.60	582.79
374.79	564.07
374.99	657.69
375.19	545.34
375.38	538.32
375.58	543.00
375.78	662.37
375.97	627.26
376.17	601.52
376.37	636.63
376.56	601.52
376.76	592.16
376.95	643.65
377.15	589.82
377.35	638.97
377.54	664.71
377.74	608.54
377.93	631.94
378.13	622.58
378.33	676.41
378.52	601.52
378.72	683.44
378.91	645.99
379.11	641.31
379.31	643.65
379.50	573.43
379.70	664.71
379.89	751.31
380.09	610.88
380.28	657.69
380.48	720.88
380.68	676.41
380.87	692.80
381.07	669.39
381.26	812.17
381.46	704.50
381.65	763.01
381.85	676.41
382.04	653.01
382.24	709.18
382.43	786.42
382.63	599.18
382.83	692.80
383.02	760.67
383.22	734.93
383.41	709.18
383.61	748.97
383.80	734.93
384.00	725.57
384.19	770.04
384.39	765.36
384.58	835.57
384.78	884.72
384.97	781.74
385.17	753.65
385.36	767.70
385.56	777.06
385.75	826.21
385.95	863.66
386.14	844.93
386.34	767.70
386.53	880.04
386.72	821.53
386.92	833.23
387.11	898.77
387.31	854.30
387.50	791.10
387.70	910.47
387.89	823.87
388.09	933.87
388.28	882.38
388.48	940.90
388.67	922.17
388.86	945.58
389.06	978.34
389.25	961.96
389.45	1088.35
389.64	945.58
389.84	985.37
390.03	940.90
390.22	961.96
390.42	1025.15
390.61	896.43
390.81	1013.45
391.00	1036.86
391.19	1114.10
391.39	1043.88
391.58	1041.54
391.78	1069.62
391.97	990.05
392.16	1001.75
392.36	1041.54
392.55	1064.94
392.75	1027.50
392.94	947.92
393.13	985.37
393.33	1046.22
393.52	1032.18
393.71	1046.22
393.91	1151.54
394.10	1181.97
394.29	1212.40
394.49	1167.93
394.68	1266.23
394.88	1231.12
395.07	1210.06
395.26	1196.01
395.46	1291.98
395.65	1196.01
395.84	1303.68
396.04	1301.34
396.23	1196.01
396.42	1100.05
396.62	1142.18
396.81	1198.35
397.00	1315.38
397.19	1289.64
397.39	1280.27
397.58	1413.68
397.77	1280.27
397.97	1341.13
398.16	1385.60
398.35	1425.39
398.55	1373.89
398.74	1411.34
398.93	1540.07
399.12	1528.37
399.32	1476.88
399.51	1502.62
399.70	1579.86
399.90	1535.39
400.09	1519.01
400.28	1589.22
400.47	1605.61
400.67	1572.84
400.86	1596.25
401.05	1600.93
401.24	1682.85
401.44	1755.40
401.63	1699.23
401.82	1638.38
402.01	1706.25
402.21	1645.40
402.40	1643.06
402.59	1668.80
402.78	1757.74
402.97	1717.95
403.17	1724.97
403.36	1671.14
403.55	1839.66
403.74	1870.09
403.93	1863.07
404.13	1856.04
404.32	1764.76
404.51	1891.15
404.70	1952.01
404.89	1851.36
405.09	1923.92
405.28	1923.92
405.47	1820.94
405.66	1923.92
405.85	2005.84
406.05	1947.33
406.24	1900.52
406.43	2022.22
406.62	2129.89
406.81	2076.06
407.00	2087.76
407.20	2001.16
407.39	2022.22
407.58	2080.74
407.77	2101.80
407.96	2092.44
408.15	2176.70
408.34	2258.62
408.54	2162.66
408.73	2186.06
408.92	2176.70
409.11	2270.32
409.30	2307.77
409.49	2179.04
409.68	2305.43
409.87	2169.68
410.07	2314.79
410.26	2277.34
410.45	2403.73
410.64	2436.50
410.83	2511.39
411.02	2438.84
411.21	2532.46
411.40	2502.03
411.59	2593.31
411.78	2621.40
411.98	2569.91
412.17	2586.29
412.36	2722.04
412.55	2609.70
412.74	2771.19
412.93	2698.64
413.12	2647.15
413.31	2808.64
413.50	2815.66
413.69	2792.26
413.88	2937.37
414.07	2820.35
414.26	2888.22
414.45	2935.03
414.64	2958.44
414.83	2951.42
415.02	3019.29
415.22	3094.19
415.41	3159.72
415.60	3035.67
415.79	3213.56
415.98	3251.00
416.17	3213.56
416.36	3143.34
416.55	3159.72
416.74	3243.98
416.93	3119.93
417.12	3288.45
417.31	3307.18
417.50	3283.77
417.69	3506.12
417.88	3414.84
418.07	3318.88
418.26	3447.61
418.45	3513.14
418.64	3728.47
418.83	3564.64
419.02	3480.38
419.21	3501.44
419.39	3602.08
419.58	3559.95
419.77	3426.54
419.96	3662.94
420.15	3604.42
420.34	3611.45
420.53	3864.22
420.72	3880.61
420.91	3681.66
421.10	3829.12
421.29	3906.35
421.48	3684.00
421.67	3712.09
421.86	3744.86
422.05	3758.90
422.24	3676.98
422.43	3758.90
422.61	3852.52
422.80	3847.84
422.99	3960.19
423.18	3854.86
423.37	3857.20
423.56	3742.52
423.75	3887.63
423.94	3833.80
424.13	3625.49
424.32	3829.12
424.50	3953.16
424.69	4023.38
424.88	3868.91
425.07	3850.18
425.26	3824.44
425.45	3908.69
425.64	3829.12
425.83	3953.16
426.01	3817.41
426.20	3941.46
426.39	3939.12
426.58	3950.82
426.77	4025.72
426.96	4009.34
427.15	4084.23
427.33	4117.00
427.52	3955.51
427.71	4016.36
427.90	3976.57
428.09	4081.89
428.28	4168.49
428.46	4126.36
428.65	4011.68
428.84	4320.63
429.03	4250.41
429.22	4250.41
429.40	4009.34
429.59	4163.81
429.78	3988.27
429.97	3960.19
430.16	4004.66
430.34	4154.45
430.53	4198.92
430.72	4217.65
430.91	4205.94
431.10	4294.88
431.28	4421.27
431.47	4355.74
431.66	4631.92
431.85	4510.21
432.03	4709.16
432.22	4720.86
432.41	4571.07
432.60	4564.04
432.79	4627.24
432.97	4631.92
433.16	4669.37
433.35	4538.30
433.54	4765.33
433.72	4613.20
433.91	4798.10
434.10	4739.58
434.28	4620.22
434.47	4795.76
434.66	4868.31
434.85	4926.83
435.03	4915.12
435.22	4957.25
435.41	5041.51
435.59	5043.85
435.78	5057.90
435.97	5067.26
436.16	5100.03
436.34	5041.51
436.53	5160.88
436.72	5172.58
436.90	4978.32
437.09	5125.77
437.28	5055.56
437.46	5184.29
437.65	5121.09
437.84	5167.90
438.02	5245.14
438.21	5039.17
438.40	5345.78
438.58	5296.63
438.77	5472.17
438.96	5444.09
439.14	5582.18
439.33	5603.24
439.52	5680.48
439.70	5444.09
439.89	5706.23
440.08	5722.61
440.26	5533.03
440.45	5523.66
440.63	5722.61
440.82	5907.51
441.01	5797.51
441.19	6111.14
441.38	5982.41
441.57	6146.25
441.75	6040.92
441.94	6221.14
442.12	6186.04
442.31	6359.24
442.50	6143.91
442.68	6190.72
442.87	6186.04
443.05	6380.30
443.24	6267.95
443.43	6490.31
443.61	6338.17
443.80	6612.01
443.98	6333.49
444.17	6298.38
444.35	6562.86
444.54	6347.53
444.73	6377.96
444.91	6377.96
445.10	6361.58
445.28	6373.28
445.47	6314.77
445.65	6183.70
445.84	6471.58
446.02	6436.47
446.21	6370.94
446.39	6565.20
446.58	6590.95
446.77	6654.14
446.95	6530.09
447.14	6799.26
447.32	6757.13
447.51	6626.06
447.69	6600.31
447.88	6626.06
448.06	6787.55
448.25	6649.46
448.43	6803.94
448.62	6778.19
448.80	6586.27
448.99	6745.42
449.17	6761.81
449.36	6691.59
449.54	6869.47
449.73	7063.74
449.91	7082.46
450.10	6986.50
450.28	7103.53
450.46	7016.93
450.65	7101.19
450.83	7239.28
451.02	7131.61
451.20	7185.44
451.39	6932.67
451.57	7101.19
451.76	7140.97
451.94	7136.29
452.13	6981.82
452.31	7119.91
452.49	6808.62
452.68	7255.66
452.86	7180.76
453.05	7297.79
453.23	7227.57
453.42	7227.57
453.60	7239.28
453.78	7552.91
453.97	7368.01
454.15	7145.66
454.34	7356.30
454.52	7447.58
454.70	7489.71
454.89	7461.63
455.07	7545.89
455.26	7611.42
455.44	7599.72
455.62	7611.42
455.81	7665.25
455.99	7786.96
456.17	7665.25
456.36	7829.09
456.54	7765.90
456.73	7728.45
456.91	8098.25
457.09	8049.10
457.28	8161.45
457.46	7939.10
457.64	8255.07
457.83	7992.93
458.01	7861.86
458.19	7981.23
458.38	8028.04
458.56	8145.06
458.74	8411.89
458.93	8180.17
459.11	8271.45
459.29	8124.00
459.48	8355.71
459.66	8184.85
459.84	8224.64
460.03	8430.61
460.21	8327.63
460.39	8669.34
460.57	8266.77
460.76	8599.13
460.94	8641.26
461.12	8554.66
461.31	8547.64
461.49	8615.51
461.67	8475.08
461.85	8816.80
462.04	8772.33
462.22	8641.26
462.40	8908.08
462.59	8865.95
462.77	8730.20
462.95	8812.12
463.13	8889.35
463.32	9067.24
463.50	8931.48
463.68	9013.40
463.86	8774.67
464.05	8683.39
464.23	8938.51
464.41	8908.08
464.59	8814.46
464.78	9167.88
464.96	9128.09
465.14	8884.67
465.32	9205.33
465.50	9233.41
465.69	9081.28
465.87	9043.83
466.05	9200.65
466.23	9121.07
466.41	9212.35
466.60	9266.18
466.78	8975.95
466.96	9334.06
467.14	9291.93
467.32	9249.80
467.51	9296.61
467.69	9214.69
467.87	9423.00
468.05	9462.79
468.23	9338.74
468.41	9210.01
468.60	9563.43
468.78	9738.97
468.96	9364.48
469.14	9682.80
469.32	9797.48
469.50	9453.42
469.69	9614.92
469.87	9685.14
470.05	9816.21
470.23	9792.80
470.41	9596.20
470.59	9706.20
470.77	9820.89
470.95	9900.47
471.14	9977.70
471.32	9818.55
471.50	10317.08
471.68	10143.88
471.86	10162.61
472.04	10466.88
472.22	10246.87
472.40	10073.67
472.58	10436.45
472.77	10345.17
472.95	10331.12
473.13	10710.29
473.31	10574.54
473.49	10506.66
473.67	10431.77
473.85	10602.63
474.03	10981.79
474.21	10949.03
474.39	10909.24
474.57	11019.24
474.75	11089.46
474.93	11265.00
475.12	11035.63
475.30	11108.18
475.48	11213.51
475.66	11351.60
475.84	11044.99
476.02	11314.15
476.20	11365.64
476.38	11485.01
476.56	11946.09
476.74	11536.50
476.92	11705.02
477.10	11847.79
477.28	12166.10
477.46	11899.28
477.64	11887.58
477.82	12461.01
478.00	12493.78
478.18	12322.92
478.36	12690.38
478.54	12437.61
478.72	12622.51
478.90	12695.07
479.08	12833.16
479.26	13022.74
479.44	13139.77
479.62	13081.25
479.80	13207.64
479.98	13322.33
480.16	13811.50
480.34	13411.27
480.52	13607.87
480.70	13860.65
480.88	13507.23
481.06	14019.81
481.24	13900.44
481.41	14120.45
481.59	14511.32
481.77	14195.35
481.95	14303.01
482.13	14511.32
482.31	14450.47
482.49	14771.12
482.67	14937.30
482.85	15009.86
483.03	15016.88
483.21	15297.74
483.39	15473.28
483.57	15009.86
483.74	15180.71
483.92	15386.68
484.10	15475.62
484.28	15482.64
484.46	16255.02
484.64	16240.98
484.82	15728.40
485.00	15810.32
485.18	16404.81
485.35	16559.29
485.53	15948.41
485.71	16266.72
485.89	16582.70
486.07	16222.25
486.25	16264.38
486.43	16809.73
486.61	16968.88
486.78	17334.01
486.96	17296.56
487.14	17619.55
487.32	17420.61
487.50	17493.16
487.68	18249.16
487.85	18141.49
488.03	18223.41
488.21	18658.75
488.39	18473.85
488.57	18448.10
488.75	18569.81
488.92	19171.33
489.10	19190.05
489.28	19669.86
489.46	19185.37
489.64	19651.14
489.81	19747.10
489.99	19997.54
490.17	20060.73
490.35	20144.99
490.53	20013.92
490.70	20077.12
490.88	20542.88
491.06	20767.57
491.24	20699.70
491.41	20526.50
491.59	20652.89
491.77	20491.39
491.95	21109.29
492.13	21294.19
492.30	21284.83
492.48	21319.94
492.66	21565.70
492.84	21851.24
493.01	21792.73
493.19	21682.72
493.37	22178.92
493.54	22101.68
493.72	22541.70
493.90	22405.95
494.08	22558.08
494.25	23061.30
494.43	22946.61
494.61	23379.61
494.79	23239.18
494.96	23410.04
495.14	23246.20
495.32	23379.61
495.49	23688.56
495.67	23477.91
495.85	23955.38
496.02	24245.61
496.20	24109.86
496.38	24357.96
496.55	24306.46
496.73	24807.34
496.91	24730.10
497.09	24690.31
497.26	24912.66
497.44	25022.67
497.62	24891.60
497.79	25242.68
497.97	25252.04
498.14	25324.60
498.32	25207.57
498.50	25486.09
498.67	25954.20
498.85	25755.26
499.03	26010.37
499.20	25834.83
499.38	26071.23
499.56	26197.62
499.73	26504.23
499.91	26363.79
500.08	26129.74
500.26	26120.38
500.44	26494.86
500.61	26487.84
500.79	26206.98
500.97	26700.83
501.14	27211.07
501.32	27030.85
501.49	27218.09
501.67	27007.44
501.84	27391.29
502.02	27112.77
502.20	27292.99
502.37	27768.12
502.55	27292.99
502.72	27985.79
502.90	28095.79
503.07	27796.20
503.25	27522.36
503.43	27810.25
503.60	27938.97
503.78	27742.37
503.95	28170.69
504.13	28257.29
504.30	28252.61
504.48	28591.98
504.65	28755.82
504.83	28802.63
505.01	29116.26
505.18	28779.23
505.36	29319.89
505.53	29530.54
505.71	29560.97
505.88	29022.64
506.06	29308.19
506.23	29429.90
506.41	29214.57
506.58	29614.80
506.76	29736.51
506.93	29853.53
507.11	29872.26
507.28	29710.76
507.46	29869.92
507.63	29832.47
507.81	30335.68
507.98	30253.76
508.16	29855.87
508.33	30433.99
508.50	30527.61
508.68	30899.75
508.85	30857.62
509.03	30995.71
509.20	30609.53
509.38	31239.13
509.55	30733.57
509.73	31215.72
509.90	31098.70
510.08	30976.99
510.25	31103.38
510.42	31606.59
510.60	31861.71
510.77	31653.40
510.95	31828.95
511.12	31414.67
511.30	31697.88
511.47	32238.54
511.64	32140.24
511.82	31945.97
511.99	31854.69
512.17	32168.32
512.34	31964.70
512.51	32589.62
512.69	32648.13
512.86	32837.72
513.04	32465.57
513.21	32781.54
513.38	32627.07
513.56	32746.44
513.73	32786.22
513.90	32886.87
514.08	32650.47
514.25	32818.99
514.43	33127.94
514.60	33464.98
514.77	32936.02
514.95	33432.21
515.12	33628.82
515.29	33289.44
515.47	34192.89
515.64	33986.92
515.81	33488.38
515.99	33645.20
516.16	33333.91
516.33	33724.78
516.51	33677.97
516.68	33141.99
516.85	33020.28
517.03	33605.41
517.20	33940.11
517.37	33809.04
517.54	34223.31
517.72	34345.02
517.89	33771.59
518.06	33848.83
518.24	34117.99
518.41	34064.16
518.58	34356.72
518.75	34653.97
518.93	34766.32
519.10	34815.47
519.27	35084.63
519.45	35082.29
519.62	34927.81
519.79	35257.83
519.96	35311.66
520.14	35243.79
520.31	34965.26
520.48	35388.90
520.65	35360.81
520.83	36236.17
521.00	35632.32
521.17	35810.20
521.34	35964.67
521.52	35938.93
521.69	35880.41
521.86	36299.37
522.03	36271.28
522.20	35952.97
522.38	36493.63
522.55	36147.23
522.72	36126.17
522.89	36158.94
523.07	36598.96
523.24	36596.62
523.41	36987.49
523.58	36575.55
523.75	37376.01
523.92	37001.53
524.10	37064.72
524.27	37083.45
524.44	37247.29
524.61	37067.06
524.78	37509.43
524.96	37483.68
525.13	37347.93
525.30	37940.08
525.47	38019.66
525.64	37579.64
525.81	37605.39
525.98	37593.68
526.16	36877.48
526.33	37354.95
526.50	37645.18
526.67	37184.09
526.84	36924.29
527.01	37368.99
527.18	37525.81
527.36	38206.90
527.53	38242.01
527.70	38632.88
527.87	38270.10
528.04	38132.01
528.21	38045.41
528.38	38270.10
528.55	39086.95
528.72	38628.20
528.89	38759.27
529.07	38588.41
529.24	38539.26
529.41	38981.62
529.58	38625.86
529.75	38682.03
529.92	39096.31
530.09	38785.02
530.26	39037.80
530.43	39278.87
530.60	39014.39
530.77	38815.44
530.94	39452.07
531.11	39089.29
531.28	39400.58
531.46	39405.26
531.63	39576.12
531.80	39461.43
531.97	39091.63
532.14	39283.55
532.31	38843.53
532.48	39241.42
532.65	39849.96
532.82	39660.38
532.99	39924.86
533.16	39739.96
533.33	39679.10
533.50	39952.94
533.67	40048.91
533.84	39847.62
534.01	39810.17
534.18	40039.54
534.35	40271.26
534.52	39803.15
534.69	39990.39
534.86	40425.73
535.03	40589.57
535.20	40889.16
535.37	40772.13
535.54	40999.16
535.71	40414.03
535.88	40535.74
536.05	40320.41
536.22	40942.99
536.38	40360.20
536.55	40313.39
536.72	40601.27
536.89	40486.59
537.06	40545.10
537.23	40975.76
537.40	40774.47
537.57	40847.03
537.74	41111.51
537.91	41368.97
538.08	40781.49
538.25	41060.02
538.42	41221.52
538.59	41455.57
538.75	40751.07
538.92	41153.64
539.09	40753.41
539.26	41397.06
539.43	41263.64
539.60	41102.15
539.77	41422.80
539.94	41174.70
540.11	41375.99
540.28	40935.97
540.44	41717.71
540.61	41638.13
540.78	41406.42
540.95	41427.48
541.12	41497.70
541.29	41429.82
541.46	41853.46
541.62	41961.12
541.79	42211.56
541.96	41418.12
542.13	41635.79
542.30	41890.91
542.47	41649.83
542.63	42043.04
542.80	41928.36
542.97	42494.77
543.14	42391.78
543.31	42831.80
543.48	42307.52
543.64	42618.81
543.81	42944.15
543.98	42487.74
544.15	42663.28
544.32	42838.83
544.48	43344.38
544.65	42539.24
544.82	42696.05
544.99	42815.42
545.16	43372.47
545.32	43049.47
545.49	43292.89
545.66	43264.80
545.83	43253.10
546.00	42841.17
546.16	43337.36
546.33	43267.14
546.50	42632.86
546.67	43122.03
546.83	43103.31
547.00	42869.25
547.17	43086.92
547.34	43199.27
547.50	43414.60
547.67	43749.29
547.84	43290.55
548.00	43438.00
548.17	43494.18
548.34	43798.44
548.51	43915.47
548.67	43533.96
548.84	43753.97
549.01	43629.93
549.18	43751.63
549.34	43772.70
549.51	44034.84
549.68	43847.60
549.84	43732.91
550.01	44421.03
550.18	43915.47
550.34	44020.80
550.51	43854.62
550.68	44172.93
550.84	43566.73
551.01	43772.70
551.18	43941.22
551.34	43959.94
551.51	44210.38
551.68	44109.74
551.84	44404.64
552.01	44222.08
552.18	44051.22
552.34	44229.10
552.51	44409.32
552.68	44322.72
552.84	44465.50
553.01	44746.36
553.18	44304.00
553.34	44177.61
553.51	43957.60
553.67	44519.33
553.84	44933.60
554.01	44535.71
554.17	44863.39
554.34	44615.29
554.51	44643.38
554.67	44790.83
554.84	44795.51
555.00	44369.54
555.17	44311.02
555.33	44563.80
555.50	44697.21
555.67	44500.61
555.83	44772.11
556.00	44818.92
556.16	45216.81
556.33	44418.69
556.50	44491.24
556.66	45055.31
556.83	44577.84
556.99	44622.31
557.16	45476.61
557.32	45230.85
557.49	44942.97
557.65	45059.99
557.82	45165.32
557.98	45361.92
558.15	44924.24
558.32	45247.24
558.48	44907.86
558.65	44905.52
558.81	44994.46
558.98	44905.52
559.14	45237.87
559.31	45078.72
559.47	44996.80
559.64	45710.66
559.80	45399.37
559.97	45235.53
560.13	44982.76
560.30	44856.37
560.46	45483.63
560.63	45162.98
560.79	45748.11
560.96	45645.13
561.12	45684.92
561.29	45588.95
561.45	45310.43
561.61	45062.33
561.78	45233.19
561.94	44994.46
562.11	45191.06
562.27	45038.93
562.44	45469.59
562.60	45944.72
562.77	45820.67
562.93	45694.28
563.10	45614.70
563.26	45167.66
563.42	45759.81
563.59	45205.11
563.75	45242.56
563.92	45717.68
564.08	45785.56
564.24	45801.94
564.41	45560.87
564.57	45441.50
564.74	45628.74
564.90	45574.91
565.07	45837.05
565.23	45755.13
565.39	45415.76
565.56	45724.71
565.72	45338.52
565.88	45401.71
566.05	45492.99
566.21	45535.12
566.38	45411.07
566.54	45490.65
566.70	45455.54
566.87	45750.45
567.03	45532.78
567.19	46335.59
567.36	45687.26
567.52	45610.02
567.68	45893.22
567.85	45691.94
568.01	45841.73
568.17	45755.13
568.34	46122.60
568.50	45846.41
568.66	45776.20
568.83	45808.96
568.99	45837.05
569.15	45738.75
569.32	45748.11
569.48	45663.85
569.64	45902.59
569.81	45530.44
569.97	45888.54
570.13	45947.06
570.30	45464.91
570.46	45701.30
570.62	45579.59
570.78	45457.88
570.95	45429.80
571.11	45893.22
571.27	45631.08
571.43	45759.81
571.60	45818.33
571.76	45773.86
571.92	45820.67
572.09	45942.38
572.25	45551.51
572.41	45507.04
572.57	46230.26
572.74	45956.42
572.90	46319.20
573.06	46195.15
573.22	46183.45
573.38	45764.49
573.55	45820.67
573.71	45991.53
573.87	45904.93
574.03	45827.69
574.20	46057.06
574.36	46417.50
574.52	46129.62
574.68	45815.99
574.84	45722.37
575.01	45851.09
575.17	45741.09
575.33	45998.55
575.49	45937.69
575.65	45825.35
575.82	45797.26
575.98	45628.74
576.14	46045.36
576.30	46281.75
576.46	45949.40
576.62	45492.99
576.79	45993.87
576.95	45865.14
577.11	45911.95
577.27	46323.88
577.43	46176.43
577.59	46146.00
577.75	45963.44
577.92	45268.30
578.08	45645.13
578.24	45815.99
578.40	46298.14
578.56	45830.03
578.72	46010.25
578.88	46328.56
579.04	46541.55
579.21	46314.52
579.37	46185.79
579.53	45661.51
579.69	46033.66
579.85	45993.87
580.01	45925.99
580.17	46354.31
580.33	46209.20
580.49	46223.24
580.65	46326.22
580.82	46131.96
580.98	45940.04
581.14	45874.50
581.30	46543.89
581.46	46412.82
581.62	46253.67
581.78	46188.13
581.94	46515.81
582.10	46401.12
582.26	46246.65
582.42	46314.52
582.58	45799.60
582.74	45879.18
582.90	46204.52
583.06	46450.27
583.22	46305.16
583.38	45975.14
583.54	46672.62
583.70	46256.01
583.86	46087.49
584.02	46188.13
584.18	46323.88
584.34	45883.86
584.50	46021.95
584.66	46089.83
584.82	46014.93
584.98	46665.60
585.14	46506.44
585.30	45876.84
585.46	46220.90
585.62	46199.83
585.78	45787.90
585.94	45825.35
586.10	45989.19
586.26	46211.54
586.42	46162.39
586.58	46412.82
586.74	46387.08
586.90	46021.95
587.06	46422.19
587.22	46270.05
587.38	46153.02
587.54	46415.16
587.70	46335.59
587.86	46375.37
588.02	46436.23
588.18	46735.82
588.34	45925.99
588.49	45610.02
588.65	45436.82
588.81	45801.94
588.97	46202.18
589.13	45979.82
589.29	45778.54
589.45	46113.23
589.61	46225.58
589.77	46040.68
589.93	46251.33
590.08	46583.68
