SpectraSuite Data File
++++++++++++++++++++++++++++++++++++
Date: Fri Oct 25 10:47:10 EDT 2013
User: price-jones
Dark Spectrum Present: No
Reference Spectrum Present: No
Number of Sampled Component Spectra: 1
Spectrometers: USB2+H05261
Integration Time (usec): 100000 (USB2+H05261)
Spectra Averaged: 1 (USB2+H05261)
Boxcar Smoothing: 0 (USB2+H05261)
Correct for Electrical Dark: No (USB2+H05261)
Strobe/Lamp Enabled: No (USB2+H05261)
Correct for Detector Non-linearity: No (USB2+H05261)
Correct for Stray Light: No (USB2+H05261)
Number of Pixels in Processed Spectrum: 2048
>>>>>Begin Processed Spectral Data<<<<<
365.73	191.92
365.92	191.92
366.12	191.92
366.32	95.96
366.52	2.34
366.72	37.45
366.91	72.56
367.11	60.85
367.31	30.43
367.51	30.43
367.70	60.85
367.90	107.66
368.10	72.56
368.30	56.17
368.49	18.72
368.69	77.24
368.89	32.77
369.09	44.47
369.28	102.98
369.48	77.24
369.68	65.54
369.87	91.28
370.07	119.37
370.27	241.08
370.47	238.73
370.66	332.36
370.86	407.25
371.06	465.77
371.25	486.83
371.45	376.83
371.65	468.11
371.84	456.40
372.04	425.98
372.24	440.02
372.44	449.38
372.63	477.47
372.83	468.11
373.03	463.43
373.22	435.34
373.42	526.62
373.62	545.34
373.81	491.51
374.01	550.03
374.21	568.75
374.40	498.53
374.60	617.90
374.79	531.30
374.99	496.19
375.19	594.50
375.38	592.16
375.58	526.62
375.78	594.50
375.97	592.16
376.17	484.49
376.37	482.15
376.56	561.73
376.76	603.86
376.95	578.11
377.15	561.73
377.35	592.16
377.54	650.67
377.74	676.41
377.93	627.26
378.13	620.24
378.33	629.60
378.52	566.41
378.72	610.88
378.91	613.22
379.11	603.86
379.31	660.03
379.50	599.18
379.70	601.52
379.89	704.50
380.09	582.79
380.28	608.54
380.48	674.07
380.68	622.58
380.87	678.76
381.07	601.52
381.26	688.12
381.46	641.31
381.65	683.44
381.85	678.76
382.04	699.82
382.24	748.97
382.43	716.20
382.63	699.82
382.83	681.10
383.02	779.40
383.22	760.67
383.41	678.76
383.61	697.48
383.80	725.57
384.00	653.01
384.19	655.35
384.39	786.42
384.58	732.59
384.78	732.59
384.97	667.05
385.17	748.97
385.36	791.10
385.56	720.88
385.75	760.67
385.95	711.52
386.14	798.12
386.34	744.29
386.53	746.63
386.72	772.38
386.92	821.53
387.11	868.34
387.31	903.45
387.50	737.27
387.70	760.67
387.89	823.87
388.09	791.10
388.28	772.38
388.48	755.99
388.67	936.21
388.86	833.23
389.06	903.45
389.25	915.15
389.45	910.47
389.64	880.04
389.84	931.53
390.03	912.81
390.22	924.51
390.42	896.43
390.61	891.74
390.81	819.19
391.00	870.68
391.19	896.43
391.39	929.19
391.58	1034.52
391.78	1011.11
391.97	980.68
392.16	952.60
392.36	1090.69
392.55	903.45
392.75	947.92
392.94	919.83
393.13	1013.45
393.33	917.49
393.52	945.58
393.71	1062.60
393.91	997.07
394.10	999.41
394.29	1172.61
394.49	1008.77
394.68	1121.12
394.88	1128.14
395.07	1076.65
395.26	1048.56
395.46	978.34
395.65	1020.47
395.84	1020.47
396.04	1149.20
396.23	1100.05
396.42	1025.15
396.62	1067.28
396.81	1179.63
397.00	1097.71
397.19	1235.80
397.39	1184.31
397.58	1186.65
397.77	1249.85
397.97	1160.91
398.16	1240.48
398.35	1327.08
398.55	1280.27
398.74	1245.16
398.93	1352.83
399.12	1240.48
399.32	1263.89
399.51	1247.51
399.70	1313.04
399.90	1245.16
400.09	1383.26
400.28	1434.75
400.47	1310.70
400.67	1387.94
400.86	1401.98
401.05	1373.89
401.24	1455.81
401.44	1544.75
401.63	1362.19
401.82	1467.52
402.01	1446.45
402.21	1495.60
402.40	1451.13
402.59	1495.60
402.78	1401.98
402.97	1584.54
403.17	1509.65
403.36	1614.97
403.55	1633.69
403.74	1575.18
403.93	1603.27
404.13	1617.31
404.32	1549.43
404.51	1636.03
404.70	1689.87
404.89	1671.14
405.09	1724.97
405.28	1654.76
405.47	1654.76
405.66	1633.69
405.85	1750.72
406.05	1654.76
406.24	1797.53
406.43	1762.42
406.62	1694.55
406.81	1844.34
407.00	1776.47
407.20	1741.36
407.39	1853.70
407.58	1827.96
407.77	1933.28
407.96	1935.62
408.15	1919.24
408.34	1898.17
408.54	1947.33
408.73	1935.62
408.92	1996.48
409.11	1961.37
409.30	2017.54
409.49	2083.08
409.68	1937.96
409.87	1980.09
410.07	2052.65
410.26	2012.86
410.45	2059.67
410.64	2129.89
410.83	2080.74
411.02	2193.08
411.21	2249.25
411.40	2202.44
411.59	2291.38
411.78	2251.60
411.98	2176.70
412.17	2270.32
412.36	2335.85
412.55	2459.90
412.74	2385.01
412.93	2317.13
413.12	2363.94
413.31	2464.58
413.50	2476.29
413.69	2457.56
413.88	2548.84
414.07	2459.90
414.26	2483.31
414.45	2499.69
414.64	2628.42
414.83	2605.02
415.02	2593.31
415.22	2518.42
415.41	2803.96
415.60	2663.53
415.79	2635.44
415.98	2890.56
416.17	2780.56
416.36	2738.43
416.55	2778.22
416.74	2778.22
416.93	2708.00
417.12	2839.07
417.31	2916.31
417.50	2827.37
417.69	3045.04
417.88	3012.27
418.07	3094.19
418.26	3052.06
418.45	3045.04
418.64	3155.04
418.83	3133.98
419.02	3108.23
419.21	3126.96
419.39	3164.40
419.58	3155.04
419.77	3162.06
419.96	3091.85
420.15	3375.05
420.34	3258.03
420.53	3229.94
420.72	3356.33
420.91	3227.60
421.10	3353.99
421.29	3260.37
421.48	3279.09
421.67	3449.95
421.86	3283.77
422.05	3290.79
422.24	3358.67
422.43	3365.69
422.61	3318.88
422.80	3433.57
422.99	3510.80
423.18	3438.25
423.37	3590.38
423.56	3330.58
423.75	3412.50
423.94	3440.59
424.13	3098.87
424.32	3332.92
424.50	3435.91
424.69	3520.17
424.88	3524.85
425.07	3405.48
425.26	3482.72
425.45	3492.08
425.64	3440.59
425.83	3370.37
426.01	3496.76
426.20	3447.61
426.39	3485.06
426.58	3506.12
426.77	3463.99
426.96	3604.42
427.15	3506.12
427.33	3726.13
427.52	3609.11
427.71	3602.08
427.90	3658.26
428.09	3726.13
428.28	3805.71
428.46	3723.79
428.65	3803.37
428.84	3964.87
429.03	3805.71
429.22	3655.92
429.40	3672.30
429.59	3702.73
429.78	3611.45
429.97	3644.21
430.16	3845.50
430.34	3801.03
430.53	3948.48
430.72	3887.63
430.91	3925.08
431.10	3786.99
431.28	3988.27
431.47	3995.29
431.66	4067.85
431.85	3915.72
432.03	4135.73
432.22	4067.85
432.41	4189.56
432.60	4100.62
432.79	4114.66
432.97	3997.64
433.16	4140.41
433.35	4093.60
433.54	4135.73
433.72	4285.52
433.91	4208.28
434.10	4180.20
434.28	4210.62
434.47	4229.35
434.66	4402.55
434.85	4395.53
435.03	4332.33
435.22	4287.86
435.41	4432.97
435.59	4437.66
435.78	4411.91
435.97	4472.76
436.16	4463.40
436.34	4624.90
436.53	4582.77
436.72	4674.05
436.90	4667.03
437.09	4613.20
437.28	4566.39
437.46	4681.07
437.65	4753.63
437.84	4617.88
438.02	4442.34
438.21	4774.69
438.40	4718.52
438.58	4851.93
438.77	4737.24
438.96	4758.31
439.14	4903.42
439.33	5114.07
439.52	4959.60
439.70	4922.15
439.89	5004.07
440.08	5095.35
440.26	5177.26
440.45	4919.81
440.63	5064.92
440.82	5198.33
441.01	5242.80
441.19	5163.22
441.38	5345.78
441.57	5345.78
441.75	5329.40
441.94	5490.90
442.12	5612.60
442.31	5596.22
442.50	5514.30
442.68	5408.98
442.87	5542.39
443.05	5638.35
443.24	5809.21
443.43	5500.26
443.61	5528.35
443.80	5687.50
443.98	5490.90
444.17	5556.43
444.35	5504.94
444.54	5731.97
444.73	5767.08
444.91	5661.76
445.10	5603.24
445.28	5689.84
445.47	5589.20
445.65	5612.60
445.84	5699.20
446.02	5710.91
446.21	5671.12
446.39	5860.70
446.58	5888.79
446.77	5942.62
446.95	5755.38
447.14	5886.45
447.32	5959.00
447.51	5734.31
447.69	5746.02
447.88	5865.38
448.06	5832.62
448.25	5865.38
448.43	5912.19
448.62	5902.83
448.80	5888.79
448.99	6010.50
449.17	5907.51
449.36	5966.03
449.54	5933.26
449.73	6242.21
449.91	6083.05
450.10	6174.33
450.28	6349.87
450.46	6237.53
450.65	6251.57
450.83	6338.17
451.02	6141.57
451.20	6415.41
451.39	6333.49
451.57	6230.51
451.76	6539.46
451.94	6527.75
452.13	6504.35
452.31	6200.08
452.49	6246.89
452.68	6305.40
452.86	6471.58
453.05	6537.12
453.23	6478.60
453.42	6368.60
453.60	6342.85
453.78	6312.42
453.97	6296.04
454.15	6590.95
454.34	6518.39
454.52	6668.19
454.70	6626.06
454.89	6469.24
455.07	6789.89
455.26	6759.47
455.44	6754.79
455.62	6752.45
455.81	6827.34
455.99	6944.37
456.17	6825.00
456.36	6904.58
456.54	6939.69
456.73	7002.88
456.91	7037.99
457.09	7082.46
457.28	7157.36
457.46	6991.18
457.64	7007.56
457.83	7070.76
458.01	7164.38
458.19	7227.57
458.38	7382.05
458.56	7269.70
458.74	7234.60
458.93	7304.81
459.11	7307.15
459.29	7215.87
459.48	7400.77
459.66	7302.47
459.84	7424.18
460.03	7473.33
460.21	7466.31
460.39	7468.65
460.57	7445.24
460.76	7377.37
460.94	7531.84
461.12	7681.64
461.31	7550.57
461.49	7489.71
461.67	7674.62
461.85	7742.49
462.04	7824.41
462.22	8133.36
462.40	7803.35
462.59	7815.05
462.77	7847.82
462.95	7971.86
463.13	7868.88
463.32	7936.76
463.50	7922.71
463.68	7852.50
463.86	8002.29
464.05	7957.82
464.23	7976.55
464.41	8168.47
464.59	7899.31
464.78	8390.82
464.96	8180.17
465.14	7779.94
465.32	8044.42
465.50	8138.04
465.69	8248.05
465.87	8079.53
466.05	8098.25
466.23	8065.49
466.41	8222.30
466.60	8301.88
466.78	7997.61
466.96	8285.50
467.14	8381.46
467.32	8463.38
467.51	8575.72
467.69	8205.92
467.87	8390.82
468.05	8446.99
468.23	8374.44
468.41	8264.43
468.60	8388.48
468.78	8475.08
468.96	8369.76
469.14	8652.96
469.32	8650.62
469.50	8430.61
469.69	8542.96
469.87	8891.70
470.05	8744.24
470.23	8723.18
470.41	8606.15
470.59	8699.77
470.77	8744.24
470.95	8922.12
471.14	9034.47
471.32	8802.75
471.50	9116.39
471.68	9088.30
471.86	9104.68
472.04	9181.92
472.22	9444.06
472.40	9004.04
472.58	9425.34
472.77	9282.56
472.95	9282.56
473.13	9694.50
473.31	9231.07
473.49	9439.38
473.67	9685.14
473.85	9533.00
474.03	9905.15
474.21	9650.03
474.39	9860.68
474.57	9858.34
474.75	9834.93
474.93	10031.54
475.12	9996.43
475.30	10230.48
475.48	9907.49
475.66	10155.58
475.84	10024.51
476.02	10127.50
476.20	10111.11
476.38	10298.36
476.56	10588.58
476.74	10569.86
476.92	10420.06
477.10	10548.79
477.28	10967.75
477.46	10714.97
477.64	10897.53
477.82	10974.77
478.00	11096.48
478.18	11143.29
478.36	11328.19
478.54	11269.68
478.72	11426.50
478.90	11428.84
479.08	11625.44
479.26	11740.13
479.44	11569.27
479.62	11948.43
479.80	11932.05
479.98	12201.21
480.16	12180.15
480.34	12187.17
480.52	12241.00
480.70	12135.68
480.88	12187.17
481.06	12255.04
481.24	12430.59
481.41	12636.55
481.59	12872.95
481.77	12791.03
481.95	12898.69
482.13	13013.38
482.31	13167.85
482.49	13249.77
482.67	13188.92
482.85	13465.10
483.03	13476.80
483.21	13626.60
483.39	13666.39
483.57	13675.75
483.74	13802.14
483.92	13872.36
484.10	13923.85
484.28	14193.01
484.46	14431.74
484.64	14506.64
484.82	14349.82
485.00	14551.11
485.18	14684.52
485.35	15147.95
485.53	14707.93
485.71	14766.44
485.89	15119.86
486.07	15190.08
486.25	14862.40
486.43	15140.93
486.61	15461.58
486.78	15697.97
486.96	15992.88
487.14	15995.22
487.32	16086.50
487.50	15988.20
487.68	16114.59
487.85	16706.74
488.03	16783.98
488.21	16739.51
488.39	16582.70
488.57	16779.30
488.75	17085.91
488.92	17181.87
489.10	17263.79
489.28	17542.32
489.46	17673.39
489.64	17593.81
489.81	17972.97
489.99	18087.66
490.17	18295.97
490.35	18207.03
490.53	18541.72
490.70	18483.21
490.88	18396.61
491.06	18600.24
491.24	18747.69
491.41	18878.76
491.59	18853.02
491.77	18768.76
491.95	19271.97
492.13	19351.55
492.30	19796.25
492.48	19531.77
492.66	19990.52
492.84	19590.28
493.01	20002.22
493.19	20053.71
493.37	20184.78
493.54	20266.70
493.72	20437.56
493.90	20444.58
494.08	20493.73
494.25	21163.12
494.43	20760.55
494.61	21071.84
494.79	21221.64
494.96	21071.84
495.14	21315.26
495.32	21465.05
495.49	21277.81
495.67	21671.02
495.85	21701.45
496.02	21713.15
496.20	22033.80
496.38	21912.10
496.55	22082.95
496.73	22352.12
496.91	22515.95
497.09	22796.82
497.26	22874.06
497.44	22827.24
497.62	22726.60
497.79	23094.07
497.97	22930.23
498.14	23311.74
498.32	23520.04
498.50	23192.37
498.67	23218.11
498.85	23571.54
499.03	23545.79
499.20	23534.09
499.38	24180.07
499.56	24254.97
499.73	24081.77
499.91	24166.03
500.08	24386.04
500.26	24168.37
500.44	24196.46
500.61	24465.62
500.79	24704.35
500.97	24332.21
501.14	24994.58
501.32	24863.51
501.49	24753.51
501.67	24877.55
501.84	24891.60
502.02	25078.84
502.20	25149.06
502.37	25642.91
502.55	25362.04
502.72	25371.41
502.90	25518.86
503.07	25523.54
503.25	25399.49
503.43	25614.82
503.60	26052.50
503.78	26129.74
503.95	26003.35
504.13	26061.87
504.30	26059.52
504.48	26038.46
504.65	26335.71
504.83	26642.32
505.01	26714.87
505.18	26431.67
505.36	26941.91
505.53	27070.64
505.71	27154.90
505.88	26888.07
506.06	26773.39
506.23	27103.40
506.41	26939.57
506.58	27264.90
506.76	27166.60
506.93	27875.78
507.11	27995.15
507.28	27662.79
507.46	27246.18
507.63	27524.70
507.81	27924.93
507.98	27838.33
508.16	27819.61
508.33	28072.39
508.50	28503.04
508.68	28032.60
508.85	28594.32
509.03	28428.15
509.20	28400.06
509.38	28582.62
509.55	28727.74
509.73	28692.63
509.90	28835.40
510.08	28374.31
510.25	28671.56
510.42	28781.57
510.60	29177.12
510.77	29331.59
510.95	29591.39
511.12	29106.90
511.30	29282.44
511.47	29729.48
511.64	29256.70
511.82	29773.95
511.99	29373.72
512.17	29713.10
512.34	29362.02
512.51	30242.06
512.69	29965.88
512.86	29839.49
513.04	30127.38
513.21	30373.13
513.38	30096.95
513.56	30286.53
513.73	30181.21
513.90	30698.47
514.08	30267.81
514.25	30583.78
514.43	30827.20
514.60	30764.00
514.77	30665.70
514.95	30958.27
515.12	30981.67
515.29	31082.31
515.47	31508.29
515.64	31079.97
515.81	31342.11
515.99	31381.90
516.16	31365.52
516.33	31243.81
516.51	31330.41
516.68	31426.37
516.85	31180.62
517.03	31751.71
517.20	31690.85
517.37	32196.41
517.54	31716.60
517.72	31988.10
517.89	31477.86
518.06	31913.20
518.24	31674.47
518.41	31798.52
518.58	32245.56
518.75	31903.84
518.93	32304.07
519.10	32512.38
519.27	32552.17
519.45	32463.23
519.62	32893.89
519.79	32811.97
519.96	32861.12
520.14	32907.93
520.31	32938.36
520.48	33022.62
520.65	33006.23
520.83	32957.08
521.00	33280.08
521.17	33214.54
521.34	32985.17
521.52	33376.04
521.69	33184.12
521.86	33441.57
522.03	34073.52
522.20	33694.35
522.38	33996.28
522.55	33984.58
522.72	33905.00
522.89	34057.14
523.07	34309.91
523.24	34089.90
523.41	34220.97
523.58	34213.95
523.75	34721.85
523.92	34412.90
524.10	34494.82
524.27	34885.68
524.44	35072.93
524.61	34771.00
524.78	34951.22
524.96	34995.69
525.13	35000.37
525.30	35173.57
525.47	35299.96
525.64	35077.61
525.81	35185.27
525.98	34766.32
526.16	35201.66
526.33	35056.54
526.50	35253.15
526.67	34972.28
526.84	35288.26
527.01	35009.73
527.18	35768.07
527.36	35360.81
527.53	35798.49
527.70	36044.25
527.87	36030.21
528.04	35194.64
528.21	35861.69
528.38	35934.24
528.55	36011.48
528.72	36081.70
528.89	36165.96
529.07	36144.89
529.24	35938.93
529.41	35999.78
529.58	35957.65
529.75	36065.31
529.92	36542.78
530.09	36290.01
530.26	36463.21
530.43	36844.71
530.60	36198.73
530.77	36538.10
530.94	37160.69
531.11	36266.60
531.28	36568.53
531.46	37214.52
531.63	37139.62
531.80	37226.22
531.97	36458.52
532.14	37273.03
532.31	37120.90
532.48	37127.92
532.65	37109.19
532.82	36875.14
532.99	37275.37
533.16	36788.54
533.33	37404.10
533.50	37308.14
533.67	37577.30
533.84	37425.17
534.01	37399.42
534.18	37106.85
534.35	37640.50
534.52	37118.56
534.69	37717.73
534.86	37598.37
535.03	37598.37
535.20	37954.13
535.37	38005.62
535.54	38124.99
535.71	37860.51
535.88	38089.88
536.05	37841.78
536.22	38122.65
536.38	38485.43
536.55	37869.87
536.72	38295.85
536.89	37893.27
537.06	38445.64
537.23	38279.46
537.40	38120.31
537.57	38431.60
537.74	38422.23
537.91	38707.78
538.08	38810.76
538.25	38270.10
538.42	38689.06
538.59	38546.28
538.75	38576.71
538.92	38967.58
539.09	39082.27
539.26	39049.50
539.43	38611.82
539.60	39129.08
539.77	39016.73
539.94	39068.22
540.11	39168.87
540.28	39515.26
540.44	39269.51
540.61	39297.59
540.78	39243.76
540.95	39391.22
541.12	39215.68
541.29	39173.55
541.46	39086.95
541.62	39005.03
541.79	39445.05
541.96	39349.09
542.13	39079.92
542.30	39461.43
542.47	39550.37
542.63	39550.37
542.80	39864.00
542.97	40051.25
543.14	40346.15
543.31	40013.80
543.48	39955.29
543.64	40547.44
543.81	40163.59
543.98	40259.55
544.15	39983.37
544.32	39927.20
544.48	40854.05
544.65	40175.30
544.82	40755.75
544.99	40004.44
545.16	40737.02
545.32	40362.54
545.49	40825.96
545.66	40601.27
545.83	40896.18
546.00	41141.94
546.16	40699.58
546.33	40531.06
546.50	40748.73
546.67	40835.33
546.83	40666.81
547.00	40847.03
547.17	40404.67
547.34	40627.02
547.50	40854.05
547.67	41069.38
547.84	40882.14
548.00	41689.62
548.17	41446.21
548.34	41045.97
548.51	41350.24
548.67	41237.90
548.84	41165.34
549.01	41483.66
549.18	41090.44
549.34	41263.64
549.51	41785.58
549.68	41670.90
549.84	41645.15
550.01	41794.95
550.18	41235.56
550.34	41879.21
550.51	41553.87
550.68	41808.99
550.84	41216.83
551.01	41659.20
551.18	41432.16
551.34	41696.64
551.51	41820.69
551.68	41535.15
551.84	41921.34
552.01	41942.40
552.18	42087.51
552.34	42298.16
552.51	42061.77
552.68	41998.57
552.84	42188.16
553.01	42202.20
553.18	42073.47
553.34	42127.30
553.51	42061.77
553.67	42117.94
553.84	42564.98
554.01	42033.68
554.17	42581.37
554.34	42581.37
554.51	42579.03
554.67	42911.38
554.84	42312.20
555.00	42199.86
555.17	41986.87
555.33	42368.38
555.50	42808.40
555.67	42969.90
555.83	42052.41
556.00	42476.04
556.16	42934.79
556.33	42567.32
556.50	42391.78
556.66	42934.79
556.83	42501.79
556.99	42993.30
557.16	43098.62
557.32	42885.64
557.49	42698.39
557.65	42658.60
557.82	42895.00
557.98	42799.04
558.15	42754.57
558.32	43260.12
558.48	42511.15
558.65	43012.02
558.81	43000.32
558.98	42969.90
559.14	43222.67
559.31	42808.40
559.47	43049.47
559.64	43426.30
559.80	43470.77
559.97	42864.57
560.13	42815.42
560.30	43557.37
560.46	43297.57
560.63	43313.95
560.79	43468.43
560.96	43480.13
561.12	43379.49
561.29	43943.56
561.45	43313.95
561.61	42976.92
561.78	43313.95
561.94	43281.19
562.11	43227.35
562.27	43253.10
562.44	43381.83
562.60	43487.15
562.77	43683.76
562.93	43398.21
563.10	43690.78
563.26	43421.62
563.42	43318.64
563.59	43002.66
563.75	43213.31
563.92	44011.43
564.08	43793.76
564.24	43775.04
564.41	43498.86
564.57	43597.16
564.74	43742.27
564.90	43522.26
565.07	43894.41
565.23	43863.98
565.39	43613.54
565.56	43643.97
565.72	43784.40
565.88	43641.63
566.05	43765.68
566.21	43196.93
566.38	43601.84
566.54	43789.08
566.70	43770.36
566.87	43924.83
567.03	43508.22
567.19	43941.22
567.36	43728.23
567.52	43728.23
567.68	43615.88
567.85	43704.82
568.01	43611.20
568.17	43655.67
568.34	44067.61
568.50	43927.17
568.66	43796.10
568.83	44369.54
568.99	43765.68
569.15	43871.00
569.32	43873.34
569.48	43772.70
569.64	44109.74
569.81	43892.07
569.97	43901.43
570.13	43849.94
570.30	43629.93
570.46	43498.86
570.62	44114.42
570.78	44100.37
570.95	43892.07
571.11	43950.58
571.27	43882.70
571.43	43992.71
571.60	44299.32
571.76	44060.58
571.92	44196.34
572.09	44435.07
572.25	44072.29
572.41	43934.20
572.57	44296.98
572.74	44643.38
572.90	44357.83
573.06	44369.54
573.22	44371.88
573.38	44198.68
573.55	43784.40
573.71	44149.53
573.87	43969.30
574.03	43686.10
574.20	43838.23
574.36	43840.57
574.52	44304.00
574.68	44584.86
574.84	44591.89
575.01	44224.42
575.17	44245.49
575.33	43761.00
575.49	44018.46
575.65	44502.95
575.82	45022.54
575.98	44683.17
576.14	44350.81
576.30	43978.67
576.46	43875.68
576.62	43969.30
576.79	44226.76
576.95	43899.09
577.11	44563.80
577.27	44184.63
577.43	44598.91
577.59	44058.24
577.75	44266.55
577.92	44020.80
578.08	44229.10
578.24	43955.26
578.40	44186.97
578.56	44320.38
578.72	44198.68
578.88	44334.43
579.04	44671.46
579.21	44636.36
579.37	44058.24
579.53	44531.03
579.69	43632.27
579.85	44442.09
580.01	44538.05
580.17	44402.30
580.33	44767.43
580.49	44346.13
580.65	44280.60
580.82	44430.39
580.98	44067.61
581.14	44074.63
581.30	44526.35
581.46	44615.29
581.62	44147.18
581.78	43901.43
581.94	44746.36
582.10	44226.76
582.26	44741.68
582.42	44205.70
582.58	44334.43
582.74	44430.39
582.90	43821.85
583.06	44334.43
583.22	44355.49
583.38	44807.22
583.54	44409.32
583.70	44430.39
583.86	44432.73
584.02	44179.95
584.18	44458.48
584.34	44205.70
584.50	44411.67
584.66	44411.67
584.82	44105.06
584.98	44837.64
585.14	44477.20
585.30	44243.15
585.46	43997.39
585.62	44584.86
585.78	44685.51
585.94	43978.67
586.10	44343.79
586.26	44299.32
586.42	44561.46
586.58	44643.38
586.74	44612.95
586.90	44107.40
587.06	44114.42
587.22	44643.38
587.38	44474.86
587.54	44545.08
587.70	44463.16
587.86	44524.01
588.02	44793.17
588.18	44863.39
588.34	44238.47
588.49	44645.72
588.65	44257.19
588.81	44346.13
588.97	44479.54
589.13	44177.61
589.29	44261.87
589.45	44399.96
589.61	44556.78
589.77	44521.67
589.93	44875.09
590.08	44442.09
590.24	44865.73
