SpectraSuite Data File
++++++++++++++++++++++++++++++++++++
Date: Fri Oct 25 11:25:30 EDT 2013
User: price-jones
Dark Spectrum Present: No
Reference Spectrum Present: No
Number of Sampled Component Spectra: 1
Spectrometers: USB2+H05261
Integration Time (usec): 100000 (USB2+H05261)
Spectra Averaged: 1 (USB2+H05261)
Boxcar Smoothing: 0 (USB2+H05261)
Correct for Electrical Dark: No (USB2+H05261)
Strobe/Lamp Enabled: No (USB2+H05261)
Correct for Detector Non-linearity: No (USB2+H05261)
Correct for Stray Light: No (USB2+H05261)
Number of Pixels in Processed Spectrum: 2048
>>>>>Begin Processed Spectral Data<<<<<
365.73	325.33
365.92	325.33
366.12	325.33
366.32	142.77
366.52	128.73
366.72	196.60
366.91	152.13
367.11	88.94
367.31	170.86
367.51	124.05
367.70	107.66
367.90	163.84
368.10	121.71
368.30	149.79
368.49	177.88
368.69	72.56
368.89	131.07
369.09	140.43
369.28	117.03
369.48	175.54
369.68	201.29
369.87	145.11
370.07	276.18
370.27	229.37
370.47	360.44
370.66	552.37
370.86	575.77
371.06	697.48
371.25	730.25
371.45	653.01
371.65	653.01
371.84	624.92
372.04	711.52
372.24	718.54
372.44	702.16
372.63	786.42
372.83	739.61
373.03	781.74
373.22	720.88
373.42	802.80
373.62	856.64
373.81	795.78
374.01	805.14
374.21	741.95
374.40	851.96
374.60	781.74
374.79	798.12
374.99	814.51
375.19	793.44
375.38	809.83
375.58	774.72
375.78	828.55
375.97	849.61
376.17	910.47
376.37	800.46
376.56	868.34
376.76	863.66
376.95	807.48
377.15	840.25
377.35	971.32
377.54	959.62
377.74	910.47
377.93	891.74
378.13	952.60
378.33	884.72
378.52	957.28
378.72	891.74
378.91	898.77
379.11	992.39
379.31	915.15
379.50	968.98
379.70	978.34
379.89	917.49
380.09	957.28
380.28	997.07
380.48	1022.81
380.68	919.83
380.87	1025.15
381.07	1020.47
381.26	1046.22
381.46	999.41
381.65	1111.75
381.85	983.02
382.04	1053.24
382.24	1067.28
382.43	957.28
382.63	1118.78
382.83	1036.86
383.02	1090.69
383.22	1039.20
383.41	1001.75
383.61	1104.73
383.80	1060.26
384.00	1107.07
384.19	1130.48
384.39	1100.05
384.58	1100.05
384.78	1193.67
384.97	1102.39
385.17	1135.16
385.36	1184.31
385.56	1177.29
385.75	1130.48
385.95	1205.38
386.14	1355.17
386.34	1151.54
386.53	1284.95
386.72	1217.08
386.92	1205.38
387.11	1268.57
387.31	1200.69
387.50	1245.16
387.70	1289.64
387.89	1291.98
388.09	1270.91
388.28	1270.91
388.48	1193.67
388.67	1247.51
388.86	1282.61
389.06	1350.49
389.25	1212.40
389.45	1299.00
389.64	1352.83
389.84	1334.11
390.03	1378.58
390.22	1341.13
390.42	1331.76
390.61	1486.24
390.81	1306.02
391.00	1427.73
391.19	1336.45
391.39	1423.05
391.58	1481.56
391.78	1411.34
391.97	1514.33
392.16	1455.81
392.36	1453.47
392.55	1493.26
392.75	1516.67
392.94	1502.62
393.13	1558.80
393.33	1516.67
393.52	1565.82
393.71	1600.93
393.91	1568.16
394.10	1554.12
394.29	1629.01
394.49	1629.01
394.68	1565.82
394.88	1678.16
395.07	1664.12
395.26	1739.02
395.46	1659.44
395.65	1736.68
395.84	1811.57
396.04	1776.47
396.23	1778.81
396.42	1727.32
396.62	1811.57
396.81	1816.26
397.00	1811.57
397.19	1743.70
397.39	1764.76
397.58	1757.74
397.77	1788.17
397.97	1739.02
398.16	1804.55
398.35	1907.54
398.55	1764.76
398.74	1811.57
398.93	1949.67
399.12	1947.33
399.32	1900.52
399.51	1905.20
399.70	2012.86
399.90	2008.18
400.09	1947.33
400.28	1961.37
400.47	2054.99
400.67	2031.58
400.86	2052.65
401.05	2111.16
401.24	2033.93
401.44	2141.59
401.63	2033.93
401.82	2218.83
402.01	2115.84
402.21	2136.91
402.40	2209.47
402.59	2090.10
402.78	2211.81
402.97	2169.68
403.17	2214.15
403.36	2139.25
403.55	2232.87
403.74	2333.51
403.93	2263.30
404.13	2359.26
404.32	2455.22
404.51	2286.70
404.70	2366.28
404.89	2293.72
405.09	2410.75
405.28	2417.77
405.47	2502.03
405.66	2408.41
405.85	2455.22
406.05	2466.92
406.24	2583.95
406.43	2590.97
406.62	2520.76
406.81	2696.30
407.00	2605.02
407.20	2553.52
407.39	2623.74
407.58	2661.19
407.77	2722.04
407.96	2616.72
408.15	2825.03
408.34	2743.11
408.54	2614.38
408.73	2614.38
408.92	2780.56
409.11	2815.66
409.30	2857.79
409.49	2909.29
409.68	2953.76
409.87	2881.20
410.07	3023.97
410.26	2869.50
410.45	3002.91
410.64	3033.33
410.83	2930.35
411.02	3136.32
411.21	3222.92
411.40	3073.12
411.59	3258.03
411.78	3194.83
411.98	3274.41
412.17	3229.94
412.36	3363.35
412.55	3428.88
412.74	3300.16
412.93	3295.47
413.12	3297.81
413.31	3501.44
413.50	3403.14
413.69	3562.30
413.88	3566.98
414.07	3515.48
414.26	3681.66
414.45	3684.00
414.64	3597.40
414.83	3667.62
415.02	3714.43
415.22	3702.73
415.41	3765.92
415.60	3829.12
415.79	3798.69
415.98	3861.88
416.17	3887.63
416.36	4032.74
416.55	3845.50
416.74	3969.55
416.93	4021.04
417.12	4042.11
417.31	4196.58
417.50	4234.03
417.69	4126.36
417.88	4325.31
418.07	4124.02
418.26	4203.60
418.45	4227.01
418.64	4561.70
418.83	4325.31
419.02	4393.19
419.21	4456.38
419.39	4535.96
419.58	4381.48
419.77	4423.61
419.96	4484.47
420.15	4510.21
420.34	4496.17
420.53	4470.42
420.72	4758.31
420.91	4587.45
421.10	4674.05
421.29	4751.29
421.48	4634.26
421.67	4821.50
421.86	4793.42
422.05	4784.06
422.24	4865.97
422.43	4741.93
422.61	4823.84
422.80	4929.17
422.99	4947.89
423.18	4847.25
423.37	4849.59
423.56	4926.83
423.75	4985.34
423.94	4905.76
424.13	4641.28
424.32	4905.76
424.50	5011.09
424.69	5097.69
424.88	5093.01
425.07	4945.55
425.26	5032.15
425.45	4987.68
425.64	4931.51
425.83	4894.06
426.01	5116.41
426.20	4959.60
426.39	5093.01
426.58	5060.24
426.77	5130.45
426.96	5062.58
427.15	5144.50
427.33	5081.30
427.52	5100.03
427.71	5277.91
427.90	5226.42
428.09	5352.81
428.28	5268.55
428.46	5408.98
428.65	5172.58
428.84	5423.02
429.03	5334.08
429.22	5179.61
429.40	5275.57
429.59	5408.98
429.78	5355.15
429.97	5334.08
430.16	5502.60
430.34	5556.43
430.53	5533.03
430.72	5572.82
430.91	5610.26
431.10	5706.23
431.28	5652.39
431.47	5701.54
431.66	5942.62
431.85	5781.12
432.03	5809.21
432.22	5834.96
432.41	5954.32
432.60	5877.09
432.79	5977.73
432.97	5837.30
433.16	6003.47
433.35	5891.13
433.54	6122.84
433.72	6104.12
433.91	5980.07
434.10	5996.45
434.28	6209.44
434.47	6127.52
434.66	6225.82
434.85	6396.68
435.03	6532.44
435.22	6214.12
435.41	6464.56
435.59	6415.41
435.78	6289.02
435.97	6363.92
436.16	6291.36
436.34	6333.49
436.53	6565.20
436.72	6630.74
436.90	6370.94
437.09	6696.27
437.28	6356.90
437.46	6738.40
437.65	6490.31
437.84	6846.07
438.02	6665.85
438.21	6846.07
438.40	6459.88
438.58	6904.58
438.77	6981.82
438.96	6897.56
439.14	7098.84
439.33	7140.97
439.52	7194.81
439.70	7037.99
439.89	7538.87
440.08	7344.60
440.26	7148.00
440.45	7295.45
440.63	7534.18
440.82	7620.78
441.01	7499.08
441.19	7761.22
441.38	7681.64
441.57	7569.29
441.75	7838.45
441.94	7838.45
442.12	7997.61
442.31	7899.31
442.50	7840.79
442.68	7918.03
442.87	7990.59
443.05	7976.55
443.24	8236.35
443.43	8135.70
443.61	8182.51
443.80	8486.78
443.98	8067.83
444.17	7889.95
444.35	8116.98
444.54	8320.60
444.73	8332.31
444.91	8348.69
445.10	8367.42
445.28	8306.56
445.47	8292.52
445.65	8215.28
445.84	8332.31
446.02	8446.99
446.21	8332.31
446.39	8250.39
446.58	8269.11
446.77	8528.91
446.95	8121.66
447.14	8390.82
447.32	8634.24
447.51	8411.89
447.69	8449.33
447.88	8573.38
448.06	8437.63
448.25	8430.61
448.43	8451.67
448.62	8575.72
448.80	8498.49
448.99	8585.08
449.17	8716.16
449.36	8753.60
449.54	8671.68
449.73	8821.48
449.91	8964.25
450.10	8851.91
450.28	8917.44
450.46	9036.81
450.65	9083.62
450.83	8954.89
451.02	9193.62
451.20	9238.09
451.39	9095.32
451.57	9022.77
451.76	9130.43
451.94	9195.96
452.13	9214.69
452.31	9310.65
452.49	9242.78
452.68	9240.44
452.86	9296.61
453.05	9610.24
453.23	9509.60
453.42	9338.74
453.60	9245.12
453.78	9317.67
453.97	9465.13
454.15	9427.68
454.34	9256.82
454.52	9565.77
454.70	9722.59
454.89	9872.38
455.07	9795.14
455.26	9626.62
455.44	9727.27
455.62	9753.01
455.81	9785.78
455.99	9930.89
456.17	10031.54
456.36	10174.31
456.54	9870.04
456.73	10298.36
456.91	10338.15
457.09	10146.22
457.28	10403.68
457.46	10286.65
457.64	10382.62
457.83	10422.41
458.01	10321.76
458.19	10633.05
458.38	10354.53
458.56	10712.63
458.74	10768.80
458.93	10569.86
459.11	10789.87
459.29	10586.24
459.48	10602.63
459.66	10827.32
459.84	10916.26
460.03	11150.31
460.21	10934.98
460.39	11026.26
460.57	10850.72
460.76	10867.11
460.94	11119.89
461.12	11283.72
461.31	11234.57
461.49	11194.78
461.67	11077.76
461.85	11185.42
462.04	11314.15
462.22	11747.15
462.40	11569.27
462.59	11564.59
462.77	11377.34
462.95	11688.64
463.13	11499.05
463.32	11456.92
463.50	11632.46
463.68	11723.74
463.86	11580.97
464.05	11433.52
464.23	11602.04
464.41	11903.96
464.59	11721.40
464.78	12145.04
464.96	12006.95
465.14	11999.93
465.32	11932.05
465.50	12023.33
465.69	12187.17
465.87	12138.02
466.05	12072.48
466.23	11995.25
466.41	12177.81
466.60	12308.88
466.78	12367.39
466.96	12049.08
467.14	12238.66
467.32	12329.94
467.51	12381.43
467.69	12175.47
467.87	12585.06
468.05	12760.60
468.23	12241.00
468.41	12500.80
468.60	12688.04
468.78	12767.62
468.96	12641.23
469.14	12475.06
469.32	12788.69
469.50	12678.68
469.69	12737.20
469.87	13069.55
470.05	13160.83
470.23	13095.30
470.41	13085.94
470.59	13404.25
470.77	13214.66
470.95	13121.04
471.14	13434.68
471.32	13245.09
471.50	13441.70
471.68	13415.95
471.86	13839.59
472.04	13493.19
472.22	13867.67
472.40	13767.03
472.58	13893.42
472.77	14040.87
472.95	14071.30
473.13	14597.92
473.31	13699.16
473.49	13954.27
473.67	14155.56
473.85	14373.23
474.03	14649.41
474.21	14789.85
474.39	14588.56
474.57	14637.71
474.75	14682.18
474.93	14839.00
475.12	14970.07
475.30	15007.52
475.48	14841.34
475.66	15122.20
475.84	14974.75
476.02	15412.43
476.20	15377.32
476.38	15410.09
476.56	15857.13
476.74	15845.43
476.92	15728.40
477.10	15735.42
477.28	16219.91
477.46	15903.94
477.64	16035.01
477.82	16489.07
478.00	16966.54
478.18	16425.88
478.36	16835.47
478.54	17090.59
478.72	17095.27
478.90	17259.11
479.08	17579.76
479.26	17886.37
479.44	17771.69
479.62	17790.41
479.80	17902.76
479.98	17853.61
480.16	18195.32
480.34	18286.61
480.52	18532.36
480.70	18396.61
480.88	18450.44
481.06	18607.26
481.24	18637.69
481.41	19014.51
481.59	19234.52
481.77	19433.47
481.95	19342.19
482.13	19524.75
482.31	19527.09
482.49	20276.06
482.67	19894.55
482.85	20524.16
483.03	20699.70
483.21	20905.66
483.39	20959.50
483.57	20730.12
483.74	20987.58
483.92	21120.99
484.10	21015.67
484.28	21605.49
484.46	21481.44
484.64	22209.34
484.82	21804.43
485.00	22169.55
485.18	22902.14
485.35	22944.27
485.53	22656.39
485.71	23016.83
485.89	23260.24
486.07	23236.84
486.25	23529.41
486.43	23473.23
486.61	23669.84
486.78	23594.94
486.96	24264.33
487.14	24587.33
487.32	24388.38
487.50	24987.56
487.68	24781.59
487.85	24884.58
488.03	25261.40
488.21	25598.44
488.39	25593.76
488.57	25879.30
488.75	26066.55
488.92	26178.89
489.10	26670.40
489.28	26466.78
489.46	26834.24
489.64	26944.25
489.81	27529.38
489.99	27321.07
490.17	27569.17
490.35	28156.64
490.53	28109.83
490.70	28538.15
490.88	28041.96
491.06	28800.29
491.24	28563.90
491.41	28830.72
491.59	28938.38
491.77	29160.73
491.95	29596.07
492.13	29427.56
492.30	29509.47
492.48	29771.61
492.66	29839.49
492.84	30251.42
493.01	30356.75
493.19	30424.62
493.37	30703.15
493.54	30677.40
493.72	31360.84
493.90	31445.10
494.08	31365.52
494.25	31892.14
494.43	31948.31
494.61	32315.78
494.79	32378.97
494.96	32421.10
495.14	32697.28
495.32	33263.69
495.49	33001.55
495.67	32875.16
495.85	33322.21
496.02	33888.62
496.20	33961.17
496.38	34029.05
496.55	34263.10
496.73	34588.44
496.91	33832.44
497.09	34485.45
497.26	34490.13
497.44	34906.75
497.62	34911.43
497.79	35206.34
497.97	35213.36
498.14	35854.67
498.32	35522.31
498.50	36165.96
498.67	36240.86
498.85	35978.72
499.03	36488.95
499.20	36416.40
499.38	37088.13
499.56	36615.34
499.73	36933.65
499.91	37399.42
500.08	37493.04
500.26	36973.44
500.44	37102.17
500.61	37326.86
500.79	37572.62
500.97	38300.53
501.14	38356.70
501.32	38588.41
501.49	38464.36
501.67	38602.46
501.84	38342.66
502.02	38508.83
502.20	38817.78
502.37	38728.84
502.55	39086.95
502.72	39086.95
502.90	39346.75
503.07	39082.27
503.25	39541.01
503.43	39620.59
503.60	39676.76
503.78	40240.83
503.95	40133.17
504.13	40254.87
504.30	40903.20
504.48	40631.70
504.65	40521.69
504.83	41127.89
505.01	41163.00
505.18	40793.20
505.36	41366.63
505.53	40921.93
505.71	41305.77
505.88	41280.03
506.06	41226.20
506.23	41408.76
506.41	41661.54
506.58	41886.23
506.76	41860.48
506.93	42405.83
507.11	41855.80
507.28	42597.75
507.46	42623.50
507.63	42829.46
507.81	43000.32
507.98	42520.51
508.16	42934.79
508.33	42960.53
508.50	43438.00
508.68	43599.50
508.85	43779.72
509.03	44282.94
509.20	43658.01
509.38	44442.09
509.55	44608.27
509.73	44107.40
509.90	44126.12
510.08	44205.70
510.25	44343.79
510.42	44128.46
510.60	44643.38
510.77	45076.38
510.95	45446.18
511.12	45228.51
511.30	45390.01
511.47	45240.21
511.64	45160.64
511.82	45722.37
511.99	45722.37
512.17	45713.00
512.34	45661.51
512.51	46333.24
512.69	46305.16
512.86	46160.05
513.04	46298.14
513.21	46363.67
513.38	46684.33
513.56	46724.11
513.73	46548.57
513.90	46698.37
514.08	46583.68
514.25	46745.18
514.43	46941.78
514.60	47407.55
514.77	47138.39
514.95	47650.97
515.12	47445.00
515.29	47423.93
515.47	48006.73
515.64	47920.13
515.81	47732.89
515.99	47892.04
516.16	48322.70
516.33	47793.74
516.51	48313.34
516.68	48121.41
516.85	48641.01
517.03	48519.31
517.20	48428.02
517.37	48526.33
517.54	48748.68
517.72	48758.04
517.89	48903.15
518.06	48751.02
518.24	48872.73
518.41	48933.58
518.58	49160.61
518.75	49158.27
518.93	49287.00
519.10	49439.14
519.27	49572.55
519.45	49579.57
519.62	49876.82
519.79	49661.49
519.96	49804.26
520.14	49895.54
520.31	49752.77
520.48	50192.79
520.65	50012.57
520.83	50646.85
521.00	50623.45
521.17	50447.91
521.34	50674.94
521.52	50621.11
521.69	50981.55
521.86	50602.38
522.03	51007.29
522.20	51194.54
522.38	51262.41
522.55	50948.78
522.72	51241.35
522.89	50955.80
523.07	51517.53
523.24	51262.41
523.41	51292.84
523.58	51033.04
523.75	51707.12
523.92	51679.03
524.10	51924.78
524.27	51938.83
524.44	51597.11
524.61	51854.57
524.78	51892.02
524.96	52158.84
525.13	51952.87
525.30	52107.35
525.47	52086.28
525.64	52341.40
525.81	52580.13
525.98	52573.11
526.16	52327.36
526.33	52655.03
526.50	52582.48
526.67	52526.30
526.84	52882.06
527.01	52736.95
527.18	52935.90
527.36	52669.08
527.53	52994.41
527.70	53165.27
527.87	53237.83
528.04	53127.82
528.21	53146.54
528.38	52893.77
528.55	53654.44
528.72	53045.90
528.89	53155.91
529.07	53064.63
529.24	53282.30
529.41	53518.69
529.58	53485.92
529.75	53499.97
529.92	53425.07
530.09	53616.99
530.26	53881.47
530.43	53752.74
530.60	53471.88
530.77	53731.68
530.94	53975.09
531.11	53745.72
531.28	53827.64
531.46	54171.70
531.63	54122.55
531.80	54148.29
531.97	54440.86
532.14	54377.67
532.31	54038.29
532.48	54398.73
532.65	54869.18
532.82	54344.90
532.99	54618.74
533.16	54571.93
533.33	54700.66
533.50	54513.42
533.67	54525.12
533.84	54703.00
534.01	54717.04
534.18	54688.96
534.35	55131.32
534.52	54976.84
534.69	55150.04
534.86	55318.56
535.03	54855.14
535.20	55068.12
535.37	55189.83
535.54	55229.62
535.71	54908.97
535.88	55543.25
536.05	55199.19
536.22	55444.95
536.38	55533.89
536.55	55302.18
536.72	55482.40
536.89	55229.62
537.06	55351.33
537.23	55606.45
537.40	55402.82
537.57	55725.81
537.74	55639.22
537.91	55969.23
538.08	56058.17
538.25	55641.56
538.42	55716.45
538.59	55826.46
538.75	55688.37
538.92	55833.48
539.09	56062.85
539.26	56074.55
539.43	56097.96
539.60	56046.47
539.77	56133.07
539.94	56299.25
540.11	56310.95
540.28	56427.98
540.44	56362.44
540.61	56107.32
540.78	56355.42
540.95	56540.32
541.12	56252.44
541.29	56203.28
541.46	56453.72
541.62	56182.22
541.79	56603.52
541.96	56210.31
542.13	56404.57
542.30	56685.43
542.47	56800.12
542.63	56734.59
542.80	56781.40
542.97	56938.21
543.14	56973.32
543.31	57127.80
543.48	57034.17
543.64	57345.47
543.81	57509.30
543.98	57179.29
544.15	57165.24
544.32	57190.99
544.48	57389.94
544.65	57176.95
544.82	57249.50
544.99	57127.80
545.16	57427.38
545.32	57413.34
545.49	57591.22
545.66	57518.67
545.83	57378.23
546.00	57645.05
546.16	57389.94
546.33	57439.09
546.50	57350.15
546.67	57553.77
546.83	57336.10
547.00	57572.50
547.17	57371.21
547.34	57778.46
547.50	57764.42
547.67	58066.35
547.84	57937.62
548.00	57944.64
548.17	58019.54
548.34	57935.28
548.51	58169.33
548.67	58073.37
548.84	58019.54
549.01	57752.72
549.18	57832.30
549.34	58021.88
549.51	58138.91
549.68	58284.02
549.84	58213.80
550.01	58129.54
550.18	58143.59
550.34	58394.03
550.51	58443.18
550.68	58202.10
550.84	58246.57
551.01	58445.52
551.18	58447.86
551.34	58073.37
551.51	58440.84
551.68	58349.56
551.84	58323.81
552.01	58478.28
552.18	58515.73
552.34	58251.25
552.51	58717.02
552.68	58468.92
552.84	58394.03
553.01	58658.51
553.18	58789.58
553.34	58981.50
553.51	58592.97
553.67	58478.28
553.84	58768.51
554.01	58674.89
554.17	58810.64
554.34	58857.45
554.51	58880.86
554.67	58920.65
554.84	59051.72
555.00	58939.37
555.17	58972.14
555.33	58880.86
555.50	58939.37
555.67	58972.14
555.83	58974.48
556.00	59079.80
556.16	59182.79
556.33	59229.60
556.50	59178.10
556.66	59381.73
556.83	58941.71
556.99	59337.26
557.16	59194.49
557.32	59395.77
557.49	59690.68
557.65	59257.68
557.82	59178.10
557.98	59143.00
558.15	59409.82
558.32	59363.01
558.48	59262.36
558.65	59334.92
558.81	59405.14
558.98	59423.86
559.14	59458.97
559.31	59363.01
559.47	59709.41
559.64	59608.76
559.80	59540.89
559.97	59592.38
560.13	59615.79
560.30	59416.84
560.46	59683.66
560.63	59803.03
560.79	59700.04
560.96	59807.71
561.12	59910.69
561.29	59646.21
561.45	59606.42
561.61	59798.35
561.78	59606.42
561.94	59667.28
562.11	59643.87
562.27	59744.51
562.44	59676.64
562.60	59882.61
562.77	60123.68
562.93	59664.94
563.10	59898.99
563.26	59931.76
563.42	60041.76
563.59	59943.46
563.75	59966.87
563.92	59948.14
564.08	59906.01
564.24	59929.42
564.41	59887.29
564.57	60172.83
564.74	60090.91
564.90	59927.08
565.07	59964.52
565.23	60009.00
565.39	59882.61
565.56	60060.49
565.72	59894.31
565.88	60130.70
566.05	59943.46
566.21	59798.35
566.38	60055.81
566.54	60147.09
566.70	60292.20
566.87	60320.29
567.03	60142.41
567.19	60299.22
567.36	60350.71
567.52	60172.83
567.68	60458.38
567.85	60186.88
568.01	60355.39
568.17	60069.85
568.34	60441.99
568.50	60404.55
568.66	60271.14
568.83	60383.48
568.99	60121.34
569.15	60221.98
569.32	60331.99
569.48	60313.26
569.64	60357.74
569.81	60418.59
569.97	60259.43
570.13	60516.89
570.30	60053.47
570.46	60385.82
570.62	60303.90
570.78	60378.80
570.95	60170.49
571.11	60470.08
571.27	60147.09
571.43	60463.06
571.60	60556.68
571.76	60488.80
571.92	60460.72
572.09	60399.86
572.25	60322.63
572.41	60449.02
572.57	60395.18
572.74	60547.32
572.90	60383.48
573.06	60540.30
573.22	60528.59
573.38	60729.88
573.55	60432.63
573.71	60704.13
573.87	60762.65
574.03	60432.63
574.20	60505.19
574.36	60624.56
574.52	60647.96
574.68	60575.40
574.84	60690.09
575.01	60552.00
575.17	60624.56
575.33	60474.76
575.49	60547.32
575.65	60690.09
575.82	60605.83
575.98	60547.32
576.14	60821.16
576.30	60802.44
576.46	60683.07
576.62	60591.79
576.79	60580.09
576.95	60650.30
577.11	60683.07
577.27	60708.82
577.43	60589.45
577.59	60746.26
577.75	60647.96
577.92	60523.91
578.08	60582.43
578.24	60781.37
578.40	60741.58
578.56	60797.76
578.72	60694.77
578.88	60804.78
579.04	60736.90
579.21	60582.43
579.37	60893.72
579.53	60804.78
579.69	60491.15
579.85	60767.33
580.01	60552.00
580.17	60671.37
580.33	60839.89
580.49	60877.33
580.65	60739.24
580.82	60713.50
580.98	60678.39
581.14	60711.16
581.30	61050.53
581.46	60601.15
581.62	60928.83
581.78	60718.18
581.94	60818.82
582.10	60706.47
582.26	60736.90
582.42	60741.58
582.58	60580.09
582.74	60640.94
582.90	60762.65
583.06	60860.95
583.22	60828.18
583.38	60734.56
583.54	60772.01
583.70	60832.86
583.86	60933.51
584.02	60793.07
584.18	60966.27
584.34	60994.36
584.50	61029.47
584.66	60622.22
584.82	60804.78
584.98	60933.51
585.14	60940.53
585.30	60664.35
585.46	60928.83
585.62	60919.46
585.78	61071.60
585.94	60650.30
586.10	60748.60
586.26	60793.07
586.42	60907.76
586.58	60980.32
586.74	60858.61
586.90	60795.42
587.06	60898.40
587.22	61052.87
587.38	61085.64
587.54	60910.10
587.70	61148.84
587.86	60975.64
588.02	60804.78
588.18	61118.41
588.34	61006.06
588.49	60802.44
