SpectraSuite Data File
++++++++++++++++++++++++++++++++++++
Date: Fri Oct 25 10:48:10 EDT 2013
User: price-jones
Dark Spectrum Present: No
Reference Spectrum Present: No
Number of Sampled Component Spectra: 1
Spectrometers: USB2+H05261
Integration Time (usec): 100000 (USB2+H05261)
Spectra Averaged: 1 (USB2+H05261)
Boxcar Smoothing: 0 (USB2+H05261)
Correct for Electrical Dark: No (USB2+H05261)
Strobe/Lamp Enabled: No (USB2+H05261)
Correct for Detector Non-linearity: No (USB2+H05261)
Correct for Stray Light: No (USB2+H05261)
Number of Pixels in Processed Spectrum: 2048
>>>>>Begin Processed Spectral Data<<<<<
365.73	126.39
365.92	126.39
366.12	126.39
366.32	81.92
366.52	56.17
366.72	128.73
366.91	79.58
367.11	86.60
367.31	42.13
367.51	21.06
367.70	65.54
367.90	44.47
368.10	16.38
368.30	16.38
368.49	58.51
368.69	79.58
368.89	49.15
369.09	86.60
369.28	4.68
369.48	147.45
369.68	58.51
369.87	102.98
370.07	173.20
370.27	140.43
370.47	205.97
370.66	290.23
370.86	400.23
371.06	414.27
371.25	442.36
371.45	379.17
371.65	521.94
371.84	531.30
372.04	486.83
372.24	418.96
372.44	449.38
372.63	472.79
372.83	496.19
373.03	521.94
373.22	507.90
373.42	580.45
373.62	503.22
373.81	575.77
374.01	566.41
374.21	568.75
374.40	704.50
374.60	571.09
374.79	540.66
374.99	533.64
375.19	627.26
375.38	594.50
375.58	643.65
375.78	538.32
375.97	566.41
376.17	608.54
376.37	557.05
376.56	594.50
376.76	629.60
376.95	498.53
377.15	610.88
377.35	624.92
377.54	610.88
377.74	685.78
377.93	620.24
378.13	589.82
378.33	620.24
378.52	596.84
378.72	617.90
378.91	617.90
379.11	568.75
379.31	566.41
379.50	589.82
379.70	678.76
379.89	662.37
380.09	671.73
380.28	638.97
380.48	636.63
380.68	690.46
380.87	533.64
381.07	669.39
381.26	617.90
381.46	702.16
381.65	683.44
381.85	662.37
382.04	688.12
382.24	758.33
382.43	706.84
382.63	662.37
382.83	685.78
383.02	681.10
383.22	690.46
383.41	627.26
383.61	657.69
383.80	763.01
384.00	709.18
384.19	704.50
384.39	685.78
384.58	795.78
384.78	828.55
384.97	734.93
385.17	767.70
385.36	758.33
385.56	746.63
385.75	784.08
385.95	760.67
386.14	777.06
386.34	758.33
386.53	767.70
386.72	763.01
386.92	828.55
387.11	866.00
387.31	795.78
387.50	699.82
387.70	713.86
387.89	861.32
388.09	791.10
388.28	763.01
388.48	866.00
388.67	926.85
388.86	854.30
389.06	835.57
389.25	856.64
389.45	901.11
389.64	889.40
389.84	987.71
390.03	905.79
390.22	971.32
390.42	880.04
390.61	901.11
390.81	959.62
391.00	901.11
391.19	875.36
391.39	954.94
391.58	947.92
391.78	954.94
391.97	961.96
392.16	957.28
392.36	1053.24
392.55	943.24
392.75	980.68
392.94	987.71
393.13	1067.28
393.33	1027.50
393.52	959.62
393.71	1034.52
393.91	997.07
394.10	905.79
394.29	1032.18
394.49	1107.07
394.68	1121.12
394.88	1132.82
395.07	1074.31
395.26	1132.82
395.46	1095.37
395.65	1172.61
395.84	1071.97
396.04	1198.35
396.23	1149.20
396.42	1083.67
396.62	1076.65
396.81	1048.56
397.00	1118.78
397.19	1188.99
397.39	1205.38
397.58	1172.61
397.77	1135.16
397.97	1275.59
398.16	1158.57
398.35	1263.89
398.55	1301.34
398.74	1214.74
398.93	1273.25
399.12	1317.72
399.32	1345.81
399.51	1322.40
399.70	1401.98
399.90	1439.43
400.09	1315.38
400.28	1345.81
400.47	1294.32
400.67	1401.98
400.86	1439.43
401.05	1453.47
401.24	1387.94
401.44	1547.09
401.63	1441.77
401.82	1411.34
402.01	1409.00
402.21	1465.18
402.40	1511.99
402.59	1507.30
402.78	1542.41
402.97	1530.71
403.17	1565.82
403.36	1554.12
403.55	1629.01
403.74	1668.80
403.93	1631.35
404.13	1617.31
404.32	1638.38
404.51	1764.76
404.70	1746.04
404.89	1717.95
405.09	1818.60
405.28	1664.12
405.47	1757.74
405.66	1757.74
405.85	1713.27
406.05	1846.68
406.24	1741.36
406.43	1760.08
406.62	1900.52
406.81	1764.76
407.00	1832.64
407.20	1739.02
407.39	1856.04
407.58	1860.73
407.77	1884.13
407.96	1809.23
408.15	1961.37
408.34	1926.26
408.54	1863.07
408.73	1989.46
408.92	1884.13
409.11	1966.05
409.30	2062.01
409.49	1973.07
409.68	2052.65
409.87	1982.43
410.07	2066.69
410.26	2129.89
410.45	2139.25
410.64	2104.14
410.83	2267.98
411.02	2139.25
411.21	2230.53
411.40	2244.57
411.59	2169.68
411.78	2251.60
411.98	2207.13
412.17	2277.34
412.36	2326.49
412.55	2382.67
412.74	2338.20
412.93	2403.73
413.12	2356.92
413.31	2429.48
413.50	2399.05
413.69	2422.45
413.88	2581.61
414.07	2497.35
414.26	2600.34
414.45	2621.40
414.64	2661.19
414.83	2700.98
415.02	2595.65
415.22	2719.70
415.41	2644.81
415.60	2794.60
415.79	2647.15
415.98	2839.07
416.17	2693.96
416.36	2752.47
416.55	2813.32
416.74	2876.52
416.93	2778.22
417.12	2944.39
417.31	2928.01
417.50	2930.35
417.69	3047.38
417.88	2986.52
418.07	2913.97
418.26	3187.81
418.45	3045.04
418.64	3096.53
418.83	3052.06
419.02	3089.51
419.21	3148.02
419.39	3173.77
419.58	3016.95
419.77	3126.96
419.96	3297.81
420.15	3253.34
420.34	3274.41
420.53	3330.58
420.72	3407.82
420.91	3344.63
421.10	3297.81
421.29	3391.44
421.48	3211.22
421.67	3538.89
421.86	3300.16
422.05	3283.77
422.24	3391.44
422.43	3407.82
422.61	3473.36
422.80	3536.55
422.99	3454.63
423.18	3581.02
423.37	3375.05
423.56	3382.07
423.75	3461.65
423.94	3442.93
424.13	3246.32
424.32	3218.24
424.50	3485.06
424.69	3478.04
424.88	3623.15
425.07	3496.76
425.26	3541.23
425.45	3550.59
425.64	3447.61
425.83	3478.04
426.01	3487.40
426.20	3485.06
426.39	3496.76
426.58	3517.83
426.77	3602.08
426.96	3604.42
427.15	3531.87
427.33	3641.87
427.52	3576.34
427.71	3578.68
427.90	3667.62
428.09	3707.41
428.28	3578.68
428.46	3758.90
428.65	3705.07
428.84	3779.97
429.03	3805.71
429.22	3681.66
429.40	3679.32
429.59	3723.79
429.78	3599.74
429.97	3625.49
430.16	3838.48
430.34	3744.86
430.53	3770.60
430.72	3815.07
430.91	3819.75
431.10	3981.25
431.28	4030.40
431.47	4189.56
431.66	4128.70
431.85	3887.63
432.03	4077.21
432.22	4217.65
432.41	4077.21
432.60	4102.96
432.79	4114.66
432.97	4196.58
433.16	4152.11
433.35	4112.32
433.54	4194.24
433.72	4266.80
433.91	4241.05
434.10	4374.46
434.28	4147.43
434.47	4273.82
434.66	4388.50
434.85	4489.15
435.03	4409.57
435.22	4440.00
435.41	4456.38
435.59	4376.80
435.78	4479.79
435.97	4472.76
436.16	4432.97
436.34	4512.55
436.53	4606.17
436.72	4594.47
436.90	4542.98
437.09	4557.02
437.28	4381.48
437.46	4589.79
437.65	4559.36
437.84	4526.60
438.02	4741.93
438.21	4741.93
438.40	4657.67
438.58	4828.53
438.77	4662.35
438.96	4699.80
439.14	4959.60
439.33	5032.15
439.52	4847.25
439.70	4912.78
439.89	5085.98
440.08	5214.71
440.26	5198.33
440.45	5137.48
440.63	5144.50
440.82	5357.49
441.01	5226.42
441.19	5289.61
441.38	5467.49
441.57	5423.02
441.75	5327.06
441.94	5654.73
442.12	5455.79
442.31	5434.72
442.50	5600.90
442.68	5479.19
442.87	5535.37
443.05	5703.89
443.24	5802.19
443.43	5671.12
443.61	5563.45
443.80	5881.77
443.98	5734.31
444.17	5448.77
444.35	5792.83
444.54	5811.55
444.73	5916.87
444.91	5621.97
445.10	5755.38
445.28	5736.65
445.47	5743.67
445.65	5783.46
445.84	5912.19
446.02	5982.41
446.21	5802.19
446.39	5956.66
446.58	5867.72
446.77	5996.45
446.95	5795.17
447.14	5947.30
447.32	5799.85
447.51	5888.79
447.69	5867.72
447.88	5905.17
448.06	5893.47
448.25	6071.35
448.43	5998.79
448.62	5998.79
448.80	5937.94
448.99	5973.05
449.17	5973.05
449.36	5998.79
449.54	5956.66
449.73	6305.40
449.91	6256.25
450.10	6338.17
450.28	6279.66
450.46	6223.48
450.65	6190.72
450.83	6361.58
451.02	6251.57
451.20	6265.61
451.39	6167.31
451.57	6457.54
451.76	6270.30
451.94	6352.21
452.13	6497.33
452.31	6387.32
452.49	6242.21
452.68	6579.25
452.86	6340.51
453.05	6595.63
453.23	6408.39
453.42	6359.24
453.60	6436.47
453.78	6537.12
453.97	6539.46
454.15	6541.80
454.34	6616.69
454.52	6668.19
454.70	6647.12
454.89	6757.13
455.07	6560.52
455.26	6614.35
455.44	6766.49
455.62	6771.17
455.81	6899.90
455.99	6832.02
456.17	6871.81
456.36	6747.76
456.54	7108.21
456.73	7138.63
456.91	7272.04
457.09	7274.38
457.28	7192.47
457.46	7215.87
457.64	7316.51
457.83	7281.41
458.01	7129.27
458.19	7337.58
458.38	7248.64
458.56	7351.62
458.74	7279.07
458.93	7180.76
459.11	7356.30
459.29	7215.87
459.48	7414.82
459.66	7499.08
459.84	7417.16
460.03	7428.86
460.21	7456.95
460.39	7555.25
460.57	7559.93
460.76	7620.78
460.94	7646.53
461.12	7604.40
461.31	7510.78
461.49	7646.53
461.67	7632.49
461.85	7864.20
462.04	7609.08
462.22	8367.42
462.40	7922.71
462.59	7981.23
462.77	7852.50
462.95	7885.26
463.13	7918.03
463.32	7845.48
463.50	8072.51
463.68	7810.37
463.86	7878.24
464.05	7946.12
464.23	7988.25
464.41	7974.21
464.59	7789.30
464.78	8138.04
464.96	8189.53
465.14	7971.86
465.32	8222.30
465.50	8325.29
465.69	8318.26
465.87	8290.18
466.05	8128.68
466.23	8229.32
466.41	8222.30
466.60	8496.14
466.78	8320.60
466.96	8224.64
467.14	8301.88
467.32	8381.46
467.51	8446.99
467.69	8173.15
467.87	8531.25
468.05	8411.89
468.23	8477.42
468.41	8578.06
468.60	8283.16
468.78	8610.83
468.96	8648.28
469.14	8753.60
469.32	8865.95
469.50	8400.18
469.69	8791.05
469.87	8734.88
470.05	8748.92
470.23	8716.16
470.41	8741.90
470.59	8971.27
470.77	8821.48
470.95	9167.88
471.14	9202.99
471.32	8891.70
471.50	9308.31
471.68	9254.48
471.86	9111.71
472.04	9401.93
472.22	9376.19
472.40	9226.39
472.58	9158.52
472.77	9170.22
472.95	9327.03
473.13	9619.60
473.31	9570.45
473.49	9540.02
473.67	9617.26
473.85	9666.41
474.03	9783.44
474.21	9699.18
474.39	9902.81
474.57	9664.07
474.75	9930.89
474.93	9980.04
475.12	10136.86
475.30	10136.86
475.48	10143.88
475.66	10211.76
475.84	10036.22
476.02	10408.36
476.20	10342.83
476.38	10469.22
476.56	10778.17
476.74	10771.15
476.92	10597.95
477.10	10497.30
477.28	10768.80
477.46	10810.93
477.64	11047.33
477.82	10876.47
478.00	11229.89
478.18	11068.39
478.36	11112.86
478.54	11510.75
478.72	11396.07
478.90	11538.84
479.08	11604.38
479.26	11906.31
479.44	12013.97
479.62	11520.12
479.80	11932.05
479.98	11985.88
480.16	12257.39
480.34	12152.06
480.52	12491.44
480.70	12390.80
480.88	12365.05
481.06	12468.03
481.24	12517.18
481.41	13109.34
481.59	12917.42
481.77	13015.72
481.95	12957.21
482.13	12952.52
482.31	13177.22
482.49	13591.49
482.67	13460.42
482.85	13523.62
483.03	13635.96
483.21	13736.60
483.39	13638.30
483.57	13792.78
483.74	14171.94
483.92	14052.58
484.10	13870.01
484.28	14270.25
484.46	14410.68
484.64	14494.94
484.82	14544.09
485.00	14799.21
485.18	14867.08
485.35	15112.84
485.53	14759.42
485.71	14979.43
485.89	14979.43
486.07	15241.57
486.25	15360.94
486.43	15587.97
486.61	15545.84
486.78	15885.22
486.96	15903.94
487.14	15817.34
487.32	15995.22
487.50	16198.85
487.68	16442.26
487.85	16585.04
488.03	16631.85
488.21	16793.34
488.39	16835.47
488.57	17121.02
488.75	17261.45
488.92	17266.13
489.10	17647.64
489.28	17767.01
489.46	17830.20
489.64	17607.85
489.81	18104.04
489.99	18478.53
490.17	18277.24
490.35	18359.16
490.53	18349.80
490.70	18525.34
490.88	18572.15
491.06	18752.37
491.24	18934.93
491.41	18918.55
491.59	19061.32
491.77	19276.65
491.95	19337.51
492.13	19403.04
492.30	19414.74
492.48	19812.63
492.66	20098.18
492.84	19803.27
493.01	20128.61
493.19	19854.76
493.37	20240.95
493.54	20350.96
493.72	20465.64
493.90	20561.61
494.08	20695.02
494.25	21111.63
494.43	21343.35
494.61	21015.67
494.79	21481.44
494.96	21179.51
495.14	21200.57
495.32	21341.00
495.49	21558.67
495.67	21418.24
495.85	21963.59
496.02	21979.97
496.20	21968.27
496.38	22092.32
496.55	22469.14
496.73	22902.14
496.91	22190.62
497.09	22595.53
497.26	22808.52
497.44	22998.10
497.62	23124.49
497.79	23049.60
497.97	23449.83
498.14	23147.90
498.32	23625.37
498.50	23468.55
498.67	23761.12
498.85	23740.05
499.03	24100.50
499.20	23807.93
499.38	24257.31
499.56	24133.26
499.73	24039.64
499.91	24390.72
500.08	24458.60
500.26	24526.47
500.44	24390.72
500.61	24704.35
500.79	24545.20
500.97	24748.82
501.14	24954.79
501.32	24856.49
501.49	24779.25
501.67	24769.89
501.84	25006.28
502.02	25076.50
502.20	25359.70
502.37	25310.55
502.55	25654.61
502.72	25479.07
502.90	25687.38
503.07	25694.40
503.25	26026.76
503.43	25713.13
503.60	26073.57
503.78	25830.15
503.95	26171.87
504.13	26223.36
504.30	26494.86
504.48	26092.29
504.65	26930.20
504.83	26644.66
505.01	26761.69
505.18	26714.87
505.36	27009.78
505.53	27056.59
505.71	27250.86
505.88	27168.94
506.06	27110.43
506.23	27459.16
506.41	26808.50
506.58	27597.26
506.76	27571.51
506.93	27831.31
507.11	27555.13
507.28	27534.06
507.46	27711.94
507.63	27906.21
507.81	27735.35
507.98	27569.17
508.16	27805.56
508.33	28009.19
508.50	28081.75
508.68	28594.32
508.85	28336.87
509.03	28730.08
509.20	28737.10
509.38	28797.95
509.55	28786.25
509.73	28819.02
509.90	28816.68
510.08	28802.63
510.25	28929.02
510.42	29514.16
510.60	29160.73
510.77	29661.61
510.95	29315.21
511.12	29394.79
511.30	29553.94
511.47	29685.01
511.64	30094.61
511.82	30040.78
511.99	29507.13
512.17	30101.63
512.34	29914.39
512.51	30291.21
512.69	30553.35
512.86	30253.76
513.04	30579.10
513.21	30118.01
513.38	30574.42
513.56	30668.04
513.73	30298.23
513.90	30988.69
514.08	30412.92
514.25	30480.80
514.43	30731.23
514.60	31044.87
514.77	30976.99
514.95	31026.14
515.12	31103.38
515.29	31012.10
515.47	31473.18
515.64	31850.01
515.81	31241.47
515.99	31255.51
516.16	31651.06
516.33	31475.52
516.51	31910.86
516.68	31122.10
516.85	31297.64
517.03	31716.60
517.20	31358.50
517.37	31653.40
517.54	32371.95
517.72	32077.04
517.89	31683.83
518.06	32086.40
518.24	31936.61
518.41	32102.79
518.58	32055.98
518.75	32212.79
518.93	32540.47
519.10	32320.46
519.27	32315.78
519.45	32491.32
519.62	33057.73
519.79	33137.30
519.96	32896.23
520.14	33191.14
520.31	32540.47
520.48	33244.97
520.65	32926.66
520.83	33605.41
521.00	33577.33
521.17	33516.47
521.34	33516.47
521.52	33963.51
521.69	33397.10
521.86	33989.26
522.03	34068.84
522.20	33874.57
522.38	33795.00
522.55	33776.27
522.72	34026.71
522.89	33905.00
523.07	34110.97
523.24	33968.19
523.41	34235.02
523.58	34110.97
523.75	34242.04
523.92	34651.63
524.10	35072.93
524.27	35037.82
524.44	34499.50
524.61	34668.02
524.78	34927.81
524.96	35452.09
525.13	34916.11
525.30	35157.19
525.47	34962.92
525.64	35093.99
525.81	35306.98
525.98	34885.68
526.16	35164.21
526.33	34953.56
526.50	35508.27
526.67	35152.51
526.84	35351.45
527.01	35236.77
527.18	35484.86
527.36	35873.39
527.53	35512.95
527.70	36350.86
527.87	36100.42
528.04	35800.83
528.21	36119.15
528.38	36002.12
528.55	36257.24
528.72	36334.48
528.89	35971.69
529.07	36526.40
529.24	36465.55
529.41	36545.12
529.58	36341.50
529.75	36369.58
529.92	36795.56
530.09	36519.38
530.26	36498.31
530.43	36535.76
530.60	36531.08
530.77	36566.19
530.94	36615.34
531.11	36669.17
531.28	37060.04
531.46	37291.76
531.63	37163.03
531.80	36833.01
531.97	37113.87
532.14	37160.69
532.31	36818.97
532.48	37376.01
532.65	37722.41
532.82	37048.34
532.99	37429.85
533.16	37177.07
533.33	37717.73
533.50	37902.64
533.67	37413.46
533.84	37745.82
534.01	37734.12
534.18	37825.40
534.35	37853.48
534.52	37701.35
534.69	37809.01
534.86	37589.00
535.03	37656.88
535.20	38220.95
535.37	38452.66
535.54	38735.87
535.71	37809.01
535.88	37951.79
536.05	38199.88
536.22	38185.84
536.38	38672.67
536.55	38031.36
536.72	38270.10
536.89	38274.78
537.06	38178.82
537.23	38164.78
537.40	37961.15
537.57	38466.70
537.74	38576.71
537.91	39201.63
538.08	38476.07
538.25	38806.08
538.42	38852.89
538.59	38810.76
538.75	38808.42
538.92	39016.73
539.09	39311.64
539.26	39108.01
539.43	39098.65
539.60	39253.12
539.77	38794.38
539.94	39225.04
540.11	38895.02
540.28	38972.26
540.44	39124.40
540.61	39040.14
540.78	38918.43
540.95	39297.59
541.12	39091.63
541.29	39070.56
541.46	39583.14
541.62	39646.33
541.79	39636.97
541.96	39545.69
542.13	39505.90
542.30	39590.16
542.47	39793.79
542.63	39606.55
542.80	40325.09
542.97	40289.98
543.14	40594.25
543.31	40229.13
543.48	40465.52
543.64	40547.44
543.81	41027.25
543.98	40395.31
544.15	40168.27
544.32	40662.13
544.48	40718.30
544.65	40687.87
544.82	40746.39
544.99	40069.97
545.16	40781.49
545.32	40257.21
545.49	41088.10
545.66	40999.16
545.83	40809.58
546.00	40891.50
546.16	40865.75
546.33	40439.78
546.50	40598.93
546.67	40715.96
546.83	40793.20
547.00	41144.28
547.17	41177.04
547.34	40767.45
547.50	41420.46
547.67	41291.73
547.84	41104.49
548.00	41429.82
548.17	41450.89
548.34	41024.91
548.51	41556.21
548.67	41911.97
548.84	41614.72
549.01	41696.64
549.18	41312.80
549.34	41392.37
549.51	41652.17
549.68	41581.96
549.84	41830.05
550.01	41879.21
550.18	41535.15
550.34	42052.41
550.51	41979.85
550.68	41759.84
550.84	41270.67
551.01	42092.19
551.18	42052.41
551.34	42129.64
551.51	42106.24
551.68	41930.70
551.84	42176.45
552.01	41907.29
552.18	42169.43
552.34	42059.43
552.51	42349.65
552.68	41825.37
552.84	42305.18
553.01	42422.21
553.18	42440.93
553.34	42274.76
553.51	42038.36
553.67	42234.97
553.84	42674.99
554.01	43248.42
554.17	42447.96
554.34	42593.07
554.51	42534.56
554.67	42464.34
554.84	42550.94
555.00	42237.31
555.17	42333.27
555.33	42447.96
555.50	42686.69
555.67	42518.17
555.83	43019.05
556.00	42852.87
556.16	43157.14
556.33	42850.53
556.50	42501.79
556.66	43056.50
556.83	42623.50
556.99	42759.25
557.16	42607.11
557.32	42885.64
557.49	43377.15
557.65	42623.50
557.82	42663.28
557.98	43269.48
558.15	42663.28
558.32	43086.92
558.48	43079.90
558.65	43239.06
558.81	43023.73
558.98	43264.80
559.14	43388.85
559.31	42848.19
559.47	43091.60
559.64	43498.86
559.80	43597.16
559.97	43562.05
560.13	43051.81
560.30	43482.47
560.46	43466.09
560.63	43173.52
560.79	43606.52
560.96	43611.20
561.12	43180.54
561.29	43627.59
561.45	43475.45
561.61	43718.87
561.78	43180.54
561.94	43344.38
562.11	43587.80
562.27	43421.62
562.44	43445.02
562.60	44081.65
562.77	43931.86
562.93	43653.33
563.10	43679.08
563.26	43384.17
563.42	43828.87
563.59	43463.75
563.75	43782.06
563.92	43761.00
564.08	43756.32
564.24	43920.15
564.41	43515.24
564.57	43688.44
564.74	43501.20
564.90	43744.61
565.07	43826.53
565.23	43643.97
565.39	43894.41
565.56	43978.67
565.72	43887.39
565.88	44205.70
566.05	44250.17
566.21	43529.28
566.38	44098.03
566.54	43885.04
566.70	43962.28
566.87	44680.83
567.03	44238.47
567.19	44315.70
567.36	44018.46
567.52	43459.07
567.68	44538.05
567.85	44142.50
568.01	44095.69
568.17	43828.87
568.34	43786.74
568.50	43997.39
568.66	43812.49
568.83	43805.47
568.99	43676.74
569.15	43477.79
569.32	44025.48
569.48	43854.62
569.64	44350.81
569.81	44343.79
569.97	43908.45
570.13	43536.30
570.30	44051.22
570.46	44109.74
570.62	43807.81
570.78	44308.68
570.95	43643.97
571.11	44414.01
571.27	44294.64
571.43	44168.25
571.60	44322.72
571.76	43915.47
571.92	43821.85
572.09	44123.78
572.25	44006.75
572.41	44217.40
572.57	43922.49
572.74	45034.25
572.90	44205.70
573.06	44334.43
573.22	44605.93
573.38	44257.19
573.55	43952.92
573.71	44722.96
573.87	44093.35
574.03	43849.94
574.20	43943.56
574.36	44306.34
574.52	44336.77
574.68	44306.34
574.84	44800.19
575.01	44451.45
575.17	44020.80
575.33	44182.29
575.49	44105.06
575.65	44746.36
575.82	44285.28
575.98	44683.17
576.14	44680.83
576.30	44725.30
576.46	44512.31
576.62	44411.67
576.79	44240.81
576.95	44016.11
577.11	44177.61
577.27	44430.39
577.43	44451.45
577.59	44528.69
577.75	44004.41
577.92	44186.97
578.08	43772.70
578.24	44217.40
578.40	44198.68
578.56	44301.66
578.72	44659.76
578.88	44493.58
579.04	44626.99
579.21	44509.97
579.37	44229.10
579.53	44371.88
579.69	44215.06
579.85	44414.01
580.01	44519.33
580.17	44615.29
580.33	44755.72
580.49	44772.11
580.65	44486.56
580.82	44514.65
580.98	44519.33
581.14	44175.27
581.30	44591.89
581.46	44390.60
581.62	44589.55
581.78	44591.89
581.94	44275.91
582.10	44481.88
582.26	44671.46
582.42	44561.46
582.58	44814.24
582.74	44058.24
582.90	44172.93
583.06	44814.24
583.22	44652.74
583.38	44568.48
583.54	44271.23
583.70	44795.51
583.86	44577.84
584.02	44130.80
584.18	44268.89
584.34	44402.30
584.50	44481.88
584.66	44430.39
584.82	44165.91
584.98	44823.60
585.14	44919.56
585.30	44612.95
585.46	44641.04
585.62	44247.83
585.78	44435.07
585.94	44280.60
586.10	44573.16
586.26	44416.35
586.42	44671.46
586.58	45097.44
586.74	44601.25
586.90	44652.74
587.06	44446.77
587.22	44692.53
587.38	44133.14
587.54	45188.72
587.70	44790.83
587.86	45027.23
588.02	44669.12
588.18	44809.56
588.34	44397.62
588.49	44308.68
588.65	43990.37
588.81	43763.34
588.97	44474.86
589.13	44275.91
589.29	44966.37
589.45	44865.73
589.61	44999.14
589.77	44994.46
589.93	44949.99
590.08	44711.25
590.24	44701.89
