SpectraSuite Data File
++++++++++++++++++++++++++++++++++++
Date: Fri Oct 25 11:33:26 EDT 2013
User: price-jones
Dark Spectrum Present: No
Reference Spectrum Present: No
Number of Sampled Component Spectra: 1
Spectrometers: USB2+H05261
Integration Time (usec): 100000 (USB2+H05261)
Spectra Averaged: 1 (USB2+H05261)
Boxcar Smoothing: 0 (USB2+H05261)
Correct for Electrical Dark: No (USB2+H05261)
Strobe/Lamp Enabled: No (USB2+H05261)
Correct for Detector Non-linearity: No (USB2+H05261)
Correct for Stray Light: No (USB2+H05261)
Number of Pixels in Processed Spectrum: 2048
>>>>>Begin Processed Spectral Data<<<<<
365.73	238.73
365.92	238.73
366.12	238.73
366.32	189.58
366.52	184.90
366.72	212.99
366.91	196.60
367.11	163.84
367.31	117.03
367.51	166.18
367.70	175.54
367.90	194.26
368.10	177.88
368.30	135.75
368.49	142.77
368.69	236.39
368.89	196.60
369.09	215.33
369.28	187.24
369.48	189.58
369.68	168.52
369.87	306.61
370.07	241.08
370.27	259.80
370.47	355.76
370.66	477.47
370.86	512.58
371.06	575.77
371.25	580.45
371.45	535.98
371.65	573.43
371.84	519.60
372.04	479.81
372.24	564.07
372.44	533.64
372.63	573.43
372.83	634.29
373.03	589.82
373.22	596.84
373.42	503.22
373.62	690.46
373.81	638.97
374.01	685.78
374.21	599.18
374.40	589.82
374.60	641.31
374.79	631.94
374.99	608.54
375.19	669.39
375.38	669.39
375.58	671.73
375.78	606.20
375.97	638.97
376.17	688.12
376.37	746.63
376.56	699.82
376.76	683.44
376.95	627.26
377.15	653.01
377.35	603.86
377.54	767.70
377.74	716.20
377.93	643.65
378.13	711.52
378.33	678.76
378.52	678.76
378.72	732.59
378.91	760.67
379.11	748.97
379.31	713.86
379.50	720.88
379.70	730.25
379.89	718.54
380.09	748.97
380.28	692.80
380.48	650.67
380.68	765.36
380.87	807.48
381.07	798.12
381.26	718.54
381.46	760.67
381.65	786.42
381.85	697.48
382.04	725.57
382.24	734.93
382.43	730.25
382.63	744.29
382.83	770.04
383.02	784.08
383.22	800.46
383.41	802.80
383.61	798.12
383.80	835.57
384.00	732.59
384.19	802.80
384.39	777.06
384.58	807.48
384.78	816.85
384.97	816.85
385.17	830.89
385.36	826.21
385.56	777.06
385.75	847.27
385.95	844.93
386.14	908.13
386.34	861.32
386.53	837.91
386.72	912.81
386.92	840.25
387.11	891.74
387.31	943.24
387.50	870.68
387.70	887.06
387.89	943.24
388.09	884.72
388.28	945.58
388.48	891.74
388.67	922.17
388.86	898.77
389.06	940.90
389.25	1011.11
389.45	915.15
389.64	1013.45
389.84	1039.20
390.03	987.71
390.22	1011.11
390.42	994.73
390.61	844.93
390.81	926.85
391.00	947.92
391.19	1029.84
391.39	1034.52
391.58	999.41
391.78	912.81
391.97	1064.94
392.16	1043.88
392.36	1069.62
392.55	1069.62
392.75	1074.31
392.94	1118.78
393.13	1046.22
393.33	1064.94
393.52	1083.67
393.71	1057.92
393.91	1114.10
394.10	1144.52
394.29	1128.14
394.49	1167.93
394.68	1118.78
394.88	1200.69
395.07	1139.84
395.26	1158.57
395.46	1228.78
395.65	1137.50
395.84	1158.57
396.04	1210.06
396.23	1210.06
396.42	1284.95
396.62	1336.45
396.81	1242.82
397.00	1170.27
397.19	1207.72
397.39	1212.40
397.58	1242.82
397.77	1256.87
397.97	1198.35
398.16	1212.40
398.35	1226.44
398.55	1242.82
398.74	1245.16
398.93	1308.36
399.12	1355.17
399.32	1245.16
399.51	1371.55
399.70	1345.81
399.90	1301.34
400.09	1373.89
400.28	1409.00
400.47	1406.66
400.67	1411.34
400.86	1453.47
401.05	1369.21
401.24	1427.73
401.44	1401.98
401.63	1383.26
401.82	1488.58
402.01	1476.88
402.21	1507.30
402.40	1502.62
402.59	1549.43
402.78	1451.13
402.97	1497.94
403.17	1488.58
403.36	1502.62
403.55	1596.25
403.74	1647.74
403.93	1710.93
404.13	1629.01
404.32	1528.37
404.51	1577.52
404.70	1631.35
404.89	1692.21
405.09	1706.25
405.28	1687.53
405.47	1839.66
405.66	1678.16
405.85	1832.64
406.05	1739.02
406.24	1741.36
406.43	1776.47
406.62	1778.81
406.81	1830.30
407.00	1853.70
407.20	1792.85
407.39	1692.21
407.58	1804.55
407.77	1870.09
407.96	1746.04
408.15	1886.47
408.34	1902.86
408.54	1912.22
408.73	1933.28
408.92	1984.77
409.11	1893.49
409.30	1970.73
409.49	2040.95
409.68	2057.33
409.87	2069.03
410.07	2073.71
410.26	2097.12
410.45	2015.20
410.64	2167.34
410.83	2064.35
411.02	2115.84
411.21	2045.63
411.40	2122.87
411.59	2139.25
411.78	2214.15
411.98	2139.25
412.17	2216.49
412.36	2275.00
412.55	2256.28
412.74	2349.90
412.93	2450.54
413.12	2282.02
413.31	2466.92
413.50	2417.77
413.69	2513.74
413.88	2459.90
414.07	2495.01
414.26	2548.84
414.45	2623.74
414.64	2553.52
414.83	2548.84
415.02	2574.59
415.22	2567.57
415.41	2551.18
415.60	2733.75
415.79	2717.36
415.98	2761.83
416.17	2698.64
416.36	2703.32
416.55	2771.19
416.74	2827.37
416.93	2825.03
417.12	2808.64
417.31	2895.24
417.50	2916.31
417.69	2986.52
417.88	3009.93
418.07	2974.82
418.26	3045.04
418.45	2942.05
418.64	3047.38
418.83	3152.70
419.02	3016.95
419.21	3091.85
419.39	3028.65
419.58	3089.51
419.77	3180.79
419.96	3243.98
420.15	3173.77
420.34	3119.93
420.53	3173.77
420.72	3311.86
420.91	3171.43
421.10	3222.92
421.29	3391.44
421.48	3227.60
421.67	3265.05
421.86	3337.60
422.05	3407.82
422.24	3339.94
422.43	3400.80
422.61	3241.64
422.80	3527.19
422.99	3447.61
423.18	3433.57
423.37	3503.78
423.56	3361.01
423.75	3445.27
423.94	3344.63
424.13	3269.73
424.32	3325.90
424.50	3503.78
424.69	3445.27
424.88	3538.89
425.07	3344.63
425.26	3342.28
425.45	3487.40
425.64	3346.97
425.83	3445.27
426.01	3590.38
426.20	3566.98
426.39	3445.27
426.58	3435.91
426.77	3669.96
426.96	3550.59
427.15	3475.70
427.33	3545.91
427.52	3478.04
427.71	3655.92
427.90	3625.49
428.09	3646.55
428.28	3728.47
428.46	3679.32
428.65	3611.45
428.84	3852.52
429.03	3803.37
429.22	3653.58
429.40	3716.77
429.59	3847.84
429.78	3763.58
429.97	3672.30
430.16	3751.88
430.34	3906.35
430.53	3833.80
430.72	3889.97
430.91	3957.85
431.10	3833.80
431.28	3871.25
431.47	3925.08
431.66	4163.81
431.85	3988.27
432.03	4053.81
432.22	4166.15
432.41	4077.21
432.60	4138.07
432.79	4032.74
432.97	4114.66
433.16	4039.76
433.35	3969.55
433.54	4182.54
433.72	4184.88
433.91	4255.09
434.10	4229.35
434.28	4243.39
434.47	4346.37
434.66	4266.80
434.85	4421.27
435.03	4447.02
435.22	4388.50
435.41	4475.10
435.59	4425.95
435.78	4447.02
435.97	4454.04
436.16	4341.69
436.34	4484.47
436.53	4402.55
436.72	4505.53
436.90	4514.89
437.09	4507.87
437.28	4358.08
437.46	4564.04
437.65	4624.90
437.84	4587.45
438.02	4608.51
438.21	4636.60
438.40	4608.51
438.58	4732.56
438.77	4732.56
438.96	4713.84
439.14	4812.14
439.33	4947.89
439.52	5018.11
439.70	4798.10
439.89	5034.49
440.08	5181.95
440.26	4975.98
440.45	5004.07
440.63	5078.96
440.82	5289.61
441.01	5029.81
441.19	5132.79
441.38	5331.74
441.57	5324.72
441.75	5317.70
441.94	5504.94
442.12	5521.32
442.31	5411.32
442.50	5401.96
442.68	5371.53
442.87	5504.94
443.05	5603.24
443.24	5497.92
443.43	5507.28
443.61	5441.75
443.80	5884.11
443.98	5387.91
444.17	5413.66
444.35	5579.84
444.54	5563.45
444.73	5706.23
444.91	5540.05
445.10	5530.69
445.28	5668.78
445.47	5451.11
445.65	5666.44
445.84	5846.66
446.02	5790.49
446.21	5694.52
446.39	5713.25
446.58	5734.31
446.77	5628.99
446.95	5579.84
447.14	5703.89
447.32	5799.85
447.51	5790.49
447.69	5764.74
447.88	5767.08
448.06	5930.92
448.25	5731.97
448.43	5816.23
448.62	5746.02
448.80	5860.70
448.99	6033.90
449.17	5837.30
449.36	5802.19
449.54	5851.34
449.73	6024.54
449.91	6050.28
450.10	6078.37
450.28	6090.07
450.46	6186.04
450.65	6279.66
450.83	6069.01
451.02	6127.52
451.20	6274.98
451.39	6347.53
451.57	6118.16
451.76	6139.23
451.94	6284.34
452.13	6265.61
452.31	6228.17
452.49	6176.67
452.68	6448.18
452.86	6450.52
453.05	6300.72
453.23	6338.17
453.42	6389.66
453.60	6265.61
453.78	6441.15
453.97	6417.75
454.15	6338.17
454.34	6401.37
454.52	6516.05
454.70	6710.32
454.89	6583.93
455.07	6494.99
455.26	6548.82
455.44	6731.38
455.62	6590.95
455.81	6691.59
455.99	6691.59
456.17	6855.43
456.36	6899.90
456.54	7023.95
456.73	6988.84
456.91	7073.10
457.09	7122.25
457.28	7183.10
457.46	7136.29
457.64	7239.28
457.83	7084.80
458.01	7028.63
458.19	7159.70
458.38	7126.93
458.56	7311.83
458.74	7150.34
458.93	7356.30
459.11	7213.53
459.29	7213.53
459.48	7372.69
459.66	7293.11
459.84	7440.56
460.03	7552.91
460.21	7316.51
460.39	7564.61
460.57	7616.10
460.76	7632.49
460.94	7527.16
461.12	7452.27
461.31	7623.12
461.49	7606.74
461.67	7447.58
461.85	7754.19
462.04	7702.70
462.22	8100.59
462.40	7768.24
462.59	7899.31
462.77	7700.36
462.95	8002.29
463.13	7733.13
463.32	7754.19
463.50	7964.84
463.68	8028.04
463.86	8023.36
464.05	7609.08
464.23	7808.03
464.41	8060.80
464.59	7798.66
464.78	8109.96
464.96	8032.72
465.14	8039.74
465.32	8072.51
465.50	8191.88
465.69	8170.81
465.87	8231.66
466.05	8044.42
466.23	8189.53
466.41	8142.72
466.60	8421.25
466.78	8215.28
466.96	8175.49
467.14	8180.17
467.32	8182.51
467.51	8308.90
467.69	8329.97
467.87	8435.29
468.05	8477.42
468.23	8386.14
468.41	8461.04
468.60	8332.31
468.78	8549.98
468.96	8458.70
469.14	8512.53
469.32	8498.49
469.50	8409.54
469.69	8634.24
469.87	8631.90
470.05	8741.90
470.23	8821.48
470.41	8720.84
470.59	8760.63
470.77	8863.61
470.95	8891.70
471.14	9067.24
471.32	8779.35
471.50	9095.32
471.68	8929.14
471.86	8997.02
472.04	9308.31
472.22	9235.75
472.40	9097.66
472.58	9305.97
472.77	9507.26
472.95	9408.95
473.13	9750.67
473.31	9184.26
473.49	9324.69
473.67	9406.61
473.85	9575.13
474.03	9877.06
474.21	9680.46
474.39	9907.49
474.57	9994.09
474.75	9799.82
474.93	10040.90
475.12	9949.62
475.30	10106.43
475.48	10054.94
475.66	10171.97
475.84	10155.58
476.02	10076.01
476.20	10083.03
476.38	10384.96
476.56	10736.04
476.74	10424.75
476.92	10593.26
477.10	10511.35
477.28	10651.78
477.46	10761.78
477.64	10806.25
477.82	10834.34
478.00	11265.00
478.18	10934.98
478.36	11239.25
478.54	11365.64
478.72	11428.84
478.90	11618.42
479.08	11653.53
479.26	11829.07
479.44	11887.58
479.62	11754.17
479.80	11721.40
479.98	11913.33
480.16	12049.08
480.34	12229.30
480.52	12322.92
480.70	12475.06
480.88	12107.59
481.06	12224.62
481.24	12510.16
481.41	12568.68
481.59	12798.05
481.77	13071.89
481.95	12926.78
482.13	13097.64
482.31	13167.85
482.49	13411.27
482.67	13228.71
482.85	13659.37
483.03	13689.79
483.21	13853.63
483.39	13923.85
483.57	13914.48
483.74	13865.33
483.92	13884.06
484.10	14197.69
484.28	14319.40
484.46	14588.56
484.64	14663.46
484.82	14532.39
485.00	15012.20
485.18	14995.81
485.35	15103.48
485.53	15087.09
485.71	15197.10
485.89	15438.17
486.07	15419.45
486.25	15587.97
486.43	15637.12
486.61	15637.12
486.78	15906.28
486.96	16088.84
487.14	16128.63
487.32	16393.11
487.50	16297.15
487.68	16570.99
487.85	16791.00
488.03	16929.09
488.21	17092.93
488.39	16870.58
488.57	17331.67
488.75	17158.47
488.92	17586.79
489.10	17884.03
489.28	17743.60
489.46	18157.88
489.64	17944.89
489.81	18073.62
489.99	17996.38
490.17	18515.98
490.35	18518.32
490.53	18850.67
490.70	18780.46
490.88	18520.66
491.06	19419.42
491.24	18838.97
491.41	19180.69
491.59	19264.95
491.77	19012.17
491.95	19550.49
492.13	19609.01
492.30	19592.62
492.48	19868.81
492.66	20079.46
492.84	19988.18
493.01	20325.21
493.19	20334.57
493.37	20465.64
493.54	20479.69
493.72	20779.28
493.90	20805.02
494.08	20926.73
494.25	21287.17
494.43	21046.10
494.61	21287.17
494.79	21511.86
494.96	21490.80
495.14	21624.21
495.32	21621.87
495.49	21797.41
495.67	21933.16
495.85	22345.09
496.02	22370.84
496.20	22471.48
496.38	22670.43
496.55	22689.15
496.73	23197.05
496.91	22686.81
497.09	23126.83
497.26	22953.63
497.44	22572.13
497.62	23094.07
497.79	23749.42
497.97	23653.45
498.14	23763.46
498.32	24402.43
498.50	23843.04
498.67	23988.15
498.85	23852.40
499.03	23939.00
499.20	24261.99
499.38	24053.69
499.56	24531.15
499.73	24346.25
499.91	24489.03
500.08	24844.79
500.26	24943.09
500.44	24844.79
500.61	24907.98
500.79	24631.80
500.97	25429.92
501.14	25404.17
501.32	25502.48
501.49	24989.90
501.67	25369.07
501.84	25869.94
502.02	25486.09
502.20	26108.68
502.37	25848.88
502.55	25535.24
502.72	26256.13
502.90	26001.01
503.07	26136.76
503.25	25930.80
503.43	26216.34
503.60	26232.72
503.78	26792.11
503.95	26408.26
504.13	26962.97
504.30	27002.76
504.48	26918.50
504.65	26724.24
504.83	27056.59
505.01	27391.29
505.18	27456.82
505.36	27435.76
505.53	27370.22
505.71	27105.74
505.88	27126.81
506.06	27412.35
506.23	27758.75
506.41	27983.44
506.58	27985.79
506.76	28219.84
506.93	28421.13
507.11	27878.12
507.28	28519.43
507.46	28315.80
507.63	28484.32
507.81	28711.35
507.98	28224.52
508.16	28479.64
508.33	28561.56
508.50	29174.78
508.68	28938.38
508.85	29165.42
509.03	28601.35
509.20	28999.24
509.38	29523.52
509.55	29539.90
509.73	29390.11
509.90	29575.01
510.08	29565.65
510.25	29809.06
510.42	29848.85
510.60	29858.21
510.77	30438.67
510.95	30045.46
511.12	30199.93
511.30	30094.61
511.47	30436.33
511.64	30008.01
511.82	30228.02
511.99	30527.61
512.17	30656.34
512.34	30752.30
512.51	30745.28
512.69	31101.04
512.86	30749.96
513.04	31028.48
513.21	31299.98
513.38	31180.62
513.56	31477.86
513.73	31281.26
513.90	31253.17
514.08	31482.55
514.25	31819.58
514.43	31505.95
514.60	31564.46
514.77	31983.42
514.95	31789.16
515.12	31707.24
515.29	31854.69
515.47	32290.03
515.64	32065.34
515.81	31803.20
515.99	32123.85
516.16	32528.77
516.33	33102.20
516.51	32762.82
516.68	32802.61
516.85	32538.13
517.03	32826.01
517.20	33039.00
517.37	32563.87
517.54	32807.29
517.72	32804.95
517.89	33479.02
518.06	33186.46
518.24	33532.86
518.41	33237.95
518.58	33156.03
518.75	32512.38
518.93	33490.73
519.10	33378.38
519.27	33464.98
519.45	33626.48
519.62	33912.02
519.79	33574.98
519.96	33867.55
520.14	34237.36
520.31	33886.28
520.48	33811.38
520.65	34377.79
520.83	34604.82
521.00	34298.21
521.17	34204.59
521.34	34785.04
521.52	34436.30
521.69	34485.45
521.86	35119.74
522.03	34738.23
522.20	34955.90
522.38	35218.04
522.55	35555.08
522.72	35309.32
522.89	34923.13
523.07	35517.63
523.24	35473.16
523.41	35536.35
523.58	35381.88
523.75	35889.77
523.92	35756.36
524.10	35377.20
524.27	36051.27
524.44	35662.74
524.61	36189.36
524.78	36065.31
524.96	36392.99
525.13	36170.64
525.30	35948.29
525.47	36341.50
525.64	36084.04
525.81	36727.69
525.98	36215.11
526.16	36245.54
526.33	36582.57
526.50	36699.60
526.67	36198.73
526.84	36760.45
527.01	36669.17
527.18	36886.84
527.36	36421.08
527.53	37144.30
527.70	37305.80
527.87	37361.97
528.04	36720.66
528.21	37418.14
528.38	37383.04
528.55	37593.68
528.72	37144.30
528.89	37766.88
529.07	37539.85
529.24	37673.26
529.41	37801.99
529.58	37418.14
529.75	37507.08
529.92	37696.67
530.09	37184.09
530.26	37893.27
530.43	38033.71
530.60	37874.55
530.77	37855.82
530.94	38345.00
531.11	37834.76
531.28	38132.01
531.46	38054.77
531.63	38429.26
531.80	38242.01
531.97	38600.12
532.14	38426.92
532.31	38417.55
532.48	38794.38
532.65	38604.80
532.82	38312.23
532.99	38742.89
533.16	38904.38
533.33	38588.41
533.50	39093.97
533.67	38782.68
533.84	38689.06
534.01	39033.11
534.18	38831.83
534.35	39295.25
534.52	39220.36
534.69	39187.59
534.86	39510.58
535.03	39330.36
535.20	39435.69
535.37	39459.09
535.54	39950.60
535.71	39559.73
535.88	39948.26
536.05	39782.09
536.22	39674.42
536.38	40264.24
536.55	39929.54
536.72	40208.06
536.89	39945.92
537.06	40018.48
537.23	40196.36
537.40	39819.53
537.57	40357.86
537.74	40107.42
537.91	40385.94
538.08	40062.95
538.25	40168.27
538.42	40236.15
538.59	40704.26
538.75	40304.02
538.92	40659.79
539.09	41015.55
539.26	40800.22
539.43	40804.90
539.60	41092.79
539.77	40580.21
539.94	41237.90
540.11	41010.87
540.28	40978.10
540.44	40886.82
540.61	40830.65
540.78	40746.39
540.95	41375.99
541.12	41078.74
541.29	41303.43
541.46	41481.31
541.62	41258.96
541.79	41790.27
541.96	41312.80
542.13	41069.38
542.30	41308.11
542.47	41897.93
542.63	41827.71
542.80	41289.39
542.97	42408.17
543.14	41930.70
543.31	41689.62
543.48	42033.68
543.64	42663.28
543.81	42286.46
543.98	42108.58
544.15	42124.96
544.32	42674.99
544.48	42803.72
544.65	42445.62
544.82	42607.11
544.99	42375.40
545.16	42471.36
545.32	42520.51
545.49	42665.63
545.66	42913.72
545.83	42714.78
546.00	42728.82
546.16	42630.52
546.33	42808.40
546.50	42976.92
546.67	42969.90
546.83	42555.62
547.00	42866.91
547.17	42693.71
547.34	43089.26
547.50	42967.55
547.67	43182.88
547.84	42934.79
548.00	43377.15
548.17	43416.94
548.34	43332.68
548.51	43824.19
548.67	43625.25
548.84	43311.61
549.01	43468.43
549.18	43573.75
549.34	43606.52
549.51	43896.75
549.68	43744.61
549.84	43805.47
550.01	43917.81
550.18	43899.09
550.34	43283.53
550.51	43929.51
550.68	43669.72
550.84	43503.54
551.01	44315.70
551.18	43494.18
551.34	44268.89
551.51	43941.22
551.68	44245.49
551.84	44069.95
552.01	43945.90
552.18	44353.15
552.34	43915.47
552.51	44481.88
552.68	43913.13
552.84	44252.51
553.01	44430.39
553.18	44107.40
553.34	44374.22
553.51	44308.68
553.67	44509.97
553.84	44655.08
554.01	44687.85
554.17	44889.13
554.34	44982.76
554.51	44528.69
554.67	44882.11
554.84	44615.29
555.00	44790.83
555.17	45083.40
555.33	44945.31
555.50	44928.92
555.67	44856.37
555.83	45034.25
556.00	45022.54
556.16	45387.67
556.33	45411.07
556.50	45151.27
556.66	44622.31
556.83	44987.44
556.99	45787.90
557.16	45586.61
557.32	45256.60
557.49	45090.42
557.65	45090.42
557.82	45574.91
557.98	45432.14
558.15	45603.00
558.32	45563.21
558.48	44734.66
558.65	45478.95
558.81	45544.48
558.98	45619.38
559.14	45172.34
559.31	45565.55
559.47	45277.66
559.64	45741.09
559.80	45729.39
559.97	45797.26
560.13	44982.76
560.30	45780.88
560.46	46141.32
560.63	45874.50
560.79	46036.00
560.96	46117.92
561.12	45989.19
561.29	46279.41
561.45	45771.52
561.61	45825.35
561.78	45619.38
561.94	45783.22
562.11	45804.28
562.27	45811.31
562.44	46007.91
562.60	46005.57
562.77	46099.19
562.93	45743.43
563.10	46092.17
563.26	46213.88
563.42	46609.43
563.59	45944.72
563.75	46246.65
563.92	46110.89
564.08	46014.93
564.24	46288.77
564.41	45890.88
564.57	46260.69
564.74	46155.36
564.90	46040.68
565.07	46480.70
565.23	46153.02
565.39	46031.32
565.56	46351.97
565.72	46050.04
565.88	46223.24
566.05	46218.56
566.21	46476.02
566.38	46504.10
566.54	46405.80
566.70	46351.97
566.87	46628.15
567.03	46021.95
567.19	46836.46
567.36	46452.61
567.52	46529.85
567.68	46588.36
567.85	46621.13
568.01	46873.91
568.17	46571.98
568.34	47026.04
568.50	46632.83
568.66	46927.74
568.83	46803.69
568.99	46696.03
569.15	46806.03
569.32	46571.98
569.48	47054.13
569.64	46815.40
569.81	47016.68
569.97	46815.40
570.13	47023.70
570.30	46569.64
570.46	46920.72
570.62	46770.93
570.78	46904.34
570.95	46883.27
571.11	47377.12
571.27	47054.13
571.43	46564.96
571.60	46803.69
571.76	46497.08
571.92	46934.76
572.09	46623.47
572.25	46829.44
572.41	46813.05
572.57	46829.44
572.74	47540.96
572.90	47187.54
573.06	47306.91
573.22	47089.24
573.38	47093.92
573.55	47246.05
573.71	47360.74
573.87	47318.61
574.03	47257.76
574.20	47618.20
574.36	47199.24
574.52	47227.33
574.68	47103.28
574.84	47269.46
575.01	47456.70
575.17	47433.30
575.33	47290.52
575.49	47241.37
575.65	47505.85
575.82	47002.64
575.98	47171.16
576.14	47913.11
576.30	47704.80
576.46	47323.29
576.62	47281.16
576.79	47313.93
576.95	47002.64
577.11	46939.44
577.27	47267.12
577.43	47213.29
577.59	47122.01
577.75	47297.55
577.92	47119.66
578.08	47196.90
578.24	47096.26
578.40	47445.00
578.56	46944.12
578.72	46939.44
578.88	47079.88
579.04	47386.49
579.21	47475.43
579.37	47683.73
579.53	47721.18
579.69	47222.65
579.85	47246.05
580.01	47765.65
580.17	47143.07
580.33	47505.85
580.49	47480.11
580.65	47669.69
580.82	47147.75
580.98	47180.52
581.14	47482.45
581.30	47129.03
581.46	47037.75
581.62	47370.10
581.78	47201.58
581.94	47086.90
582.10	47332.65
582.26	47718.84
582.42	47510.53
582.58	47374.78
582.74	47800.76
582.90	47618.20
583.06	47643.94
583.22	47543.30
583.38	47693.10
583.54	47730.54
583.70	47468.40
583.86	47831.19
584.02	47409.89
584.18	47679.05
584.34	47695.44
584.50	47636.92
584.66	47796.08
584.82	47435.64
584.98	48313.34
585.14	47749.27
585.30	47531.60
585.46	47026.04
585.62	47454.36
585.78	47812.46
585.94	47402.87
586.10	47669.69
586.26	47505.85
586.42	47283.50
586.58	47562.03
586.74	47505.85
586.90	47255.42
587.06	47597.13
587.22	47599.47
587.38	47419.25
587.54	47901.40
587.70	48083.97
587.86	47660.33
588.02	47690.76
588.18	47536.28
588.34	47613.52
588.49	47449.68
588.65	47704.80
588.81	47913.11
588.97	47641.60
589.13	47899.06
589.29	47770.33
589.45	48032.47
589.61	47870.98
589.77	47805.44
589.93	47641.60
