SpectraSuite Data File
++++++++++++++++++++++++++++++++++++
Date: Fri Oct 25 10:43:41 EDT 2013
User: price-jones
Dark Spectrum Present: No
Reference Spectrum Present: No
Number of Sampled Component Spectra: 1
Spectrometers: USB2+H05261
Integration Time (usec): 100000 (USB2+H05261)
Spectra Averaged: 1 (USB2+H05261)
Boxcar Smoothing: 0 (USB2+H05261)
Correct for Electrical Dark: No (USB2+H05261)
Strobe/Lamp Enabled: No (USB2+H05261)
Correct for Detector Non-linearity: No (USB2+H05261)
Correct for Stray Light: No (USB2+H05261)
Number of Pixels in Processed Spectrum: 2048
>>>>>Begin Processed Spectral Data<<<<<
365.73	81.92
365.92	81.92
366.12	81.92
366.32	72.56
366.52	35.11
366.72	65.54
366.91	28.09
367.11	32.77
367.31	0.00
367.51	11.70
367.70	117.03
367.90	42.13
368.10	53.83
368.30	67.88
368.49	32.77
368.69	4.68
368.89	23.41
369.09	0.00
369.28	81.92
369.48	93.62
369.68	35.11
369.87	28.09
370.07	124.05
370.27	81.92
370.47	215.33
370.66	346.40
370.86	360.44
371.06	386.19
371.25	458.74
371.45	411.93
371.65	486.83
371.84	444.70
372.04	433.00
372.24	433.00
372.44	538.32
372.63	524.28
372.83	500.87
373.03	477.47
373.22	500.87
373.42	564.07
373.62	510.24
373.81	564.07
374.01	545.34
374.21	615.56
374.40	517.26
374.60	545.34
374.79	545.34
374.99	610.88
375.19	540.66
375.38	535.98
375.58	559.39
375.78	545.34
375.97	585.13
376.17	660.03
376.37	615.56
376.56	610.88
376.76	648.33
376.95	575.77
377.15	725.57
377.35	657.69
377.54	657.69
377.74	638.97
377.93	636.63
378.13	671.73
378.33	727.91
378.52	697.48
378.72	690.46
378.91	674.07
379.11	683.44
379.31	685.78
379.50	648.33
379.70	748.97
379.89	676.41
380.09	653.01
380.28	685.78
380.48	660.03
380.68	723.23
380.87	702.16
381.07	671.73
381.26	798.12
381.46	744.29
381.65	718.54
381.85	685.78
382.04	779.40
382.24	697.48
382.43	711.52
382.63	791.10
382.83	681.10
383.02	660.03
383.22	744.29
383.41	751.31
383.61	777.06
383.80	760.67
384.00	697.48
384.19	716.20
384.39	751.31
384.58	795.78
384.78	805.14
384.97	741.95
385.17	784.08
385.36	826.21
385.56	877.70
385.75	877.70
385.95	788.76
386.14	800.46
386.34	786.42
386.53	816.85
386.72	830.89
386.92	875.36
387.11	800.46
387.31	786.42
387.50	945.58
387.70	894.08
387.89	887.06
388.09	882.38
388.28	912.81
388.48	1006.43
388.67	917.49
388.86	990.05
389.06	912.81
389.25	954.94
389.45	994.73
389.64	1060.26
389.84	1053.24
390.03	997.07
390.22	973.66
390.42	1013.45
390.61	1027.50
390.81	1046.22
391.00	997.07
391.19	1109.41
391.39	1158.57
391.58	1057.92
391.78	1011.11
391.97	1064.94
392.16	1046.22
392.36	1048.56
392.55	959.62
392.75	997.07
392.94	994.73
393.13	1006.43
393.33	1020.47
393.52	1071.97
393.71	1022.81
393.91	1104.73
394.10	1114.10
394.29	1174.95
394.49	1179.63
394.68	1188.99
394.88	1221.76
395.07	1324.74
395.26	1249.85
395.46	1263.89
395.65	1203.04
395.84	1224.10
396.04	1245.16
396.23	1149.20
396.42	1015.79
396.62	1111.75
396.81	1135.16
397.00	1132.82
397.19	1322.40
397.39	1327.08
397.58	1366.87
397.77	1406.66
397.97	1345.81
398.16	1366.87
398.35	1441.77
398.55	1500.28
398.74	1516.67
398.93	1633.69
399.12	1479.22
399.32	1530.71
399.51	1474.54
399.70	1568.16
399.90	1572.84
400.09	1626.67
400.28	1617.31
400.47	1593.90
400.67	1582.20
400.86	1685.19
401.05	1650.08
401.24	1682.85
401.44	1734.34
401.63	1717.95
401.82	1741.36
402.01	1652.42
402.21	1755.40
402.40	1811.57
402.59	1788.17
402.78	1781.15
402.97	1832.64
403.17	1710.93
403.36	1914.56
403.55	1909.88
403.74	1895.83
403.93	2003.50
404.13	1724.97
404.32	2001.16
404.51	1877.11
404.70	2108.82
404.89	1994.14
405.09	1919.24
405.28	2005.84
405.47	1949.67
405.66	2080.74
405.85	1858.39
406.05	1991.80
406.24	1989.46
406.43	1984.77
406.62	2099.46
406.81	2118.18
407.00	2122.87
407.20	2062.01
407.39	1980.09
407.58	2083.08
407.77	2172.02
407.96	2129.89
408.15	2333.51
408.34	2209.47
408.54	2340.54
408.73	2361.60
408.92	2246.91
409.11	2303.09
409.30	2296.07
409.49	2279.68
409.68	2221.17
409.87	2375.64
410.07	2321.81
410.26	2445.86
410.45	2420.11
410.64	2340.54
410.83	2518.42
411.02	2544.16
411.21	2619.06
411.40	2637.78
411.59	2518.42
411.78	2682.25
411.98	2593.31
412.17	2626.08
412.36	2644.81
412.55	2736.09
412.74	2768.85
412.93	2796.94
413.12	2780.56
413.31	2942.05
413.50	2729.06
413.69	2930.35
413.88	2897.58
414.07	2963.12
414.26	2939.71
414.45	3019.29
414.64	3040.36
414.83	3084.83
415.02	3054.40
415.22	3133.98
415.41	3157.38
415.60	3236.96
415.79	3222.92
415.98	3265.05
416.17	3234.62
416.36	3281.43
416.55	3199.51
416.74	3335.26
416.93	3215.90
417.12	3428.88
417.31	3251.00
417.50	3293.13
417.69	3435.91
417.88	3471.01
418.07	3403.14
418.26	3482.72
418.45	3562.30
418.64	3604.42
418.83	3538.89
419.02	3672.30
419.21	3611.45
419.39	3569.32
419.58	3644.21
419.77	3555.27
419.96	3749.54
420.15	3779.97
420.34	3681.66
420.53	3693.37
420.72	3768.26
420.91	3765.92
421.10	3803.37
421.29	3929.76
421.48	3871.25
421.67	3906.35
421.86	3939.12
422.05	3805.71
422.24	3805.71
422.43	3676.98
422.61	3847.84
422.80	3962.53
422.99	3894.65
423.18	3955.51
423.37	3957.85
423.56	4072.53
423.75	4030.40
423.94	3946.14
424.13	3625.49
424.32	3913.38
424.50	4063.17
424.69	4056.15
424.88	4100.62
425.07	3854.86
425.26	3957.85
425.45	4030.40
425.64	4035.08
425.83	4051.47
426.01	4086.58
426.20	4086.58
426.39	4084.23
426.58	3946.14
426.77	3927.42
426.96	4063.17
427.15	3978.91
427.33	4147.43
427.52	3997.64
427.71	4182.54
427.90	4175.52
428.09	4058.49
428.28	4212.96
428.46	4217.65
428.65	4250.41
428.84	4294.88
429.03	4229.35
429.22	4100.62
429.40	4086.58
429.59	4098.28
429.78	3974.23
429.97	4025.72
430.16	4063.17
430.34	4278.50
430.53	4248.07
430.72	4231.69
430.91	4402.55
431.10	4561.70
431.28	4601.49
431.47	4814.48
431.66	4716.18
431.85	4491.49
432.03	4692.77
432.22	4814.48
432.41	4610.86
432.60	4606.17
432.79	4706.82
432.97	4854.27
433.16	4718.52
433.35	4685.75
433.54	4660.01
433.72	4851.93
433.91	4741.93
434.10	4908.10
434.28	4903.42
434.47	4777.03
434.66	4891.72
434.85	4877.68
435.03	5062.58
435.22	5011.09
435.41	5125.77
435.59	5071.94
435.78	5177.26
435.97	5167.90
436.16	5170.24
436.34	5301.31
436.53	5132.79
436.72	5338.76
436.90	5242.80
437.09	5163.22
437.28	5125.77
437.46	5284.93
437.65	5345.78
437.84	5334.08
438.02	5355.15
438.21	5226.42
438.40	5181.95
438.58	5547.07
438.77	5444.09
438.96	5474.51
439.14	5731.97
439.33	5692.18
439.52	5748.36
439.70	5699.20
439.89	5760.06
440.08	5757.72
440.26	5825.59
440.45	5792.83
440.63	5998.79
440.82	6040.92
441.01	5909.85
441.19	6069.01
441.38	6113.48
441.57	6169.65
441.75	6417.75
441.94	6338.17
442.12	6382.64
442.31	6469.24
442.50	6417.75
442.68	6359.24
442.87	6424.77
443.05	6473.92
443.24	6494.99
443.43	6328.81
443.61	6511.37
443.80	6736.06
443.98	6532.44
444.17	6375.62
444.35	6691.59
444.54	6743.08
444.73	6647.12
444.91	6654.14
445.10	6644.78
445.28	6567.54
445.47	6387.32
445.65	6572.22
445.84	6541.80
446.02	6691.59
446.21	6665.85
446.39	6651.80
446.58	6803.94
446.77	6719.68
446.95	6726.70
447.14	6754.79
447.32	6787.55
447.51	6677.55
447.69	6579.25
447.88	6635.42
448.06	6871.81
448.25	6899.90
448.43	6843.73
448.62	6775.85
448.80	6799.26
448.99	6956.07
449.17	6878.83
449.36	6920.96
449.54	7023.95
449.73	7208.85
449.91	7213.53
450.10	7232.26
450.28	7433.54
450.46	7211.19
450.65	7398.43
450.83	7396.09
451.02	7410.14
451.20	7250.98
451.39	7197.15
451.57	7255.66
451.76	7286.09
451.94	7421.84
452.13	7358.64
452.31	7279.07
452.49	7253.32
452.68	7262.68
452.86	7192.47
453.05	7356.30
453.23	7426.52
453.42	7267.36
453.60	7311.83
453.78	7527.16
453.97	7393.75
454.15	7590.36
454.34	7405.46
454.52	7899.31
454.70	7597.38
454.89	7627.81
455.07	7588.02
455.26	7698.02
455.44	7798.66
455.62	7889.95
455.81	7698.02
455.99	7896.97
456.17	7880.58
456.36	8042.08
456.54	8184.85
456.73	8098.25
456.91	8290.18
457.09	8102.93
457.28	8278.47
457.46	8189.53
457.64	8098.25
457.83	8248.05
458.01	8021.02
458.19	8257.41
458.38	8208.26
458.56	8269.11
458.74	8365.07
458.93	8201.24
459.11	8252.73
459.29	8491.46
459.48	8615.51
459.66	8397.84
459.84	8475.08
460.03	8854.25
460.21	8638.92
460.39	8549.98
460.57	8503.17
460.76	8720.84
460.94	8702.11
461.12	8617.85
461.31	8791.05
461.49	8887.01
461.67	8634.24
461.85	9006.38
462.04	8910.42
462.22	9252.14
462.40	8985.32
462.59	8978.30
462.77	8774.67
462.95	9172.56
463.13	9067.24
463.32	9116.39
463.50	9057.87
463.68	8992.34
463.86	9100.00
464.05	8973.61
464.23	9195.96
464.41	9310.65
464.59	9174.90
464.78	9165.54
464.96	9350.44
465.14	9102.34
465.32	9479.17
465.50	9467.47
465.69	9575.13
465.87	9298.95
466.05	9254.48
466.23	9256.82
466.41	9179.58
466.60	9528.32
466.78	9240.44
466.96	9329.38
467.14	9341.08
467.32	9507.26
467.51	9621.94
467.69	9212.35
467.87	9261.50
468.05	9706.20
468.23	9610.24
468.41	9497.89
468.60	9607.90
468.78	9713.22
468.96	9635.99
469.14	9788.12
469.32	10010.47
469.50	9774.08
469.69	9804.50
469.87	10045.58
470.05	9923.87
470.23	10097.07
470.41	9996.43
470.59	10003.45
470.77	10211.76
470.95	9930.89
471.14	10235.16
471.32	9970.68
471.50	10239.84
471.68	10324.10
471.86	10366.23
472.04	10572.20
472.22	10597.95
472.40	10450.49
472.58	10384.96
472.77	10579.22
472.95	10551.14
473.13	10841.36
473.31	10684.55
473.49	10799.23
473.67	10668.16
473.85	10691.57
474.03	10993.50
474.21	10916.26
474.39	11445.22
474.57	11145.63
474.75	11227.55
474.93	11370.32
475.12	11154.99
475.30	11222.87
475.48	11229.89
475.66	11400.75
475.84	11473.31
476.02	11454.58
476.20	11597.35
476.38	11698.00
476.56	12037.38
476.74	11969.50
476.92	11946.09
477.10	12308.88
477.28	12458.67
477.46	12191.85
477.64	12241.00
477.82	12596.76
478.00	12671.66
478.18	12486.76
478.36	12624.85
478.54	12685.70
478.72	12858.90
478.90	13114.02
479.08	13071.89
479.26	13238.07
479.44	13329.35
479.62	13247.43
479.80	13390.20
479.98	13504.89
480.16	13926.19
480.34	13666.39
480.52	13975.34
480.70	14155.56
480.88	13930.87
481.06	14017.47
481.24	14265.57
481.41	14321.74
481.59	14637.71
481.77	14595.58
481.95	14750.06
482.13	14895.17
482.31	14916.23
482.49	14981.77
482.67	15051.99
482.85	15382.00
483.03	15314.13
483.21	15494.35
483.39	15564.56
483.57	15482.64
483.74	15662.86
483.92	15697.97
484.10	15712.02
484.28	15779.89
484.46	16243.32
484.64	16596.74
484.82	16180.12
485.00	16292.47
485.18	16746.53
485.35	16776.96
485.53	16662.27
485.71	16486.73
485.89	16669.30
486.07	16465.67
486.25	16748.87
486.43	17151.45
486.61	17174.85
486.78	17415.93
486.96	17348.05
487.14	17877.01
487.32	18019.78
487.50	18122.77
487.68	18314.69
487.85	18740.67
488.03	18733.65
488.21	18644.71
488.39	18637.69
488.57	18520.66
488.75	18860.04
488.92	19323.46
489.10	19777.53
489.28	19431.13
489.46	19896.89
489.64	19784.55
489.81	20292.44
489.99	20400.11
490.17	20360.32
490.35	20446.92
490.53	20453.94
490.70	20376.70
490.88	20718.42
491.06	21085.89
491.24	20624.80
491.41	20814.38
491.59	20957.16
491.77	21095.25
491.95	21209.93
492.13	21404.20
492.30	21837.20
492.48	22003.38
492.66	21572.72
492.84	21858.26
493.01	22403.61
493.19	22501.91
493.37	22174.24
493.54	22427.01
493.72	22740.64
493.90	22567.45
494.08	23262.58
494.25	23300.03
494.43	23644.09
494.61	23784.52
494.79	23791.55
494.96	23784.52
495.14	23616.01
495.32	24025.60
495.49	23812.61
495.67	24046.66
495.85	24247.95
496.02	24648.18
496.20	24505.41
496.38	24456.26
496.55	24807.34
496.73	25340.98
496.91	25308.21
497.09	25392.47
497.26	25284.81
497.44	25287.15
497.62	24957.13
497.79	25600.78
497.97	25446.30
498.14	25558.65
498.32	26026.76
498.50	25893.35
498.67	26281.88
498.85	25883.98
499.03	26199.96
499.20	26745.30
499.38	26473.80
499.56	26338.05
499.73	26775.73
499.91	26707.85
500.08	26618.91
500.26	26431.67
500.44	27051.91
500.61	27192.34
500.79	27002.76
500.97	27187.66
501.14	27143.19
501.32	27646.41
501.49	27250.86
501.67	27503.64
501.84	27541.08
502.02	27674.49
502.20	27695.56
502.37	28126.22
502.55	28079.41
502.72	28060.68
502.90	28294.74
503.07	28135.58
503.25	27840.67
503.43	28187.07
503.60	28737.10
503.78	28496.02
503.95	28505.38
504.13	28821.36
504.30	29177.12
504.48	29158.39
504.65	28833.06
504.83	29336.27
505.01	29420.53
505.18	29111.58
505.36	29591.39
505.53	29893.32
505.71	30029.07
505.88	29830.13
506.06	29457.98
506.23	29764.59
506.41	29724.80
506.58	30235.04
506.76	30195.25
506.93	30176.53
507.11	30192.91
507.28	30171.85
507.46	29940.13
507.63	30213.98
507.81	30541.65
507.98	30431.65
508.16	30675.06
508.33	30698.47
508.50	31297.64
508.68	31012.10
508.85	31232.11
509.03	31171.25
509.20	31117.42
509.38	31452.12
509.55	31189.98
509.73	31660.43
509.90	31901.50
510.08	31536.38
510.25	31622.98
510.42	31730.64
510.60	32280.67
510.77	31831.29
510.95	32655.15
511.12	32046.62
511.30	32488.98
511.47	32182.37
511.64	32664.52
511.82	33034.32
511.99	32184.71
512.17	33116.24
512.34	32240.88
512.51	32833.04
512.69	32947.72
512.86	32634.09
513.04	32800.27
513.21	33048.36
513.38	33268.37
513.56	33495.41
513.73	32818.99
513.90	33237.95
514.08	33240.29
514.25	33378.38
514.43	33331.57
514.60	33560.94
514.77	33446.26
514.95	34206.93
515.12	33563.28
515.29	33902.66
515.47	34143.74
515.64	34335.66
515.81	33893.30
515.99	33584.35
516.16	34113.31
516.33	33998.62
516.51	34054.79
516.68	33200.50
516.85	33425.19
517.03	33699.03
517.20	34129.69
517.37	34382.47
517.54	35037.82
517.72	34448.00
517.89	34244.38
518.06	34099.26
518.24	34616.52
518.41	34132.03
518.58	34672.70
518.75	34864.62
518.93	35634.66
519.10	35353.79
519.27	34967.60
519.45	34948.88
519.62	35257.83
519.79	35608.91
519.96	35732.96
520.14	35578.48
520.31	35786.79
520.48	35835.94
520.65	35866.37
520.83	36238.51
521.00	35885.09
521.17	35913.18
521.34	36341.50
521.52	36264.26
521.69	36140.21
521.86	36783.86
522.03	36666.83
522.20	36378.95
522.38	36711.30
522.55	36978.12
522.72	36163.62
522.89	36800.24
523.07	36802.58
523.24	36613.00
523.41	37076.43
523.58	36877.48
523.75	37638.15
523.92	37701.35
524.10	37598.37
524.27	37818.38
524.44	37153.66
524.61	37397.08
524.78	37984.55
524.96	37462.61
525.13	37652.20
525.30	38094.56
525.47	38080.52
525.64	38052.43
525.81	37691.99
525.98	37490.70
526.16	37469.64
526.33	37455.59
526.50	37996.26
526.67	37392.40
526.84	37453.25
527.01	37853.48
527.18	37860.51
527.36	38766.29
527.53	38230.31
527.70	38621.18
527.87	38768.63
528.04	38759.27
528.21	38520.54
528.38	38794.38
528.55	39028.43
528.72	39119.71
528.89	39407.60
529.07	38632.88
529.24	38899.70
529.41	39014.39
529.58	38974.60
529.75	38955.88
529.92	39625.27
530.09	39522.29
530.26	39426.32
530.43	39606.55
530.60	39316.32
530.77	39353.77
530.94	39686.12
531.11	39386.54
531.28	39522.29
531.46	39934.22
531.63	39878.05
531.80	39768.04
531.97	39604.20
532.14	39449.73
532.31	39798.47
532.48	40048.91
532.65	40339.13
532.82	39730.59
532.99	40151.89
533.16	39899.11
533.33	40493.61
533.50	40589.57
533.67	40116.78
533.84	40018.48
534.01	40079.33
534.18	40531.06
534.35	40245.51
534.52	40526.38
534.69	40620.00
534.86	40870.43
535.03	40615.32
535.20	40802.56
535.37	41123.21
535.54	40931.29
535.71	40854.05
535.88	40617.66
536.05	40683.19
536.22	40933.63
536.38	41198.11
536.55	40741.71
536.72	40968.74
536.89	40664.47
537.06	40821.28
537.23	41486.00
537.40	41455.57
537.57	41530.47
537.74	41584.30
537.91	41804.31
538.08	42007.94
538.25	41406.42
538.42	41228.54
538.59	41769.20
538.75	41406.42
538.92	41574.94
539.09	41975.17
539.26	41411.10
539.43	41268.33
539.60	41820.69
539.77	41523.44
539.94	41727.07
540.11	41415.78
540.28	41940.06
540.44	41649.83
540.61	41610.04
540.78	42108.58
540.95	41467.27
541.12	41717.71
541.29	41869.84
541.46	42291.14
541.62	42183.48
541.79	42857.55
541.96	41741.11
542.13	42522.85
542.30	41982.19
542.47	42553.28
542.63	42415.19
542.80	42438.59
542.97	42841.17
543.14	42899.68
543.31	42534.56
543.48	42593.07
543.64	43042.45
543.81	43225.01
543.98	42974.58
544.15	42948.83
544.32	43107.99
544.48	43854.62
544.65	42887.98
544.82	42852.87
544.99	42946.49
545.16	43077.56
545.32	42930.11
545.49	43342.04
545.66	43782.06
545.83	43484.81
546.00	43484.81
546.16	43798.44
546.33	43328.00
546.50	43569.07
546.67	43253.10
546.83	43239.06
547.00	43615.88
547.17	43356.08
547.34	43400.55
547.50	43749.29
547.67	43744.61
547.84	43611.20
548.00	44060.58
548.17	43915.47
548.34	43761.00
548.51	43833.55
548.67	44442.09
548.84	43999.73
549.01	44304.00
549.18	44100.37
549.34	43978.67
549.51	44065.27
549.68	43896.75
549.84	43709.50
550.01	44086.33
550.18	44009.09
550.34	44158.89
550.51	44498.26
550.68	44128.46
550.84	43948.24
551.01	44308.68
551.18	44009.09
551.34	44399.96
551.51	44458.48
551.68	44360.17
551.84	44999.14
552.01	44149.53
552.18	44264.21
552.34	44584.86
552.51	44566.14
552.68	44542.74
552.84	44814.24
553.01	45074.04
553.18	44591.89
553.34	44406.98
553.51	44325.07
553.67	44362.51
553.84	45572.57
554.01	44961.69
554.17	44992.12
554.34	45181.70
554.51	45198.09
554.67	45151.27
554.84	44966.37
555.00	44624.65
555.17	44865.73
555.33	45095.10
555.50	44844.66
555.67	45200.43
555.83	44985.10
556.00	44697.21
556.16	45382.99
556.33	45268.30
556.50	45315.11
556.66	45230.85
556.83	44982.76
556.99	45123.19
557.16	45216.81
557.32	45261.28
557.49	45471.93
557.65	45296.39
557.82	45326.81
557.98	45160.64
558.15	45434.48
558.32	45413.41
558.48	45422.78
558.65	45085.74
558.81	45027.23
558.98	45043.61
559.14	45090.42
559.31	45205.11
559.47	45429.80
559.64	45446.18
559.80	45581.93
559.97	45879.18
560.13	44924.24
560.30	45308.09
560.46	45844.07
560.63	45551.51
560.79	45750.45
560.96	45813.65
561.12	45378.31
561.29	45584.27
561.45	45455.54
561.61	45958.76
561.78	45713.00
561.94	45319.79
562.11	45434.48
562.27	45050.63
562.44	45757.47
562.60	46366.01
562.77	46319.20
562.93	45137.23
563.10	45801.94
563.26	45879.18
563.42	46492.40
563.59	45654.49
563.75	45968.12
563.92	46092.17
564.08	45528.10
564.24	45996.21
564.41	45844.07
564.57	45961.10
564.74	45607.68
564.90	45858.12
565.07	45914.29
565.23	46059.40
565.39	45539.80
565.56	45961.10
565.72	45930.67
565.88	46003.23
566.05	45628.74
566.21	46026.63
566.38	45787.90
566.54	45799.60
566.70	46387.08
566.87	46461.97
567.03	46286.43
567.19	46794.33
567.36	46099.19
567.52	46054.72
567.68	46089.83
567.85	45808.96
568.01	46120.26
568.17	46000.89
568.34	46171.75
568.50	46220.90
568.66	46021.95
568.83	46007.91
568.99	45518.74
569.15	46096.85
569.32	46080.47
569.48	46012.59
569.64	46366.01
569.81	46089.83
569.97	46148.34
570.13	46092.17
570.30	45815.99
570.46	45701.30
570.62	45748.11
570.78	45642.79
570.95	46157.70
571.11	46263.03
571.27	45855.78
571.43	45904.93
571.60	46237.28
571.76	45907.27
571.92	46195.15
572.09	45867.48
572.25	46064.08
572.41	45944.72
572.57	46342.61
572.74	46625.81
572.90	46260.69
573.06	46106.21
573.22	46300.48
573.38	46309.84
573.55	46277.07
573.71	46461.97
573.87	46445.59
574.03	46298.14
574.20	46075.79
574.36	46419.84
574.52	45996.21
574.68	45998.55
574.84	46167.07
575.01	46115.58
575.17	46267.71
575.33	45972.80
575.49	46248.99
575.65	46064.08
575.82	46213.88
575.98	46143.66
576.14	46522.83
576.30	46380.06
576.46	46115.58
576.62	46192.81
576.79	46377.72
576.95	45865.14
577.11	46342.61
577.27	46862.21
577.43	46174.09
577.59	46218.56
577.75	45921.31
577.92	46050.04
578.08	45907.27
578.24	45989.19
578.40	46314.52
578.56	46330.90
578.72	46581.34
578.88	46358.99
579.04	46471.34
579.21	46115.58
579.37	46101.53
579.53	46234.94
579.69	46263.03
579.85	46253.67
580.01	46295.80
580.17	46094.51
580.33	46143.66
580.49	46162.39
580.65	46492.40
580.82	46160.05
580.98	46113.23
581.14	46129.62
581.30	46384.74
581.46	46216.22
581.62	46560.28
581.78	46330.90
581.94	46784.97
582.10	46600.07
582.26	46581.34
582.42	46256.01
582.58	46686.67
582.74	46658.58
582.90	46251.33
583.06	46735.82
583.22	46148.34
583.38	46848.16
583.54	46630.49
583.70	46738.16
583.86	46354.31
584.02	46073.45
584.18	46291.12
584.34	46178.77
584.50	46454.95
584.66	46483.04
584.82	46616.45
584.98	46571.98
585.14	46791.99
585.30	46127.28
585.46	46478.36
585.62	46307.50
585.78	46096.85
585.94	45876.84
586.10	46405.80
586.26	46153.02
586.42	46766.24
586.58	46820.08
586.74	46548.57
586.90	46260.69
587.06	46354.31
587.22	46508.79
587.38	46213.88
587.54	46417.50
587.70	46574.32
587.86	46384.74
588.02	46185.79
588.18	46480.70
588.34	45839.39
588.49	45593.64
588.65	46183.45
588.81	45645.13
588.97	46169.41
589.13	45846.41
589.29	46024.29
589.45	46082.81
589.61	46071.10
589.77	46213.88
589.93	46588.36
