SpectraSuite Data File
++++++++++++++++++++++++++++++++++++
Date: Fri Oct 25 11:23:58 EDT 2013
User: price-jones
Dark Spectrum Present: No
Reference Spectrum Present: No
Number of Sampled Component Spectra: 1
Spectrometers: USB2+H05261
Integration Time (usec): 100000 (USB2+H05261)
Spectra Averaged: 1 (USB2+H05261)
Boxcar Smoothing: 0 (USB2+H05261)
Correct for Electrical Dark: No (USB2+H05261)
Strobe/Lamp Enabled: No (USB2+H05261)
Correct for Detector Non-linearity: No (USB2+H05261)
Correct for Stray Light: No (USB2+H05261)
Number of Pixels in Processed Spectrum: 2048
>>>>>Begin Processed Spectral Data<<<<<
365.73	301.93
365.92	301.93
366.12	301.93
366.32	138.09
366.52	98.30
366.72	140.43
366.91	124.05
367.11	79.58
367.31	117.03
367.51	126.39
367.70	98.30
367.90	184.90
368.10	154.48
368.30	205.97
368.49	124.05
368.69	245.76
368.89	189.58
369.09	119.37
369.28	217.67
369.48	198.95
369.68	241.08
369.87	194.26
370.07	196.60
370.27	287.89
370.47	301.93
370.66	634.29
370.86	554.71
371.06	664.71
371.25	681.10
371.45	648.33
371.65	734.93
371.84	662.37
372.04	767.70
372.24	777.06
372.44	720.88
372.63	699.82
372.83	774.72
373.03	812.17
373.22	765.36
373.42	854.30
373.62	844.93
373.81	744.29
374.01	807.48
374.21	844.93
374.40	781.74
374.60	858.98
374.79	833.23
374.99	823.87
375.19	772.38
375.38	842.59
375.58	851.96
375.78	854.30
375.97	880.04
376.17	840.25
376.37	873.02
376.56	894.08
376.76	826.21
376.95	828.55
377.15	880.04
377.35	931.53
377.54	947.92
377.74	894.08
377.93	889.40
378.13	959.62
378.33	933.87
378.52	968.98
378.72	823.87
378.91	964.30
379.11	973.66
379.31	936.21
379.50	947.92
379.70	1029.84
379.89	959.62
380.09	959.62
380.28	1029.84
380.48	997.07
380.68	997.07
380.87	987.71
381.07	898.77
381.26	1081.33
381.46	1034.52
381.65	1078.99
381.85	1020.47
382.04	983.02
382.24	1071.97
382.43	1118.78
382.63	1083.67
382.83	1008.77
383.02	1142.18
383.22	1149.20
383.41	1006.43
383.61	1123.46
383.80	1165.59
384.00	1146.86
384.19	1156.22
384.39	1139.84
384.58	1116.44
384.78	1198.35
384.97	1217.08
385.17	1102.39
385.36	1221.76
385.56	1149.20
385.75	1167.93
385.95	1158.57
386.14	1245.16
386.34	1303.68
386.53	1214.74
386.72	1280.27
386.92	1289.64
387.11	1280.27
387.31	1277.93
387.50	1261.55
387.70	1306.02
387.89	1308.36
388.09	1212.40
388.28	1270.91
388.48	1284.95
388.67	1308.36
388.86	1263.89
389.06	1345.81
389.25	1294.32
389.45	1334.11
389.64	1249.85
389.84	1378.58
390.03	1352.83
390.22	1352.83
390.42	1334.11
390.61	1341.13
390.81	1430.07
391.00	1413.68
391.19	1378.58
391.39	1453.47
391.58	1479.22
391.78	1355.17
391.97	1380.92
392.16	1413.68
392.36	1467.52
392.55	1397.30
392.75	1502.62
392.94	1561.14
393.13	1598.59
393.33	1514.33
393.52	1521.35
393.71	1584.54
393.91	1689.87
394.10	1629.01
394.29	1572.84
394.49	1537.73
394.68	1631.35
394.88	1600.93
395.07	1624.33
395.26	1619.65
395.46	1694.55
395.65	1699.23
395.84	1689.87
396.04	1865.41
396.23	1755.40
396.42	1813.92
396.62	1771.79
396.81	1788.17
397.00	1717.95
397.19	1771.79
397.39	1778.81
397.58	1884.13
397.77	1795.19
397.97	1856.04
398.16	1839.66
398.35	2005.84
398.55	1902.86
398.74	1860.73
398.93	1905.20
399.12	1916.90
399.32	1909.88
399.51	2003.50
399.70	2047.97
399.90	1984.77
400.09	1977.75
400.28	1980.09
400.47	1980.09
400.67	2143.93
400.86	2085.42
401.05	2073.71
401.24	2183.72
401.44	2122.87
401.63	2118.18
401.82	2118.18
402.01	2038.61
402.21	2160.31
402.40	2174.36
402.59	2167.34
402.78	2200.10
402.97	2298.41
403.17	2260.96
403.36	2270.32
403.55	2235.21
403.74	2347.56
403.93	2396.71
404.13	2338.20
404.32	2385.01
404.51	2443.52
404.70	2483.31
404.89	2392.03
405.09	2380.32
405.28	2523.10
405.47	2443.52
405.66	2438.84
405.85	2485.65
406.05	2527.78
406.24	2532.46
406.43	2569.91
406.62	2717.36
406.81	2651.83
407.00	2586.29
407.20	2576.93
407.39	2642.46
407.58	2754.81
407.77	2609.70
407.96	2691.62
408.15	2768.85
408.34	2815.66
408.54	2839.07
408.73	2722.04
408.92	2810.98
409.11	2771.19
409.30	2899.92
409.49	2825.03
409.68	2902.26
409.87	2913.97
410.07	2916.31
410.26	2991.20
410.45	3052.06
410.64	2956.10
410.83	3012.27
411.02	3199.51
411.21	3293.13
411.40	3136.32
411.59	3276.75
411.78	3166.74
411.98	3138.66
412.17	3248.66
412.36	3318.88
412.55	3382.07
412.74	3328.24
412.93	3276.75
413.12	3382.07
413.31	3531.87
413.50	3356.33
413.69	3480.38
413.88	3630.17
414.07	3620.81
414.26	3669.96
414.45	3634.85
414.64	3831.46
414.83	3934.44
415.02	3831.46
415.22	3749.54
415.41	3880.61
415.60	3798.69
415.79	3934.44
415.98	3950.82
416.17	3983.59
416.36	3995.29
416.55	4037.42
416.74	3992.95
416.93	4058.49
417.12	4135.73
417.31	4255.09
417.50	4215.30
417.69	4308.93
417.88	4297.22
418.07	4344.03
418.26	4222.33
418.45	4329.99
418.64	4552.34
418.83	4400.21
419.02	4283.18
419.21	4493.83
419.39	4409.57
419.58	4554.68
419.77	4545.32
419.96	4454.04
420.15	4610.86
420.34	4624.90
420.53	4596.81
420.72	4704.48
420.91	4652.98
421.10	4847.25
421.29	4891.72
421.48	4650.64
421.67	4837.89
421.86	4854.27
422.05	4805.12
422.24	4748.95
422.43	4919.81
422.61	4865.97
422.80	4992.36
422.99	5034.49
423.18	4880.02
423.37	5008.75
423.56	4929.17
423.75	4816.82
423.94	4891.72
424.13	4564.04
424.32	4823.84
424.50	4905.76
424.69	5097.69
424.88	5170.24
425.07	4837.89
425.26	4980.66
425.45	5102.37
425.64	4926.83
425.83	5057.90
426.01	5029.81
426.20	4968.96
426.39	5107.05
426.58	5158.54
426.77	5039.17
426.96	5135.14
427.15	5069.60
427.33	5203.01
427.52	5200.67
427.71	5193.65
427.90	5266.21
428.09	5317.70
428.28	5411.32
428.46	5322.38
428.65	5406.64
428.84	5530.69
429.03	5530.69
429.22	5401.96
429.40	5483.88
429.59	5544.73
429.78	5235.78
429.97	5254.50
430.16	5465.15
430.34	5598.56
430.53	5781.12
430.72	5624.31
430.91	5778.78
431.10	5703.89
431.28	5806.87
431.47	5755.38
431.66	5860.70
431.85	5893.47
432.03	5909.85
432.22	6071.35
432.41	6019.86
432.60	5851.34
432.79	5980.07
432.97	6122.84
433.16	6076.03
433.35	6162.63
433.54	6010.50
433.72	6092.41
433.91	6061.99
434.10	6286.68
434.28	6080.71
434.47	6464.56
434.66	6296.04
434.85	6291.36
435.03	6415.41
435.22	6293.70
435.41	6366.26
435.59	6370.94
435.78	6406.05
435.97	6504.35
436.16	6342.85
436.34	6274.98
436.53	6525.41
436.72	6630.74
436.90	6436.47
437.09	6665.85
437.28	6537.12
437.46	6878.83
437.65	6642.44
437.84	6817.98
438.02	6820.32
438.21	6944.37
438.40	6757.13
438.58	7012.24
438.77	7007.56
438.96	6972.46
439.14	7028.63
439.33	7145.66
439.52	7243.96
439.70	7089.48
439.89	7344.60
440.08	7351.62
440.26	7426.52
440.45	7286.09
440.63	7492.05
440.82	7716.75
441.01	7447.58
441.19	7789.30
441.38	7522.48
441.57	7709.72
441.75	7906.33
441.94	8046.76
442.12	7964.84
442.31	7866.54
442.50	7997.61
442.68	8018.68
442.87	8180.17
443.05	8161.45
443.24	8325.29
443.43	8147.40
443.61	8308.90
443.80	8421.25
443.98	8121.66
444.17	7829.09
444.35	8346.35
444.54	8255.07
444.73	8524.23
444.91	8353.37
445.10	8362.73
445.28	8355.71
445.47	8236.35
445.65	8486.78
445.84	8477.42
446.02	8451.67
446.21	8461.04
446.39	8421.25
446.58	8524.23
446.77	8564.02
446.95	8327.63
447.14	8376.78
447.32	8603.81
447.51	8524.23
447.69	8372.10
447.88	8568.70
448.06	8482.10
448.25	8617.85
448.43	8641.26
448.62	8638.92
448.80	8596.79
448.99	8795.73
449.17	8784.03
449.36	8692.75
449.54	8788.71
449.73	9022.77
449.91	9008.72
450.10	8980.64
450.28	9027.45
450.46	9198.31
450.65	8971.27
450.83	9233.41
451.02	9092.98
451.20	9191.28
451.39	9411.29
451.57	9100.00
451.76	9214.69
451.94	9266.18
452.13	9502.58
452.31	9383.21
452.49	9144.47
452.68	9411.29
452.86	9228.73
453.05	9600.88
453.23	9432.36
453.42	9280.22
453.60	9287.25
453.78	9736.63
453.97	9188.94
454.15	9551.73
454.34	9575.13
454.52	9650.03
454.70	9603.22
454.89	9844.29
455.07	9804.50
455.26	9944.94
455.44	9968.34
455.62	9991.75
455.81	9970.68
455.99	9989.41
456.17	10150.90
456.36	9851.31
456.54	10207.08
456.73	10417.72
456.91	10455.17
457.09	10509.01
457.28	10593.26
457.46	10387.30
457.64	10534.75
457.83	10480.92
458.01	10413.04
458.19	10820.30
458.38	10469.22
458.56	10848.38
458.74	10698.59
458.93	10949.03
459.11	10960.73
459.29	10707.95
459.48	10654.12
459.66	10775.83
459.84	10876.47
460.03	11035.63
460.21	10923.28
460.39	10944.34
460.57	11293.08
460.76	11164.36
460.94	11377.34
461.12	11131.59
461.31	11194.78
461.49	11075.42
461.67	11164.36
461.85	11302.45
462.04	11377.34
462.22	11482.67
462.40	11618.42
462.59	11379.68
462.77	11620.76
462.95	11810.34
463.13	11669.91
463.32	11812.68
463.50	11651.19
463.68	11903.96
463.86	11826.73
464.05	11606.72
464.23	11690.98
464.41	11976.52
464.59	11644.17
464.78	12039.72
464.96	12100.57
465.14	11702.68
465.32	12004.61
465.50	11964.82
465.69	12133.34
465.87	11936.73
466.05	12114.61
466.23	12042.06
466.41	12241.00
466.60	12535.91
466.78	12287.81
466.96	12226.96
467.14	12395.48
467.32	12456.33
467.51	12517.18
467.69	12299.52
467.87	12414.20
468.05	12744.22
468.23	12533.57
468.41	12369.73
468.60	12664.64
468.78	12964.23
468.96	12564.00
469.14	13104.66
469.32	13226.37
469.50	12718.47
469.69	12992.31
469.87	13146.79
470.05	13277.86
470.23	13195.94
470.41	13322.33
470.59	13144.45
470.77	12982.95
470.95	13195.94
471.14	13579.79
471.32	13392.55
471.50	13668.73
471.68	13603.19
471.86	13757.67
472.04	13872.36
472.22	14045.55
472.40	13848.95
472.58	13738.94
472.77	14024.49
472.95	14068.96
473.13	14497.28
473.31	14143.86
473.49	14087.68
473.67	14118.11
473.85	14338.12
474.03	14539.41
474.21	14656.43
474.39	15037.94
474.57	14920.92
474.75	14691.54
474.93	15044.96
475.12	14991.13
475.30	15208.80
475.48	14967.73
475.66	15295.40
475.84	15447.54
476.02	15365.62
476.20	15410.09
476.38	15695.63
476.56	15992.88
476.74	15913.30
476.92	16063.10
477.10	15925.00
477.28	16243.32
477.46	16290.13
477.64	16327.58
477.82	16699.72
478.00	16903.35
478.18	16596.74
478.36	16898.67
478.54	17043.78
478.72	17116.34
478.90	17591.47
479.08	17277.83
479.26	17724.88
479.44	17874.67
479.62	17954.25
479.80	18155.54
479.98	18071.28
480.16	18403.63
480.34	18333.42
480.52	18654.07
480.70	18635.35
480.88	18623.64
481.06	18794.50
481.24	19035.58
481.41	19349.21
481.59	19232.18
481.77	19653.48
481.95	19569.22
482.13	19840.72
482.31	19599.65
482.49	20355.64
482.67	20156.69
482.85	20706.72
483.03	20713.74
483.21	20638.84
483.39	20774.60
483.57	21027.37
483.74	21500.16
483.92	21518.89
484.10	21399.52
484.28	21722.51
484.46	21867.63
484.64	22532.34
484.82	22043.17
485.00	22216.36
485.18	22651.70
485.35	22960.66
485.53	22883.42
485.71	22876.40
485.89	23403.02
486.07	23133.86
486.25	23473.23
486.43	23515.36
486.61	24264.33
486.78	24002.19
486.96	24737.12
487.14	24814.36
487.32	24603.71
487.50	24931.39
487.68	25221.61
487.85	25394.81
488.03	26122.72
488.21	25759.94
488.39	26146.12
488.57	26354.43
488.75	26274.85
488.92	26747.64
489.10	26581.46
489.28	26813.18
489.46	27463.85
489.64	27009.78
489.81	27828.97
489.99	27967.06
490.17	27798.54
490.35	28217.50
490.53	28198.77
490.70	28343.89
490.88	27960.04
491.06	28886.89
491.24	29032.00
491.41	28933.70
491.59	29399.47
491.77	29699.06
491.95	29804.38
492.13	29991.62
492.30	30092.27
492.48	30127.38
492.66	30532.29
492.84	30424.62
493.01	30630.59
493.19	30874.01
493.37	30808.47
493.54	30939.54
493.72	31433.39
493.90	31496.59
494.08	31693.19
494.25	32261.94
494.43	32484.30
494.61	32381.31
494.79	32299.39
494.96	32610.68
495.14	32847.08
495.32	33275.40
495.49	33490.73
495.67	33251.99
495.85	33633.50
496.02	34120.33
496.20	33921.38
496.38	34010.32
496.55	34389.49
496.73	35005.05
496.91	34930.16
497.09	34616.52
497.26	35283.58
497.44	35070.59
497.62	35508.27
497.79	35812.54
497.97	36006.80
498.14	36191.70
498.32	36116.81
498.50	36589.59
498.67	36926.63
498.85	36290.01
499.03	37137.28
499.20	37170.05
499.38	36919.61
499.56	36935.99
499.73	37514.11
499.91	37549.21
500.08	38092.22
500.26	37062.38
500.44	37748.16
500.61	38171.80
500.79	37731.78
500.97	38403.51
501.14	38920.77
501.32	38691.40
501.49	38710.12
501.67	38815.44
501.84	38829.49
502.02	38721.82
502.20	38806.08
502.37	39248.44
502.55	39370.15
502.72	39758.68
502.90	39428.66
503.07	39613.57
503.25	39915.50
503.43	39800.81
503.60	40437.44
503.78	40720.64
503.95	40268.92
504.13	40793.20
504.30	40919.59
504.48	40666.81
504.65	40608.29
504.83	41411.10
505.01	41654.51
505.18	41340.88
505.36	41326.84
505.53	41642.81
505.71	41825.37
505.88	41940.06
506.06	41574.94
506.23	42014.96
506.41	41851.12
506.58	41640.47
506.76	42258.37
506.93	42656.26
507.11	42784.99
507.28	42670.31
507.46	42932.45
507.63	42707.76
507.81	43377.15
507.98	42897.34
508.16	43419.28
508.33	43536.30
508.50	43807.81
508.68	43636.95
508.85	43852.28
509.03	43835.89
509.20	44275.91
509.38	44568.48
509.55	44266.55
509.73	44502.95
509.90	44659.76
510.08	44547.42
510.25	44701.89
510.42	44907.86
510.60	45186.38
510.77	45394.69
510.95	45462.57
511.12	45415.76
511.30	45174.68
511.47	45645.13
511.64	45628.74
511.82	46314.52
511.99	45872.16
512.17	46040.68
512.34	46204.52
512.51	46227.92
512.69	46443.25
512.86	46604.75
513.04	46775.61
513.21	46834.12
513.38	46927.74
513.56	47409.89
513.73	46873.91
513.90	47133.71
514.08	47292.86
514.25	47913.11
514.43	47547.98
514.60	47318.61
514.77	47597.13
514.95	48030.13
515.12	47789.06
515.29	47746.93
515.47	48308.66
515.64	48659.74
515.81	47856.93
515.99	48512.28
516.16	48545.05
516.33	47992.68
516.51	48610.59
516.68	48704.21
516.85	48444.41
517.03	49034.22
517.20	49167.63
517.37	49052.95
517.54	49195.72
517.72	48556.75
517.89	49237.85
518.06	49446.16
518.24	49415.73
518.41	49495.31
518.58	49499.99
518.75	49691.91
518.93	49909.58
519.10	49834.69
519.27	50117.89
519.45	50038.31
519.62	50206.83
519.79	49996.18
519.96	50092.15
520.14	50604.72
520.31	50415.14
520.48	50815.37
520.65	50375.35
520.83	50913.67
521.00	50712.39
521.17	50553.23
521.34	50513.44
521.52	50539.19
521.69	51042.40
521.86	51257.73
522.03	51412.21
522.20	51466.04
522.38	51512.85
522.55	51646.26
522.72	51414.55
522.89	51620.52
523.07	51798.40
523.24	51880.31
523.41	51763.29
523.58	51688.39
523.75	51934.15
523.92	52088.62
524.10	52105.01
524.27	52114.37
524.44	52130.75
524.61	52135.43
524.78	52072.24
524.96	52547.37
525.13	52343.74
525.30	52701.84
525.47	52591.84
525.64	52617.58
525.81	52776.74
525.98	52858.66
526.16	53130.16
526.33	52992.07
526.50	53109.10
526.67	52804.83
526.84	52889.09
527.01	52942.92
527.18	53134.84
527.36	53303.36
527.53	53272.93
527.70	53616.99
527.87	53654.44
528.04	53378.26
528.21	53471.88
528.38	53359.53
528.55	53820.62
528.72	53511.67
528.89	53647.42
529.07	53251.87
529.24	53345.49
529.41	54064.03
529.58	53771.47
529.75	54010.20
529.92	53979.78
530.09	53977.43
530.26	54218.51
530.43	54017.22
530.60	53925.94
530.77	53815.94
530.94	54227.87
531.11	54108.50
531.28	54511.08
531.46	54138.93
531.63	54248.94
531.80	54307.45
531.97	54347.24
532.14	54674.91
532.31	54742.79
532.48	54768.54
532.65	54803.64
532.82	54768.54
532.99	54859.82
533.16	54724.07
533.33	55002.59
533.50	55182.81
533.67	54892.58
533.84	54649.17
534.01	55002.59
534.18	54981.52
534.35	55412.18
534.52	55210.90
534.69	55416.86
534.86	55540.91
535.03	55302.18
535.20	55292.82
535.37	55428.57
535.54	55400.48
535.71	55475.38
535.88	55449.63
536.05	55566.66
536.22	55576.02
536.38	55585.38
536.55	55781.99
536.72	55592.40
536.89	55583.04
537.06	55660.28
537.23	56044.13
537.40	55728.16
537.57	55943.48
537.74	56072.21
537.91	56123.71
538.08	56062.85
538.25	55781.99
538.42	55950.51
538.59	56287.54
538.75	55882.63
538.92	56214.99
539.09	56523.94
539.26	56236.05
539.43	56364.78
539.60	56229.03
539.77	56254.78
539.94	56360.10
540.11	56655.01
540.28	56559.05
540.44	56463.08
540.61	56713.52
540.78	56287.54
540.95	56526.28
541.12	56357.76
541.29	56568.41
541.46	56603.52
541.62	56587.13
541.79	56837.57
541.96	56662.03
542.13	56690.12
542.30	56760.33
542.47	56818.84
542.63	56856.29
542.80	56966.30
542.97	57127.80
543.14	57340.78
543.31	57495.26
543.48	57443.77
543.64	57476.54
543.81	57600.58
543.98	57460.15
544.15	57488.24
544.32	57570.16
544.48	57710.59
544.65	57282.27
544.82	57333.76
544.99	57530.37
545.16	57602.92
545.32	57563.14
545.49	57621.65
545.66	58045.29
545.83	57668.46
546.00	58075.71
546.16	57829.96
546.33	57612.29
546.50	57502.28
546.67	57745.70
546.83	57286.95
547.00	57860.38
547.17	57811.23
547.34	57956.35
547.50	58000.82
547.67	58281.68
547.84	58148.27
548.00	58192.74
548.17	58377.64
548.34	58141.25
548.51	58527.44
548.67	58431.47
548.84	58234.87
549.01	58305.09
549.18	58328.49
549.34	58365.94
549.51	58487.65
549.68	58609.35
549.84	58262.96
550.01	58508.71
550.18	58382.32
550.34	58527.44
550.51	58635.10
550.68	58473.60
550.84	58475.94
551.01	58878.52
551.18	58520.41
551.34	58674.89
551.51	58543.82
551.68	58597.65
551.84	58677.23
552.01	58522.76
552.18	58717.02
552.34	58534.46
552.51	58810.64
552.68	58719.36
552.84	58834.05
553.01	59126.61
553.18	58850.43
553.34	59007.25
553.51	58918.31
553.67	58738.08
553.84	59042.35
554.01	58993.20
554.17	58918.31
554.34	59140.66
554.51	59084.48
554.67	59107.89
554.84	58976.82
555.00	59260.02
555.17	59133.63
555.33	59196.83
555.50	58908.94
555.67	59124.27
555.83	59180.45
556.00	59206.19
556.16	59437.90
556.33	59208.53
556.50	59435.56
556.66	59564.29
556.83	59243.64
556.99	59632.17
557.16	59484.72
557.32	59393.43
557.49	59636.85
557.65	59306.83
557.82	59564.29
557.98	59601.74
558.15	59559.61
558.32	59538.55
558.48	59480.03
558.65	59601.74
558.81	59491.74
558.98	59512.80
559.14	59688.34
559.31	59749.20
559.47	59866.22
559.64	59924.74
559.80	59948.14
559.97	59627.49
560.13	59578.34
560.30	59793.67
560.46	60046.44
560.63	59903.67
560.79	59793.67
560.96	59969.21
561.12	59882.61
561.29	59861.54
561.45	59742.17
561.61	59882.61
561.78	59788.98
561.94	59891.97
562.11	59906.01
562.27	60032.40
562.44	60044.10
562.60	60079.21
562.77	60032.40
562.93	59941.12
563.10	60343.69
563.26	59915.37
563.42	60156.45
563.59	60282.84
563.75	60257.09
563.92	60179.85
564.08	59985.59
564.24	60254.75
564.41	60179.85
564.57	60191.56
564.74	60095.60
564.90	60186.88
565.07	60076.87
565.23	60243.05
565.39	60383.48
565.56	60165.81
565.72	60219.64
565.88	60149.43
566.05	60177.51
566.21	60229.01
566.38	60411.57
566.54	60275.82
566.70	60303.90
566.87	60472.42
567.03	60324.97
567.19	60432.63
567.36	60458.38
567.52	60245.39
567.68	60713.50
567.85	60261.77
568.01	60718.18
568.17	60257.09
568.34	60479.44
568.50	60498.17
568.66	60575.40
568.83	60491.15
568.99	60430.29
569.15	60617.53
569.32	60537.96
569.48	60294.54
569.64	60732.22
569.81	60776.69
569.97	60427.95
570.13	60612.85
570.30	60481.78
570.46	60779.03
570.62	60720.52
570.78	60659.66
570.95	60446.68
571.11	60725.20
571.27	60598.81
571.43	60757.97
571.60	60725.20
571.76	60729.88
571.92	60662.00
572.09	60692.43
572.25	60687.75
572.41	60566.04
572.57	60608.17
572.74	60879.67
572.90	60645.62
573.06	60645.62
573.22	60671.37
573.38	60718.18
573.55	60762.65
573.71	60966.27
573.87	60846.91
574.03	60701.79
574.20	60748.60
574.36	60650.30
574.52	60804.78
574.68	60818.82
574.84	61006.06
575.01	60935.85
575.17	60903.08
575.33	60945.21
575.49	60863.29
575.65	60828.18
575.82	60781.37
575.98	60863.29
576.14	61003.72
576.30	61099.68
576.46	60734.56
576.62	60802.44
576.79	60804.78
576.95	60701.79
577.11	60994.36
577.27	61015.43
577.43	60933.51
577.59	60828.18
577.75	60830.52
577.92	60706.47
578.08	60671.37
578.24	61179.26
578.40	61071.60
578.56	61258.84
578.72	60867.97
578.88	61113.73
579.04	60994.36
579.21	61029.47
579.37	61118.41
579.53	61202.67
579.69	60865.63
579.85	60973.30
580.01	61055.21
580.17	60968.61
580.33	61043.51
580.49	60938.19
580.65	61010.74
580.82	60954.57
580.98	60807.12
581.14	60942.87
581.30	61296.29
581.46	60683.07
581.62	60992.02
581.78	61001.38
581.94	61160.54
582.10	61034.15
582.26	61113.73
582.42	60961.59
582.58	60980.32
582.74	61020.11
582.90	61050.53
583.06	60870.31
583.22	60788.39
583.38	61076.28
583.54	61008.40
583.70	61097.34
583.86	61179.26
584.02	61057.56
584.18	61106.71
584.34	60898.40
584.50	61076.28
584.66	60872.65
584.82	60924.14
584.98	61275.22
585.14	61106.71
585.30	61041.17
585.46	61226.07
585.62	61059.90
585.78	61202.67
585.94	60959.25
586.10	61048.19
586.26	61127.77
586.42	61087.98
586.58	61165.22
586.74	61071.60
586.90	61097.34
587.06	60954.57
587.22	61216.71
587.38	61137.13
587.54	61237.78
587.70	61387.57
587.86	61293.95
588.02	61085.64
588.18	61247.14
588.34	61235.44
588.49	61104.37
