SpectraSuite Data File
++++++++++++++++++++++++++++++++++++
Date: Fri Oct 25 11:22:59 EDT 2013
User: price-jones
Dark Spectrum Present: No
Reference Spectrum Present: No
Number of Sampled Component Spectra: 1
Spectrometers: USB2+H05261
Integration Time (usec): 100000 (USB2+H05261)
Spectra Averaged: 1 (USB2+H05261)
Boxcar Smoothing: 0 (USB2+H05261)
Correct for Electrical Dark: No (USB2+H05261)
Strobe/Lamp Enabled: No (USB2+H05261)
Correct for Detector Non-linearity: No (USB2+H05261)
Correct for Stray Light: No (USB2+H05261)
Number of Pixels in Processed Spectrum: 2048
>>>>>Begin Processed Spectral Data<<<<<
365.73	201.29
365.92	201.29
366.12	201.29
366.32	205.97
366.52	170.86
366.72	102.98
366.91	105.32
367.11	121.71
367.31	79.58
367.51	175.54
367.70	98.30
367.90	107.66
368.10	105.32
368.30	133.41
368.49	93.62
368.69	210.65
368.89	205.97
369.09	168.52
369.28	145.11
369.48	112.35
369.68	119.37
369.87	231.71
370.07	205.97
370.27	201.29
370.47	294.91
370.66	617.90
370.86	657.69
371.06	688.12
371.25	755.99
371.45	566.41
371.65	592.16
371.84	692.80
372.04	662.37
372.24	751.31
372.44	634.29
372.63	723.23
372.83	767.70
373.03	765.36
373.22	725.57
373.42	732.59
373.62	720.88
373.81	725.57
374.01	767.70
374.21	873.02
374.40	833.23
374.60	926.85
374.79	823.87
374.99	812.17
375.19	898.77
375.38	866.00
375.58	851.96
375.78	802.80
375.97	807.48
376.17	938.55
376.37	833.23
376.56	828.55
376.76	837.91
376.95	933.87
377.15	873.02
377.35	903.45
377.54	873.02
377.74	971.32
377.93	861.32
378.13	884.72
378.33	936.21
378.52	933.87
378.72	978.34
378.91	980.68
379.11	945.58
379.31	898.77
379.50	922.17
379.70	1057.92
379.89	1020.47
380.09	952.60
380.28	950.26
380.48	1020.47
380.68	957.28
380.87	924.51
381.07	976.00
381.26	1008.77
381.46	983.02
381.65	1018.13
381.85	1107.07
382.04	1025.15
382.24	1055.58
382.43	1121.12
382.63	1029.84
382.83	1114.10
383.02	1118.78
383.22	1125.80
383.41	1060.26
383.61	1128.14
383.80	1114.10
384.00	1167.93
384.19	1095.37
384.39	1083.67
384.58	1205.38
384.78	1114.10
384.97	1144.52
385.17	1181.97
385.36	1221.76
385.56	1144.52
385.75	1193.67
385.95	1153.88
386.14	1200.69
386.34	1172.61
386.53	1334.11
386.72	1170.27
386.92	1306.02
387.11	1188.99
387.31	1273.25
387.50	1224.10
387.70	1191.33
387.89	1207.72
388.09	1336.45
388.28	1226.44
388.48	1242.82
388.67	1291.98
388.86	1221.76
389.06	1334.11
389.25	1320.06
389.45	1364.53
389.64	1317.72
389.84	1378.58
390.03	1383.26
390.22	1394.96
390.42	1373.89
390.61	1392.62
390.81	1444.11
391.00	1469.86
391.19	1495.60
391.39	1376.24
391.58	1448.79
391.78	1502.62
391.97	1486.24
392.16	1441.77
392.36	1530.71
392.55	1565.82
392.75	1579.86
392.94	1448.79
393.13	1631.35
393.33	1479.22
393.52	1586.88
393.71	1619.65
393.91	1610.29
394.10	1603.27
394.29	1680.50
394.49	1565.82
394.68	1600.93
394.88	1645.40
395.07	1694.55
395.26	1666.46
395.46	1617.31
395.65	1699.23
395.84	1771.79
396.04	1844.34
396.23	1743.70
396.42	1767.10
396.62	1755.40
396.81	1785.83
397.00	1755.40
397.19	1797.53
397.39	1748.38
397.58	1872.43
397.77	1820.94
397.97	1806.89
398.16	1781.15
398.35	1949.67
398.55	1935.62
398.74	1947.33
398.93	1832.64
399.12	1872.43
399.32	1837.32
399.51	1963.71
399.70	2005.84
399.90	2024.56
400.09	2090.10
400.28	2143.93
400.47	2031.58
400.67	2031.58
400.86	1963.71
401.05	2115.84
401.24	2094.78
401.44	2186.06
401.63	2172.02
401.82	2143.93
402.01	2190.74
402.21	2183.72
402.40	2225.85
402.59	2160.31
402.78	2197.76
402.97	2370.96
403.17	2321.81
403.36	2204.78
403.55	2338.20
403.74	2373.30
403.93	2370.96
404.13	2354.58
404.32	2331.17
404.51	2340.54
404.70	2436.50
404.89	2445.86
405.09	2443.52
405.28	2377.98
405.47	2441.18
405.66	2495.01
405.85	2502.03
406.05	2562.89
406.24	2548.84
406.43	2668.21
406.62	2600.34
406.81	2642.46
407.00	2637.78
407.20	2520.76
407.39	2698.64
407.58	2736.09
407.77	2663.53
407.96	2832.05
408.15	2717.36
408.34	2794.60
408.54	2789.92
408.73	2848.43
408.92	2841.41
409.11	2846.09
409.30	2860.13
409.49	2967.80
409.68	2916.31
409.87	2956.10
410.07	2993.55
410.26	2939.71
410.45	2953.76
410.64	3033.33
410.83	3103.55
411.02	3096.53
411.21	3063.76
411.40	3185.47
411.59	3225.26
411.78	3215.90
411.98	3253.34
412.17	3180.79
412.36	3236.96
412.55	3307.18
412.74	3414.84
412.93	3501.44
413.12	3393.78
413.31	3445.27
413.50	3499.10
413.69	3449.95
413.88	3552.93
414.07	3538.89
414.26	3691.02
414.45	3564.64
414.64	3669.96
414.83	3794.01
415.02	3819.75
415.22	3737.84
415.41	3840.82
415.60	3896.99
415.79	3904.01
415.98	4023.38
416.17	3985.93
416.36	3983.59
416.55	4030.40
416.74	4142.75
416.93	4102.96
417.12	3995.29
417.31	4234.03
417.50	4117.00
417.69	4210.62
417.88	4351.06
418.07	4245.73
418.26	4259.78
418.45	4325.31
418.64	4465.74
418.83	4496.17
419.02	4580.43
419.21	4624.90
419.39	4500.85
419.58	4416.59
419.77	4432.97
419.96	4709.16
420.15	4681.07
420.34	4667.03
420.53	4706.82
420.72	4704.48
420.91	4746.61
421.10	4891.72
421.29	4901.08
421.48	4807.46
421.67	4856.61
421.86	4657.67
422.05	4940.87
422.24	4887.04
422.43	4917.47
422.61	4835.55
422.80	4931.51
422.99	4828.53
423.18	4912.78
423.37	4915.12
423.56	4887.04
423.75	4933.85
423.94	4915.12
424.13	4592.13
424.32	4755.97
424.50	5095.35
424.69	5160.88
424.88	5231.10
425.07	5170.24
425.26	4933.85
425.45	5097.69
425.64	4959.60
425.83	5027.47
426.01	5085.98
426.20	5146.84
426.39	5011.09
426.58	5118.75
426.77	5032.15
426.96	5114.07
427.15	5226.42
427.33	5352.81
427.52	5273.23
427.71	5219.39
427.90	5282.59
428.09	5336.42
428.28	5392.59
428.46	5455.79
428.65	5296.63
428.84	5561.11
429.03	5451.11
429.22	5298.97
429.40	5549.41
429.59	5659.42
429.78	5301.31
429.97	5238.12
430.16	5549.41
430.34	5738.99
430.53	5633.67
430.72	5699.20
430.91	5666.44
431.10	5689.84
431.28	5617.29
431.47	5753.04
431.66	5851.34
431.85	5818.57
432.03	5909.85
432.22	6029.22
432.41	5849.00
432.60	5893.47
432.79	6022.20
432.97	6087.73
433.16	5994.11
433.35	6001.13
433.54	6104.12
433.72	6202.42
433.91	6176.67
434.10	6251.57
434.28	6230.51
434.47	6167.31
434.66	6260.93
434.85	6200.08
435.03	6530.09
435.22	6307.74
435.41	6581.59
435.59	6471.58
435.78	6389.66
435.97	6579.25
436.16	6527.75
436.34	6504.35
436.53	6553.50
436.72	6672.87
436.90	6422.43
437.09	6691.59
437.28	6466.90
437.46	6722.02
437.65	6609.67
437.84	6579.25
438.02	6696.27
438.21	6944.37
438.40	6745.42
438.58	7075.44
438.77	7075.44
438.96	6942.03
439.14	7052.03
439.33	7133.95
439.52	7318.86
439.70	7241.62
439.89	7534.18
440.08	7445.24
440.26	7412.48
440.45	7492.05
440.63	7405.46
440.82	7527.16
441.01	7513.12
441.19	7597.38
441.38	7693.34
441.57	7705.04
441.75	8128.68
441.94	7974.21
442.12	7843.14
442.31	7981.23
442.50	8011.65
442.68	8060.80
442.87	8072.51
443.05	8030.38
443.24	8241.03
443.43	8100.59
443.61	8299.54
443.80	8381.46
443.98	8088.89
444.17	7943.78
444.35	8121.66
444.54	8425.93
444.73	8386.14
444.91	8231.66
445.10	8250.39
445.28	8428.27
445.47	8252.73
445.65	8325.29
445.84	8636.58
446.02	8351.03
446.21	8262.09
446.39	8477.42
446.58	8568.70
446.77	8573.38
446.95	8283.16
447.14	8592.11
447.32	8737.22
447.51	8533.59
447.69	8641.26
447.88	8723.18
448.06	8727.86
448.25	8507.85
448.43	8645.94
448.62	8521.89
448.80	8643.60
448.99	8767.65
449.17	8840.20
449.36	8636.58
449.54	9008.72
449.73	9067.24
449.91	9142.13
450.10	8861.27
450.28	9181.92
450.46	9259.16
450.65	9043.83
450.83	9259.16
451.02	9050.85
451.20	9291.93
451.39	9043.83
451.57	9156.18
451.76	9231.07
451.94	9219.37
452.13	9415.98
452.31	9434.70
452.49	9338.74
452.68	9437.04
452.86	9462.79
453.05	9530.66
453.23	9525.98
453.42	9296.61
453.60	9320.01
453.78	9661.73
453.97	9612.58
454.15	9654.71
454.34	9537.68
454.52	9727.27
454.70	9783.44
454.89	9919.19
455.07	9870.04
455.26	10106.43
455.44	10045.58
455.62	10113.45
455.81	10141.54
455.99	10061.96
456.17	10073.67
456.36	10040.90
456.54	10230.48
456.73	10310.06
456.91	10527.73
457.09	10394.32
457.28	10668.16
457.46	10516.03
457.64	10525.39
457.83	10597.95
458.01	10520.71
458.19	10810.93
458.38	10604.97
458.56	10827.32
458.74	10881.15
458.93	10714.97
459.11	10911.58
459.29	10743.06
459.48	10934.98
459.66	10806.25
459.84	10803.91
460.03	11007.54
460.21	11054.35
460.39	11187.76
460.57	11150.31
460.76	11159.67
460.94	11398.41
461.12	11208.83
461.31	11126.91
461.49	11192.44
461.67	11262.66
461.85	11758.85
462.04	11396.07
462.22	11761.19
462.40	11726.08
462.59	11564.59
462.77	11681.61
462.95	11763.53
463.13	11620.76
463.32	11602.04
463.50	12020.99
463.68	11946.09
463.86	12070.14
464.05	11690.98
464.23	11716.72
464.41	11749.49
464.59	11705.02
464.78	12161.42
464.96	12430.59
465.14	11971.84
465.32	12388.46
465.50	12156.74
465.69	12292.49
465.87	12147.38
466.05	12201.21
466.23	12437.61
466.41	12325.26
466.60	12603.78
466.78	12133.34
466.96	12278.45
467.14	12493.78
467.32	12582.72
467.51	12816.77
467.69	12123.98
467.87	12610.81
468.05	12533.57
468.23	12645.91
468.41	12751.24
468.60	12442.29
468.78	12858.90
468.96	12882.31
469.14	13067.21
469.32	13013.38
469.50	12713.79
469.69	13228.71
469.87	13118.70
470.05	13102.32
470.23	13238.07
470.41	13198.28
470.59	13338.71
470.77	13174.88
470.95	13191.26
471.14	13650.00
471.32	13114.02
471.50	13310.63
471.68	13652.34
471.86	13640.64
472.04	13673.41
472.22	14083.00
472.40	13921.51
472.58	13891.08
472.77	14171.94
472.95	14581.54
473.13	14878.79
473.31	14031.51
473.49	14303.01
473.67	14450.47
473.85	14328.76
474.03	14398.98
474.21	14731.33
474.39	15276.68
474.57	14677.50
474.75	15297.74
474.93	15161.99
475.12	15197.10
475.30	14902.19
475.48	15180.71
475.66	15403.07
475.84	15393.70
476.02	15784.57
476.20	15449.88
476.38	15829.04
476.56	16292.47
476.74	16032.67
476.92	16339.28
477.10	15934.37
477.28	16032.67
477.46	16205.87
477.64	16453.97
477.82	16669.30
478.00	16823.77
478.18	16891.65
478.36	17011.01
478.54	17287.20
478.72	17256.77
478.90	17626.57
479.08	17797.43
479.26	17827.86
479.44	17862.97
479.62	17865.31
479.80	18253.84
479.98	18200.01
480.16	18476.19
480.34	18532.36
480.52	18925.57
480.70	18862.38
480.88	18560.45
481.06	18925.57
481.24	18876.42
481.41	19372.61
481.59	19707.31
481.77	19693.27
481.95	19772.85
482.13	19978.81
482.31	19971.79
482.49	20126.27
482.67	20219.89
482.85	20753.53
483.03	20690.34
483.21	20762.89
483.39	20989.92
483.57	21125.68
483.74	21575.06
483.92	21326.96
484.10	21301.22
484.28	21715.49
484.46	22286.58
484.64	22415.31
484.82	22405.95
485.00	22462.12
485.18	23068.32
485.35	23002.78
485.53	23192.37
485.71	23576.22
485.89	23833.68
486.07	23517.70
486.25	23859.42
486.43	23908.57
486.61	24418.81
486.78	24290.08
486.96	24257.31
487.14	24673.93
487.32	25064.80
487.50	25259.06
487.68	25055.43
487.85	25127.99
488.03	25699.08
488.21	25928.45
488.39	26169.53
488.57	26331.03
488.75	26443.37
488.92	26522.95
489.10	26984.04
489.28	26824.88
489.46	27515.34
489.64	27386.61
489.81	27850.03
489.99	27920.25
490.17	27810.25
490.35	28519.43
490.53	28496.02
490.70	28694.97
490.88	28575.60
491.06	28779.23
491.24	29106.90
491.41	29003.92
491.59	29530.54
491.77	29848.85
491.95	29799.70
492.13	29759.91
492.30	30345.05
492.48	30466.75
492.66	30345.05
492.84	30574.42
493.01	31063.59
493.19	31154.87
493.37	31187.64
493.54	31143.17
493.72	31976.40
493.90	31955.33
494.08	31995.12
494.25	31967.04
494.43	32198.75
494.61	32737.07
494.79	33221.56
494.96	32701.96
495.14	32875.16
495.32	33270.72
495.49	33827.76
495.67	33298.80
495.85	34078.20
496.02	34029.05
496.20	34220.97
496.38	34398.85
496.55	34256.08
496.73	34878.66
496.91	34998.03
497.09	35063.57
497.26	35384.22
497.44	35365.49
497.62	35381.88
497.79	36034.89
497.97	36149.57
498.14	36563.85
498.32	36226.81
498.50	36240.86
498.67	37237.92
498.85	37031.96
499.03	37148.98
499.20	37240.26
499.38	37043.66
499.56	37394.74
499.73	37696.67
499.91	37596.03
500.08	38026.68
500.26	37954.13
500.44	37909.66
500.61	38443.30
500.79	37708.37
500.97	38354.36
501.14	39122.05
501.32	39147.80
501.49	38892.68
501.67	38904.38
501.84	39253.12
502.02	39391.22
502.20	39683.78
502.37	39611.23
502.55	39526.97
502.72	39746.98
502.90	39475.48
503.07	39749.32
503.25	40414.03
503.43	40561.48
503.60	40308.71
503.78	40617.66
503.95	40439.78
504.13	41144.28
504.30	40957.03
504.48	40715.96
504.65	41020.23
504.83	41481.31
505.01	41579.62
505.18	41408.76
505.36	41942.40
505.53	41394.71
505.71	42192.84
505.88	42029.00
506.06	41895.59
506.23	42265.39
506.41	42616.47
506.58	42293.48
506.76	42864.57
506.93	43098.62
507.11	43232.04
507.28	42869.25
507.46	42979.26
507.63	43533.96
507.81	43882.70
507.98	43491.83
508.16	43381.83
508.33	43924.83
508.50	43803.13
508.68	43590.14
508.85	44247.83
509.03	44170.59
509.20	44306.34
509.38	44715.93
509.55	44729.98
509.73	44854.03
509.90	45020.20
510.08	44971.05
510.25	45017.86
510.42	44767.43
510.60	45280.00
510.77	45607.68
510.95	45876.84
511.12	45340.86
511.30	45453.20
511.47	45813.65
511.64	45867.48
511.82	46611.77
511.99	45928.33
512.17	46253.67
512.34	45986.85
512.51	46705.39
512.69	46405.80
512.86	46295.80
513.04	46681.98
513.21	46660.92
513.38	46864.55
513.56	47618.20
513.73	47122.01
513.90	47337.33
514.08	47405.21
514.25	47243.71
514.43	47789.06
514.60	47924.81
514.77	47416.91
514.95	48231.42
515.12	47882.68
515.29	48034.81
515.47	48058.22
515.64	48699.53
515.81	48273.55
515.99	48851.66
516.16	48790.81
516.33	48430.36
516.51	48699.53
516.68	49207.42
516.85	48685.48
517.03	49134.87
517.20	49343.17
517.37	49319.77
517.54	49350.20
517.72	49193.38
517.89	49425.09
518.06	49345.51
518.24	49705.96
518.41	49324.45
518.58	49804.26
518.75	49450.84
518.93	50094.49
519.10	49689.57
519.27	50234.92
519.45	50190.45
519.62	50347.26
519.79	50120.23
519.96	50499.40
520.14	50358.97
520.31	50480.67
520.48	50536.85
520.65	50925.38
520.83	50609.40
521.00	51061.13
521.17	50852.82
521.34	50836.44
521.52	50990.91
521.69	51023.68
521.86	51611.15
522.03	51606.47
522.20	51547.96
522.38	51887.34
522.55	51814.78
522.72	51423.91
522.89	51613.49
523.07	52140.11
523.24	51693.07
523.41	51618.17
523.58	51723.50
523.75	51980.96
523.92	52210.33
524.10	52100.32
524.27	52161.18
524.44	52163.52
524.61	52397.57
524.78	52619.92
524.96	52449.06
525.13	52816.53
525.30	52573.11
525.47	52800.15
525.64	52966.32
525.81	52781.42
525.98	52961.64
526.16	52924.19
526.33	52825.89
526.50	53249.53
526.67	52900.79
526.84	53193.36
527.01	53038.88
527.18	53198.04
527.36	53022.50
527.53	53029.52
527.70	53198.04
527.87	53708.27
528.04	53495.28
528.21	53640.40
528.38	53485.92
528.55	53780.83
528.72	53698.91
528.89	53820.62
529.07	53787.85
529.24	53745.72
529.41	53925.94
529.58	54103.82
529.75	53939.99
529.92	53811.26
530.09	54075.74
530.26	54321.49
530.43	53958.71
530.60	54061.69
530.77	54281.70
530.94	54251.28
531.11	54237.23
531.28	54251.28
531.46	54485.33
531.63	54422.14
531.80	54529.80
531.97	54707.68
532.14	54897.27
532.31	54710.02
532.48	54932.37
532.65	54880.88
532.82	54937.05
532.99	54810.67
533.16	54892.58
533.33	55117.28
533.50	55405.16
533.67	55175.79
533.84	54962.80
534.01	55171.11
534.18	55430.91
534.35	55442.61
534.52	55089.19
534.69	55526.87
534.86	55363.03
535.03	55292.82
535.20	55557.30
535.37	55697.73
535.54	55487.08
535.71	55313.88
535.88	55456.65
536.05	55657.94
536.22	55915.40
536.38	55817.10
536.55	55835.82
536.72	55983.27
536.89	55728.16
537.06	55915.40
537.23	56109.66
537.40	55707.09
537.57	55901.36
537.74	56353.08
537.91	56175.20
538.08	55838.16
538.25	55870.93
538.42	56119.02
538.59	56278.18
538.75	56203.28
538.92	56280.52
539.09	56329.67
539.26	56107.32
539.43	56472.45
539.60	56615.22
539.77	56430.32
539.94	56603.52
540.11	56650.33
540.28	56601.18
540.44	56608.20
540.61	56552.02
540.78	56587.13
540.95	56540.32
541.12	56584.79
541.29	56587.13
541.46	56788.42
541.62	56891.40
541.79	56879.70
541.96	56603.52
542.13	56687.78
542.30	56970.98
542.47	57043.54
542.63	57062.26
542.80	57235.46
542.97	57230.78
543.14	57455.47
543.31	57436.75
543.48	57467.17
543.64	57785.49
543.81	57518.67
543.98	57286.95
544.15	57455.47
544.32	57633.35
544.48	57792.51
544.65	57661.44
544.82	57556.11
544.99	57549.09
545.16	57499.94
545.32	57759.74
545.49	57968.05
545.66	58040.60
545.83	58000.82
546.00	57881.45
546.16	57886.13
546.33	58103.80
546.50	57956.35
546.67	57958.69
546.83	57570.16
547.00	58166.99
547.17	57965.71
547.34	57911.88
547.50	58152.95
547.67	58232.53
547.84	58204.44
548.00	58279.34
548.17	58391.68
548.34	58272.32
548.51	58702.98
548.67	58347.21
548.84	58363.60
549.01	58300.40
549.18	58347.21
549.34	58520.41
549.51	58478.28
549.68	58513.39
549.84	58438.50
550.01	58607.01
550.18	58396.37
550.34	58660.85
550.51	58618.72
550.68	58710.00
550.84	58417.43
551.01	58890.22
551.18	58574.25
551.34	58485.31
551.51	58892.56
551.68	58733.40
551.84	58674.89
552.01	58599.99
552.18	59042.35
552.34	58733.40
552.51	59065.76
552.68	59014.27
552.84	58827.02
553.01	59070.44
553.18	58930.01
553.34	59037.67
553.51	58995.54
553.67	59042.35
553.84	59175.76
554.01	58988.52
554.17	59145.34
554.34	59065.76
554.51	59316.20
554.67	59164.06
554.84	59346.62
555.00	59098.53
555.17	59192.15
555.33	59119.59
555.50	59297.47
555.67	59185.13
555.83	59208.53
556.00	59494.08
556.16	59587.70
556.33	59777.28
556.50	59461.31
556.66	59505.78
556.83	59253.00
556.99	59793.67
557.16	59632.17
557.32	59557.27
557.49	59606.42
557.65	59604.08
557.82	59573.66
557.98	59568.97
558.15	59697.70
558.32	59678.98
558.48	59561.95
558.65	59936.44
558.81	59686.00
558.98	59725.79
559.14	59884.95
559.31	59678.98
559.47	59849.84
559.64	59779.62
559.80	59863.88
559.97	59873.24
560.13	59725.79
560.30	59901.33
560.46	60048.78
560.63	59948.14
560.79	59938.78
560.96	60264.11
561.12	60107.30
561.29	60074.53
561.45	59955.16
561.61	60001.97
561.78	60018.36
561.94	59994.95
562.11	60175.17
562.27	59978.57
562.44	60205.60
562.60	60296.88
562.77	60179.85
562.93	59852.18
563.10	60142.41
563.26	60214.96
563.42	60416.25
563.59	60233.69
563.75	60369.44
563.92	60285.18
564.08	59964.52
564.24	60346.03
564.41	60245.39
564.57	60243.05
564.74	60303.90
564.90	60336.67
565.07	60259.43
565.23	60301.56
565.39	60350.71
565.56	60474.76
565.72	60317.95
565.88	60509.87
566.05	60556.68
566.21	60266.45
566.38	60491.15
566.54	60322.63
566.70	60612.85
566.87	60519.23
567.03	60416.25
567.19	60626.90
567.36	60477.10
567.52	60271.14
567.68	60757.97
567.85	60444.33
568.01	60692.43
568.17	60601.15
568.34	60582.43
568.50	60540.30
568.66	60364.76
568.83	60584.77
568.99	60584.77
569.15	60671.37
569.32	60552.00
569.48	60568.38
569.64	60720.52
569.81	60559.02
569.97	60680.73
570.13	60491.15
570.30	60465.40
570.46	60893.72
570.62	60601.15
570.78	60844.57
570.95	60807.12
571.11	60750.94
571.27	60690.09
571.43	60921.80
571.60	60896.06
571.76	60825.84
571.92	60917.12
572.09	60732.22
572.25	60779.03
572.41	60821.16
572.57	60851.59
572.74	60968.61
572.90	60741.58
573.06	60795.42
573.22	60858.61
573.38	60769.67
573.55	60713.50
573.71	61092.66
573.87	60856.27
574.03	60736.90
574.20	60952.23
574.36	60858.61
574.52	60994.36
574.68	60975.64
574.84	61148.84
575.01	60996.70
575.17	60914.78
575.33	60985.00
575.49	60804.78
575.65	60837.54
575.82	61052.87
575.98	61099.68
576.14	61165.22
576.30	60860.95
576.46	60837.54
576.62	60924.14
576.79	60952.23
576.95	60912.44
577.11	60945.21
577.27	61123.09
577.43	61205.01
577.59	60825.84
577.75	60743.92
577.92	60919.46
578.08	60931.17
578.24	60839.89
578.40	61212.03
578.56	61127.77
578.72	60945.21
578.88	61141.81
579.04	61237.78
579.21	61116.07
579.37	61200.33
579.53	61071.60
579.69	61102.03
579.85	61038.83
580.01	61153.52
580.17	61071.60
580.33	61078.62
580.49	61109.05
580.65	61043.51
580.82	60987.34
580.98	61146.50
581.14	60994.36
581.30	61186.28
581.46	61219.05
581.62	61396.93
581.78	61087.98
581.94	61024.79
582.10	61146.50
582.26	61228.41
582.42	61109.05
582.58	61240.12
582.74	61137.13
582.90	61155.86
583.06	61134.79
583.22	60947.55
583.38	61200.33
583.54	61209.69
583.70	61399.27
583.86	61127.77
584.02	61167.56
584.18	61291.61
584.34	61254.16
584.50	61155.86
584.66	60942.87
584.82	60940.53
584.98	61336.08
585.14	61146.50
585.30	61099.68
585.46	61132.45
585.62	61418.00
585.78	61380.55
585.94	61153.52
586.10	61207.35
586.26	61392.25
586.42	61279.91
586.58	61240.12
586.74	61195.65
586.90	61010.74
587.06	61317.35
587.22	61347.78
587.38	61174.58
587.54	61319.70
587.70	61450.77
587.86	61207.35
588.02	61272.88
588.18	61481.19
588.34	61258.84
