SpectraSuite Data File
++++++++++++++++++++++++++++++++++++
Date: Fri Oct 25 11:26:25 EDT 2013
User: price-jones
Dark Spectrum Present: No
Reference Spectrum Present: No
Number of Sampled Component Spectra: 1
Spectrometers: USB2+H05261
Integration Time (usec): 100000 (USB2+H05261)
Spectra Averaged: 1 (USB2+H05261)
Boxcar Smoothing: 0 (USB2+H05261)
Correct for Electrical Dark: No (USB2+H05261)
Strobe/Lamp Enabled: No (USB2+H05261)
Correct for Detector Non-linearity: No (USB2+H05261)
Correct for Stray Light: No (USB2+H05261)
Number of Pixels in Processed Spectrum: 2048
>>>>>Begin Processed Spectral Data<<<<<
365.73	271.50
365.92	271.50
366.12	271.50
366.32	166.18
366.52	126.39
366.72	124.05
366.91	159.16
367.11	142.77
367.31	161.50
367.51	222.35
367.70	142.77
367.90	119.37
368.10	107.66
368.30	98.30
368.49	124.05
368.69	201.29
368.89	163.84
369.09	145.11
369.28	238.73
369.48	201.29
369.68	248.10
369.87	215.33
370.07	149.79
370.27	229.37
370.47	339.38
370.66	641.31
370.86	667.05
371.06	667.05
371.25	739.61
371.45	615.56
371.65	587.47
371.84	613.22
372.04	650.67
372.24	688.12
372.44	770.04
372.63	695.14
372.83	660.03
373.03	751.31
373.22	674.07
373.42	767.70
373.62	718.54
373.81	819.19
374.01	812.17
374.21	816.85
374.40	812.17
374.60	812.17
374.79	870.68
374.99	826.21
375.19	812.17
375.38	833.23
375.58	840.25
375.78	880.04
375.97	891.74
376.17	957.28
376.37	873.02
376.56	861.32
376.76	875.36
376.95	903.45
377.15	997.07
377.35	891.74
377.54	1013.45
377.74	947.92
377.93	870.68
378.13	903.45
378.33	952.60
378.52	901.11
378.72	980.68
378.91	915.15
379.11	901.11
379.31	938.55
379.50	905.79
379.70	1050.90
379.89	1039.20
380.09	912.81
380.28	968.98
380.48	997.07
380.68	983.02
380.87	966.64
381.07	971.32
381.26	999.41
381.46	1050.90
381.65	1050.90
381.85	1121.12
382.04	1050.90
382.24	1053.24
382.43	1032.18
382.63	1093.03
382.83	1153.88
383.02	1163.25
383.22	1046.22
383.41	1100.05
383.61	1128.14
383.80	1165.59
384.00	1123.46
384.19	1210.06
384.39	1074.31
384.58	1116.44
384.78	1240.48
384.97	1111.75
385.17	1114.10
385.36	1104.73
385.56	1130.48
385.75	1144.52
385.95	1198.35
386.14	1256.87
386.34	1097.71
386.53	1116.44
386.72	1191.33
386.92	1184.31
387.11	1268.57
387.31	1247.51
387.50	1254.53
387.70	1200.69
387.89	1355.17
388.09	1275.59
388.28	1343.47
388.48	1301.34
388.67	1252.19
388.86	1350.49
389.06	1331.76
389.25	1268.57
389.45	1331.76
389.64	1376.24
389.84	1430.07
390.03	1369.21
390.22	1345.81
390.42	1289.64
390.61	1371.55
390.81	1256.87
391.00	1345.81
391.19	1434.75
391.39	1418.36
391.58	1427.73
391.78	1465.18
391.97	1476.88
392.16	1481.56
392.36	1474.54
392.55	1540.07
392.75	1612.63
392.94	1479.22
393.13	1577.52
393.33	1523.69
393.52	1530.71
393.71	1504.96
393.91	1584.54
394.10	1500.28
394.29	1619.65
394.49	1551.78
394.68	1589.22
394.88	1551.78
395.07	1626.67
395.26	1661.78
395.46	1612.63
395.65	1699.23
395.84	1657.10
396.04	1769.44
396.23	1778.81
396.42	1755.40
396.62	1823.28
396.81	1673.48
397.00	1764.76
397.19	1771.79
397.39	1827.96
397.58	1856.04
397.77	1856.04
397.97	1961.37
398.16	1870.09
398.35	1788.17
398.55	1823.28
398.74	1921.58
398.93	1893.49
399.12	1839.66
399.32	1900.52
399.51	1984.77
399.70	1987.11
399.90	1923.92
400.09	1975.41
400.28	2017.54
400.47	2047.97
400.67	2071.37
400.86	2022.22
401.05	2160.31
401.24	2040.95
401.44	2073.71
401.63	2200.10
401.82	2129.89
402.01	2181.38
402.21	2162.66
402.40	2202.44
402.59	2066.69
402.78	2256.28
402.97	2370.96
403.17	2300.75
403.36	2139.25
403.55	2319.47
403.74	2349.90
403.93	2326.49
404.13	2392.03
404.32	2408.41
404.51	2277.34
404.70	2438.84
404.89	2239.89
405.09	2518.42
405.28	2471.61
405.47	2513.74
405.66	2436.50
405.85	2546.50
406.05	2441.18
406.24	2574.59
406.43	2527.78
406.62	2642.46
406.81	2614.38
407.00	2530.12
407.20	2635.44
407.39	2567.57
407.58	2609.70
407.77	2635.44
407.96	2633.10
408.15	2705.66
408.34	2710.34
408.54	2740.77
408.73	2801.62
408.92	2740.77
409.11	2820.35
409.30	2883.54
409.49	2832.05
409.68	2993.55
409.87	2953.76
410.07	2986.52
410.26	2899.92
410.45	3045.04
410.64	2979.50
410.83	3073.12
411.02	2981.84
411.21	3117.59
411.40	3129.30
411.59	3136.32
411.78	3159.72
411.98	3185.47
412.17	3353.99
412.36	3262.71
412.55	3363.35
412.74	3346.97
412.93	3400.80
413.12	3307.18
413.31	3400.80
413.50	3515.48
413.69	3438.25
413.88	3611.45
414.07	3503.78
414.26	3674.64
414.45	3700.39
414.64	3623.15
414.83	3789.33
415.02	3779.97
415.22	3927.42
415.41	3911.04
415.60	3824.44
415.79	3831.46
415.98	3843.16
416.17	3962.53
416.36	3911.04
416.55	3974.23
416.74	4072.53
416.93	4091.26
417.12	4128.70
417.31	4105.30
417.50	4067.85
417.69	4374.46
417.88	4297.22
418.07	4278.50
418.26	4346.37
418.45	4390.84
418.64	4533.62
418.83	4442.34
419.02	4442.34
419.21	4395.53
419.39	4561.70
419.58	4318.29
419.77	4540.64
419.96	4568.73
420.15	4645.96
420.34	4615.54
420.53	4552.34
420.72	4732.56
420.91	4697.46
421.10	4657.67
421.29	4741.93
421.48	4545.32
421.67	4805.12
421.86	4718.52
422.05	4641.28
422.24	4812.14
422.43	4589.79
422.61	4837.89
422.80	4889.38
422.99	4975.98
423.18	4870.65
423.37	4971.30
423.56	4814.48
423.75	4973.64
423.94	4786.40
424.13	4631.92
424.32	4732.56
424.50	4802.78
424.69	4971.30
424.88	4891.72
425.07	5018.11
425.26	5093.01
425.45	4992.36
425.64	4755.97
425.83	4943.21
426.01	5057.90
426.20	5069.60
426.39	4966.62
426.58	4924.49
426.77	4983.00
426.96	5090.67
427.15	5100.03
427.33	5329.40
427.52	5032.15
427.71	5233.44
427.90	5036.83
428.09	5228.76
428.28	5242.80
428.46	5135.14
428.65	5231.10
428.84	5476.85
429.03	5483.88
429.22	5240.46
429.40	5526.00
429.59	5408.98
429.78	5245.14
429.97	5177.26
430.16	5441.75
430.34	5530.69
430.53	5640.69
430.72	5561.11
430.91	5551.75
431.10	5570.48
431.28	5591.54
431.47	5771.76
431.66	5827.93
431.85	5795.17
432.03	5975.39
432.22	5867.72
432.41	5867.72
432.60	5781.12
432.79	5884.11
432.97	5956.66
433.16	5865.38
433.35	5909.85
433.54	5977.73
433.72	6090.07
433.91	5907.51
434.10	6129.86
434.28	6190.72
434.47	6260.93
434.66	6214.12
434.85	6368.60
435.03	6319.45
435.22	6265.61
435.41	6345.19
435.59	6401.37
435.78	6368.60
435.97	6434.13
436.16	6431.79
436.34	6183.70
436.53	6574.56
436.72	6656.48
436.90	6525.41
437.09	6586.27
437.28	6530.09
437.46	6502.01
437.65	6534.78
437.84	6679.89
438.02	6656.48
438.21	6698.61
438.40	6654.14
438.58	6995.86
438.77	6953.73
438.96	6808.62
439.14	7148.00
439.33	7030.97
439.52	7222.89
439.70	7143.32
439.89	7286.09
440.08	7241.62
440.26	7318.86
440.45	7234.60
440.63	7419.50
440.82	7597.38
441.01	7461.63
441.19	7573.97
441.38	7665.25
441.57	7693.34
441.75	7775.26
441.94	7763.56
442.12	7967.18
442.31	8051.44
442.50	7971.86
442.68	7836.11
442.87	8006.97
443.05	8037.40
443.24	8259.75
443.43	8243.37
443.61	8219.96
443.80	8238.69
443.98	8191.88
444.17	7791.64
444.35	8285.50
444.54	8264.43
444.73	8264.43
444.91	8175.49
445.10	8238.69
445.28	8121.66
445.47	8222.30
445.65	8245.71
445.84	8306.56
446.02	8306.56
446.21	8325.29
446.39	8063.15
446.58	8496.14
446.77	8411.89
446.95	8294.86
447.14	8322.94
447.32	8454.02
447.51	8437.63
447.69	8334.65
447.88	8538.27
448.06	8561.68
448.25	8479.76
448.43	8554.66
448.62	8407.20
448.80	8374.44
448.99	8538.27
449.17	8676.37
449.36	8580.40
449.54	8896.38
449.73	8945.53
449.91	8875.31
450.10	8908.08
450.28	8982.98
450.46	9008.72
450.65	9102.34
450.83	9029.79
451.02	9081.28
451.20	9235.75
451.39	9130.43
451.57	8997.02
451.76	9076.60
451.94	9109.36
452.13	9469.81
452.31	9083.62
452.49	9207.67
452.68	9334.06
452.86	9064.89
453.05	9467.47
453.23	9341.08
453.42	9427.68
453.60	9446.40
453.78	9593.86
453.97	9252.14
454.15	9549.39
454.34	9284.91
454.52	9748.33
454.70	9724.93
454.89	9708.54
455.07	9954.30
455.26	9853.66
455.44	9980.04
455.62	9867.70
455.81	9905.15
455.99	9994.09
456.17	9797.48
456.36	10057.28
456.54	10146.22
456.73	10204.74
456.91	10228.14
457.09	10218.78
457.28	10443.47
457.46	10260.91
457.64	10588.58
457.83	10466.88
458.01	10352.19
458.19	10759.44
458.38	10424.75
458.56	10562.84
458.74	10417.72
458.93	10672.84
459.11	10813.28
459.29	10874.13
459.48	10649.44
459.66	10824.98
459.84	10759.44
460.03	11028.60
460.21	10974.77
460.39	11061.37
460.57	10956.05
460.76	10752.42
460.94	10860.09
461.12	11199.46
461.31	11066.05
461.49	11005.20
461.67	11162.01
461.85	11517.78
462.04	11328.19
462.22	11770.55
462.40	11283.72
462.59	11492.03
462.77	11295.43
462.95	11489.69
463.13	11534.16
463.32	11686.29
463.50	11625.44
463.68	11611.40
463.86	11698.00
464.05	11477.99
464.23	11442.88
464.41	11676.93
464.59	11655.87
464.78	11929.71
464.96	11934.39
465.14	11882.90
465.32	12013.97
465.50	12011.63
465.69	12098.23
465.87	12009.29
466.05	12037.38
466.23	11939.07
466.41	12095.89
466.60	12578.04
466.78	12126.32
466.96	12095.89
467.14	12208.23
467.32	12381.43
467.51	12320.58
467.69	11946.09
467.87	12243.34
468.05	12692.73
468.23	12411.86
468.41	12414.20
468.60	12498.46
468.78	12723.15
468.96	12535.91
469.14	12971.25
469.32	12805.07
469.50	12725.49
469.69	12863.58
469.87	13137.43
470.05	12961.89
470.23	12943.16
470.41	13228.71
470.59	13233.39
470.77	13004.02
470.95	13245.09
471.14	13287.22
471.32	13142.11
471.50	13483.83
471.68	13650.00
471.86	13605.53
472.04	13635.96
472.22	13944.91
472.40	13577.45
472.58	13675.75
472.77	13930.87
472.95	14125.13
473.13	14623.67
473.31	13947.25
473.49	13855.97
473.67	14057.26
473.85	14324.08
474.03	14607.28
474.21	14654.09
474.39	14544.09
474.57	14693.88
474.75	14862.40
474.93	14965.39
475.12	14796.87
475.30	14984.11
475.48	15124.54
475.66	15293.06
475.84	15082.41
476.02	15161.99
476.20	15281.36
476.38	15538.82
476.56	15990.54
476.74	15798.62
476.92	15639.46
477.10	15761.17
477.28	16053.73
477.46	15889.90
477.64	16182.46
477.82	16404.81
478.00	17022.72
478.18	16549.93
478.36	16809.73
478.54	16922.07
478.72	17071.87
478.90	17394.86
479.08	17539.97
479.26	17268.47
479.44	17422.95
479.62	17612.53
479.80	17776.37
479.98	18209.37
480.16	18331.08
480.34	18420.02
480.52	18602.58
480.70	18579.17
480.88	18214.05
481.06	18462.15
481.24	18377.89
481.41	18864.72
481.59	19377.30
481.77	19089.41
481.95	19599.65
482.13	19407.72
482.31	19569.22
482.49	20095.84
482.67	20086.48
482.85	20231.59
483.03	20156.69
483.21	20613.10
483.39	20718.42
483.57	20872.90
483.74	20922.05
483.92	21088.23
484.10	21039.08
484.28	21633.57
484.46	21701.45
484.64	21930.82
484.82	21509.52
485.00	22026.78
485.18	22555.74
485.35	22890.44
485.53	22658.73
485.71	22771.07
485.89	23421.74
486.07	23096.41
486.25	23007.47
486.43	23386.63
486.61	23442.81
486.78	23709.63
486.96	23798.57
487.14	24531.15
487.32	24437.53
487.50	24945.43
487.68	24524.13
487.85	24971.18
488.03	25177.14
488.21	25692.06
488.39	25876.96
488.57	26031.44
488.75	26251.45
488.92	26387.20
489.10	26574.44
489.28	26902.12
489.46	27077.66
489.64	26698.49
489.81	27445.12
489.99	27283.62
490.17	27651.09
490.35	27786.84
490.53	28217.50
490.70	28470.28
490.88	28350.91
491.06	28875.19
491.24	28980.51
491.41	28613.05
491.59	29317.55
491.77	28943.06
491.95	29317.55
492.13	29371.38
492.30	29780.98
492.48	30167.16
492.66	30019.71
492.84	29944.81
493.01	30412.92
493.19	30562.72
493.37	30574.42
493.54	31173.60
493.72	31351.48
493.90	31524.68
494.08	31250.83
494.25	31531.70
494.43	31786.82
494.61	32250.24
494.79	32116.83
494.96	32343.86
495.14	32587.28
495.32	33165.39
495.49	32849.42
495.67	33113.90
495.85	33191.14
496.02	33640.52
496.20	34068.84
496.38	33743.50
496.55	33926.07
496.73	34843.56
496.91	34000.96
497.09	34759.30
497.26	34579.07
497.44	34649.29
497.62	34689.08
497.79	35693.17
497.97	35372.52
498.14	35725.94
498.32	35580.82
498.50	36034.89
498.67	36449.16
498.85	36395.33
499.03	36240.86
499.20	36414.05
499.38	36898.55
499.56	36570.87
499.73	37069.40
499.91	37104.51
500.08	37130.26
500.26	36910.25
500.44	37404.10
500.61	37134.94
500.79	37460.27
500.97	38061.79
501.14	38356.70
501.32	38340.32
501.49	38213.93
501.67	38525.22
501.84	38981.62
502.02	38728.84
502.20	38932.47
502.37	38923.11
502.55	39253.12
502.72	39129.08
502.90	39278.87
503.07	39608.89
503.25	38913.75
503.43	39632.29
503.60	39615.91
503.78	40030.18
503.95	39784.43
504.13	40371.90
504.30	40664.47
504.48	40154.23
504.65	40488.93
504.83	40683.19
505.01	40591.91
505.18	40816.60
505.36	41139.60
505.53	41193.43
505.71	41109.17
505.88	41621.75
506.06	41298.75
506.23	41736.43
506.41	41284.71
506.58	41801.97
506.76	41762.18
506.93	42071.13
507.11	41708.35
507.28	41979.85
507.46	42040.70
507.63	42398.80
507.81	43037.77
507.98	42913.72
508.16	43168.84
508.33	42918.40
508.50	43093.94
508.68	43225.01
508.85	43800.79
509.03	43409.92
509.20	43627.59
509.38	44074.63
509.55	43929.51
509.73	44357.83
509.90	44514.65
510.08	44385.92
510.25	44472.52
510.42	44692.53
510.60	45036.59
510.77	44512.31
510.95	45865.14
511.12	44772.11
511.30	44575.50
511.47	45258.94
511.64	45436.82
511.82	45549.17
511.99	45464.91
512.17	45701.30
512.34	45380.65
512.51	46300.48
512.69	46138.98
512.86	46199.83
513.04	46333.24
513.21	46373.03
513.38	46291.12
513.56	46536.87
513.73	46543.89
513.90	46691.35
514.08	46335.59
514.25	47217.97
514.43	46972.21
514.60	47274.14
514.77	46712.41
514.95	47295.21
515.12	47267.12
515.29	47337.33
515.47	47653.31
515.64	47571.39
515.81	47899.06
515.99	47852.25
516.16	48032.47
516.33	48222.06
516.51	48048.86
516.68	48215.04
516.85	48313.34
517.03	48898.47
517.20	48161.20
517.37	48435.05
517.54	48645.69
517.72	48622.29
517.89	48556.75
518.06	48931.24
518.24	49118.48
518.41	49066.99
518.58	48933.58
518.75	49052.95
518.93	49352.54
519.10	49237.85
519.27	49354.88
519.45	49382.96
519.62	49579.57
519.79	49792.56
519.96	49874.48
520.14	49752.77
520.31	49911.92
520.48	50005.55
520.65	50038.31
520.83	50466.63
521.00	50326.20
521.17	50277.05
521.34	50602.38
521.52	50485.36
521.69	50445.57
521.86	51042.40
522.03	50855.16
522.20	51250.71
522.38	51395.82
522.55	50859.84
522.72	50951.12
522.89	51217.94
523.07	51562.00
523.24	51220.28
523.41	51667.33
523.58	50787.28
523.75	51613.49
523.92	51791.37
524.10	51585.41
524.27	51910.74
524.44	51749.24
524.61	51817.12
524.78	52074.58
524.96	52179.90
525.13	52233.74
525.30	52226.71
525.47	52172.88
525.64	51938.83
525.81	52144.80
525.98	52598.86
526.16	52271.18
526.33	52275.87
526.50	52722.91
526.67	52828.23
526.84	52900.79
527.01	52669.08
527.18	52711.20
527.36	52750.99
527.53	52842.27
527.70	53104.41
527.87	53148.88
528.04	52804.83
528.21	53336.13
528.38	53034.20
528.55	53137.18
528.72	53116.12
528.89	53139.52
529.07	52978.03
529.24	52933.56
529.41	53476.56
529.58	53467.20
529.75	53315.06
529.92	53469.54
530.09	53616.99
530.26	53624.01
530.43	53595.93
530.60	53605.29
530.77	53738.70
530.94	53876.79
531.11	53464.86
531.28	54049.99
531.46	53853.39
531.63	54106.16
531.80	53818.28
531.97	53909.56
532.14	54129.57
532.31	54110.85
532.48	54539.16
532.65	54354.26
532.82	54270.00
532.99	54611.72
533.16	54225.53
533.33	54543.84
533.50	54571.93
533.67	54871.52
533.84	54733.43
534.01	54773.22
534.18	54632.78
534.35	54941.74
534.52	54646.83
534.69	55051.74
534.86	54857.48
535.03	54719.38
535.20	54885.56
535.37	55121.96
535.54	54967.48
535.71	55260.05
535.88	55227.28
536.05	55292.82
536.22	55246.00
536.38	55447.29
536.55	55370.05
536.72	55367.71
536.89	55416.86
537.06	55114.94
537.23	55590.06
537.40	55590.06
537.57	55554.96
537.74	55435.59
537.91	55826.46
538.08	55625.17
538.25	55643.90
538.42	55732.84
538.59	55859.23
538.75	55674.32
538.92	55929.44
539.09	55833.48
539.26	55735.18
539.43	55941.14
539.60	56020.72
539.77	55943.48
539.94	56104.98
540.11	56212.65
540.28	56275.84
540.44	56390.53
540.61	56149.45
540.78	56062.85
540.95	56236.05
541.12	56261.80
541.29	56324.99
541.46	56474.79
541.62	56348.40
541.79	56484.15
541.96	56238.39
542.13	56423.29
542.30	56470.11
542.47	56708.84
542.63	56645.65
542.80	56713.52
542.97	56853.95
543.14	57029.49
543.31	57045.88
543.48	57010.77
543.64	57450.79
543.81	57202.69
543.98	57036.51
544.15	57055.24
544.32	57141.84
544.48	57366.53
544.65	57057.58
544.82	57230.78
544.99	57024.81
545.16	57403.98
545.32	57317.38
545.49	57506.96
545.66	57565.48
545.83	57345.47
546.00	57546.75
546.16	57345.47
546.33	57392.28
546.50	57202.69
546.67	57272.91
546.83	57237.80
547.00	57516.32
547.17	57453.13
547.34	57537.39
547.50	57659.10
547.67	57752.72
547.84	57757.40
548.00	57872.09
548.17	57836.98
548.34	58035.92
548.51	58089.76
548.67	58010.18
548.84	57982.09
549.01	57925.92
549.18	57935.28
549.34	58178.70
549.51	58047.63
549.68	58028.90
549.84	58106.14
550.01	58272.32
550.18	57939.96
550.34	58300.40
550.51	58255.93
550.68	58361.26
550.84	57879.11
551.01	58281.68
551.18	58272.32
551.34	58246.57
551.51	58370.62
551.68	58525.10
551.84	58286.36
552.01	58248.91
552.18	58344.87
552.34	58298.06
552.51	58625.74
552.68	58340.19
552.84	58553.18
553.01	58749.79
553.18	58478.28
553.34	58628.08
553.51	58520.41
553.67	58677.23
553.84	58824.68
554.01	58733.40
554.17	58728.72
554.34	58724.04
554.51	58782.55
554.67	58983.84
554.84	58866.81
555.00	58845.75
555.17	58841.07
555.33	58930.01
555.50	58698.30
555.67	58857.45
555.83	58726.38
556.00	58871.49
556.16	59128.95
556.33	59112.57
556.50	58810.64
556.66	59318.54
556.83	58855.11
556.99	58941.71
557.16	59358.33
557.32	59344.28
557.49	59449.61
557.65	59222.58
557.82	59189.81
557.98	59253.00
558.15	59470.67
558.32	59414.50
558.48	59222.58
558.65	59210.87
558.81	59398.12
558.98	59346.62
559.14	59468.33
559.31	59463.65
559.47	59552.59
559.64	59533.87
559.80	59543.23
559.97	59519.82
560.13	59171.08
560.30	59618.13
560.46	59426.20
560.63	59412.16
560.79	59538.55
560.96	59767.92
561.12	59664.94
561.29	59716.43
561.45	59636.85
561.61	59667.28
561.78	59676.64
561.94	59737.49
562.11	59519.82
562.27	59812.39
562.44	59920.05
562.60	59920.05
562.77	59777.28
562.93	59618.13
563.10	59910.69
563.26	59533.87
563.42	59962.18
563.59	59810.05
563.75	59915.37
563.92	59913.03
564.08	59786.64
564.24	60051.12
564.41	59950.48
564.57	59976.23
564.74	59891.97
564.90	59896.65
565.07	59980.91
565.23	59756.22
565.39	59805.37
565.56	59955.16
565.72	60037.08
565.88	59980.91
566.05	59938.78
566.21	59779.62
566.38	60252.41
566.54	60023.04
566.70	60109.64
566.87	60233.69
567.03	60023.04
567.19	60130.70
567.36	60111.98
567.52	60025.38
567.68	60247.73
567.85	60210.28
568.01	60238.37
568.17	59938.78
568.34	60261.77
568.50	60048.78
568.66	60210.28
568.83	60184.54
568.99	60371.78
569.15	60278.16
569.32	60184.54
569.48	60184.54
569.64	60371.78
569.81	60191.56
569.97	60128.36
570.13	60259.43
570.30	60257.09
570.46	60423.27
570.62	60460.72
570.78	60301.56
570.95	60196.24
571.11	60416.25
571.27	60280.50
571.43	60385.82
571.60	60432.63
571.76	60294.54
571.92	60477.10
572.09	60331.99
572.25	60465.40
572.41	60430.29
572.57	60460.72
572.74	60446.68
572.90	60371.78
573.06	60430.29
573.22	60580.09
573.38	60378.80
573.55	60605.83
573.71	60519.23
573.87	60540.30
574.03	60573.06
574.20	60626.90
574.36	60217.30
574.52	60537.96
574.68	60374.12
574.84	60647.96
575.01	60643.28
575.17	60488.80
575.33	60406.89
575.49	60350.71
575.65	60526.25
575.82	60739.24
575.98	60528.59
576.14	60643.28
576.30	60687.75
576.46	60654.98
576.62	60540.30
576.79	60456.04
576.95	60498.17
577.11	60619.88
577.27	60673.71
577.43	60549.66
577.59	60493.49
577.75	60582.43
577.92	60568.38
578.08	60662.00
578.24	60640.94
578.40	60898.40
578.56	60804.78
578.72	60832.86
578.88	60807.12
579.04	60844.57
579.21	60603.49
579.37	60905.42
579.53	60669.03
579.69	60748.60
579.85	60512.21
580.01	60715.84
580.17	60519.23
580.33	60643.28
580.49	60949.89
580.65	60809.46
580.82	60549.66
580.98	60474.76
581.14	60860.95
581.30	60605.83
581.46	60619.88
581.62	60891.38
581.78	60652.64
581.94	60596.47
582.10	60664.35
582.26	60697.11
582.42	60764.99
582.58	60823.50
582.74	60687.75
582.90	60654.98
583.06	60683.07
583.22	60584.77
583.38	60753.29
583.54	60767.33
583.70	60659.66
583.86	60882.02
584.02	60659.66
584.18	60907.76
584.34	60912.44
584.50	60903.08
584.66	60626.90
584.82	60732.22
584.98	60956.91
585.14	60729.88
585.30	60640.94
585.46	61205.01
585.62	60732.22
585.78	60933.51
585.94	60694.77
586.10	60940.53
586.26	60774.35
586.42	60931.17
586.58	61125.43
586.74	60907.76
586.90	60961.59
587.06	60945.21
587.22	60898.40
587.38	61055.21
587.54	60853.93
587.70	61043.51
587.86	60940.53
588.02	60938.19
588.18	61003.72
588.34	60825.84
588.49	60910.10
