SpectraSuite Data File
++++++++++++++++++++++++++++++++++++
Date: Fri Oct 25 10:47:49 EDT 2013
User: price-jones
Dark Spectrum Present: No
Reference Spectrum Present: No
Number of Sampled Component Spectra: 1
Spectrometers: USB2+H05261
Integration Time (usec): 100000 (USB2+H05261)
Spectra Averaged: 1 (USB2+H05261)
Boxcar Smoothing: 0 (USB2+H05261)
Correct for Electrical Dark: No (USB2+H05261)
Strobe/Lamp Enabled: No (USB2+H05261)
Correct for Detector Non-linearity: No (USB2+H05261)
Correct for Stray Light: No (USB2+H05261)
Number of Pixels in Processed Spectrum: 2048
>>>>>Begin Processed Spectral Data<<<<<
365.73	163.84
365.92	163.84
366.12	163.84
366.32	42.13
366.52	81.92
366.72	42.13
366.91	35.11
367.11	58.51
367.31	0.00
367.51	16.38
367.70	2.34
367.90	119.37
368.10	21.06
368.30	37.45
368.49	72.56
368.69	44.47
368.89	28.09
369.09	84.26
369.28	25.75
369.48	74.90
369.68	138.09
369.87	93.62
370.07	81.92
370.27	119.37
370.47	124.05
370.66	315.97
370.86	395.55
371.06	498.53
371.25	461.09
371.45	447.04
371.65	463.43
371.84	510.24
372.04	484.49
372.24	449.38
372.44	461.09
372.63	554.71
372.83	510.24
373.03	479.81
373.22	519.60
373.42	496.19
373.62	512.58
373.81	617.90
374.01	496.19
374.21	568.75
374.40	526.62
374.60	594.50
374.79	519.60
374.99	653.01
375.19	561.73
375.38	521.94
375.58	634.29
375.78	561.73
375.97	622.58
376.17	580.45
376.37	507.90
376.56	538.32
376.76	526.62
376.95	589.82
377.15	613.22
377.35	613.22
377.54	613.22
377.74	582.79
377.93	660.03
378.13	601.52
378.33	688.12
378.52	594.50
378.72	671.73
378.91	608.54
379.11	657.69
379.31	592.16
379.50	678.76
379.70	634.29
379.89	674.07
380.09	617.90
380.28	543.00
380.48	620.24
380.68	653.01
380.87	678.76
381.07	638.97
381.26	718.54
381.46	704.50
381.65	650.67
381.85	599.18
382.04	664.71
382.24	732.59
382.43	723.23
382.63	667.05
382.83	725.57
383.02	730.25
383.22	760.67
383.41	720.88
383.61	690.46
383.80	704.50
384.00	695.14
384.19	746.63
384.39	730.25
384.58	690.46
384.78	664.71
384.97	777.06
385.17	807.48
385.36	793.44
385.56	781.74
385.75	748.97
385.95	767.70
386.14	821.53
386.34	802.80
386.53	800.46
386.72	751.31
386.92	814.51
387.11	816.85
387.31	798.12
387.50	915.15
387.70	784.08
387.89	854.30
388.09	816.85
388.28	795.78
388.48	779.40
388.67	964.30
388.86	856.64
389.06	784.08
389.25	856.64
389.45	863.66
389.64	924.51
389.84	905.79
390.03	917.49
390.22	912.81
390.42	880.04
390.61	905.79
390.81	959.62
391.00	894.08
391.19	1029.84
391.39	926.85
391.58	1039.20
391.78	966.64
391.97	976.00
392.16	938.55
392.36	931.53
392.55	1046.22
392.75	1006.43
392.94	978.34
393.13	997.07
393.33	952.60
393.52	1025.15
393.71	961.96
393.91	954.94
394.10	1008.77
394.29	1064.94
394.49	1060.26
394.68	1132.82
394.88	1128.14
395.07	1057.92
395.26	1128.14
395.46	1139.84
395.65	1224.10
395.84	1036.86
396.04	1200.69
396.23	1118.78
396.42	1022.81
396.62	1102.39
396.81	1111.75
397.00	1055.58
397.19	1240.48
397.39	1214.74
397.58	1205.38
397.77	1203.04
397.97	1270.91
398.16	1259.21
398.35	1345.81
398.55	1352.83
398.74	1315.38
398.93	1366.87
399.12	1366.87
399.32	1390.28
399.51	1416.02
399.70	1476.88
399.90	1369.21
400.09	1479.22
400.28	1409.00
400.47	1521.35
400.67	1500.28
400.86	1441.77
401.05	1528.37
401.24	1462.83
401.44	1511.99
401.63	1603.27
401.82	1472.20
402.01	1629.01
402.21	1633.69
402.40	1556.46
402.59	1586.88
402.78	1551.78
402.97	1605.61
403.17	1577.52
403.36	1647.74
403.55	1591.56
403.74	1607.95
403.93	1708.59
404.13	1694.55
404.32	1593.90
404.51	1661.78
404.70	1771.79
404.89	1682.85
405.09	1713.27
405.28	1680.50
405.47	1703.91
405.66	1732.00
405.85	1898.17
406.05	1687.53
406.24	1713.27
406.43	1837.32
406.62	1844.34
406.81	1926.26
407.00	1804.55
407.20	1764.76
407.39	1860.73
407.58	1797.53
407.77	1909.88
407.96	2015.20
408.15	2026.90
408.34	2026.90
408.54	2071.37
408.73	1987.11
408.92	2092.44
409.11	2033.93
409.30	1959.03
409.49	1944.99
409.68	2064.35
409.87	2069.03
410.07	2099.46
410.26	2099.46
410.45	2162.66
410.64	2139.25
410.83	2167.34
411.02	2260.96
411.21	2352.24
411.40	2279.68
411.59	2359.26
411.78	2307.77
411.98	2370.96
412.17	2415.43
412.36	2366.28
412.55	2340.54
412.74	2361.60
412.93	2443.52
413.12	2431.82
413.31	2572.25
413.50	2499.69
413.69	2551.18
413.88	2576.93
414.07	2642.46
414.26	2717.36
414.45	2656.51
414.64	2558.21
414.83	2628.42
415.02	2724.38
415.22	2750.13
415.41	2633.10
415.60	2878.86
415.79	2792.26
415.98	2881.20
416.17	2855.45
416.36	2719.70
416.55	2787.58
416.74	2876.52
416.93	2846.09
417.12	2937.37
417.31	2988.86
417.50	2836.73
417.69	3047.38
417.88	3045.04
418.07	2970.14
418.26	3101.21
418.45	3119.93
418.64	3220.58
418.83	3286.11
419.02	3124.62
419.21	3232.28
419.39	3194.83
419.58	3148.02
419.77	3194.83
419.96	3309.52
420.15	3396.12
420.34	3403.14
420.53	3447.61
420.72	3435.91
420.91	3438.25
421.10	3435.91
421.29	3410.16
421.48	3389.10
421.67	3440.59
421.86	3346.97
422.05	3431.23
422.24	3391.44
422.43	3473.36
422.61	3478.04
422.80	3506.12
422.99	3569.32
423.18	3648.90
423.37	3597.40
423.56	3637.19
423.75	3536.55
423.94	3386.76
424.13	3403.14
424.32	3421.86
424.50	3527.19
424.69	3571.66
424.88	3655.92
425.07	3545.91
425.26	3433.57
425.45	3618.47
425.64	3630.17
425.83	3627.83
426.01	3716.77
426.20	3471.01
426.39	3566.98
426.58	3562.30
426.77	3742.52
426.96	3693.37
427.15	3538.89
427.33	3578.68
427.52	3695.71
427.71	3765.92
427.90	3751.88
428.09	3620.81
428.28	3733.15
428.46	3754.22
428.65	3815.07
428.84	3845.50
429.03	3887.63
429.22	3688.68
429.40	3625.49
429.59	3784.65
429.78	3630.17
429.97	3641.87
430.16	3789.33
430.34	3768.26
430.53	3936.78
430.72	3911.04
430.91	3868.91
431.10	4011.68
431.28	4100.62
431.47	4182.54
431.66	4042.11
431.85	4002.32
432.03	4259.78
432.22	4262.12
432.41	4222.33
432.60	4177.86
432.79	4168.49
432.97	4318.29
433.16	4252.75
433.35	4231.69
433.54	4128.70
433.72	4339.35
433.91	4269.14
434.10	4264.46
434.28	4306.59
434.47	4348.72
434.66	4432.97
434.85	4472.76
435.03	4472.76
435.22	4461.06
435.41	4482.13
435.59	4512.55
435.78	4580.43
435.97	4564.04
436.16	4627.24
436.34	4608.51
436.53	4709.16
436.72	4762.99
436.90	4594.47
437.09	4770.01
437.28	4671.71
437.46	4652.98
437.65	4704.48
437.84	4718.52
438.02	4739.58
438.21	4695.11
438.40	4891.72
438.58	4870.65
438.77	4961.94
438.96	4847.25
439.14	5102.37
439.33	5177.26
439.52	5043.85
439.70	5121.09
439.89	4994.70
440.08	5060.24
440.26	5128.11
440.45	5177.26
440.63	5048.54
440.82	5270.89
441.01	5371.53
441.19	5416.00
441.38	5523.66
441.57	5652.39
441.75	5638.35
441.94	5675.80
442.12	5526.00
442.31	5675.80
442.50	5582.18
442.68	5621.97
442.87	5643.03
443.05	5778.78
443.24	5935.60
443.43	5846.66
443.61	5849.00
443.80	5846.66
443.98	5734.31
444.17	5565.79
444.35	5834.96
444.54	6097.10
444.73	5795.17
444.91	5879.43
445.10	5760.06
445.28	5820.91
445.47	5849.00
445.65	5736.65
445.84	5797.51
446.02	5865.38
446.21	5914.53
446.39	6061.99
446.58	6085.39
446.77	6066.67
446.95	6008.16
447.14	5970.71
447.32	6141.57
447.51	6113.48
447.69	6111.14
447.88	5973.05
448.06	6181.35
448.25	5804.53
448.43	6162.63
448.62	6090.07
448.80	5984.75
448.99	6080.71
449.17	6146.25
449.36	6008.16
449.54	6052.63
449.73	6424.77
449.91	6160.29
450.10	6352.21
450.28	6576.91
450.46	6406.05
450.65	6525.41
450.83	6368.60
451.02	6359.24
451.20	6490.31
451.39	6539.46
451.57	6349.87
451.76	6516.05
451.94	6567.54
452.13	6553.50
452.31	6494.99
452.49	6286.68
452.68	6614.35
452.86	6424.77
453.05	6640.10
453.23	6731.38
453.42	6757.13
453.60	6494.99
453.78	6782.87
453.97	6616.69
454.15	6747.76
454.34	6574.56
454.52	6848.41
454.70	6740.74
454.89	6785.21
455.07	6850.75
455.26	6979.48
455.44	6836.70
455.62	6853.09
455.81	6911.60
455.99	6970.12
456.17	7047.35
456.36	7023.95
456.54	7232.26
456.73	7220.55
456.91	7325.88
457.09	7398.43
457.28	7396.09
457.46	7265.02
457.64	7510.78
457.83	7232.26
458.01	7358.64
458.19	7545.89
458.38	7499.08
458.56	7644.19
458.74	7510.78
458.93	7403.11
459.11	7585.68
459.29	7557.59
459.48	7454.61
459.66	7550.57
459.84	7515.46
460.03	7887.61
460.21	7522.48
460.39	7749.51
460.57	7723.77
460.76	7857.18
460.94	7861.86
461.12	7808.03
461.31	7765.90
461.49	7943.78
461.67	7845.48
461.85	7868.88
462.04	7726.11
462.22	8222.30
462.40	8046.76
462.59	8098.25
462.77	7976.55
462.95	8116.98
463.13	8365.07
463.32	8219.96
463.50	8112.30
463.68	8180.17
463.86	8280.82
464.05	7948.46
464.23	8009.31
464.41	8215.28
464.59	8072.51
464.78	8430.61
464.96	8203.58
465.14	8156.77
465.32	8486.78
465.50	8425.93
465.69	8634.24
465.87	8475.08
466.05	8358.05
466.23	8477.42
466.41	8571.04
466.60	8456.36
466.78	8301.88
466.96	8461.04
467.14	8355.71
467.32	8608.49
467.51	8482.10
467.69	8248.05
467.87	8557.00
468.05	8753.60
468.23	8521.89
468.41	8966.59
468.60	8662.32
468.78	8734.88
468.96	8573.38
469.14	8863.61
469.32	9055.53
469.50	8645.94
469.69	8908.08
469.87	9022.77
470.05	9018.08
470.23	8730.20
470.41	9095.32
470.59	8997.02
470.77	9034.47
470.95	9050.85
471.14	9245.12
471.32	8997.02
471.50	9312.99
471.68	9338.74
471.86	9390.23
472.04	9434.70
472.22	9619.60
472.40	9221.71
472.58	9420.66
472.77	9525.98
472.95	9558.75
473.13	10059.62
473.31	9453.42
473.49	9572.79
473.67	9806.84
473.85	9558.75
474.03	10040.90
474.21	9982.38
474.39	10122.82
474.57	9886.42
474.75	10235.16
474.93	10352.19
475.12	10059.62
475.30	10256.23
475.48	10113.45
475.66	10368.57
475.84	10459.85
476.02	10396.66
476.20	10401.34
476.38	10637.73
476.56	10803.91
476.74	10768.80
476.92	10808.59
477.10	10583.90
477.28	10862.43
477.46	10848.38
477.64	11119.89
477.82	11281.38
478.00	11583.31
478.18	11578.63
478.36	11260.32
478.54	11445.22
478.72	11815.02
478.90	11765.87
479.08	11791.62
479.26	11763.53
479.44	11992.90
479.62	11889.92
479.80	12072.48
479.98	12533.57
480.16	12418.88
480.34	12093.55
480.52	12465.69
480.70	12489.10
480.88	12475.06
481.06	12512.50
481.24	12711.45
481.41	12807.41
481.59	13074.23
481.77	13151.47
481.95	13434.68
482.13	13217.01
482.31	13376.16
482.49	13792.78
482.67	13577.45
482.85	13769.37
483.03	13764.69
483.21	13825.54
483.39	14054.92
483.57	14022.15
483.74	14040.87
483.92	14286.63
484.10	14249.18
484.28	14572.18
484.46	14794.53
484.64	14768.78
484.82	14721.97
485.00	14888.15
485.18	14951.34
485.35	15264.97
485.53	15325.83
485.71	15241.57
485.89	15115.18
486.07	15164.33
486.25	15733.08
486.43	15836.06
486.61	15826.70
486.78	15658.18
486.96	16006.92
487.14	16229.27
487.32	16210.55
487.50	16517.16
487.68	16706.74
487.85	16842.50
488.03	17106.98
488.21	16994.63
488.39	16734.83
488.57	17429.97
488.75	17315.28
488.92	17701.47
489.10	17750.62
489.28	17699.13
489.46	18122.77
489.64	18111.07
489.81	18066.60
489.99	18246.82
490.17	18412.99
490.35	18689.18
490.53	18789.82
490.70	18796.84
490.88	18967.70
491.06	19262.61
491.24	18927.91
491.41	19112.81
491.59	19304.74
491.77	19218.14
491.95	19494.32
492.13	19765.82
492.30	19852.42
492.48	19824.34
492.66	20243.29
492.84	20107.54
493.01	20060.73
493.19	20397.77
493.37	20348.62
493.54	20648.21
493.72	20966.52
493.90	21076.52
494.08	20840.13
494.25	21088.23
494.43	21448.67
494.61	21308.24
494.79	21605.49
494.96	21687.40
495.14	21523.57
495.32	21944.86
495.49	21984.65
495.67	22120.40
495.85	22132.11
496.02	22207.00
496.20	22459.78
496.38	22473.82
496.55	22422.33
496.73	22925.55
496.91	22916.19
497.09	22967.68
497.26	23419.40
497.44	23016.83
497.62	23236.84
497.79	23440.47
497.97	23166.62
498.14	23449.83
498.32	23557.49
498.50	23779.84
498.67	23723.67
498.85	24133.26
499.03	24465.62
499.20	24446.90
499.38	24519.45
499.56	24416.47
499.73	24556.90
499.91	24261.99
500.08	24318.17
500.26	24393.06
500.44	24702.01
500.61	25242.68
500.79	24709.04
500.97	25102.25
501.14	25476.73
501.32	25216.93
501.49	25074.16
501.67	25371.41
501.84	25546.95
502.02	25453.33
502.20	25785.68
502.37	25921.43
502.55	25827.81
502.72	26015.05
502.90	25818.45
503.07	26005.69
503.25	26066.55
503.43	26141.44
503.60	26394.22
503.78	26532.31
503.95	26129.74
504.13	26368.48
504.30	26665.72
504.48	26555.72
504.65	26981.70
504.83	27182.98
505.01	26864.67
505.18	27012.12
505.36	27559.81
505.53	27243.84
505.71	27599.60
505.88	27665.13
506.06	27274.26
506.23	27630.02
506.41	27424.06
506.58	27810.25
506.76	27850.03
506.93	28168.35
507.11	28023.23
507.28	27976.42
507.46	28053.66
507.63	28151.96
507.81	28442.19
507.98	28041.96
508.16	28453.89
508.33	28285.37
508.50	28533.47
508.68	28285.37
508.85	28811.99
509.03	28943.06
509.20	28961.79
509.38	29071.79
509.55	29013.28
509.73	29544.58
509.90	29132.65
510.08	29249.67
510.25	29352.66
510.42	29345.64
510.60	29755.23
510.77	29696.72
510.95	29722.46
511.12	29961.20
511.30	30038.44
511.47	30258.45
511.64	30094.61
511.82	29968.22
511.99	30190.57
512.17	30230.36
512.34	30445.69
512.51	30632.93
512.69	30244.40
512.86	30714.85
513.04	30728.89
513.21	30548.67
513.38	30572.08
513.56	30979.33
513.73	30630.59
513.90	31199.34
514.08	30754.64
514.25	31101.04
514.43	30979.33
514.60	31285.94
514.77	31035.50
514.95	31442.76
515.12	31229.77
515.29	31550.42
515.47	31611.28
515.64	32081.72
515.81	31744.69
515.99	31531.70
516.16	31585.53
516.33	31873.42
516.51	31999.80
516.68	31587.87
516.85	31524.68
517.03	32086.40
517.20	31927.25
517.37	32168.32
517.54	32254.92
517.72	32503.02
517.89	32233.86
518.06	32093.43
518.24	32465.57
518.41	32212.79
518.58	32287.69
518.75	32776.86
518.93	33027.30
519.10	32694.94
519.27	33244.97
519.45	32762.82
519.62	33240.29
519.79	33329.23
519.96	33504.77
520.14	33387.74
520.31	33598.39
520.48	33350.29
520.65	33158.37
520.83	33893.30
521.00	33947.13
521.17	33846.49
521.34	33553.92
521.52	33972.88
521.69	33769.25
521.86	34253.74
522.03	33769.25
522.20	34581.42
522.38	34253.74
522.55	34319.28
522.72	34536.94
522.89	34017.35
523.07	34623.54
523.24	34335.66
523.41	34426.94
523.58	34644.61
523.75	34803.77
523.92	34923.13
524.10	35117.40
524.27	35206.34
524.44	35129.10
524.61	35182.93
524.78	35716.58
524.96	35400.60
525.13	35267.19
525.30	35487.20
525.47	35526.99
525.64	35620.61
525.81	35812.54
525.98	35314.00
526.16	35414.65
526.33	35428.69
526.50	35714.23
526.67	35557.42
526.84	35461.46
527.01	35447.41
527.18	35931.90
527.36	36278.30
527.53	35824.24
527.70	36397.67
527.87	36423.42
528.04	36037.23
528.21	36135.53
528.38	35969.35
528.55	36545.12
528.72	36154.26
528.89	36318.09
529.07	36547.47
529.24	36526.40
529.41	36638.75
529.58	36730.03
529.75	36505.34
529.92	37020.25
530.09	36898.55
530.26	36828.33
530.43	37069.40
530.60	36783.86
530.77	37223.88
530.94	37034.30
531.11	37418.14
531.28	37432.19
531.46	37486.02
531.63	37371.33
531.80	37724.75
531.97	37139.62
532.14	37081.11
532.31	37329.20
532.48	37638.15
532.65	38085.20
532.82	37801.99
532.99	37794.97
533.16	37745.82
533.33	37691.99
533.50	37769.22
533.67	37926.04
533.84	37628.79
534.01	37972.85
534.18	37970.51
534.35	38820.13
534.52	38092.22
534.69	38667.99
534.86	38354.36
535.03	38258.40
535.20	38305.21
535.37	39058.86
535.54	38382.45
535.71	38494.79
535.88	38586.07
536.05	38712.46
536.22	38588.41
536.38	38845.87
536.55	38923.11
536.72	38576.71
536.89	38820.13
537.06	38831.83
537.23	39079.92
537.40	38429.26
537.57	38841.19
537.74	38930.13
537.91	39377.17
538.08	39379.51
538.25	39026.09
538.42	39182.91
538.59	39049.50
538.75	38895.02
538.92	38967.58
539.09	39304.62
539.26	39508.24
539.43	39309.30
539.60	39065.88
539.77	39370.15
539.94	39360.79
540.11	39173.55
540.28	39725.91
540.44	39679.10
540.61	39608.89
540.78	39681.44
540.95	39428.66
541.12	39524.63
541.29	39758.68
541.46	39796.13
541.62	39599.52
541.79	40388.28
541.96	39777.40
542.13	39674.42
542.30	40280.62
542.47	40034.86
542.63	39992.73
542.80	40374.24
542.97	40587.23
543.14	40840.01
543.31	40629.36
543.48	41214.49
543.64	41120.87
543.81	41060.02
543.98	40861.07
544.15	41097.47
544.32	40421.05
544.48	41118.53
544.65	40975.76
544.82	40872.78
544.99	40722.98
545.16	40987.46
545.32	40655.11
545.49	41357.27
545.66	41064.70
545.83	41163.00
546.00	41074.06
546.16	41350.24
546.33	40872.78
546.50	40861.07
546.67	41460.25
546.83	40973.42
547.00	41130.23
547.17	41001.50
547.34	41249.60
547.50	41153.64
547.67	41918.99
547.84	41483.66
548.00	42007.94
548.17	41364.29
548.34	41450.89
548.51	41930.70
548.67	42000.91
548.84	42021.98
549.01	42029.00
549.18	41811.33
549.34	42120.28
549.51	41827.71
549.68	42148.37
549.84	42284.12
550.01	42148.37
550.18	41904.95
550.34	42213.90
550.51	42038.36
550.68	41958.78
550.84	41607.70
551.01	42232.63
551.18	42108.58
551.34	42337.95
551.51	42192.84
551.68	42539.24
551.84	42225.60
552.01	41855.80
552.18	42485.40
552.34	42099.22
552.51	42302.84
552.68	42328.59
552.84	42506.47
553.01	42644.56
553.18	42417.53
553.34	42532.22
553.51	42024.32
553.67	42731.16
553.84	42602.43
554.01	42623.50
554.17	43093.94
554.34	42845.85
554.51	42487.74
554.67	42855.21
554.84	43267.14
555.00	42693.71
555.17	42997.98
555.33	43061.18
555.50	43107.99
555.67	43246.08
555.83	42986.28
556.00	43124.37
556.16	43496.52
556.33	43618.22
556.50	43091.60
556.66	43316.29
556.83	42810.74
556.99	43140.75
557.16	43283.53
557.32	43353.74
557.49	43299.91
557.65	42890.32
557.82	42813.08
557.98	43421.62
558.15	43054.15
558.32	43679.08
558.48	43374.81
558.65	43416.94
558.81	43555.03
558.98	43206.29
559.14	43311.61
559.31	43463.75
559.47	43353.74
559.64	43576.09
559.80	43852.28
559.97	43583.12
560.13	43388.85
560.30	42820.10
560.46	43775.04
560.63	43168.84
560.79	43800.79
560.96	44002.07
561.12	43718.87
561.29	43737.59
561.45	43538.65
561.61	43702.48
561.78	43929.51
561.94	43627.59
562.11	43880.36
562.27	43971.64
562.44	43845.26
562.60	44383.58
562.77	44231.44
562.93	43690.78
563.10	43948.24
563.26	44002.07
563.42	44013.77
563.59	44053.56
563.75	43894.41
563.92	43976.33
564.08	43763.34
564.24	44158.89
564.41	44076.97
564.57	43775.04
564.74	44002.07
564.90	44435.07
565.07	44013.77
565.23	43580.78
565.39	43920.15
565.56	43938.88
565.72	43716.53
565.88	43931.86
566.05	43536.30
566.21	43819.51
566.38	44039.52
566.54	44062.93
566.70	44224.42
566.87	44655.08
567.03	43955.26
567.19	44615.29
567.36	44123.78
567.52	44179.95
567.68	44662.10
567.85	44348.47
568.01	44622.31
568.17	44137.82
568.34	44467.84
568.50	44154.21
568.66	44212.72
568.83	44582.52
568.99	43887.39
569.15	44584.86
569.32	44020.80
569.48	44060.58
569.64	44261.87
569.81	44519.33
569.97	44088.67
570.13	43927.17
570.30	43871.00
570.46	44369.54
570.62	44357.83
570.78	43934.20
570.95	44516.99
571.11	44278.25
571.27	44456.14
571.43	44622.31
571.60	44783.81
571.76	44109.74
571.92	44484.22
572.09	44648.06
572.25	44425.71
572.41	44505.29
572.57	44341.45
572.74	44886.79
572.90	44767.43
573.06	44793.17
573.22	44619.97
573.38	44556.78
573.55	44322.72
573.71	44744.02
573.87	44341.45
574.03	44388.26
574.20	44619.97
574.36	44247.83
574.52	44619.97
574.68	44582.52
574.84	44755.72
575.01	44734.66
575.17	44830.62
575.33	44762.75
575.49	44519.33
575.65	44367.20
575.82	44898.50
575.98	44891.48
576.14	45008.50
576.30	44659.76
576.46	44339.11
576.62	44844.66
576.79	44563.80
576.95	44971.05
577.11	44561.46
577.27	44587.21
577.43	44832.96
577.59	44680.83
577.75	44828.28
577.92	44561.46
578.08	44247.83
578.24	44395.28
578.40	44528.69
578.56	44966.37
578.72	44385.92
578.88	44706.57
579.04	44776.79
579.21	44285.28
579.37	44589.55
579.53	44442.09
579.69	44332.09
579.85	44704.23
580.01	44664.44
580.17	45249.58
580.33	45013.18
580.49	44828.28
580.65	44753.38
580.82	44940.63
580.98	44547.42
581.14	44849.35
581.30	44732.32
581.46	45172.34
581.62	45013.18
581.78	45106.80
581.94	44828.28
582.10	44545.08
582.26	44795.51
582.42	44879.77
582.58	44793.17
582.74	44601.25
582.90	44793.17
583.06	45088.08
583.22	45038.93
583.38	45062.33
583.54	44797.85
583.70	44823.60
583.86	44783.81
584.02	44465.50
584.18	44985.10
584.34	44828.28
584.50	45118.51
584.66	44711.25
584.82	44755.72
584.98	44861.05
585.14	44999.14
585.30	44519.33
585.46	44973.39
585.62	44863.39
585.78	44545.08
585.94	44046.54
586.10	45015.52
586.26	44643.38
586.42	45132.55
586.58	44729.98
586.74	44795.51
586.90	45258.94
587.06	44746.36
587.22	44842.32
587.38	44893.82
587.54	45090.42
587.70	44832.96
587.86	45074.04
588.02	44744.02
588.18	45539.80
588.34	44938.29
588.49	44779.13
588.65	44823.60
588.81	44268.89
588.97	44390.60
589.13	44760.40
589.29	44954.67
589.45	44603.59
589.61	45038.93
589.77	45305.75
589.93	45024.89
590.08	44847.00
590.24	45322.13
