SpectraSuite Data File
++++++++++++++++++++++++++++++++++++
Date: Fri Oct 25 11:22:30 EDT 2013
User: price-jones
Dark Spectrum Present: No
Reference Spectrum Present: No
Number of Sampled Component Spectra: 1
Spectrometers: USB2+H05261
Integration Time (usec): 100000 (USB2+H05261)
Spectra Averaged: 1 (USB2+H05261)
Boxcar Smoothing: 0 (USB2+H05261)
Correct for Electrical Dark: No (USB2+H05261)
Strobe/Lamp Enabled: No (USB2+H05261)
Correct for Detector Non-linearity: No (USB2+H05261)
Correct for Stray Light: No (USB2+H05261)
Number of Pixels in Processed Spectrum: 2048
>>>>>Begin Processed Spectral Data<<<<<
365.73	166.18
365.92	166.18
366.12	166.18
366.32	107.66
366.52	107.66
366.72	184.90
366.91	154.48
367.11	112.35
367.31	95.96
367.51	128.73
367.70	154.48
367.90	77.24
368.10	91.28
368.30	131.07
368.49	86.60
368.69	189.58
368.89	100.64
369.09	63.19
369.28	154.48
369.48	140.43
369.68	152.13
369.87	184.90
370.07	194.26
370.27	205.97
370.47	337.04
370.66	629.60
370.86	692.80
371.06	636.63
371.25	669.39
371.45	622.58
371.65	688.12
371.84	634.29
372.04	716.20
372.24	718.54
372.44	725.57
372.63	723.23
372.83	788.76
373.03	737.27
373.22	763.01
373.42	760.67
373.62	767.70
373.81	800.46
374.01	833.23
374.21	835.57
374.40	856.64
374.60	889.40
374.79	821.53
374.99	793.44
375.19	851.96
375.38	844.93
375.58	837.91
375.78	861.32
375.97	788.76
376.17	912.81
376.37	863.66
376.56	863.66
376.76	854.30
376.95	894.08
377.15	870.68
377.35	908.13
377.54	847.27
377.74	971.32
377.93	940.90
378.13	919.83
378.33	968.98
378.52	1025.15
378.72	968.98
378.91	938.55
379.11	959.62
379.31	968.98
379.50	903.45
379.70	952.60
379.89	924.51
380.09	980.68
380.28	985.37
380.48	957.28
380.68	978.34
380.87	992.39
381.07	961.96
381.26	1069.62
381.46	999.41
381.65	964.30
381.85	1088.35
382.04	1121.12
382.24	990.05
382.43	999.41
382.63	1100.05
382.83	994.73
383.02	1078.99
383.22	976.00
383.41	1100.05
383.61	1116.44
383.80	1172.61
384.00	1036.86
384.19	1228.78
384.39	1200.69
384.58	1123.46
384.78	1238.14
384.97	1214.74
385.17	1156.22
385.36	1221.76
385.56	1041.54
385.75	1160.91
385.95	1235.80
386.14	1247.51
386.34	1153.88
386.53	1198.35
386.72	1254.53
386.92	1301.34
387.11	1174.95
387.31	1294.32
387.50	1186.65
387.70	1355.17
387.89	1238.14
388.09	1345.81
388.28	1296.66
388.48	1327.08
388.67	1247.51
388.86	1334.11
389.06	1308.36
389.25	1327.08
389.45	1411.34
389.64	1383.26
389.84	1439.43
390.03	1458.15
390.22	1329.42
390.42	1425.39
390.61	1373.89
390.81	1451.13
391.00	1486.24
391.19	1486.24
391.39	1455.81
391.58	1364.53
391.78	1362.19
391.97	1430.07
392.16	1490.92
392.36	1483.90
392.55	1460.49
392.75	1556.46
392.94	1554.12
393.13	1556.46
393.33	1533.05
393.52	1603.27
393.71	1502.62
393.91	1645.40
394.10	1547.09
394.29	1687.53
394.49	1629.01
394.68	1600.93
394.88	1584.54
395.07	1734.34
395.26	1612.63
395.46	1682.85
395.65	1750.72
395.84	1739.02
396.04	1743.70
396.23	1781.15
396.42	1755.40
396.62	1825.62
396.81	1870.09
397.00	1715.61
397.19	1884.13
397.39	1750.72
397.58	1795.19
397.77	1832.64
397.97	1926.26
398.16	1928.60
398.35	1944.99
398.55	1886.47
398.74	1856.04
398.93	1921.58
399.12	1937.96
399.32	1909.88
399.51	1930.94
399.70	2005.84
399.90	2062.01
400.09	2040.95
400.28	2146.27
400.47	1991.80
400.67	2076.06
400.86	2024.56
401.05	2069.03
401.24	2057.33
401.44	2200.10
401.63	2132.23
401.82	2129.89
402.01	2099.46
402.21	2148.61
402.40	2239.89
402.59	2162.66
402.78	2291.38
402.97	2237.55
403.17	2293.72
403.36	2279.68
403.55	2284.36
403.74	2251.60
403.93	2349.90
404.13	2340.54
404.32	2422.45
404.51	2438.84
404.70	2434.16
404.89	2469.27
405.09	2506.71
405.28	2495.01
405.47	2565.23
405.66	2616.72
405.85	2497.35
406.05	2551.18
406.24	2574.59
406.43	2511.39
406.62	2658.85
406.81	2686.94
407.00	2642.46
407.20	2569.91
407.39	2675.23
407.58	2595.65
407.77	2888.22
407.96	2719.70
408.15	2649.49
408.34	2773.53
408.54	2832.05
408.73	2850.77
408.92	2864.82
409.11	2979.50
409.30	2832.05
409.49	2970.14
409.68	3009.93
409.87	2850.77
410.07	2944.39
410.26	3096.53
410.45	3073.12
410.64	3028.65
410.83	3068.44
411.02	3096.53
411.21	3211.22
411.40	3199.51
411.59	3403.14
411.78	3068.44
411.98	3258.03
412.17	3124.62
412.36	3283.77
412.55	3309.52
412.74	3372.71
412.93	3449.95
413.12	3417.18
413.31	3653.58
413.50	3524.85
413.69	3550.59
413.88	3625.49
414.07	3651.24
414.26	3684.00
414.45	3765.92
414.64	3588.04
414.83	3721.45
415.02	3824.44
415.22	3815.07
415.41	3969.55
415.60	3995.29
415.79	3901.67
415.98	4063.17
416.17	3932.10
416.36	4028.06
416.55	4163.81
416.74	4002.32
416.93	4182.54
417.12	4091.26
417.31	4203.60
417.50	4163.81
417.69	4212.96
417.88	4283.18
418.07	4229.35
418.26	4339.35
418.45	4351.06
418.64	4552.34
418.83	4526.60
419.02	4374.46
419.21	4542.98
419.39	4638.94
419.58	4610.86
419.77	4526.60
419.96	4578.09
420.15	4678.73
420.34	4699.80
420.53	4667.03
420.72	4744.27
420.91	4711.50
421.10	4889.38
421.29	4819.16
421.48	4851.93
421.67	4762.99
421.86	4849.59
422.05	4966.62
422.24	4734.90
422.43	4854.27
422.61	4933.85
422.80	4961.94
422.99	5022.79
423.18	5015.77
423.37	4971.30
423.56	5006.41
423.75	5046.20
423.94	4858.95
424.13	4573.41
424.32	4664.69
424.50	5001.72
424.69	5041.51
424.88	5093.01
425.07	4908.10
425.26	5018.11
425.45	4929.17
425.64	4908.10
425.83	4999.38
426.01	5203.01
426.20	5146.84
426.39	5095.35
426.58	5013.43
426.77	5198.33
426.96	5104.71
427.15	5203.01
427.33	5273.23
427.52	5212.37
427.71	5291.95
427.90	5308.34
428.09	5282.59
428.28	5320.04
428.46	5303.65
428.65	5420.68
428.84	5521.32
429.03	5561.11
429.22	5350.46
429.40	5511.96
429.59	5530.69
429.78	5291.95
429.97	5327.06
430.16	5603.24
430.34	5682.82
430.53	5666.44
430.72	5753.04
430.91	5708.57
431.10	5710.91
431.28	5664.10
431.47	5912.19
431.66	5856.02
431.85	5823.25
432.03	5912.19
432.22	6017.52
432.41	6043.26
432.60	6059.65
432.79	6045.60
432.97	5998.79
433.16	5961.34
433.35	6029.22
433.54	6099.44
433.72	6174.33
433.91	6270.30
434.10	6064.33
434.28	6143.91
434.47	6209.44
434.66	6195.40
434.85	6476.26
435.03	6384.98
435.22	6377.96
435.41	6548.82
435.59	6354.55
435.78	6324.13
435.97	6574.56
436.16	6502.01
436.34	6626.06
436.53	6541.80
436.72	6801.60
436.90	6621.38
437.09	6560.52
437.28	6413.07
437.46	6562.86
437.65	6663.51
437.84	6810.96
438.02	6836.70
438.21	6820.32
438.40	6834.36
438.58	6930.33
438.77	7157.36
438.96	6878.83
439.14	7143.32
439.33	7166.72
439.52	7126.93
439.70	7290.77
439.89	7438.22
440.08	7349.28
440.26	7346.94
440.45	7468.65
440.63	7618.44
440.82	7604.40
441.01	7679.30
441.19	7728.45
441.38	7751.85
441.57	7676.96
441.75	7775.26
441.94	7971.86
442.12	8013.99
442.31	8112.30
442.50	7990.59
442.68	8021.02
442.87	7892.29
443.05	8201.24
443.24	8264.43
443.43	8444.65
443.61	8463.38
443.80	8599.13
443.98	8100.59
444.17	8021.02
444.35	8355.71
444.54	8557.00
444.73	8379.12
444.91	8472.74
445.10	8313.58
445.28	8414.23
445.47	8046.76
445.65	8461.04
445.84	8531.25
446.02	8566.36
446.21	8435.29
446.39	8545.30
446.58	8557.00
446.77	8664.66
446.95	8510.19
447.14	8500.83
447.32	8781.69
447.51	8725.52
447.69	8510.19
447.88	8610.83
448.06	8575.72
448.25	8622.53
448.43	8765.31
448.62	8540.61
448.80	8517.21
448.99	8863.61
449.17	8826.16
449.36	8847.22
449.54	8987.66
449.73	9013.40
449.91	9149.15
450.10	9207.67
450.28	9034.47
450.46	9212.35
450.65	9163.20
450.83	9163.20
451.02	9254.48
451.20	9280.22
451.39	9301.29
451.57	9188.94
451.76	9097.66
451.94	9280.22
452.13	9289.59
452.31	9425.34
452.49	9444.06
452.68	9399.59
452.86	9434.70
453.05	9610.24
453.23	9584.49
453.42	9415.98
453.60	9607.90
453.78	9600.88
453.97	9387.89
454.15	9514.28
454.34	9383.21
454.52	9603.22
454.70	9743.65
454.89	9891.10
455.07	9884.08
455.26	9954.30
455.44	10078.35
455.62	9902.81
455.81	9685.14
455.99	10232.82
456.17	10113.45
456.36	10272.61
456.54	10221.12
456.73	10244.52
456.91	10408.36
457.09	10684.55
457.28	10455.17
457.46	10443.47
457.64	10483.26
457.83	10469.22
458.01	10466.88
458.19	10890.51
458.38	10693.91
458.56	10888.17
458.74	10911.58
458.93	10832.00
459.11	10899.87
459.29	10998.18
459.48	10897.53
459.66	11014.56
459.84	11169.04
460.03	11073.07
460.21	11159.67
460.39	10986.47
460.57	10995.84
460.76	11279.04
460.94	11316.49
461.12	10906.90
461.31	11452.24
461.49	11272.02
461.67	11398.41
461.85	11566.93
462.04	11405.43
462.22	11599.70
462.40	11676.93
462.59	11681.61
462.77	11564.59
462.95	11648.85
463.13	11833.75
463.32	11751.83
463.50	11868.86
463.68	11772.89
463.86	12053.76
464.05	11840.77
464.23	12025.67
464.41	11793.96
464.59	11756.51
464.78	12138.02
464.96	12201.21
465.14	11768.21
465.32	12140.36
465.50	12201.21
465.69	12367.39
465.87	12198.87
466.05	12123.98
466.23	12329.94
466.41	12400.16
466.60	12681.02
466.78	12517.18
466.96	12386.12
467.14	12493.78
467.32	12449.31
467.51	12905.71
467.69	12264.41
467.87	12571.02
468.05	12812.09
468.23	12540.59
468.41	12444.63
468.60	12744.22
468.78	12847.20
468.96	12762.94
469.14	12952.52
469.32	13034.44
469.50	12786.35
469.69	13139.77
469.87	13200.62
470.05	13371.48
470.23	13350.42
470.41	13188.92
470.59	13666.39
470.77	13219.35
470.95	13532.98
471.14	13509.57
471.32	13158.49
471.50	13628.94
471.68	13652.34
471.86	13528.30
472.04	13919.17
472.22	13886.40
472.40	13874.70
472.58	13853.63
472.77	14087.68
472.95	14235.14
473.13	14581.54
473.31	14286.63
473.49	14295.99
473.67	14354.51
473.85	14359.19
474.03	14696.22
474.21	14698.56
474.39	14724.31
474.57	14649.41
474.75	15021.56
474.93	15164.33
475.12	14974.75
475.30	15473.28
475.48	15180.71
475.66	15248.59
475.84	15262.63
476.02	15737.76
476.20	15812.66
476.38	15569.24
476.56	16224.59
476.74	16320.56
476.92	15939.05
477.10	15786.91
477.28	16180.12
477.46	16222.25
477.64	16411.84
477.82	16767.60
478.00	17123.36
478.18	16947.82
478.36	16901.01
478.54	17277.83
478.72	17252.09
478.90	17539.97
479.08	17657.00
479.26	17928.50
479.44	17958.93
479.62	17996.38
479.80	18335.76
479.98	18342.78
480.16	18890.46
480.34	18539.38
480.52	18874.08
480.70	18799.18
480.88	18597.90
481.06	18967.70
481.24	18824.93
481.41	19056.64
481.59	19641.78
481.77	19651.14
481.95	19660.50
482.13	20016.26
482.31	20046.69
482.49	20194.14
482.67	20552.24
482.85	20702.04
483.03	20917.37
483.21	21055.46
483.39	21291.85
483.57	21231.00
483.74	21408.88
483.92	21507.18
484.10	21401.86
484.28	22132.11
484.46	21984.65
484.64	22410.63
484.82	22202.32
485.00	22548.72
485.18	22735.96
485.35	23166.62
485.53	23122.15
485.71	23281.31
485.89	23639.41
486.07	23681.54
486.25	23517.70
486.43	24051.34
486.61	24156.67
486.78	24299.44
486.96	24624.78
487.14	24889.26
487.32	24589.67
487.50	25067.14
487.68	25083.52
487.85	25619.50
488.03	25586.74
488.21	25783.34
488.39	26361.45
488.57	26162.51
488.75	26148.46
488.92	26780.41
489.10	26991.06
489.28	27178.30
489.46	27718.96
489.64	27468.53
489.81	28044.30
489.99	28154.30
490.17	27892.16
490.35	28336.87
490.53	28439.85
490.70	28470.28
490.88	28341.55
491.06	28828.38
491.24	28882.21
491.41	29455.64
491.59	29549.26
491.77	29523.52
491.95	29584.37
492.13	30026.73
492.30	30429.30
492.48	30188.23
492.66	30625.91
492.84	30646.97
493.01	30955.93
493.19	30976.99
493.37	31353.82
493.54	31349.14
493.72	31702.56
493.90	31756.39
494.08	32280.67
494.25	32603.66
494.43	32100.45
494.61	32849.42
494.79	33078.79
494.96	32804.95
495.14	33132.62
495.32	33507.11
495.49	33617.11
495.67	33743.50
495.85	33860.53
496.02	33916.70
496.20	34003.30
496.38	34778.02
496.55	34328.64
496.73	35051.86
496.91	34623.54
497.09	34946.54
497.26	35321.02
497.44	35129.10
497.62	36027.87
497.79	35969.35
497.97	36376.61
498.14	36259.58
498.32	36219.79
498.50	36907.91
498.67	36879.82
498.85	36868.12
499.03	37500.06
499.20	37235.58
499.38	37205.16
499.56	37502.40
499.73	37710.71
499.91	37586.66
500.08	38534.58
500.26	38022.00
500.44	37715.39
500.61	38401.17
500.79	37687.31
500.97	38263.08
501.14	39304.62
501.32	39082.27
501.49	39140.78
501.67	39040.14
501.84	39428.66
502.02	39194.61
502.20	39152.48
502.37	39826.56
502.55	39658.04
502.72	39714.21
502.90	40212.74
503.07	39716.55
503.25	40194.02
503.43	40062.95
503.60	40112.10
503.78	40706.60
503.95	40683.19
504.13	40898.52
504.30	40968.74
504.48	40811.92
504.65	41067.04
504.83	41375.99
505.01	41422.80
505.18	41617.07
505.36	41926.02
505.53	41750.48
505.71	42108.58
505.88	41605.36
506.06	41759.84
506.23	42595.41
506.41	42218.58
506.58	42773.29
506.76	42497.11
506.93	42677.33
507.11	42887.98
507.28	42904.36
507.46	42644.56
507.63	43426.30
507.81	43548.01
507.98	42927.77
508.16	43681.42
508.33	43339.70
508.50	43927.17
508.68	43962.28
508.85	44570.82
509.03	44685.51
509.20	44369.54
509.38	44657.42
509.55	44488.90
509.73	44521.67
509.90	45029.57
510.08	44914.88
510.25	44634.02
510.42	45457.88
510.60	45507.04
510.77	45563.21
510.95	45492.99
511.12	45326.81
511.30	45900.25
511.47	45808.96
511.64	45897.91
511.82	46478.36
511.99	46272.39
512.17	46349.63
512.34	46113.23
512.51	46600.07
512.69	46679.64
512.86	46754.54
513.04	46787.31
513.21	46777.95
513.38	47313.93
513.56	47096.26
513.73	47281.16
513.90	47421.59
514.08	47576.07
514.25	47278.82
514.43	47672.03
514.60	47995.03
514.77	47672.03
514.95	47971.62
515.12	47880.34
515.29	47997.37
515.47	48559.09
515.64	48282.91
515.81	48140.14
515.99	48807.19
516.16	48839.96
516.33	48797.83
516.51	49249.55
516.68	49013.16
516.85	49050.61
517.03	49181.68
517.20	49034.22
517.37	48966.35
517.54	49013.16
517.72	49205.08
517.89	49380.62
518.06	49331.47
518.24	49567.87
518.41	49741.06
518.58	49825.32
518.75	49579.57
518.93	50082.78
519.10	49783.19
519.27	50230.24
519.45	50143.64
519.62	50368.33
519.79	50410.46
519.96	50148.32
520.14	50490.04
520.31	50616.43
520.48	50698.34
520.65	50864.52
520.83	51199.22
521.00	51100.92
521.17	50995.59
521.34	50798.99
521.52	51208.58
521.69	50974.53
521.86	51140.71
522.03	51564.34
522.20	51812.44
522.38	51803.08
522.55	51641.58
522.72	51550.30
522.89	51704.77
523.07	51910.74
523.24	51824.14
523.41	52067.56
523.58	52025.43
523.75	52226.71
523.92	52055.85
524.10	51971.60
524.27	52292.25
524.44	52561.41
524.61	52683.12
524.78	52360.12
524.96	52463.11
525.13	52680.78
525.30	52729.93
525.47	52786.10
525.64	52678.44
525.81	52758.02
525.98	52999.09
526.16	52886.74
526.33	53198.04
526.50	53460.18
526.67	52769.72
526.84	53123.14
527.01	53085.69
527.18	53064.63
527.36	53460.18
527.53	53237.83
527.70	53631.04
527.87	53633.38
528.04	53195.70
528.21	53593.59
528.38	53422.73
528.55	53928.28
528.72	53389.96
528.89	53652.10
529.07	53705.93
529.24	53666.14
529.41	54312.13
529.58	53900.20
529.75	53853.39
529.92	53792.53
530.09	54330.86
530.26	54354.26
530.43	54209.15
530.60	53921.26
530.77	54265.32
530.94	54653.85
531.11	54326.17
531.28	54344.90
531.46	54742.79
531.63	54527.46
531.80	54534.48
531.97	54887.90
532.14	54805.98
532.31	54672.57
532.48	54901.95
532.65	55011.95
532.82	54768.54
532.99	54927.69
533.16	54951.10
533.33	54953.44
533.50	55126.64
533.67	54969.82
533.84	55065.78
534.01	55271.75
534.18	55201.53
534.35	55821.78
534.52	55421.55
534.69	55440.27
534.86	55550.27
535.03	55405.16
535.20	55449.63
535.37	55536.23
535.54	55725.81
535.71	55636.87
535.88	55489.42
536.05	55742.20
536.22	55774.97
536.38	55763.26
536.55	55671.98
536.72	55660.28
536.89	55770.28
537.06	55950.51
537.23	56046.47
537.40	55854.54
537.57	56058.17
537.74	56327.33
537.91	56252.44
538.08	56261.80
538.25	55894.33
538.42	56184.56
538.59	56364.78
538.75	56245.41
538.92	56332.01
539.09	56463.08
539.26	56292.22
539.43	56299.25
539.60	56491.17
539.77	56271.16
539.94	56741.61
540.11	56800.12
540.28	56563.73
540.44	56680.75
540.61	56566.07
540.78	56640.96
540.95	56507.55
541.12	56647.99
541.29	56938.21
541.46	56685.43
541.62	56970.98
541.79	56788.42
541.96	56488.83
542.13	56701.82
542.30	56912.47
542.47	57148.86
542.63	57165.24
542.80	57059.92
542.97	57333.76
543.14	57408.66
543.31	57361.85
543.48	57558.45
543.64	57733.99
543.81	57411.00
543.98	57509.30
544.15	57553.77
544.32	57539.73
544.48	57661.44
544.65	57654.42
544.82	57607.61
544.99	57322.06
545.16	57820.59
545.32	57881.45
545.49	57865.06
545.66	57956.35
545.83	57874.43
546.00	57925.92
546.16	57923.58
546.33	57698.89
546.50	57593.56
546.67	57951.66
546.83	57588.88
547.00	58145.93
547.17	58131.89
547.34	58054.65
547.50	58274.66
547.67	58148.27
547.84	58251.25
548.00	58431.47
548.17	58394.03
548.34	58141.25
548.51	58440.84
548.67	58464.24
548.84	58351.90
549.01	58344.87
549.18	58459.56
549.34	58468.92
549.51	58431.47
549.68	58489.99
549.84	58543.82
550.01	58735.74
550.18	58365.94
550.34	58578.93
550.51	58745.11
550.68	58775.53
550.84	58398.71
551.01	58899.58
551.18	58815.32
551.34	58796.60
551.51	58791.92
551.68	58829.37
551.84	58794.26
552.01	58927.67
552.18	58927.67
552.34	58782.55
552.51	58993.20
552.68	59009.59
552.84	58979.16
553.01	59199.17
553.18	59110.23
553.34	59320.88
553.51	58922.99
553.67	58915.96
553.84	59161.72
554.01	59201.51
554.17	59068.10
554.34	59372.37
554.51	59381.73
554.67	59351.30
554.84	59295.13
555.00	59334.92
555.17	58908.94
555.33	59327.90
555.50	59161.72
555.67	59217.89
555.83	59339.60
556.00	59372.37
556.16	59791.33
556.33	59629.83
556.50	59407.48
556.66	59344.28
556.83	59566.63
556.99	59594.72
557.16	59653.23
557.32	59781.96
557.49	59856.86
557.65	59660.26
557.82	59531.53
557.98	59578.34
558.15	59695.36
558.32	59770.26
558.48	59585.36
558.65	59714.09
558.81	59788.98
558.98	59767.92
559.14	59962.18
559.31	59805.37
559.47	60107.30
559.64	59861.54
559.80	59950.48
559.97	60006.65
560.13	59765.58
560.30	60037.08
560.46	59711.75
560.63	59943.46
560.79	60170.49
560.96	60100.28
561.12	60030.06
561.29	60158.79
561.45	60189.22
561.61	60221.98
561.78	59884.95
561.94	60144.75
562.11	60067.51
562.27	59976.23
562.44	59985.59
562.60	60168.15
562.77	60219.64
562.93	60027.72
563.10	60140.07
563.26	59927.08
563.42	60500.51
563.59	60025.38
563.75	59983.25
563.92	60226.66
564.08	60034.74
564.24	60350.71
564.41	60282.84
564.57	60205.60
564.74	60310.92
564.90	60416.25
565.07	60271.14
565.23	60317.95
565.39	60313.26
565.56	60280.50
565.72	60374.12
565.88	60313.26
566.05	60355.39
566.21	60367.10
566.38	60441.99
566.54	60547.32
566.70	60748.60
566.87	60683.07
567.03	60566.04
567.19	60664.35
567.36	60413.91
567.52	60676.05
567.68	60619.88
567.85	60587.11
568.01	60659.66
568.17	60465.40
568.34	60659.66
568.50	60582.43
568.66	60509.87
568.83	60467.74
568.99	60514.55
569.15	60690.09
569.32	60734.56
569.48	60615.19
569.64	60640.94
569.81	60659.66
569.97	60495.83
570.13	60561.36
570.30	60465.40
570.46	60662.00
570.62	60713.50
570.78	60741.58
570.95	60617.53
571.11	60781.37
571.27	60720.52
571.43	60713.50
571.60	61155.86
571.76	60788.39
571.92	60863.29
572.09	60793.07
572.25	60898.40
572.41	60860.95
572.57	60797.76
572.74	61036.49
572.90	60790.73
573.06	60772.01
573.22	60697.11
573.38	60935.85
573.55	60772.01
573.71	61062.24
573.87	60867.97
574.03	60722.86
574.20	60877.33
574.36	61029.47
574.52	60839.89
574.68	60956.91
574.84	60884.36
575.01	61017.77
575.17	60900.74
575.33	61041.17
575.49	61050.53
575.65	60961.59
575.82	61083.30
575.98	60968.61
576.14	61205.01
576.30	61085.64
576.46	61087.98
576.62	60907.76
576.79	60781.37
576.95	60830.52
577.11	60919.46
577.27	61162.88
577.43	60917.12
577.59	60776.69
577.75	61087.98
577.92	60907.76
578.08	60956.91
578.24	61029.47
578.40	61036.49
578.56	61265.86
578.72	61036.49
578.88	61186.28
579.04	61282.25
579.21	61031.81
579.37	61186.28
579.53	61190.97
579.69	61013.08
579.85	61057.56
580.01	61132.45
580.17	60912.44
580.33	61034.15
580.49	61235.44
580.65	61256.50
580.82	61200.33
580.98	61076.28
581.14	61064.58
581.30	61169.90
581.46	61333.74
581.62	61113.73
581.78	61118.41
581.94	61069.26
582.10	61111.39
582.26	61050.53
582.42	61144.16
582.58	61153.52
582.74	61141.81
582.90	61312.67
583.06	61212.03
583.22	60842.23
583.38	61235.44
583.54	61279.91
583.70	61258.84
583.86	61212.03
584.02	61179.26
584.18	61116.07
584.34	61186.28
584.50	61085.64
584.66	61090.32
584.82	61045.85
584.98	61389.91
585.14	61188.63
585.30	61141.81
585.46	61219.05
585.62	61167.56
585.78	61389.91
585.94	61190.97
586.10	61066.92
586.26	61263.52
586.42	61315.01
586.58	61242.46
586.74	61172.24
586.90	61186.28
587.06	61209.69
587.22	61495.24
587.38	61329.06
587.54	61464.81
587.70	61439.06
587.86	61293.95
588.02	61399.27
588.18	61457.79
588.34	61385.23
588.49	61305.65
