SpectraSuite Data File
++++++++++++++++++++++++++++++++++++
Date: Fri Oct 25 10:44:19 EDT 2013
User: price-jones
Dark Spectrum Present: No
Reference Spectrum Present: No
Number of Sampled Component Spectra: 1
Spectrometers: USB2+H05261
Integration Time (usec): 100000 (USB2+H05261)
Spectra Averaged: 1 (USB2+H05261)
Boxcar Smoothing: 0 (USB2+H05261)
Correct for Electrical Dark: No (USB2+H05261)
Strobe/Lamp Enabled: No (USB2+H05261)
Correct for Detector Non-linearity: No (USB2+H05261)
Correct for Stray Light: No (USB2+H05261)
Number of Pixels in Processed Spectrum: 2048
>>>>>Begin Processed Spectral Data<<<<<
365.73	145.11
365.92	145.11
366.12	145.11
366.32	9.36
366.52	28.09
366.72	30.43
366.91	46.81
367.11	0.00
367.31	28.09
367.51	44.47
367.70	35.11
367.90	0.00
368.10	0.00
368.30	25.75
368.49	0.00
368.69	46.81
368.89	44.47
369.09	81.92
369.28	102.98
369.48	56.17
369.68	60.85
369.87	32.77
370.07	88.94
370.27	128.73
370.47	177.88
370.66	360.44
370.86	402.57
371.06	465.77
371.25	388.53
371.45	489.17
371.65	435.34
371.84	451.72
372.04	517.26
372.24	543.00
372.44	503.22
372.63	475.13
372.83	489.17
373.03	526.62
373.22	554.71
373.42	550.03
373.62	578.11
373.81	524.28
374.01	559.39
374.21	531.30
374.40	601.52
374.60	528.96
374.79	550.03
374.99	599.18
375.19	589.82
375.38	669.39
375.58	592.16
375.78	648.33
375.97	660.03
376.17	669.39
376.37	671.73
376.56	657.69
376.76	531.30
376.95	678.76
377.15	638.97
377.35	603.86
377.54	671.73
377.74	615.56
377.93	636.63
378.13	592.16
378.33	683.44
378.52	695.14
378.72	697.48
378.91	655.35
379.11	723.23
379.31	655.35
379.50	716.20
379.70	709.18
379.89	751.31
380.09	774.72
380.28	671.73
380.48	746.63
380.68	802.80
380.87	739.61
381.07	685.78
381.26	795.78
381.46	751.31
381.65	685.78
381.85	648.33
382.04	746.63
382.24	772.38
382.43	758.33
382.63	674.07
382.83	844.93
383.02	716.20
383.22	784.08
383.41	784.08
383.61	737.27
383.80	734.93
384.00	793.44
384.19	730.25
384.39	802.80
384.58	772.38
384.78	847.27
384.97	812.17
385.17	732.59
385.36	777.06
385.56	727.91
385.75	828.55
385.95	802.80
386.14	821.53
386.34	748.97
386.53	880.04
386.72	849.61
386.92	802.80
387.11	891.74
387.31	929.19
387.50	889.40
387.70	908.13
387.89	884.72
388.09	915.15
388.28	964.30
388.48	1027.50
388.67	959.62
388.86	915.15
389.06	964.30
389.25	936.21
389.45	940.90
389.64	971.32
389.84	898.77
390.03	976.00
390.22	1041.54
390.42	1004.09
390.61	1081.33
390.81	1020.47
391.00	1060.26
391.19	992.39
391.39	1036.86
391.58	1128.14
391.78	1118.78
391.97	1013.45
392.16	1018.13
392.36	1022.81
392.55	971.32
392.75	1090.69
392.94	985.37
393.13	985.37
393.33	1011.11
393.52	1036.86
393.71	1139.84
393.91	1067.28
394.10	1130.48
394.29	1226.44
394.49	1221.76
394.68	1331.76
394.88	1291.98
395.07	1249.85
395.26	1242.82
395.46	1268.57
395.65	1205.38
395.84	1153.88
396.04	1291.98
396.23	1196.01
396.42	1226.44
396.62	1212.40
396.81	1224.10
397.00	1320.06
397.19	1266.23
397.39	1261.55
397.58	1458.15
397.77	1399.64
397.97	1451.13
398.16	1441.77
398.35	1467.52
398.55	1561.14
398.74	1523.69
398.93	1514.33
399.12	1556.46
399.32	1547.09
399.51	1589.22
399.70	1514.33
399.90	1619.65
400.09	1600.93
400.28	1568.16
400.47	1675.82
400.67	1722.63
400.86	1685.19
401.05	1729.66
401.24	1792.85
401.44	1748.38
401.63	1680.50
401.82	1849.02
402.01	1741.36
402.21	1797.53
402.40	1795.19
402.59	1743.70
402.78	1790.51
402.97	1785.83
403.17	1860.73
403.36	1909.88
403.55	1870.09
403.74	1898.17
403.93	1926.26
404.13	1806.89
404.32	1928.60
404.51	1975.41
404.70	1998.82
404.89	1987.11
405.09	2052.65
405.28	1966.05
405.47	1952.01
405.66	2062.01
405.85	1937.96
406.05	1942.64
406.24	2092.44
406.43	2073.71
406.62	2134.57
406.81	2148.61
407.00	2097.12
407.20	2132.23
407.39	2251.60
407.58	2101.80
407.77	2230.53
407.96	2310.11
408.15	2157.97
408.34	2298.41
408.54	2349.90
408.73	2356.92
408.92	2356.92
409.11	2345.22
409.30	2328.83
409.49	2230.53
409.68	2260.96
409.87	2375.64
410.07	2347.56
410.26	2476.29
410.45	2523.10
410.64	2520.76
410.83	2499.69
411.02	2583.95
411.21	2691.62
411.40	2621.40
411.59	2628.42
411.78	2747.79
411.98	2708.00
412.17	2775.88
412.36	2642.46
412.55	2710.34
412.74	2782.90
412.93	2815.66
413.12	2738.43
413.31	2949.08
413.50	2925.67
413.69	2932.69
413.88	3002.91
414.07	2899.92
414.26	3038.02
414.45	2977.16
414.64	3103.55
414.83	3047.38
415.02	3129.30
415.22	3133.98
415.41	3176.11
415.60	3215.90
415.79	3253.34
415.98	3349.31
416.17	3363.35
416.36	3265.05
416.55	3342.28
416.74	3414.84
416.93	3253.34
417.12	3386.76
417.31	3403.14
417.50	3522.51
417.69	3609.11
417.88	3503.78
418.07	3562.30
418.26	3552.93
418.45	3508.46
418.64	3632.51
418.83	3630.17
419.02	3571.66
419.21	3679.32
419.39	3705.07
419.58	3604.42
419.77	3681.66
419.96	3723.79
420.15	3763.58
420.34	3733.15
420.53	3810.39
420.72	3927.42
420.91	3901.67
421.10	3925.08
421.29	4018.70
421.48	3852.52
421.67	4025.72
421.86	3920.40
422.05	3957.85
422.24	3985.93
422.43	3819.75
422.61	3950.82
422.80	3955.51
422.99	4074.87
423.18	4014.02
423.37	4070.19
423.56	3918.06
423.75	4131.05
423.94	3925.08
424.13	3672.30
424.32	3709.75
424.50	4035.08
424.69	4205.94
424.88	4053.81
425.07	4046.79
425.26	3967.21
425.45	4007.00
425.64	3997.64
425.83	4081.89
426.01	4236.37
426.20	4245.73
426.39	4044.45
426.58	4107.64
426.77	3992.95
426.96	4198.92
427.15	3997.64
427.33	4102.96
427.52	4236.37
427.71	4112.32
427.90	4219.99
428.09	4198.92
428.28	4280.84
428.46	4332.33
428.65	4308.93
428.84	4236.37
429.03	4278.50
429.22	4095.94
429.40	4222.33
429.59	4166.15
429.78	3974.23
429.97	3852.52
430.16	4107.64
430.34	4117.00
430.53	4119.34
430.72	4339.35
430.91	4327.65
431.10	4496.17
431.28	4575.75
431.47	4664.69
431.66	4870.65
431.85	4643.62
432.03	4676.39
432.22	4784.06
432.41	4711.50
432.60	4814.48
432.79	4648.30
432.97	4793.42
433.16	4936.19
433.35	4669.37
433.54	4858.95
433.72	4851.93
433.91	4863.63
434.10	4926.83
434.28	4758.31
434.47	4875.34
434.66	4987.68
434.85	5125.77
435.03	5167.90
435.22	5004.07
435.41	5238.12
435.59	5181.95
435.78	5123.43
435.97	5331.74
436.16	5334.08
436.34	5275.57
436.53	5177.26
436.72	5537.71
436.90	5125.77
437.09	5219.39
437.28	5163.22
437.46	5266.21
437.65	5245.14
437.84	5224.08
438.02	5252.16
438.21	5301.31
438.40	5224.08
438.58	5493.24
438.77	5500.26
438.96	5488.56
439.14	5631.33
439.33	5891.13
439.52	5743.67
439.70	5757.72
439.89	5849.00
440.08	5888.79
440.26	5753.04
440.45	5930.92
440.63	5984.75
440.82	6291.36
441.01	6097.10
441.19	5944.96
441.38	6253.91
441.57	6045.60
441.75	6326.47
441.94	6286.68
442.12	6319.45
442.31	6434.13
442.50	6296.04
442.68	6324.13
442.87	6406.05
443.05	6321.79
443.24	6710.32
443.43	6551.16
443.61	6654.14
443.80	6764.15
443.98	6457.54
444.17	6359.24
444.35	6691.59
444.54	6768.83
444.73	6565.20
444.91	6541.80
445.10	6700.95
445.28	6565.20
445.47	6569.88
445.65	6717.34
445.84	6569.88
446.02	6600.31
446.21	6621.38
446.39	6789.89
446.58	6832.02
446.77	6766.49
446.95	6745.42
447.14	6956.07
447.32	6757.13
447.51	6839.05
447.69	6923.30
447.88	6857.77
448.06	6740.74
448.25	6857.77
448.43	6799.26
448.62	6848.41
448.80	6815.64
448.99	7075.44
449.17	6963.09
449.36	6822.66
449.54	7026.29
449.73	7229.91
449.91	7272.04
450.10	7335.24
450.28	7349.28
450.46	7382.05
450.65	7279.07
450.83	7365.67
451.02	7370.35
451.20	7433.54
451.39	7220.55
451.57	7445.24
451.76	7370.35
451.94	7424.18
452.13	7705.04
452.31	7412.48
452.49	7206.51
452.68	7454.61
452.86	7412.48
453.05	7396.09
453.23	7602.06
453.42	7419.50
453.60	7485.03
453.78	7524.82
453.97	7545.89
454.15	7641.85
454.34	7606.74
454.52	7700.36
454.70	7555.25
454.89	7756.54
455.07	7660.57
455.26	7763.56
455.44	7815.05
455.62	7829.09
455.81	7911.01
455.99	7887.61
456.17	8231.66
456.36	8063.15
456.54	8245.71
456.73	8184.85
456.91	8444.65
457.09	8187.19
457.28	8344.01
457.46	8116.98
457.64	8215.28
457.83	8077.19
458.01	8327.63
458.19	8320.60
458.38	8264.43
458.56	8402.52
458.74	8367.42
458.93	8463.38
459.11	8315.92
459.29	8470.40
459.48	8582.74
459.66	8659.98
459.84	8549.98
460.03	8805.10
460.21	8741.90
460.39	8493.80
460.57	8784.03
460.76	8571.04
460.94	8826.16
461.12	8961.91
461.31	8830.84
461.49	8872.97
461.67	8884.67
461.85	8947.87
462.04	8856.59
462.22	9245.12
462.40	9364.48
462.59	9158.52
462.77	9179.58
462.95	8929.14
463.13	9165.54
463.32	9247.46
463.50	9149.15
463.68	9305.97
463.86	9210.01
464.05	9046.17
464.23	9184.26
464.41	9207.67
464.59	9083.62
464.78	9401.93
464.96	9259.16
465.14	9198.31
465.32	9425.34
465.50	9404.27
465.69	9724.93
465.87	9373.85
466.05	9619.60
466.23	9577.47
466.41	9320.01
466.60	9654.71
466.78	9291.93
466.96	9486.19
467.14	9467.47
467.32	9584.49
467.51	9659.39
467.69	9710.88
467.87	9521.30
468.05	9820.89
468.23	9540.02
468.41	9600.88
468.60	9701.52
468.78	9694.50
468.96	9753.01
469.14	9802.16
469.32	10139.20
469.50	9745.99
469.69	9790.46
469.87	10073.67
470.05	9956.64
470.23	9909.83
470.41	10071.33
470.59	10246.87
470.77	10293.68
470.95	10181.33
471.14	10384.96
471.32	10188.35
471.50	10567.52
471.68	10462.19
471.86	10452.83
472.04	10548.79
472.22	10857.75
472.40	10459.85
472.58	10616.67
472.77	10778.17
472.95	10663.48
473.13	11056.69
473.31	10780.51
473.49	10719.65
473.67	10953.71
473.85	10867.11
474.03	11061.37
474.21	11080.10
474.39	11255.64
474.57	11154.99
474.75	11283.72
474.93	11438.20
475.12	11400.75
475.30	11569.27
475.48	11510.75
475.66	11524.80
475.84	11318.83
476.02	11613.74
476.20	11817.36
476.38	11871.20
476.56	12346.33
476.74	11927.37
476.92	12095.89
477.10	12327.60
477.28	12252.70
477.46	12468.03
477.64	12512.50
477.82	12556.97
478.00	12816.77
478.18	12748.90
478.36	12695.07
478.54	12905.71
478.72	12870.61
478.90	13167.85
479.08	13355.10
479.26	13303.60
479.44	13308.29
479.62	13476.80
479.80	13514.25
479.98	13645.32
480.16	13905.12
480.34	13919.17
480.52	13923.85
480.70	13870.01
480.88	14106.41
481.06	14420.04
481.24	14094.71
481.41	14656.43
481.59	14953.68
481.77	14829.63
481.95	14626.01
482.13	15035.60
482.31	14644.73
482.49	15197.10
482.67	15164.33
482.85	15255.61
483.03	15501.37
483.21	15459.24
483.39	15850.11
483.57	15964.79
483.74	15815.00
483.92	16226.93
484.10	15618.39
484.28	16130.97
484.46	16439.92
484.64	16498.44
484.82	16299.49
485.00	16456.31
485.18	16479.71
485.35	16849.52
485.53	16285.45
485.71	16388.43
485.89	16650.57
486.07	16718.45
486.25	16812.07
486.43	17172.51
486.61	17336.35
486.78	17551.68
486.96	17767.01
487.14	18274.90
487.32	18230.43
487.50	18218.73
487.68	18221.07
487.85	18750.03
488.03	18527.68
488.21	18838.97
488.39	19110.47
488.57	18740.67
488.75	19070.68
488.92	19506.02
489.10	19616.03
489.28	19700.29
489.46	20130.95
489.64	20308.83
489.81	20446.92
489.99	20409.47
490.17	20615.44
490.35	21144.40
490.53	20922.05
490.70	20893.96
490.88	20903.32
491.06	21062.48
491.24	20889.28
491.41	21280.15
491.59	21214.62
491.77	21254.40
491.95	21553.99
492.13	21436.97
492.30	22291.26
492.48	21869.97
492.66	22237.43
492.84	22146.15
493.01	22195.30
493.19	22434.03
493.37	22602.55
493.54	22658.73
493.72	22750.01
493.90	23007.47
494.08	23400.68
494.25	23592.60
494.43	23473.23
494.61	24027.94
494.79	24070.07
494.96	23913.25
495.14	23917.93
495.32	24079.43
495.49	24065.39
495.67	24379.02
495.85	24528.81
496.02	24418.81
496.20	24584.99
496.38	25195.87
496.55	24849.47
496.73	25600.78
496.91	25369.07
497.09	25415.88
497.26	25771.64
497.44	25619.50
497.62	25589.08
497.79	25848.88
497.97	25741.21
498.14	25893.35
498.32	26181.23
498.50	26010.37
498.67	26455.08
498.85	26529.97
499.03	26443.37
499.20	26955.95
499.38	26824.88
499.56	26759.34
499.73	26895.10
499.91	26845.94
500.08	27112.77
500.26	26682.11
500.44	27332.78
500.61	27236.81
500.79	27124.47
500.97	27424.06
501.14	27718.96
501.32	27594.92
501.49	27810.25
501.67	27395.97
501.84	28011.53
502.02	28020.89
502.20	28198.77
502.37	28194.09
502.55	28173.03
502.72	28601.35
502.90	28589.64
503.07	28163.67
503.25	28645.82
503.43	28947.75
503.60	28442.19
503.78	28613.05
503.95	28563.90
504.13	29172.44
504.30	29303.51
504.48	28994.56
504.65	29453.30
504.83	29401.81
505.01	29607.78
505.18	29455.64
505.36	29804.38
505.53	30221.00
505.71	30527.61
505.88	30342.70
506.06	30307.60
506.23	30050.14
506.41	29972.90
506.58	30546.33
506.76	30567.40
506.93	30625.91
507.11	30527.61
507.28	30710.17
507.46	30293.55
507.63	30738.26
507.81	31068.27
507.98	30448.03
508.16	30974.65
508.33	31208.70
508.50	31250.83
508.68	31285.94
508.85	31644.04
509.03	31302.32
509.20	31688.51
509.38	31529.36
509.55	31981.08
509.73	31655.75
509.90	32060.66
510.08	31805.54
510.25	32009.17
510.42	32484.30
510.60	32116.83
510.77	32393.01
510.95	32547.49
511.12	32739.41
511.30	32659.84
511.47	33233.27
511.64	33003.89
511.82	32903.25
511.99	32837.72
512.17	32788.56
512.34	32837.72
512.51	33226.24
512.69	33476.68
512.86	33450.94
513.04	33455.62
513.21	32954.74
513.38	33518.81
513.56	33933.09
513.73	33156.03
513.90	33839.47
514.08	33797.34
514.25	33780.95
514.43	33628.82
514.60	34026.71
514.77	33879.25
514.95	34033.73
515.12	33940.11
515.29	34141.39
515.47	34930.16
515.64	34602.48
515.81	34066.50
515.99	33909.68
516.16	34188.21
516.33	33961.17
516.51	34132.03
516.68	33673.29
516.85	33764.57
517.03	34099.26
517.20	34462.05
517.37	34944.20
517.54	34838.87
517.72	34700.78
517.89	34658.65
518.06	34377.79
518.24	34335.66
518.41	35026.12
518.58	35154.85
518.75	35049.52
518.93	35412.31
519.10	35314.00
519.27	35564.44
519.45	35639.34
519.62	35896.80
519.79	35852.33
519.96	35697.85
520.14	35784.45
520.31	35878.07
520.48	36004.46
520.65	36030.21
520.83	36627.04
521.00	36484.27
521.17	36378.95
521.34	36774.50
521.52	36809.61
521.69	36704.28
521.86	36947.70
522.03	36999.19
522.20	37001.53
522.38	36996.85
522.55	37116.22
522.72	36790.88
522.89	37181.75
523.07	37654.54
523.24	36767.48
523.41	37514.11
523.58	37116.22
523.75	37507.08
523.92	37783.27
524.10	37919.02
524.27	37890.93
524.44	37844.12
524.61	38157.75
524.78	38548.62
524.96	38447.98
525.13	38316.91
525.30	38415.21
525.47	38789.70
525.64	38429.26
525.81	38209.25
525.98	38218.61
526.16	38052.43
526.33	37773.91
526.50	37968.17
526.67	37649.86
526.84	38162.43
527.01	37589.00
527.18	38555.64
527.36	38506.49
527.53	38890.34
527.70	39077.58
527.87	39264.83
528.04	38937.15
528.21	38941.83
528.38	39016.73
528.55	39407.60
528.72	39440.37
528.89	39906.13
529.07	39667.40
529.24	39014.39
529.41	39531.65
529.58	39220.36
529.75	39026.09
529.92	39786.77
530.09	39906.13
530.26	39702.51
530.43	40168.27
530.60	39297.59
530.77	40240.83
530.94	40507.65
531.11	40552.12
531.28	40018.48
531.46	40390.62
531.63	40187.00
531.80	40226.79
531.97	39852.30
532.14	39966.99
532.31	39779.74
532.48	40023.16
532.65	40126.14
532.82	40266.58
532.99	40540.42
533.16	40044.23
533.33	40545.10
533.50	40598.93
533.67	40730.00
533.84	40369.56
534.01	40987.46
534.18	40942.99
534.35	41031.93
534.52	40652.76
534.69	40584.89
534.86	41031.93
535.03	40790.86
535.20	41385.35
535.37	41677.92
535.54	41464.93
535.71	41553.87
535.88	41085.76
536.05	41343.22
536.22	41865.16
536.38	41448.55
536.55	41514.08
536.72	41593.66
536.89	41904.95
537.06	41577.28
537.23	41659.20
537.40	41228.54
537.57	41703.67
537.74	41694.30
537.91	42136.66
538.08	42270.08
538.25	41986.87
538.42	42017.30
538.59	41785.58
538.75	41378.33
538.92	41977.51
539.09	42183.48
539.26	41900.27
539.43	41965.81
539.60	41872.18
539.77	41628.77
539.94	42204.54
540.11	41853.46
540.28	42251.35
540.44	41860.48
540.61	41991.55
540.78	41921.34
540.95	41904.95
541.12	42195.18
541.29	42059.43
541.46	42277.10
541.62	42871.59
541.79	42396.46
541.96	42162.41
542.13	42670.31
542.30	42487.74
542.47	42749.88
542.63	42937.13
542.80	42848.19
542.97	43206.29
543.14	43335.02
543.31	43152.46
543.48	43189.91
543.64	43910.79
543.81	43269.48
543.98	43335.02
544.15	43529.28
544.32	43686.10
544.48	43835.89
544.65	43976.33
544.82	43791.42
544.99	43414.60
545.16	43512.90
545.32	43463.75
545.49	43608.86
545.66	43667.37
545.83	43653.33
546.00	44046.54
546.16	43990.37
546.33	43597.16
546.50	43239.06
546.67	44165.91
546.83	43686.10
547.00	44060.58
547.17	43812.49
547.34	43688.44
547.50	43849.94
547.67	44411.67
547.84	43892.07
548.00	44053.56
548.17	44432.73
548.34	44041.86
548.51	44439.75
548.67	44254.85
548.84	44755.72
549.01	44201.02
549.18	44594.23
549.34	44121.44
549.51	44488.90
549.68	44828.28
549.84	44554.44
550.01	44257.19
550.18	44837.64
550.34	44718.28
550.51	44704.23
550.68	44549.76
550.84	44112.08
551.01	44737.00
551.18	44875.09
551.34	44800.19
551.51	44793.17
551.68	44877.43
551.84	44788.49
552.01	45160.64
552.18	44957.01
552.34	44987.44
552.51	45237.87
552.68	44839.98
552.84	45153.62
553.01	45272.98
553.18	45198.09
553.34	44987.44
553.51	44683.17
553.67	45298.73
553.84	45219.15
554.01	44954.67
554.17	45570.23
554.34	45591.30
554.51	45441.50
554.67	45862.80
554.84	45546.82
555.00	45270.64
555.17	45193.40
555.33	45504.70
555.50	45806.62
555.67	45528.10
555.83	45261.28
556.00	45638.11
556.16	45858.12
556.33	45453.20
556.50	45914.29
556.66	45507.04
556.83	45141.91
556.99	45841.73
557.16	45556.19
557.32	45865.14
557.49	45762.15
557.65	45453.20
557.82	45940.04
557.98	45684.92
558.15	45614.70
558.32	45338.52
558.48	45614.70
558.65	45858.12
558.81	45361.92
558.98	45610.02
559.14	45743.43
559.31	45481.29
559.47	46078.13
559.64	45624.06
559.80	46122.60
559.97	46061.74
560.13	45804.28
560.30	45401.71
560.46	45818.33
560.63	46298.14
560.79	46096.85
560.96	46305.16
561.12	46265.37
561.29	45867.48
561.45	46197.49
561.61	45844.07
561.78	45954.08
561.94	45771.52
562.11	46129.62
562.27	46075.79
562.44	46358.99
562.60	46557.94
562.77	46213.88
562.93	46412.82
563.10	46314.52
563.26	45874.50
563.42	45947.06
563.59	45844.07
563.75	45902.59
563.92	46461.97
564.08	46192.81
564.24	46412.82
564.41	46216.22
564.57	46082.81
564.74	46302.82
564.90	46366.01
565.07	46096.85
565.23	46064.08
565.39	46099.19
565.56	46150.68
565.72	45949.40
565.88	46340.27
566.05	45940.04
566.21	45855.78
566.38	46162.39
566.54	46714.75
566.70	46815.40
566.87	46583.68
567.03	46553.26
567.19	46646.88
567.36	46705.39
567.52	46548.57
567.68	46433.89
567.85	46405.80
568.01	46520.49
568.17	46412.82
568.34	46195.15
568.50	46380.06
568.66	46178.77
568.83	46691.35
568.99	45937.69
569.15	46064.08
569.32	46108.55
569.48	45780.88
569.64	46539.21
569.81	46267.71
569.97	46454.95
570.13	46639.86
570.30	46436.23
570.46	46387.08
570.62	45951.74
570.78	46211.54
570.95	46115.58
571.11	46253.67
571.27	46309.84
571.43	46525.17
571.60	46153.02
571.76	46550.91
571.92	46354.31
572.09	46546.23
572.25	46553.26
572.41	46693.69
572.57	46962.85
572.74	47004.98
572.90	46529.85
573.06	46719.43
573.22	46560.28
573.38	46579.00
573.55	46153.02
573.71	46522.83
573.87	46497.08
574.03	46731.14
574.20	46340.27
574.36	46616.45
574.52	46803.69
574.68	46511.13
574.84	46611.77
575.01	46897.31
575.17	46616.45
575.33	46225.58
575.49	46181.11
575.65	46593.04
575.82	46536.87
575.98	46068.76
576.14	46646.88
576.30	47070.51
576.46	46941.78
576.62	46548.57
576.79	47056.47
576.95	46220.90
577.11	46202.18
577.27	46829.44
577.43	46672.62
577.59	46815.40
577.75	46375.37
577.92	45996.21
578.08	46225.58
578.24	46354.31
578.40	46227.92
578.56	46380.06
578.72	46941.78
578.88	46794.33
579.04	46724.11
579.21	46459.63
579.37	47114.98
579.53	46471.34
579.69	46279.41
579.85	46728.80
580.01	46646.88
580.17	46476.02
580.33	47164.14
580.49	46433.89
580.65	46759.22
580.82	46625.81
580.98	46916.04
581.14	46555.60
581.30	46770.93
581.46	46794.33
581.62	46913.70
581.78	46649.22
581.94	46665.60
582.10	46845.82
582.26	46667.94
582.42	46782.63
582.58	46857.52
582.74	46529.85
582.90	46890.29
583.06	46969.87
583.22	46859.87
583.38	47079.88
583.54	47042.43
583.70	46906.68
583.86	46899.65
584.02	46644.54
584.18	46454.95
584.34	46815.40
584.50	46869.23
584.66	46520.49
584.82	46703.05
584.98	47014.34
585.14	47456.70
585.30	46700.71
585.46	46686.67
585.62	46700.71
585.78	46866.89
585.94	46665.60
586.10	47098.60
586.26	46541.55
586.42	47044.77
586.58	47185.20
586.74	46630.49
586.90	46759.22
587.06	46366.01
587.22	46679.64
587.38	46597.73
587.54	46766.24
587.70	46534.53
587.86	47105.62
588.02	46574.32
588.18	46602.41
588.34	46473.68
588.49	46696.03
588.65	45895.56
588.81	45996.21
588.97	46478.36
589.13	46281.75
589.29	46618.79
589.45	46471.34
589.61	46721.77
589.77	46852.84
589.93	46944.12
