SpectraSuite Data File
++++++++++++++++++++++++++++++++++++
Date: Fri Oct 25 11:25:29 EDT 2013
User: price-jones
Dark Spectrum Present: No
Reference Spectrum Present: No
Number of Sampled Component Spectra: 1
Spectrometers: USB2+H05261
Integration Time (usec): 100000 (USB2+H05261)
Spectra Averaged: 1 (USB2+H05261)
Boxcar Smoothing: 0 (USB2+H05261)
Correct for Electrical Dark: No (USB2+H05261)
Strobe/Lamp Enabled: No (USB2+H05261)
Correct for Detector Non-linearity: No (USB2+H05261)
Correct for Stray Light: No (USB2+H05261)
Number of Pixels in Processed Spectrum: 2048
>>>>>Begin Processed Spectral Data<<<<<
365.73	330.02
365.92	330.02
366.12	330.02
366.32	187.24
366.52	131.07
366.72	184.90
366.91	177.88
367.11	166.18
367.31	110.01
367.51	194.26
367.70	154.48
367.90	128.73
368.10	107.66
368.30	128.73
368.49	95.96
368.69	198.95
368.89	205.97
369.09	142.77
369.28	166.18
369.48	231.71
369.68	198.95
369.87	149.79
370.07	145.11
370.27	266.82
370.47	299.59
370.66	589.82
370.86	704.50
371.06	737.27
371.25	660.03
371.45	620.24
371.65	643.65
371.84	737.27
372.04	699.82
372.24	655.35
372.44	732.59
372.63	716.20
372.83	765.36
373.03	784.08
373.22	758.33
373.42	713.86
373.62	798.12
373.81	765.36
374.01	779.40
374.21	706.84
374.40	772.38
374.60	858.98
374.79	828.55
374.99	791.10
375.19	807.48
375.38	748.97
375.58	882.38
375.78	861.32
375.97	828.55
376.17	973.66
376.37	863.66
376.56	873.02
376.76	936.21
376.95	870.68
377.15	912.81
377.35	877.70
377.54	912.81
377.74	908.13
377.93	828.55
378.13	887.06
378.33	950.26
378.52	847.27
378.72	936.21
378.91	873.02
379.11	940.90
379.31	915.15
379.50	884.72
379.70	959.62
379.89	961.96
380.09	915.15
380.28	1008.77
380.48	945.58
380.68	980.68
380.87	978.34
381.07	1053.24
381.26	990.05
381.46	1015.79
381.65	1032.18
381.85	1011.11
382.04	1022.81
382.24	1132.82
382.43	1034.52
382.63	1039.20
382.83	1039.20
383.02	1064.94
383.22	1151.54
383.41	1128.14
383.61	1151.54
383.80	1137.50
384.00	1020.47
384.19	1046.22
384.39	1174.95
384.58	1083.67
384.78	1203.04
384.97	1060.26
385.17	1139.84
385.36	1172.61
385.56	1107.07
385.75	1076.65
385.95	1128.14
386.14	1198.35
386.34	1273.25
386.53	1158.57
386.72	1142.18
386.92	1235.80
387.11	1306.02
387.31	1299.00
387.50	1212.40
387.70	1205.38
387.89	1275.59
388.09	1167.93
388.28	1273.25
388.48	1177.29
388.67	1296.66
388.86	1341.13
389.06	1371.55
389.25	1411.34
389.45	1380.92
389.64	1390.28
389.84	1350.49
390.03	1446.45
390.22	1469.86
390.42	1406.66
390.61	1287.29
390.81	1437.09
391.00	1441.77
391.19	1371.55
391.39	1385.60
391.58	1406.66
391.78	1430.07
391.97	1462.83
392.16	1432.41
392.36	1575.18
392.55	1427.73
392.75	1565.82
392.94	1497.94
393.13	1558.80
393.33	1439.43
393.52	1584.54
393.71	1490.92
393.91	1598.59
394.10	1500.28
394.29	1645.40
394.49	1551.78
394.68	1657.10
394.88	1593.90
395.07	1678.16
395.26	1643.06
395.46	1621.99
395.65	1664.12
395.84	1603.27
396.04	1732.00
396.23	1832.64
396.42	1741.36
396.62	1874.77
396.81	1687.53
397.00	1760.08
397.19	1842.00
397.39	1762.42
397.58	1806.89
397.77	1776.47
397.97	1827.96
398.16	1799.87
398.35	1886.47
398.55	1811.57
398.74	1940.30
398.93	2050.31
399.12	1942.64
399.32	1952.01
399.51	1886.47
399.70	1933.28
399.90	1989.46
400.09	2005.84
400.28	2071.37
400.47	2001.16
400.67	2115.84
400.86	2136.91
401.05	2059.67
401.24	2181.38
401.44	2085.42
401.63	2008.18
401.82	2108.82
402.01	2008.18
402.21	2214.15
402.40	2092.44
402.59	2167.34
402.78	2176.70
402.97	2237.55
403.17	2312.45
403.36	2230.53
403.55	2331.17
403.74	2291.38
403.93	2471.61
404.13	2317.13
404.32	2279.68
404.51	2328.83
404.70	2492.67
404.89	2321.81
405.09	2377.98
405.28	2516.08
405.47	2455.22
405.66	2436.50
405.85	2469.27
406.05	2485.65
406.24	2576.93
406.43	2565.23
406.62	2619.06
406.81	2579.27
407.00	2560.55
407.20	2644.81
407.39	2703.32
407.58	2731.41
407.77	2656.51
407.96	2743.11
408.15	2761.83
408.34	2745.45
408.54	2722.04
408.73	2827.37
408.92	2855.45
409.11	2862.48
409.30	2864.82
409.49	2930.35
409.68	2846.09
409.87	2949.08
410.07	2995.89
410.26	2956.10
410.45	2979.50
410.64	2998.23
410.83	3040.36
411.02	3197.17
411.21	3187.81
411.40	3103.55
411.59	3171.43
411.78	3204.19
411.98	3117.59
412.17	3192.49
412.36	3199.51
412.55	3471.01
412.74	3410.16
412.93	3475.70
413.12	3342.28
413.31	3559.95
413.50	3471.01
413.69	3552.93
413.88	3454.63
414.07	3576.34
414.26	3583.36
414.45	3782.31
414.64	3618.47
414.83	3751.88
415.02	3906.35
415.22	3866.56
415.41	3798.69
415.60	3866.56
415.79	3777.62
415.98	3943.80
416.17	4014.02
416.36	3911.04
416.55	3918.06
416.74	3920.40
416.93	4163.81
417.12	4051.47
417.31	4112.32
417.50	4318.29
417.69	4262.12
417.88	4191.90
418.07	4337.01
418.26	4180.20
418.45	4278.50
418.64	4308.93
418.83	4304.25
419.02	4297.22
419.21	4528.94
419.39	4449.36
419.58	4545.32
419.77	4416.59
419.96	4561.70
420.15	4674.05
420.34	4524.26
420.53	4660.01
420.72	4762.99
420.91	4765.33
421.10	4779.37
421.29	4828.53
421.48	4767.67
421.67	4770.01
421.86	4842.57
422.05	4842.57
422.24	4734.90
422.43	4781.71
422.61	4631.92
422.80	4959.60
422.99	4880.02
423.18	5032.15
423.37	4964.28
423.56	4959.60
423.75	4896.40
423.94	4884.70
424.13	4550.00
424.32	4650.64
424.50	4997.04
424.69	5111.73
424.88	5029.81
425.07	4849.59
425.26	4978.32
425.45	4856.61
425.64	4795.76
425.83	5032.15
426.01	5055.56
426.20	4908.10
426.39	4861.29
426.58	5022.79
426.77	5057.90
426.96	5181.95
427.15	5224.08
427.33	5203.01
427.52	5151.52
427.71	5266.21
427.90	5322.38
428.09	5214.71
428.28	5275.57
428.46	5359.83
428.65	5504.94
428.84	5502.60
429.03	5495.58
429.22	5357.49
429.40	5500.26
429.59	5317.70
429.78	5357.49
429.97	5256.84
430.16	5448.77
430.34	5802.19
430.53	5643.03
430.72	5696.86
430.91	5741.33
431.10	5542.39
431.28	5783.46
431.47	5799.85
431.66	5598.56
431.85	5689.84
432.03	5954.32
432.22	5977.73
432.41	5923.90
432.60	6057.31
432.79	5919.21
432.97	5970.71
433.16	5916.87
433.35	5806.87
433.54	6155.61
433.72	6073.69
433.91	6092.41
434.10	6066.67
434.28	6043.26
434.47	5982.41
434.66	6389.66
434.85	6317.11
435.03	6174.33
435.22	6380.30
435.41	6628.40
435.59	6249.23
435.78	6429.45
435.97	6420.09
436.16	6513.71
436.34	6403.71
436.53	6492.65
436.72	6555.84
436.90	6321.79
437.09	6616.69
437.28	6317.11
437.46	6640.10
437.65	6609.67
437.84	6691.59
438.02	6682.23
438.21	6733.72
438.40	6551.16
438.58	7087.14
438.77	7030.97
438.96	6841.39
439.14	6993.52
439.33	7136.29
439.52	7314.17
439.70	7201.83
439.89	7166.72
440.08	7337.58
440.26	7197.15
440.45	7321.20
440.63	7447.58
440.82	7599.72
441.01	7698.02
441.19	7702.70
441.38	7698.02
441.57	7686.32
441.75	7859.52
441.94	7953.14
442.12	7908.67
442.31	7735.47
442.50	7950.80
442.68	7969.52
442.87	8030.38
443.05	8156.77
443.24	8269.11
443.43	8163.79
443.61	8416.57
443.80	8318.26
443.98	7946.12
444.17	7723.77
444.35	8025.70
444.54	8224.64
444.73	8372.10
444.91	8376.78
445.10	8456.36
445.28	8365.07
445.47	8154.43
445.65	8416.57
445.84	8461.04
446.02	8493.80
446.21	8505.51
446.39	8299.54
446.58	8439.97
446.77	8381.46
446.95	8322.94
447.14	8465.72
447.32	8631.90
447.51	8294.86
447.69	8454.02
447.88	8409.54
448.06	8297.20
448.25	8430.61
448.43	8678.71
448.62	8456.36
448.80	8692.75
448.99	8613.17
449.17	8830.84
449.36	8760.63
449.54	8795.73
449.73	8863.61
449.91	8917.44
450.10	8793.39
450.28	9214.69
450.46	8924.46
450.65	9071.92
450.83	9071.92
451.02	9151.49
451.20	9217.03
451.39	9181.92
451.57	8982.98
451.76	9069.58
451.94	9142.13
452.13	9177.24
452.31	9151.49
452.49	9210.01
452.68	9455.76
452.86	9549.39
453.05	9444.06
453.23	9579.81
453.42	9486.19
453.60	9315.33
453.78	9575.13
453.97	9565.77
454.15	9437.04
454.34	9678.12
454.52	9607.90
454.70	9818.55
454.89	9888.76
455.07	9701.52
455.26	9568.11
455.44	9900.47
455.62	9832.59
455.81	9954.30
455.99	10019.83
456.17	10146.22
456.36	10122.82
456.54	10237.50
456.73	10073.67
456.91	10501.98
457.09	10415.38
457.28	10494.96
457.46	10366.23
457.64	10469.22
457.83	10532.41
458.01	10359.21
458.19	10459.85
458.38	10429.43
458.56	10623.69
458.74	10724.33
458.93	10572.20
459.11	10750.08
459.29	10668.16
459.48	10871.79
459.66	10843.70
459.84	11026.26
460.03	11030.94
460.21	11154.99
460.39	10794.55
460.57	11112.86
460.76	10981.79
460.94	11094.14
461.12	11037.97
461.31	11145.63
461.49	11178.40
461.67	11222.87
461.85	11398.41
462.04	11344.58
462.22	11906.31
462.40	11714.38
462.59	11349.26
462.77	11477.99
462.95	11569.27
463.13	11662.89
463.32	11562.25
463.50	11716.72
463.68	11747.15
463.86	12105.25
464.05	11707.36
464.23	11426.50
464.41	12051.42
464.59	11740.13
464.78	12142.70
464.96	11815.02
465.14	11852.47
465.32	12102.91
465.50	12077.16
465.69	12123.98
465.87	12255.04
466.05	11946.09
466.23	12292.49
466.41	11999.93
466.60	12306.54
466.78	12072.48
466.96	12107.59
467.14	12079.50
467.32	12339.30
467.51	12353.35
467.69	12187.17
467.87	12353.35
468.05	12437.61
468.23	12351.01
468.41	12388.46
468.60	12606.13
468.78	12683.36
468.96	12690.38
469.14	12755.92
469.32	12868.27
469.50	12886.99
469.69	13067.21
469.87	13233.39
470.05	13151.47
470.23	13022.74
470.41	12945.50
470.59	13144.45
470.77	13123.38
470.95	13177.22
471.14	13366.80
471.32	13144.45
471.50	13771.71
471.68	13549.36
471.86	13699.16
472.04	13591.49
472.22	13928.53
472.40	13549.36
472.58	13874.70
472.77	14057.26
472.95	14064.28
473.13	14499.62
473.31	14001.08
473.49	14162.58
473.67	14237.48
473.85	14064.28
474.03	14679.84
474.21	14761.76
474.39	14689.20
474.57	14537.07
474.75	14993.47
474.93	14860.06
475.12	14925.60
475.30	15089.43
475.48	14731.33
475.66	14967.73
475.84	15260.29
476.02	15473.28
476.20	15300.08
476.38	15716.70
476.56	16063.10
476.74	15939.05
476.92	15985.86
477.10	15679.25
477.28	16219.91
477.46	15885.22
477.64	16496.10
477.82	16753.55
478.00	16844.84
478.18	16924.41
478.36	16931.44
478.54	16959.52
478.72	17252.09
478.90	17462.74
479.08	17537.63
479.26	17736.58
479.44	17820.84
479.62	17792.75
479.80	18111.07
479.98	17919.14
480.16	18349.80
480.34	18185.96
480.52	18775.78
480.70	18139.15
480.88	18347.46
481.06	18492.57
481.24	18937.27
481.41	19082.39
481.59	19143.24
481.77	19225.16
481.95	19403.04
482.13	19391.34
482.31	19796.25
482.49	20123.93
482.67	20325.21
482.85	20226.91
483.03	20805.02
483.21	20849.49
483.39	20882.26
483.57	20662.25
483.74	21329.30
483.92	21312.92
484.10	21078.86
484.28	21294.19
484.46	21869.97
484.64	22328.71
484.82	21898.05
485.00	22188.28
485.18	22740.64
485.35	22927.89
485.53	22761.71
485.71	23222.80
485.89	23473.23
486.07	23225.14
486.25	23520.04
486.43	23660.48
486.61	23819.63
486.78	23721.33
486.96	24079.43
487.14	24416.47
487.32	24381.36
487.50	24636.48
487.68	25254.38
487.85	25434.60
488.03	25394.81
488.21	25713.13
488.39	25432.26
488.57	25886.32
488.75	26103.99
488.92	26197.62
489.10	26773.39
489.28	26752.32
489.46	27255.54
489.64	26705.51
489.81	27688.54
489.99	27583.21
490.17	27887.48
490.35	28294.74
490.53	28201.11
490.70	28498.36
490.88	28224.52
491.06	28723.05
491.24	28659.86
491.41	28807.31
491.59	29539.90
491.77	29010.94
491.95	29837.15
492.13	29853.53
492.30	29706.08
492.48	29937.79
492.66	30122.69
492.84	30286.53
493.01	30539.31
493.19	30754.64
493.37	30948.90
493.54	31213.38
493.72	31592.55
493.90	31316.37
494.08	31599.57
494.25	31938.95
494.43	31765.75
494.61	32203.43
494.79	32570.90
494.96	32615.37
495.14	32781.54
495.32	33078.79
495.49	33181.77
495.67	33156.03
495.85	33584.35
496.02	33869.89
496.20	33954.15
496.38	34073.52
496.55	33858.19
496.73	34398.85
496.91	34483.11
497.09	34820.15
497.26	34855.26
497.44	34813.13
497.62	35501.25
497.79	35524.65
497.97	35414.65
498.14	35782.11
498.32	36123.83
498.50	36077.02
498.67	36329.80
498.85	36011.48
499.03	36311.07
499.20	36449.16
499.38	36802.58
499.56	36739.39
499.73	36704.28
499.91	37151.32
500.08	37589.00
500.26	37195.79
500.44	37626.45
500.61	38148.39
500.79	37715.39
500.97	38068.81
501.14	38265.42
501.32	38359.04
501.49	38429.26
501.67	38417.55
501.84	38883.32
502.02	38518.20
502.20	39283.55
502.37	39232.06
502.55	39173.55
502.72	39323.34
502.90	39227.38
503.07	39889.75
503.25	39810.17
503.43	39199.29
503.60	40030.18
503.78	39964.65
503.95	39833.58
504.13	39924.86
504.30	40612.98
504.48	40318.07
504.65	40678.51
504.83	40701.92
505.01	41471.95
505.18	41420.46
505.36	41687.28
505.53	41291.73
505.71	41455.57
505.88	41584.30
506.06	41446.21
506.23	41989.21
506.41	41610.04
506.58	42141.35
506.76	41724.73
506.93	41940.06
507.11	41965.81
507.28	42581.37
507.46	42824.78
507.63	42904.36
507.81	42995.64
507.98	42515.83
508.16	43112.67
508.33	43501.20
508.50	43419.28
508.68	43241.40
508.85	43849.94
509.03	43695.46
509.20	43821.85
509.38	44226.76
509.55	43962.28
509.73	44137.82
509.90	44666.78
510.08	44587.21
510.25	44414.01
510.42	44605.93
510.60	44994.46
510.77	44928.92
510.95	45240.21
511.12	45017.86
511.30	45275.32
511.47	45404.05
511.64	45947.06
511.82	45801.94
511.99	45329.16
512.17	45942.38
512.34	45904.93
512.51	46431.55
512.69	46092.17
512.86	45923.65
513.04	46471.34
513.21	46590.70
513.38	46822.42
513.56	46550.91
513.73	46869.23
513.90	46817.74
514.08	46925.40
514.25	47309.25
514.43	47501.17
514.60	47435.64
514.77	47377.12
514.95	47681.39
515.12	47477.77
515.29	47503.51
515.47	47526.92
515.64	47782.04
515.81	47756.29
515.99	48142.48
516.16	48430.36
516.33	48226.74
516.51	48245.46
516.68	48102.69
516.85	48463.13
517.03	48528.67
517.20	48893.79
517.37	48870.39
517.54	48994.43
517.72	48781.45
517.89	48949.96
518.06	49277.64
518.24	49233.17
518.41	49413.39
518.58	49062.31
518.75	49198.06
518.93	49649.78
519.10	49509.35
519.27	49858.09
519.45	49682.55
519.62	49705.96
519.79	49858.09
519.96	49932.99
520.14	50349.60
520.31	50253.64
520.48	49935.33
520.65	50312.16
520.83	50635.15
521.00	50550.89
521.17	50429.18
521.34	50775.58
521.52	50806.01
521.69	50417.48
521.86	51154.75
522.03	51072.83
522.20	50901.97
522.38	51545.62
522.55	51112.62
522.72	51337.31
522.89	51454.34
523.07	51412.21
523.24	51653.28
523.41	51718.82
523.58	51430.93
523.75	51693.07
523.92	51578.39
524.10	51756.27
524.27	51866.27
524.44	51763.29
524.61	52105.01
524.78	51840.53
524.96	52182.24
525.13	52222.03
525.30	52285.23
525.47	52219.69
525.64	52376.51
525.81	52786.10
525.98	52392.89
526.16	52399.91
526.33	52732.27
526.50	52935.90
526.67	52678.44
526.84	52907.81
527.01	52814.19
527.18	53027.18
527.36	52942.92
527.53	53088.03
527.70	53162.93
527.87	53504.65
528.04	52828.23
528.21	53333.79
528.38	53504.65
528.55	53345.49
528.72	53216.76
528.89	53294.00
529.07	53240.17
529.24	53226.12
529.41	53478.90
529.58	53528.05
529.75	53485.92
529.92	53724.66
530.09	53904.88
530.26	54024.25
530.43	53820.62
530.60	53719.98
530.77	53579.54
530.94	53965.73
531.11	53841.68
531.28	53745.72
531.46	53944.67
531.63	54035.95
531.80	54143.61
531.97	54468.95
532.14	54255.96
532.31	54515.76
532.48	54370.64
532.65	54515.76
532.82	54691.30
532.99	54314.47
533.16	54717.04
533.33	54714.70
533.50	54934.71
533.67	54913.65
533.84	54602.36
534.01	54784.92
534.18	54836.41
534.35	55250.69
534.52	54937.05
534.69	55037.70
534.86	55344.31
535.03	55126.64
535.20	55292.82
535.37	55370.05
535.54	55316.22
535.71	54852.80
535.88	55168.77
536.05	55253.03
536.22	55405.16
536.38	55671.98
536.55	55711.77
536.72	55510.49
536.89	55346.65
537.06	55444.95
537.23	55751.56
537.40	55367.71
537.57	55812.41
537.74	55655.60
537.91	56126.05
538.08	55641.56
538.25	55828.80
538.42	55849.86
538.59	56107.32
538.75	55810.07
538.92	56025.40
539.09	56090.94
539.26	55980.93
539.43	55962.21
539.60	56170.52
539.77	56285.20
539.94	56341.38
540.11	56177.54
540.28	56339.04
540.44	56446.70
540.61	56149.45
540.78	56472.45
540.95	56357.76
541.12	56481.81
541.29	56243.07
541.46	56453.72
541.62	56715.86
541.79	56647.99
541.96	56467.76
542.13	56416.27
542.30	56547.34
542.47	56877.36
542.63	56774.37
542.80	56772.03
542.97	57207.37
543.14	57249.50
543.31	56959.28
543.48	57403.98
543.64	57504.62
543.81	57279.93
543.98	57301.00
544.15	57268.23
544.32	57474.20
544.48	57460.15
544.65	57298.65
544.82	57340.78
544.99	57338.44
545.16	57528.03
545.32	57286.95
545.49	57539.73
545.66	57724.63
545.83	57268.23
546.00	57443.77
546.16	57549.09
546.33	57420.36
546.50	57427.38
546.67	57668.46
546.83	57298.65
547.00	57516.32
547.17	57712.93
547.34	57815.91
547.50	57776.12
547.67	57982.09
547.84	57949.32
548.00	58174.02
548.17	58124.86
548.34	57968.05
548.51	57991.45
548.67	58033.58
548.84	57975.07
549.01	57829.96
549.18	58260.62
549.34	58176.36
549.51	58192.74
549.68	58150.61
549.84	58328.49
550.01	58429.13
550.18	58426.79
550.34	58429.13
550.51	58377.64
550.68	58195.08
550.84	58419.77
551.01	58433.81
551.18	58433.81
551.34	58583.61
551.51	58370.62
551.68	58468.92
551.84	58707.66
552.01	58361.26
552.18	58518.07
552.34	58522.76
552.51	58789.58
552.68	58485.31
552.84	58660.85
553.01	58922.99
553.18	58752.13
553.34	58707.66
553.51	58602.33
553.67	58871.49
553.84	58906.60
554.01	58869.15
554.17	58958.09
554.34	59131.29
554.51	58988.52
554.67	59021.29
554.84	58815.32
555.00	59077.46
555.17	58761.49
555.33	58995.54
555.50	58707.66
555.67	58773.19
555.83	59150.02
556.00	59077.46
556.16	59262.36
556.33	59210.87
556.50	59119.59
556.66	59131.29
556.83	59086.82
556.99	59215.55
557.16	59496.42
557.32	59444.93
557.49	59489.40
557.65	59236.62
557.82	59267.05
557.98	59100.87
558.15	59309.18
558.32	59358.33
558.48	59231.94
558.65	59580.68
558.81	59437.90
558.98	59554.93
559.14	59536.21
559.31	59451.95
559.47	59590.04
559.64	59849.84
559.80	59714.09
559.97	59510.46
560.13	59482.37
560.30	59491.74
560.46	59711.75
560.63	59697.70
560.79	59863.88
560.96	59936.44
561.12	59821.75
561.29	59767.92
561.45	59828.77
561.61	59728.13
561.78	59803.03
561.94	59842.82
562.11	59938.78
562.27	59777.28
562.44	59931.76
562.60	59980.91
562.77	59774.94
562.93	59732.81
563.10	60104.96
563.26	59669.62
563.42	60184.54
563.59	59908.35
563.75	59840.48
563.92	60142.41
564.08	60032.40
564.24	60266.45
564.41	60111.98
564.57	60027.72
564.74	60030.06
564.90	59906.01
565.07	60023.04
565.23	60009.00
565.39	59845.16
565.56	60100.28
565.72	60025.38
565.88	60193.90
566.05	60135.38
566.21	60250.07
566.38	60238.37
566.54	59978.57
566.70	60343.69
566.87	60224.32
567.03	60006.65
567.19	60392.84
567.36	60203.26
567.52	60315.61
567.68	60367.10
567.85	60376.46
568.01	60226.66
568.17	60306.24
568.34	60566.04
568.50	60378.80
568.66	60189.22
568.83	60383.48
568.99	60350.71
569.15	60310.92
569.32	60357.74
569.48	60282.84
569.64	60406.89
569.81	60547.32
569.97	60381.14
570.13	60385.82
570.30	60383.48
570.46	60481.78
570.62	60439.65
570.78	60451.36
570.95	60388.16
571.11	60629.24
571.27	60446.68
571.43	60322.63
571.60	60643.28
571.76	60512.21
571.92	60699.45
572.09	60509.87
572.25	60404.55
572.41	60444.33
572.57	60488.80
572.74	60725.20
572.90	60519.23
573.06	60692.43
573.22	60561.36
573.38	60657.32
573.55	60425.61
573.71	60626.90
573.87	60814.14
574.03	60554.34
574.20	60577.75
574.36	60463.06
574.52	60790.73
574.68	60647.96
574.84	60715.84
575.01	60718.18
575.17	60554.34
575.33	60720.52
575.49	60736.90
575.65	60685.41
575.82	60566.04
575.98	60582.43
576.14	60832.86
576.30	60722.86
576.46	60643.28
576.62	60811.80
576.79	60629.24
576.95	60420.93
577.11	60769.67
577.27	60706.47
577.43	60647.96
577.59	60746.26
577.75	60619.88
577.92	60605.83
578.08	60619.88
578.24	60776.69
578.40	60690.09
578.56	60999.04
578.72	60800.10
578.88	60947.55
579.04	60837.54
579.21	60725.20
579.37	60860.95
579.53	61010.74
579.69	60399.86
579.85	60664.35
580.01	60580.09
580.17	60566.04
580.33	60872.65
580.49	60853.93
580.65	60884.36
580.82	60701.79
580.98	60992.02
581.14	60786.05
581.30	60966.27
581.46	60926.49
581.62	60692.43
581.78	60764.99
581.94	61062.24
582.10	60748.60
582.26	60823.50
582.42	60823.50
582.58	60949.89
582.74	60816.48
582.90	60870.31
583.06	60921.80
583.22	60793.07
583.38	61080.96
583.54	60884.36
583.70	60954.57
583.86	60999.04
584.02	60919.46
584.18	61024.79
584.34	60772.01
584.50	60970.96
584.66	60886.70
584.82	60610.51
584.98	61017.77
585.14	60999.04
585.30	60776.69
585.46	61130.11
585.62	61001.38
585.78	60952.23
585.94	60772.01
586.10	60931.17
586.26	61071.60
586.42	61043.51
586.58	61172.24
586.74	60851.59
586.90	60931.17
587.06	60884.36
587.22	61085.64
587.38	60872.65
587.54	60994.36
587.70	61123.09
587.86	61120.75
588.02	61013.08
588.18	61324.38
588.34	60961.59
588.49	61106.71
