SpectraSuite Data File
++++++++++++++++++++++++++++++++++++
Date: Fri Oct 25 11:26:08 EDT 2013
User: price-jones
Dark Spectrum Present: No
Reference Spectrum Present: No
Number of Sampled Component Spectra: 1
Spectrometers: USB2+H05261
Integration Time (usec): 100000 (USB2+H05261)
Spectra Averaged: 1 (USB2+H05261)
Boxcar Smoothing: 0 (USB2+H05261)
Correct for Electrical Dark: No (USB2+H05261)
Strobe/Lamp Enabled: No (USB2+H05261)
Correct for Detector Non-linearity: No (USB2+H05261)
Correct for Stray Light: No (USB2+H05261)
Number of Pixels in Processed Spectrum: 2048
>>>>>Begin Processed Spectral Data<<<<<
365.73	215.33
365.92	215.33
366.12	215.33
366.32	205.97
366.52	163.84
366.72	138.09
366.91	149.79
367.11	140.43
367.31	37.45
367.51	149.79
367.70	91.28
367.90	124.05
368.10	161.50
368.30	140.43
368.49	163.84
368.69	105.32
368.89	168.52
369.09	189.58
369.28	159.16
369.48	173.20
369.68	234.05
369.87	224.69
370.07	168.52
370.27	257.46
370.47	346.40
370.66	608.54
370.86	690.46
371.06	617.90
371.25	685.78
371.45	608.54
371.65	655.35
371.84	606.20
372.04	655.35
372.24	681.10
372.44	683.44
372.63	702.16
372.83	730.25
373.03	683.44
373.22	772.38
373.42	767.70
373.62	723.23
373.81	816.85
374.01	821.53
374.21	821.53
374.40	760.67
374.60	812.17
374.79	830.89
374.99	887.06
375.19	887.06
375.38	868.34
375.58	856.64
375.78	884.72
375.97	905.79
376.17	931.53
376.37	891.74
376.56	931.53
376.76	968.98
376.95	840.25
377.15	987.71
377.35	898.77
377.54	978.34
377.74	910.47
377.93	891.74
378.13	858.98
378.33	919.83
378.52	814.51
378.72	924.51
378.91	926.85
379.11	957.28
379.31	912.81
379.50	985.37
379.70	933.87
379.89	919.83
380.09	924.51
380.28	973.66
380.48	1034.52
380.68	1020.47
380.87	959.62
381.07	992.39
381.26	1011.11
381.46	1090.69
381.65	1076.65
381.85	1095.37
382.04	1013.45
382.24	1118.78
382.43	1064.94
382.63	1069.62
382.83	1062.60
383.02	1231.12
383.22	1191.33
383.41	1043.88
383.61	1153.88
383.80	1135.16
384.00	1055.58
384.19	1109.41
384.39	1210.06
384.58	1217.08
384.78	1116.44
384.97	1111.75
385.17	1128.14
385.36	1196.01
385.56	1174.95
385.75	1181.97
385.95	1191.33
386.14	1167.93
386.34	1081.33
386.53	1233.46
386.72	1200.69
386.92	1249.85
387.11	1219.42
387.31	1196.01
387.50	1193.67
387.70	1270.91
387.89	1280.27
388.09	1348.15
388.28	1266.23
388.48	1322.40
388.67	1364.53
388.86	1198.35
389.06	1392.62
389.25	1359.85
389.45	1401.98
389.64	1336.45
389.84	1413.68
390.03	1465.18
390.22	1404.32
390.42	1308.36
390.61	1355.17
390.81	1390.28
391.00	1458.15
391.19	1427.73
391.39	1310.70
391.58	1397.30
391.78	1394.96
391.97	1514.33
392.16	1453.47
392.36	1547.09
392.55	1586.88
392.75	1526.03
392.94	1533.05
393.13	1537.73
393.33	1481.56
393.52	1554.12
393.71	1617.31
393.91	1624.33
394.10	1547.09
394.29	1638.38
394.49	1661.78
394.68	1605.61
394.88	1713.27
395.07	1696.89
395.26	1717.95
395.46	1610.29
395.65	1671.14
395.84	1701.57
396.04	1792.85
396.23	1799.87
396.42	1750.72
396.62	1678.16
396.81	1767.10
397.00	1774.13
397.19	1736.68
397.39	1891.15
397.58	1823.28
397.77	1809.23
397.97	1867.75
398.16	1844.34
398.35	1842.00
398.55	1912.22
398.74	1886.47
398.93	1844.34
399.12	1973.07
399.32	1788.17
399.51	1907.54
399.70	1977.75
399.90	1923.92
400.09	1933.28
400.28	1916.90
400.47	1996.48
400.67	2064.35
400.86	1935.62
401.05	2045.63
401.24	2078.40
401.44	2118.18
401.63	2132.23
401.82	2134.57
402.01	2139.25
402.21	2183.72
402.40	2136.91
402.59	2277.34
402.78	2176.70
402.97	2279.68
403.17	2289.04
403.36	2132.23
403.55	2333.51
403.74	2256.28
403.93	2242.23
404.13	2289.04
404.32	2317.13
404.51	2333.51
404.70	2392.03
404.89	2473.95
405.09	2436.50
405.28	2464.58
405.47	2516.08
405.66	2546.50
405.85	2590.97
406.05	2558.21
406.24	2633.10
406.43	2581.61
406.62	2569.91
406.81	2738.43
407.00	2605.02
407.20	2644.81
407.39	2635.44
407.58	2743.11
407.77	2696.30
407.96	2775.88
408.15	2698.64
408.34	2672.89
408.54	2810.98
408.73	2722.04
408.92	2677.57
409.11	2846.09
409.30	2846.09
409.49	2862.48
409.68	2920.99
409.87	2897.58
410.07	2885.88
410.26	3047.38
410.45	2916.31
410.64	2993.55
410.83	3068.44
411.02	3063.76
411.21	3030.99
411.40	3068.44
411.59	3133.98
411.78	3148.02
411.98	3225.26
412.17	3159.72
412.36	3171.43
412.55	3342.28
412.74	3386.76
412.93	3414.84
413.12	3351.65
413.31	3611.45
413.50	3461.65
413.69	3510.80
413.88	3648.90
414.07	3531.87
414.26	3611.45
414.45	3578.68
414.64	3648.90
414.83	3758.90
415.02	3613.79
415.22	3779.97
415.41	3822.09
415.60	3810.39
415.79	3763.58
415.98	3995.29
416.17	3922.74
416.36	3889.97
416.55	3915.72
416.74	4039.76
416.93	4023.38
417.12	3868.91
417.31	4212.96
417.50	4109.98
417.69	4210.62
417.88	4241.05
418.07	4327.65
418.26	4287.86
418.45	4365.10
418.64	4491.49
418.83	4411.91
419.02	4535.96
419.21	4437.66
419.39	4383.82
419.58	4360.42
419.77	4521.92
419.96	4533.62
420.15	4449.36
420.34	4477.44
420.53	4648.30
420.72	4741.93
420.91	4718.52
421.10	4585.11
421.29	4727.88
421.48	4664.69
421.67	4739.58
421.86	4533.62
422.05	4762.99
422.24	4779.37
422.43	4805.12
422.61	4751.29
422.80	4774.69
422.99	4887.04
423.18	4835.55
423.37	4985.34
423.56	4826.18
423.75	4983.00
423.94	4791.08
424.13	4697.46
424.32	4629.58
424.50	4854.27
424.69	5104.71
424.88	5057.90
425.07	5104.71
425.26	4933.85
425.45	4898.74
425.64	5064.92
425.83	4954.91
426.01	4997.04
426.20	5057.90
426.39	5149.18
426.58	4975.98
426.77	4990.02
426.96	5097.69
427.15	5062.58
427.33	5172.58
427.52	5109.39
427.71	5158.54
427.90	5186.63
428.09	5217.05
428.28	5394.93
428.46	5355.15
428.65	5291.95
428.84	5441.75
429.03	5399.62
429.22	5373.87
429.40	5397.28
429.59	5451.11
429.78	5249.82
429.97	5224.08
430.16	5469.83
430.34	5533.03
430.53	5500.26
430.72	5701.54
430.91	5612.60
431.10	5603.24
431.28	5748.36
431.47	5858.36
431.66	5692.18
431.85	5816.23
432.03	5764.74
432.22	5926.24
432.41	5851.34
432.60	5837.30
432.79	6040.92
432.97	6038.58
433.16	5987.09
433.35	5984.75
433.54	6150.93
433.72	6132.20
433.91	6043.26
434.10	5975.39
434.28	6108.80
434.47	6183.70
434.66	6071.35
434.85	6171.99
435.03	6272.64
435.22	6256.25
435.41	6352.21
435.59	6375.62
435.78	6190.72
435.97	6242.21
436.16	6267.95
436.34	6513.71
436.53	6562.86
436.72	6743.08
436.90	6462.22
437.09	6614.35
437.28	6450.52
437.46	6443.49
437.65	6640.10
437.84	6888.20
438.02	6848.41
438.21	6689.25
438.40	6408.39
438.58	6867.13
438.77	7007.56
438.96	6782.87
439.14	6836.70
439.33	7115.23
439.52	7119.91
439.70	7103.53
439.89	7241.62
440.08	7293.11
440.26	7234.60
440.45	7290.77
440.63	7536.52
440.82	7606.74
441.01	7557.59
441.19	7485.03
441.38	7751.85
441.57	7758.88
441.75	7744.83
441.94	7925.05
442.12	7791.64
442.31	8107.62
442.50	8011.65
442.68	7946.12
442.87	7925.05
443.05	8243.37
443.24	8098.25
443.43	8081.87
443.61	8170.81
443.80	8381.46
443.98	7953.14
444.17	7960.16
444.35	8039.74
444.54	8409.54
444.73	8369.76
444.91	8297.20
445.10	8344.01
445.28	8306.56
445.47	8184.85
445.65	8336.99
445.84	8418.91
446.02	8521.89
446.21	8435.29
446.39	8306.56
446.58	8315.92
446.77	8439.97
446.95	8290.18
447.14	8486.78
447.32	8559.34
447.51	8372.10
447.69	8217.62
447.88	8582.74
448.06	8514.87
448.25	8479.76
448.43	8533.59
448.62	8416.57
448.80	8379.12
448.99	8821.48
449.17	8805.10
449.36	8688.07
449.54	8631.90
449.73	8894.04
449.91	8994.68
450.10	8910.42
450.28	9074.26
450.46	9090.64
450.65	9193.62
450.83	8870.63
451.02	9011.06
451.20	9165.54
451.39	9046.17
451.57	9006.38
451.76	9048.51
451.94	9261.50
452.13	9259.16
452.31	9249.80
452.49	9015.74
452.68	9404.27
452.86	9198.31
453.05	9401.93
453.23	9451.08
453.42	9380.87
453.60	9289.59
453.78	9582.15
453.97	9418.32
454.15	9547.05
454.34	9415.98
454.52	9401.93
454.70	9556.41
454.89	9720.24
455.07	9809.19
455.26	9551.73
455.44	9839.61
455.62	9666.41
455.81	9966.00
455.99	9856.00
456.17	10022.17
456.36	9928.55
456.54	10061.96
456.73	10228.14
456.91	10424.75
457.09	10389.64
457.28	10614.33
457.46	10277.29
457.64	10658.80
457.83	10642.42
458.01	10452.83
458.19	10656.46
458.38	10621.35
458.56	10698.59
458.74	10607.31
458.93	10654.12
459.11	10761.78
459.29	10803.91
459.48	10729.02
459.66	10967.75
459.84	10834.34
460.03	11218.19
460.21	10827.32
460.39	11028.60
460.57	10855.40
460.76	10965.41
460.94	11234.57
461.12	11178.40
461.31	11236.91
461.49	11269.68
461.67	11215.85
461.85	11543.52
462.04	11274.36
462.22	11885.24
462.40	11410.11
462.59	11337.56
462.77	11712.04
462.95	11456.92
463.13	11609.06
463.32	11410.11
463.50	11658.21
463.68	11784.60
463.86	11779.92
464.05	11772.89
464.23	11702.68
464.41	11861.84
464.59	11719.06
464.78	11903.96
464.96	11826.73
465.14	11702.68
465.32	11925.03
465.50	12142.70
465.69	12138.02
465.87	12236.32
466.05	11913.33
466.23	11960.14
466.41	11913.33
466.60	12306.54
466.78	12238.66
466.96	12229.30
467.14	12313.56
467.32	12121.63
467.51	12482.08
467.69	11892.26
467.87	12238.66
468.05	12423.56
468.23	12236.32
468.41	12264.41
468.60	12491.44
468.78	12727.83
468.96	12259.73
469.14	12730.17
469.32	12886.99
469.50	12608.47
469.69	12840.18
469.87	13071.89
470.05	13200.62
470.23	12957.21
470.41	13153.81
470.59	13217.01
470.77	12957.21
470.95	13088.28
471.14	13525.96
471.32	13123.38
471.50	13336.37
471.68	13329.35
471.86	13563.40
472.04	13563.40
472.22	13846.61
472.40	13745.97
472.58	13650.00
472.77	13989.38
472.95	13991.72
473.13	14366.21
473.31	14064.28
473.49	14139.18
473.67	13951.93
473.85	14249.18
474.03	14621.33
474.21	14448.13
474.39	14588.56
474.57	14647.07
474.75	14757.08
474.93	14738.35
475.12	14721.97
475.30	15220.50
475.48	15044.96
475.66	15293.06
475.84	15021.56
476.02	15304.76
476.20	15220.50
476.38	15606.69
476.56	15936.71
476.74	15765.85
476.92	15704.99
477.10	15735.42
477.28	16098.20
477.46	15838.41
477.64	16283.11
477.82	16346.30
478.00	16996.97
478.18	16383.75
478.36	16844.84
478.54	17039.10
478.72	17083.57
478.90	17163.15
479.08	17479.12
479.26	17628.92
479.44	17628.92
479.62	17767.01
479.80	17809.14
479.98	18125.11
480.16	18279.58
480.34	18078.30
480.52	18462.15
480.70	18588.53
480.88	18452.78
481.06	18490.23
481.24	18871.74
481.41	19108.13
481.59	19288.35
481.77	19442.83
481.95	19480.28
482.13	19529.43
482.31	19463.90
482.49	20189.46
482.67	20037.33
482.85	20081.80
483.03	20683.31
483.21	20610.76
483.39	20734.81
483.57	20650.55
483.74	21125.68
483.92	21387.82
484.10	20807.36
484.28	21713.15
484.46	21853.58
484.64	22052.53
484.82	22216.36
485.00	22380.20
485.18	22948.95
485.35	22883.42
485.53	22670.43
485.71	23115.13
485.89	23356.21
486.07	23161.94
486.25	23225.14
486.43	23232.16
486.61	23508.34
486.78	23695.58
486.96	24364.98
487.14	24353.27
487.32	24320.51
487.50	24556.90
487.68	24982.88
487.85	25242.68
488.03	25174.80
488.21	25516.52
488.39	25759.94
488.57	26050.16
488.75	25853.56
488.92	26108.68
489.10	26174.21
489.28	26136.76
489.46	27119.79
489.64	26728.92
489.81	28189.41
489.99	27562.15
490.17	27599.60
490.35	27957.70
490.53	28070.04
490.70	28346.23
490.88	28170.69
491.06	28568.58
491.24	28802.63
491.41	29156.05
491.59	28804.97
491.77	29191.16
491.95	29560.97
492.13	29968.22
492.30	29600.76
492.48	30148.44
492.66	29954.18
492.84	30443.35
493.01	30331.00
493.19	30232.70
493.37	31002.74
493.54	31269.56
493.72	31377.22
493.90	31225.09
494.08	31452.12
494.25	32002.14
494.43	32009.17
494.61	31985.76
494.79	32566.21
494.96	32444.51
495.14	32072.36
495.32	33123.26
495.49	32830.69
495.67	33228.59
495.85	33188.80
496.02	33589.03
496.20	33626.48
496.38	33682.65
496.55	33724.78
496.73	34834.19
496.91	34403.53
497.09	34876.32
497.26	34590.78
497.44	34611.84
497.62	34955.90
497.79	35374.86
497.97	35061.22
498.14	35213.36
498.32	35732.96
498.50	35981.06
498.67	36201.07
498.85	35976.37
499.03	36278.30
499.20	36540.44
499.38	36762.79
499.56	36591.94
499.73	37013.23
499.91	37244.94
500.08	37179.41
500.26	37207.50
500.44	37682.62
500.61	37560.92
500.79	37528.15
500.97	37771.57
501.14	38010.30
501.32	38501.81
501.49	38169.46
501.67	38305.21
501.84	38981.62
502.02	38895.02
502.20	38604.80
502.37	39012.05
502.55	39164.18
502.72	39592.50
502.90	39152.48
503.07	39501.22
503.25	39693.15
503.43	39559.73
503.60	39613.57
503.78	40093.38
503.95	40245.51
504.13	40137.85
504.30	40428.07
504.48	40458.50
504.65	40208.06
504.83	40718.30
505.01	40996.82
505.18	41078.74
505.36	41860.48
505.53	41170.02
505.71	41493.02
505.88	41596.00
506.06	41415.78
506.23	41984.53
506.41	41273.01
506.58	41638.13
506.76	41698.98
506.93	42263.05
507.11	42071.13
507.28	42670.31
507.46	42693.71
507.63	42721.80
507.81	43016.71
507.98	42249.01
508.16	43070.54
508.33	43084.58
508.50	43129.05
508.68	43313.95
508.85	43697.80
509.03	43798.44
509.20	43583.12
509.38	44385.92
509.55	44210.38
509.73	44081.65
509.90	44266.55
510.08	44196.34
510.25	44318.04
510.42	44608.27
510.60	44933.60
510.77	45057.65
510.95	45338.52
511.12	45254.26
511.30	45162.98
511.47	44795.51
511.64	45347.88
511.82	45574.91
511.99	44947.65
512.17	45570.23
512.34	45289.37
512.51	46169.41
512.69	45769.18
512.86	46059.40
513.04	46370.69
513.21	46398.78
513.38	46700.71
513.56	46625.81
513.73	47133.71
513.90	46775.61
514.08	46920.72
514.25	46965.19
514.43	47168.82
514.60	46885.61
514.77	46918.38
514.95	47384.15
515.12	47187.54
515.29	47526.92
515.47	47496.49
515.64	47693.10
515.81	47803.10
515.99	47885.02
516.16	48051.20
516.33	48243.12
516.51	48617.61
516.68	48378.87
516.85	48308.66
517.03	48467.81
517.20	48746.34
517.37	48257.17
517.54	48816.55
517.72	48362.49
517.89	49083.37
518.06	48823.58
518.24	49008.48
518.41	49174.66
518.58	48823.58
518.75	48772.08
518.93	49394.67
519.10	48949.96
519.27	49677.87
519.45	49631.06
519.62	49731.70
519.79	49602.97
519.96	49720.00
520.14	50115.55
520.31	50232.58
520.48	50129.59
520.65	49860.43
520.83	50473.65
521.00	50365.99
521.17	50380.03
521.34	50307.47
521.52	50796.65
521.69	50571.96
521.86	50841.12
522.03	50696.00
522.20	51199.22
522.38	51234.33
522.55	51068.15
522.72	50862.18
522.89	51227.31
523.07	51461.36
523.24	51278.80
523.41	51494.13
523.58	51241.35
523.75	51569.02
523.92	51236.67
524.10	51613.49
524.27	51760.95
524.44	51828.82
524.61	51920.10
524.78	51835.84
524.96	52189.27
525.13	52147.14
525.30	52196.29
525.47	52334.38
525.64	52339.06
525.81	52636.31
525.98	52416.30
526.16	52254.80
526.33	52346.08
526.50	52837.59
526.67	52652.69
526.84	52790.78
527.01	52755.68
527.18	53031.86
527.36	52765.04
527.53	52832.91
527.70	53275.27
527.87	53207.40
528.04	52952.28
528.21	53183.99
528.38	53104.41
528.55	53579.54
528.72	53205.06
528.89	53167.61
529.07	53125.48
529.24	53137.18
529.41	53340.81
529.58	53703.59
529.75	53570.18
529.92	53801.89
530.09	53595.93
530.26	53745.72
530.43	53829.98
530.60	53724.66
530.77	53691.89
530.94	54033.61
531.11	53834.66
531.28	54068.72
531.46	53839.34
531.63	54035.95
531.80	54085.10
531.97	53979.78
532.14	54314.47
532.31	54349.58
532.48	54155.32
532.65	54349.58
532.82	54316.81
532.99	54459.58
533.16	54574.27
533.33	54497.03
533.50	54745.13
533.67	54695.98
533.84	54452.56
534.01	54759.17
534.18	54850.45
534.35	55145.36
534.52	54927.69
534.69	55072.81
534.86	55187.49
535.03	54808.32
535.20	54810.67
535.37	55089.19
535.54	55332.60
535.71	55128.98
535.88	55119.62
536.05	54981.52
536.22	55363.03
536.38	55416.86
536.55	55220.26
536.72	55522.19
536.89	55007.27
537.06	55522.19
537.23	55494.10
537.40	55533.89
537.57	55412.18
537.74	55358.35
537.91	56053.49
538.08	55842.84
538.25	55540.91
538.42	55739.86
538.59	56018.38
538.75	55707.09
538.92	55882.63
539.09	56271.16
539.26	55906.04
539.43	55976.25
539.60	55835.82
539.77	56123.71
539.94	56013.70
540.11	56121.37
540.28	56128.39
540.44	56119.02
540.61	56184.56
540.78	56360.10
540.95	56203.28
541.12	56121.37
541.29	56207.97
541.46	56346.06
541.62	56545.00
541.79	56470.11
541.96	56275.84
542.13	56081.58
542.30	56495.85
542.47	56659.69
542.63	56533.30
542.80	56736.93
542.97	56905.44
543.14	57024.81
543.31	56891.40
543.48	57073.96
543.64	57380.57
543.81	57195.67
543.98	57432.07
544.15	57001.41
544.32	57352.49
544.48	57490.58
544.65	57153.54
544.82	57385.25
544.99	57066.94
545.16	57249.50
545.32	57223.76
545.49	57462.49
545.66	57535.05
545.83	57415.68
546.00	57516.32
546.16	57539.73
546.33	57621.65
546.50	57403.98
546.67	57523.35
546.83	57172.27
547.00	57696.55
547.17	57595.90
547.34	57570.16
547.50	57628.67
547.67	57797.19
547.84	57944.64
548.00	58038.26
548.17	57986.77
548.34	57766.76
548.51	58155.29
548.67	58281.68
548.84	57925.92
549.01	58096.78
549.18	57897.83
549.34	58021.88
549.51	57946.98
549.68	58365.94
549.84	58234.87
550.01	58211.46
550.18	58335.51
550.34	58255.93
550.51	58340.19
550.68	58417.43
550.84	58059.33
551.01	58358.92
551.18	58141.25
551.34	58277.00
551.51	58443.18
551.68	58482.97
551.84	58489.99
552.01	58316.79
552.18	58499.35
552.34	58375.30
552.51	58389.34
552.68	58489.99
552.84	58621.06
553.01	58745.11
553.18	58578.93
553.34	58768.51
553.51	58717.02
553.67	58508.71
553.84	58993.20
554.01	58901.92
554.17	58702.98
554.34	58932.35
554.51	58796.60
554.67	58934.69
554.84	58742.77
555.00	58904.26
555.17	58724.04
555.33	58878.52
555.50	58857.45
555.67	58848.09
555.83	58805.96
556.00	58890.22
556.16	59215.55
556.33	58808.30
556.50	59091.51
556.66	59213.21
556.83	58822.34
556.99	59267.05
557.16	59405.14
557.32	59407.48
557.49	59634.51
557.65	59182.79
557.82	59100.87
557.98	59299.81
558.15	59192.15
558.32	59341.94
558.48	59117.25
558.65	59271.73
558.81	59372.37
558.98	59554.93
559.14	59512.80
559.31	59552.59
559.47	59430.88
559.64	59458.97
559.80	59611.10
559.97	59564.29
560.13	59515.14
560.30	59491.74
560.46	59393.43
560.63	59683.66
560.79	59587.70
560.96	59906.01
561.12	59770.26
561.29	59585.36
561.45	59646.21
561.61	59877.93
561.78	59650.89
561.94	59721.11
562.11	59662.60
562.27	59522.16
562.44	59732.81
562.60	59882.61
562.77	59767.92
562.93	59671.96
563.10	59798.35
563.26	59538.55
563.42	59957.50
563.59	59889.63
563.75	59880.27
563.92	59840.48
564.08	59704.73
564.24	59894.31
564.41	60069.85
564.57	59845.16
564.74	59948.14
564.90	59887.29
565.07	59983.25
565.23	59840.48
565.39	59817.07
565.56	59994.95
565.72	60041.76
565.88	60086.23
566.05	60018.36
566.21	60076.87
566.38	60140.07
566.54	60156.45
566.70	60343.69
566.87	60526.25
567.03	60023.04
567.19	60339.01
567.36	59898.99
567.52	60243.05
567.68	60278.16
567.85	60247.73
568.01	60186.88
568.17	60198.58
568.34	60179.85
568.50	60364.76
568.66	60285.18
568.83	60257.09
568.99	60086.23
569.15	60259.43
569.32	60294.54
569.48	60135.38
569.64	60411.57
569.81	60362.42
569.97	60191.56
570.13	60205.60
570.30	60303.90
570.46	60219.64
570.62	60626.90
570.78	60404.55
570.95	60320.29
571.11	60505.19
571.27	60285.18
571.43	60458.38
571.60	60537.96
571.76	60240.71
571.92	60640.94
572.09	60243.05
572.25	60528.59
572.41	60514.55
572.57	60327.31
572.74	60664.35
572.90	60275.82
573.06	60477.10
573.22	60324.97
573.38	60645.62
573.55	60544.98
573.71	60678.39
573.87	60704.13
574.03	60434.97
574.20	60636.26
574.36	60271.14
574.52	60570.72
574.68	60615.19
574.84	60762.65
575.01	60591.79
575.17	60652.64
575.33	60512.21
575.49	60535.62
575.65	60676.05
575.82	60790.73
575.98	60383.48
576.14	60872.65
576.30	60580.09
576.46	60680.73
576.62	60622.22
576.79	60456.04
576.95	60336.67
577.11	60598.81
577.27	60743.92
577.43	60685.41
577.59	60563.70
577.75	60486.46
577.92	60477.10
578.08	60657.32
578.24	60713.50
578.40	60889.04
578.56	60762.65
578.72	60753.29
578.88	60912.44
579.04	60889.04
579.21	60676.05
579.37	61008.40
579.53	60830.52
579.69	60514.55
579.85	60439.65
580.01	60715.84
580.17	60603.49
580.33	60729.88
580.49	60889.04
580.65	60662.00
580.82	60704.13
580.98	60629.24
581.14	60657.32
581.30	61127.77
581.46	60891.38
581.62	60669.03
581.78	60622.22
581.94	60774.35
582.10	60781.37
582.26	60652.64
582.42	60683.07
582.58	60750.94
582.74	60690.09
582.90	60680.73
583.06	60842.23
583.22	60713.50
583.38	60736.90
583.54	60739.24
583.70	60837.54
583.86	60858.61
584.02	60863.29
584.18	60949.89
584.34	60713.50
584.50	60814.14
584.66	60750.94
584.82	60725.20
584.98	61003.72
585.14	60825.84
585.30	60886.70
585.46	60729.88
585.62	60809.46
585.78	60867.97
585.94	60472.42
586.10	60786.05
586.26	60938.19
586.42	61087.98
586.58	60992.02
586.74	60729.88
586.90	60970.96
587.06	60807.12
587.22	60961.59
587.38	60842.23
587.54	61090.32
587.70	61144.16
587.86	61104.37
588.02	60818.82
588.18	61055.21
588.34	60961.59
588.49	60954.57
