SpectraSuite Data File
++++++++++++++++++++++++++++++++++++
Date: Fri Oct 25 11:23:02 EDT 2013
User: price-jones
Dark Spectrum Present: No
Reference Spectrum Present: No
Number of Sampled Component Spectra: 1
Spectrometers: USB2+H05261
Integration Time (usec): 100000 (USB2+H05261)
Spectra Averaged: 1 (USB2+H05261)
Boxcar Smoothing: 0 (USB2+H05261)
Correct for Electrical Dark: No (USB2+H05261)
Strobe/Lamp Enabled: No (USB2+H05261)
Correct for Detector Non-linearity: No (USB2+H05261)
Correct for Stray Light: No (USB2+H05261)
Number of Pixels in Processed Spectrum: 2048
>>>>>Begin Processed Spectral Data<<<<<
365.73	215.33
365.92	215.33
366.12	215.33
366.32	166.18
366.52	128.73
366.72	184.90
366.91	135.75
367.11	60.85
367.31	102.98
367.51	93.62
367.70	203.63
367.90	98.30
368.10	140.43
368.30	149.79
368.49	159.16
368.69	154.48
368.89	112.35
369.09	98.30
369.28	231.71
369.48	154.48
369.68	203.63
369.87	227.03
370.07	208.31
370.27	173.20
370.47	234.05
370.66	557.05
370.86	638.97
371.06	622.58
371.25	660.03
371.45	713.86
371.65	613.22
371.84	711.52
372.04	683.44
372.24	660.03
372.44	655.35
372.63	678.76
372.83	760.67
373.03	704.50
373.22	718.54
373.42	844.93
373.62	779.40
373.81	777.06
374.01	744.29
374.21	791.10
374.40	809.83
374.60	884.72
374.79	805.14
374.99	854.30
375.19	844.93
375.38	884.72
375.58	866.00
375.78	812.17
375.97	774.72
376.17	891.74
376.37	802.80
376.56	873.02
376.76	915.15
376.95	851.96
377.15	954.94
377.35	952.60
377.54	952.60
377.74	901.11
377.93	919.83
378.13	840.25
378.33	983.02
378.52	880.04
378.72	901.11
378.91	917.49
379.11	880.04
379.31	936.21
379.50	997.07
379.70	945.58
379.89	1022.81
380.09	917.49
380.28	943.24
380.48	1006.43
380.68	994.73
380.87	1008.77
381.07	1001.75
381.26	1043.88
381.46	1004.09
381.65	1062.60
381.85	1116.44
382.04	952.60
382.24	1032.18
382.43	1109.41
382.63	1083.67
382.83	1102.39
383.02	1093.03
383.22	1123.46
383.41	1107.07
383.61	1179.63
383.80	1146.86
384.00	1181.97
384.19	1198.35
384.39	1172.61
384.58	1130.48
384.78	1128.14
384.97	1071.97
385.17	1170.27
385.36	1179.63
385.56	1160.91
385.75	1177.29
385.95	1146.86
386.14	1221.76
386.34	1172.61
386.53	1123.46
386.72	1207.72
386.92	1226.44
387.11	1289.64
387.31	1327.08
387.50	1144.52
387.70	1193.67
387.89	1282.61
388.09	1287.29
388.28	1338.79
388.48	1273.25
388.67	1306.02
388.86	1301.34
389.06	1329.42
389.25	1287.29
389.45	1357.51
389.64	1317.72
389.84	1392.62
390.03	1299.00
390.22	1451.13
390.42	1357.51
390.61	1439.43
390.81	1430.07
391.00	1521.35
391.19	1467.52
391.39	1451.13
391.58	1409.00
391.78	1430.07
391.97	1451.13
392.16	1572.84
392.36	1430.07
392.55	1593.90
392.75	1521.35
392.94	1568.16
393.13	1542.41
393.33	1521.35
393.52	1556.46
393.71	1607.95
393.91	1654.76
394.10	1558.80
394.29	1533.05
394.49	1671.14
394.68	1687.53
394.88	1521.35
395.07	1612.63
395.26	1678.16
395.46	1659.44
395.65	1778.81
395.84	1624.33
396.04	1785.83
396.23	1720.29
396.42	1816.26
396.62	1689.87
396.81	1823.28
397.00	1797.53
397.19	1753.06
397.39	1739.02
397.58	1879.45
397.77	1827.96
397.97	1790.51
398.16	1837.32
398.35	1891.15
398.55	1839.66
398.74	1952.01
398.93	1933.28
399.12	1860.73
399.32	1961.37
399.51	1940.30
399.70	1937.96
399.90	1907.54
400.09	1940.30
400.28	2047.97
400.47	2054.99
400.67	2153.29
400.86	2036.27
401.05	2134.57
401.24	2062.01
401.44	2179.04
401.63	2113.50
401.82	2190.74
402.01	2195.42
402.21	2104.14
402.40	2195.42
402.59	2218.83
402.78	2221.17
402.97	2235.21
403.17	2317.13
403.36	2270.32
403.55	2284.36
403.74	2403.73
403.93	2326.49
404.13	2359.26
404.32	2356.92
404.51	2242.23
404.70	2452.88
404.89	2471.61
405.09	2410.75
405.28	2354.58
405.47	2392.03
405.66	2490.33
405.85	2513.74
406.05	2420.11
406.24	2492.67
406.43	2504.37
406.62	2635.44
406.81	2633.10
407.00	2581.61
407.20	2537.14
407.39	2637.78
407.58	2750.13
407.77	2743.11
407.96	2677.57
408.15	2813.32
408.34	2785.24
408.54	2752.47
408.73	2738.43
408.92	2913.97
409.11	2839.07
409.30	2932.69
409.49	2951.42
409.68	2902.26
409.87	2942.05
410.07	3204.19
410.26	2979.50
410.45	2981.84
410.64	2939.71
410.83	3047.38
411.02	3040.36
411.21	3108.23
411.40	3141.00
411.59	3218.24
411.78	3267.39
411.98	3042.70
412.17	3302.50
412.36	3321.22
412.55	3314.20
412.74	3454.63
412.93	3585.70
413.12	3426.54
413.31	3625.49
413.50	3438.25
413.69	3524.85
413.88	3606.77
414.07	3487.40
414.26	3641.87
414.45	3756.56
414.64	3712.09
414.83	3662.94
415.02	3707.41
415.22	3908.69
415.41	3927.42
415.60	3772.94
415.79	3889.97
415.98	4018.70
416.17	3906.35
416.36	4025.72
416.55	4032.74
416.74	3988.27
416.93	3955.51
417.12	4191.90
417.31	4194.24
417.50	4049.13
417.69	4322.97
417.88	4227.01
418.07	4311.27
418.26	4379.14
418.45	4432.97
418.64	4421.27
418.83	4404.89
419.02	4358.08
419.21	4559.36
419.39	4608.51
419.58	4475.10
419.77	4512.55
419.96	4540.64
420.15	4634.26
420.34	4791.08
420.53	4669.37
420.72	4631.92
420.91	4664.69
421.10	4800.44
421.29	4842.57
421.48	4802.78
421.67	4737.24
421.86	4898.74
422.05	4905.76
422.24	4823.84
422.43	4915.12
422.61	4816.82
422.80	5043.85
422.99	4889.38
423.18	5104.71
423.37	5090.67
423.56	4966.62
423.75	4858.95
423.94	4887.04
424.13	4631.92
424.32	4847.25
424.50	5022.79
424.69	4903.42
424.88	5093.01
425.07	5022.79
425.26	4943.21
425.45	5100.03
425.64	4950.23
425.83	5097.69
426.01	5114.07
426.20	5083.64
426.39	5069.60
426.58	5041.51
426.77	5238.12
426.96	5160.88
427.15	5165.56
427.33	5275.57
427.52	5284.93
427.71	5294.29
427.90	5240.46
428.09	5359.83
428.28	5345.78
428.46	5268.55
428.65	5310.68
428.84	5504.94
429.03	5626.65
429.22	5348.12
429.40	5387.91
429.59	5526.00
429.78	5359.83
429.97	5287.27
430.16	5561.11
430.34	5703.89
430.53	5757.72
430.72	5743.67
430.91	5680.48
431.10	5710.91
431.28	5851.34
431.47	5760.06
431.66	5998.79
431.85	5734.31
432.03	5902.83
432.22	5860.70
432.41	5727.29
432.60	5916.87
432.79	6024.54
432.97	6071.35
433.16	5975.39
433.35	6174.33
433.54	5998.79
433.72	6150.93
433.91	6239.87
434.10	6106.46
434.28	6061.99
434.47	6347.53
434.66	6303.06
434.85	6410.73
435.03	6394.34
435.22	6277.32
435.41	6548.82
435.59	6469.24
435.78	6417.75
435.97	6431.79
436.16	6541.80
436.34	6298.38
436.53	6452.86
436.72	6562.86
436.90	6434.13
437.09	6593.29
437.28	6328.81
437.46	6670.53
437.65	6663.51
437.84	6780.53
438.02	6637.76
438.21	6782.87
438.40	6834.36
438.58	6799.26
438.77	7056.72
438.96	6855.43
439.14	7014.59
439.33	7407.80
439.52	7323.54
439.70	7201.83
439.89	7463.97
440.08	7447.58
440.26	7452.27
440.45	7328.22
440.63	7421.84
440.82	7515.46
441.01	7506.10
441.19	7667.60
441.38	7644.19
441.57	7822.07
441.75	7747.17
441.94	8016.33
442.12	7840.79
442.31	7955.48
442.50	8224.64
442.68	7932.08
442.87	8030.38
443.05	8042.08
443.24	8395.50
443.43	8063.15
443.61	8154.43
443.80	8369.76
443.98	8107.62
444.17	7875.90
444.35	8393.16
444.54	8451.67
444.73	8248.05
444.91	8404.86
445.10	8336.99
445.28	8339.33
445.47	8222.30
445.65	8353.37
445.84	8404.86
446.02	8472.74
446.21	8266.77
446.39	8430.61
446.58	8566.36
446.77	8514.87
446.95	8262.09
447.14	8472.74
447.32	8613.17
447.51	8650.62
447.69	8667.00
447.88	8629.56
448.06	8479.76
448.25	8582.74
448.43	8688.07
448.62	8683.39
448.80	8561.68
448.99	8652.96
449.17	8856.59
449.36	8807.44
449.54	8795.73
449.73	9114.05
449.91	8950.21
450.10	9067.24
450.28	9132.77
450.46	9095.32
450.65	9156.18
450.83	9128.09
451.02	8940.85
451.20	9137.45
451.39	9371.50
451.57	9233.41
451.76	9249.80
451.94	9121.07
452.13	9324.69
452.31	9392.57
452.49	9128.09
452.68	9556.41
452.86	9425.34
453.05	9425.34
453.23	9633.64
453.42	9305.97
453.60	9673.43
453.78	9652.37
453.97	9469.81
454.15	9420.66
454.34	9518.96
454.52	9851.31
454.70	9753.01
454.89	9734.29
455.07	10087.71
455.26	9743.65
455.44	10258.57
455.62	9933.23
455.81	9774.08
455.99	10085.37
456.17	10087.71
456.36	10022.17
456.54	10111.11
456.73	10303.04
456.91	10626.03
457.09	10782.85
457.28	10677.52
457.46	10211.76
457.64	10623.69
457.83	10677.52
458.01	10548.79
458.19	10761.78
458.38	10651.78
458.56	10733.70
458.74	10677.52
458.93	10839.02
459.11	10754.76
459.29	10654.12
459.48	10857.75
459.66	10843.70
459.84	11009.88
460.03	10956.05
460.21	11040.31
460.39	10972.43
460.57	11136.27
460.76	11115.20
460.94	11082.44
461.12	11227.55
461.31	11290.74
461.49	11117.54
461.67	11346.92
461.85	11555.22
462.04	11286.06
462.22	11702.68
462.40	11667.57
462.59	11585.65
462.77	11571.61
462.95	11742.47
463.13	11625.44
463.32	11733.11
463.50	11683.95
463.68	11789.28
463.86	12004.61
464.05	11515.44
464.23	11796.30
464.41	11918.01
464.59	11899.28
464.78	12159.08
464.96	12116.95
465.14	11934.39
465.32	12133.34
465.50	11950.78
465.69	12463.35
465.87	12140.36
466.05	12100.57
466.23	12236.32
466.41	12336.96
466.60	12538.25
466.78	12280.79
466.96	12100.57
467.14	12318.24
467.32	12463.35
467.51	12526.55
467.69	12411.86
467.87	12381.43
468.05	12730.17
468.23	12374.41
468.41	12456.33
468.60	12870.61
468.78	12931.46
468.96	12603.78
469.14	12929.12
469.32	12966.57
469.50	12809.75
469.69	13167.85
469.87	13090.62
470.05	13146.79
470.23	13209.98
470.41	13181.90
470.59	13472.12
470.77	13252.11
470.95	13329.35
471.14	13474.46
471.32	13118.70
471.50	13668.73
471.68	13738.94
471.86	13507.23
472.04	13792.78
472.22	14190.67
472.40	13689.79
472.58	13867.67
472.77	14134.50
472.95	14003.43
473.13	14721.97
473.31	14295.99
473.49	14258.54
473.67	14216.41
473.85	14434.08
474.03	14789.85
474.21	14808.57
474.39	14787.50
474.57	14888.15
474.75	14967.73
474.93	15152.63
475.12	14895.17
475.30	15101.14
475.48	15161.99
475.66	15662.86
475.84	15428.81
476.02	15253.27
476.20	15676.91
476.38	15974.16
476.56	16056.08
476.74	15901.60
476.92	16037.35
477.10	15978.84
477.28	16191.83
477.46	16121.61
477.64	16451.63
477.82	16746.53
478.00	16933.78
478.18	16924.41
478.36	17114.00
478.54	17167.83
478.72	17493.16
478.90	17502.53
479.08	17427.63
479.26	17884.03
479.44	17818.50
479.62	18185.96
479.80	18050.21
479.98	18197.67
480.16	19000.47
480.34	18628.32
480.52	18642.37
480.70	18853.02
480.88	18707.90
481.06	18960.68
481.24	18878.76
481.41	19161.97
481.59	19716.67
481.77	19470.92
481.95	19625.39
482.13	19985.83
482.31	19749.44
482.49	20355.64
482.67	20196.48
482.85	20631.82
483.03	20556.93
483.21	20917.37
483.39	21172.49
483.57	20985.24
483.74	21130.36
483.92	21729.53
484.10	21235.68
484.28	21862.94
484.46	22087.64
484.64	22345.09
484.82	22125.08
485.00	22590.85
485.18	22366.16
485.35	22920.87
485.53	22766.39
485.71	23234.50
485.89	23171.30
486.07	23325.78
486.25	23449.83
486.43	23749.42
486.61	24257.31
486.78	24507.75
486.96	24620.10
487.14	24805.00
487.32	25015.65
487.50	25001.60
487.68	25130.33
487.85	25673.34
488.03	25560.99
488.21	26328.69
488.39	25916.75
488.57	26452.73
488.75	26143.78
488.92	26417.63
489.10	26794.45
489.28	26761.69
489.46	27094.04
489.64	27180.64
489.81	27630.02
489.99	27936.63
490.17	28168.35
490.35	28180.05
490.53	28430.49
490.70	28414.10
490.88	28615.39
491.06	29001.58
491.24	29146.69
491.41	29064.77
491.59	29631.18
491.77	29394.79
491.95	29837.15
492.13	29905.02
492.30	30260.79
492.48	30108.65
492.66	30773.36
492.84	30677.40
493.01	30801.45
493.19	30469.09
493.37	30951.24
493.54	31309.35
493.72	31508.29
493.90	31473.18
494.08	31999.80
494.25	32123.85
494.43	32074.70
494.61	32627.07
494.79	32634.09
494.96	32671.54
495.14	32659.84
495.32	33354.97
495.49	33689.67
495.67	33574.98
495.85	33813.72
496.02	33933.09
496.20	34066.50
496.38	34539.29
496.55	34082.88
496.73	35037.82
496.91	35044.84
497.09	35117.40
497.26	35079.95
497.44	35236.77
497.62	35594.87
497.79	35798.49
497.97	35519.97
498.14	35756.36
498.32	36189.36
498.50	36547.47
498.67	36797.90
498.85	36643.43
499.03	36662.15
499.20	37207.50
499.38	37205.16
499.56	37439.21
499.73	37614.75
499.91	37521.13
500.08	38094.56
500.26	37434.53
500.44	38150.73
500.61	38026.68
500.79	38218.61
500.97	38609.48
501.14	39182.91
501.32	38691.40
501.49	38447.98
501.67	38714.80
501.84	39349.09
502.02	39105.67
502.20	39222.70
502.37	39615.91
502.55	39431.01
502.72	39751.66
502.90	39735.27
503.07	39379.51
503.25	40348.50
503.43	40044.23
503.60	40430.41
503.78	40744.05
503.95	40442.12
504.13	40442.12
504.30	40627.02
504.48	40498.29
504.65	40982.78
504.83	41523.44
505.01	41406.42
505.18	41572.60
505.36	41986.87
505.53	41401.74
505.71	41736.43
505.88	41944.74
506.06	41837.08
506.23	42281.78
506.41	42450.30
506.58	42684.35
506.76	42263.05
506.93	42611.79
507.11	42471.36
507.28	42784.99
507.46	42890.32
507.63	43110.33
507.81	43342.04
507.98	43428.64
508.16	43629.93
508.33	43552.69
508.50	43812.49
508.68	44065.27
508.85	44032.50
509.03	44313.36
509.20	44416.35
509.38	44568.48
509.55	44664.44
509.73	45006.16
509.90	44678.49
510.08	44811.90
510.25	44882.11
510.42	44905.52
510.60	45303.41
510.77	45411.07
510.95	45860.46
511.12	45209.79
511.30	45155.96
511.47	45507.04
511.64	46176.43
511.82	46267.71
511.99	45951.74
512.17	46131.96
512.34	46293.46
512.51	46726.46
512.69	46546.23
512.86	46609.43
513.04	46571.98
513.21	47037.75
513.38	47114.98
513.56	46834.12
513.73	47107.96
513.90	46731.14
514.08	47571.39
514.25	47620.54
514.43	47508.19
514.60	47477.77
514.77	47927.15
514.95	47810.12
515.12	48198.65
515.29	47882.68
515.47	47863.96
515.64	48718.25
515.81	48626.97
515.99	48563.78
516.16	48914.86
516.33	48687.82
516.51	49132.53
516.68	48891.45
516.85	49057.63
517.03	48767.40
517.20	49160.61
517.37	48844.64
517.54	48889.11
517.72	49202.74
517.89	49481.27
518.06	49448.50
518.24	49528.08
518.41	49544.46
518.58	49380.62
518.75	49593.61
518.93	50057.04
519.10	49499.99
519.27	49921.29
519.45	50213.85
519.62	50113.21
519.79	50164.70
519.96	50419.82
520.14	50295.77
520.31	50354.29
520.48	50412.80
520.65	50370.67
520.83	50834.10
521.00	50901.97
521.17	50426.84
521.34	50916.01
521.52	51058.79
521.69	51267.09
521.86	51316.25
522.03	51332.63
522.20	51173.47
522.38	51784.35
522.55	51632.22
522.72	51557.32
522.89	51601.79
523.07	51870.95
523.24	51868.61
523.41	51868.61
523.58	51765.63
523.75	52182.24
523.92	51765.63
524.10	52163.52
524.27	52268.84
524.44	52172.88
524.61	52528.64
524.78	52418.64
524.96	52643.33
525.13	52622.26
525.30	52566.09
525.47	52783.76
525.64	52559.07
525.81	52807.17
525.98	52992.07
526.16	52961.64
526.33	52875.04
526.50	53095.05
526.67	53158.25
526.84	53258.89
527.01	53230.80
527.18	53191.01
527.36	53286.98
527.53	53256.55
527.70	53588.91
527.87	53483.58
528.04	53556.14
528.21	53525.71
528.38	53361.87
528.55	53822.96
528.72	53469.54
528.89	53998.50
529.07	53546.78
529.24	53453.15
529.41	54005.52
529.58	53869.77
529.75	53808.92
529.92	53881.47
530.09	53968.07
530.26	54258.30
530.43	54143.61
530.60	54103.82
530.77	54082.76
530.94	54401.07
531.11	54080.42
531.28	54461.93
531.46	54295.75
531.63	54600.02
531.80	54660.87
531.97	54637.47
532.14	54691.30
532.31	54904.29
532.48	54848.11
532.65	54777.90
532.82	54686.62
532.99	54932.37
533.16	55112.59
533.33	54946.42
533.50	54901.95
533.67	54768.54
533.84	55009.61
534.01	54752.15
534.18	55004.93
534.35	55501.12
534.52	55370.05
534.69	55400.48
534.86	55400.48
535.03	55231.96
535.20	55430.91
535.37	55430.91
535.54	55627.51
535.71	55323.24
535.88	55772.63
536.05	55505.80
536.22	55615.81
536.38	55812.41
536.55	55681.34
536.72	55756.24
536.89	55760.92
537.06	55798.37
537.23	55800.71
537.40	55796.03
537.57	55779.65
537.74	56229.03
537.91	56109.66
538.08	56006.68
538.25	55786.67
538.42	56030.08
538.59	56329.67
538.75	56336.69
538.92	56121.37
539.09	56353.08
539.26	56285.20
539.43	56142.43
539.60	56423.29
539.77	56516.92
539.94	56772.03
540.11	56638.62
540.28	56619.90
540.44	56970.98
540.61	56762.67
540.78	56715.86
540.95	56666.71
541.12	56556.70
541.29	56643.30
541.46	56589.47
541.62	56919.49
541.79	56928.85
541.96	56804.80
542.13	56659.69
542.30	56825.87
542.47	56849.27
542.63	57069.28
542.80	57090.35
542.97	56851.61
543.14	57263.55
543.31	57305.68
543.48	57298.65
543.64	57822.93
543.81	57574.84
543.98	57373.55
544.15	57495.26
544.32	57724.63
544.48	57659.10
544.65	57352.49
544.82	57633.35
544.99	57551.43
545.16	57794.85
545.32	57698.89
545.49	57848.68
545.66	57851.02
545.83	57827.62
546.00	57771.44
546.16	57881.45
546.33	57719.95
546.50	57710.59
546.67	57851.02
546.83	57418.02
547.00	58038.26
547.17	57787.83
547.34	57935.28
547.50	58080.39
547.67	58136.57
547.84	58073.37
548.00	58405.73
548.17	58394.03
548.34	58494.67
548.51	58419.77
548.67	58314.45
548.84	58305.09
549.01	58319.13
549.18	58080.39
549.34	58316.79
549.51	58525.10
549.68	58534.46
549.84	58410.41
550.01	58534.46
550.18	58258.27
550.34	58700.64
550.51	58665.53
550.68	58784.90
550.84	58426.79
551.01	58817.66
551.18	58684.25
551.34	58616.38
551.51	58644.46
551.68	58616.38
551.84	58894.90
552.01	58555.52
552.18	58855.11
552.34	58693.61
552.51	59096.19
552.68	58937.03
552.84	58733.40
553.01	59164.06
553.18	58927.67
553.34	59135.98
553.51	58953.41
553.67	59124.27
553.84	58997.88
554.01	58955.75
554.17	59313.86
554.34	59140.66
554.51	59044.69
554.67	59159.38
554.84	59061.08
555.00	58965.12
555.17	59121.93
555.33	59117.25
555.50	59082.14
555.67	59166.40
555.83	59210.87
556.00	59274.07
556.16	59655.57
556.33	59400.46
556.50	59442.59
556.66	59543.23
556.83	59276.41
556.99	59627.49
557.16	59585.36
557.32	59639.19
557.49	59884.95
557.65	59517.48
557.82	59409.82
557.98	59505.78
558.15	59924.74
558.32	59627.49
558.48	59475.35
558.65	59664.94
558.81	59669.62
558.98	59774.94
559.14	59683.66
559.31	59601.74
559.47	59833.46
559.64	60069.85
559.80	59821.75
559.97	59934.10
560.13	59805.37
560.30	59781.96
560.46	59971.55
560.63	59866.22
560.79	60018.36
560.96	60016.02
561.12	59936.44
561.29	60023.04
561.45	60016.02
561.61	60044.10
561.78	59990.27
561.94	59929.42
562.11	59922.40
562.27	60196.24
562.44	60123.68
562.60	60226.66
562.77	60224.32
562.93	59990.27
563.10	60271.14
563.26	59973.89
563.42	60278.16
563.59	60095.60
563.75	60512.21
563.92	60168.15
564.08	60023.04
564.24	60488.80
564.41	60353.05
564.57	60130.70
564.74	60320.29
564.90	60317.95
565.07	60102.62
565.23	60350.71
565.39	60261.77
565.56	60299.22
565.72	60313.26
565.88	60369.44
566.05	60313.26
566.21	60402.21
566.38	60392.84
566.54	60362.42
566.70	60444.33
566.87	60540.30
567.03	60484.12
567.19	60636.26
567.36	60416.25
567.52	60135.38
567.68	60659.66
567.85	60479.44
568.01	60643.28
568.17	60294.54
568.34	60596.47
568.50	60341.35
568.66	60327.31
568.83	60542.64
568.99	60341.35
569.15	60552.00
569.32	60390.50
569.48	60577.75
569.64	60673.71
569.81	60580.09
569.97	60500.51
570.13	60685.41
570.30	60573.06
570.46	60610.51
570.62	60673.71
570.78	60540.30
570.95	60587.11
571.11	60729.88
571.27	60652.64
571.43	60570.72
571.60	60753.29
571.76	60844.57
571.92	60762.65
572.09	60764.99
572.25	60973.30
572.41	60729.88
572.57	60743.92
572.74	61038.83
572.90	60676.05
573.06	60779.03
573.22	60687.75
573.38	60746.26
573.55	60713.50
573.71	60884.36
573.87	60718.18
574.03	60608.17
574.20	60786.05
574.36	60757.97
574.52	60884.36
574.68	60823.50
574.84	61038.83
575.01	61230.75
575.17	60879.67
575.33	60903.08
575.49	60842.23
575.65	60755.63
575.82	60980.32
575.98	60942.87
576.14	61298.63
576.30	61038.83
576.46	61043.51
576.62	60959.25
576.79	60828.18
576.95	60694.77
577.11	61120.75
577.27	61013.08
577.43	60956.91
577.59	60877.33
577.75	60999.04
577.92	60767.33
578.08	60947.55
578.24	60963.93
578.40	61137.13
578.56	60931.17
578.72	60982.66
578.88	61080.96
579.04	61193.31
579.21	61029.47
579.37	61230.75
579.53	61209.69
579.69	60910.10
579.85	61076.28
580.01	60966.27
580.17	60952.23
580.33	61034.15
580.49	61310.33
580.65	61071.60
580.82	61118.41
580.98	60977.98
581.14	60982.66
581.30	61085.64
581.46	61010.74
581.62	61205.01
581.78	61066.92
581.94	61172.24
582.10	60727.54
582.26	61134.79
582.42	60933.51
582.58	61071.60
582.74	61317.35
582.90	61057.56
583.06	61076.28
583.22	60949.89
583.38	61109.05
583.54	60994.36
583.70	60980.32
583.86	61076.28
584.02	60886.70
584.18	61272.88
584.34	61216.71
584.50	61193.31
584.66	61123.09
584.82	60811.80
584.98	61434.38
585.14	61261.18
585.30	61057.56
585.46	61001.38
585.62	61207.35
585.78	61242.46
585.94	60982.66
586.10	61029.47
586.26	61190.97
586.42	61130.11
586.58	61233.10
586.74	61219.05
586.90	61176.92
587.06	61048.19
587.22	61520.98
587.38	61207.35
587.54	61109.05
587.70	61268.20
587.86	61345.44
588.02	61207.35
588.18	61298.63
588.34	61242.46
588.49	61319.70
