SpectraSuite Data File
++++++++++++++++++++++++++++++++++++
Date: Fri Oct 25 11:25:04 EDT 2013
User: price-jones
Dark Spectrum Present: No
Reference Spectrum Present: No
Number of Sampled Component Spectra: 1
Spectrometers: USB2+H05261
Integration Time (usec): 100000 (USB2+H05261)
Spectra Averaged: 1 (USB2+H05261)
Boxcar Smoothing: 0 (USB2+H05261)
Correct for Electrical Dark: No (USB2+H05261)
Strobe/Lamp Enabled: No (USB2+H05261)
Correct for Detector Non-linearity: No (USB2+H05261)
Correct for Stray Light: No (USB2+H05261)
Number of Pixels in Processed Spectrum: 2048
>>>>>Begin Processed Spectral Data<<<<<
365.73	243.42
365.92	243.42
366.12	243.42
366.32	215.33
366.52	156.82
366.72	131.07
366.91	224.69
367.11	112.35
367.31	149.79
367.51	147.45
367.70	177.88
367.90	126.39
368.10	156.82
368.30	140.43
368.49	177.88
368.69	119.37
368.89	105.32
369.09	121.71
369.28	170.86
369.48	112.35
369.68	191.92
369.87	180.22
370.07	166.18
370.27	215.33
370.47	313.63
370.66	568.75
370.86	608.54
371.06	648.33
371.25	676.41
371.45	636.63
371.65	713.86
371.84	664.71
372.04	718.54
372.24	671.73
372.44	683.44
372.63	798.12
372.83	791.10
373.03	763.01
373.22	730.25
373.42	795.78
373.62	667.05
373.81	744.29
374.01	805.14
374.21	781.74
374.40	751.31
374.60	833.23
374.79	795.78
374.99	898.77
375.19	889.40
375.38	830.89
375.58	833.23
375.78	847.27
375.97	870.68
376.17	910.47
376.37	880.04
376.56	835.57
376.76	884.72
376.95	877.70
377.15	837.91
377.35	877.70
377.54	917.49
377.74	849.61
377.93	875.36
378.13	919.83
378.33	1004.09
378.52	1001.75
378.72	992.39
378.91	978.34
379.11	933.87
379.31	959.62
379.50	971.32
379.70	938.55
379.89	992.39
380.09	945.58
380.28	971.32
380.48	1020.47
380.68	896.43
380.87	973.66
381.07	1064.94
381.26	1015.79
381.46	1048.56
381.65	1069.62
381.85	1015.79
382.04	1043.88
382.24	999.41
382.43	978.34
382.63	1057.92
382.83	1060.26
383.02	1165.59
383.22	1104.73
383.41	973.66
383.61	1046.22
383.80	1172.61
384.00	1086.01
384.19	1083.67
384.39	1198.35
384.58	1160.91
384.78	1184.31
384.97	1177.29
385.17	1153.88
385.36	1156.22
385.56	1144.52
385.75	1123.46
385.95	1167.93
386.14	1167.93
386.34	1231.12
386.53	1130.48
386.72	1198.35
386.92	1181.97
387.11	1198.35
387.31	1252.19
387.50	1245.16
387.70	1184.31
387.89	1231.12
388.09	1200.69
388.28	1252.19
388.48	1219.42
388.67	1334.11
388.86	1392.62
389.06	1291.98
389.25	1357.51
389.45	1327.08
389.64	1289.64
389.84	1371.55
390.03	1394.96
390.22	1390.28
390.42	1357.51
390.61	1460.49
390.81	1308.36
391.00	1320.06
391.19	1472.20
391.39	1394.96
391.58	1462.83
391.78	1519.01
391.97	1540.07
392.16	1451.13
392.36	1446.45
392.55	1483.90
392.75	1547.09
392.94	1479.22
393.13	1598.59
393.33	1575.18
393.52	1614.97
393.71	1554.12
393.91	1582.20
394.10	1586.88
394.29	1586.88
394.49	1610.29
394.68	1593.90
394.88	1551.78
395.07	1603.27
395.26	1673.48
395.46	1703.91
395.65	1734.34
395.84	1682.85
396.04	1809.23
396.23	1739.02
396.42	1860.73
396.62	1832.64
396.81	1795.19
397.00	1764.76
397.19	1739.02
397.39	1757.74
397.58	1825.62
397.77	1809.23
397.97	1909.88
398.16	1842.00
398.35	1802.21
398.55	1902.86
398.74	1975.41
398.93	1919.24
399.12	1858.39
399.32	1998.82
399.51	1912.22
399.70	2010.52
399.90	1994.14
400.09	2108.82
400.28	2064.35
400.47	1888.81
400.67	2073.71
400.86	2012.86
401.05	2054.99
401.24	2080.74
401.44	2038.61
401.63	2078.40
401.82	2209.47
402.01	2186.06
402.21	2202.44
402.40	2195.42
402.59	2190.74
402.78	2207.13
402.97	2314.79
403.17	2272.66
403.36	2202.44
403.55	2211.81
403.74	2356.92
403.93	2324.15
404.13	2324.15
404.32	2363.94
404.51	2342.88
404.70	2375.64
404.89	2319.47
405.09	2576.93
405.28	2567.57
405.47	2450.54
405.66	2558.21
405.85	2600.34
406.05	2551.18
406.24	2497.35
406.43	2525.44
406.62	2633.10
406.81	2581.61
407.00	2595.65
407.20	2602.68
407.39	2651.83
407.58	2747.79
407.77	2715.02
407.96	2696.30
408.15	2686.94
408.34	2759.49
408.54	2827.37
408.73	2836.73
408.92	2846.09
409.11	2904.60
409.30	2827.37
409.49	2902.26
409.68	2857.79
409.87	2871.84
410.07	2916.31
410.26	3019.29
410.45	3033.33
410.64	3054.40
410.83	3035.67
411.02	3098.87
411.21	3145.68
411.40	3150.36
411.59	3105.89
411.78	3234.62
411.98	3208.87
412.17	3370.37
412.36	3300.16
412.55	3262.71
412.74	3433.57
412.93	3368.03
413.12	3307.18
413.31	3487.40
413.50	3578.68
413.69	3520.17
413.88	3644.21
414.07	3559.95
414.26	3630.17
414.45	3733.15
414.64	3730.81
414.83	3595.06
415.02	3634.85
415.22	3756.56
415.41	3819.75
415.60	3843.16
415.79	3925.08
415.98	3859.54
416.17	3941.46
416.36	3936.78
416.55	3953.16
416.74	4114.66
416.93	4009.34
417.12	4109.98
417.31	4222.33
417.50	4189.56
417.69	4173.18
417.88	4184.88
418.07	4278.50
418.26	4397.87
418.45	4332.33
418.64	4390.84
418.83	4444.68
419.02	4575.75
419.21	4463.40
419.39	4500.85
419.58	4348.72
419.77	4475.10
419.96	4592.13
420.15	4599.15
420.34	4557.02
420.53	4627.24
420.72	4784.06
420.91	4676.39
421.10	4814.48
421.29	4826.18
421.48	4596.81
421.67	4657.67
421.86	4784.06
422.05	4781.71
422.24	4734.90
422.43	4894.06
422.61	4868.31
422.80	4933.85
422.99	4975.98
423.18	4760.65
423.37	5032.15
423.56	4952.57
423.75	4807.46
423.94	4830.87
424.13	4538.30
424.32	4758.31
424.50	4877.68
424.69	5053.22
424.88	5076.62
425.07	5020.45
425.26	4961.94
425.45	5032.15
425.64	4929.17
425.83	4917.47
426.01	5048.54
426.20	5043.85
426.39	5128.11
426.58	4933.85
426.77	4936.19
426.96	5088.32
427.15	5151.52
427.33	5153.86
427.52	5146.84
427.71	5270.89
427.90	5308.34
428.09	5273.23
428.28	5408.98
428.46	5348.12
428.65	5446.43
428.84	5383.23
429.03	5500.26
429.22	5224.08
429.40	5507.28
429.59	5462.81
429.78	5252.16
429.97	5233.44
430.16	5617.29
430.34	5701.54
430.53	5621.97
430.72	5633.67
430.91	5647.71
431.10	5687.50
431.28	5778.78
431.47	5841.98
431.66	5774.10
431.85	5951.98
432.03	5912.19
432.22	6038.58
432.41	5912.19
432.60	5811.55
432.79	5916.87
432.97	5980.07
433.16	6066.67
433.35	6174.33
433.54	6162.63
433.72	6218.80
433.91	6078.37
434.10	6104.12
434.28	5973.05
434.47	6235.19
434.66	6228.17
434.85	6108.80
435.03	6377.96
435.22	6499.67
435.41	6558.18
435.59	6221.14
435.78	6310.08
435.97	6464.56
436.16	6422.43
436.34	6583.93
436.53	6417.75
436.72	6740.74
436.90	6555.84
437.09	6658.82
437.28	6354.55
437.46	6722.02
437.65	6532.44
437.84	6817.98
438.02	6719.68
438.21	6759.47
438.40	6780.53
438.58	6909.26
438.77	6876.49
438.96	6778.19
439.14	7005.22
439.33	7220.55
439.52	7143.32
439.70	7166.72
439.89	7281.41
440.08	7452.27
440.26	7304.81
440.45	7400.77
440.63	7517.80
440.82	7459.29
441.01	7564.61
441.19	7646.53
441.38	7803.35
441.57	7665.25
441.75	7798.66
441.94	7955.48
442.12	7995.27
442.31	7981.23
442.50	8030.38
442.68	8009.31
442.87	8084.21
443.05	8159.11
443.24	8180.17
443.43	8105.28
443.61	8329.97
443.80	8451.67
443.98	8201.24
444.17	7698.02
444.35	8131.02
444.54	8198.90
444.73	8301.88
444.91	8182.51
445.10	8201.24
445.28	8276.13
445.47	8318.26
445.65	8367.42
445.84	8423.59
446.02	8613.17
446.21	8503.17
446.39	8402.52
446.58	8341.67
446.77	8449.33
446.95	8285.50
447.14	8390.82
447.32	8603.81
447.51	8245.71
447.69	8346.35
447.88	8538.27
448.06	8365.07
448.25	8219.96
448.43	8624.87
448.62	8692.75
448.80	8608.49
448.99	8566.36
449.17	8669.34
449.36	8620.19
449.54	8713.81
449.73	8784.03
449.91	9022.77
450.10	8933.82
450.28	9160.86
450.46	9022.77
450.65	9102.34
450.83	9006.38
451.02	8992.34
451.20	9217.03
451.39	9130.43
451.57	9081.28
451.76	9139.79
451.94	9043.83
452.13	9373.85
452.31	9268.52
452.49	9111.71
452.68	9427.68
452.86	9226.39
453.05	9352.78
453.23	9441.72
453.42	9537.68
453.60	9394.91
453.78	9612.58
453.97	9441.72
454.15	9577.47
454.34	9296.61
454.52	9839.61
454.70	9933.23
454.89	9942.60
455.07	9839.61
455.26	9790.46
455.44	9900.47
455.62	9895.78
455.81	9916.85
455.99	9994.09
456.17	10012.81
456.36	10097.07
456.54	10071.33
456.73	10230.48
456.91	10291.34
457.09	10361.55
457.28	10520.71
457.46	10644.76
457.64	10305.38
457.83	10499.64
458.01	10487.94
458.19	10736.04
458.38	10417.72
458.56	10696.25
458.74	10729.02
458.93	10539.43
459.11	10707.95
459.29	10801.57
459.48	10647.10
459.66	10686.89
459.84	10729.02
460.03	10834.34
460.21	11140.95
460.39	11197.12
460.57	11122.23
460.76	11005.20
460.94	10923.28
461.12	11119.89
461.31	11222.87
461.49	11023.92
461.67	11110.52
461.85	11293.08
462.04	11314.15
462.22	11805.66
462.40	11658.21
462.59	11442.88
462.77	11431.18
462.95	11927.37
463.13	11529.48
463.32	11576.29
463.50	11627.78
463.68	11660.55
463.86	11878.22
464.05	11726.08
464.23	11566.93
464.41	11758.85
464.59	11524.80
464.78	12138.02
464.96	11838.43
465.14	11983.54
465.32	12002.27
465.50	12084.19
465.69	12222.28
465.87	12231.64
466.05	12025.67
466.23	12217.60
466.41	12280.79
466.60	12435.27
466.78	12147.38
466.96	12184.83
467.14	12166.10
467.32	12243.34
467.51	12444.63
467.69	11918.01
467.87	12287.81
468.05	12416.54
468.23	12596.76
468.41	12444.63
468.60	12585.06
468.78	12849.54
468.96	12772.30
469.14	12617.83
469.32	13177.22
469.50	12566.34
469.69	12924.44
469.87	13041.46
470.05	13130.41
470.23	13153.81
470.41	13212.32
470.59	13479.15
470.77	12947.84
470.95	13172.54
471.14	13528.30
471.32	13200.62
471.50	13404.25
471.68	13731.92
471.86	13624.26
472.04	13558.72
472.22	14120.45
472.40	13612.56
472.58	13755.33
472.77	14141.52
472.95	14003.43
473.13	14565.15
473.31	14092.37
473.49	13951.93
473.67	14216.41
473.85	14216.41
474.03	14583.88
474.21	14670.48
474.39	14368.55
474.57	14588.56
474.75	14757.08
474.93	14789.85
475.12	15033.26
475.30	15178.37
475.48	15002.83
475.66	15257.95
475.84	15225.18
476.02	15236.89
476.20	15487.32
476.38	15576.27
476.56	15803.30
476.74	15971.82
476.92	15868.83
477.10	15875.85
477.28	16233.96
477.46	16114.59
477.64	16194.17
477.82	16458.65
478.00	17043.78
478.18	16578.01
478.36	16964.20
478.54	17277.83
478.72	17137.40
478.90	17399.54
479.08	17511.89
479.26	17682.75
479.44	17657.00
479.62	17598.49
479.80	17907.44
479.98	18134.47
480.16	18412.99
480.34	18111.07
480.52	18511.30
480.70	18436.40
480.88	18169.58
481.06	18951.32
481.24	18909.19
481.41	19129.20
481.59	19335.17
481.77	19538.79
481.95	19456.87
482.13	19864.13
482.31	19791.57
482.49	20184.78
482.67	19932.00
482.85	20400.11
483.03	20608.42
483.21	20737.15
483.39	21467.39
483.57	20872.90
483.74	21074.18
483.92	21174.83
484.10	21165.46
484.28	21556.33
484.46	21722.51
484.64	22572.13
484.82	21965.93
485.00	21970.61
485.18	22944.27
485.35	22876.40
485.53	22878.74
485.71	22862.35
485.89	23412.38
486.07	23103.43
486.25	23424.08
486.43	23501.32
486.61	23814.95
486.78	23915.59
486.96	24208.16
487.14	24950.11
487.32	24582.65
487.50	25364.39
487.68	24959.47
487.85	25177.14
488.03	25621.84
488.21	25846.54
488.39	25539.93
488.57	26031.44
488.75	26265.49
488.92	26487.84
489.10	26604.87
489.28	26375.50
489.46	26775.73
489.64	26843.60
489.81	27573.85
489.99	27735.35
490.17	27433.42
490.35	27840.67
490.53	28137.92
490.70	28191.75
490.88	28257.29
491.06	28769.86
491.24	28800.29
491.41	28814.34
491.59	28978.17
491.77	29467.34
491.95	29397.13
492.13	29874.60
492.30	30015.03
492.48	29916.73
492.66	30195.25
492.84	30663.36
493.01	30352.07
493.19	30595.48
493.37	31077.63
493.54	31054.23
493.72	31452.12
493.90	31431.05
494.08	31534.04
494.25	32020.87
494.43	31721.28
494.61	32088.74
494.79	32081.72
494.96	32692.60
495.14	32692.60
495.32	33041.34
495.49	33125.60
495.67	32900.91
495.85	33256.67
496.02	34125.01
496.20	34045.43
496.38	34017.35
496.55	33839.47
496.73	34646.95
496.91	34775.68
497.09	35117.40
497.26	34754.61
497.44	34866.96
497.62	34918.45
497.79	35660.40
497.97	35365.49
498.14	35927.22
498.32	36107.44
498.50	36577.89
498.67	36444.48
498.85	36451.50
499.03	36528.74
499.20	36306.39
499.38	37191.11
499.56	36898.55
499.73	36952.38
499.91	37125.58
500.08	37670.92
500.26	37453.25
500.44	37546.87
500.61	37645.18
500.79	37755.18
500.97	37827.74
501.14	38728.84
501.32	38422.23
501.49	38597.77
501.67	38387.13
501.84	38873.96
502.02	38387.13
502.20	38714.80
502.37	39246.10
502.55	39089.29
502.72	39653.36
502.90	39449.73
503.07	39641.65
503.25	39854.64
503.43	39735.27
503.60	40201.04
503.78	39758.68
503.95	40250.19
504.13	40512.33
504.30	40877.46
504.48	40004.44
504.65	40882.14
504.83	40952.35
505.01	41116.19
505.18	40872.78
505.36	41584.30
505.53	40942.99
505.71	41387.69
505.88	41551.53
506.06	41361.95
506.23	42178.79
506.41	41675.58
506.58	42185.82
506.76	42103.90
506.93	42572.00
507.11	42270.08
507.28	42969.90
507.46	42836.48
507.63	42906.70
507.81	43318.64
507.98	43002.66
508.16	42960.53
508.33	43210.97
508.50	43540.99
508.68	43473.11
508.85	44076.97
509.03	43316.29
509.20	43852.28
509.38	44364.85
509.55	44570.82
509.73	44425.71
509.90	44353.15
510.08	44715.93
510.25	44498.26
510.42	44877.43
510.60	45031.91
510.77	45139.57
510.95	45228.51
511.12	45289.37
511.30	45001.48
511.47	45841.73
511.64	45661.51
511.82	46014.93
511.99	45900.25
512.17	46199.83
512.34	45684.92
512.51	46326.22
512.69	46143.66
512.86	46136.64
513.04	46749.86
513.21	46426.87
513.38	46824.76
513.56	46911.36
513.73	46815.40
513.90	46899.65
514.08	46909.02
514.25	47285.84
514.43	47302.23
514.60	47199.24
514.77	47119.66
514.95	47634.58
515.12	47503.51
515.29	47517.56
515.47	47873.32
515.64	47950.56
515.81	47810.12
515.99	48081.63
516.16	48369.51
516.33	48116.73
516.51	48421.00
516.68	48765.06
516.85	48362.49
517.03	48919.54
517.20	49155.93
517.37	48945.28
517.54	49174.66
517.72	48633.99
517.89	49160.61
518.06	49127.84
518.24	48999.12
518.41	49263.60
518.58	49052.95
518.75	49048.27
518.93	49715.32
519.10	49247.21
519.27	49830.01
519.45	49626.38
519.62	49729.36
519.79	49645.10
519.96	50248.96
520.14	50080.44
520.31	50321.52
520.48	50160.02
520.65	50227.90
520.83	50197.47
521.00	50578.98
521.17	50649.19
521.34	50548.55
521.52	50796.65
521.69	51011.98
521.86	51285.82
522.03	51079.85
522.20	51278.80
522.38	51543.28
522.55	51241.35
522.72	51318.59
522.89	51407.53
523.07	51583.07
523.24	51423.91
523.41	51463.70
523.58	51540.94
523.75	51868.61
523.92	51608.81
524.10	51803.08
524.27	52027.77
524.44	51828.82
524.61	52191.61
524.78	52137.77
524.96	52074.58
525.13	52439.70
525.30	52392.89
525.47	52320.34
525.64	52428.00
525.81	52444.38
525.98	52596.52
526.16	52933.56
526.33	52582.48
526.50	52940.58
526.67	52732.27
526.84	52931.22
527.01	52640.99
527.18	52786.10
527.36	52949.94
527.53	53284.64
527.70	53148.88
527.87	53324.43
528.04	53088.03
528.21	53474.22
528.38	53251.87
528.55	53399.32
528.72	53294.00
528.89	53223.78
529.07	53242.51
529.24	53315.06
529.41	53832.32
529.58	53687.21
529.75	53731.68
529.92	53916.58
530.09	53827.64
530.26	53869.77
530.43	53977.43
530.60	53773.81
530.77	53675.51
530.94	54171.70
531.11	54087.44
531.28	54255.96
531.46	54267.66
531.63	54075.74
531.80	53977.43
531.97	54461.93
532.14	54740.45
532.31	54447.88
532.48	54555.55
532.65	54836.41
532.82	54349.58
532.99	54363.62
533.16	54644.49
533.33	55255.37
533.50	55002.59
533.67	54873.86
533.84	54843.43
534.01	54738.11
534.18	54944.08
534.35	55182.81
534.52	54817.69
534.69	55121.96
534.86	55150.04
535.03	54990.89
535.20	55171.11
535.37	55234.30
535.54	55416.86
535.71	55058.76
535.88	55515.17
536.05	55215.58
536.22	55554.96
536.38	55674.32
536.55	55348.99
536.72	55636.87
536.89	55501.12
537.06	55629.85
537.23	55693.05
537.40	55529.21
537.57	55583.04
537.74	55781.99
537.91	55964.55
538.08	55964.55
538.25	55494.10
538.42	56013.70
538.59	56149.45
538.75	56076.90
538.92	56280.52
539.09	56392.87
539.26	56090.94
539.43	56168.18
539.60	56123.71
539.77	56104.98
539.94	56222.01
540.11	56339.04
540.28	56353.08
540.44	56549.68
540.61	56458.40
540.78	56189.24
540.95	56467.76
541.12	56395.21
541.29	56488.83
541.46	56320.31
541.62	56589.47
541.79	56470.11
541.96	56207.97
542.13	56676.07
542.30	56690.12
542.47	56765.01
542.63	56891.40
542.80	56917.15
542.97	56954.60
543.14	57251.84
543.31	57179.29
543.48	57118.43
543.64	57322.06
543.81	57415.68
543.98	57364.19
544.15	57333.76
544.32	57270.57
544.48	57703.57
544.65	57411.00
544.82	57528.03
544.99	57116.09
545.16	57504.62
545.32	57420.36
545.49	57396.96
545.66	57750.38
545.83	57595.90
546.00	57773.78
546.16	57963.37
546.33	57591.22
546.50	57275.25
546.67	57813.57
546.83	57268.23
547.00	57474.20
547.17	57661.44
547.34	57907.19
547.50	57939.96
547.67	57881.45
547.84	58033.58
548.00	57958.69
548.17	58120.18
548.34	57907.19
548.51	58096.78
548.67	58014.86
548.84	58054.65
549.01	57900.17
549.18	58246.57
549.34	58307.43
549.51	58197.42
549.68	58272.32
549.84	58220.83
550.01	58459.56
550.18	58365.94
550.34	58309.77
550.51	58368.28
550.68	58403.39
550.84	58202.10
551.01	58585.95
551.18	58443.18
551.34	58529.78
551.51	58440.84
551.68	58607.01
551.84	58497.01
552.01	58227.85
552.18	58557.86
552.34	58532.12
552.51	58770.85
552.68	58644.46
552.84	58798.94
553.01	58763.83
553.18	58827.02
553.34	59007.25
553.51	58599.99
553.67	58782.55
553.84	58960.44
554.01	58925.33
554.17	59032.99
554.34	59185.13
554.51	58812.98
554.67	59021.29
554.84	59192.15
555.00	59035.33
555.17	59056.40
555.33	59035.33
555.50	58976.82
555.67	58997.88
555.83	58939.37
556.00	58997.88
556.16	59454.29
556.33	59274.07
556.50	59185.13
556.66	59290.45
556.83	59105.55
556.99	59437.90
557.16	59393.43
557.32	59456.63
557.49	59700.04
557.65	59346.62
557.82	59379.39
557.98	59288.11
558.15	59264.70
558.32	59458.97
558.48	59278.75
558.65	59475.35
558.81	59473.01
558.98	59341.94
559.14	59653.23
559.31	59655.57
559.47	59707.07
559.64	59632.17
559.80	59580.68
559.97	59447.27
560.13	59676.64
560.30	59756.22
560.46	59791.33
560.63	59735.15
560.79	59739.83
560.96	59880.27
561.12	59831.11
561.29	59814.73
561.45	59746.86
561.61	59884.95
561.78	59718.77
561.94	59779.62
562.11	59791.33
562.27	59847.50
562.44	59798.35
562.60	60009.00
562.77	59760.90
562.93	59873.24
563.10	59999.63
563.26	59840.48
563.42	60055.81
563.59	60044.10
563.75	59828.77
563.92	60018.36
564.08	60013.68
564.24	60023.04
564.41	60121.34
564.57	59987.93
564.74	60168.15
564.90	60163.47
565.07	59934.10
565.23	59966.87
565.39	60184.54
565.56	60126.02
565.72	60126.02
565.88	60142.41
566.05	59934.10
566.21	59973.89
566.38	60378.80
566.54	60280.50
566.70	60355.39
566.87	60369.44
567.03	60135.38
567.19	60280.50
567.36	60336.67
567.52	60259.43
567.68	60523.91
567.85	60186.88
568.01	60406.89
568.17	60189.22
568.34	60411.57
568.50	60432.63
568.66	60205.60
568.83	60310.92
568.99	60465.40
569.15	60465.40
569.32	60285.18
569.48	60509.87
569.64	60362.42
569.81	60458.38
569.97	60303.90
570.13	60580.09
570.30	60423.27
570.46	60341.35
570.62	60399.86
570.78	60477.10
570.95	60165.81
571.11	60673.71
571.27	60465.40
571.43	60392.84
571.60	60631.58
571.76	60547.32
571.92	60535.62
572.09	60643.28
572.25	60582.43
572.41	60472.42
572.57	60327.31
572.74	60622.22
572.90	60500.51
573.06	60554.34
573.22	60767.33
573.38	60484.12
573.55	60502.85
573.71	60865.63
573.87	60594.13
574.03	60500.51
574.20	60893.72
574.36	60640.94
574.52	60694.77
574.68	60556.68
574.84	60732.22
575.01	60743.92
575.17	60647.96
575.33	60631.58
575.49	60715.84
575.65	60769.67
575.82	60643.28
575.98	60594.13
576.14	60853.93
576.30	60802.44
576.46	60561.36
576.62	60647.96
576.79	60626.90
576.95	60804.78
577.11	60802.44
577.27	60889.04
577.43	60650.30
577.59	60849.25
577.75	60561.36
577.92	60743.92
578.08	60608.17
578.24	60823.50
578.40	60903.08
578.56	61015.43
578.72	60842.23
578.88	61102.03
579.04	60942.87
579.21	61001.38
579.37	60919.46
579.53	60856.27
579.69	60753.29
579.85	60945.21
580.01	60807.12
580.17	60547.32
580.33	60874.99
580.49	60893.72
580.65	60846.91
580.82	60830.52
580.98	60835.20
581.14	60825.84
581.30	60956.91
581.46	60837.54
581.62	60919.46
581.78	60746.26
581.94	61006.06
582.10	60994.36
582.26	60893.72
582.42	60657.32
582.58	60977.98
582.74	60762.65
582.90	61062.24
583.06	60959.25
583.22	60926.49
583.38	60851.59
583.54	60973.30
583.70	60992.02
583.86	61083.30
584.02	60963.93
584.18	60999.04
584.34	60786.05
584.50	61038.83
584.66	60762.65
584.82	60612.85
584.98	61041.17
585.14	60987.34
585.30	60837.54
585.46	60809.46
585.62	61034.15
585.78	60926.49
585.94	61020.11
586.10	61095.00
586.26	60945.21
586.42	60893.72
586.58	61155.86
586.74	60802.44
586.90	60982.66
587.06	60748.60
587.22	61158.20
587.38	60949.89
587.54	61186.28
587.70	61036.49
587.86	60898.40
588.02	60961.59
588.18	61013.08
588.34	60893.72
588.49	61090.32
