SpectraSuite Data File
++++++++++++++++++++++++++++++++++++
Date: Fri Oct 25 11:25:05 EDT 2013
User: price-jones
Dark Spectrum Present: No
Reference Spectrum Present: No
Number of Sampled Component Spectra: 1
Spectrometers: USB2+H05261
Integration Time (usec): 100000 (USB2+H05261)
Spectra Averaged: 1 (USB2+H05261)
Boxcar Smoothing: 0 (USB2+H05261)
Correct for Electrical Dark: No (USB2+H05261)
Strobe/Lamp Enabled: No (USB2+H05261)
Correct for Detector Non-linearity: No (USB2+H05261)
Correct for Stray Light: No (USB2+H05261)
Number of Pixels in Processed Spectrum: 2048
>>>>>Begin Processed Spectral Data<<<<<
365.73	194.26
365.92	194.26
366.12	194.26
366.32	156.82
366.52	159.16
366.72	124.05
366.91	133.41
367.11	159.16
367.31	161.50
367.51	84.26
367.70	194.26
367.90	177.88
368.10	140.43
368.30	177.88
368.49	149.79
368.69	119.37
368.89	168.52
369.09	156.82
369.28	194.26
369.48	105.32
369.68	208.31
369.87	182.56
370.07	154.48
370.27	271.50
370.47	367.46
370.66	538.32
370.86	683.44
371.06	587.47
371.25	734.93
371.45	629.60
371.65	709.18
371.84	685.78
372.04	596.84
372.24	791.10
372.44	655.35
372.63	744.29
372.83	758.33
373.03	725.57
373.22	732.59
373.42	730.25
373.62	823.87
373.81	798.12
374.01	753.65
374.21	826.21
374.40	812.17
374.60	851.96
374.79	793.44
374.99	863.66
375.19	833.23
375.38	833.23
375.58	812.17
375.78	835.57
375.97	786.42
376.17	866.00
376.37	812.17
376.56	774.72
376.76	905.79
376.95	814.51
377.15	866.00
377.35	926.85
377.54	877.70
377.74	828.55
377.93	940.90
378.13	903.45
378.33	854.30
378.52	973.66
378.72	887.06
378.91	931.53
379.11	957.28
379.31	1004.09
379.50	915.15
379.70	997.07
379.89	947.92
380.09	947.92
380.28	964.30
380.48	947.92
380.68	1001.75
380.87	973.66
381.07	1041.54
381.26	1025.15
381.46	968.98
381.65	1004.09
381.85	1053.24
382.04	1025.15
382.24	1060.26
382.43	1020.47
382.63	980.68
382.83	1076.65
383.02	1121.12
383.22	1156.22
383.41	1036.86
383.61	1088.35
383.80	1226.44
384.00	1149.20
384.19	1167.93
384.39	1123.46
384.58	1128.14
384.78	1196.01
384.97	1198.35
385.17	1165.59
385.36	1172.61
385.56	1167.93
385.75	1179.63
385.95	1167.93
386.14	1146.86
386.34	1191.33
386.53	1226.44
386.72	1151.54
386.92	1291.98
387.11	1242.82
387.31	1261.55
387.50	1256.87
387.70	1282.61
387.89	1289.64
388.09	1268.57
388.28	1242.82
388.48	1270.91
388.67	1308.36
388.86	1362.19
389.06	1238.14
389.25	1198.35
389.45	1313.04
389.64	1341.13
389.84	1224.10
390.03	1315.38
390.22	1345.81
390.42	1362.19
390.61	1313.04
390.81	1460.49
391.00	1500.28
391.19	1540.07
391.39	1362.19
391.58	1530.71
391.78	1416.02
391.97	1516.67
392.16	1275.59
392.36	1554.12
392.55	1446.45
392.75	1493.26
392.94	1577.52
393.13	1610.29
393.33	1511.99
393.52	1533.05
393.71	1504.96
393.91	1603.27
394.10	1591.56
394.29	1577.52
394.49	1586.88
394.68	1713.27
394.88	1584.54
395.07	1640.72
395.26	1624.33
395.46	1732.00
395.65	1701.57
395.84	1659.44
396.04	1654.76
396.23	1792.85
396.42	1682.85
396.62	1856.04
396.81	1813.92
397.00	1741.36
397.19	1809.23
397.39	1680.50
397.58	1757.74
397.77	1837.32
397.97	1884.13
398.16	1802.21
398.35	1802.21
398.55	1881.79
398.74	1792.85
398.93	1940.30
399.12	1975.41
399.32	1912.22
399.51	1944.99
399.70	2019.88
399.90	1930.94
400.09	1959.03
400.28	2113.50
400.47	1987.11
400.67	2026.90
400.86	2090.10
401.05	2087.76
401.24	2162.66
401.44	2010.52
401.63	2118.18
401.82	2181.38
402.01	2045.63
402.21	2181.38
402.40	2099.46
402.59	2113.50
402.78	2207.13
402.97	2214.15
403.17	2223.51
403.36	2270.32
403.55	2211.81
403.74	2258.62
403.93	2312.45
404.13	2380.32
404.32	2195.42
404.51	2321.81
404.70	2361.60
404.89	2370.96
405.09	2485.65
405.28	2462.24
405.47	2352.24
405.66	2340.54
405.85	2497.35
406.05	2583.95
406.24	2553.52
406.43	2553.52
406.62	2548.84
406.81	2715.02
407.00	2635.44
407.20	2612.04
407.39	2684.59
407.58	2700.98
407.77	2736.09
407.96	2806.30
408.15	2848.43
408.34	2654.17
408.54	2672.89
408.73	2719.70
408.92	2878.86
409.11	2963.12
409.30	2928.01
409.49	2932.69
409.68	2820.35
409.87	2864.82
410.07	2953.76
410.26	2939.71
410.45	2878.86
410.64	2995.89
410.83	3033.33
411.02	3035.67
411.21	3115.25
411.40	3028.65
411.59	3236.96
411.78	3159.72
411.98	3138.66
412.17	3318.88
412.36	3225.26
412.55	3375.05
412.74	3276.75
412.93	3475.70
413.12	3290.79
413.31	3471.01
413.50	3510.80
413.69	3520.17
413.88	3566.98
414.07	3471.01
414.26	3648.90
414.45	3641.87
414.64	3616.13
414.83	3719.11
415.02	3714.43
415.22	3761.24
415.41	3817.41
415.60	3817.41
415.79	3838.48
415.98	3929.76
416.17	4063.17
416.36	3871.25
416.55	4018.70
416.74	4049.13
416.93	4007.00
417.12	4063.17
417.31	4168.49
417.50	4112.32
417.69	4327.65
417.88	4266.80
418.07	4278.50
418.26	4329.99
418.45	4187.22
418.64	4475.10
418.83	4461.06
419.02	4510.21
419.21	4521.92
419.39	4346.37
419.58	4475.10
419.77	4397.87
419.96	4425.95
420.15	4521.92
420.34	4599.15
420.53	4582.77
420.72	4655.33
420.91	4571.07
421.10	4613.20
421.29	4751.29
421.48	4676.39
421.67	4643.62
421.86	4746.61
422.05	4849.59
422.24	4631.92
422.43	4901.08
422.61	4795.76
422.80	5032.15
422.99	4915.12
423.18	4851.93
423.37	4840.23
423.56	4791.08
423.75	4868.31
423.94	4854.27
424.13	4510.21
424.32	4627.24
424.50	4929.17
424.69	5118.75
424.88	4903.42
425.07	4875.34
425.26	4919.81
425.45	5015.77
425.64	4828.53
425.83	4908.10
426.01	4849.59
426.20	4931.51
426.39	5055.56
426.58	4940.87
426.77	4943.21
426.96	5165.56
427.15	5142.16
427.33	5184.29
427.52	5160.88
427.71	5252.16
427.90	5144.50
428.09	5245.14
428.28	5303.65
428.46	5418.34
428.65	5273.23
428.84	5472.17
429.03	5432.38
429.22	5310.68
429.40	5394.93
429.59	5446.43
429.78	5228.76
429.97	5214.71
430.16	5313.02
430.34	5444.09
430.53	5495.58
430.72	5664.10
430.91	5493.24
431.10	5479.19
431.28	5675.80
431.47	5783.46
431.66	5764.74
431.85	5661.76
432.03	5837.30
432.22	6054.97
432.41	5898.15
432.60	5823.25
432.79	5706.23
432.97	5902.83
433.16	5912.19
433.35	5760.06
433.54	5996.45
433.72	6094.76
433.91	6090.07
434.10	6045.60
434.28	6076.03
434.47	6244.55
434.66	6111.14
434.85	6289.02
435.03	6289.02
435.22	6237.53
435.41	6406.05
435.59	6298.38
435.78	6370.94
435.97	6363.92
436.16	6455.20
436.34	6368.60
436.53	6380.30
436.72	6492.65
436.90	6340.51
437.09	6434.13
437.28	6483.28
437.46	6429.45
437.65	6644.78
437.84	6612.01
438.02	6623.72
438.21	6623.72
438.40	6691.59
438.58	6981.82
438.77	7049.69
438.96	6841.39
439.14	7040.33
439.33	7052.03
439.52	7197.15
439.70	7183.10
439.89	7246.30
440.08	7241.62
440.26	7368.01
440.45	7253.32
440.63	7403.11
440.82	7531.84
441.01	7433.54
441.19	7365.67
441.38	7754.19
441.57	7515.46
441.75	7667.60
441.94	7983.57
442.12	7861.86
442.31	8072.51
442.50	7943.78
442.68	7889.95
442.87	7932.08
443.05	8208.26
443.24	8219.96
443.43	8044.42
443.61	8301.88
443.80	8421.25
443.98	7927.39
444.17	7864.20
444.35	8006.97
444.54	8269.11
444.73	8273.79
444.91	8273.79
445.10	8166.13
445.28	8212.94
445.47	8285.50
445.65	8116.98
445.84	8437.63
446.02	8257.41
446.21	8234.00
446.39	8180.17
446.58	8386.14
446.77	8634.24
446.95	8215.28
447.14	8297.20
447.32	8451.67
447.51	8421.25
447.69	8423.59
447.88	8477.42
448.06	8542.96
448.25	8549.98
448.43	8472.74
448.62	8477.42
448.80	8606.15
448.99	8664.66
449.17	8564.02
449.36	8435.29
449.54	8877.65
449.73	8718.50
449.91	8816.80
450.10	8877.65
450.28	8917.44
450.46	9004.04
450.65	8997.02
450.83	8945.53
451.02	8961.91
451.20	9121.07
451.39	9186.60
451.57	9104.68
451.76	9233.41
451.94	9158.52
452.13	9144.47
452.31	9114.05
452.49	8959.57
452.68	9242.78
452.86	9179.58
453.05	9280.22
453.23	9254.48
453.42	9427.68
453.60	9582.15
453.78	9624.28
453.97	9263.84
454.15	9444.06
454.34	9509.60
454.52	9717.90
454.70	9502.58
454.89	9577.47
455.07	9722.59
455.26	9682.80
455.44	9692.16
455.62	9790.46
455.81	9729.61
455.99	9884.08
456.17	10090.05
456.36	9863.02
456.54	10183.67
456.73	10347.51
456.91	10296.02
457.09	10427.09
457.28	10436.45
457.46	10422.41
457.64	10413.04
457.83	10354.53
458.01	10202.40
458.19	10473.90
458.38	10534.75
458.56	10731.36
458.74	10497.30
458.93	10614.33
459.11	10684.55
459.29	10689.23
459.48	10696.25
459.66	10780.51
459.84	10654.12
460.03	10920.94
460.21	11075.42
460.39	10888.17
460.57	10993.50
460.76	10925.62
460.94	11101.16
461.12	11169.04
461.31	11019.24
461.49	11236.91
461.67	11140.95
461.85	11389.05
462.04	11321.17
462.22	11728.42
462.40	11602.04
462.59	11382.03
462.77	11199.46
462.95	11541.18
463.13	11566.93
463.32	11749.49
463.50	11651.19
463.68	11573.95
463.86	11737.79
464.05	11499.05
464.23	11501.39
464.41	11639.48
464.59	11749.49
464.78	11861.84
464.96	11775.24
465.14	11808.00
465.32	12077.16
465.50	12011.63
465.69	11772.89
465.87	12264.41
466.05	12215.26
466.23	12067.80
466.41	12212.92
466.60	12051.42
466.78	12215.26
466.96	12112.27
467.14	12074.82
467.32	12173.13
467.51	12407.18
467.69	11943.75
467.87	12273.77
468.05	12711.45
468.23	12161.42
468.41	12264.41
468.60	12390.80
468.78	12652.94
468.96	12627.19
469.14	12650.60
469.32	12760.60
469.50	12304.20
469.69	12861.24
469.87	12812.09
470.05	13046.15
470.23	12922.10
470.41	13006.36
470.59	13256.79
470.77	13116.36
470.95	13268.50
471.14	13371.48
471.32	13219.35
471.50	13315.31
471.68	13661.71
471.86	13493.19
472.04	13586.81
472.22	13923.85
472.40	13893.42
472.58	13774.05
472.77	13685.11
472.95	14373.23
473.13	14511.32
473.31	14143.86
473.49	13884.06
473.67	14017.47
473.85	14064.28
474.03	14347.48
474.21	14525.36
474.39	14878.79
474.57	14298.33
474.75	14780.48
474.93	14888.15
475.12	14850.70
475.30	15063.69
475.48	14956.02
475.66	15236.89
475.84	15246.25
476.02	15328.17
476.20	15445.20
476.38	15538.82
476.56	15894.58
476.74	15910.96
476.92	15522.43
477.10	15393.70
477.28	16102.89
477.46	15735.42
477.64	16091.18
477.82	16189.49
478.00	17088.25
478.18	16673.98
478.36	16599.08
478.54	17043.78
478.72	17305.92
478.90	17326.99
479.08	17284.86
479.26	17394.86
479.44	17425.29
479.62	17633.60
479.80	17830.20
479.98	18071.28
480.16	18562.79
480.34	18097.02
480.52	18534.70
480.70	18576.83
480.88	18345.12
481.06	18759.39
481.24	18642.37
481.41	18618.96
481.59	19138.56
481.77	19225.16
481.95	19318.78
482.13	19360.91
482.31	19786.89
482.49	20311.17
482.67	20137.97
482.85	20093.50
483.03	20247.97
483.21	20671.61
483.39	20685.65
483.57	20409.47
483.74	20828.43
483.92	21235.68
484.10	20975.88
484.28	21411.22
484.46	22073.59
484.64	22078.27
484.82	21881.67
485.00	22195.30
485.18	22735.96
485.35	23126.83
485.53	22855.33
485.71	22824.90
485.89	23412.38
486.07	23098.75
486.25	23005.13
486.43	23377.27
486.61	23594.94
486.78	23828.99
486.96	24100.50
487.14	24177.73
487.32	24418.81
487.50	24456.26
487.68	24746.48
487.85	25317.57
488.03	25397.15
488.21	25600.78
488.39	25490.77
488.57	25951.86
488.75	26082.93
488.92	25769.30
489.10	26590.83
489.28	26345.07
489.46	26665.72
489.64	26857.65
489.81	27358.52
489.99	27412.35
490.17	27674.49
490.35	28060.68
490.53	28135.58
490.70	27953.02
490.88	28095.79
491.06	28755.82
491.24	28807.31
491.41	28926.68
491.59	29090.52
491.77	28781.57
491.95	29223.93
492.13	29638.20
492.30	29701.40
492.48	29841.83
492.66	29883.96
492.84	29933.11
493.01	30450.37
493.19	30572.08
493.37	30824.86
493.54	30785.07
493.72	31391.26
493.90	30899.75
494.08	31531.70
494.25	31821.92
494.43	31681.49
494.61	31945.97
494.79	31992.78
494.96	32505.36
495.14	32568.55
495.32	33249.65
495.49	33181.77
495.67	33141.99
495.85	33242.63
496.02	33277.74
496.20	33333.91
496.38	33851.17
496.55	33855.85
496.73	34529.92
496.91	34588.44
497.09	34705.46
497.26	34361.40
497.44	34394.17
497.62	34948.88
497.79	35739.98
497.97	35344.43
498.14	35489.54
498.32	35658.06
498.50	35641.68
498.67	36329.80
498.85	35779.77
499.03	36531.08
499.20	36114.47
499.38	36364.90
499.56	37071.75
499.73	37006.21
499.91	36727.69
500.08	37483.68
500.26	36783.86
500.44	37322.18
500.61	37500.06
500.79	37659.22
500.97	37684.97
501.14	38178.82
501.32	38515.86
501.49	38466.70
501.67	38260.74
501.84	38162.43
502.02	38150.73
502.20	39007.37
502.37	39321.00
502.55	39185.25
502.72	39091.63
502.90	39337.38
503.07	39519.95
503.25	39922.52
503.43	38993.32
503.60	39789.11
503.78	39934.22
503.95	40023.16
504.13	40191.68
504.30	40414.03
504.48	40367.22
504.65	40421.05
504.83	40779.15
505.01	40669.15
505.18	41146.62
505.36	41532.81
505.53	40910.22
505.71	41331.52
505.88	41319.82
506.06	41247.26
506.23	41584.30
506.41	41729.41
506.58	41720.05
506.76	41764.52
506.93	41841.76
507.11	42085.17
507.28	42029.00
507.46	42387.10
507.63	42953.51
507.81	42740.52
507.98	42380.08
508.16	42700.73
508.33	43295.23
508.50	43091.60
508.68	43047.13
508.85	43814.83
509.03	43356.08
509.20	43618.22
509.38	44201.02
509.55	44182.29
509.73	44341.45
509.90	44137.82
510.08	44151.87
510.25	44109.74
510.42	44411.67
510.60	44912.54
510.77	44556.78
510.95	45127.87
511.12	44968.71
511.30	44989.78
511.47	45177.02
511.64	45216.81
511.82	45745.77
511.99	45780.88
512.17	45635.77
512.34	45029.57
512.51	46351.97
512.69	46153.02
512.86	45801.94
513.04	46461.97
513.21	46028.98
513.38	46291.12
513.56	46597.73
513.73	46398.78
513.90	46457.29
514.08	46461.97
514.25	46808.37
514.43	47136.05
514.60	47342.02
514.77	47185.20
514.95	47611.18
515.12	47391.17
515.29	47229.67
515.47	47601.82
515.64	47707.14
515.81	47936.51
515.99	47653.31
516.16	48044.18
516.33	48002.05
516.51	48030.13
516.68	47910.77
516.85	48109.71
517.03	48233.76
517.20	48704.21
517.37	48116.73
517.54	48648.03
517.72	48329.72
517.89	48893.79
518.06	48488.88
518.24	48861.02
518.41	48903.15
518.58	49478.92
518.75	49027.20
518.93	49443.82
519.10	49476.58
519.27	49258.91
519.45	49343.17
519.62	49593.61
519.79	49785.54
519.96	49446.16
520.14	49935.33
520.31	49970.44
520.48	50351.94
520.65	50045.33
520.83	50527.48
521.00	50382.37
521.17	50356.63
521.34	50007.89
521.52	50504.08
521.69	50712.39
521.86	50557.91
522.03	51058.79
522.20	50969.85
522.38	51269.43
522.55	51145.39
522.72	50965.17
522.89	50621.11
523.07	51444.98
523.24	51349.01
523.41	51288.16
523.58	51402.85
523.75	51447.32
523.92	51522.21
524.10	51695.41
524.27	51791.37
524.44	51643.92
524.61	51789.03
524.78	52142.45
524.96	51899.04
525.13	51784.35
525.30	52156.50
525.47	52308.63
525.64	52055.85
525.81	52240.76
525.98	52294.59
526.16	52182.24
526.33	52477.15
526.50	52907.81
526.67	52603.54
526.84	52655.03
527.01	52694.82
527.18	52603.54
527.36	52767.38
527.53	52643.33
527.70	53258.89
527.87	53109.10
528.04	53034.20
528.21	53191.01
528.38	53230.80
528.55	53015.47
528.72	52982.71
528.89	53083.35
529.07	52884.40
529.24	53085.69
529.41	53645.08
529.58	53614.65
529.75	53045.90
529.92	53525.71
530.09	53666.14
530.26	53624.01
530.43	53778.49
530.60	53869.77
530.77	53521.03
530.94	53609.97
531.11	53790.19
531.28	53951.69
531.46	53958.71
531.63	53956.37
531.80	54012.54
531.97	54117.87
532.14	54183.40
532.31	54181.06
532.48	54391.71
532.65	54581.29
532.82	54197.44
532.99	54281.70
533.16	54408.09
533.33	54712.36
533.50	54574.27
533.67	54611.72
533.84	54412.77
534.01	54639.81
534.18	54674.91
534.35	55136.00
534.52	54913.65
534.69	54934.71
534.86	54780.24
535.03	54817.69
535.20	55016.63
535.37	55182.81
535.54	55054.08
535.71	54892.58
535.88	55201.53
536.05	55327.92
536.22	55477.72
536.38	55400.48
536.55	55075.15
536.72	55295.16
536.89	55257.71
537.06	55351.33
537.23	55494.10
537.40	55395.80
537.57	55564.32
537.74	55393.46
537.91	56023.06
538.08	55683.69
538.25	55285.79
538.42	55636.87
538.59	55889.65
538.75	55917.74
538.92	55805.39
539.09	56097.96
539.26	55896.67
539.43	55777.31
539.60	55936.46
539.77	55955.19
539.94	56175.20
540.11	55770.28
540.28	56327.33
540.44	56133.07
540.61	56069.87
540.78	56051.15
540.95	56299.25
541.12	56081.58
541.29	56212.65
541.46	56376.48
541.62	56182.22
541.79	56507.55
541.96	56378.82
542.13	56268.82
542.30	56381.16
542.47	56385.85
542.63	56629.26
542.80	56713.52
542.97	56959.28
543.14	56973.32
543.31	56860.97
543.48	57027.15
543.64	57427.38
543.81	57059.92
543.98	57169.93
544.15	57214.40
544.32	57352.49
544.48	57492.92
544.65	57118.43
544.82	57195.67
544.99	57106.73
545.16	57226.10
545.32	57293.97
545.49	57272.91
545.66	57565.48
545.83	57502.28
546.00	57476.54
546.16	57497.60
546.33	57497.60
546.50	57308.02
546.67	57382.91
546.83	57059.92
547.00	57528.03
547.17	57553.77
547.34	57546.75
547.50	57712.93
547.67	58000.82
547.84	57710.59
548.00	57977.41
548.17	58181.04
548.34	57904.85
548.51	58031.24
548.67	57968.05
548.84	57851.02
549.01	57773.78
549.18	58035.92
549.34	58052.31
549.51	57968.05
549.68	58068.69
549.84	58260.62
550.01	58108.48
550.18	58028.90
550.34	58103.80
550.51	58307.43
550.68	58216.14
550.84	58120.18
551.01	58344.87
551.18	58141.25
551.34	58298.06
551.51	58302.74
551.68	58403.39
551.84	58410.41
552.01	58330.83
552.18	58548.50
552.34	58150.61
552.51	58569.57
552.68	58351.90
552.84	58621.06
553.01	58747.45
553.18	58539.14
553.34	58728.72
553.51	58506.37
553.67	58787.24
553.84	58918.31
554.01	58747.45
554.17	58822.34
554.34	58951.07
554.51	58714.68
554.67	58775.53
554.84	59070.44
555.00	58899.58
555.17	58728.72
555.33	58841.07
555.50	58738.08
555.67	58901.92
555.83	58913.62
556.00	58869.15
556.16	59206.19
556.33	58925.33
556.50	59164.06
556.66	59100.87
556.83	58887.88
556.99	59147.68
557.16	59224.92
557.32	59428.54
557.49	59494.08
557.65	59213.21
557.82	59344.28
557.98	59365.35
558.15	59370.03
558.32	59208.53
558.48	59353.65
558.65	59395.77
558.81	59419.18
558.98	59203.85
559.14	59505.78
559.31	59405.14
559.47	59653.23
559.64	59496.42
559.80	59468.33
559.97	59503.44
560.13	59419.18
560.30	59461.31
560.46	59606.42
560.63	59601.74
560.79	59657.91
560.96	59781.96
561.12	59758.56
561.29	59643.87
561.45	59735.15
561.61	59590.04
561.78	59674.30
561.94	59374.71
562.11	59702.38
562.27	59863.88
562.44	60044.10
562.60	59948.14
562.77	59990.27
562.93	59711.75
563.10	60048.78
563.26	59622.81
563.42	60147.09
563.59	59901.33
563.75	60032.40
563.92	59985.59
564.08	59929.42
564.24	59971.55
564.41	59906.01
564.57	59976.23
564.74	59824.09
564.90	60074.53
565.07	59943.46
565.23	60025.38
565.39	60088.57
565.56	60133.04
565.72	59917.71
565.88	59952.82
566.05	60088.57
566.21	59948.14
566.38	60053.47
566.54	60009.00
566.70	60161.13
566.87	60126.02
567.03	60009.00
567.19	60221.98
567.36	60025.38
567.52	60065.17
567.68	60514.55
567.85	60170.49
568.01	60313.26
568.17	59997.29
568.34	60186.88
568.50	60273.48
568.66	60062.83
568.83	60343.69
568.99	60233.69
569.15	60273.48
569.32	60247.73
569.48	60240.71
569.64	60449.02
569.81	60123.68
569.97	60369.44
570.13	60289.86
570.30	60233.69
570.46	60299.22
570.62	60317.95
570.78	60268.79
570.95	60135.38
571.11	60596.47
571.27	60294.54
571.43	60287.52
571.60	60491.15
571.76	60423.27
571.92	60608.17
572.09	60500.51
572.25	60507.53
572.41	60521.57
572.57	60287.52
572.74	60533.28
572.90	60434.97
573.06	60645.62
573.22	60608.17
573.38	60612.85
573.55	60378.80
573.71	60795.42
573.87	60491.15
574.03	60547.32
574.20	60467.74
574.36	60374.12
574.52	60636.26
574.68	60488.80
574.84	60491.15
575.01	60694.77
575.17	60444.33
575.33	60413.91
575.49	60460.72
575.65	60598.81
575.82	60594.13
575.98	60577.75
576.14	60736.90
576.30	60465.40
576.46	60561.36
576.62	60549.66
576.79	60582.43
576.95	60390.50
577.11	60692.43
577.27	60629.24
577.43	60802.44
577.59	60605.83
577.75	60636.26
577.92	60683.07
578.08	60498.17
578.24	60697.11
578.40	60851.59
578.56	60767.33
578.72	60722.86
578.88	60774.35
579.04	60886.70
579.21	60676.05
579.37	60912.44
579.53	60800.10
579.69	60856.27
579.85	60750.94
580.01	60622.22
580.17	60706.47
580.33	60601.15
580.49	60697.11
580.65	60804.78
580.82	60659.66
580.98	60626.90
581.14	60776.69
581.30	60776.69
581.46	60617.53
581.62	60865.63
581.78	60549.66
581.94	60741.58
582.10	60692.43
582.26	60753.29
582.42	60687.75
582.58	60781.37
582.74	60701.79
582.90	60779.03
583.06	60725.20
583.22	60573.06
583.38	60767.33
583.54	60748.60
583.70	60687.75
583.86	60975.64
584.02	60795.42
584.18	60882.02
584.34	60654.98
584.50	60814.14
584.66	60685.41
584.82	60523.91
584.98	61116.07
585.14	60809.46
585.30	60985.00
585.46	60842.23
585.62	60865.63
585.78	60942.87
585.94	60568.38
586.10	60886.70
586.26	60865.63
586.42	60779.03
586.58	61127.77
586.74	60687.75
586.90	60823.50
587.06	60781.37
587.22	60992.02
587.38	61078.62
587.54	60856.27
587.70	60968.61
587.86	60807.12
588.02	60867.97
588.18	60996.70
588.34	60879.67
588.49	60959.25
