SpectraSuite Data File
++++++++++++++++++++++++++++++++++++
Date: Fri Oct 25 11:34:05 EDT 2013
User: price-jones
Dark Spectrum Present: No
Reference Spectrum Present: No
Number of Sampled Component Spectra: 1
Spectrometers: USB2+H05261
Integration Time (usec): 100000 (USB2+H05261)
Spectra Averaged: 1 (USB2+H05261)
Boxcar Smoothing: 0 (USB2+H05261)
Correct for Electrical Dark: No (USB2+H05261)
Strobe/Lamp Enabled: No (USB2+H05261)
Correct for Detector Non-linearity: No (USB2+H05261)
Correct for Stray Light: No (USB2+H05261)
Number of Pixels in Processed Spectrum: 2048
>>>>>Begin Processed Spectral Data<<<<<
365.73	266.82
365.92	266.82
366.12	266.82
366.32	238.73
366.52	180.22
366.72	205.97
366.91	156.82
367.11	159.16
367.31	203.63
367.51	140.43
367.70	196.60
367.90	196.60
368.10	149.79
368.30	168.52
368.49	198.95
368.69	231.71
368.89	161.50
369.09	84.26
369.28	224.69
369.48	224.69
369.68	290.23
369.87	283.20
370.07	205.97
370.27	299.59
370.47	278.52
370.66	423.64
370.86	491.51
371.06	528.96
371.25	561.73
371.45	463.43
371.65	575.77
371.84	571.09
372.04	491.51
372.24	578.11
372.44	585.13
372.63	580.45
372.83	603.86
373.03	615.56
373.22	561.73
373.42	596.84
373.62	613.22
373.81	627.26
374.01	674.07
374.21	645.99
374.40	645.99
374.60	627.26
374.79	615.56
374.99	620.24
375.19	629.60
375.38	697.48
375.58	690.46
375.78	671.73
375.97	734.93
376.17	739.61
376.37	638.97
376.56	718.54
376.76	634.29
376.95	601.52
377.15	648.33
377.35	674.07
377.54	695.14
377.74	713.86
377.93	723.23
378.13	697.48
378.33	727.91
378.52	653.01
378.72	732.59
378.91	690.46
379.11	702.16
379.31	702.16
379.50	627.26
379.70	767.70
379.89	805.14
380.09	699.82
380.28	716.20
380.48	716.20
380.68	688.12
380.87	779.40
381.07	716.20
381.26	837.91
381.46	674.07
381.65	709.18
381.85	760.67
382.04	800.46
382.24	676.41
382.43	800.46
382.63	805.14
382.83	734.93
383.02	812.17
383.22	809.83
383.41	772.38
383.61	777.06
383.80	807.48
384.00	880.04
384.19	788.76
384.39	868.34
384.58	800.46
384.78	805.14
384.97	734.93
385.17	800.46
385.36	957.28
385.56	875.36
385.75	844.93
385.95	891.74
386.14	901.11
386.34	833.23
386.53	777.06
386.72	765.36
386.92	791.10
387.11	903.45
387.31	1022.81
387.50	854.30
387.70	854.30
387.89	894.08
388.09	966.64
388.28	840.25
388.48	917.49
388.67	821.53
388.86	1022.81
389.06	961.96
389.25	968.98
389.45	908.13
389.64	990.05
389.84	938.55
390.03	1053.24
390.22	1015.79
390.42	891.74
390.61	987.71
390.81	990.05
391.00	929.19
391.19	1027.50
391.39	966.64
391.58	994.73
391.78	954.94
391.97	985.37
392.16	976.00
392.36	1067.28
392.55	1011.11
392.75	1039.20
392.94	1020.47
393.13	999.41
393.33	1142.18
393.52	1114.10
393.71	1034.52
393.91	1102.39
394.10	1025.15
394.29	1200.69
394.49	1160.91
394.68	1188.99
394.88	1210.06
395.07	1132.82
395.26	1233.46
395.46	1121.12
395.65	1137.50
395.84	1235.80
396.04	1203.04
396.23	1153.88
396.42	1207.72
396.62	1139.84
396.81	1132.82
397.00	1100.05
397.19	1156.22
397.39	1198.35
397.58	1226.44
397.77	1226.44
397.97	1275.59
398.16	1268.57
398.35	1205.38
398.55	1228.78
398.74	1284.95
398.93	1289.64
399.12	1235.80
399.32	1313.04
399.51	1294.32
399.70	1306.02
399.90	1284.95
400.09	1254.53
400.28	1268.57
400.47	1376.24
400.67	1486.24
400.86	1352.83
401.05	1362.19
401.24	1327.08
401.44	1364.53
401.63	1397.30
401.82	1444.11
402.01	1327.08
402.21	1437.09
402.40	1406.66
402.59	1490.92
402.78	1453.47
402.97	1474.54
403.17	1554.12
403.36	1617.31
403.55	1523.69
403.74	1526.03
403.93	1638.38
404.13	1617.31
404.32	1629.01
404.51	1572.84
404.70	1781.15
404.89	1586.88
405.09	1570.50
405.28	1584.54
405.47	1582.20
405.66	1666.46
405.85	1596.25
406.05	1722.63
406.24	1654.76
406.43	1753.06
406.62	1778.81
406.81	1837.32
407.00	1755.40
407.20	1783.49
407.39	1851.36
407.58	1757.74
407.77	1788.17
407.96	1750.72
408.15	1905.20
408.34	1842.00
408.54	1844.34
408.73	1900.52
408.92	1834.98
409.11	1923.92
409.30	2010.52
409.49	1963.71
409.68	1947.33
409.87	2069.03
410.07	1996.48
410.26	1987.11
410.45	2078.40
410.64	2022.22
410.83	2062.01
411.02	2064.35
411.21	1989.46
411.40	2169.68
411.59	2062.01
411.78	2235.21
411.98	2132.23
412.17	2279.68
412.36	2275.00
412.55	2356.92
412.74	2335.85
412.93	2331.17
413.12	2298.41
413.31	2415.43
413.50	2373.30
413.69	2284.36
413.88	2551.18
414.07	2385.01
414.26	2363.94
414.45	2415.43
414.64	2424.80
414.83	2541.82
415.02	2452.88
415.22	2569.91
415.41	2621.40
415.60	2630.76
415.79	2597.99
415.98	2668.21
416.17	2649.49
416.36	2691.62
416.55	2771.19
416.74	2782.90
416.93	2722.04
417.12	2810.98
417.31	2864.82
417.50	2789.92
417.69	2874.18
417.88	2855.45
418.07	2871.84
418.26	2998.23
418.45	3002.91
418.64	2998.23
418.83	2981.84
419.02	2993.55
419.21	3056.74
419.39	3157.38
419.58	3042.70
419.77	3019.29
419.96	3082.49
420.15	3122.27
420.34	2993.55
420.53	3070.78
420.72	3117.59
420.91	3220.58
421.10	3218.24
421.29	3309.52
421.48	3124.62
421.67	3262.71
421.86	3293.13
422.05	3286.11
422.24	3258.03
422.43	3309.52
422.61	3325.90
422.80	3311.86
422.99	3286.11
423.18	3353.99
423.37	3379.73
423.56	3258.03
423.75	3358.67
423.94	3281.43
424.13	3070.78
424.32	3143.34
424.50	3368.03
424.69	3428.88
424.88	3508.46
425.07	3325.90
425.26	3293.13
425.45	3433.57
425.64	3304.84
425.83	3463.99
426.01	3522.51
426.20	3548.25
426.39	3527.19
426.58	3349.31
426.77	3461.65
426.96	3412.50
427.15	3669.96
427.33	3517.83
427.52	3379.73
427.71	3529.53
427.90	3541.23
428.09	3590.38
428.28	3578.68
428.46	3641.87
428.65	3478.04
428.84	3831.46
429.03	3644.21
429.22	3688.68
429.40	3686.34
429.59	3932.10
429.78	3550.59
429.97	3543.57
430.16	3660.60
430.34	3899.33
430.53	3796.35
430.72	3730.81
430.91	3688.68
431.10	3691.02
431.28	3875.93
431.47	3971.89
431.66	3939.12
431.85	3985.93
432.03	4009.34
432.22	4051.47
432.41	4007.00
432.60	3913.38
432.79	4084.23
432.97	4037.42
433.16	4002.32
433.35	4053.81
433.54	4156.79
433.72	4053.81
433.91	4189.56
434.10	4084.23
434.28	4112.32
434.47	4182.54
434.66	4248.07
434.85	4210.62
435.03	4198.92
435.22	4252.75
435.41	4337.01
435.59	4175.52
435.78	4397.87
435.97	4369.78
436.16	4355.74
436.34	4390.84
436.53	4397.87
436.72	4322.97
436.90	4376.80
437.09	4404.89
437.28	4318.29
437.46	4437.66
437.65	4456.38
437.84	4594.47
438.02	4313.61
438.21	4531.28
438.40	4552.34
438.58	4713.84
438.77	4692.77
438.96	4648.30
439.14	4849.59
439.33	4695.11
439.52	4690.43
439.70	4777.03
439.89	4873.00
440.08	4994.70
440.26	5050.88
440.45	4922.15
440.63	4898.74
440.82	5015.77
441.01	4926.83
441.19	5062.58
441.38	5015.77
441.57	5067.26
441.75	5308.34
441.94	5219.39
442.12	5322.38
442.31	5291.95
442.50	5404.30
442.68	5256.84
442.87	5273.23
443.05	5249.82
443.24	5488.56
443.43	5352.81
443.61	5495.58
443.80	5638.35
443.98	5327.06
444.17	5252.16
444.35	5521.32
444.54	5570.48
444.73	5511.96
444.91	5551.75
445.10	5645.37
445.28	5523.66
445.47	5446.43
445.65	5614.95
445.84	5741.33
446.02	5647.71
446.21	5526.00
446.39	5624.31
446.58	5591.54
446.77	5605.58
446.95	5621.97
447.14	5689.84
447.32	5624.31
447.51	5633.67
447.69	5554.09
447.88	5659.42
448.06	5715.59
448.25	5736.65
448.43	5827.93
448.62	5645.37
448.80	5694.52
448.99	5755.38
449.17	5884.11
449.36	5666.44
449.54	5832.62
449.73	5834.96
449.91	5914.53
450.10	5987.09
450.28	5956.66
450.46	6083.05
450.65	5933.26
450.83	6090.07
451.02	5877.09
451.20	6050.28
451.39	6008.16
451.57	5959.00
451.76	6001.13
451.94	6129.86
452.13	6083.05
452.31	5935.60
452.49	6157.95
452.68	6061.99
452.86	6244.55
453.05	6059.65
453.23	6258.59
453.42	6312.42
453.60	6143.91
453.78	6232.85
453.97	6258.59
454.15	6415.41
454.34	6209.44
454.52	6319.45
454.70	6410.73
454.89	6324.13
455.07	6366.26
455.26	6553.50
455.44	6614.35
455.62	6497.33
455.81	6541.80
455.99	6670.53
456.17	6743.08
456.36	6628.40
456.54	6693.93
456.73	6939.69
456.91	6991.18
457.09	6799.26
457.28	7047.35
457.46	6899.90
457.64	7169.06
457.83	7054.37
458.01	6979.48
458.19	6888.20
458.38	7066.08
458.56	7112.89
458.74	7016.93
458.93	7040.33
459.11	6977.14
459.29	7026.29
459.48	7204.17
459.66	7082.46
459.84	7262.68
460.03	7311.83
460.21	7115.23
460.39	7190.13
460.57	7185.44
460.76	7360.98
460.94	7375.03
461.12	7522.48
461.31	7300.13
461.49	7269.70
461.67	7316.51
461.85	7559.93
462.04	7475.67
462.22	7901.65
462.40	7707.38
462.59	7693.34
462.77	7653.55
462.95	7578.65
463.13	7478.01
463.32	7676.96
463.50	7674.62
463.68	7768.24
463.86	7812.71
464.05	7669.94
464.23	7730.79
464.41	7845.48
464.59	7737.81
464.78	7936.76
464.96	7946.12
465.14	7894.63
465.32	7810.37
465.50	7829.09
465.69	7899.31
465.87	8077.19
466.05	8100.59
466.23	8124.00
466.41	8025.70
466.60	8112.30
466.78	8042.08
466.96	8154.43
467.14	8006.97
467.32	8210.60
467.51	8194.22
467.69	8147.40
467.87	8032.72
468.05	8308.90
468.23	8173.15
468.41	8126.34
468.60	8140.38
468.78	8173.15
468.96	8395.50
469.14	8486.78
469.32	8627.21
469.50	8390.82
469.69	8470.40
469.87	8498.49
470.05	8603.81
470.23	8603.81
470.41	8641.26
470.59	8652.96
470.77	8636.58
470.95	8877.65
471.14	8926.80
471.32	8540.61
471.50	8954.89
471.68	8926.80
471.86	8861.27
472.04	9022.77
472.22	9245.12
472.40	8884.67
472.58	8990.00
472.77	9327.03
472.95	9266.18
473.13	9610.24
473.31	9210.01
473.49	9266.18
473.67	9132.77
473.85	9245.12
474.03	9570.45
474.21	9626.62
474.39	9755.35
474.57	9549.39
474.75	9624.28
474.93	9692.16
475.12	9612.58
475.30	9891.10
475.48	9884.08
475.66	9958.98
475.84	9928.55
476.02	9820.89
476.20	10036.22
476.38	10162.61
476.56	10363.89
476.74	10553.48
476.92	10127.50
477.10	10270.27
477.28	10478.58
477.46	10499.64
477.64	10686.89
477.82	10635.39
478.00	10958.39
478.18	10817.96
478.36	10942.00
478.54	11201.80
478.72	11052.01
478.90	11208.83
479.08	11335.21
479.26	11201.80
479.44	11536.50
479.62	11550.54
479.80	11620.76
479.98	11644.17
480.16	11953.12
480.34	11861.84
480.52	12138.02
480.70	12023.33
480.88	12020.99
481.06	12444.63
481.24	12201.21
481.41	12226.96
481.59	12582.72
481.77	12355.69
481.95	12692.73
482.13	12713.79
482.31	12762.94
482.49	13198.28
482.67	13050.83
482.85	13329.35
483.03	13429.99
483.21	13444.04
483.39	13596.17
483.57	13612.56
483.74	13439.36
483.92	13827.88
484.10	13898.10
484.28	13919.17
484.46	14129.81
484.64	14403.66
484.82	13841.93
485.00	14494.94
485.18	14799.21
485.35	14857.72
485.53	14759.42
485.71	14754.74
485.89	14941.98
486.07	15061.35
486.25	15169.01
486.43	15150.29
486.61	15145.61
486.78	15382.00
486.96	15428.81
487.14	15740.10
487.32	15786.91
487.50	16002.24
487.68	15939.05
487.85	16180.12
488.03	16442.26
488.21	16746.53
488.39	16517.16
488.57	16709.08
488.75	16830.79
488.92	17116.34
489.10	17135.06
489.28	17202.94
489.46	17392.52
489.64	17640.62
489.81	17818.50
489.99	17984.68
490.17	17839.56
490.35	18068.94
490.53	18162.56
490.70	18279.58
490.88	18129.79
491.06	18658.75
491.24	18382.57
491.41	18740.67
491.59	18890.46
491.77	19215.80
491.95	18850.67
492.13	19264.95
492.30	19321.12
492.48	19332.82
492.66	19515.39
492.84	19971.79
493.01	19936.68
493.19	19910.94
493.37	19822.00
493.54	20137.97
493.72	20215.21
493.90	20077.12
494.08	20329.89
494.25	20556.93
494.43	20692.68
494.61	20503.09
494.79	20713.74
494.96	20760.55
495.14	20971.20
495.32	21458.03
495.49	21242.70
495.67	21738.90
495.85	21570.38
496.02	21434.63
496.20	21696.77
496.38	22078.27
496.55	21965.93
496.73	22457.44
496.91	22422.33
497.09	22661.07
497.26	22249.13
497.44	22412.97
497.62	22789.80
497.79	22972.36
497.97	22742.99
498.14	23356.21
498.32	23026.19
498.50	23070.66
498.67	23878.15
498.85	23592.60
499.03	23604.30
499.20	23580.90
499.38	23765.80
499.56	23688.56
499.73	23880.49
499.91	24170.71
500.08	24161.35
500.26	23981.13
500.44	24266.67
500.61	24189.44
500.79	24121.56
500.97	24755.85
501.14	25006.28
501.32	24753.51
501.49	25198.21
501.67	24837.76
501.84	25275.45
502.02	24924.36
502.20	25329.28
502.37	25301.19
502.55	25315.23
502.72	25504.82
502.90	25766.96
503.07	25184.16
503.25	25277.79
503.43	25139.69
503.60	25930.80
503.78	25867.60
503.95	25872.28
504.13	26146.12
504.30	26225.70
504.48	25916.75
504.65	26169.53
504.83	26459.76
505.01	26616.57
505.18	26623.59
505.36	26759.34
505.53	26398.90
505.71	26855.31
505.88	26560.40
506.06	26642.32
506.23	27253.20
506.41	27077.66
506.58	27339.80
506.76	27150.21
506.93	27044.89
507.11	27360.86
507.28	27747.05
507.46	27487.25
507.63	27934.29
507.81	28208.14
507.98	27784.50
508.16	27964.72
508.33	28379.00
508.50	28156.64
508.68	28360.27
508.85	28205.80
509.03	28058.34
509.20	28166.01
509.38	28811.99
509.55	29032.00
509.73	28636.45
509.90	28793.27
510.08	28650.50
510.25	28982.85
510.42	28819.02
510.60	29186.48
510.77	28968.81
510.95	29816.08
511.12	29085.84
511.30	29483.73
511.47	29284.78
511.64	29766.93
511.82	29390.11
511.99	29844.17
512.17	29713.10
512.34	29902.68
512.51	30541.65
512.69	30050.14
512.86	30232.70
513.04	30548.67
513.21	30672.72
513.38	30525.27
513.56	30969.97
513.73	30139.08
513.90	30494.84
514.08	30656.34
514.25	31098.70
514.43	30998.06
514.60	30834.22
514.77	30883.37
514.95	31126.78
515.12	30878.69
515.29	31295.30
515.47	31693.19
515.64	31597.23
515.81	31037.84
515.99	31454.46
516.16	31559.78
516.33	31569.15
516.51	31725.96
516.68	31929.59
516.85	31936.61
517.03	32238.54
517.20	32079.38
517.37	32046.62
517.54	32283.01
517.72	32318.12
517.89	32409.40
518.06	32481.95
518.24	32526.42
518.41	32177.68
518.58	32194.07
518.75	32713.67
518.93	32814.31
519.10	32903.25
519.27	32804.95
519.45	33284.76
519.62	33291.78
519.79	33067.09
519.96	32943.04
520.14	33184.12
520.31	32889.21
520.48	32917.29
520.65	33097.52
520.83	33488.38
521.00	33755.21
521.17	33799.68
521.34	33661.58
521.52	33860.53
521.69	33699.03
521.86	33823.08
522.03	33869.89
522.20	33965.85
522.38	34370.77
522.55	34436.30
522.72	34153.10
522.89	34583.76
523.07	34721.85
523.24	34909.09
523.41	34251.40
523.58	34398.85
523.75	35075.27
523.92	34536.94
524.10	34754.61
524.27	35143.14
524.44	35285.92
524.61	34693.76
524.78	34740.57
524.96	35175.91
525.13	35023.78
525.30	35314.00
525.47	35674.45
525.64	35395.92
525.81	35400.60
525.98	35637.00
526.16	35967.01
526.33	35847.64
526.50	36224.47
526.67	35510.61
526.84	35372.52
527.01	36077.02
527.18	35915.52
527.36	35674.45
527.53	36526.40
527.70	36739.39
527.87	36470.23
528.04	36268.94
528.21	36306.39
528.38	36456.18
528.55	36683.22
528.72	36540.44
528.89	36184.68
529.07	36140.21
529.24	36140.21
529.41	36580.23
529.58	36648.11
529.75	36783.86
529.92	36802.58
530.09	37216.86
530.26	36872.80
530.43	37163.03
530.60	36760.45
530.77	36570.87
530.94	36893.86
531.11	37046.00
531.28	37481.34
531.46	37310.48
531.63	37359.63
531.80	37392.40
531.97	37574.96
532.14	37453.25
532.31	37507.08
532.48	37792.63
532.65	38115.62
532.82	37839.44
532.99	37893.27
533.16	37769.22
533.33	38279.46
533.50	38258.40
533.67	38000.94
533.84	37745.82
534.01	37926.04
534.18	38115.62
534.35	38490.11
534.52	38700.76
534.69	38583.73
534.86	38827.15
535.03	38096.90
535.20	38382.45
535.37	38497.13
535.54	38876.30
535.71	38550.96
535.88	39140.78
536.05	38990.98
536.22	39449.73
536.38	38497.13
536.55	38990.98
536.72	38710.12
536.89	39063.54
537.06	38979.28
537.23	39255.46
537.40	39281.21
537.57	39098.65
537.74	39056.52
537.91	39423.98
538.08	39388.88
538.25	39208.65
538.42	39192.27
538.59	39669.74
538.75	39714.21
538.92	39852.30
539.09	40013.80
539.26	39620.59
539.43	40128.48
539.60	39335.04
539.77	39742.30
539.94	40526.38
540.11	39805.49
540.28	40105.08
540.44	39952.94
540.61	39597.18
540.78	39779.74
540.95	39791.45
541.12	40074.65
541.29	39835.92
541.46	40301.68
541.62	40488.93
541.79	40343.81
541.96	40292.32
542.13	40264.24
542.30	40336.79
542.47	40399.99
542.63	40692.55
542.80	40961.72
542.97	41050.66
543.14	41198.11
543.31	40889.16
543.48	40837.67
543.64	41123.21
543.81	41219.17
543.98	41607.70
544.15	40533.40
544.32	41099.81
544.48	41645.15
544.65	41324.50
544.82	41394.71
544.99	40928.95
545.16	41663.88
545.32	41263.64
545.49	41848.78
545.66	41904.95
545.83	41720.05
546.00	41890.91
546.16	41434.50
546.33	41698.98
546.50	41387.69
546.67	42204.54
546.83	41308.11
547.00	41841.76
547.17	41872.18
547.34	42014.96
547.50	42113.26
547.67	42586.05
547.84	42447.96
548.00	42223.26
548.17	42630.52
548.34	42373.06
548.51	42759.25
548.67	42335.61
548.84	42337.95
549.01	42359.02
549.18	42845.85
549.34	42539.24
549.51	42504.13
549.68	42618.81
549.84	42674.99
550.01	42927.77
550.18	42710.10
550.34	42621.16
550.51	42892.66
550.68	42761.59
550.84	42319.23
551.01	42663.28
551.18	42958.19
551.34	42937.13
551.51	43274.16
551.68	42789.67
551.84	43159.48
552.01	43164.16
552.18	43077.56
552.34	43072.88
552.51	43438.00
552.68	42693.71
552.84	43290.55
553.01	43463.75
553.18	43402.89
553.34	43386.51
553.51	43470.77
553.67	43693.12
553.84	43557.37
554.01	43426.30
554.17	43480.13
554.34	43627.59
554.51	43704.82
554.67	43878.02
554.84	43899.09
555.00	43728.23
555.17	43765.68
555.33	44121.44
555.50	43468.43
555.67	43566.73
555.83	43924.83
556.00	43976.33
556.16	44236.12
556.33	43992.71
556.50	43744.61
556.66	44002.07
556.83	44011.43
556.99	44470.18
557.16	44332.09
557.32	44308.68
557.49	44507.63
557.65	43817.17
557.82	44634.02
557.98	44423.37
558.15	44203.36
558.32	44378.90
558.48	44002.07
558.65	44350.81
558.81	44072.29
558.98	44465.50
559.14	44371.88
559.31	44273.57
559.47	44514.65
559.64	44343.79
559.80	44088.67
559.97	44280.60
560.13	44369.54
560.30	44652.74
560.46	45162.98
560.63	45104.46
560.79	45104.46
560.96	45294.05
561.12	44708.91
561.29	44921.90
561.45	44788.49
561.61	44893.82
561.78	44404.64
561.94	44811.90
562.11	44851.69
562.27	44971.05
562.44	44835.30
562.60	45153.62
562.77	44807.22
562.93	44690.19
563.10	45551.51
563.26	44947.65
563.42	45483.63
563.59	44940.63
563.75	44879.77
563.92	45317.45
564.08	44935.95
564.24	45610.02
564.41	44907.86
564.57	45195.74
564.74	45048.29
564.90	44694.87
565.07	45074.04
565.23	45324.47
565.39	45174.68
565.56	44978.07
565.72	45174.68
565.88	45469.59
566.05	45649.81
566.21	45570.23
566.38	45586.61
566.54	45474.27
566.70	45546.82
566.87	45928.33
567.03	45378.31
567.19	45972.80
567.36	45469.59
567.52	45067.02
567.68	45595.98
567.85	45808.96
568.01	45635.77
568.17	45340.86
568.34	46036.00
568.50	45675.55
568.66	45202.77
568.83	45406.39
568.99	45333.84
569.15	45448.52
569.32	45734.07
569.48	45483.63
569.64	45811.31
569.81	45478.95
569.97	45752.79
570.13	45968.12
570.30	45532.78
570.46	46092.17
570.62	45925.99
570.78	45734.07
570.95	46028.98
571.11	46087.49
571.27	45553.85
571.43	45813.65
571.60	46167.07
571.76	45823.01
571.92	45841.73
572.09	45647.47
572.25	45799.60
572.41	45762.15
572.57	45902.59
572.74	46532.19
572.90	45729.39
573.06	46305.16
573.22	45710.66
573.38	45801.94
573.55	45986.85
573.71	46541.55
573.87	46087.49
574.03	46422.19
574.20	46237.28
574.36	46117.92
574.52	46178.77
574.68	46265.37
574.84	46136.64
575.01	46012.59
575.17	45944.72
575.33	46213.88
575.49	46464.32
575.65	46213.88
575.82	46307.50
575.98	46103.87
576.14	46230.26
576.30	46333.24
576.46	45961.10
576.62	46190.47
576.79	46368.35
576.95	45965.78
577.11	46319.20
577.27	46263.03
577.43	46534.53
577.59	46398.78
577.75	45947.06
577.92	45633.42
578.08	46426.87
578.24	46246.65
578.40	46396.44
578.56	46775.61
578.72	46670.28
578.88	46667.94
579.04	46181.11
579.21	46003.23
579.37	46663.26
579.53	46417.50
579.69	46197.49
579.85	46178.77
580.01	46841.14
580.17	46066.42
580.33	46855.18
580.49	46724.11
580.65	46366.01
580.82	46122.60
580.98	45956.42
581.14	46164.73
581.30	46363.67
581.46	46288.77
581.62	46122.60
581.78	46199.83
581.94	46597.73
582.10	46232.60
582.26	46017.27
582.42	45977.48
582.58	46630.49
582.74	46260.69
582.90	46775.61
583.06	46663.26
583.22	46380.06
583.38	46541.55
583.54	46457.29
583.70	46218.56
583.86	46499.42
584.02	46216.22
584.18	46845.82
584.34	46667.94
584.50	46373.03
584.66	46850.50
584.82	46583.68
584.98	46719.43
585.14	46206.86
585.30	46248.99
585.46	46450.27
585.62	46564.96
585.78	46745.18
585.94	46316.86
586.10	46543.89
586.26	46246.65
586.42	46555.60
586.58	46745.18
586.74	46375.37
586.90	46567.30
587.06	45930.67
587.22	46843.48
587.38	46398.78
587.54	47033.07
587.70	46782.63
587.86	46696.03
588.02	46288.77
588.18	46674.96
588.34	46384.74
588.49	46857.52
588.65	46586.02
588.81	46972.21
588.97	46490.06
589.13	46674.96
589.29	46752.20
589.45	46885.61
589.61	46700.71
589.77	47030.72
589.93	46944.12
590.08	47243.71
