SpectraSuite Data File
++++++++++++++++++++++++++++++++++++
Date: Fri Oct 25 11:23:10 EDT 2013
User: price-jones
Dark Spectrum Present: No
Reference Spectrum Present: No
Number of Sampled Component Spectra: 1
Spectrometers: USB2+H05261
Integration Time (usec): 100000 (USB2+H05261)
Spectra Averaged: 1 (USB2+H05261)
Boxcar Smoothing: 0 (USB2+H05261)
Correct for Electrical Dark: No (USB2+H05261)
Strobe/Lamp Enabled: No (USB2+H05261)
Correct for Detector Non-linearity: No (USB2+H05261)
Correct for Stray Light: No (USB2+H05261)
Number of Pixels in Processed Spectrum: 2048
>>>>>Begin Processed Spectral Data<<<<<
365.73	220.01
365.92	220.01
366.12	220.01
366.32	208.31
366.52	140.43
366.72	177.88
366.91	84.26
367.11	156.82
367.31	65.54
367.51	88.94
367.70	126.39
367.90	72.56
368.10	88.94
368.30	121.71
368.49	156.82
368.69	119.37
368.89	168.52
369.09	114.69
369.28	210.65
369.48	163.84
369.68	184.90
369.87	159.16
370.07	173.20
370.27	262.14
370.47	299.59
370.66	592.16
370.86	674.07
371.06	657.69
371.25	711.52
371.45	571.09
371.65	615.56
371.84	636.63
372.04	615.56
372.24	746.63
372.44	620.24
372.63	678.76
372.83	748.97
373.03	758.33
373.22	692.80
373.42	734.93
373.62	842.59
373.81	781.74
374.01	760.67
374.21	767.70
374.40	718.54
374.60	800.46
374.79	737.27
374.99	924.51
375.19	849.61
375.38	826.21
375.58	734.93
375.78	814.51
375.97	866.00
376.17	903.45
376.37	849.61
376.56	868.34
376.76	851.96
376.95	861.32
377.15	966.64
377.35	894.08
377.54	936.21
377.74	882.38
377.93	929.19
378.13	924.51
378.33	915.15
378.52	877.70
378.72	868.34
378.91	961.96
379.11	992.39
379.31	891.74
379.50	929.19
379.70	968.98
379.89	1046.22
380.09	936.21
380.28	1046.22
380.48	1064.94
380.68	1013.45
380.87	952.60
381.07	985.37
381.26	1015.79
381.46	1020.47
381.65	976.00
381.85	1071.97
382.04	1060.26
382.24	1062.60
382.43	1057.92
382.63	992.39
382.83	994.73
383.02	999.41
383.22	1102.39
383.41	1111.75
383.61	1130.48
383.80	1018.13
384.00	1191.33
384.19	1067.28
384.39	1114.10
384.58	1086.01
384.78	1107.07
384.97	1177.29
385.17	1153.88
385.36	1132.82
385.56	1095.37
385.75	1167.93
385.95	1172.61
386.14	1217.08
386.34	1210.06
386.53	1242.82
386.72	1193.67
386.92	1212.40
387.11	1273.25
387.31	1188.99
387.50	1331.76
387.70	1242.82
387.89	1336.45
388.09	1355.17
388.28	1235.80
388.48	1310.70
388.67	1224.10
388.86	1329.42
389.06	1376.24
389.25	1392.62
389.45	1341.13
389.64	1301.34
389.84	1458.15
390.03	1420.71
390.22	1404.32
390.42	1420.71
390.61	1376.24
390.81	1378.58
391.00	1336.45
391.19	1394.96
391.39	1472.20
391.58	1376.24
391.78	1540.07
391.97	1472.20
392.16	1362.19
392.36	1509.65
392.55	1451.13
392.75	1675.82
392.94	1483.90
393.13	1572.84
393.33	1416.02
393.52	1537.73
393.71	1612.63
393.91	1579.86
394.10	1591.56
394.29	1572.84
394.49	1619.65
394.68	1666.46
394.88	1657.10
395.07	1708.59
395.26	1753.06
395.46	1802.21
395.65	1729.66
395.84	1682.85
396.04	1715.61
396.23	1823.28
396.42	1806.89
396.62	1778.81
396.81	1797.53
397.00	1769.44
397.19	1816.26
397.39	1792.85
397.58	1872.43
397.77	1734.34
397.97	1870.09
398.16	1926.26
398.35	1877.11
398.55	1832.64
398.74	1923.92
398.93	2001.16
399.12	1977.75
399.32	1970.73
399.51	1839.66
399.70	1982.43
399.90	1952.01
400.09	1928.60
400.28	2022.22
400.47	2005.84
400.67	2153.29
400.86	2094.78
401.05	1973.07
401.24	2146.27
401.44	2087.76
401.63	2242.23
401.82	2165.00
402.01	2221.17
402.21	2207.13
402.40	2162.66
402.59	2099.46
402.78	2188.40
402.97	2275.00
403.17	2286.70
403.36	2221.17
403.55	2312.45
403.74	2307.77
403.93	2333.51
404.13	2279.68
404.32	2354.58
404.51	2417.77
404.70	2319.47
404.89	2434.16
405.09	2532.46
405.28	2497.35
405.47	2408.41
405.66	2459.90
405.85	2518.42
406.05	2504.37
406.24	2506.71
406.43	2626.08
406.62	2619.06
406.81	2633.10
407.00	2619.06
407.20	2595.65
407.39	2630.76
407.58	2782.90
407.77	2740.77
407.96	2766.51
408.15	2794.60
408.34	2700.98
408.54	2799.28
408.73	2710.34
408.92	2841.41
409.11	2827.37
409.30	2857.79
409.49	2946.73
409.68	2939.71
409.87	2998.23
410.07	3056.74
410.26	3087.17
410.45	2923.33
410.64	3166.74
410.83	3049.72
411.02	3103.55
411.21	3321.22
411.40	3180.79
411.59	3222.92
411.78	3199.51
411.98	3260.37
412.17	3211.22
412.36	3171.43
412.55	3243.98
412.74	3405.48
412.93	3435.91
413.12	3400.80
413.31	3545.91
413.50	3485.06
413.69	3435.91
413.88	3515.48
414.07	3463.99
414.26	3728.47
414.45	3756.56
414.64	3679.32
414.83	3749.54
415.02	3737.84
415.22	3775.28
415.41	3904.01
415.60	3859.54
415.79	3779.97
415.98	3932.10
416.17	3950.82
416.36	3953.16
416.55	4102.96
416.74	4053.81
416.93	4058.49
417.12	4074.87
417.31	4147.43
417.50	4140.41
417.69	4348.72
417.88	4351.06
418.07	4285.52
418.26	4229.35
418.45	4416.59
418.64	4498.51
418.83	4435.32
419.02	4592.13
419.21	4671.71
419.39	4561.70
419.58	4468.08
419.77	4526.60
419.96	4695.11
420.15	4610.86
420.34	4620.22
420.53	4692.77
420.72	4674.05
420.91	4711.50
421.10	4950.23
421.29	4919.81
421.48	4622.56
421.67	4760.65
421.86	4854.27
422.05	4915.12
422.24	4770.01
422.43	4975.98
422.61	4954.91
422.80	4919.81
422.99	4975.98
423.18	4999.38
423.37	5001.72
423.56	5008.75
423.75	5029.81
423.94	4922.15
424.13	4629.58
424.32	4755.97
424.50	5057.90
424.69	5142.16
424.88	5083.64
425.07	5135.14
425.26	4952.57
425.45	4943.21
425.64	4971.30
425.83	5011.09
426.01	5156.20
426.20	5144.50
426.39	5015.77
426.58	5193.65
426.77	5186.63
426.96	5130.45
427.15	5259.18
427.33	5210.03
427.52	5116.41
427.71	5249.82
427.90	5334.08
428.09	5203.01
428.28	5327.06
428.46	5352.81
428.65	5500.26
428.84	5359.83
429.03	5647.71
429.22	5334.08
429.40	5507.28
429.59	5624.31
429.78	5373.87
429.97	5284.93
430.16	5547.07
430.34	5479.19
430.53	5682.82
430.72	5764.74
430.91	5584.52
431.10	5715.59
431.28	5790.49
431.47	5849.00
431.66	5816.23
431.85	5811.55
432.03	5912.19
432.22	6017.52
432.41	5776.44
432.60	5998.79
432.79	6022.20
432.97	6031.56
433.16	6076.03
433.35	6019.86
433.54	6022.20
433.72	6300.72
433.91	6300.72
434.10	6246.89
434.28	6132.20
434.47	6221.14
434.66	6211.78
434.85	6356.90
435.03	6289.02
435.22	6392.00
435.41	6450.52
435.59	6469.24
435.78	6623.72
435.97	6424.77
436.16	6359.24
436.34	6602.65
436.53	6429.45
436.72	6738.40
436.90	6817.98
437.09	6696.27
437.28	6541.80
437.46	6747.76
437.65	6586.27
437.84	6808.62
438.02	6867.13
438.21	6979.48
438.40	6628.40
438.58	7096.50
438.77	6953.73
438.96	7054.37
439.14	7234.60
439.33	7447.58
439.52	7339.92
439.70	7311.83
439.89	7318.86
440.08	7667.60
440.26	7508.44
440.45	7494.40
440.63	7503.76
440.82	7632.49
441.01	7503.76
441.19	7700.36
441.38	7719.09
441.57	7831.43
441.75	7782.28
441.94	8030.38
442.12	7875.90
442.31	8163.79
442.50	8210.60
442.68	7882.92
442.87	8184.85
443.05	8236.35
443.24	8243.37
443.43	8229.32
443.61	8362.73
443.80	8847.22
443.98	8208.26
444.17	7992.93
444.35	8180.17
444.54	8311.24
444.73	8482.10
444.91	8292.52
445.10	8306.56
445.28	8409.54
445.47	8365.07
445.65	8311.24
445.84	8617.85
446.02	8549.98
446.21	8465.72
446.39	8542.96
446.58	8692.75
446.77	8533.59
446.95	8306.56
447.14	8638.92
447.32	8608.49
447.51	8566.36
447.69	8482.10
447.88	8531.25
448.06	8423.59
448.25	8648.28
448.43	8617.85
448.62	8774.67
448.80	8620.19
448.99	8629.56
449.17	8592.11
449.36	8489.12
449.54	8978.30
449.73	9078.94
449.91	9174.90
450.10	9165.54
450.28	8919.78
450.46	9221.71
450.65	9137.45
450.83	9095.32
451.02	9121.07
451.20	9282.56
451.39	9238.09
451.57	9327.03
451.76	9282.56
451.94	9186.60
452.13	9439.38
452.31	9329.38
452.49	9301.29
452.68	9308.31
452.86	9394.91
453.05	9535.34
453.23	9643.01
453.42	9476.83
453.60	9418.32
453.78	9577.47
453.97	9490.87
454.15	9570.45
454.34	9556.41
454.52	9734.29
454.70	9750.67
454.89	9769.40
455.07	10050.26
455.26	10085.37
455.44	9947.28
455.62	9881.74
455.81	9991.75
455.99	9973.02
456.17	10087.71
456.36	10111.11
456.54	10237.50
456.73	10347.51
456.91	10553.48
457.09	10494.96
457.28	10544.11
457.46	10162.61
457.64	10752.42
457.83	10546.45
458.01	10530.07
458.19	10888.17
458.38	10651.78
458.56	10745.40
458.74	10700.93
458.93	10616.67
459.11	10853.06
459.29	10815.62
459.48	10953.71
459.66	10972.43
459.84	11026.26
460.03	11033.29
460.21	10949.03
460.39	11166.70
460.57	11171.38
460.76	11133.93
460.94	11133.93
461.12	11152.65
461.31	11054.35
461.49	11351.60
461.67	11276.70
461.85	11639.48
462.04	11489.69
462.22	11396.07
462.40	11913.33
462.59	11314.15
462.77	11473.31
462.95	11564.59
463.13	11775.24
463.32	11758.85
463.50	11964.82
463.68	11784.60
463.86	11992.90
464.05	11786.94
464.23	11716.72
464.41	11761.19
464.59	11686.29
464.78	12198.87
464.96	11913.33
465.14	12079.50
465.32	12397.82
465.50	12119.29
465.69	12313.56
465.87	12210.57
466.05	12154.40
466.23	12332.28
466.41	12299.52
466.60	12376.75
466.78	12308.88
466.96	12135.68
467.14	12336.96
467.32	12538.25
467.51	12861.24
467.69	12360.37
467.87	12507.82
468.05	12580.38
468.23	12472.71
468.41	12697.41
468.60	12879.97
468.78	12727.83
468.96	12788.69
469.14	12779.32
469.32	13092.96
469.50	12769.96
469.69	13071.89
469.87	13139.77
470.05	13387.86
470.23	13090.62
470.41	13217.01
470.59	13563.40
470.77	13298.92
470.95	13235.73
471.14	13848.95
471.32	13221.69
471.50	13764.69
471.68	13937.89
471.86	13827.88
472.04	13678.09
472.22	14207.05
472.40	13898.10
472.58	13942.57
472.77	14401.32
472.95	14270.25
473.13	14593.24
473.31	14202.37
473.49	14258.54
473.67	14246.84
473.85	14115.77
474.03	15035.60
474.21	14668.14
474.39	14923.26
474.57	14897.51
474.75	14986.45
474.93	15122.20
475.12	14850.70
475.30	15529.45
475.48	15222.84
475.66	15506.05
475.84	15351.57
476.02	15475.62
476.20	15548.18
476.38	15812.66
476.56	16081.82
476.74	16105.23
476.92	16229.27
477.10	15878.19
477.28	16477.37
477.46	16442.26
477.64	16451.63
477.82	16734.83
478.00	17240.39
478.18	17177.19
478.36	17081.23
478.54	17228.68
478.72	17458.06
478.90	17446.35
479.08	17989.36
479.26	17694.45
479.44	17647.64
479.62	18310.01
479.80	18202.35
479.98	18127.45
480.16	18738.33
480.34	18377.89
480.52	18785.14
480.70	18436.40
480.88	18658.75
481.06	18857.70
481.24	18862.38
481.41	19122.18
481.59	19218.14
481.77	19889.87
481.95	19796.25
482.13	20049.03
482.31	19875.83
482.49	20463.30
482.67	20493.73
482.85	20786.30
483.03	21067.16
483.21	20889.28
483.39	20999.29
483.57	21128.02
483.74	21472.07
483.92	21539.95
484.10	21642.93
484.28	21940.18
484.46	22354.46
484.64	22539.36
484.82	22427.01
485.00	22787.46
485.18	23363.23
485.35	23377.27
485.53	23187.69
485.71	23042.57
485.89	23913.25
486.07	23480.25
486.25	23571.54
486.43	23735.37
486.61	24074.75
486.78	24100.50
486.96	24458.60
487.14	24727.76
487.32	24863.51
487.50	25420.56
487.68	25111.61
487.85	25577.37
488.03	25432.26
488.21	25942.50
488.39	25935.48
488.57	26146.12
488.75	26288.90
488.92	26862.33
489.10	26916.16
489.28	27433.42
489.46	27349.16
489.64	27033.19
489.81	27854.72
489.99	28144.94
490.17	27850.03
490.35	28280.69
490.53	28524.11
490.70	28823.70
490.88	28615.39
491.06	29041.37
491.24	29064.77
491.41	29184.14
491.59	29614.80
491.77	29605.44
491.95	29900.34
492.13	30036.09
492.30	30110.99
492.48	30265.47
492.66	30443.35
492.84	30459.73
493.01	31147.85
493.19	31091.68
493.37	31215.72
493.54	31161.89
493.72	31131.47
493.90	31892.14
494.08	31908.52
494.25	32364.93
494.43	32503.02
494.61	32765.16
494.79	32620.05
494.96	33085.81
495.14	32769.84
495.32	33743.50
495.49	33567.96
495.67	33488.38
495.85	33813.72
496.02	34181.18
496.20	34541.63
496.38	34405.88
496.55	34623.54
496.73	35103.35
496.91	34881.00
497.09	35206.34
497.26	35103.35
497.44	35005.05
497.62	35629.98
497.79	35761.05
497.97	35812.54
498.14	36311.07
498.32	36357.88
498.50	36421.08
498.67	36456.18
498.85	36673.85
499.03	37242.60
499.20	37048.34
499.38	37050.68
499.56	37429.85
499.73	37727.10
499.91	37741.14
500.08	37656.88
500.26	37862.85
500.44	38246.69
500.61	38223.29
500.79	38321.59
500.97	38635.22
501.14	39019.07
501.32	38557.99
501.49	38873.96
501.67	39477.82
501.84	39608.89
502.02	39388.88
502.20	39166.52
502.37	39735.27
502.55	39629.95
502.72	39894.43
502.90	39856.98
503.07	39765.70
503.25	39892.09
503.43	39824.22
503.60	40439.78
503.78	40596.59
503.95	41043.63
504.13	40832.99
504.30	41228.54
504.48	40783.83
504.65	41209.81
504.83	41425.14
505.01	41495.36
505.18	41710.69
505.36	41565.57
505.53	41811.33
505.71	41963.46
505.88	42127.30
506.06	41907.29
506.23	42710.10
506.41	42031.34
506.58	42445.62
506.76	42698.39
506.93	42845.85
507.11	43040.11
507.28	43058.84
507.46	43126.71
507.63	43470.77
507.81	43587.80
507.98	43367.79
508.16	43585.46
508.33	43702.48
508.50	44142.50
508.68	43990.37
508.85	44170.59
509.03	44463.16
509.20	44385.92
509.38	44563.80
509.55	44498.26
509.73	44680.83
509.90	44940.63
510.08	44818.92
510.25	44659.76
510.42	44989.78
510.60	45209.79
510.77	45759.81
510.95	45460.23
511.12	45530.44
511.30	45560.87
511.47	45624.06
511.64	46134.30
511.82	46508.79
511.99	46246.65
512.17	46223.24
512.34	46124.94
512.51	46754.54
512.69	46960.51
512.86	46775.61
513.04	47016.68
513.21	47016.68
513.38	47143.07
513.56	47187.54
513.73	47023.70
513.90	47416.91
514.08	47559.69
514.25	47950.56
514.43	47880.34
514.60	47938.85
514.77	47562.03
514.95	48119.07
515.12	47948.21
515.29	47896.72
515.47	48179.93
515.64	48694.85
515.81	48470.15
515.99	48364.83
516.16	48966.35
516.33	48669.10
516.51	49057.63
516.68	48573.14
516.85	48795.49
517.03	48971.03
517.20	49111.46
517.37	49661.49
517.54	49303.38
517.72	49361.90
517.89	49214.44
518.06	49837.03
518.24	49338.49
518.41	49834.69
518.58	50080.44
518.75	49542.12
518.93	49968.10
519.10	49886.18
519.27	50274.71
519.45	50087.46
519.62	50270.03
519.79	50705.37
519.96	50164.70
520.14	50298.11
520.31	50429.18
520.48	50866.86
520.65	50887.93
520.83	50930.06
521.00	50862.18
521.17	51168.79
521.34	51000.27
521.52	51295.18
521.69	51084.53
521.86	51606.47
522.03	51732.86
522.20	51608.81
522.38	51800.74
522.55	51636.90
522.72	51494.13
522.89	51545.62
523.07	51995.00
523.24	51746.90
523.41	51824.14
523.58	51847.55
523.75	52083.94
523.92	52395.23
524.10	52245.44
524.27	52296.93
524.44	52177.56
524.61	52435.02
524.78	52357.78
524.96	52692.48
525.13	52870.36
525.30	52439.70
525.47	53090.37
525.64	52971.00
525.81	53118.46
525.98	52926.53
526.16	52781.42
526.33	53038.88
526.50	53411.02
526.67	53127.82
526.84	53055.26
527.01	53123.14
527.18	53066.97
527.36	53233.14
527.53	53389.96
527.70	53729.34
527.87	53581.88
528.04	53492.94
528.21	53703.59
528.38	53675.51
528.55	53881.47
528.72	53420.39
528.89	53914.24
529.07	53698.91
529.24	53715.29
529.41	54019.56
529.58	53787.85
529.75	54038.29
529.92	54073.40
530.09	54321.49
530.26	54368.30
530.43	54398.73
530.60	54035.95
530.77	54368.30
530.94	54307.45
531.11	54562.57
531.28	54607.04
531.46	54541.50
531.63	54300.43
531.80	54426.82
531.97	54756.83
532.14	54859.82
532.31	54719.38
532.48	54773.22
532.65	54930.03
532.82	54784.92
532.99	54855.14
533.16	54944.08
533.33	55201.53
533.50	55133.66
533.67	55313.88
533.84	54808.32
534.01	55262.39
534.18	55093.87
534.35	55594.74
534.52	55561.98
534.69	55576.02
534.86	55585.38
535.03	55571.34
535.20	55508.14
535.37	55344.31
535.54	55519.85
535.71	55554.96
535.88	55597.09
536.05	55868.59
536.22	55861.57
536.38	55922.42
536.55	55894.33
536.72	55791.35
536.89	55763.26
537.06	55889.65
537.23	56142.43
537.40	55870.93
537.57	55793.69
537.74	56076.90
537.91	55997.32
538.08	56292.22
538.25	56142.43
538.42	56104.98
538.59	56395.21
538.75	56062.85
538.92	56266.48
539.09	56507.55
539.26	56360.10
539.43	56425.64
539.60	56364.78
539.77	56769.69
539.94	56708.84
540.11	56657.35
540.28	56891.40
540.44	56804.80
540.61	56844.59
540.78	56713.52
540.95	56903.10
541.12	56692.46
541.29	56875.02
541.46	56753.31
541.62	56975.66
541.79	56891.40
541.96	56605.86
542.13	56811.82
542.30	56935.87
542.47	57284.61
542.63	57052.90
542.80	57179.29
542.97	56982.68
543.14	57441.43
543.31	57113.75
543.48	57448.45
543.64	57495.26
543.81	57691.86
543.98	57605.26
544.15	57579.52
544.32	57705.91
544.48	57752.72
544.65	57633.35
544.82	57474.20
544.99	57551.43
545.16	57834.64
545.32	57694.21
545.49	57897.83
545.66	58033.58
545.83	58028.90
546.00	58169.33
546.16	58000.82
546.33	57804.21
546.50	57977.41
546.67	57879.11
546.83	57532.71
547.00	57930.60
547.17	58099.12
547.34	58162.31
547.50	58122.52
547.67	58436.16
547.84	58085.07
548.00	58543.82
548.17	58475.94
548.34	58220.83
548.51	58473.60
548.67	58468.92
548.84	58394.03
549.01	58401.05
549.18	58513.39
549.34	58630.42
549.51	58738.08
549.68	58492.33
549.84	58646.80
550.01	58815.32
550.18	58702.98
550.34	58646.80
550.51	58791.92
550.68	58468.92
550.84	58501.69
551.01	58735.74
551.18	58738.08
551.34	58930.01
551.51	58918.31
551.68	58782.55
551.84	58686.59
552.01	58911.28
552.18	58974.48
552.34	58693.61
552.51	58997.88
552.68	58717.02
552.84	59189.81
553.01	59042.35
553.18	58922.99
553.34	59098.53
553.51	59007.25
553.67	59079.80
553.84	59180.45
554.01	59196.83
554.17	59393.43
554.34	59377.05
554.51	59374.71
554.67	59182.79
554.84	59332.58
555.00	59093.85
555.17	59189.81
555.33	59316.20
555.50	59004.91
555.67	59185.13
555.83	59222.58
556.00	59407.48
556.16	59505.78
556.33	59622.81
556.50	59444.93
556.66	59650.89
556.83	59395.77
556.99	59634.51
557.16	59739.83
557.32	59863.88
557.49	59690.68
557.65	59576.00
557.82	59690.68
557.98	59737.49
558.15	59571.32
558.32	59690.68
558.48	59594.72
558.65	59742.17
558.81	59880.27
558.98	59849.84
559.14	59803.03
559.31	59707.07
559.47	59999.63
559.64	59962.18
559.80	59814.73
559.97	59920.05
560.13	59903.67
560.30	59938.78
560.46	59945.80
560.63	60018.36
560.79	60037.08
560.96	60142.41
561.12	60067.51
561.29	60079.21
561.45	59931.76
561.61	60179.85
561.78	60023.04
561.94	60076.87
562.11	60072.19
562.27	60310.92
562.44	60278.16
562.60	60336.67
562.77	60245.39
562.93	59964.52
563.10	60294.54
563.26	59976.23
563.42	60477.10
563.59	60126.02
563.75	60367.10
563.92	60374.12
564.08	60247.73
564.24	60336.67
564.41	60507.53
564.57	60252.41
564.74	60409.23
564.90	60449.02
565.07	60193.90
565.23	60381.14
565.39	60486.46
565.56	60587.11
565.72	60449.02
565.88	60530.93
566.05	60509.87
566.21	60566.04
566.38	60374.12
566.54	60566.04
566.70	60575.40
566.87	60622.22
567.03	60392.84
567.19	60603.49
567.36	60596.47
567.52	60341.35
567.68	60690.09
567.85	60383.48
568.01	60678.39
568.17	60444.33
568.34	60617.53
568.50	60500.51
568.66	60624.56
568.83	60516.89
568.99	60474.76
569.15	60687.75
569.32	60757.97
569.48	60612.85
569.64	60945.21
569.81	60622.22
569.97	60561.36
570.13	60772.01
570.30	60509.87
570.46	60699.45
570.62	60650.30
570.78	60692.43
570.95	60582.43
571.11	60912.44
571.27	60552.00
571.43	60828.18
571.60	60804.78
571.76	60802.44
571.92	60931.17
572.09	60917.12
572.25	60884.36
572.41	60727.54
572.57	60877.33
572.74	60917.12
572.90	60662.00
573.06	60790.73
573.22	61031.81
573.38	60973.30
573.55	60767.33
573.71	61029.47
573.87	60921.80
574.03	60624.56
574.20	60921.80
574.36	60830.52
574.52	60931.17
574.68	61043.51
574.84	61052.87
575.01	60999.04
575.17	60926.49
575.33	60933.51
575.49	60980.32
575.65	60977.98
575.82	60992.02
575.98	60790.73
576.14	61190.97
576.30	61205.01
576.46	60860.95
576.62	61050.53
576.79	60910.10
576.95	60933.51
577.11	61151.18
577.27	60851.59
577.43	61057.56
577.59	60762.65
577.75	60985.00
577.92	61048.19
578.08	60926.49
578.24	61001.38
578.40	61214.37
578.56	61027.13
578.72	61123.09
578.88	61322.04
579.04	61104.37
579.21	61099.68
579.37	61258.84
579.53	61233.10
579.69	60921.80
579.85	61087.98
580.01	61113.73
580.17	60874.99
580.33	61277.57
580.49	61176.92
580.65	61160.54
580.82	61073.94
580.98	60999.04
581.14	61167.56
581.30	61160.54
581.46	61045.85
581.62	61361.82
581.78	61174.58
581.94	61158.20
582.10	61118.41
582.26	61268.20
582.42	61020.11
582.58	61144.16
582.74	61242.46
582.90	61315.01
583.06	61013.08
583.22	61064.58
583.38	61256.50
583.54	61310.33
583.70	61195.65
583.86	61151.18
584.02	61188.63
584.18	61394.59
584.34	61448.42
584.50	61188.63
584.66	61073.94
584.82	61031.81
584.98	61446.08
585.14	61230.75
585.30	60980.32
585.46	61055.21
585.62	61277.57
585.78	61485.87
585.94	61165.22
586.10	61249.48
586.26	61228.41
586.42	61513.96
586.58	61155.86
586.74	61296.29
586.90	61167.56
587.06	61291.61
587.22	61446.08
587.38	61282.25
587.54	61628.65
587.70	61464.81
587.86	61291.61
588.02	61144.16
588.18	61511.62
588.34	61350.12
588.49	61450.77
