SpectraSuite Data File
++++++++++++++++++++++++++++++++++++
Date: Fri Oct 25 10:43:14 EDT 2013
User: price-jones
Dark Spectrum Present: No
Reference Spectrum Present: No
Number of Sampled Component Spectra: 1
Spectrometers: USB2+H05261
Integration Time (usec): 100000 (USB2+H05261)
Spectra Averaged: 1 (USB2+H05261)
Boxcar Smoothing: 0 (USB2+H05261)
Correct for Electrical Dark: No (USB2+H05261)
Strobe/Lamp Enabled: No (USB2+H05261)
Correct for Detector Non-linearity: No (USB2+H05261)
Correct for Stray Light: No (USB2+H05261)
Number of Pixels in Processed Spectrum: 2048
>>>>>Begin Processed Spectral Data<<<<<
365.73	86.60
365.92	86.60
366.12	86.60
366.32	81.92
366.52	0.00
366.72	23.41
366.91	0.00
367.11	42.13
367.31	0.00
367.51	37.45
367.70	16.38
367.90	81.92
368.10	37.45
368.30	0.00
368.49	93.62
368.69	60.85
368.89	25.75
369.09	0.00
369.28	49.15
369.48	102.98
369.68	11.70
369.87	14.04
370.07	121.71
370.27	135.75
370.47	112.35
370.66	418.96
370.86	428.32
371.06	421.30
371.25	496.19
371.45	414.27
371.65	479.81
371.84	479.81
372.04	444.70
372.24	449.38
372.44	444.70
372.63	559.39
372.83	550.03
373.03	451.72
373.22	472.79
373.42	456.40
373.62	519.60
373.81	526.62
374.01	521.94
374.21	528.96
374.40	517.26
374.60	573.43
374.79	571.09
374.99	575.77
375.19	524.28
375.38	547.69
375.58	578.11
375.78	634.29
375.97	566.41
376.17	599.18
376.37	634.29
376.56	615.56
376.76	617.90
376.95	674.07
377.15	697.48
377.35	638.97
377.54	648.33
377.74	622.58
377.93	526.62
378.13	669.39
378.33	578.11
378.52	674.07
378.72	653.01
378.91	617.90
379.11	631.94
379.31	643.65
379.50	573.43
379.70	690.46
379.89	746.63
380.09	697.48
380.28	695.14
380.48	650.67
380.68	671.73
380.87	627.26
381.07	704.50
381.26	709.18
381.46	718.54
381.65	711.52
381.85	706.84
382.04	727.91
382.24	648.33
382.43	716.20
382.63	688.12
382.83	657.69
383.02	617.90
383.22	723.23
383.41	641.31
383.61	765.36
383.80	802.80
384.00	767.70
384.19	765.36
384.39	746.63
384.58	809.83
384.78	830.89
384.97	905.79
385.17	779.40
385.36	819.19
385.56	903.45
385.75	847.27
385.95	812.17
386.14	809.83
386.34	898.77
386.53	851.96
386.72	847.27
386.92	905.79
387.11	809.83
387.31	875.36
387.50	828.55
387.70	858.98
387.89	901.11
388.09	868.34
388.28	901.11
388.48	896.43
388.67	926.85
388.86	880.04
389.06	973.66
389.25	924.51
389.45	987.71
389.64	933.87
389.84	966.64
390.03	987.71
390.22	1013.45
390.42	992.39
390.61	1029.84
390.81	924.51
391.00	968.98
391.19	1001.75
391.39	1008.77
391.58	1034.52
391.78	1011.11
391.97	1062.60
392.16	1036.86
392.36	1090.69
392.55	961.96
392.75	1015.79
392.94	952.60
393.13	1039.20
393.33	1034.52
393.52	1053.24
393.71	1041.54
393.91	1165.59
394.10	1142.18
394.29	1097.71
394.49	1193.67
394.68	1081.33
394.88	1160.91
395.07	1273.25
395.26	1289.64
395.46	1233.46
395.65	1261.55
395.84	1200.69
396.04	1198.35
396.23	1114.10
396.42	1139.84
396.62	1118.78
396.81	1167.93
397.00	1203.04
397.19	1345.81
397.39	1324.74
397.58	1313.04
397.77	1373.89
397.97	1423.05
398.16	1420.71
398.35	1444.11
398.55	1411.34
398.74	1439.43
398.93	1519.01
399.12	1406.66
399.32	1537.73
399.51	1621.99
399.70	1533.05
399.90	1547.09
400.09	1455.81
400.28	1577.52
400.47	1558.80
400.67	1729.66
400.86	1664.12
401.05	1563.48
401.24	1703.91
401.44	1710.93
401.63	1736.68
401.82	1713.27
402.01	1617.31
402.21	1813.92
402.40	1774.13
402.59	1710.93
402.78	1797.53
402.97	1781.15
403.17	1771.79
403.36	1851.36
403.55	1865.41
403.74	1849.02
403.93	1851.36
404.13	1846.68
404.32	1858.39
404.51	1834.98
404.70	1902.86
404.89	1905.20
405.09	1996.48
405.28	1977.75
405.47	1888.81
405.66	1891.15
405.85	2066.69
406.05	1996.48
406.24	1966.05
406.43	1987.11
406.62	2099.46
406.81	2080.74
407.00	2092.44
407.20	2167.34
407.39	1977.75
407.58	2176.70
407.77	2108.82
407.96	2202.44
408.15	2246.91
408.34	2146.27
408.54	2235.21
408.73	2258.62
408.92	2303.09
409.11	2445.86
409.30	2237.55
409.49	2345.22
409.68	2214.15
409.87	2200.10
410.07	2282.02
410.26	2382.67
410.45	2392.03
410.64	2417.77
410.83	2534.80
411.02	2541.82
411.21	2661.19
411.40	2623.74
411.59	2581.61
411.78	2612.04
411.98	2588.63
412.17	2708.00
412.36	2642.46
412.55	2696.30
412.74	2672.89
412.93	2689.28
413.12	2576.93
413.31	2881.20
413.50	2796.94
413.69	2768.85
413.88	2792.26
414.07	2960.78
414.26	2855.45
414.45	2818.00
414.64	2895.24
414.83	3014.61
415.02	2899.92
415.22	3059.08
415.41	3162.06
415.60	3117.59
415.79	3084.83
415.98	3248.66
416.17	3293.13
416.36	3267.39
416.55	3265.05
416.74	3265.05
416.93	3232.28
417.12	3117.59
417.31	3346.97
417.50	3325.90
417.69	3501.44
417.88	3398.46
418.07	3508.46
418.26	3358.67
418.45	3428.88
418.64	3620.81
418.83	3487.40
419.02	3508.46
419.21	3557.61
419.39	3700.39
419.58	3449.95
419.77	3545.91
419.96	3506.12
420.15	3669.96
420.34	3719.11
420.53	3904.01
420.72	3674.64
420.91	3744.86
421.10	3709.75
421.29	3777.62
421.48	3798.69
421.67	3934.44
421.86	3812.73
422.05	3775.28
422.24	3805.71
422.43	3716.77
422.61	3976.57
422.80	3859.54
422.99	3786.99
423.18	3805.71
423.37	3946.14
423.56	3878.27
423.75	3983.59
423.94	3946.14
424.13	3616.13
424.32	3770.60
424.50	3913.38
424.69	4023.38
424.88	3943.80
425.07	3845.50
425.26	3934.44
425.45	3957.85
425.64	3871.25
425.83	3880.61
426.01	3953.16
426.20	4025.72
426.39	4023.38
426.58	3974.23
426.77	3831.46
426.96	3911.04
427.15	4152.11
427.33	4287.86
427.52	4138.07
427.71	4187.22
427.90	4161.47
428.09	4058.49
428.28	4081.89
428.46	4168.49
428.65	4114.66
428.84	4259.78
429.03	4365.10
429.22	4044.45
429.40	4128.70
429.59	4074.87
429.78	4014.02
429.97	3920.40
430.16	4065.51
430.34	4067.85
430.53	4128.70
430.72	4236.37
430.91	4152.11
431.10	4369.78
431.28	4592.13
431.47	4713.84
431.66	4603.83
431.85	4425.95
432.03	4512.55
432.22	4585.11
432.41	4732.56
432.60	4753.63
432.79	4830.87
432.97	4723.20
433.16	4718.52
433.35	4601.49
433.54	4538.30
433.72	4725.54
433.91	4727.88
434.10	4681.07
434.28	4709.16
434.47	4730.22
434.66	4870.65
434.85	4950.23
435.03	4798.10
435.22	4987.68
435.41	5060.24
435.59	5144.50
435.78	4990.02
435.97	5011.09
436.16	5022.79
436.34	5160.88
436.53	5100.03
436.72	5313.02
436.90	4997.04
437.09	5205.35
437.28	5139.82
437.46	5125.77
437.65	5160.88
437.84	5165.56
438.02	4980.66
438.21	5217.05
438.40	5001.72
438.58	5282.59
438.77	5383.23
438.96	5476.85
439.14	5511.96
439.33	5666.44
439.52	5495.58
439.70	5488.56
439.89	5689.84
440.08	5596.22
440.26	5636.01
440.45	5596.22
440.63	5816.23
440.82	5935.60
441.01	5851.34
441.19	5921.56
441.38	6239.87
441.57	6090.07
441.75	6174.33
441.94	6195.40
442.12	6256.25
442.31	6303.06
442.50	6263.27
442.68	6335.83
442.87	6246.89
443.05	6377.96
443.24	6567.54
443.43	6347.53
443.61	6328.81
443.80	6576.91
443.98	6534.78
444.17	6209.44
444.35	6457.54
444.54	6502.01
444.73	6546.48
444.91	6396.68
445.10	6497.33
445.28	6502.01
445.47	6361.58
445.65	6429.45
445.84	6469.24
446.02	6693.93
446.21	6696.27
446.39	6560.52
446.58	6619.04
446.77	6679.89
446.95	6567.54
447.14	6764.15
447.32	6719.68
447.51	6544.14
447.69	6675.21
447.88	6478.60
448.06	6729.04
448.25	6712.66
448.43	6867.13
448.62	6773.51
448.80	6726.70
448.99	6820.32
449.17	6855.43
449.36	6724.36
449.54	6885.86
449.73	7035.65
449.91	7056.72
450.10	7178.42
450.28	7218.21
450.46	7176.08
450.65	7363.33
450.83	7227.57
451.02	7012.24
451.20	7014.59
451.39	7218.21
451.57	7222.89
451.76	7218.21
451.94	7145.66
452.13	7218.21
452.31	7206.51
452.49	7204.17
452.68	7337.58
452.86	7225.23
453.05	7194.81
453.23	7293.11
453.42	7253.32
453.60	7321.20
453.78	7379.71
453.97	7475.67
454.15	7417.16
454.34	7421.84
454.52	7627.81
454.70	7478.01
454.89	7435.88
455.07	7349.28
455.26	7620.78
455.44	7777.60
455.62	7583.34
455.81	7557.59
455.99	7772.92
456.17	7808.03
456.36	7719.09
456.54	7960.16
456.73	8009.31
456.91	8060.80
457.09	8009.31
457.28	8456.36
457.46	8039.74
457.64	8325.29
457.83	8044.42
458.01	7950.80
458.19	8159.11
458.38	8154.43
458.56	8351.03
458.74	8138.04
458.93	8074.85
459.11	8339.33
459.29	8442.31
459.48	8425.93
459.66	8245.71
459.84	8533.59
460.03	8489.12
460.21	8592.11
460.39	8669.34
460.57	8372.10
460.76	8528.91
460.94	8472.74
461.12	8479.76
461.31	8650.62
461.49	8615.51
461.67	8739.56
461.85	8748.92
462.04	8793.39
462.22	9160.86
462.40	8800.41
462.59	8755.94
462.77	8851.91
462.95	8905.74
463.13	8746.58
463.32	8926.80
463.50	8784.03
463.68	9053.19
463.86	8894.04
464.05	8844.88
464.23	8837.86
464.41	8741.90
464.59	8709.13
464.78	9142.13
464.96	9046.17
465.14	8865.95
465.32	9144.47
465.50	9235.75
465.69	9224.05
465.87	9020.42
466.05	8903.40
466.23	9135.11
466.41	9156.18
466.60	9305.97
466.78	9067.24
466.96	9130.43
467.14	9104.68
467.32	9198.31
467.51	9497.89
467.69	9104.68
467.87	9528.32
468.05	9509.60
468.23	9427.68
468.41	9423.00
468.60	9561.09
468.78	9769.40
468.96	9315.33
469.14	9708.54
469.32	9853.66
469.50	9500.23
469.69	9633.64
469.87	9638.33
470.05	9769.40
470.23	9736.63
470.41	9818.55
470.59	9914.51
470.77	9874.72
470.95	9956.64
471.14	9919.19
471.32	9825.57
471.50	10345.17
471.68	10223.46
471.86	10373.25
472.04	10263.25
472.22	10691.57
472.40	10237.50
472.58	10338.15
472.77	10293.68
472.95	10401.34
473.13	10757.10
473.31	10532.41
473.49	10394.32
473.67	10487.94
473.85	10621.35
474.03	10909.24
474.21	10897.53
474.39	10967.75
474.57	10937.32
474.75	11201.80
474.93	11276.70
475.12	10906.90
475.30	11101.16
475.48	11173.72
475.66	11297.77
475.84	11246.27
476.02	11307.13
476.20	11393.73
476.38	11550.54
476.56	11793.96
476.74	11864.18
476.92	11763.53
477.10	11906.31
477.28	11800.98
477.46	11910.99
477.64	12264.41
477.82	12439.95
478.00	12496.12
478.18	12674.00
478.36	12507.82
478.54	12573.36
478.72	12662.30
478.90	12760.60
479.08	12828.48
479.26	13013.38
479.44	12821.45
479.62	13207.64
479.80	13334.03
479.98	13657.03
480.16	13518.93
480.34	13312.97
480.52	13745.97
480.70	13628.94
480.88	13710.86
481.06	14085.34
481.24	14127.47
481.41	13947.25
481.59	14141.52
481.77	14295.99
481.95	14317.06
482.13	14501.96
482.31	14441.11
482.49	14724.31
482.67	14668.14
482.85	14768.78
483.03	15335.19
483.21	15150.29
483.39	15094.11
483.57	15314.13
483.74	15503.71
483.92	15616.05
484.10	15454.56
484.28	15597.33
484.46	15932.03
484.64	16170.76
484.82	15946.07
485.00	16133.31
485.18	16269.06
485.35	16353.32
485.53	15981.18
485.71	16175.44
485.89	16608.44
486.07	16542.91
486.25	16449.28
486.43	16512.48
486.61	16849.52
486.78	17380.82
486.96	17465.08
487.14	17561.04
487.32	17429.97
487.50	18139.15
487.68	18015.10
487.85	18300.65
488.03	18499.59
488.21	18338.10
488.39	18396.61
488.57	18548.75
488.75	18782.80
488.92	19030.90
489.10	19070.68
489.28	19318.78
489.46	19742.42
489.64	19616.03
489.81	20238.61
489.99	20013.92
490.17	20137.97
490.35	20191.80
490.53	20154.35
490.70	20601.40
490.88	20446.92
491.06	20699.70
491.24	20613.10
491.41	20727.78
491.59	20685.65
491.77	20748.85
491.95	20943.11
492.13	21125.68
492.30	21380.79
492.48	21467.39
492.66	21706.13
492.84	21844.22
493.01	22195.30
493.19	22214.02
493.37	22185.94
493.54	22029.12
493.72	22487.87
493.90	22668.09
494.08	22747.67
494.25	23096.41
494.43	23108.11
494.61	23213.43
494.79	23276.63
494.96	23058.96
495.14	23660.48
495.32	23662.82
495.49	23651.11
495.67	23807.93
495.85	24020.92
496.02	24254.97
496.20	24393.06
496.38	24079.43
496.55	24498.39
496.73	24999.26
496.91	24702.01
497.09	24381.36
497.26	24936.07
497.44	25001.60
497.62	25273.10
497.79	25317.57
497.97	24975.86
498.14	25383.11
498.32	25785.68
498.50	25680.36
498.67	25848.88
498.85	25930.80
499.03	26239.75
499.20	26204.64
499.38	26305.28
499.56	25982.29
499.73	26249.11
499.91	26319.32
500.08	26448.05
500.26	26434.01
500.44	26312.30
500.61	26609.55
500.79	26581.46
500.97	26726.58
501.14	26836.58
501.32	26654.02
501.49	26876.37
501.67	27147.87
501.84	27028.51
502.02	27477.89
502.20	27531.72
502.37	27388.95
502.55	27934.29
502.72	28119.20
502.90	28016.21
503.07	27969.40
503.25	27920.25
503.43	27847.69
503.60	28369.63
503.78	27779.82
503.95	28250.27
504.13	28137.92
504.30	28503.04
504.48	28332.18
504.65	28730.08
504.83	28814.34
505.01	29032.00
505.18	29064.77
505.36	29134.99
505.53	29486.07
505.71	29273.08
505.88	29305.85
506.06	29287.12
506.23	29846.51
506.41	29528.20
506.58	29923.75
506.76	29598.41
506.93	29804.38
507.11	29731.83
507.28	30148.44
507.46	29675.65
507.63	30099.29
507.81	30312.28
507.98	29743.53
508.16	30103.97
508.33	30492.50
508.50	30796.77
508.68	30551.01
508.85	30733.57
509.03	30684.42
509.20	30878.69
509.38	30979.33
509.55	30874.01
509.73	31063.59
509.90	31047.21
510.08	31257.85
510.25	31112.74
510.42	31215.72
510.60	31538.72
510.77	31826.60
510.95	31871.07
511.12	31700.22
511.30	31948.31
511.47	32184.71
511.64	32458.55
511.82	32446.85
511.99	31681.49
512.17	32137.90
512.34	32369.61
512.51	31920.23
512.69	32802.61
512.86	32285.35
513.04	33205.18
513.21	32077.04
513.38	32594.30
513.56	32308.76
513.73	32439.82
513.90	32797.93
514.08	32961.76
514.25	32912.61
514.43	32830.69
514.60	33483.70
514.77	32978.15
514.95	33240.29
515.12	33708.40
515.29	33502.43
515.47	33951.81
515.64	33682.65
515.81	33731.80
515.99	33546.90
516.16	33390.08
516.33	33738.82
516.51	33434.55
516.68	33249.65
516.85	32840.06
517.03	33216.88
517.20	33649.88
517.37	34356.72
517.54	34277.15
517.72	34099.26
517.89	33617.11
518.06	33902.66
518.24	34223.31
518.41	34024.37
518.58	34504.18
518.75	34291.19
518.93	34471.41
519.10	34653.97
519.27	34806.11
519.45	34756.96
519.62	35009.73
519.79	35112.72
519.96	35470.82
520.14	35360.81
520.31	35012.07
520.48	35218.04
520.65	35140.80
520.83	35402.94
521.00	36254.90
521.17	35868.71
521.34	35548.06
521.52	36046.59
521.69	35721.26
521.86	35796.15
522.03	36084.04
522.20	36212.77
522.38	36208.09
522.55	36210.43
522.72	36051.27
522.89	36163.62
523.07	36495.97
523.24	36210.43
523.41	36713.64
523.58	36360.22
523.75	36851.73
523.92	36837.69
524.10	36931.31
524.27	36896.20
524.44	37188.77
524.61	37170.05
524.78	37027.28
524.96	37104.51
525.13	37212.18
525.30	37258.99
525.47	37315.16
525.64	37118.56
525.81	37371.33
525.98	37565.60
526.16	37439.21
526.33	37237.92
526.50	37319.84
526.67	36952.38
526.84	37221.54
527.01	37289.42
527.18	37839.44
527.36	37947.11
527.53	38440.96
527.70	38398.83
527.87	37879.23
528.04	38092.22
528.21	38188.18
528.38	38492.45
528.55	38604.80
528.72	38501.81
528.89	38565.01
529.07	38871.62
529.24	38263.08
529.41	38438.62
529.58	38469.04
529.75	38581.39
529.92	38836.51
530.09	39257.81
530.26	38593.09
530.43	39360.79
530.60	38986.30
530.77	38976.94
530.94	39182.91
531.11	39381.85
531.28	39346.75
531.46	39260.15
531.63	39175.89
531.80	38787.36
531.97	39250.78
532.14	39063.54
532.31	38721.82
532.48	39426.32
532.65	39552.71
532.82	39239.08
532.99	39421.64
533.16	39164.18
533.33	39573.78
533.50	39899.11
533.67	39775.06
533.84	39826.56
534.01	39634.63
534.18	39770.38
534.35	39922.52
534.52	39959.97
534.69	40177.64
534.86	40479.57
535.03	40065.29
535.20	40524.04
535.37	40414.03
535.54	40563.82
535.71	40507.65
535.88	40790.86
536.05	40353.18
536.22	40357.86
536.38	40781.49
536.55	40371.90
536.72	40598.93
536.89	40264.24
537.06	40577.87
537.23	40971.08
537.40	40952.35
537.57	40931.29
537.74	41013.21
537.91	41317.48
538.08	41029.59
538.25	40978.10
538.42	40652.76
538.59	41160.66
538.75	40755.75
538.92	41151.30
539.09	41268.33
539.26	41045.97
539.43	41074.06
539.60	41277.69
539.77	40744.05
539.94	41375.99
540.11	41436.84
540.28	41455.57
540.44	41207.47
540.61	41537.49
540.78	41265.99
540.95	41598.34
541.12	40957.03
541.29	41352.58
541.46	41783.24
541.62	41729.41
541.79	41553.87
541.96	41614.72
542.13	41464.93
542.30	42321.57
542.47	41406.42
542.63	41832.39
542.80	41689.62
542.97	42534.56
543.14	42337.95
543.31	42122.62
543.48	42103.90
543.64	42733.50
543.81	42752.23
543.98	42630.52
544.15	42574.34
544.32	42562.64
544.48	43150.12
544.65	42857.55
544.82	43180.54
544.99	42101.56
545.16	42677.33
545.32	42344.97
545.49	43243.74
545.66	43138.41
545.83	43248.42
546.00	43199.27
546.16	42593.07
546.33	43096.28
546.50	42625.84
546.67	42946.49
546.83	42906.70
547.00	42841.17
547.17	42937.13
547.34	42644.56
547.50	43313.95
547.67	42997.98
547.84	43255.44
548.00	43414.60
548.17	43103.31
548.34	43494.18
548.51	43997.39
548.67	43578.43
548.84	43739.93
549.01	43529.28
549.18	43199.27
549.34	43742.27
549.51	43732.91
549.68	43941.22
549.84	43714.19
550.01	43908.45
550.18	43374.81
550.34	43728.23
550.51	43508.22
550.68	43679.08
550.84	43309.27
551.01	43892.07
551.18	43948.24
551.34	43573.75
551.51	43648.65
551.68	43899.09
551.84	44100.37
552.01	43936.54
552.18	44006.75
552.34	43920.15
552.51	43945.90
552.68	43990.37
552.84	43885.04
553.01	44240.81
553.18	44210.38
553.34	44524.01
553.51	44357.83
553.67	44886.79
553.84	44369.54
554.01	44231.44
554.17	44498.26
554.34	44465.50
554.51	44622.31
554.67	44685.51
554.84	43985.69
555.00	44463.16
555.17	44444.43
555.33	44318.04
555.50	44294.64
555.67	44718.28
555.83	44516.99
556.00	44439.75
556.16	44877.43
556.33	44617.63
556.50	44495.92
556.66	44601.25
556.83	44385.92
556.99	44825.94
557.16	44680.83
557.32	44823.60
557.49	45057.65
557.65	44662.10
557.82	44662.10
557.98	44870.41
558.15	44800.19
558.32	44987.44
558.48	44280.60
558.65	44273.57
558.81	44449.11
558.98	44601.25
559.14	44357.83
559.31	44540.39
559.47	44837.64
559.64	44748.70
559.80	44910.20
559.97	45010.84
560.13	44802.53
560.30	44589.55
560.46	45272.98
560.63	45022.54
560.79	45418.10
560.96	45385.33
561.12	45191.06
561.29	44917.22
561.45	45052.97
561.61	44957.01
561.78	45034.25
561.94	45317.45
562.11	45155.96
562.27	45085.74
562.44	45268.30
562.60	45567.89
562.77	45361.92
562.93	45104.46
563.10	45563.21
563.26	45553.85
563.42	45228.51
563.59	45464.91
563.75	45085.74
563.92	45209.79
564.08	45588.95
564.24	45329.16
564.41	45326.81
564.57	45287.03
564.74	45507.04
564.90	45338.52
565.07	45462.57
565.23	45567.89
565.39	45397.03
565.56	45333.84
565.72	44961.69
565.88	45167.66
566.05	45202.77
566.21	45326.81
566.38	45666.19
566.54	46160.05
566.70	45982.16
566.87	46122.60
567.03	45518.74
567.19	46043.02
567.36	45708.32
567.52	45710.66
567.68	45446.18
567.85	44973.39
568.01	45745.77
568.17	45434.48
568.34	45481.29
568.50	45521.08
568.66	45331.50
568.83	45750.45
568.99	45174.68
569.15	45523.42
569.32	45404.05
569.48	45394.69
569.64	45951.74
569.81	45511.72
569.97	45734.07
570.13	45682.58
570.30	45263.62
570.46	45745.77
570.62	45401.71
570.78	44891.48
570.95	45289.37
571.11	45200.43
571.27	45153.62
571.43	45621.72
571.60	45525.76
571.76	45406.39
571.92	45553.85
572.09	45691.94
572.25	45647.47
572.41	45799.60
572.57	45418.10
572.74	46347.29
572.90	45738.75
573.06	45904.93
573.22	45757.47
573.38	45705.98
573.55	45862.80
573.71	46071.10
573.87	45806.62
574.03	45029.57
574.20	45757.47
574.36	46033.66
574.52	45766.84
574.68	45294.05
574.84	45949.40
575.01	45572.57
575.17	45406.39
575.33	45551.51
575.49	45516.40
575.65	45507.04
575.82	45918.97
575.98	45792.58
576.14	46127.28
576.30	46089.83
576.46	45972.80
576.62	45614.70
576.79	45708.32
576.95	45577.25
577.11	46057.06
577.27	46064.08
577.43	45649.81
577.59	45516.40
577.75	45507.04
577.92	45514.06
578.08	45488.31
578.24	45434.48
578.40	45656.83
578.56	45851.09
578.72	45492.99
578.88	45928.33
579.04	46075.79
579.21	45790.24
579.37	45935.35
579.53	45684.92
579.69	45628.74
579.85	45516.40
580.01	45621.72
580.17	45647.47
580.33	45563.21
580.49	45886.20
580.65	45727.05
580.82	45909.61
580.98	45441.50
581.14	45593.64
581.30	45970.46
581.46	45521.08
581.62	45940.04
581.78	45771.52
581.94	46277.07
582.10	45918.97
582.26	45834.71
582.42	46314.52
582.58	45521.08
582.74	45755.13
582.90	46167.07
583.06	45776.20
583.22	46389.42
583.38	46050.04
583.54	46101.53
583.70	45996.21
583.86	45940.04
584.02	45731.73
584.18	46040.68
584.34	45694.28
584.50	46199.83
584.66	45883.86
584.82	45481.29
584.98	45811.31
585.14	46064.08
585.30	45532.78
585.46	45673.21
585.62	46031.32
585.78	45839.39
585.94	45481.29
586.10	45570.23
586.26	45535.12
586.42	45640.45
586.58	45485.97
586.74	46017.27
586.90	45879.18
587.06	45504.70
587.22	46162.39
587.38	45577.25
587.54	45949.40
587.70	46349.63
587.86	45982.16
588.02	46113.23
588.18	45874.50
588.34	45436.82
588.49	45390.01
588.65	45406.39
588.81	45268.30
588.97	45500.01
589.13	45144.25
589.29	45373.63
589.45	45483.63
589.61	45645.13
589.77	45670.87
589.93	45844.07
590.08	45820.67
