SpectraSuite Data File
++++++++++++++++++++++++++++++++++++
Date: Fri Oct 25 10:44:22 EDT 2013
User: price-jones
Dark Spectrum Present: No
Reference Spectrum Present: No
Number of Sampled Component Spectra: 1
Spectrometers: USB2+H05261
Integration Time (usec): 100000 (USB2+H05261)
Spectra Averaged: 1 (USB2+H05261)
Boxcar Smoothing: 0 (USB2+H05261)
Correct for Electrical Dark: No (USB2+H05261)
Strobe/Lamp Enabled: No (USB2+H05261)
Correct for Detector Non-linearity: No (USB2+H05261)
Correct for Stray Light: No (USB2+H05261)
Number of Pixels in Processed Spectrum: 2048
>>>>>Begin Processed Spectral Data<<<<<
365.73	177.88
365.92	177.88
366.12	177.88
366.32	32.77
366.52	44.47
366.72	51.49
366.91	0.00
367.11	46.81
367.31	2.34
367.51	46.81
367.70	0.00
367.90	44.47
368.10	56.17
368.30	7.02
368.49	0.00
368.69	133.41
368.89	67.88
369.09	35.11
369.28	44.47
369.48	91.28
369.68	44.47
369.87	63.19
370.07	58.51
370.27	173.20
370.47	198.95
370.66	386.19
370.86	461.09
371.06	475.13
371.25	491.51
371.45	552.37
371.65	491.51
371.84	465.77
372.04	470.45
372.24	470.45
372.44	510.24
372.63	421.30
372.83	514.92
373.03	510.24
373.22	503.22
373.42	496.19
373.62	491.51
373.81	507.90
374.01	550.03
374.21	601.52
374.40	489.17
374.60	585.13
374.79	594.50
374.99	578.11
375.19	566.41
375.38	554.71
375.58	627.26
375.78	596.84
375.97	669.39
376.17	662.37
376.37	617.90
376.56	585.13
376.76	657.69
376.95	641.31
377.15	678.76
377.35	660.03
377.54	688.12
377.74	699.82
377.93	678.76
378.13	582.79
378.33	685.78
378.52	664.71
378.72	685.78
378.91	725.57
379.11	648.33
379.31	608.54
379.50	711.52
379.70	720.88
379.89	723.23
380.09	692.80
380.28	636.63
380.48	751.31
380.68	676.41
380.87	664.71
381.07	732.59
381.26	772.38
381.46	678.76
381.65	767.70
381.85	800.46
382.04	772.38
382.24	725.57
382.43	648.33
382.63	746.63
382.83	741.95
383.02	793.44
383.22	791.10
383.41	807.48
383.61	840.25
383.80	812.17
384.00	816.85
384.19	788.76
384.39	940.90
384.58	788.76
384.78	823.87
384.97	793.44
385.17	910.47
385.36	896.43
385.56	767.70
385.75	812.17
385.95	809.83
386.14	760.67
386.34	863.66
386.53	903.45
386.72	882.38
386.92	868.34
387.11	985.37
387.31	924.51
387.50	866.00
387.70	924.51
387.89	889.40
388.09	954.94
388.28	905.79
388.48	947.92
388.67	973.66
388.86	983.02
389.06	950.26
389.25	943.24
389.45	1022.81
389.64	976.00
389.84	1144.52
390.03	1018.13
390.22	1041.54
390.42	1020.47
390.61	1081.33
390.81	1118.78
391.00	1132.82
391.19	1057.92
391.39	1219.42
391.58	1055.58
391.78	1064.94
391.97	1083.67
392.16	1097.71
392.36	1046.22
392.55	1071.97
392.75	1046.22
392.94	919.83
393.13	1020.47
393.33	1083.67
393.52	1125.80
393.71	1097.71
393.91	1184.31
394.10	1121.12
394.29	1198.35
394.49	1186.65
394.68	1268.57
394.88	1188.99
395.07	1313.04
395.26	1233.46
395.46	1231.12
395.65	1256.87
395.84	1238.14
396.04	1249.85
396.23	1214.74
396.42	1200.69
396.62	1186.65
396.81	1249.85
397.00	1273.25
397.19	1252.19
397.39	1397.30
397.58	1453.47
397.77	1364.53
397.97	1486.24
398.16	1434.75
398.35	1502.62
398.55	1437.09
398.74	1598.59
398.93	1563.48
399.12	1551.78
399.32	1582.20
399.51	1516.67
399.70	1694.55
399.90	1671.14
400.09	1600.93
400.28	1675.82
400.47	1694.55
400.67	1729.66
400.86	1666.46
401.05	1657.10
401.24	1767.10
401.44	1806.89
401.63	1783.49
401.82	1816.26
402.01	1865.41
402.21	1823.28
402.40	1900.52
402.59	1856.04
402.78	1820.94
402.97	1912.22
403.17	1844.34
403.36	1837.32
403.55	1877.11
403.74	1952.01
403.93	1970.73
404.13	2017.54
404.32	1923.92
404.51	1933.28
404.70	2012.86
404.89	1909.88
405.09	2125.21
405.28	1900.52
405.47	2036.27
405.66	2047.97
405.85	1940.30
406.05	2108.82
406.24	2125.21
406.43	2125.21
406.62	2146.27
406.81	2270.32
407.00	2090.10
407.20	2094.78
407.39	2062.01
407.58	2204.78
407.77	2265.64
407.96	2303.09
408.15	2216.49
408.34	2296.07
408.54	2438.84
408.73	2438.84
408.92	2375.64
409.11	2443.52
409.30	2410.75
409.49	2258.62
409.68	2272.66
409.87	2282.02
410.07	2300.75
410.26	2462.24
410.45	2509.05
410.64	2490.33
410.83	2558.21
411.02	2654.17
411.21	2672.89
411.40	2609.70
411.59	2712.68
411.78	2738.43
411.98	2780.56
412.17	2743.11
412.36	2698.64
412.55	2808.64
412.74	2843.75
412.93	2825.03
413.12	2853.11
413.31	2890.56
413.50	2890.56
413.69	2829.71
413.88	3152.70
414.07	3087.17
414.26	2963.12
414.45	3171.43
414.64	3068.44
414.83	3283.77
415.02	3124.62
415.22	3222.92
415.41	3248.66
415.60	3225.26
415.79	3258.03
415.98	3368.03
416.17	3384.41
416.36	3330.58
416.55	3342.28
416.74	3403.14
416.93	3267.39
417.12	3356.33
417.31	3281.43
417.50	3489.74
417.69	3564.64
417.88	3632.51
418.07	3515.48
418.26	3620.81
418.45	3674.64
418.64	3714.43
418.83	3632.51
419.02	3735.50
419.21	3838.48
419.39	3765.92
419.58	3616.13
419.77	3669.96
419.96	3681.66
420.15	3880.61
420.34	3669.96
420.53	3873.59
420.72	3941.46
420.91	3999.98
421.10	3978.91
421.29	4051.47
421.48	3918.06
421.67	4081.89
421.86	3960.19
422.05	3981.25
422.24	3843.16
422.43	4077.21
422.61	3950.82
422.80	4112.32
422.99	3950.82
423.18	3999.98
423.37	4051.47
423.56	4037.42
423.75	4119.34
423.94	4046.79
424.13	3831.46
424.32	3845.50
424.50	4191.90
424.69	4098.28
424.88	4189.56
425.07	4142.75
425.26	4030.40
425.45	3997.64
425.64	4070.19
425.83	4107.64
426.01	4168.49
426.20	4098.28
426.39	4121.68
426.58	3983.59
426.77	4051.47
426.96	4227.01
427.15	4100.62
427.33	4189.56
427.52	4210.62
427.71	4212.96
427.90	4395.53
428.09	4341.69
428.28	4425.95
428.46	4245.73
428.65	4318.29
428.84	4386.16
429.03	4477.44
429.22	4245.73
429.40	4428.29
429.59	4313.61
429.78	4091.26
429.97	3976.57
430.16	4203.60
430.34	4163.81
430.53	4301.90
430.72	4346.37
430.91	4329.99
431.10	4432.97
431.28	4695.11
431.47	4814.48
431.66	4924.49
431.85	4770.01
432.03	4791.08
432.22	4805.12
432.41	4882.36
432.60	4819.16
432.79	4854.27
432.97	4851.93
433.16	4800.44
433.35	4828.53
433.54	4912.78
433.72	4819.16
433.91	4889.38
434.10	4762.99
434.28	4830.87
434.47	5097.69
434.66	5015.77
434.85	5132.79
435.03	5064.92
435.22	5107.05
435.41	5348.12
435.59	5371.53
435.78	5383.23
435.97	5305.99
436.16	5472.17
436.34	5399.62
436.53	5392.59
436.72	5523.66
436.90	5308.34
437.09	5327.06
437.28	5268.55
437.46	5371.53
437.65	5327.06
437.84	5217.05
438.02	5160.88
438.21	5359.83
438.40	5203.01
438.58	5614.95
438.77	5530.69
438.96	5706.23
439.14	5664.10
439.33	5916.87
439.52	5802.19
439.70	5753.04
439.89	5937.94
440.08	5689.84
440.26	5874.74
440.45	5881.77
440.63	6167.31
440.82	6253.91
441.01	6047.94
441.19	6155.61
441.38	6452.86
441.57	6296.04
441.75	6464.56
441.94	6551.16
442.12	6473.92
442.31	6642.44
442.50	6600.31
442.68	6516.05
442.87	6654.14
443.05	6485.62
443.24	6623.72
443.43	6848.41
443.61	6644.78
443.80	6841.39
443.98	6604.99
444.17	6537.12
444.35	6801.60
444.54	6892.88
444.73	6738.40
444.91	6679.89
445.10	6759.47
445.28	6747.76
445.47	6518.39
445.65	6682.23
445.84	6750.10
446.02	6930.33
446.21	6738.40
446.39	6878.83
446.58	6857.77
446.77	6820.32
446.95	6883.52
447.14	7030.97
447.32	6946.71
447.51	6895.22
447.69	6825.00
447.88	6813.30
448.06	7026.29
448.25	6904.58
448.43	7241.62
448.62	6806.28
448.80	6981.82
448.99	7117.57
449.17	7169.06
449.36	7185.44
449.54	7152.68
449.73	7337.58
449.91	7414.82
450.10	7559.93
450.28	7534.18
450.46	7421.84
450.65	7447.58
450.83	7573.97
451.02	7524.82
451.20	7606.74
451.39	7454.61
451.57	7454.61
451.76	7368.01
451.94	7492.05
452.13	7445.24
452.31	7435.88
452.49	7403.11
452.68	7522.48
452.86	7499.08
453.05	7527.16
453.23	7592.70
453.42	7576.31
453.60	7630.15
453.78	7840.79
453.97	7705.04
454.15	7683.98
454.34	7454.61
454.52	7733.13
454.70	7702.70
454.89	7892.29
455.07	7801.01
455.26	8011.65
455.44	8109.96
455.62	8016.33
455.81	7915.69
455.99	7960.16
456.17	8070.17
456.36	8224.64
456.54	8248.05
456.73	8203.58
456.91	8329.97
457.09	8217.62
457.28	8449.33
457.46	8280.82
457.64	8528.91
457.83	8449.33
458.01	8210.60
458.19	8458.70
458.38	8446.99
458.56	8648.28
458.74	8596.79
458.93	8603.81
459.11	8599.13
459.29	8477.42
459.48	8887.01
459.66	8638.92
459.84	8753.60
460.03	8861.27
460.21	8840.20
460.39	8777.01
460.57	8791.05
460.76	8809.78
460.94	8908.08
461.12	8823.82
461.31	9128.09
461.49	9022.77
461.67	8823.82
461.85	9111.71
462.04	9067.24
462.22	9336.40
462.40	9242.78
462.59	9303.63
462.77	9226.39
462.95	9186.60
463.13	9254.48
463.32	9383.21
463.50	9298.95
463.68	9224.05
463.86	9406.61
464.05	9320.01
464.23	9336.40
464.41	9235.75
464.59	9027.45
464.78	9420.66
464.96	9383.21
465.14	9479.17
465.32	9713.22
465.50	9614.92
465.69	9575.13
465.87	9427.68
466.05	9556.41
466.23	9591.52
466.41	9530.66
466.60	9626.62
466.78	9537.68
466.96	9495.55
467.14	9729.61
467.32	9713.22
467.51	9734.29
467.69	9551.73
467.87	9731.95
468.05	9771.74
468.23	9886.42
468.41	9837.27
468.60	9731.95
468.78	10066.64
468.96	9741.31
469.14	9907.49
469.32	10389.64
469.50	9666.41
469.69	10106.43
469.87	10214.10
470.05	10427.09
470.23	10115.80
470.41	10040.90
470.59	10223.46
470.77	10277.29
470.95	10122.82
471.14	10614.33
471.32	10258.57
471.50	10616.67
471.68	10693.91
471.86	10778.17
472.04	10616.67
472.22	10799.23
472.40	10649.44
472.58	10843.70
472.77	10906.90
472.95	10979.45
473.13	11073.07
473.31	10827.32
473.49	11014.56
473.67	10904.56
473.85	11005.20
474.03	11367.98
474.21	11321.17
474.39	11466.28
474.57	11604.38
474.75	11501.39
474.93	11499.05
475.12	11590.33
475.30	11585.65
475.48	11676.93
475.66	11690.98
475.84	11613.74
476.02	11894.60
476.20	11875.88
476.38	11988.22
476.56	12039.72
476.74	12358.03
476.92	12269.09
477.10	12308.88
477.28	12362.71
477.46	12383.77
477.64	12734.85
477.82	12795.71
478.00	12915.08
478.18	13032.10
478.36	13055.51
478.54	13226.37
478.72	13247.43
478.90	13263.82
479.08	13516.59
479.26	13600.85
479.44	13701.50
479.62	13909.80
479.80	13734.26
479.98	13678.09
480.16	14157.90
480.34	13975.34
480.52	14122.79
480.70	14317.06
480.88	14099.39
481.06	14281.95
481.24	14658.78
481.41	14846.02
481.59	15094.11
481.77	14998.15
481.95	14843.68
482.13	15051.99
482.31	15042.62
482.49	15492.01
482.67	15349.23
482.85	15524.77
483.03	15925.00
483.21	15737.76
483.39	15861.81
483.57	15948.41
483.74	16116.93
483.92	16091.18
484.10	15786.91
484.28	16358.00
484.46	16587.38
484.64	16648.23
484.82	16423.54
485.00	16463.33
485.18	16908.03
485.35	17303.58
485.53	16786.32
485.71	16840.15
485.89	17181.87
486.07	16868.24
486.25	17102.29
486.43	17465.08
486.61	17554.02
486.78	17626.57
486.96	17886.37
487.14	18181.28
487.32	18043.19
487.50	18415.34
487.68	18759.39
487.85	18782.80
488.03	19318.78
488.21	19407.72
488.39	18948.98
488.57	19335.17
488.75	19241.54
488.92	20006.90
489.10	19962.43
489.28	20194.14
489.46	20446.92
489.64	20226.91
489.81	20737.15
489.99	20673.95
490.17	20688.00
490.35	21064.82
490.53	20725.44
490.70	20943.11
490.88	20692.68
491.06	21507.18
491.24	21387.82
491.41	21336.32
491.59	21106.95
491.77	21247.38
491.95	21907.41
492.13	22118.06
492.30	22169.55
492.48	22169.55
492.66	22445.74
492.84	22431.69
493.01	22993.42
493.19	22759.37
493.37	22831.93
493.54	22878.74
493.72	23353.87
493.90	23377.27
494.08	23763.46
494.25	23765.80
494.43	23756.44
494.61	23735.37
494.79	24180.07
494.96	24037.30
495.14	24233.91
495.32	24119.22
495.49	24409.45
495.67	24704.35
495.85	24727.76
496.02	24973.52
496.20	25200.55
496.38	25270.76
496.55	25362.04
496.73	25991.65
496.91	25558.65
497.09	25956.54
497.26	25802.07
497.44	25865.26
497.62	25898.03
497.79	26143.78
497.97	25839.51
498.14	26333.37
498.32	26471.46
498.50	26651.68
498.67	26801.47
498.85	26794.45
499.03	26951.27
499.20	26923.18
499.38	27051.91
499.56	27014.46
499.73	27386.61
499.91	27255.54
500.08	27676.83
500.26	27398.31
500.44	27421.72
500.61	27391.29
500.79	27393.63
500.97	27676.83
501.14	28236.22
501.32	27854.72
501.49	27953.02
501.67	28390.70
501.84	27929.61
502.02	28037.28
502.20	28425.81
502.37	29076.48
502.55	28589.64
502.72	29067.11
502.90	28835.40
503.07	29013.28
503.25	29284.78
503.43	28898.59
503.60	29003.92
503.78	28858.81
503.95	28830.72
504.13	29427.56
504.30	29387.77
504.48	29214.57
504.65	29656.93
504.83	29783.32
505.01	30218.66
505.18	29958.86
505.36	30312.28
505.53	30384.83
505.71	30649.32
505.88	30752.30
506.06	30085.25
506.23	30644.63
506.41	30658.68
506.58	30649.32
506.76	30654.00
506.93	31166.57
507.11	31187.64
507.28	30548.67
507.46	30794.43
507.63	30888.05
507.81	31250.83
507.98	31063.59
508.16	31321.05
508.33	31714.26
508.50	31491.91
508.68	31613.62
508.85	31957.67
509.03	32142.58
509.20	31950.65
509.38	32280.67
509.55	31934.27
509.73	32357.91
509.90	32233.86
510.08	32184.71
510.25	32334.50
510.42	32631.75
510.60	32837.72
510.77	32811.97
510.95	33523.49
511.12	33256.67
511.30	32896.23
511.47	32982.83
511.64	33235.61
511.82	33270.72
511.99	32938.36
512.17	33383.06
512.34	33366.68
512.51	33511.79
512.69	33741.16
512.86	33324.55
513.04	34075.86
513.21	33600.73
513.38	33715.42
513.56	33832.44
513.73	33464.98
513.90	34029.05
514.08	34010.32
514.25	34373.11
514.43	34005.64
514.60	33991.60
514.77	34518.22
514.95	34504.18
515.12	34471.41
515.29	34974.63
515.47	34756.96
515.64	34897.39
515.81	34749.93
515.99	35086.97
516.16	34637.59
516.33	34370.77
516.51	34747.59
516.68	34286.51
516.85	34080.54
517.03	34330.98
517.20	34794.40
517.37	35192.30
517.54	35660.40
517.72	35182.93
517.89	34672.70
518.06	35274.21
518.24	34859.94
518.41	35023.78
518.58	35168.89
518.75	35648.70
518.93	35990.42
519.10	35931.90
519.27	35545.72
519.45	35929.56
519.62	35833.60
519.79	36224.47
519.96	36587.25
520.14	36833.01
520.31	36074.68
520.48	36247.88
520.65	36318.09
520.83	36701.94
521.00	36795.56
521.17	36861.10
521.34	37060.04
521.52	36601.30
521.69	36910.25
521.86	37502.40
522.03	37219.20
522.20	37457.93
522.38	37663.90
522.55	37471.98
522.72	37443.89
522.89	37490.70
523.07	37366.65
523.24	37216.86
523.41	37834.76
523.58	37479.00
523.75	38082.86
523.92	38401.17
524.10	38050.09
524.27	38417.55
524.44	38279.46
524.61	38539.26
524.78	38244.35
524.96	38370.74
525.13	38780.34
525.30	38738.21
525.47	39007.37
525.64	38686.71
525.81	38726.50
525.98	38286.48
526.16	38024.34
526.33	38157.75
526.50	38246.69
526.67	38234.99
526.84	38298.19
527.01	38499.47
527.18	38822.47
527.36	38756.93
527.53	39789.11
527.70	39433.35
527.87	39133.76
528.04	39318.66
528.21	39105.67
528.38	39622.93
528.55	39997.41
528.72	40013.80
528.89	40254.87
529.07	39896.77
529.24	39583.14
529.41	39945.92
529.58	39445.05
529.75	40226.79
529.92	40231.47
530.09	40203.38
530.26	40355.52
530.43	40137.85
530.60	40100.40
530.77	40219.77
530.94	40737.02
531.11	40332.11
531.28	40547.44
531.46	40491.27
531.63	40449.14
531.80	40472.54
531.97	40577.87
532.14	40339.13
532.31	40332.11
532.48	40687.87
532.65	40446.80
532.82	40692.55
532.99	40985.12
533.16	40603.61
533.33	41078.74
533.50	41453.23
533.67	41305.77
533.84	40730.00
534.01	41584.30
534.18	41017.89
534.35	41366.63
534.52	40924.27
534.69	41476.63
534.86	41401.74
535.03	41352.58
535.20	42178.79
535.37	42085.17
535.54	41745.80
535.71	41734.09
535.88	41830.05
536.05	41619.41
536.22	41731.75
536.38	41603.02
536.55	41935.38
536.72	41778.56
536.89	41722.39
537.06	41921.34
537.23	42031.34
537.40	42045.38
537.57	42253.69
537.74	41930.70
537.91	42319.23
538.08	42115.60
538.25	41942.40
538.42	42426.89
538.59	42714.78
538.75	42108.58
538.92	42181.13
539.09	42431.57
539.26	42403.49
539.43	42583.71
539.60	42375.40
539.77	42721.80
539.94	42553.28
540.11	42780.31
540.28	42298.16
540.44	42368.38
540.61	42368.38
540.78	42810.74
540.95	42747.54
541.12	42232.63
541.29	42366.04
541.46	42653.92
541.62	43061.18
541.79	42932.45
541.96	42553.28
542.13	42918.40
542.30	43072.88
542.47	42944.15
542.63	42796.70
542.80	43196.93
542.97	43662.69
543.14	43861.64
543.31	43627.59
543.48	43234.38
543.64	44233.78
543.81	43803.13
543.98	43854.62
544.15	43576.09
544.32	43550.35
544.48	44032.50
544.65	44219.74
544.82	43936.54
544.99	43613.54
545.16	43945.90
545.32	43985.69
545.49	44451.45
545.66	44322.72
545.83	44069.95
546.00	44474.86
546.16	44186.97
546.33	44329.75
546.50	43796.10
546.67	44133.14
546.83	43814.83
547.00	44231.44
547.17	44414.01
547.34	44423.37
547.50	44732.32
547.67	44439.75
547.84	44762.75
548.00	44423.37
548.17	44980.42
548.34	44767.43
548.51	44718.28
548.67	45174.68
548.84	44879.77
549.01	44650.40
549.18	44898.50
549.34	44896.16
549.51	44872.75
549.68	44905.52
549.84	44982.76
550.01	44928.92
550.18	45322.13
550.34	44851.69
550.51	44989.78
550.68	44577.84
550.84	44664.44
551.01	44961.69
551.18	44835.30
551.34	45184.04
551.51	45134.89
551.68	45050.63
551.84	45762.15
552.01	45123.19
552.18	45413.41
552.34	45048.29
552.51	45104.46
552.68	44992.12
552.84	45759.81
553.01	45727.05
553.18	45184.04
553.34	45221.49
553.51	45036.59
553.67	45743.43
553.84	45715.34
554.01	45818.33
554.17	46050.04
554.34	46003.23
554.51	45797.26
554.67	45614.70
554.84	46115.58
555.00	45818.33
555.17	45745.77
555.33	45687.26
555.50	45380.65
555.67	45745.77
555.83	45734.07
556.00	45743.43
556.16	46134.30
556.33	45722.37
556.50	45757.47
556.66	45862.80
556.83	45453.20
556.99	46279.41
557.16	46155.36
557.32	45860.46
557.49	46408.14
557.65	45790.24
557.82	46052.38
557.98	46309.84
558.15	45783.22
558.32	45586.61
558.48	45869.82
558.65	45631.08
558.81	45806.62
558.98	46349.63
559.14	46014.93
559.31	46040.68
559.47	46019.61
559.64	46394.10
559.80	46534.53
559.97	46185.79
560.13	45956.42
560.30	46213.88
560.46	46092.17
560.63	46188.13
560.79	46646.88
560.96	46492.40
561.12	45977.48
561.29	46115.58
561.45	46078.13
561.61	46155.36
561.78	46092.17
561.94	46351.97
562.11	45869.82
562.27	46110.89
562.44	46295.80
562.60	46756.88
562.77	46571.98
562.93	46754.54
563.10	46883.27
563.26	45942.38
563.42	46501.76
563.59	46368.35
563.75	46445.59
563.92	46796.67
564.08	47009.66
564.24	46841.14
564.41	46515.81
564.57	46735.82
564.74	46410.48
564.90	46876.25
565.07	46712.41
565.23	46471.34
565.39	46646.88
565.56	46836.46
565.72	46569.64
565.88	46403.46
566.05	46686.67
566.21	46710.07
566.38	46799.01
566.54	46770.93
566.70	46473.68
566.87	46866.89
567.03	46836.46
567.19	47299.89
567.36	46728.80
567.52	46576.66
567.68	46674.96
567.85	46492.40
568.01	46557.94
568.17	46539.21
568.34	46887.95
568.50	46808.37
568.66	46714.75
568.83	47203.92
568.99	46309.84
569.15	47030.72
569.32	46220.90
569.48	46600.07
569.64	47100.94
569.81	46749.86
569.97	47091.58
570.13	46848.16
570.30	46696.03
570.46	46803.69
570.62	46366.01
570.78	46909.02
570.95	46532.19
571.11	46681.98
571.27	46752.20
571.43	46684.33
571.60	46864.55
571.76	46763.90
571.92	47033.07
572.09	46932.42
572.25	46775.61
572.41	46878.59
572.57	46909.02
572.74	47023.70
572.90	46822.42
573.06	46808.37
573.22	47047.11
573.38	46857.52
573.55	46726.46
573.71	47292.86
573.87	47278.82
574.03	46801.35
574.20	47093.92
574.36	46546.23
574.52	47178.18
574.68	47035.41
574.84	46724.11
575.01	46806.03
575.17	46789.65
575.33	46487.72
575.49	47009.66
575.65	46923.06
575.82	47131.37
575.98	47019.02
576.14	47026.04
576.30	47152.43
576.46	47107.96
576.62	46902.00
576.79	47037.75
576.95	47187.54
577.11	46855.18
577.27	46651.56
577.43	47131.37
577.59	46670.28
577.75	46632.83
577.92	46293.46
578.08	46274.73
578.24	46461.97
578.40	46841.14
578.56	46815.40
578.72	46880.93
578.88	47349.04
579.04	46953.49
579.21	47136.05
579.37	46864.55
579.53	46749.86
579.69	47140.73
579.85	46866.89
580.01	46925.40
580.17	46946.47
580.33	46890.29
580.49	46899.65
580.65	46930.08
580.82	46986.25
580.98	46909.02
581.14	47145.41
581.30	47217.97
581.46	47217.97
581.62	46834.12
581.78	47189.88
581.94	47370.10
582.10	46962.85
582.26	47194.56
582.42	46770.93
582.58	47182.86
582.74	47297.55
582.90	47040.09
583.06	47232.01
583.22	47072.85
583.38	47217.97
583.54	47426.28
583.70	46913.70
583.86	47278.82
584.02	46883.27
584.18	47215.63
584.34	47030.72
584.50	46700.71
584.66	46756.88
584.82	47285.84
584.98	47281.16
585.14	47047.11
585.30	46829.44
585.46	46864.55
585.62	46934.76
585.78	46703.05
585.94	46543.89
586.10	46782.63
586.26	46752.20
586.42	46972.21
586.58	47627.56
586.74	46799.01
586.90	47040.09
587.06	47171.16
587.22	47281.16
587.38	46967.53
587.54	47054.13
587.70	47166.48
587.86	47175.84
588.02	47114.98
588.18	47143.07
588.34	47035.41
588.49	46452.61
588.65	46419.84
588.81	46415.16
588.97	46440.91
589.13	46490.06
589.29	46417.50
589.45	46506.44
589.61	46689.01
589.77	47253.08
