SpectraSuite Data File
++++++++++++++++++++++++++++++++++++
Date: Fri Oct 25 11:25:27 EDT 2013
User: price-jones
Dark Spectrum Present: No
Reference Spectrum Present: No
Number of Sampled Component Spectra: 1
Spectrometers: USB2+H05261
Integration Time (usec): 100000 (USB2+H05261)
Spectra Averaged: 1 (USB2+H05261)
Boxcar Smoothing: 0 (USB2+H05261)
Correct for Electrical Dark: No (USB2+H05261)
Strobe/Lamp Enabled: No (USB2+H05261)
Correct for Detector Non-linearity: No (USB2+H05261)
Correct for Stray Light: No (USB2+H05261)
Number of Pixels in Processed Spectrum: 2048
>>>>>Begin Processed Spectral Data<<<<<
365.73	278.52
365.92	278.52
366.12	278.52
366.32	198.95
366.52	173.20
366.72	182.56
366.91	126.39
367.11	168.52
367.31	147.45
367.51	133.41
367.70	140.43
367.90	140.43
368.10	184.90
368.30	110.01
368.49	72.56
368.69	161.50
368.89	222.35
369.09	145.11
369.28	191.92
369.48	189.58
369.68	231.71
369.87	236.39
370.07	318.31
370.27	196.60
370.47	334.70
370.66	589.82
370.86	683.44
371.06	671.73
371.25	711.52
371.45	688.12
371.65	781.74
371.84	636.63
372.04	690.46
372.24	706.84
372.44	692.80
372.63	692.80
372.83	840.25
373.03	758.33
373.22	744.29
373.42	723.23
373.62	718.54
373.81	755.99
374.01	805.14
374.21	856.64
374.40	753.65
374.60	795.78
374.79	823.87
374.99	823.87
375.19	905.79
375.38	870.68
375.58	870.68
375.78	919.83
375.97	819.19
376.17	940.90
376.37	823.87
376.56	940.90
376.76	835.57
376.95	894.08
377.15	903.45
377.35	889.40
377.54	844.93
377.74	940.90
377.93	819.19
378.13	933.87
378.33	933.87
378.52	884.72
378.72	1071.97
378.91	926.85
379.11	915.15
379.31	954.94
379.50	861.32
379.70	947.92
379.89	966.64
380.09	954.94
380.28	926.85
380.48	964.30
380.68	1015.79
380.87	945.58
381.07	933.87
381.26	1034.52
381.46	994.73
381.65	1074.31
381.85	1069.62
382.04	1064.94
382.24	1097.71
382.43	994.73
382.63	1043.88
382.83	1078.99
383.02	1130.48
383.22	1076.65
383.41	1008.77
383.61	1074.31
383.80	1172.61
384.00	1170.27
384.19	1036.86
384.39	1083.67
384.58	1128.14
384.78	1151.54
384.97	1163.25
385.17	1111.75
385.36	1165.59
385.56	1104.73
385.75	1193.67
385.95	1174.95
386.14	1151.54
386.34	1142.18
386.53	1261.55
386.72	1165.59
386.92	1383.26
387.11	1200.69
387.31	1275.59
387.50	1207.72
387.70	1205.38
387.89	1282.61
388.09	1174.95
388.28	1142.18
388.48	1181.97
388.67	1324.74
388.86	1217.08
389.06	1252.19
389.25	1320.06
389.45	1376.24
389.64	1348.15
389.84	1416.02
390.03	1313.04
390.22	1315.38
390.42	1355.17
390.61	1390.28
390.81	1352.83
391.00	1444.11
391.19	1432.41
391.39	1495.60
391.58	1453.47
391.78	1418.36
391.97	1493.26
392.16	1397.30
392.36	1509.65
392.55	1460.49
392.75	1575.18
392.94	1542.41
393.13	1561.14
393.33	1549.43
393.52	1561.14
393.71	1610.29
393.91	1596.25
394.10	1593.90
394.29	1568.16
394.49	1589.22
394.68	1717.95
394.88	1713.27
395.07	1703.91
395.26	1607.95
395.46	1661.78
395.65	1685.19
395.84	1689.87
396.04	1816.26
396.23	1720.29
396.42	1778.81
396.62	1834.98
396.81	1682.85
397.00	1820.94
397.19	1706.25
397.39	1764.76
397.58	1851.36
397.77	1783.49
397.97	1809.23
398.16	1895.83
398.35	1834.98
398.55	1895.83
398.74	1900.52
398.93	1963.71
399.12	1860.73
399.32	1811.57
399.51	1856.04
399.70	1984.77
399.90	1942.64
400.09	2015.20
400.28	1914.56
400.47	1996.48
400.67	2127.55
400.86	2045.63
401.05	2022.22
401.24	2019.88
401.44	2141.59
401.63	2139.25
401.82	2104.14
402.01	2129.89
402.21	2239.89
402.40	2200.10
402.59	2211.81
402.78	2202.44
402.97	2167.34
403.17	2338.20
403.36	2216.49
403.55	2319.47
403.74	2387.35
403.93	2394.37
404.13	2331.17
404.32	2260.96
404.51	2347.56
404.70	2331.17
404.89	2380.32
405.09	2443.52
405.28	2389.69
405.47	2387.35
405.66	2502.03
405.85	2537.14
406.05	2527.78
406.24	2555.86
406.43	2544.16
406.62	2647.15
406.81	2661.19
407.00	2651.83
407.20	2609.70
407.39	2626.08
407.58	2654.17
407.77	2649.49
407.96	2729.06
408.15	2759.49
408.34	2682.25
408.54	2792.26
408.73	2747.79
408.92	2773.53
409.11	2822.69
409.30	2867.16
409.49	2801.62
409.68	2825.03
409.87	3028.65
410.07	2925.67
410.26	2930.35
410.45	2829.71
410.64	3063.76
410.83	3047.38
411.02	3148.02
411.21	3049.72
411.40	3141.00
411.59	3194.83
411.78	3225.26
411.98	3162.06
412.17	3260.37
412.36	3281.43
412.55	3370.37
412.74	3363.35
412.93	3281.43
413.12	3414.84
413.31	3442.93
413.50	3520.17
413.69	3463.99
413.88	3637.19
414.07	3595.06
414.26	3489.74
414.45	3733.15
414.64	3541.23
414.83	3691.02
415.02	3747.20
415.22	3815.07
415.41	3723.79
415.60	3786.99
415.79	3915.72
415.98	3847.84
416.17	3943.80
416.36	3859.54
416.55	4035.08
416.74	4016.36
416.93	4030.40
417.12	4131.05
417.31	4046.79
417.50	4077.21
417.69	4395.53
417.88	4290.20
418.07	4170.83
418.26	4470.42
418.45	4376.80
418.64	4416.59
418.83	4507.87
419.02	4280.84
419.21	4493.83
419.39	4482.13
419.58	4484.47
419.77	4308.93
419.96	4542.98
420.15	4538.30
420.34	4542.98
420.53	4657.67
420.72	4613.20
420.91	4636.60
421.10	4681.07
421.29	4753.63
421.48	4615.54
421.67	4770.01
421.86	4802.78
422.05	4758.31
422.24	4699.80
422.43	4943.21
422.61	4870.65
422.80	4980.66
422.99	4835.55
423.18	5046.20
423.37	4975.98
423.56	4959.60
423.75	4896.40
423.94	4891.72
424.13	4608.51
424.32	4727.88
424.50	4952.57
424.69	5184.29
424.88	5025.13
425.07	4947.89
425.26	4772.35
425.45	4856.61
425.64	5055.56
425.83	4924.49
426.01	5097.69
426.20	5006.41
426.39	5057.90
426.58	5018.11
426.77	4940.87
426.96	5048.54
427.15	5102.37
427.33	5123.43
427.52	5097.69
427.71	5221.74
427.90	5275.57
428.09	5212.37
428.28	5238.12
428.46	5315.36
428.65	5261.52
428.84	5387.91
429.03	5439.40
429.22	5305.99
429.40	5507.28
429.59	5416.00
429.78	5273.23
429.97	5174.92
430.16	5507.28
430.34	5509.62
430.53	5652.39
430.72	5486.22
430.91	5493.24
431.10	5514.30
431.28	5743.67
431.47	5769.42
431.66	5746.02
431.85	5685.16
432.03	5830.27
432.22	5851.34
432.41	5963.68
432.60	5916.87
432.79	5783.46
432.97	5980.07
433.16	6003.47
433.35	5881.77
433.54	6090.07
433.72	6099.44
433.91	5994.11
434.10	6183.70
434.28	6003.47
434.47	6083.05
434.66	6169.65
434.85	6274.98
435.03	6368.60
435.22	6195.40
435.41	6375.62
435.59	6239.87
435.78	6235.19
435.97	6356.90
436.16	6326.47
436.34	6181.35
436.53	6450.52
436.72	6520.73
436.90	6408.39
437.09	6553.50
437.28	6586.27
437.46	6551.16
437.65	6623.72
437.84	6494.99
438.02	6740.74
438.21	6839.05
438.40	6775.85
438.58	6876.49
438.77	6857.77
438.96	6946.71
439.14	7000.54
439.33	7112.89
439.52	7068.42
439.70	7138.63
439.89	7307.15
440.08	7384.39
440.26	7414.82
440.45	7283.75
440.63	7267.36
440.82	7620.78
441.01	7473.33
441.19	7618.44
441.38	7550.57
441.57	7737.81
441.75	7695.68
441.94	7873.56
442.12	7836.11
442.31	8105.28
442.50	7953.14
442.68	7927.39
442.87	7829.09
443.05	8018.68
443.24	8182.51
443.43	8060.80
443.61	8264.43
443.80	8353.37
443.98	8098.25
444.17	7946.12
444.35	8355.71
444.54	8196.56
444.73	8283.16
444.91	8198.90
445.10	8140.38
445.28	8156.77
445.47	8262.09
445.65	8442.31
445.84	8533.59
446.02	8439.97
446.21	8278.47
446.39	8236.35
446.58	8273.79
446.77	8411.89
446.95	8121.66
447.14	8451.67
447.32	8568.70
447.51	8540.61
447.69	8505.51
447.88	8500.83
448.06	8454.02
448.25	8578.06
448.43	8615.51
448.62	8627.21
448.80	8531.25
448.99	8594.45
449.17	8784.03
449.36	8479.76
449.54	8903.40
449.73	8826.16
449.91	8737.22
450.10	8568.70
450.28	9008.72
450.46	8870.63
450.65	9057.87
450.83	8950.21
451.02	8950.21
451.20	9015.74
451.39	9104.68
451.57	8964.25
451.76	8959.57
451.94	9116.39
452.13	9153.84
452.31	9217.03
452.49	9081.28
452.68	9245.12
452.86	9303.63
453.05	9568.11
453.23	9301.29
453.42	9212.35
453.60	9399.59
453.78	9495.55
453.97	9394.91
454.15	9341.08
454.34	9399.59
454.52	9540.02
454.70	9633.64
454.89	9582.15
455.07	9525.98
455.26	9699.18
455.44	9973.02
455.62	9902.81
455.81	9769.40
455.99	9935.57
456.17	10092.39
456.36	10012.81
456.54	10115.80
456.73	10326.44
456.91	10436.45
457.09	10296.02
457.28	10324.10
457.46	10356.87
457.64	10705.61
457.83	10274.95
458.01	10298.36
458.19	10513.69
458.38	10415.38
458.56	10743.06
458.74	10424.75
458.93	10429.43
459.11	10574.54
459.29	10696.25
459.48	10853.06
459.66	10768.80
459.84	10824.98
460.03	10853.06
460.21	11023.92
460.39	11110.52
460.57	10881.15
460.76	10918.60
460.94	11084.78
461.12	11101.16
461.31	11103.50
461.49	11054.35
461.67	11150.31
461.85	11248.61
462.04	11311.81
462.22	11796.30
462.40	11543.52
462.59	11700.34
462.77	11482.67
462.95	11318.83
463.13	11485.01
463.32	11503.73
463.50	11662.89
463.68	11630.12
463.86	11662.89
464.05	11536.50
464.23	11379.68
464.41	11723.74
464.59	11555.22
464.78	11976.52
464.96	11740.13
465.14	11838.43
465.32	12030.35
465.50	11887.58
465.69	12262.07
465.87	12198.87
466.05	11969.50
466.23	12353.35
466.41	12231.64
466.60	12545.27
466.78	11971.84
466.96	12166.10
467.14	12053.76
467.32	12138.02
467.51	12512.50
467.69	11981.20
467.87	12325.26
468.05	12404.84
468.23	12098.23
468.41	12262.07
468.60	12587.40
468.78	12734.85
468.96	12432.93
469.14	13104.66
469.32	13004.02
469.50	12517.18
469.69	12833.16
469.87	13179.56
470.05	12781.67
470.23	13202.96
470.41	13219.35
470.59	13348.08
470.77	13095.30
470.95	13331.69
471.14	13350.42
471.32	13214.66
471.50	13518.93
471.68	13481.49
471.86	13425.31
472.04	13535.32
472.22	13954.27
472.40	13518.93
472.58	13605.53
472.77	13977.68
472.95	14043.21
473.13	14506.64
473.31	14115.77
473.49	13989.38
473.67	14298.33
473.85	14200.03
474.03	14618.99
474.21	14485.58
474.39	14628.35
474.57	14394.29
474.75	14974.75
474.93	14815.59
475.12	14895.17
475.30	14977.09
475.48	14778.14
475.66	15026.24
475.84	14937.30
476.02	15232.21
476.20	15213.48
476.38	15721.38
476.56	15693.29
476.74	16042.03
476.92	15906.28
477.10	15697.97
477.28	16219.91
477.46	16346.30
477.64	16194.17
477.82	16320.56
478.00	16805.05
478.18	16400.13
478.36	16519.50
478.54	17226.34
478.72	17214.64
478.90	17380.82
479.08	17429.97
479.26	17668.70
479.44	17586.79
479.62	17652.32
479.80	17926.16
479.98	18022.12
480.16	18478.53
480.34	18394.27
480.52	18871.74
480.70	18398.95
480.88	18422.36
481.06	18576.83
481.24	18714.92
481.41	18923.23
481.59	18939.62
481.77	19356.23
481.95	19606.67
482.13	19477.94
482.31	19587.94
482.49	20137.97
482.67	19983.49
482.85	20313.51
483.03	20166.06
483.21	20196.48
483.39	20716.08
483.57	20730.12
483.74	20929.07
483.92	21287.17
484.10	20978.22
484.28	21179.51
484.46	21713.15
484.64	22040.82
484.82	21940.18
485.00	21970.61
485.18	22579.15
485.35	22836.61
485.53	22581.49
485.71	23070.66
485.89	23323.44
486.07	23297.69
486.25	23288.33
486.43	23410.04
486.61	23564.51
486.78	23828.99
486.96	23894.53
487.14	24343.91
487.32	24484.34
487.50	24636.48
487.68	24821.38
487.85	25078.84
488.03	25443.96
488.21	25614.82
488.39	25628.87
488.57	25905.05
488.75	26249.11
488.92	26085.27
489.10	26274.85
489.28	26562.74
489.46	26785.09
489.64	26689.13
489.81	27608.96
489.99	27559.81
490.17	27803.22
490.35	28053.66
490.53	28109.83
490.70	28261.97
490.88	28151.96
491.06	28444.53
491.24	28622.41
491.41	28940.72
491.59	29139.67
491.77	28903.28
491.95	29570.33
492.13	29785.66
492.30	29785.66
492.48	29893.32
492.66	29837.15
492.84	30349.73
493.01	30684.42
493.19	30380.15
493.37	30756.98
493.54	30841.24
493.72	31271.90
493.90	31234.45
494.08	31398.29
494.25	31742.35
494.43	31756.39
494.61	32170.66
494.79	32627.07
494.96	32046.62
495.14	32327.48
495.32	33219.22
495.49	33226.24
495.67	33369.02
495.85	33521.15
496.02	33338.59
496.20	33766.91
496.38	33572.64
496.55	34146.08
496.73	34515.88
496.91	34394.17
497.09	34897.39
497.26	34759.30
497.44	34904.41
497.62	35002.71
497.79	35292.94
497.97	35173.57
498.14	35400.60
498.32	36219.79
498.50	35882.75
498.67	36456.18
498.85	35943.61
499.03	36545.12
499.20	36528.74
499.38	37081.11
499.56	36627.04
499.73	36919.61
499.91	37354.95
500.08	37081.11
500.26	36980.46
500.44	37333.89
500.61	37682.62
500.79	37191.11
500.97	37689.65
501.14	38614.16
501.32	38012.64
501.49	38249.03
501.67	38181.16
501.84	38876.30
502.02	38314.57
502.20	39019.07
502.37	38649.27
502.55	38902.04
502.72	39164.18
502.90	39297.59
503.07	39150.14
503.25	39566.76
503.43	39370.15
503.60	39873.37
503.78	39856.98
503.95	40102.74
504.13	40229.13
504.30	40360.20
504.48	40350.84
504.65	40102.74
504.83	40900.86
505.01	41109.17
505.18	41081.08
505.36	41354.93
505.53	40556.80
505.71	41200.45
505.88	41497.70
506.06	41340.88
506.23	42066.45
506.41	41434.50
506.58	42092.19
506.76	42150.71
506.93	41979.85
507.11	42366.04
507.28	42195.18
507.46	42534.56
507.63	42621.16
507.81	43012.02
507.98	42553.28
508.16	42534.56
508.33	43040.11
508.50	43084.58
508.68	43349.06
508.85	43873.34
509.03	43512.90
509.20	44287.62
509.38	43831.21
509.55	44549.76
509.73	44119.10
509.90	43964.62
510.08	44114.42
510.25	44339.11
510.42	44488.90
510.60	44978.07
510.77	44884.45
510.95	45263.62
511.12	45041.27
511.30	44884.45
511.47	45488.31
511.64	45233.19
511.82	45551.51
511.99	45361.92
512.17	45118.51
512.34	45778.54
512.51	46117.92
512.69	46251.33
512.86	46010.25
513.04	46396.44
513.21	46508.79
513.38	46817.74
513.56	46644.54
513.73	46454.95
513.90	46824.76
514.08	46291.12
514.25	47068.17
514.43	46990.94
514.60	47222.65
514.77	47035.41
514.95	47517.56
515.12	47573.73
515.29	47063.49
515.47	47613.52
515.64	47590.11
515.81	47690.76
515.99	48226.74
516.16	47959.92
516.33	47924.81
516.51	48259.51
516.68	47973.96
516.85	48196.31
517.03	48418.66
517.20	48617.61
517.37	48378.87
517.54	48643.35
517.72	48739.32
517.89	49113.80
518.06	49034.22
518.24	49357.22
518.41	48980.39
518.58	49263.60
518.75	49099.76
518.93	49219.13
519.10	49151.25
519.27	49294.02
519.45	49427.43
519.62	49581.91
519.79	49792.56
519.96	49876.82
520.14	49792.56
520.31	50026.61
520.48	50234.92
520.65	49691.91
520.83	50300.45
521.00	50323.86
521.17	50490.04
521.34	50480.67
521.52	50745.15
521.69	50904.31
521.86	50707.71
522.03	50724.09
522.20	51370.08
522.38	51260.07
522.55	50913.67
522.72	51042.40
522.89	51332.63
523.07	51531.57
523.24	51246.03
523.41	51920.10
523.58	51283.48
523.75	51742.22
523.92	51566.68
524.10	51693.07
524.27	51784.35
524.44	51547.96
524.61	51760.95
524.78	51774.99
524.96	51941.17
525.13	52107.35
525.30	52549.71
525.47	52303.95
525.64	52336.72
525.81	52156.50
525.98	52369.49
526.16	52275.87
526.33	52666.73
526.50	52718.23
526.67	52212.67
526.84	52750.99
527.01	52905.47
527.18	52556.73
527.36	52821.21
527.53	52832.91
527.70	53347.83
527.87	53174.63
528.04	53226.12
528.21	53188.67
528.38	53139.52
528.55	53301.02
528.72	52935.90
528.89	53324.43
529.07	53076.33
529.24	53085.69
529.41	53518.69
529.58	53525.71
529.75	53516.35
529.92	53532.73
530.09	53743.38
530.26	53518.69
530.43	53865.09
530.60	53815.94
530.77	53708.27
530.94	53839.34
531.11	53851.05
531.28	53921.26
531.46	53867.43
531.63	54003.18
531.80	53834.66
531.97	54541.50
532.14	54227.87
532.31	54150.63
532.48	54312.13
532.65	54796.62
532.82	54279.36
532.99	54298.09
533.16	54525.12
533.33	54646.83
533.50	54602.36
533.67	54567.25
533.84	54468.95
534.01	54288.73
534.18	54742.79
534.35	55000.25
534.52	54803.64
534.69	55056.42
534.86	55023.65
535.03	54906.63
535.20	55309.20
535.37	55241.32
535.54	55299.84
535.71	54948.76
535.88	55133.66
536.05	55374.73
536.22	55632.19
536.38	55510.49
536.55	55496.44
536.72	55435.59
536.89	55306.86
537.06	55274.09
537.23	55700.07
537.40	55484.74
537.57	55580.70
537.74	55538.57
537.91	55812.41
538.08	55781.99
538.25	55599.43
538.42	55676.66
538.59	56095.62
538.75	55859.23
538.92	55611.13
539.09	55945.83
539.26	55992.64
539.43	55994.98
539.60	56357.76
539.77	56090.94
539.94	56252.44
540.11	56067.53
540.28	56308.61
540.44	56097.96
540.61	56308.61
540.78	56317.97
540.95	56051.15
541.12	56254.78
541.29	56252.44
541.46	56390.53
541.62	56442.02
541.79	56502.87
541.96	56287.54
542.13	56456.06
542.30	56479.47
542.47	56676.07
542.63	56479.47
542.80	56837.57
542.97	56797.78
543.14	56989.70
543.31	56928.85
543.48	57237.80
543.64	57322.06
543.81	57125.46
543.98	57214.40
544.15	57024.81
544.32	57478.88
544.48	57436.75
544.65	57183.97
544.82	57198.01
544.99	57158.22
545.16	57448.45
545.32	57506.96
545.49	57499.94
545.66	57647.39
545.83	57532.71
546.00	57675.48
546.16	57368.87
546.33	57462.49
546.50	57413.34
546.67	57556.11
546.83	57223.76
547.00	57563.14
547.17	57392.28
547.34	57579.52
547.50	57525.69
547.67	58031.24
547.84	57853.36
548.00	57808.89
548.17	58075.71
548.34	57834.64
548.51	57977.41
548.67	57881.45
548.84	57942.30
549.01	57867.40
549.18	57813.57
549.34	58166.99
549.51	58171.67
549.68	58071.03
549.84	58288.70
550.01	58110.82
550.18	57923.58
550.34	58319.13
550.51	58351.90
550.68	58244.23
550.84	57921.24
551.01	58232.53
551.18	58185.72
551.34	58450.20
551.51	58433.81
551.68	58499.35
551.84	58642.12
552.01	58454.88
552.18	58382.32
552.34	58267.64
552.51	58651.48
552.68	58443.18
552.84	58513.39
553.01	58731.06
553.18	58635.10
553.34	58705.32
553.51	58803.62
553.67	58614.04
553.84	58838.73
554.01	58714.68
554.17	58766.17
554.34	58899.58
554.51	58862.13
554.67	58946.39
554.84	58766.17
555.00	58705.32
555.17	58740.42
555.33	59044.69
555.50	58656.17
555.67	58829.37
555.83	58810.64
556.00	58782.55
556.16	59384.07
556.33	59021.29
556.50	58932.35
556.66	59203.85
556.83	58939.37
556.99	59138.32
557.16	59414.50
557.32	59332.58
557.49	59498.76
557.65	59164.06
557.82	59222.58
557.98	59175.76
558.15	59688.34
558.32	59363.01
558.48	59138.32
558.65	59215.55
558.81	59337.26
558.98	59278.75
559.14	59447.27
559.31	59496.42
559.47	59379.39
559.64	59669.62
559.80	59683.66
559.97	59625.15
560.13	59367.69
560.30	59435.56
560.46	59606.42
560.63	59444.93
560.79	59873.24
560.96	59842.82
561.12	59641.53
561.29	59662.60
561.45	59693.02
561.61	59587.70
561.78	59742.17
561.94	59646.21
562.11	59510.46
562.27	59784.30
562.44	59744.51
562.60	59884.95
562.77	59817.07
562.93	59686.00
563.10	59920.05
563.26	59889.63
563.42	60168.15
563.59	59796.01
563.75	59704.73
563.92	59854.52
564.08	60032.40
564.24	60037.08
564.41	59838.14
564.57	60069.85
564.74	59889.63
564.90	59934.10
565.07	59908.35
565.23	59971.55
565.39	60076.87
565.56	60051.12
565.72	59955.16
565.88	60048.78
566.05	59976.23
566.21	59938.78
566.38	60046.44
566.54	60327.31
566.70	60238.37
566.87	60226.66
567.03	60034.74
567.19	60203.26
567.36	60079.21
567.52	60191.56
567.68	60399.86
567.85	60123.68
568.01	60278.16
568.17	60186.88
568.34	60243.05
568.50	60114.32
568.66	60186.88
568.83	60383.48
568.99	60296.88
569.15	60111.98
569.32	60308.58
569.48	60287.52
569.64	60303.90
569.81	60500.51
569.97	60182.19
570.13	60296.88
570.30	60224.32
570.46	60390.50
570.62	60491.15
570.78	60392.84
570.95	60364.76
571.11	60453.70
571.27	60404.55
571.43	60360.08
571.60	60336.67
571.76	60486.46
571.92	60575.40
572.09	60514.55
572.25	60552.00
572.41	60479.44
572.57	60439.65
572.74	60669.03
572.90	60547.32
573.06	60456.04
573.22	60308.58
573.38	60463.06
573.55	60266.45
573.71	60573.06
573.87	60392.84
574.03	60516.89
574.20	60605.83
574.36	60449.02
574.52	60570.72
574.68	60636.26
574.84	60633.92
575.01	60594.13
575.17	60547.32
575.33	60392.84
575.49	60388.16
575.65	60645.62
575.82	60755.63
575.98	60554.34
576.14	60809.46
576.30	60814.14
576.46	60678.39
576.62	60690.09
576.79	60395.18
576.95	60502.85
577.11	60823.50
577.27	60629.24
577.43	60729.88
577.59	60568.38
577.75	60624.56
577.92	60533.28
578.08	60779.03
578.24	60591.79
578.40	61010.74
578.56	60842.23
578.72	60867.97
578.88	60870.31
579.04	60844.57
579.21	60753.29
579.37	60832.86
579.53	60832.86
579.69	60339.01
579.85	60491.15
580.01	60720.52
580.17	60629.24
580.33	60858.61
580.49	60683.07
580.65	60584.77
580.82	60715.84
580.98	60823.50
581.14	60872.65
581.30	60870.31
581.46	60608.17
581.62	60828.18
581.78	60725.20
581.94	60818.82
582.10	60872.65
582.26	60563.70
582.42	60678.39
582.58	60750.94
582.74	60690.09
582.90	60683.07
583.06	60912.44
583.22	60533.28
583.38	60750.94
583.54	60750.94
583.70	60753.29
583.86	60797.76
584.02	60769.67
584.18	60830.52
584.34	60914.78
584.50	60910.10
584.66	60872.65
584.82	60643.28
584.98	60959.25
585.14	60884.36
585.30	60790.73
585.46	61041.17
585.62	60790.73
585.78	60963.93
585.94	60945.21
586.10	61003.72
586.26	60825.84
586.42	60882.02
586.58	60938.19
586.74	60970.96
586.90	60898.40
587.06	60690.09
587.22	60956.91
587.38	60945.21
587.54	60809.46
587.70	60980.32
587.86	60914.78
588.02	60743.92
588.18	61048.19
588.34	60970.96
588.49	60896.06
