SpectraSuite Data File
++++++++++++++++++++++++++++++++++++
Date: Fri Oct 25 11:25:42 EDT 2013
User: price-jones
Dark Spectrum Present: No
Reference Spectrum Present: No
Number of Sampled Component Spectra: 1
Spectrometers: USB2+H05261
Integration Time (usec): 100000 (USB2+H05261)
Spectra Averaged: 1 (USB2+H05261)
Boxcar Smoothing: 0 (USB2+H05261)
Correct for Electrical Dark: No (USB2+H05261)
Strobe/Lamp Enabled: No (USB2+H05261)
Correct for Detector Non-linearity: No (USB2+H05261)
Correct for Stray Light: No (USB2+H05261)
Number of Pixels in Processed Spectrum: 2048
>>>>>Begin Processed Spectral Data<<<<<
365.73	243.42
365.92	243.42
366.12	243.42
366.32	210.65
366.52	117.03
366.72	147.45
366.91	84.26
367.11	166.18
367.31	210.65
367.51	159.16
367.70	152.13
367.90	135.75
368.10	77.24
368.30	180.22
368.49	114.69
368.69	140.43
368.89	156.82
369.09	149.79
369.28	133.41
369.48	196.60
369.68	194.26
369.87	149.79
370.07	161.50
370.27	245.76
370.47	379.17
370.66	599.18
370.86	622.58
371.06	571.09
371.25	774.72
371.45	657.69
371.65	608.54
371.84	664.71
372.04	634.29
372.24	638.97
372.44	571.09
372.63	758.33
372.83	805.14
373.03	772.38
373.22	737.27
373.42	760.67
373.62	725.57
373.81	734.93
374.01	758.33
374.21	847.27
374.40	746.63
374.60	823.87
374.79	755.99
374.99	854.30
375.19	887.06
375.38	896.43
375.58	936.21
375.78	887.06
375.97	791.10
376.17	891.74
376.37	866.00
376.56	922.17
376.76	849.61
376.95	938.55
377.15	894.08
377.35	964.30
377.54	947.92
377.74	908.13
377.93	922.17
378.13	861.32
378.33	990.05
378.52	884.72
378.72	943.24
378.91	1029.84
379.11	940.90
379.31	957.28
379.50	994.73
379.70	1015.79
379.89	1025.15
380.09	903.45
380.28	959.62
380.48	1015.79
380.68	936.21
380.87	931.53
381.07	980.68
381.26	983.02
381.46	987.71
381.65	1013.45
381.85	1050.90
382.04	947.92
382.24	1032.18
382.43	1011.11
382.63	1074.31
382.83	1083.67
383.02	1174.95
383.22	1158.57
383.41	1130.48
383.61	1153.88
383.80	1188.99
384.00	1114.10
384.19	1153.88
384.39	1090.69
384.58	1179.63
384.78	1146.86
384.97	1207.72
385.17	1186.65
385.36	1118.78
385.56	1142.18
385.75	1121.12
385.95	1107.07
386.14	1238.14
386.34	1245.16
386.53	1242.82
386.72	1240.48
386.92	1193.67
387.11	1291.98
387.31	1179.63
387.50	1158.57
387.70	1212.40
387.89	1252.19
388.09	1277.93
388.28	1233.46
388.48	1214.74
388.67	1350.49
388.86	1317.72
389.06	1355.17
389.25	1432.41
389.45	1369.21
389.64	1357.51
389.84	1373.89
390.03	1371.55
390.22	1343.47
390.42	1401.98
390.61	1338.79
390.81	1355.17
391.00	1355.17
391.19	1357.51
391.39	1425.39
391.58	1401.98
391.78	1465.18
391.97	1493.26
392.16	1530.71
392.36	1572.84
392.55	1516.67
392.75	1474.54
392.94	1409.00
393.13	1605.61
393.33	1540.07
393.52	1490.92
393.71	1638.38
393.91	1596.25
394.10	1577.52
394.29	1521.35
394.49	1502.62
394.68	1603.27
394.88	1584.54
395.07	1640.72
395.26	1643.06
395.46	1743.70
395.65	1732.00
395.84	1657.10
396.04	1764.76
396.23	1687.53
396.42	1755.40
396.62	1860.73
396.81	1757.74
397.00	1685.19
397.19	1764.76
397.39	1823.28
397.58	1795.19
397.77	1891.15
397.97	1858.39
398.16	1783.49
398.35	1874.77
398.55	1870.09
398.74	1933.28
398.93	1956.69
399.12	1982.43
399.32	1879.45
399.51	1858.39
399.70	2022.22
399.90	1942.64
400.09	2040.95
400.28	2099.46
400.47	2036.27
400.67	2059.67
400.86	2125.21
401.05	2001.16
401.24	1991.80
401.44	2085.42
401.63	2106.48
401.82	2195.42
402.01	2097.12
402.21	2218.83
402.40	2160.31
402.59	2132.23
402.78	2179.04
402.97	2214.15
403.17	2237.55
403.36	2347.56
403.55	2333.51
403.74	2282.02
403.93	2448.20
404.13	2356.92
404.32	2385.01
404.51	2359.26
404.70	2326.49
404.89	2415.43
405.09	2502.03
405.28	2450.54
405.47	2394.37
405.66	2619.06
405.85	2621.40
406.05	2417.77
406.24	2548.84
406.43	2455.22
406.62	2569.91
406.81	2628.42
407.00	2569.91
407.20	2576.93
407.39	2616.72
407.58	2651.83
407.77	2612.04
407.96	2778.22
408.15	2759.49
408.34	2792.26
408.54	2808.64
408.73	2860.13
408.92	2862.48
409.11	2803.96
409.30	2972.48
409.49	2918.65
409.68	2928.01
409.87	2846.09
410.07	3054.40
410.26	2862.48
410.45	3047.38
410.64	3059.08
410.83	3012.27
411.02	3105.89
411.21	3262.71
411.40	3087.17
411.59	3239.30
411.78	3164.40
411.98	3138.66
412.17	3400.80
412.36	3204.19
412.55	3225.26
412.74	3438.25
412.93	3396.12
413.12	3403.14
413.31	3463.99
413.50	3489.74
413.69	3442.93
413.88	3639.53
414.07	3550.59
414.26	3574.00
414.45	3644.21
414.64	3637.19
414.83	3644.21
415.02	3810.39
415.22	3887.63
415.41	3740.18
415.60	3838.48
415.79	3831.46
415.98	3939.12
416.17	3913.38
416.36	3922.74
416.55	3950.82
416.74	4065.51
416.93	3967.21
417.12	4018.70
417.31	4058.49
417.50	4177.86
417.69	4355.74
417.88	4219.99
418.07	4315.95
418.26	4222.33
418.45	4329.99
418.64	4418.93
418.83	4304.25
419.02	4451.70
419.21	4477.44
419.39	4461.06
419.58	4418.93
419.77	4496.17
419.96	4643.62
420.15	4695.11
420.34	4655.33
420.53	4531.28
420.72	4660.01
420.91	4847.25
421.10	4667.03
421.29	4809.80
421.48	4582.77
421.67	4669.37
421.86	4748.95
422.05	4854.27
422.24	4842.57
422.43	5064.92
422.61	5083.64
422.80	4924.49
422.99	4954.91
423.18	4952.57
423.37	4992.36
423.56	4945.55
423.75	4884.70
423.94	4823.84
424.13	4573.41
424.32	4791.08
424.50	4940.87
424.69	5022.79
424.88	5013.43
425.07	4915.12
425.26	4844.91
425.45	4990.02
425.64	5027.47
425.83	5128.11
426.01	5062.58
426.20	5055.56
426.39	5039.17
426.58	5050.88
426.77	4947.89
426.96	5139.82
427.15	5029.81
427.33	5221.74
427.52	5048.54
427.71	5345.78
427.90	5090.67
428.09	5277.91
428.28	5434.72
428.46	5385.57
428.65	5252.16
428.84	5439.40
429.03	5373.87
429.22	5451.11
429.40	5462.81
429.59	5521.32
429.78	5268.55
429.97	5210.03
430.16	5540.05
430.34	5626.65
430.53	5645.37
430.72	5540.05
430.91	5675.80
431.10	5584.52
431.28	5706.23
431.47	5678.14
431.66	5891.13
431.85	5652.39
432.03	5823.25
432.22	5797.51
432.41	5748.36
432.60	6036.24
432.79	5942.62
432.97	5942.62
433.16	6015.18
433.35	6073.69
433.54	6036.24
433.72	5973.05
433.91	6150.93
434.10	6080.71
434.28	6064.33
434.47	5905.17
434.66	6356.90
434.85	6190.72
435.03	6279.66
435.22	6204.76
435.41	6518.39
435.59	6389.66
435.78	6408.39
435.97	6413.07
436.16	6490.31
436.34	6342.85
436.53	6565.20
436.72	6572.22
436.90	6380.30
437.09	6574.56
437.28	6408.39
437.46	6462.22
437.65	6513.71
437.84	6649.46
438.02	6766.49
438.21	6731.38
438.40	6970.12
438.58	6904.58
438.77	7063.74
438.96	6745.42
439.14	7012.24
439.33	7030.97
439.52	7178.42
439.70	7077.78
439.89	7283.75
440.08	7433.54
440.26	7220.55
440.45	7255.66
440.63	7452.27
440.82	7576.31
441.01	7487.37
441.19	7470.99
441.38	7679.30
441.57	7733.13
441.75	7861.86
441.94	8004.63
442.12	7803.35
442.31	7997.61
442.50	8154.43
442.68	7948.46
442.87	7992.93
443.05	8067.83
443.24	8280.82
443.43	8098.25
443.61	8051.44
443.80	8428.27
443.98	8086.55
444.17	7826.75
444.35	8168.47
444.54	8329.97
444.73	8355.71
444.91	8219.96
445.10	8341.67
445.28	8341.67
445.47	8194.22
445.65	8514.87
445.84	8496.14
446.02	8533.59
446.21	8198.90
446.39	8458.70
446.58	8603.81
446.77	8496.14
446.95	8290.18
447.14	8383.80
447.32	8493.80
447.51	8528.91
447.69	8451.67
447.88	8320.60
448.06	8313.58
448.25	8505.51
448.43	8526.57
448.62	8514.87
448.80	8542.96
448.99	8887.01
449.17	8697.43
449.36	8629.56
449.54	8786.37
449.73	8800.41
449.91	9041.49
450.10	9043.83
450.28	9034.47
450.46	8908.08
450.65	8924.46
450.83	9025.11
451.02	9195.96
451.20	9135.11
451.39	9210.01
451.57	9114.05
451.76	9048.51
451.94	9121.07
452.13	9336.40
452.31	9266.18
452.49	9231.07
452.68	9238.09
452.86	9217.03
453.05	9359.80
453.23	9535.34
453.42	9334.06
453.60	9521.30
453.78	9458.10
453.97	9418.32
454.15	9427.68
454.34	9525.98
454.52	9600.88
454.70	9493.21
454.89	9884.08
455.07	9734.29
455.26	9699.18
455.44	9865.36
455.62	9703.86
455.81	9776.42
455.99	9949.62
456.17	10029.20
456.36	10202.40
456.54	10101.75
456.73	9858.34
456.91	10284.31
457.09	10399.00
457.28	10466.88
457.46	10242.18
457.64	10523.05
457.83	10387.30
458.01	10293.68
458.19	10829.66
458.38	10504.32
458.56	10513.69
458.74	10501.98
458.93	10621.35
459.11	10651.78
459.29	10581.56
459.48	10661.14
459.66	10867.11
459.84	10871.79
460.03	11272.02
460.21	10998.18
460.39	11119.89
460.57	11089.46
460.76	11115.20
460.94	10995.84
461.12	10899.87
461.31	11126.91
461.49	11007.54
461.67	11052.01
461.85	11351.60
462.04	11218.19
462.22	11833.75
462.40	11487.35
462.59	11295.43
462.77	11367.98
462.95	11468.62
463.13	11756.51
463.32	11611.40
463.50	11721.40
463.68	11646.51
463.86	11590.33
464.05	11587.99
464.23	11728.42
464.41	11707.36
464.59	11646.51
464.78	12107.59
464.96	11939.07
465.14	11702.68
465.32	12030.35
465.50	11899.28
465.69	12159.08
465.87	12077.16
466.05	12119.29
466.23	12091.21
466.41	12194.19
466.60	12535.91
466.78	12107.59
466.96	12212.92
467.14	12203.55
467.32	12332.28
467.51	12559.31
467.69	12152.06
467.87	12306.54
468.05	12507.82
468.23	12446.97
468.41	12505.48
468.60	12622.51
468.78	12585.06
468.96	12465.69
469.14	12781.67
469.32	12943.16
469.50	12617.83
469.69	13034.44
469.87	13139.77
470.05	12898.69
470.23	13202.96
470.41	13020.40
470.59	13193.60
470.77	13130.41
470.95	13483.83
471.14	13570.43
471.32	13207.64
471.50	13434.68
471.68	13607.87
471.86	13448.72
472.04	13642.98
472.22	13923.85
472.40	13521.27
472.58	13731.92
472.77	13767.03
472.95	13944.91
473.13	14396.64
473.31	14146.20
473.49	14207.05
473.67	13851.29
473.85	14216.41
474.03	14703.25
474.21	14305.35
474.39	14647.07
474.57	14780.48
474.75	14834.32
474.93	14890.49
475.12	14906.87
475.30	15044.96
475.48	14998.15
475.66	15281.36
475.84	15117.52
476.02	15283.70
476.20	15225.18
476.38	15557.54
476.56	15999.90
476.74	16145.02
476.92	15882.88
477.10	15587.97
477.28	16037.35
477.46	15857.13
477.64	16154.38
477.82	16468.01
478.00	16664.61
478.18	16648.23
478.36	16908.03
478.54	16989.95
478.72	17324.65
478.90	17500.19
479.08	17547.00
479.26	17619.55
479.44	17635.94
479.62	17668.70
479.80	18150.85
479.98	17930.84
480.16	18429.38
480.34	18396.61
480.52	18422.36
480.70	18750.03
480.88	18455.12
481.06	18506.62
481.24	18733.65
481.41	19082.39
481.59	19075.37
481.77	19208.78
481.95	19559.86
482.13	19316.44
482.31	19470.92
482.49	20070.09
482.67	20189.46
482.85	20437.56
483.03	20592.03
483.21	20430.54
483.39	20980.56
483.57	20774.60
483.74	21153.76
483.92	21144.40
484.10	20966.52
484.28	21568.04
484.46	21771.66
484.64	21933.16
484.82	21902.73
485.00	22162.53
485.18	22455.10
485.35	22995.76
485.53	22710.22
485.71	22838.95
485.89	23290.67
486.07	23283.65
486.25	23648.77
486.43	23552.81
486.61	23880.49
486.78	24201.14
486.96	24304.12
487.14	24205.82
487.32	24699.67
487.50	24734.78
487.68	25137.35
487.85	25146.72
488.03	25326.94
488.21	25933.14
488.39	25855.90
488.57	25823.13
488.75	26134.42
488.92	26436.35
489.10	26506.57
489.28	26710.19
489.46	26927.86
489.64	27094.04
489.81	27234.47
489.99	27527.04
490.17	27826.63
490.35	28013.87
490.53	28112.17
490.70	28512.41
490.88	28009.19
491.06	28964.13
491.24	28694.97
491.41	28959.45
491.59	29034.35
491.77	29369.04
491.95	29546.92
492.13	29479.05
492.30	29951.84
492.48	30120.35
492.66	29785.66
492.84	30185.89
493.01	30602.50
493.19	30410.58
493.37	31005.08
493.54	30955.93
493.72	31426.37
493.90	31278.92
494.08	31534.04
494.25	31950.65
494.43	31913.20
494.61	32435.14
494.79	32327.48
494.96	32299.39
495.14	32439.82
495.32	33237.95
495.49	33013.26
495.67	33177.09
495.85	33432.21
496.02	33947.13
496.20	34033.73
496.38	33783.29
496.55	33806.70
496.73	34644.61
496.91	34244.38
497.09	34665.67
497.26	35061.22
497.44	34838.87
497.62	35044.84
497.79	35515.29
497.97	35342.09
498.14	35873.39
498.32	35871.05
498.50	36308.73
498.67	36727.69
498.85	36390.65
499.03	36718.32
499.20	36294.69
499.38	36587.25
499.56	36823.65
499.73	37411.12
499.91	37214.52
500.08	37684.97
500.26	37139.62
500.44	37399.42
500.61	37642.84
500.79	37876.89
500.97	37706.03
501.14	38071.15
501.32	38120.31
501.49	38494.79
501.67	38455.00
501.84	38955.88
502.02	38834.17
502.20	39115.03
502.37	39381.85
502.55	38939.49
502.72	39192.27
502.90	39517.60
503.07	39407.60
503.25	39365.47
503.43	38983.96
503.60	39770.38
503.78	39945.92
503.95	40123.80
504.13	40357.86
504.30	40378.92
504.48	40470.20
504.65	40556.80
504.83	41067.04
505.01	41172.36
505.18	40879.80
505.36	41036.61
505.53	40992.14
505.71	41495.36
505.88	41708.35
506.06	41539.83
506.23	41853.46
506.41	41860.48
506.58	41787.92
506.76	42010.28
506.93	42651.58
507.11	41862.82
507.28	42375.40
507.46	42731.16
507.63	42569.66
507.81	43304.59
507.98	42871.59
508.16	42817.76
508.33	43351.40
508.50	43599.50
508.68	43166.50
508.85	43679.08
509.03	43789.08
509.20	43749.29
509.38	44350.81
509.55	43962.28
509.73	44610.61
509.90	44339.11
510.08	44528.69
510.25	44238.47
510.42	44392.94
510.60	44751.04
510.77	45134.89
510.95	45284.68
511.12	45081.06
511.30	45209.79
511.47	45155.96
511.64	45179.36
511.82	45621.72
511.99	45350.22
512.17	45907.27
512.34	45977.48
512.51	46078.13
512.69	46153.02
512.86	46471.34
513.04	46501.76
513.21	46101.53
513.38	46724.11
513.56	46506.44
513.73	46752.20
513.90	46630.49
514.08	47004.98
514.25	47194.56
514.43	47152.43
514.60	46686.67
514.77	47332.65
514.95	47466.06
515.12	47224.99
515.29	47131.37
515.47	47449.68
515.64	48058.22
515.81	47641.60
515.99	47901.40
516.16	48388.24
516.33	48376.53
516.51	48343.77
516.68	48360.15
516.85	48055.88
517.03	48463.13
517.20	48832.94
517.37	48257.17
517.54	49120.82
517.72	48559.09
517.89	48919.54
518.06	49022.52
518.24	49464.88
518.41	48879.75
518.58	48830.60
518.75	49076.35
518.93	49296.36
519.10	49113.80
519.27	49586.59
519.45	49298.70
519.62	49797.24
519.79	49553.82
519.96	49869.79
520.14	50162.36
520.31	50216.19
520.48	50480.67
520.65	50302.79
520.83	50653.87
521.00	50490.04
521.17	50178.75
521.34	50714.73
521.52	50684.30
521.69	50721.75
521.86	50773.24
522.03	50911.33
522.20	51222.62
522.38	51138.36
522.55	51112.62
522.72	51416.89
522.89	51327.95
523.07	51594.77
523.24	51552.64
523.41	51456.68
523.58	51433.27
523.75	51952.87
523.92	51543.28
524.10	51810.10
524.27	51784.35
524.44	52128.41
524.61	51796.06
524.78	52041.81
524.96	52364.81
525.13	52023.09
525.30	52470.13
525.47	52404.59
525.64	52451.41
525.81	52685.46
525.98	52406.94
526.16	52701.84
526.33	52692.48
526.50	52891.43
526.67	52832.91
526.84	52790.78
527.01	52631.63
527.18	52664.39
527.36	52877.38
527.53	52711.20
527.70	53193.36
527.87	53043.56
528.04	53008.45
528.21	53183.99
528.38	53139.52
528.55	53741.04
528.72	53230.80
528.89	53298.68
529.07	53371.24
529.24	53010.79
529.41	53380.60
529.58	53584.22
529.75	53394.64
529.92	53502.31
530.09	53656.78
530.26	53897.86
530.43	53811.26
530.60	53502.31
530.77	53647.42
530.94	54103.82
531.11	53958.71
531.28	53996.16
531.46	54136.59
531.63	54028.93
531.80	54234.89
531.97	54213.83
532.14	54553.21
532.31	53947.01
532.48	54408.09
532.65	54693.64
532.82	54340.22
532.99	54438.52
533.16	54358.94
533.33	54820.03
533.50	54974.50
533.67	54773.22
533.84	54466.61
534.01	54822.37
534.18	54873.86
534.35	55121.96
534.52	55164.09
534.69	55077.49
534.86	55201.53
535.03	54920.67
535.20	54913.65
535.37	54820.03
535.54	55267.07
535.71	55182.81
535.88	55309.20
536.05	55138.34
536.22	55379.42
536.38	55475.38
536.55	55540.91
536.72	55531.55
536.89	55257.71
537.06	55690.71
537.23	55421.55
537.40	55288.13
537.57	55683.69
537.74	55662.62
537.91	55767.94
538.08	55676.66
538.25	55606.45
538.42	55913.06
538.59	56027.74
538.75	55679.00
538.92	55681.34
539.09	55908.38
539.26	56238.39
539.43	55950.51
539.60	56226.69
539.77	56119.02
539.94	56154.13
540.11	56287.54
540.28	56306.27
540.44	56449.04
540.61	56205.62
540.78	56135.41
540.95	56420.95
541.12	56308.61
541.29	56402.23
541.46	56238.39
541.62	56294.56
541.79	56617.56
541.96	55985.61
542.13	56591.81
542.30	56589.47
542.47	56580.11
542.63	56720.54
542.80	56715.86
542.97	57104.39
543.14	57055.24
543.31	57013.11
543.48	57085.67
543.64	57502.28
543.81	57214.40
543.98	57244.82
544.15	57027.15
544.32	57235.46
544.48	57516.32
544.65	57233.12
544.82	57392.28
544.99	57209.71
545.16	57256.53
545.32	57195.67
545.49	57537.39
545.66	57703.57
545.83	57387.60
546.00	57530.37
546.16	57556.11
546.33	57506.96
546.50	57235.46
546.67	57375.89
546.83	57322.06
547.00	57492.92
547.17	57574.84
547.34	57513.98
547.50	57888.47
547.67	57982.09
547.84	57790.17
548.00	57710.59
548.17	58012.52
548.34	58059.33
548.51	58122.52
548.67	57993.79
548.84	57883.79
549.01	57982.09
549.18	58120.18
549.34	58216.14
549.51	58389.34
549.68	58225.51
549.84	58209.12
550.01	58195.08
550.18	58183.38
550.34	58637.44
550.51	58307.43
550.68	58319.13
550.84	58145.93
551.01	58389.34
551.18	58515.73
551.34	58351.90
551.51	58433.81
551.68	58574.25
551.84	58347.21
552.01	58295.72
552.18	58646.80
552.34	58543.82
552.51	58688.93
552.68	58590.63
552.84	58485.31
553.01	58721.70
553.18	58775.53
553.34	58590.63
553.51	58546.16
553.67	58979.16
553.84	58967.46
554.01	59236.62
554.17	58883.20
554.34	59002.56
554.51	58873.84
554.67	59011.93
554.84	58965.12
555.00	58866.81
555.17	59128.95
555.33	59110.23
555.50	58932.35
555.67	58953.41
555.83	59044.69
556.00	58913.62
556.16	59220.23
556.33	59164.06
556.50	58927.67
556.66	59269.39
556.83	58988.52
556.99	59313.86
557.16	59283.43
557.32	59243.64
557.49	59465.99
557.65	59138.32
557.82	59276.41
557.98	59213.21
558.15	59323.22
558.32	59096.19
558.48	59253.00
558.65	59508.12
558.81	59255.34
558.98	59351.30
559.14	59597.06
559.31	59505.78
559.47	59519.82
559.64	59550.25
559.80	59632.17
559.97	59622.81
560.13	59480.03
560.30	59578.34
560.46	59646.21
560.63	59842.82
560.79	59587.70
560.96	59653.23
561.12	59835.80
561.29	59636.85
561.45	59709.41
561.61	59788.98
561.78	59810.05
561.94	59613.44
562.11	59732.81
562.27	59962.18
562.44	59793.67
562.60	59877.93
562.77	59908.35
562.93	59735.15
563.10	60009.00
563.26	59863.88
563.42	59999.63
563.59	59798.35
563.75	59730.47
563.92	59817.07
564.08	59882.61
564.24	60079.21
564.41	60121.34
564.57	60093.25
564.74	60062.83
564.90	60170.49
565.07	60076.87
565.23	59969.21
565.39	60055.81
565.56	60196.24
565.72	59994.95
565.88	59952.82
566.05	59943.46
566.21	59945.80
566.38	60111.98
566.54	60264.11
566.70	60207.94
566.87	60116.66
567.03	59985.59
567.19	60327.31
567.36	60243.05
567.52	60404.55
567.68	60427.95
567.85	60210.28
568.01	60245.39
568.17	60062.83
568.34	60437.31
568.50	60367.10
568.66	60285.18
568.83	60441.99
568.99	60229.01
569.15	60390.50
569.32	60238.37
569.48	60184.54
569.64	60446.68
569.81	60259.43
569.97	60355.39
570.13	60343.69
570.30	60334.33
570.46	60357.74
570.62	60374.12
570.78	60444.33
570.95	60362.42
571.11	60552.00
571.27	60355.39
571.43	60334.33
571.60	60498.17
571.76	60425.61
571.92	60498.17
572.09	60519.23
572.25	60626.90
572.41	60474.76
572.57	60615.19
572.74	60645.62
572.90	60509.87
573.06	60509.87
573.22	60552.00
573.38	60474.76
573.55	60732.22
573.71	60671.37
573.87	60559.02
574.03	60477.10
574.20	60650.30
574.36	60453.70
574.52	60537.96
574.68	60711.16
574.84	60837.54
575.01	60671.37
575.17	60566.04
575.33	60598.81
575.49	60540.30
575.65	60488.80
575.82	60828.18
575.98	60757.97
576.14	60804.78
576.30	60704.13
576.46	60767.33
576.62	60598.81
576.79	60718.18
576.95	60692.43
577.11	60671.37
577.27	60608.17
577.43	60781.37
577.59	60612.85
577.75	60711.16
577.92	60594.13
578.08	60692.43
578.24	60598.81
578.40	60807.12
578.56	60837.54
578.72	60982.66
578.88	60830.52
579.04	60980.32
579.21	60804.78
579.37	61102.03
579.53	60931.17
579.69	60640.94
579.85	60542.64
580.01	60657.32
580.17	60699.45
580.33	60907.76
580.49	60954.57
580.65	60790.73
580.82	60711.16
580.98	60570.72
581.14	60692.43
581.30	60992.02
581.46	60774.35
581.62	60853.93
581.78	60750.94
581.94	60863.29
582.10	60893.72
582.26	60743.92
582.42	60664.35
582.58	60825.84
582.74	60701.79
582.90	60687.75
583.06	60931.17
583.22	60516.89
583.38	60722.86
583.54	60870.31
583.70	60947.55
583.86	60907.76
584.02	60858.61
584.18	61013.08
584.34	60863.29
584.50	60987.34
584.66	60666.69
584.82	60612.85
584.98	60989.68
585.14	60989.68
585.30	60753.29
585.46	60701.79
585.62	60800.10
585.78	61209.69
585.94	60781.37
586.10	60736.90
586.26	60849.25
586.42	61183.94
586.58	60945.21
586.74	61024.79
586.90	60673.71
587.06	60867.97
587.22	61134.79
587.38	61146.50
587.54	61078.62
587.70	61146.50
587.86	61008.40
588.02	61055.21
588.18	61155.86
588.34	61006.06
588.49	61027.13
