SpectraSuite Data File
++++++++++++++++++++++++++++++++++++
Date: Fri Oct 25 10:44:31 EDT 2013
User: price-jones
Dark Spectrum Present: No
Reference Spectrum Present: No
Number of Sampled Component Spectra: 1
Spectrometers: USB2+H05261
Integration Time (usec): 100000 (USB2+H05261)
Spectra Averaged: 1 (USB2+H05261)
Boxcar Smoothing: 0 (USB2+H05261)
Correct for Electrical Dark: No (USB2+H05261)
Strobe/Lamp Enabled: No (USB2+H05261)
Correct for Detector Non-linearity: No (USB2+H05261)
Correct for Stray Light: No (USB2+H05261)
Number of Pixels in Processed Spectrum: 2048
>>>>>Begin Processed Spectral Data<<<<<
365.73	91.28
365.92	91.28
366.12	91.28
366.32	53.83
366.52	9.36
366.72	21.06
366.91	0.00
367.11	49.15
367.31	0.00
367.51	21.06
367.70	37.45
367.90	28.09
368.10	0.00
368.30	0.00
368.49	42.13
368.69	44.47
368.89	35.11
369.09	39.79
369.28	46.81
369.48	18.72
369.68	145.11
369.87	63.19
370.07	56.17
370.27	93.62
370.47	187.24
370.66	423.64
370.86	440.02
371.06	517.26
371.25	489.17
371.45	465.77
371.65	381.51
371.84	407.25
372.04	482.15
372.24	402.57
372.44	514.92
372.63	379.17
372.83	458.74
373.03	496.19
373.22	507.90
373.42	538.32
373.62	503.22
373.81	550.03
374.01	552.37
374.21	564.07
374.40	596.84
374.60	550.03
374.79	599.18
374.99	573.43
375.19	620.24
375.38	578.11
375.58	575.77
375.78	599.18
375.97	521.94
376.17	645.99
376.37	531.30
376.56	540.66
376.76	613.22
376.95	585.13
377.15	554.71
377.35	636.63
377.54	561.73
377.74	482.15
377.93	589.82
378.13	711.52
378.33	674.07
378.52	606.20
378.72	688.12
378.91	676.41
379.11	681.10
379.31	592.16
379.50	608.54
379.70	685.78
379.89	657.69
380.09	653.01
380.28	636.63
380.48	650.67
380.68	631.94
380.87	727.91
381.07	685.78
381.26	655.35
381.46	720.88
381.65	716.20
381.85	667.05
382.04	678.76
382.24	657.69
382.43	720.88
382.63	657.69
382.83	655.35
383.02	634.29
383.22	737.27
383.41	716.20
383.61	664.71
383.80	758.33
384.00	739.61
384.19	688.12
384.39	730.25
384.58	739.61
384.78	746.63
384.97	730.25
385.17	720.88
385.36	737.27
385.56	800.46
385.75	784.08
385.95	748.97
386.14	805.14
386.34	744.29
386.53	805.14
386.72	788.76
386.92	800.46
387.11	805.14
387.31	793.44
387.50	765.36
387.70	748.97
387.89	861.32
388.09	830.89
388.28	849.61
388.48	922.17
388.67	858.98
388.86	896.43
389.06	826.21
389.25	894.08
389.45	908.13
389.64	807.48
389.84	926.85
390.03	933.87
390.22	943.24
390.42	873.02
390.61	985.37
390.81	924.51
391.00	973.66
391.19	952.60
391.39	1001.75
391.58	1015.79
391.78	943.24
391.97	992.39
392.16	954.94
392.36	1067.28
392.55	992.39
392.75	961.96
392.94	978.34
393.13	999.41
393.33	922.17
393.52	1062.60
393.71	1029.84
393.91	1011.11
394.10	1020.47
394.29	1081.33
394.49	1013.45
394.68	1109.41
394.88	1149.20
395.07	1256.87
395.26	1071.97
395.46	1198.35
395.65	1121.12
395.84	1090.69
396.04	1203.04
396.23	1090.69
396.42	1118.78
396.62	1128.14
396.81	1165.59
397.00	1156.22
397.19	1240.48
397.39	1224.10
397.58	1212.40
397.77	1263.89
397.97	1331.76
398.16	1322.40
398.35	1303.68
398.55	1263.89
398.74	1291.98
398.93	1315.38
399.12	1399.64
399.32	1261.55
399.51	1345.81
399.70	1455.81
399.90	1486.24
400.09	1399.64
400.28	1411.34
400.47	1453.47
400.67	1551.78
400.86	1476.88
401.05	1444.11
401.24	1507.30
401.44	1577.52
401.63	1633.69
401.82	1486.24
402.01	1603.27
402.21	1558.80
402.40	1530.71
402.59	1535.39
402.78	1554.12
402.97	1612.63
403.17	1673.48
403.36	1706.25
403.55	1652.42
403.74	1696.89
403.93	1757.74
404.13	1654.76
404.32	1668.80
404.51	1668.80
404.70	1769.44
404.89	1689.87
405.09	1809.23
405.28	1739.02
405.47	1813.92
405.66	1898.17
405.85	1776.47
406.05	1877.11
406.24	1696.89
406.43	1820.94
406.62	1820.94
406.81	1863.07
407.00	1902.86
407.20	1874.77
407.39	1818.60
407.58	1856.04
407.77	1886.47
407.96	1952.01
408.15	1996.48
408.34	1998.82
408.54	1928.60
408.73	2064.35
408.92	2092.44
409.11	2059.67
409.30	2125.21
409.49	2069.03
409.68	2001.16
409.87	2200.10
410.07	2174.36
410.26	2132.23
410.45	2113.50
410.64	2256.28
410.83	2282.02
411.02	2361.60
411.21	2359.26
411.40	2321.81
411.59	2324.15
411.78	2450.54
411.98	2441.18
412.17	2385.01
412.36	2420.11
412.55	2647.15
412.74	2471.61
412.93	2392.03
413.12	2403.73
413.31	2583.95
413.50	2630.76
413.69	2574.59
413.88	2656.51
414.07	2640.12
414.26	2586.29
414.45	2698.64
414.64	2633.10
414.83	2736.09
415.02	2750.13
415.22	2780.56
415.41	2951.42
415.60	2916.31
415.79	2813.32
415.98	2939.71
416.17	2923.33
416.36	2939.71
416.55	3045.04
416.74	3007.59
416.93	2977.16
417.12	3014.61
417.31	3098.87
417.50	3026.31
417.69	3169.09
417.88	3117.59
418.07	3138.66
418.26	3152.70
418.45	3208.87
418.64	3325.90
418.83	3321.22
419.02	3199.51
419.21	3344.63
419.39	3400.80
419.58	3272.07
419.77	3178.45
419.96	3407.82
420.15	3466.33
420.34	3440.59
420.53	3492.08
420.72	3405.48
420.91	3396.12
421.10	3698.05
421.29	3433.57
421.48	3468.67
421.67	3646.55
421.86	3625.49
422.05	3515.48
422.24	3522.51
422.43	3515.48
422.61	3618.47
422.80	3515.48
422.99	3571.66
423.18	3667.62
423.37	3777.62
423.56	3550.59
423.75	3599.74
423.94	3365.69
424.13	3459.31
424.32	3417.18
424.50	3712.09
424.69	3700.39
424.88	3644.21
425.07	3653.58
425.26	3669.96
425.45	3606.77
425.64	3576.34
425.83	3503.78
426.01	3751.88
426.20	3789.33
426.39	3892.31
426.58	3632.51
426.77	3611.45
426.96	3744.86
427.15	3660.60
427.33	3808.05
427.52	3831.46
427.71	3796.35
427.90	3840.82
428.09	3838.48
428.28	3765.92
428.46	3833.80
428.65	3882.95
428.84	3946.14
429.03	4053.81
429.22	3777.62
429.40	3826.78
429.59	3978.91
429.78	3899.33
429.97	3609.11
430.16	3742.52
430.34	3847.84
430.53	3871.25
430.72	3934.44
430.91	3939.12
431.10	3929.76
431.28	4266.80
431.47	4163.81
431.66	4252.75
431.85	4093.60
432.03	4135.73
432.22	4381.48
432.41	4358.08
432.60	4421.27
432.79	4322.97
432.97	4496.17
433.16	4306.59
433.35	4367.44
433.54	4318.29
433.72	4355.74
433.91	4461.06
434.10	4458.72
434.28	4332.33
434.47	4468.08
434.66	4585.11
434.85	4566.39
435.03	4582.77
435.22	4482.13
435.41	4739.58
435.59	4641.28
435.78	4685.75
435.97	4660.01
436.16	4669.37
436.34	4634.26
436.53	4669.37
436.72	4814.48
436.90	4765.33
437.09	4912.78
437.28	4706.82
437.46	4774.69
437.65	4856.61
437.84	4826.18
438.02	4741.93
438.21	4837.89
438.40	4833.21
438.58	4861.29
438.77	4992.36
438.96	4924.49
439.14	5144.50
439.33	5036.83
439.52	5149.18
439.70	5289.61
439.89	5322.38
440.08	5261.52
440.26	5240.46
440.45	5341.10
440.63	5509.62
440.82	5420.68
441.01	5362.17
441.19	5696.86
441.38	5600.90
441.57	5614.95
441.75	5584.52
441.94	5671.12
442.12	5818.57
442.31	5818.57
442.50	5708.57
442.68	5767.08
442.87	5762.40
443.05	5638.35
443.24	6001.13
443.43	5788.14
443.61	5996.45
443.80	6148.59
443.98	5748.36
444.17	5799.85
444.35	6010.50
444.54	5987.09
444.73	5998.79
444.91	6005.81
445.10	5994.11
445.28	6043.26
445.47	6106.46
445.65	5933.26
445.84	6005.81
446.02	6066.67
446.21	6228.17
446.39	6106.46
446.58	6122.84
446.77	6076.03
446.95	6047.94
447.14	6359.24
447.32	6347.53
447.51	6169.65
447.69	6129.86
447.88	6237.53
448.06	6031.56
448.25	6155.61
448.43	6153.27
448.62	6204.76
448.80	6181.35
448.99	6340.51
449.17	6333.49
449.36	6434.13
449.54	6342.85
449.73	6396.68
449.91	6609.67
450.10	6546.48
450.28	6792.23
450.46	6497.33
450.65	6710.32
450.83	6612.01
451.02	6644.78
451.20	6555.84
451.39	6647.12
451.57	6626.06
451.76	6406.05
451.94	6572.22
452.13	6771.17
452.31	6815.64
452.49	6579.25
452.68	6806.28
452.86	6614.35
453.05	6895.22
453.23	6855.43
453.42	6684.57
453.60	6834.36
453.78	6967.77
453.97	6698.61
454.15	6754.79
454.34	6829.68
454.52	6935.01
454.70	6946.71
454.89	7014.59
455.07	6932.67
455.26	6916.28
455.44	7155.02
455.62	7185.44
455.81	7091.82
455.99	7234.60
456.17	7124.59
456.36	7218.21
456.54	7302.47
456.73	7475.67
456.91	7581.00
457.09	7272.04
457.28	7496.74
457.46	7641.85
457.64	7665.25
457.83	7573.97
458.01	7360.98
458.19	7709.72
458.38	7698.02
458.56	7606.74
458.74	7611.42
458.93	7655.89
459.11	7630.15
459.29	7660.57
459.48	7637.17
459.66	7702.70
459.84	7688.66
460.03	7908.67
460.21	7878.24
460.39	7744.83
460.57	7679.30
460.76	7871.22
460.94	7829.09
461.12	7896.97
461.31	8046.76
461.49	7805.69
461.67	7971.86
461.85	8114.64
462.04	8095.91
462.22	8285.50
462.40	8301.88
462.59	8229.32
462.77	8243.37
462.95	8400.18
463.13	8465.72
463.32	8294.86
463.50	8395.50
463.68	8416.57
463.86	8250.39
464.05	8262.09
464.23	8294.86
464.41	8219.96
464.59	8374.44
464.78	8477.42
464.96	8533.59
465.14	8367.42
465.32	8650.62
465.50	8634.24
465.69	8606.15
465.87	8346.35
466.05	8573.38
466.23	8395.50
466.41	8671.68
466.60	8676.37
466.78	8461.04
466.96	8482.10
467.14	8645.94
467.32	8655.30
467.51	8835.52
467.69	8652.96
467.87	8678.71
468.05	8875.31
468.23	8971.27
468.41	8741.90
468.60	8681.05
468.78	8725.52
468.96	8917.44
469.14	9195.96
469.32	9181.92
469.50	8795.73
469.69	9151.49
469.87	8863.61
470.05	9078.94
470.23	9111.71
470.41	9191.28
470.59	9341.08
470.77	9195.96
470.95	9226.39
471.14	9317.67
471.32	9170.22
471.50	9565.77
471.68	9270.86
471.86	9537.68
472.04	9570.45
472.22	9755.35
472.40	9387.89
472.58	9699.18
472.77	9682.80
472.95	9961.32
473.13	10342.83
473.31	9652.37
473.49	9809.19
473.67	9860.68
473.85	9921.53
474.03	10193.03
474.21	9944.94
474.39	10239.84
474.57	10242.18
474.75	10487.94
474.93	10476.24
475.12	10223.46
475.30	10382.62
475.48	10347.51
475.66	10406.02
475.84	10459.85
476.02	10640.08
476.20	10516.03
476.38	10719.65
476.56	11239.25
476.74	11037.97
476.92	11154.99
477.10	11056.69
477.28	11225.21
477.46	11187.76
477.64	11192.44
477.82	11428.84
478.00	11693.32
478.18	11485.01
478.36	11597.35
478.54	11981.20
478.72	11613.74
478.90	12013.97
479.08	12168.45
479.26	12409.52
479.44	12444.63
479.62	12290.15
479.80	12538.25
479.98	12472.71
480.16	12844.86
480.34	12437.61
480.52	12957.21
480.70	12945.50
480.88	12519.53
481.06	12854.22
481.24	12992.31
481.41	12957.21
481.59	13305.95
481.77	13441.70
481.95	13132.75
482.13	13617.24
482.31	13605.53
482.49	13872.36
482.67	13699.16
482.85	13982.36
483.03	14190.67
483.21	14403.66
483.39	14228.12
483.57	14129.81
483.74	14384.93
483.92	14642.39
484.10	14508.98
484.28	14892.83
484.46	14958.36
484.64	15215.82
484.82	15208.80
485.00	15147.95
485.18	15286.04
485.35	15475.62
485.53	15405.41
485.71	15248.59
485.89	15719.04
486.07	15136.24
486.25	15758.83
486.43	15866.49
486.61	16065.44
486.78	16287.79
486.96	16437.58
487.14	16528.86
487.32	16535.88
487.50	16744.19
487.68	16893.99
487.85	17359.75
488.03	17209.96
488.21	17151.45
488.39	17345.71
488.57	17516.57
488.75	17633.60
488.92	17914.46
489.10	18160.22
489.28	18242.14
489.46	18359.16
489.64	18604.92
489.81	18845.99
489.99	18911.53
490.17	18801.52
490.35	18817.91
490.53	19204.10
490.70	19288.35
490.88	19176.01
491.06	19201.76
491.24	19480.28
491.41	19704.97
491.59	19599.65
491.77	19410.06
491.95	19840.72
492.13	20067.75
492.30	20217.55
492.48	20332.23
492.66	20428.20
492.84	20444.58
493.01	20762.89
493.19	20772.25
493.37	20781.62
493.54	20783.96
493.72	21287.17
493.90	21263.77
494.08	21656.98
494.25	21579.74
494.43	21788.05
494.61	21764.64
494.79	21827.84
494.96	21874.65
495.14	22010.40
495.32	22389.56
495.49	22185.94
495.67	22305.31
495.85	22588.51
496.02	22595.53
496.20	23002.78
496.38	22747.67
496.55	22747.67
496.73	23665.16
496.91	23309.40
497.09	23494.30
497.26	23583.24
497.44	23498.98
497.62	23623.03
497.79	23728.35
497.97	23601.96
498.14	23908.57
498.32	24177.73
498.50	24079.43
498.67	24554.56
498.85	24474.98
499.03	24702.01
499.20	24643.50
499.38	24528.81
499.56	24938.41
499.73	25001.60
499.91	24807.34
500.08	24954.79
500.26	24847.13
500.44	25202.89
500.61	25352.68
500.79	25238.00
500.97	25013.31
501.14	25544.61
501.32	25348.00
501.49	25710.78
501.67	25518.86
501.84	25926.11
502.02	25865.26
502.20	26080.59
502.37	25905.05
502.55	26235.06
502.72	26380.18
502.90	26459.76
503.07	26335.71
503.25	26679.77
503.43	26558.06
503.60	26677.43
503.78	26576.78
503.95	26569.76
504.13	26843.60
504.30	26972.33
504.48	27161.92
504.65	27328.10
504.83	27379.59
505.01	27707.26
505.18	27391.29
505.36	27805.56
505.53	27700.24
505.71	27772.80
505.88	27976.42
506.06	27901.53
506.23	27838.33
506.41	27611.30
506.58	28486.66
506.76	27941.32
506.93	28329.84
507.11	28048.98
507.28	28404.74
507.46	28694.97
507.63	28671.56
507.81	28549.85
507.98	28458.57
508.16	28524.11
508.33	28741.78
508.50	28966.47
508.68	29273.08
508.85	29493.09
509.03	29057.75
509.20	29539.90
509.38	29720.12
509.55	29596.07
509.73	29476.71
509.90	29839.49
510.08	29521.18
510.25	29223.93
510.42	29766.93
510.60	29860.55
510.77	29668.63
510.95	30232.70
511.12	29876.94
511.30	30356.75
511.47	30759.32
511.64	30375.47
511.82	30698.47
511.99	30380.15
512.17	30866.98
512.34	30789.75
512.51	31012.10
512.69	31154.87
512.86	31063.59
513.04	31145.51
513.21	31122.10
513.38	31236.79
513.56	31328.07
513.73	31253.17
513.90	31819.58
514.08	31445.10
514.25	32011.51
514.43	31630.00
514.60	31475.52
514.77	31505.95
514.95	31981.08
515.12	31779.79
515.29	31761.07
515.47	32596.64
515.64	32292.37
515.81	32079.38
515.99	32271.31
516.16	32589.62
516.33	32285.35
516.51	32070.02
516.68	32147.26
516.85	32091.09
517.03	32180.03
517.20	32449.19
517.37	32268.97
517.54	32606.00
517.72	32680.90
517.89	32624.73
518.06	32554.51
518.24	32552.17
518.41	33036.66
518.58	32610.68
518.75	32950.06
518.93	33301.14
519.10	33024.96
519.27	33282.42
519.45	33240.29
519.62	33542.22
519.79	33628.82
519.96	33600.73
520.14	34113.31
520.31	33549.24
520.48	33663.93
520.65	33577.33
520.83	34340.34
521.00	34436.30
521.17	34340.34
521.34	34684.40
521.52	34127.35
521.69	34630.57
521.86	35049.52
522.03	34618.86
522.20	34810.79
522.38	34714.83
522.55	34955.90
522.72	34668.02
522.89	34288.85
523.07	35016.75
523.24	34955.90
523.41	35318.68
523.58	35161.87
523.75	35400.60
523.92	35180.59
524.10	35709.55
524.27	35534.01
524.44	35573.80
524.61	35552.74
524.78	35545.72
524.96	35873.39
525.13	35744.66
525.30	36039.57
525.47	36154.26
525.64	36163.62
525.81	35929.56
525.98	35952.97
526.16	35971.69
526.33	35793.81
526.50	36264.26
526.67	35526.99
526.84	35725.94
527.01	35817.22
527.18	35910.84
527.36	36547.47
527.53	36449.16
527.70	36907.91
527.87	36275.96
528.04	36414.05
528.21	36762.79
528.38	36561.51
528.55	37170.05
528.72	36931.31
528.89	37071.75
529.07	37160.69
529.24	36844.71
529.41	37156.00
529.58	37322.18
529.75	36886.84
529.92	37603.05
530.09	37425.17
530.26	37127.92
530.43	37514.11
530.60	37085.79
530.77	37399.42
530.94	37544.53
531.11	37387.72
531.28	37251.97
531.46	38019.66
531.63	37809.01
531.80	38195.20
531.97	37429.85
532.14	37645.18
532.31	37729.44
532.48	37797.31
532.65	38260.74
532.82	37801.99
532.99	38150.73
533.16	38022.00
533.33	38480.75
533.50	38089.88
533.67	38124.99
533.84	38169.46
534.01	38497.13
534.18	38101.58
534.35	38878.64
534.52	38204.56
534.69	39086.95
534.86	38972.26
535.03	38176.48
535.20	39051.84
535.37	39335.04
535.54	39288.23
535.71	38993.32
535.88	38808.42
536.05	38789.70
536.22	39161.84
536.38	38972.26
536.55	39065.88
536.72	39367.81
536.89	38527.56
537.06	38808.42
537.23	39388.88
537.40	39145.46
537.57	39566.76
537.74	39508.24
537.91	39735.27
538.08	39232.06
538.25	39185.25
538.42	39316.32
538.59	39330.36
538.75	38899.70
538.92	39803.15
539.09	39615.91
539.26	39552.71
539.43	40072.31
539.60	39765.70
539.77	39597.18
539.94	39658.04
540.11	39737.62
540.28	40175.30
540.44	40196.36
540.61	39765.70
540.78	39798.47
540.95	39775.06
541.12	39655.70
541.29	40091.04
541.46	40184.66
541.62	40072.31
541.79	40212.74
541.96	40074.65
542.13	40500.63
542.30	40203.38
542.47	40608.29
542.63	40570.85
542.80	40495.95
542.97	40467.86
543.14	41055.34
543.31	41092.79
543.48	40744.05
543.64	41464.93
543.81	41762.18
543.98	41333.86
544.15	40580.21
544.32	41191.09
544.48	41301.09
544.65	41401.74
544.82	41273.01
544.99	41261.30
545.16	40987.46
545.32	41060.02
545.49	41581.96
545.66	41549.19
545.83	41635.79
546.00	41886.23
546.16	41361.95
546.33	41078.74
546.50	41179.39
546.67	41469.61
546.83	41158.32
547.00	41706.01
547.17	41647.49
547.34	42066.45
547.50	42099.22
547.67	42106.24
547.84	41844.10
548.00	42188.16
548.17	42136.66
548.34	42071.13
548.51	42450.30
548.67	42134.32
548.84	42209.22
549.01	41808.99
549.18	41937.72
549.34	41638.13
549.51	42724.14
549.68	42368.38
549.84	42548.60
550.01	42679.67
550.18	42504.13
550.34	41904.95
550.51	42211.56
550.68	42749.88
550.84	42033.68
551.01	42883.30
551.18	42508.81
551.34	42572.00
551.51	42473.70
551.68	42703.07
551.84	42637.54
552.01	42707.76
552.18	42394.12
552.34	42595.41
552.51	43098.62
552.68	42672.65
552.84	42810.74
553.01	42866.91
553.18	42759.25
553.34	42801.38
553.51	42644.56
553.67	42878.61
553.84	43129.05
554.01	43234.38
554.17	43489.49
554.34	43522.26
554.51	43117.35
554.67	42981.60
554.84	43084.58
555.00	42834.14
555.17	43129.05
555.33	43159.48
555.50	42911.38
555.67	43154.80
555.83	43194.59
556.00	43536.30
556.16	43580.78
556.33	43349.06
556.50	43650.99
556.66	43620.56
556.83	43157.14
556.99	43440.34
557.16	43405.23
557.32	43522.26
557.49	43899.09
557.65	43337.36
557.82	43426.30
557.98	43477.79
558.15	43838.23
558.32	44156.55
558.48	43569.07
558.65	43690.78
558.81	43328.00
558.98	43438.00
559.14	43578.43
559.31	43606.52
559.47	43447.36
559.64	44449.11
559.80	44217.40
559.97	44154.21
560.13	43650.99
560.30	43632.27
560.46	43749.29
560.63	43976.33
560.79	43924.83
560.96	44023.14
561.12	44105.06
561.29	44123.78
561.45	43732.91
561.61	43835.89
561.78	43840.57
561.94	43805.47
562.11	44395.28
562.27	44123.78
562.44	44236.12
562.60	44236.12
562.77	44493.58
562.93	43833.55
563.10	44121.44
563.26	43892.07
563.42	44355.49
563.59	43723.55
563.75	43985.69
563.92	44549.76
564.08	44067.61
564.24	44535.71
564.41	44556.78
564.57	44048.88
564.74	44439.75
564.90	44287.62
565.07	44238.47
565.23	44126.12
565.39	44062.93
565.56	44320.38
565.72	44175.27
565.88	44479.54
566.05	44044.20
566.21	44355.49
566.38	44217.40
566.54	44664.44
566.70	44439.75
566.87	44774.45
567.03	44538.05
567.19	44598.91
567.36	44479.54
567.52	44388.26
567.68	44746.36
567.85	44390.60
568.01	44245.49
568.17	43945.90
568.34	44587.21
568.50	44072.29
568.66	44172.93
568.83	44512.31
568.99	43971.64
569.15	44664.44
569.32	44718.28
569.48	44240.81
569.64	44746.36
569.81	44327.41
569.97	44257.19
570.13	44343.79
570.30	44196.34
570.46	44456.14
570.62	43943.56
570.78	44444.43
570.95	44072.29
571.11	44615.29
571.27	44484.22
571.43	44914.88
571.60	44619.97
571.76	44619.97
571.92	44320.38
572.09	44685.51
572.25	44514.65
572.41	44402.30
572.57	44905.52
572.74	45509.38
572.90	44891.48
573.06	45057.65
573.22	44790.83
573.38	44884.45
573.55	44495.92
573.71	45085.74
573.87	44818.92
574.03	44453.79
574.20	44610.61
574.36	44591.89
574.52	44832.96
574.68	44636.36
574.84	44671.46
575.01	44594.23
575.17	44411.67
575.33	44797.85
575.49	44591.89
575.65	44811.90
575.82	45200.43
575.98	44512.31
576.14	45125.53
576.30	45017.86
576.46	44587.21
576.62	44814.24
576.79	44767.43
576.95	44676.15
577.11	44933.60
577.27	44706.57
577.43	44720.62
577.59	44830.62
577.75	44636.36
577.92	44414.01
578.08	44151.87
578.24	44825.94
578.40	44708.91
578.56	44722.96
578.72	44886.79
578.88	45017.86
579.04	44641.04
579.21	44704.23
579.37	44741.68
579.53	44926.58
579.69	44907.86
579.85	44451.45
580.01	45343.20
580.17	44907.86
580.33	44734.66
580.49	45132.55
580.65	44814.24
580.82	45181.70
580.98	45069.36
581.14	44545.08
581.30	45118.51
581.46	45074.04
581.62	45055.31
581.78	45106.80
581.94	45116.17
582.10	44980.42
582.26	44996.80
582.42	44940.63
582.58	44926.58
582.74	45017.86
582.90	44786.15
583.06	44832.96
583.22	45090.42
583.38	45186.38
583.54	45153.62
583.70	45345.54
583.86	45123.19
584.02	44795.51
584.18	44685.51
584.34	44987.44
584.50	44549.76
584.66	44594.23
584.82	45050.63
584.98	45221.49
585.14	45188.72
585.30	44896.16
585.46	45031.91
585.62	45205.11
585.78	45062.33
585.94	44463.16
586.10	45015.52
586.26	45071.70
586.42	44832.96
586.58	44818.92
586.74	44949.99
586.90	44671.46
587.06	44931.26
587.22	44954.67
587.38	44519.33
587.54	45340.86
587.70	45015.52
587.86	45062.33
588.02	44879.77
588.18	45305.75
588.34	45265.96
588.49	44942.97
588.65	44563.80
588.81	44734.66
588.97	45008.50
589.13	44797.85
589.29	44652.74
589.45	44762.75
589.61	44793.17
589.77	45125.53
589.93	45184.04
590.08	45432.14
590.24	44987.44
