SpectraSuite Data File
++++++++++++++++++++++++++++++++++++
Date: Fri Oct 25 11:34:39 EDT 2013
User: price-jones
Dark Spectrum Present: No
Reference Spectrum Present: No
Number of Sampled Component Spectra: 1
Spectrometers: USB2+H05261
Integration Time (usec): 100000 (USB2+H05261)
Spectra Averaged: 1 (USB2+H05261)
Boxcar Smoothing: 0 (USB2+H05261)
Correct for Electrical Dark: No (USB2+H05261)
Strobe/Lamp Enabled: No (USB2+H05261)
Correct for Detector Non-linearity: No (USB2+H05261)
Correct for Stray Light: No (USB2+H05261)
Number of Pixels in Processed Spectrum: 2048
>>>>>Begin Processed Spectral Data<<<<<
365.73	236.39
365.92	236.39
366.12	236.39
366.32	147.45
366.52	194.26
366.72	212.99
366.91	182.56
367.11	180.22
367.31	177.88
367.51	189.58
367.70	166.18
367.90	168.52
368.10	187.24
368.30	161.50
368.49	184.90
368.69	212.99
368.89	168.52
369.09	191.92
369.28	196.60
369.48	224.69
369.68	161.50
369.87	259.80
370.07	271.50
370.27	266.82
370.47	393.21
370.66	512.58
370.86	484.49
371.06	505.56
371.25	505.56
371.45	521.94
371.65	531.30
371.84	475.13
372.04	552.37
372.24	514.92
372.44	587.47
372.63	524.28
372.83	627.26
373.03	557.05
373.22	557.05
373.42	634.29
373.62	596.84
373.81	622.58
374.01	671.73
374.21	627.26
374.40	641.31
374.60	613.22
374.79	634.29
374.99	678.76
375.19	674.07
375.38	610.88
375.58	620.24
375.78	697.48
375.97	627.26
376.17	669.39
376.37	638.97
376.56	615.56
376.76	627.26
376.95	695.14
377.15	699.82
377.35	648.33
377.54	688.12
377.74	702.16
377.93	620.24
378.13	674.07
378.33	704.50
378.52	706.84
378.72	699.82
378.91	720.88
379.11	706.84
379.31	685.78
379.50	617.90
379.70	711.52
379.89	662.37
380.09	620.24
380.28	763.01
380.48	685.78
380.68	763.01
380.87	688.12
381.07	807.48
381.26	734.93
381.46	669.39
381.65	812.17
381.85	601.52
382.04	814.51
382.24	748.97
382.43	688.12
382.63	751.31
382.83	753.65
383.02	763.01
383.22	755.99
383.41	842.59
383.61	805.14
383.80	751.31
384.00	819.19
384.19	711.52
384.39	779.40
384.58	793.44
384.78	870.68
384.97	774.72
385.17	793.44
385.36	898.77
385.56	816.85
385.75	788.76
385.95	753.65
386.14	821.53
386.34	798.12
386.53	877.70
386.72	725.57
386.92	924.51
387.11	856.64
387.31	861.32
387.50	858.98
387.70	868.34
387.89	922.17
388.09	840.25
388.28	887.06
388.48	772.38
388.67	905.79
388.86	889.40
389.06	875.36
389.25	968.98
389.45	933.87
389.64	854.30
389.84	922.17
390.03	889.40
390.22	992.39
390.42	896.43
390.61	908.13
390.81	1034.52
391.00	950.26
391.19	966.64
391.39	929.19
391.58	961.96
391.78	990.05
391.97	1053.24
392.16	1001.75
392.36	997.07
392.55	1043.88
392.75	1083.67
392.94	1001.75
393.13	1067.28
393.33	966.64
393.52	917.49
393.71	1025.15
393.91	1008.77
394.10	1123.46
394.29	997.07
394.49	1057.92
394.68	1011.11
394.88	1067.28
395.07	1107.07
395.26	1069.62
395.46	1137.50
395.65	1207.72
395.84	1071.97
396.04	1130.48
396.23	1053.24
396.42	1167.93
396.62	1191.33
396.81	1053.24
397.00	1170.27
397.19	1086.01
397.39	1125.80
397.58	1207.72
397.77	1123.46
397.97	1186.65
398.16	1263.89
398.35	1235.80
398.55	1217.08
398.74	1203.04
398.93	1291.98
399.12	1275.59
399.32	1287.29
399.51	1235.80
399.70	1373.89
399.90	1289.64
400.09	1268.57
400.28	1366.87
400.47	1263.89
400.67	1364.53
400.86	1341.13
401.05	1430.07
401.24	1324.74
401.44	1399.64
401.63	1420.71
401.82	1355.17
402.01	1373.89
402.21	1488.58
402.40	1322.40
402.59	1425.39
402.78	1331.76
402.97	1376.24
403.17	1455.81
403.36	1401.98
403.55	1364.53
403.74	1586.88
403.93	1577.52
404.13	1575.18
404.32	1586.88
404.51	1509.65
404.70	1547.09
404.89	1570.50
405.09	1666.46
405.28	1570.50
405.47	1647.74
405.66	1614.97
405.85	1586.88
406.05	1568.16
406.24	1689.87
406.43	1645.40
406.62	1650.08
406.81	1671.14
407.00	1689.87
407.20	1696.89
407.39	1671.14
407.58	1827.96
407.77	1806.89
407.96	1743.70
408.15	1837.32
408.34	1816.26
408.54	1937.96
408.73	1856.04
408.92	1785.83
409.11	1757.74
409.30	1872.43
409.49	1898.17
409.68	1879.45
409.87	1923.92
410.07	1942.64
410.26	1870.09
410.45	1991.80
410.64	1874.77
410.83	2015.20
411.02	2057.33
411.21	2101.80
411.40	2036.27
411.59	2125.21
411.78	2127.55
411.98	2022.22
412.17	2092.44
412.36	2157.97
412.55	2246.91
412.74	2279.68
412.93	2176.70
413.12	2174.36
413.31	2434.16
413.50	2204.78
413.69	2408.41
413.88	2253.94
414.07	2312.45
414.26	2392.03
414.45	2401.39
414.64	2502.03
414.83	2525.44
415.02	2551.18
415.22	2431.82
415.41	2576.93
415.60	2626.08
415.79	2672.89
415.98	2682.25
416.17	2609.70
416.36	2567.57
416.55	2609.70
416.74	2743.11
416.93	2649.49
417.12	2651.83
417.31	2754.81
417.50	2715.02
417.69	2785.24
417.88	2803.96
418.07	2708.00
418.26	2719.70
418.45	2743.11
418.64	2902.26
418.83	2864.82
419.02	2822.69
419.21	2946.73
419.39	2949.08
419.58	2925.67
419.77	2925.67
419.96	3084.83
420.15	3007.59
420.34	2920.99
420.53	3021.63
420.72	3218.24
420.91	3042.70
421.10	2963.12
421.29	3115.25
421.48	3087.17
421.67	3143.34
421.86	3218.24
422.05	3227.60
422.24	3119.93
422.43	3192.49
422.61	3119.93
422.80	3164.40
422.99	3243.98
423.18	3133.98
423.37	3246.32
423.56	3166.74
423.75	3199.51
423.94	3220.58
424.13	3091.85
424.32	3068.44
424.50	3286.11
424.69	3283.77
424.88	3431.23
425.07	3339.94
425.26	3316.54
425.45	3344.63
425.64	3232.28
425.83	3286.11
426.01	3375.05
426.20	3251.00
426.39	3356.33
426.58	3204.19
426.77	3290.79
426.96	3382.07
427.15	3384.41
427.33	3372.71
427.52	3389.10
427.71	3440.59
427.90	3456.97
428.09	3358.67
428.28	3552.93
428.46	3463.99
428.65	3550.59
428.84	3578.68
429.03	3684.00
429.22	3669.96
429.40	3524.85
429.59	3588.04
429.78	3452.29
429.97	3454.63
430.16	3684.00
430.34	3618.47
430.53	3707.41
430.72	3644.21
430.91	3599.74
431.10	3749.54
431.28	3726.13
431.47	3840.82
431.66	3782.31
431.85	3660.60
432.03	3796.35
432.22	3904.01
432.41	3885.29
432.60	3808.05
432.79	3763.58
432.97	3948.48
433.16	3896.99
433.35	3885.29
433.54	3885.29
433.72	3969.55
433.91	4018.70
434.10	4004.66
434.28	4004.66
434.47	4086.58
434.66	4007.00
434.85	4046.79
435.03	4088.92
435.22	4016.36
435.41	4201.26
435.59	4231.69
435.78	4135.73
435.97	4135.73
436.16	4269.14
436.34	4058.49
436.53	4292.54
436.72	4365.10
436.90	4133.39
437.09	4273.82
437.28	4166.15
437.46	4156.79
437.65	4341.69
437.84	4477.44
438.02	4381.48
438.21	4540.64
438.40	4344.03
438.58	4624.90
438.77	4587.45
438.96	4519.57
439.14	4615.54
439.33	4667.03
439.52	4762.99
439.70	4655.33
439.89	4758.31
440.08	4681.07
440.26	4762.99
440.45	4746.61
440.63	5004.07
440.82	4945.55
441.01	4856.61
441.19	4905.76
441.38	4922.15
441.57	4933.85
441.75	4945.55
441.94	5273.23
442.12	5231.10
442.31	5217.05
442.50	5100.03
442.68	5090.67
442.87	5341.10
443.05	5179.61
443.24	5341.10
443.43	5235.78
443.61	5392.59
443.80	5275.57
443.98	5291.95
444.17	5186.63
444.35	5191.31
444.54	5320.04
444.73	5240.46
444.91	5203.01
445.10	5287.27
445.28	5401.96
445.47	5397.28
445.65	5327.06
445.84	5399.62
446.02	5465.15
446.21	5418.34
446.39	5399.62
446.58	5441.75
446.77	5479.19
446.95	5315.36
447.14	5352.81
447.32	5638.35
447.51	5397.28
447.69	5350.46
447.88	5416.00
448.06	5427.70
448.25	5535.37
448.43	5444.09
448.62	5465.15
448.80	5507.28
448.99	5753.04
449.17	5687.50
449.36	5500.26
449.54	5640.69
449.73	5600.90
449.91	5755.38
450.10	5666.44
450.28	5795.17
450.46	5891.13
450.65	5795.17
450.83	5802.19
451.02	5982.41
451.20	5926.24
451.39	5769.42
451.57	5853.68
451.76	5748.36
451.94	5870.06
452.13	6057.31
452.31	5973.05
452.49	5888.79
452.68	6008.16
452.86	5907.51
453.05	6071.35
453.23	6019.86
453.42	6010.50
453.60	6026.88
453.78	6031.56
453.97	6143.91
454.15	6031.56
454.34	5933.26
454.52	6090.07
454.70	6289.02
454.89	6244.55
455.07	6328.81
455.26	6326.47
455.44	6349.87
455.62	6251.57
455.81	6324.13
455.99	6457.54
456.17	6303.06
456.36	6506.69
456.54	6597.97
456.73	6619.04
456.91	6738.40
457.09	6726.70
457.28	6682.23
457.46	6485.62
457.64	6614.35
457.83	6626.06
458.01	6724.36
458.19	6658.82
458.38	6635.42
458.56	6761.81
458.74	6813.30
458.93	6927.99
459.11	6881.18
459.29	6792.23
459.48	6883.52
459.66	6754.79
459.84	7000.54
460.03	7042.67
460.21	7019.27
460.39	6927.99
460.57	6972.46
460.76	6939.69
460.94	7133.95
461.12	7133.95
461.31	7204.17
461.49	7140.97
461.67	7045.01
461.85	7297.79
462.04	7243.96
462.22	7691.00
462.40	7368.01
462.59	7162.04
462.77	7513.12
462.95	7307.15
463.13	7421.84
463.32	7454.61
463.50	7637.17
463.68	7442.90
463.86	7417.16
464.05	7269.70
464.23	7398.43
464.41	7414.82
464.59	7410.14
464.78	7796.32
464.96	7627.81
465.14	7527.16
465.32	7585.68
465.50	7566.95
465.69	7709.72
465.87	7564.61
466.05	7873.56
466.23	7606.74
466.41	7733.13
466.60	7812.71
466.78	7840.79
466.96	7705.04
467.14	7730.79
467.32	7686.32
467.51	7915.69
467.69	7740.15
467.87	7920.37
468.05	8004.63
468.23	7955.48
468.41	8056.12
468.60	8086.55
468.78	7992.93
468.96	7950.80
469.14	8133.36
469.32	8109.96
469.50	7906.33
469.69	8079.53
469.87	8376.78
470.05	8236.35
470.23	8334.65
470.41	8344.01
470.59	8465.72
470.77	8444.65
470.95	8650.62
471.14	8549.98
471.32	8341.67
471.50	8620.19
471.68	8706.79
471.86	8716.16
472.04	8388.48
472.22	8809.78
472.40	8636.58
472.58	8762.97
472.77	8985.32
472.95	8826.16
473.13	9266.18
473.31	8894.04
473.49	9125.75
473.67	8973.61
473.85	8898.72
474.03	9158.52
474.21	9270.86
474.39	9430.02
474.57	9287.25
474.75	9221.71
474.93	9320.01
475.12	9315.33
475.30	9469.81
475.48	9516.62
475.66	9490.87
475.84	9635.99
476.02	9685.14
476.20	9614.92
476.38	9701.52
476.56	10090.05
476.74	10104.09
476.92	10050.26
477.10	9832.59
477.28	10068.98
477.46	9989.41
477.64	10270.27
477.82	10300.70
478.00	10455.17
478.18	10693.91
478.36	10628.37
478.54	10810.93
478.72	10663.48
478.90	10764.12
479.08	10888.17
479.26	11033.29
479.44	11066.05
479.62	11145.63
479.80	11335.21
479.98	11410.11
480.16	11800.98
480.34	11477.99
480.52	11470.97
480.70	11599.70
480.88	11470.97
481.06	11971.84
481.24	11822.05
481.41	11850.13
481.59	11969.50
481.77	11955.46
481.95	12156.74
482.13	12280.79
482.31	12311.22
482.49	12453.99
482.67	12332.28
482.85	12732.51
483.03	12830.82
483.21	12821.45
483.39	12943.16
483.57	12692.73
483.74	13022.74
483.92	13139.77
484.10	13053.17
484.28	13453.40
484.46	13769.37
484.64	13989.38
484.82	13547.02
485.00	13846.61
485.18	14202.37
485.35	13968.32
485.53	13870.01
485.71	14387.27
485.89	14588.56
486.07	14579.20
486.25	14508.98
486.43	14544.09
486.61	14874.10
486.78	14717.29
486.96	14965.39
487.14	15140.93
487.32	15199.44
487.50	15042.62
487.68	15494.35
487.85	15733.08
488.03	15793.94
488.21	15831.38
488.39	15782.23
488.57	16276.09
488.75	16027.99
488.92	16545.25
489.10	16383.75
489.28	16664.61
489.46	16812.07
489.64	16837.81
489.81	16989.95
489.99	17198.26
490.17	17298.90
490.35	17390.18
490.53	17348.05
490.70	17528.27
490.88	17539.97
491.06	17783.39
491.24	18043.19
491.41	17862.97
491.59	18209.37
491.77	17862.97
491.95	18420.02
492.13	18511.30
492.30	18438.74
492.48	18551.09
492.66	18860.04
492.84	18572.15
493.01	18820.25
493.19	18778.12
493.37	19066.00
493.54	19381.98
493.72	19136.22
493.90	19206.44
494.08	19501.34
494.25	19826.68
494.43	19711.99
494.61	19733.06
494.79	20250.32
494.96	20042.01
495.14	20290.10
495.32	20688.00
495.49	20531.18
495.67	20650.55
495.85	20891.62
496.02	20776.94
496.20	21259.09
496.38	21205.25
496.55	21097.59
496.73	21816.13
496.91	21301.22
497.09	21645.27
497.26	21408.88
497.44	21273.13
497.62	22190.62
497.79	22148.49
497.97	22003.38
498.14	22541.70
498.32	22532.34
498.50	22422.33
498.67	22600.21
498.85	22553.40
499.03	22679.79
499.20	22761.71
499.38	23061.30
499.56	22902.14
499.73	23110.45
499.91	22906.82
500.08	23349.18
500.26	23396.00
500.44	23503.66
500.61	23293.01
500.79	23400.68
500.97	23892.19
501.14	23999.85
501.32	23772.82
501.49	23709.63
501.67	23992.83
501.84	24430.51
502.02	24142.63
502.20	24395.40
502.37	24276.04
502.55	24510.09
502.72	24402.43
502.90	24638.82
503.07	24287.74
503.25	24322.85
503.43	24627.12
503.60	24774.57
503.78	25144.38
503.95	24603.71
504.13	24910.32
504.30	25025.01
504.48	25261.40
504.65	25558.65
504.83	25523.54
505.01	25731.85
505.18	25788.02
505.36	25853.56
505.53	25509.50
505.71	25591.42
505.88	25546.95
506.06	25432.26
506.23	26003.35
506.41	25883.98
506.58	25977.61
506.76	26082.93
506.93	26363.79
507.11	26438.69
507.28	26899.78
507.46	26698.49
507.63	26501.89
507.81	26850.63
507.98	26480.82
508.16	26836.58
508.33	27065.96
508.50	26913.82
508.68	27297.67
508.85	26925.52
509.03	27573.85
509.20	27342.14
509.38	27625.34
509.55	27674.49
509.73	27789.18
509.90	27889.82
510.08	27782.16
510.25	27915.57
510.42	27946.00
510.60	27948.34
510.77	28243.24
510.95	28446.87
511.12	28144.94
511.30	28407.08
511.47	28804.97
511.64	28180.05
511.82	28596.67
511.99	28540.49
512.17	28587.30
512.34	28652.84
512.51	28903.28
512.69	29156.05
512.86	29450.96
513.04	29153.71
513.21	28790.93
513.38	29441.60
513.56	29095.20
513.73	29139.67
513.90	29254.36
514.08	29237.97
514.25	29617.14
514.43	29560.97
514.60	30106.31
514.77	29670.97
514.95	29778.64
515.12	29717.78
515.29	29628.84
515.47	29799.70
515.64	30518.25
515.81	30422.28
515.99	30419.94
516.16	30291.21
516.33	30565.06
516.51	30864.64
516.68	30277.17
516.85	30562.72
517.03	30778.04
517.20	30572.08
517.37	30944.22
517.54	31122.10
517.72	31166.57
517.89	31063.59
518.06	31171.25
518.24	31136.15
518.41	31047.21
518.58	31166.57
518.75	31049.55
518.93	31660.43
519.10	31321.05
519.27	31983.42
519.45	31442.76
519.62	31768.09
519.79	31812.56
519.96	31807.88
520.14	32011.51
520.31	31742.35
520.48	32137.90
520.65	32154.28
520.83	32505.36
521.00	32690.26
521.17	32245.56
521.34	32718.35
521.52	32645.79
521.69	32376.63
521.86	32416.42
522.03	32669.20
522.20	32828.35
522.38	32833.04
522.55	33118.58
522.72	33343.27
522.89	32886.87
523.07	33439.23
523.24	33273.06
523.41	33450.94
523.58	32823.67
523.75	33343.27
523.92	33324.55
524.10	33586.69
524.27	33612.43
524.44	33956.49
524.61	34031.39
524.78	33869.89
524.96	33933.09
525.13	34227.99
525.30	34110.97
525.47	34078.20
525.64	34094.58
525.81	34230.33
525.98	34274.80
526.16	33825.42
526.33	34361.40
526.50	34850.58
526.67	34148.42
526.84	34749.93
527.01	34478.43
527.18	34167.14
527.36	35110.38
527.53	34738.23
527.70	34794.40
527.87	35243.79
528.04	34881.00
528.21	35330.39
528.38	34930.16
528.55	35412.31
528.72	35208.68
528.89	35260.17
529.07	35335.07
529.24	35171.23
529.41	35510.61
529.58	35456.78
529.75	35199.32
529.92	35409.96
530.09	35328.05
530.26	35447.41
530.43	35707.21
530.60	35278.89
530.77	35426.35
530.94	35529.33
531.11	35541.03
531.28	35828.92
531.46	35950.63
531.63	36067.66
531.80	36112.13
531.97	36072.34
532.14	36388.31
532.31	36086.38
532.48	36400.01
532.65	36488.95
532.82	36397.67
532.99	36582.57
533.16	36318.09
533.33	36381.29
533.50	36732.37
533.67	36671.51
533.84	36254.90
534.01	36697.26
534.18	36914.93
534.35	36973.44
534.52	36767.48
534.69	37069.40
534.86	37092.81
535.03	36833.01
535.20	36868.12
535.37	37289.42
535.54	37130.26
535.71	36931.31
535.88	37659.22
536.05	37111.53
536.22	37659.22
536.38	37092.81
536.55	37429.85
536.72	37394.74
536.89	37558.58
537.06	36849.39
537.23	37577.30
537.40	37853.48
537.57	37397.08
537.74	37544.53
537.91	37694.33
538.08	37879.23
538.25	37736.46
538.42	37933.06
538.59	38066.47
538.75	37804.33
538.92	37975.19
539.09	38270.10
539.26	38242.01
539.43	38375.42
539.60	38075.84
539.77	38431.60
539.94	39042.48
540.11	38410.53
540.28	38684.37
540.44	38675.01
540.61	38691.40
540.78	38841.19
540.95	38836.51
541.12	38216.27
541.29	38281.80
541.46	38572.03
541.62	38724.16
541.79	38958.22
541.96	38604.80
542.13	38948.85
542.30	38677.35
542.47	39047.16
542.63	39164.18
542.80	39028.43
542.97	39552.71
543.14	39721.23
543.31	39648.68
543.48	39243.76
543.64	39974.01
543.81	39775.06
543.98	39393.56
544.15	39662.72
544.32	39665.06
544.48	40046.57
544.65	39672.08
544.82	39817.19
544.99	39470.79
545.16	39777.40
545.32	39730.59
545.49	40123.80
545.66	40835.33
545.83	40144.87
546.00	40917.25
546.16	39842.94
546.33	39882.73
546.50	39838.26
546.67	40362.54
546.83	40030.18
547.00	40385.94
547.17	40318.07
547.34	40390.62
547.50	40800.22
547.67	40935.97
547.84	40502.97
548.00	40615.32
548.17	40762.77
548.34	41071.72
548.51	41125.55
548.67	40809.58
548.84	40648.08
549.01	40769.79
549.18	40776.81
549.34	40744.05
549.51	41212.15
549.68	41415.78
549.84	40715.96
550.01	40947.67
550.18	41102.15
550.34	41460.25
550.51	41495.36
550.68	40957.03
550.84	41179.39
551.01	41324.50
551.18	41350.24
551.34	41221.52
551.51	41366.63
551.68	41317.48
551.84	41411.10
552.01	41202.79
552.18	41717.71
552.34	41532.81
552.51	41425.14
552.68	41476.63
552.84	42110.92
553.01	41420.46
553.18	41841.76
553.34	41839.42
553.51	41734.09
553.67	41954.10
553.84	42176.45
554.01	41507.06
554.17	42073.47
554.34	42190.50
554.51	42162.41
554.67	42108.58
554.84	42309.86
555.00	42007.94
555.17	41769.20
555.33	42368.38
555.50	42160.07
555.67	42227.95
555.83	42146.03
556.00	42068.79
556.16	42859.89
556.33	42143.69
556.50	42761.59
556.66	42321.57
556.83	42560.30
556.99	43007.34
557.16	42707.76
557.32	42447.96
557.49	42534.56
557.65	42560.30
557.82	42387.10
557.98	42480.72
558.15	42740.52
558.32	42321.57
558.48	42389.44
558.65	42986.28
558.81	43000.32
558.98	42567.32
559.14	42483.06
559.31	42600.09
559.47	42815.42
559.64	42899.68
559.80	42925.42
559.97	43150.12
560.13	42754.57
560.30	42782.65
560.46	43225.01
560.63	43093.94
560.79	43110.33
560.96	43250.76
561.12	43278.85
561.29	43075.22
561.45	43606.52
561.61	43283.53
561.78	43349.06
561.94	43267.14
562.11	43278.85
562.27	43201.61
562.44	43061.18
562.60	43501.20
562.77	43807.81
562.93	43339.70
563.10	43470.77
563.26	43274.16
563.42	43716.53
563.59	43700.14
563.75	43320.98
563.92	43803.13
564.08	43033.09
564.24	43442.68
564.41	43590.14
564.57	43388.85
564.74	43510.56
564.90	43751.63
565.07	43859.30
565.23	43662.69
565.39	43342.04
565.56	43840.57
565.72	43737.59
565.88	43814.83
566.05	43405.23
566.21	43433.32
566.38	43531.62
566.54	43634.61
566.70	43674.40
566.87	43973.98
567.03	43840.57
567.19	43782.06
567.36	43957.60
567.52	43445.02
567.68	44395.28
567.85	44165.91
568.01	43625.25
568.17	44121.44
568.34	43969.30
568.50	44156.55
568.66	43662.69
568.83	43756.32
568.99	43709.50
569.15	44296.98
569.32	43791.42
569.48	43934.20
569.64	44257.19
569.81	44318.04
569.97	44212.72
570.13	43950.58
570.30	43929.51
570.46	44360.17
570.62	44292.30
570.78	44392.94
570.95	44299.32
571.11	44348.47
571.27	44006.75
571.43	44229.10
571.60	44500.61
571.76	44439.75
571.92	44196.34
572.09	44444.43
572.25	44149.53
572.41	44278.25
572.57	43810.15
572.74	44612.95
572.90	44252.51
573.06	44540.39
573.22	44516.99
573.38	44919.56
573.55	44816.58
573.71	44540.39
573.87	44488.90
574.03	44245.49
574.20	44804.88
574.36	44493.58
574.52	44664.44
574.68	44816.58
574.84	44467.84
575.01	44446.77
575.17	44409.32
575.33	44608.27
575.49	44399.96
575.65	44432.73
575.82	44704.23
575.98	44308.68
576.14	44737.00
576.30	44729.98
576.46	45123.19
576.62	44472.52
576.79	44219.74
576.95	44030.16
577.11	44432.73
577.27	44371.88
577.43	44343.79
577.59	44339.11
577.75	44472.52
577.92	44170.59
578.08	44238.47
578.24	44350.81
578.40	45015.52
578.56	44463.16
578.72	44619.97
578.88	44748.70
579.04	44650.40
579.21	44678.49
579.37	44601.25
579.53	44519.33
579.69	44479.54
579.85	44744.02
580.01	44580.18
580.17	44797.85
580.33	44917.22
580.49	44608.27
580.65	44954.67
580.82	44629.34
580.98	44804.88
581.14	44697.21
581.30	44865.73
581.46	44533.37
581.62	44519.33
581.78	44706.57
581.94	44942.97
582.10	44678.49
582.26	44982.76
582.42	45013.18
582.58	44737.00
582.74	44802.53
582.90	44893.82
583.06	44921.90
583.22	44882.11
583.38	44905.52
583.54	44999.14
583.70	44868.07
583.86	44973.39
584.02	44837.64
584.18	45029.57
584.34	45029.57
584.50	44755.72
584.66	45001.48
584.82	44933.60
584.98	45270.64
585.14	45081.06
585.30	44847.00
585.46	45013.18
585.62	44758.06
585.78	44875.09
585.94	44491.24
586.10	44512.31
586.26	44624.65
586.42	44868.07
586.58	44655.08
586.74	45111.49
586.90	45015.52
587.06	45151.27
587.22	44952.33
587.38	45024.89
587.54	44870.41
587.70	45500.01
587.86	44912.54
588.02	44938.29
588.18	45223.83
588.34	44893.82
588.49	44772.11
588.65	44725.30
588.81	45226.17
588.97	45071.70
589.13	44514.65
589.29	45092.76
589.45	45069.36
589.61	45085.74
589.77	45251.92
589.93	45027.23
590.08	45191.06
