SpectraSuite Data File
++++++++++++++++++++++++++++++++++++
Date: Fri Oct 25 10:47:39 EDT 2013
User: price-jones
Dark Spectrum Present: No
Reference Spectrum Present: No
Number of Sampled Component Spectra: 1
Spectrometers: USB2+H05261
Integration Time (usec): 100000 (USB2+H05261)
Spectra Averaged: 1 (USB2+H05261)
Boxcar Smoothing: 0 (USB2+H05261)
Correct for Electrical Dark: No (USB2+H05261)
Strobe/Lamp Enabled: No (USB2+H05261)
Correct for Detector Non-linearity: No (USB2+H05261)
Correct for Stray Light: No (USB2+H05261)
Number of Pixels in Processed Spectrum: 2048
>>>>>Begin Processed Spectral Data<<<<<
365.73	156.82
365.92	156.82
366.12	156.82
366.32	72.56
366.52	35.11
366.72	21.06
366.91	0.00
367.11	102.98
367.31	25.75
367.51	35.11
367.70	37.45
367.90	110.01
368.10	49.15
368.30	0.00
368.49	56.17
368.69	25.75
368.89	65.54
369.09	56.17
369.28	98.30
369.48	95.96
369.68	18.72
369.87	56.17
370.07	65.54
370.27	110.01
370.47	191.92
370.66	327.68
370.86	379.17
371.06	463.43
371.25	425.98
371.45	409.59
371.65	496.19
371.84	442.36
372.04	484.49
372.24	547.69
372.44	514.92
372.63	498.53
372.83	564.07
373.03	545.34
373.22	531.30
373.42	599.18
373.62	510.24
373.81	505.56
374.01	552.37
374.21	575.77
374.40	545.34
374.60	561.73
374.79	594.50
374.99	599.18
375.19	617.90
375.38	557.05
375.58	599.18
375.78	589.82
375.97	587.47
376.17	620.24
376.37	559.39
376.56	547.69
376.76	596.84
376.95	650.67
377.15	566.41
377.35	629.60
377.54	669.39
377.74	650.67
377.93	526.62
378.13	617.90
378.33	566.41
378.52	615.56
378.72	603.86
378.91	599.18
379.11	674.07
379.31	631.94
379.50	667.05
379.70	660.03
379.89	674.07
380.09	664.71
380.28	617.90
380.48	636.63
380.68	580.45
380.87	613.22
381.07	706.84
381.26	770.04
381.46	681.10
381.65	730.25
381.85	678.76
382.04	641.31
382.24	688.12
382.43	716.20
382.63	688.12
382.83	608.54
383.02	739.61
383.22	748.97
383.41	704.50
383.61	688.12
383.80	795.78
384.00	779.40
384.19	779.40
384.39	777.06
384.58	842.59
384.78	774.72
384.97	798.12
385.17	807.48
385.36	763.01
385.56	772.38
385.75	718.54
385.95	746.63
386.14	802.80
386.34	816.85
386.53	770.04
386.72	835.57
386.92	835.57
387.11	877.70
387.31	835.57
387.50	753.65
387.70	807.48
387.89	812.17
388.09	891.74
388.28	816.85
388.48	823.87
388.67	933.87
388.86	805.14
389.06	795.78
389.25	873.02
389.45	922.17
389.64	947.92
389.84	931.53
390.03	971.32
390.22	891.74
390.42	898.77
390.61	994.73
390.81	1022.81
391.00	1050.90
391.19	1001.75
391.39	940.90
391.58	938.55
391.78	987.71
391.97	1013.45
392.16	987.71
392.36	1043.88
392.55	1034.52
392.75	952.60
392.94	992.39
393.13	1006.43
393.33	1015.79
393.52	957.28
393.71	1086.01
393.91	1034.52
394.10	1177.29
394.29	1043.88
394.49	1067.28
394.68	1146.86
394.88	1135.16
395.07	1093.03
395.26	1181.97
395.46	1121.12
395.65	1114.10
395.84	1156.22
396.04	1132.82
396.23	1123.46
396.42	1118.78
396.62	1050.90
396.81	1210.06
397.00	1081.33
397.19	1188.99
397.39	1167.93
397.58	1270.91
397.77	1273.25
397.97	1219.42
398.16	1338.79
398.35	1338.79
398.55	1310.70
398.74	1348.15
398.93	1390.28
399.12	1343.47
399.32	1371.55
399.51	1357.51
399.70	1355.17
399.90	1411.34
400.09	1404.32
400.28	1380.92
400.47	1404.32
400.67	1448.79
400.86	1411.34
401.05	1462.83
401.24	1633.69
401.44	1472.20
401.63	1549.43
401.82	1418.36
402.01	1458.15
402.21	1514.33
402.40	1629.01
402.59	1535.39
402.78	1511.99
402.97	1563.48
403.17	1624.33
403.36	1617.31
403.55	1544.75
403.74	1736.68
403.93	1692.21
404.13	1799.87
404.32	1645.40
404.51	1657.10
404.70	1708.59
404.89	1678.16
405.09	1781.15
405.28	1713.27
405.47	1739.02
405.66	1802.21
405.85	1769.44
406.05	1802.21
406.24	1842.00
406.43	1767.10
406.62	1895.83
406.81	1820.94
407.00	1888.81
407.20	1795.19
407.39	1926.26
407.58	1944.99
407.77	1930.94
407.96	1970.73
408.15	2019.88
408.34	1966.05
408.54	2101.80
408.73	2010.52
408.92	2038.61
409.11	2113.50
409.30	2104.14
409.49	1977.75
409.68	2036.27
409.87	2132.23
410.07	2157.97
410.26	2157.97
410.45	2169.68
410.64	2113.50
410.83	2265.64
411.02	2260.96
411.21	2352.24
411.40	2235.21
411.59	2380.32
411.78	2352.24
411.98	2328.83
412.17	2380.32
412.36	2298.41
412.55	2436.50
412.74	2612.04
412.93	2457.56
413.12	2431.82
413.31	2654.17
413.50	2438.84
413.69	2633.10
413.88	2675.23
414.07	2574.59
414.26	2513.74
414.45	2644.81
414.64	2572.25
414.83	2759.49
415.02	2857.79
415.22	2818.00
415.41	2766.51
415.60	2686.94
415.79	2972.48
415.98	3005.25
416.17	2867.16
416.36	2899.92
416.55	2906.95
416.74	3019.29
416.93	2848.43
417.12	3035.67
417.31	3108.23
417.50	2984.18
417.69	3030.99
417.88	3119.93
418.07	3098.87
418.26	3035.67
418.45	3133.98
418.64	3225.26
418.83	3241.64
419.02	3211.22
419.21	3370.37
419.39	3232.28
419.58	3279.09
419.77	3126.96
419.96	3183.13
420.15	3426.54
420.34	3370.37
420.53	3332.92
420.72	3480.38
420.91	3307.18
421.10	3489.74
421.29	3435.91
421.48	3391.44
421.67	3576.34
421.86	3330.58
422.05	3442.93
422.24	3400.80
422.43	3438.25
422.61	3456.97
422.80	3613.79
422.99	3501.44
423.18	3609.11
423.37	3522.51
423.56	3559.95
423.75	3562.30
423.94	3529.53
424.13	3314.20
424.32	3445.27
424.50	3698.05
424.69	3562.30
424.88	3637.19
425.07	3611.45
425.26	3623.15
425.45	3571.66
425.64	3609.11
425.83	3658.26
426.01	3632.51
426.20	3751.88
426.39	3674.64
426.58	3576.34
426.77	3571.66
426.96	3597.40
427.15	3618.47
427.33	3798.69
427.52	3679.32
427.71	3705.07
427.90	3786.99
428.09	3925.08
428.28	3798.69
428.46	3859.54
428.65	3906.35
428.84	3805.71
429.03	3852.52
429.22	3742.52
429.40	3850.18
429.59	3815.07
429.78	3733.15
429.97	3775.28
430.16	3721.45
430.34	3772.94
430.53	3892.31
430.72	3824.44
430.91	3782.31
431.10	4053.81
431.28	3999.98
431.47	4140.41
431.66	4259.78
431.85	4042.11
432.03	4124.02
432.22	4362.76
432.41	4297.22
432.60	4341.69
432.79	4243.39
432.97	4318.29
433.16	4231.69
433.35	4283.18
433.54	4369.78
433.72	4311.27
433.91	4348.72
434.10	4491.49
434.28	4367.44
434.47	4482.13
434.66	4491.49
434.85	4334.67
435.03	4571.07
435.22	4484.47
435.41	4622.56
435.59	4667.03
435.78	4603.83
435.97	4610.86
436.16	4615.54
436.34	4634.26
436.53	4601.49
436.72	4751.29
436.90	4702.14
437.09	4603.83
437.28	4685.75
437.46	4657.67
437.65	4805.12
437.84	4723.20
438.02	4657.67
438.21	4746.61
438.40	4711.50
438.58	4938.53
438.77	5055.56
438.96	5011.09
439.14	5149.18
439.33	5027.47
439.52	5069.60
439.70	5123.43
439.89	5210.03
440.08	5240.46
440.26	5296.63
440.45	5235.78
440.63	5284.93
440.82	5479.19
441.01	5205.35
441.19	5387.91
441.38	5441.75
441.57	5542.39
441.75	5556.43
441.94	5671.12
442.12	5598.56
442.31	5699.20
442.50	5902.83
442.68	5834.96
442.87	5746.02
443.05	5834.96
443.24	5825.59
443.43	5865.38
443.61	5973.05
443.80	6057.31
443.98	5837.30
444.17	5788.14
444.35	5907.51
444.54	6031.56
444.73	5872.40
444.91	5748.36
445.10	6003.47
445.28	5813.89
445.47	5851.34
445.65	5788.14
445.84	6064.33
446.02	5987.09
446.21	6101.78
446.39	5898.15
446.58	5860.70
446.77	5937.94
446.95	5856.02
447.14	5998.79
447.32	6169.65
447.51	5921.56
447.69	5959.00
447.88	5970.71
448.06	6061.99
448.25	6040.92
448.43	6033.90
448.62	5991.77
448.80	6036.24
448.99	6314.77
449.17	6291.36
449.36	6267.95
449.54	6345.19
449.73	6289.02
449.91	6443.49
450.10	6427.11
450.28	6506.69
450.46	6469.24
450.65	6574.56
450.83	6471.58
451.02	6511.37
451.20	6686.91
451.39	6555.84
451.57	6417.75
451.76	6494.99
451.94	6513.71
452.13	6668.19
452.31	6616.69
452.49	6532.44
452.68	6651.80
452.86	6675.21
453.05	6729.04
453.23	6654.14
453.42	6658.82
453.60	6555.84
453.78	6782.87
453.97	6825.00
454.15	6869.47
454.34	6693.93
454.52	6902.24
454.70	6761.81
454.89	6932.67
455.07	6761.81
455.26	6963.09
455.44	6977.14
455.62	7108.21
455.81	7075.44
455.99	7002.88
456.17	7108.21
456.36	7363.33
456.54	7159.70
456.73	7330.56
456.91	7318.86
457.09	7445.24
457.28	7531.84
457.46	7339.92
457.64	7543.55
457.83	7232.26
458.01	7255.66
458.19	7620.78
458.38	7220.55
458.56	7700.36
458.74	7463.97
458.93	7742.49
459.11	7534.18
459.29	7524.82
459.48	7700.36
459.66	7454.61
459.84	7786.96
460.03	7688.66
460.21	7637.17
460.39	7681.64
460.57	7658.23
460.76	7845.48
460.94	7882.92
461.12	7838.45
461.31	7691.00
461.49	7918.03
461.67	7852.50
461.85	7819.73
462.04	7889.95
462.22	8278.47
462.40	7988.25
462.59	8177.83
462.77	8264.43
462.95	8046.76
463.13	8140.38
463.32	8332.31
463.50	8070.17
463.68	8196.56
463.86	8215.28
464.05	8187.19
464.23	8112.30
464.41	8297.20
464.59	8189.53
464.78	8463.38
464.96	8241.03
465.14	8257.41
465.32	8500.83
465.50	8446.99
465.69	8599.13
465.87	8390.82
466.05	8386.14
466.23	8432.95
466.41	8407.20
466.60	8704.45
466.78	8344.01
466.96	8299.54
467.14	8379.12
467.32	8676.37
467.51	8819.14
467.69	8664.66
467.87	8774.67
468.05	8877.65
468.23	8606.15
468.41	8561.68
468.60	8535.93
468.78	8889.35
468.96	8819.14
469.14	8847.22
469.32	9011.06
469.50	8713.81
469.69	8922.12
469.87	9015.74
470.05	8898.72
470.23	9060.21
470.41	9090.64
470.59	9191.28
470.77	9160.86
470.95	9135.11
471.14	9451.08
471.32	8980.64
471.50	9376.19
471.68	9345.76
471.86	9430.02
472.04	9275.54
472.22	9479.17
472.40	9362.14
472.58	9390.23
472.77	9621.94
472.95	9806.84
473.13	9886.42
473.31	9525.98
473.49	9621.94
473.67	9724.93
473.85	9823.23
474.03	9853.66
474.21	9909.83
474.39	10024.51
474.57	9961.32
474.75	10197.71
474.93	10483.26
475.12	10401.34
475.30	10342.83
475.48	10244.52
475.66	10501.98
475.84	10274.95
476.02	10314.74
476.20	10331.12
476.38	10647.10
476.56	11042.65
476.74	10869.45
476.92	10806.25
477.10	10970.09
477.28	10993.50
477.46	10904.56
477.64	11225.21
477.82	11449.90
478.00	11606.72
478.18	11358.62
478.36	11494.37
478.54	11740.13
478.72	11695.66
478.90	11779.92
479.08	11742.47
479.26	11927.37
479.44	12273.77
479.62	12315.90
479.80	12425.90
479.98	12273.77
480.16	12589.74
480.34	12554.63
480.52	12781.67
480.70	12648.26
480.88	12589.74
481.06	12847.20
481.24	12821.45
481.41	13069.55
481.59	13238.07
481.77	13207.64
481.95	13207.64
482.13	13596.17
482.31	13324.67
482.49	13572.77
482.67	13764.69
482.85	13694.47
483.03	13640.64
483.21	14094.71
483.39	14174.28
483.57	14197.69
483.74	14377.91
483.92	14560.47
484.10	14216.41
484.28	14714.95
484.46	14750.06
484.64	15152.63
484.82	14963.04
485.00	14569.83
485.18	15293.06
485.35	15459.24
485.53	15297.74
485.71	15197.10
485.89	15335.19
486.07	15386.68
486.25	15655.84
486.43	15742.44
486.61	15768.19
486.78	16016.29
486.96	16229.27
487.14	16255.02
487.32	16348.64
487.50	16573.33
487.68	16898.67
487.85	17163.15
488.03	17149.11
488.21	17273.15
488.39	17216.98
488.57	17364.43
488.75	17729.56
488.92	17788.07
489.10	17846.58
489.28	17980.00
489.46	18281.92
489.64	18319.37
489.81	18649.39
489.99	18403.63
490.17	18625.98
490.35	18888.12
490.53	18750.03
490.70	19124.52
490.88	18743.01
491.06	19183.03
491.24	18906.85
491.41	19419.42
491.59	19166.65
491.77	19351.55
491.95	19840.72
492.13	19983.49
492.30	19906.26
492.48	19885.19
492.66	19950.73
492.84	20245.63
493.01	20519.48
493.19	20435.22
493.37	20622.46
493.54	20751.19
493.72	20734.81
493.90	21174.83
494.08	21158.44
494.25	21605.49
494.43	21256.75
494.61	21624.21
494.79	21523.57
494.96	21769.32
495.14	21830.18
495.32	21921.46
495.49	21867.63
495.67	22097.00
495.85	22431.69
496.02	22305.31
496.20	22429.35
496.38	22757.03
496.55	22721.92
496.73	23328.12
496.91	23288.33
497.09	23503.66
497.26	23365.57
497.44	23330.46
497.62	23285.99
497.79	23264.92
497.97	23541.11
498.14	23393.65
498.32	24098.16
498.50	23969.43
498.67	24070.07
498.85	24065.39
499.03	24617.75
499.20	24418.81
499.38	24205.82
499.56	24484.34
499.73	24650.52
499.91	24524.13
500.08	25097.56
500.26	24687.97
500.44	24931.39
500.61	25120.97
500.79	24629.46
500.97	25355.02
501.14	25371.41
501.32	25291.83
501.49	25202.89
501.67	25785.68
501.84	25612.48
502.02	25598.44
502.20	25422.90
502.37	26190.59
502.55	25996.33
502.72	26096.97
502.90	26075.91
503.07	26597.85
503.25	26171.87
503.43	26085.27
503.60	26625.93
503.78	26471.46
503.95	26431.67
504.13	26841.26
504.30	26665.72
504.48	27044.89
504.65	26885.73
504.83	27175.96
505.01	27089.36
505.18	27131.49
505.36	27248.52
505.53	27110.43
505.71	27835.99
505.88	27651.09
506.06	27721.30
506.23	28041.96
506.41	27253.20
506.58	27943.66
506.76	27777.48
506.93	28364.95
507.11	27938.97
507.28	28294.74
507.46	28208.14
507.63	28360.27
507.81	28477.30
507.98	28381.34
508.16	28395.38
508.33	28503.04
508.50	28779.23
508.68	28533.47
508.85	29472.03
509.03	29233.29
509.20	29113.92
509.38	29282.44
509.55	29509.47
509.73	29134.99
509.90	29373.72
510.08	29546.92
510.25	29273.08
510.42	29724.80
510.60	30232.70
510.77	29621.82
510.95	29827.79
511.12	29694.38
511.30	30050.14
511.47	30646.97
511.64	29977.58
511.82	30520.59
511.99	30178.87
512.17	30307.60
512.34	30356.75
512.51	30494.84
512.69	31026.14
512.86	30859.96
513.04	31072.95
513.21	30834.22
513.38	30944.22
513.56	31091.68
513.73	30932.52
513.90	30969.97
514.08	30923.16
514.25	31384.24
514.43	31433.39
514.60	31234.45
514.77	31077.63
514.95	31892.14
515.12	31728.30
515.29	31459.14
515.47	31627.66
515.64	31847.67
515.81	31854.69
515.99	31578.51
516.16	31828.95
516.33	32037.25
516.51	32037.25
516.68	31861.71
516.85	31728.30
517.03	32144.92
517.20	32055.98
517.37	32697.28
517.54	32212.79
517.72	32446.85
517.89	32165.98
518.06	32329.82
518.24	32746.44
518.41	32313.44
518.58	32985.17
518.75	32760.48
518.93	32842.40
519.10	32865.80
519.27	32884.53
519.45	33649.88
519.62	33102.20
519.79	33158.37
519.96	33263.69
520.14	33560.94
520.31	33574.98
520.48	33390.08
520.65	33385.40
520.83	34218.63
521.00	33738.82
521.17	34099.26
521.34	34204.59
521.52	34113.31
521.69	33937.77
521.86	34401.19
522.03	34256.08
522.20	34211.61
522.38	34335.66
522.55	34689.08
522.72	34518.22
522.89	34422.26
523.07	34745.25
523.24	34108.63
523.41	35033.14
523.58	34424.60
523.75	35405.28
523.92	35101.01
524.10	35290.60
524.27	35274.21
524.44	35637.00
524.61	35550.40
524.78	35625.29
524.96	35597.21
525.13	35321.02
525.30	35772.75
525.47	35744.66
525.64	35667.42
525.81	35531.67
525.98	35747.00
526.16	35606.57
526.33	35587.85
526.50	35758.70
526.67	35606.57
526.84	36210.43
527.01	35620.61
527.18	35861.69
527.36	36423.42
527.53	36566.19
527.70	36322.77
527.87	36912.59
528.04	36371.92
528.21	36374.27
528.38	36315.75
528.55	36694.92
528.72	36266.60
528.89	36896.20
529.07	36680.88
529.24	36727.69
529.41	36446.82
529.58	36451.50
529.75	37202.82
529.92	36935.99
530.09	37013.23
530.26	37287.07
530.43	37090.47
530.60	36985.15
530.77	37029.62
530.94	37717.73
531.11	37305.80
531.28	37315.16
531.46	37736.46
531.63	37656.88
531.80	37394.74
531.97	37801.99
532.14	37165.37
532.31	37762.20
532.48	38061.79
532.65	37848.80
532.82	37502.40
532.99	38099.24
533.16	37734.12
533.33	38003.28
533.50	38148.39
533.67	38354.36
533.84	37881.57
534.01	38300.53
534.18	38068.81
534.35	38595.43
534.52	38143.71
534.69	38356.70
534.86	38394.15
535.03	38040.73
535.20	39189.93
535.37	38948.85
535.54	38651.61
535.71	38632.88
535.88	39072.90
536.05	38440.96
536.22	38735.87
536.38	38726.50
536.55	38878.64
536.72	38993.32
536.89	38595.43
537.06	38857.57
537.23	39402.92
537.40	39138.44
537.57	38885.66
537.74	39072.90
537.91	39887.41
538.08	39763.36
538.25	39323.34
538.42	39021.41
538.59	39564.42
538.75	39133.76
538.92	39503.56
539.09	39643.99
539.26	39302.28
539.43	39358.45
539.60	39592.50
539.77	39505.90
539.94	39852.30
540.11	39482.50
540.28	39297.59
540.44	39798.47
540.61	39695.49
540.78	39491.86
540.95	39412.28
541.12	40119.12
541.29	39601.86
541.46	39763.36
541.62	39782.09
541.79	39798.47
541.96	39896.77
542.13	39896.77
542.30	39887.41
542.47	40428.07
542.63	40032.52
542.80	40306.37
542.97	40790.86
543.14	40896.18
543.31	40800.22
543.48	40486.59
543.64	41242.58
543.81	41448.55
543.98	40730.00
544.15	40669.15
544.32	40982.78
544.48	41095.13
544.65	41277.69
544.82	41221.52
544.99	40861.07
545.16	41273.01
545.32	40964.06
545.49	41265.99
545.66	41048.32
545.83	41268.33
546.00	41177.04
546.16	41289.39
546.33	41181.73
546.50	40854.05
546.67	41497.70
546.83	41045.97
547.00	41291.73
547.17	41425.14
547.34	41137.26
547.50	41516.42
547.67	42281.78
547.84	41153.64
548.00	41904.95
548.17	41879.21
548.34	42068.79
548.51	42054.75
548.67	41825.37
548.84	41450.89
549.01	42139.00
549.18	42106.24
549.34	42202.20
549.51	42253.69
549.68	42094.53
549.84	42047.72
550.01	42000.91
550.18	42014.96
550.34	42014.96
550.51	41951.76
550.68	42078.15
550.84	41579.62
551.01	42534.56
551.18	42312.20
551.34	42464.34
551.51	42277.10
551.68	41783.24
551.84	42714.78
552.01	42557.96
552.18	42270.08
552.34	42263.05
552.51	42927.77
552.68	42700.73
552.84	42621.16
553.01	43014.37
553.18	42499.45
553.34	42770.95
553.51	42841.17
553.67	42176.45
553.84	42820.10
554.01	43138.41
554.17	43131.39
554.34	43051.81
554.51	43033.09
554.67	43093.94
554.84	43171.18
555.00	43192.25
555.17	42885.64
555.33	43047.13
555.50	43103.31
555.67	42789.67
555.83	43407.58
556.00	43337.36
556.16	43758.66
556.33	43468.43
556.50	43285.87
556.66	43627.59
556.83	43119.69
556.99	43468.43
557.16	43896.75
557.32	43548.01
557.49	43232.04
557.65	43182.88
557.82	43384.17
557.98	43225.01
558.15	43358.42
558.32	43515.24
558.48	43344.38
558.65	43758.66
558.81	43889.73
558.98	43569.07
559.14	44076.97
559.31	43672.06
559.47	43667.37
559.64	43910.79
559.80	44100.37
559.97	44048.88
560.13	43470.77
560.30	43529.28
560.46	43578.43
560.63	43377.15
560.79	43959.94
560.96	44126.12
561.12	44069.95
561.29	44016.11
561.45	43882.70
561.61	43281.19
561.78	44116.76
561.94	43761.00
562.11	44371.88
562.27	43882.70
562.44	43826.53
562.60	44121.44
562.77	44121.44
562.93	43807.81
563.10	44205.70
563.26	44004.41
563.42	44067.61
563.59	43821.85
563.75	44039.52
563.92	44531.03
564.08	44299.32
564.24	43985.69
564.41	44547.42
564.57	44025.48
564.74	44196.34
564.90	44465.50
565.07	44540.39
565.23	44332.09
565.39	44435.07
565.56	44561.46
565.72	44292.30
565.88	44385.92
566.05	44053.56
566.21	44325.07
566.38	43840.57
566.54	44268.89
566.70	44381.24
566.87	44570.82
567.03	44601.25
567.19	44617.63
567.36	44493.58
567.52	43817.17
567.68	44870.41
567.85	44423.37
568.01	44603.59
568.17	44402.30
568.34	44568.48
568.50	44687.85
568.66	43988.03
568.83	44540.39
568.99	44004.41
569.15	44547.42
569.32	43803.13
569.48	44273.57
569.64	44769.77
569.81	44751.04
569.97	44320.38
570.13	44327.41
570.30	44362.51
570.46	44201.02
570.62	44224.42
570.78	44243.15
570.95	44498.26
571.11	44404.64
571.27	44652.74
571.43	44121.44
571.60	44641.04
571.76	44577.84
571.92	44425.71
572.09	44687.85
572.25	44624.65
572.41	44624.65
572.57	44769.77
572.74	45235.53
572.90	44797.85
573.06	44296.98
573.22	44816.58
573.38	44676.15
573.55	44659.76
573.71	45027.23
573.87	44779.13
574.03	44519.33
574.20	44236.12
574.36	44460.82
574.52	45055.31
574.68	44528.69
574.84	45020.20
575.01	44638.70
575.17	44514.65
575.33	44638.70
575.49	44584.86
575.65	45240.21
575.82	45022.54
575.98	44809.56
576.14	45088.08
576.30	44741.68
576.46	44818.92
576.62	44587.21
576.79	44610.61
576.95	44212.72
577.11	44538.05
577.27	44456.14
577.43	44924.24
577.59	44687.85
577.75	44729.98
577.92	44481.88
578.08	44706.57
578.24	44240.81
578.40	44383.58
578.56	45020.20
578.72	44645.72
578.88	44964.03
579.04	44746.36
579.21	44610.61
579.37	44870.41
579.53	44807.22
579.69	44552.10
579.85	45251.92
580.01	45109.14
580.17	44994.46
580.33	45106.80
580.49	45034.25
580.65	44704.23
580.82	45013.18
580.98	44994.46
581.14	44669.12
581.30	44947.65
581.46	45125.53
581.62	45029.57
581.78	44989.78
581.94	45352.56
582.10	44893.82
582.26	45125.53
582.42	45216.81
582.58	44832.96
582.74	44580.18
582.90	45078.72
583.06	45422.78
583.22	44952.33
583.38	45123.19
583.54	45212.13
583.70	44783.81
583.86	45020.20
584.02	44699.55
584.18	45102.12
584.34	44938.29
584.50	44711.25
584.66	45013.18
584.82	44882.11
584.98	44994.46
585.14	44711.25
585.30	44795.51
585.46	44797.85
585.62	44737.00
585.78	45125.53
585.94	44463.16
586.10	45104.46
586.26	44722.96
586.42	44535.71
586.58	44961.69
586.74	44879.77
586.90	44987.44
587.06	44947.65
587.22	45010.84
587.38	44535.71
587.54	45235.53
587.70	45027.23
587.86	45174.68
588.02	45233.19
588.18	45123.19
588.34	45310.43
588.49	44844.66
588.65	44318.04
588.81	44584.86
588.97	44935.95
589.13	44928.92
589.29	44657.42
589.45	44924.24
589.61	45174.68
589.77	45371.28
589.93	45298.73
590.08	45205.11
590.24	45352.56
