SpectraSuite Data File
++++++++++++++++++++++++++++++++++++
Date: Fri Oct 25 11:24:00 EDT 2013
User: price-jones
Dark Spectrum Present: No
Reference Spectrum Present: No
Number of Sampled Component Spectra: 1
Spectrometers: USB2+H05261
Integration Time (usec): 100000 (USB2+H05261)
Spectra Averaged: 1 (USB2+H05261)
Boxcar Smoothing: 0 (USB2+H05261)
Correct for Electrical Dark: No (USB2+H05261)
Strobe/Lamp Enabled: No (USB2+H05261)
Correct for Detector Non-linearity: No (USB2+H05261)
Correct for Stray Light: No (USB2+H05261)
Number of Pixels in Processed Spectrum: 2048
>>>>>Begin Processed Spectral Data<<<<<
365.73	194.26
365.92	194.26
366.12	194.26
366.32	154.48
366.52	126.39
366.72	217.67
366.91	81.92
367.11	121.71
367.31	149.79
367.51	168.52
367.70	117.03
367.90	166.18
368.10	149.79
368.30	98.30
368.49	180.22
368.69	173.20
368.89	105.32
369.09	110.01
369.28	229.37
369.48	156.82
369.68	173.20
369.87	166.18
370.07	248.10
370.27	201.29
370.47	330.02
370.66	554.71
370.86	596.84
371.06	606.20
371.25	683.44
371.45	631.94
371.65	681.10
371.84	594.50
372.04	650.67
372.24	690.46
372.44	702.16
372.63	653.01
372.83	709.18
373.03	748.97
373.22	706.84
373.42	746.63
373.62	760.67
373.81	828.55
374.01	730.25
374.21	791.10
374.40	826.21
374.60	894.08
374.79	739.61
374.99	746.63
375.19	901.11
375.38	863.66
375.58	863.66
375.78	828.55
375.97	835.57
376.17	940.90
376.37	786.42
376.56	891.74
376.76	847.27
376.95	901.11
377.15	851.96
377.35	788.76
377.54	854.30
377.74	901.11
377.93	863.66
378.13	882.38
378.33	980.68
378.52	957.28
378.72	1046.22
378.91	936.21
379.11	896.43
379.31	933.87
379.50	929.19
379.70	877.70
379.89	1013.45
380.09	957.28
380.28	1034.52
380.48	971.32
380.68	1001.75
380.87	922.17
381.07	1083.67
381.26	1053.24
381.46	971.32
381.65	968.98
381.85	1064.94
382.04	1062.60
382.24	1064.94
382.43	1083.67
382.63	1109.41
382.83	1142.18
383.02	1144.52
383.22	1128.14
383.41	1011.11
383.61	1086.01
383.80	1198.35
384.00	1067.28
384.19	1156.22
384.39	1170.27
384.58	1114.10
384.78	1121.12
384.97	1142.18
385.17	1057.92
385.36	1083.67
385.56	1210.06
385.75	1203.04
385.95	1116.44
386.14	1135.16
386.34	1233.46
386.53	1207.72
386.72	1172.61
386.92	1308.36
387.11	1254.53
387.31	1231.12
387.50	1212.40
387.70	1289.64
387.89	1296.66
388.09	1238.14
388.28	1217.08
388.48	1233.46
388.67	1336.45
388.86	1359.85
389.06	1301.34
389.25	1362.19
389.45	1273.25
389.64	1453.47
389.84	1301.34
390.03	1369.21
390.22	1451.13
390.42	1385.60
390.61	1364.53
390.81	1385.60
391.00	1427.73
391.19	1446.45
391.39	1540.07
391.58	1486.24
391.78	1488.58
391.97	1540.07
392.16	1416.02
392.36	1441.77
392.55	1514.33
392.75	1554.12
392.94	1624.33
393.13	1575.18
393.33	1554.12
393.52	1647.74
393.71	1540.07
393.91	1584.54
394.10	1647.74
394.29	1671.14
394.49	1680.50
394.68	1666.46
394.88	1614.97
395.07	1682.85
395.26	1743.70
395.46	1760.08
395.65	1692.21
395.84	1802.21
396.04	1806.89
396.23	1858.39
396.42	1804.55
396.62	1781.15
396.81	1685.19
397.00	1769.44
397.19	1830.30
397.39	1832.64
397.58	1778.81
397.77	1762.42
397.97	1952.01
398.16	1886.47
398.35	1839.66
398.55	1804.55
398.74	1813.92
398.93	1980.09
399.12	1912.22
399.32	1954.35
399.51	1909.88
399.70	2057.33
399.90	2001.16
400.09	2087.76
400.28	2108.82
400.47	1989.46
400.67	2071.37
400.86	2050.31
401.05	1994.14
401.24	2155.63
401.44	2106.48
401.63	2214.15
401.82	2141.59
402.01	2214.15
402.21	2204.78
402.40	2342.88
402.59	2225.85
402.78	2207.13
402.97	2326.49
403.17	2293.72
403.36	2251.60
403.55	2270.32
403.74	2441.18
403.93	2399.05
404.13	2340.54
404.32	2324.15
404.51	2544.16
404.70	2345.22
404.89	2392.03
405.09	2581.61
405.28	2478.63
405.47	2520.76
405.66	2567.57
405.85	2593.31
406.05	2560.55
406.24	2555.86
406.43	2635.44
406.62	2675.23
406.81	2609.70
407.00	2558.21
407.20	2626.08
407.39	2684.59
407.58	2759.49
407.77	2808.64
407.96	2740.77
408.15	2846.09
408.34	2834.39
408.54	2869.50
408.73	2780.56
408.92	2834.39
409.11	2825.03
409.30	2897.58
409.49	2913.97
409.68	2967.80
409.87	2949.08
410.07	3087.17
410.26	2965.46
410.45	3000.57
410.64	3131.64
410.83	3117.59
411.02	3089.51
411.21	3096.53
411.40	3293.13
411.59	3208.87
411.78	3133.98
411.98	3222.92
412.17	3307.18
412.36	3459.31
412.55	3412.50
412.74	3538.89
412.93	3351.65
413.12	3356.33
413.31	3623.15
413.50	3487.40
413.69	3482.72
413.88	3611.45
414.07	3620.81
414.26	3618.47
414.45	3536.55
414.64	3658.26
414.83	3770.60
415.02	3735.50
415.22	3803.37
415.41	3995.29
415.60	3840.82
415.79	3997.64
415.98	3983.59
416.17	4028.06
416.36	4004.66
416.55	3978.91
416.74	4084.23
416.93	4163.81
417.12	3948.48
417.31	4189.56
417.50	4255.09
417.69	4271.48
417.88	4208.28
418.07	4262.12
418.26	4243.39
418.45	4390.84
418.64	4475.10
418.83	4472.76
419.02	4486.81
419.21	4521.92
419.39	4507.87
419.58	4615.54
419.77	4477.44
419.96	4620.22
420.15	4695.11
420.34	4648.30
420.53	4678.73
420.72	4582.77
420.91	4723.20
421.10	4936.19
421.29	4844.91
421.48	4671.71
421.67	4674.05
421.86	4819.16
422.05	4856.61
422.24	4819.16
422.43	4891.72
422.61	4943.21
422.80	5055.56
422.99	4924.49
423.18	5174.92
423.37	5093.01
423.56	5055.56
423.75	4936.19
423.94	4812.14
424.13	4582.77
424.32	4903.42
424.50	5142.16
424.69	5174.92
424.88	5165.56
425.07	4952.57
425.26	4990.02
425.45	5029.81
425.64	5008.75
425.83	5036.83
426.01	4959.60
426.20	4964.28
426.39	5163.22
426.58	5060.24
426.77	5151.52
426.96	5296.63
427.15	5172.58
427.33	5217.05
427.52	5186.63
427.71	5275.57
427.90	5327.06
428.09	5296.63
428.28	5577.50
428.46	5364.51
428.65	5359.83
428.84	5434.72
429.03	5572.82
429.22	5142.16
429.40	5607.92
429.59	5633.67
429.78	5359.83
429.97	5296.63
430.16	5483.88
430.34	5650.05
430.53	5563.45
430.72	5584.52
430.91	5547.07
431.10	5706.23
431.28	5746.02
431.47	5879.43
431.66	5909.85
431.85	5778.78
432.03	5963.68
432.22	5980.07
432.41	5930.92
432.60	5919.21
432.79	6115.82
432.97	5858.36
433.16	6162.63
433.35	6029.22
433.54	6134.54
433.72	6190.72
433.91	6237.53
434.10	6155.61
434.28	6019.86
434.47	6183.70
434.66	6317.11
434.85	6174.33
435.03	6490.31
435.22	6354.55
435.41	6427.11
435.59	6326.47
435.78	6289.02
435.97	6562.86
436.16	6546.48
436.34	6352.21
436.53	6539.46
436.72	6712.66
436.90	6464.56
437.09	6780.53
437.28	6576.91
437.46	6724.36
437.65	6696.27
437.84	6792.23
438.02	6738.40
438.21	6923.30
438.40	6668.19
438.58	7035.65
438.77	7241.62
438.96	6920.96
439.14	7227.57
439.33	7302.47
439.52	7262.68
439.70	7318.86
439.89	7351.62
440.08	7461.63
440.26	7232.26
440.45	7426.52
440.63	7456.95
440.82	7686.32
441.01	7606.74
441.19	7702.70
441.38	7627.81
441.57	7742.49
441.75	7721.43
441.94	8046.76
442.12	8077.19
442.31	8301.88
442.50	8194.22
442.68	7829.09
442.87	8119.32
443.05	8180.17
443.24	8203.58
443.43	8056.12
443.61	8142.72
443.80	8465.72
443.98	8053.78
444.17	7880.58
444.35	8156.77
444.54	8339.33
444.73	8517.21
444.91	8379.12
445.10	8374.44
445.28	8500.83
445.47	8395.50
445.65	8468.06
445.84	8601.47
446.02	8327.63
446.21	8346.35
446.39	8606.15
446.58	8655.30
446.77	8720.84
446.95	8439.97
447.14	8456.36
447.32	8734.88
447.51	8624.87
447.69	8589.77
447.88	8631.90
448.06	8430.61
448.25	8308.90
448.43	8821.48
448.62	8760.63
448.80	8524.23
448.99	8538.27
449.17	8697.43
449.36	8479.76
449.54	9004.04
449.73	9025.11
449.91	9221.71
450.10	9125.75
450.28	9055.53
450.46	9266.18
450.65	9202.99
450.83	9233.41
451.02	9020.42
451.20	9226.39
451.39	9128.09
451.57	8964.25
451.76	9018.08
451.94	9284.91
452.13	9254.48
452.31	9291.93
452.49	9282.56
452.68	9385.55
452.86	9413.63
453.05	9451.08
453.23	9575.13
453.42	9380.87
453.60	9268.52
453.78	9561.09
453.97	9495.55
454.15	9455.76
454.34	9525.98
454.52	9806.84
454.70	9724.93
454.89	9804.50
455.07	9722.59
455.26	9891.10
455.44	9991.75
455.62	10183.67
455.81	9874.72
455.99	10036.22
456.17	10059.62
456.36	9874.72
456.54	10286.65
456.73	10509.01
456.91	10501.98
457.09	10356.87
457.28	10705.61
457.46	10583.90
457.64	10619.01
457.83	10717.31
458.01	10537.09
458.19	10860.09
458.38	10504.32
458.56	10773.49
458.74	10810.93
458.93	10560.50
459.11	10911.58
459.29	10888.17
459.48	10956.05
459.66	11059.03
459.84	10740.72
460.03	11110.52
460.21	11220.53
460.39	10986.47
460.57	11091.80
460.76	11140.95
460.94	11044.99
461.12	11365.64
461.31	11140.95
461.49	11178.40
461.67	11250.96
461.85	11433.52
462.04	11220.53
462.22	11559.91
462.40	11679.27
462.59	11571.61
462.77	11590.33
462.95	11805.66
463.13	11630.12
463.32	11838.43
463.50	11939.07
463.68	11896.94
463.86	11705.02
464.05	11779.92
464.23	11667.57
464.41	11836.09
464.59	11473.31
464.78	12203.55
464.96	11976.52
465.14	11936.73
465.32	12231.64
465.50	12072.48
465.69	12231.64
465.87	12257.39
466.05	12329.94
466.23	12173.13
466.41	12393.14
466.60	12451.65
466.78	12348.67
466.96	12156.74
467.14	12439.95
467.32	12327.60
467.51	12533.57
467.69	12121.63
467.87	12659.96
468.05	12755.92
468.23	12711.45
468.41	12622.51
468.60	12709.11
468.78	13036.78
468.96	12624.85
469.14	13209.98
469.32	13085.94
469.50	12851.88
469.69	13076.57
469.87	13135.09
470.05	13212.32
470.23	13303.60
470.41	13460.42
470.59	13415.95
470.77	13392.55
470.95	13212.32
471.14	13640.64
471.32	13310.63
471.50	13881.72
471.68	13788.10
471.86	13507.23
472.04	13720.22
472.22	14230.46
472.40	13996.40
472.58	14047.90
472.77	14113.43
472.95	14230.46
473.13	14689.20
473.31	13977.68
473.49	14300.67
473.67	14214.07
473.85	14317.06
474.03	14647.07
474.21	14642.39
474.39	14829.63
474.57	14728.99
474.75	14958.36
474.93	14988.79
475.12	15133.90
475.30	15599.67
475.48	14998.15
475.66	15365.62
475.84	15360.94
476.02	15293.06
476.20	15487.32
476.38	15712.02
476.56	16297.15
476.74	16121.61
476.92	16130.97
477.10	15946.07
477.28	16299.49
477.46	16327.58
477.64	16273.74
477.82	16666.95
478.00	16992.29
478.18	16681.00
478.36	17071.87
478.54	17467.42
478.72	17200.60
478.90	17289.54
479.08	17516.57
479.26	17989.36
479.44	17860.63
479.62	17795.09
479.80	18281.92
479.98	18333.42
480.16	18930.25
480.34	18391.93
480.52	18787.48
480.70	18668.11
480.88	18532.36
481.06	18974.72
481.24	19145.58
481.41	19330.48
481.59	19454.53
481.77	19260.27
481.95	19580.92
482.13	20114.56
482.31	19786.89
482.49	20280.74
482.67	20463.30
482.85	20357.98
483.03	20596.71
483.21	20760.55
483.39	21111.63
483.57	21209.93
483.74	21022.69
483.92	21525.91
484.10	21565.70
484.28	22029.12
484.46	22043.17
484.64	22567.45
484.82	22256.15
485.00	22813.20
485.18	22986.40
485.35	23218.11
485.53	23105.77
485.71	23084.70
485.89	23506.00
486.07	23438.12
486.25	23285.99
486.43	24135.60
486.61	24116.88
486.78	24315.83
486.96	24460.94
487.14	24760.53
487.32	24629.46
487.50	25338.64
487.68	25083.52
487.85	25429.92
488.03	25762.28
488.21	26068.89
488.39	25989.31
488.57	26396.56
488.75	26780.41
488.92	26766.37
489.10	27030.85
489.28	26925.52
489.46	27096.38
489.64	27278.94
489.81	27833.65
489.99	27974.08
490.17	27819.61
490.35	28278.35
490.53	28460.91
490.70	28849.44
490.88	28519.43
491.06	29060.09
491.24	29205.20
491.41	29425.22
491.59	29312.87
491.77	29233.29
491.95	30160.14
492.13	30003.33
492.30	30216.32
492.48	30485.48
492.66	30373.13
492.84	30380.15
493.01	31295.30
493.19	31023.80
493.37	31309.35
493.54	31763.41
493.72	32177.68
493.90	31463.82
494.08	31950.65
494.25	32229.18
494.43	32266.63
494.61	32210.45
494.79	32907.93
494.96	33048.36
495.14	32638.77
495.32	33420.51
495.49	33165.39
495.67	33848.83
495.85	34253.74
496.02	33766.91
496.20	34286.51
496.38	34265.44
496.55	34356.72
496.73	35260.17
496.91	34602.48
497.09	35161.87
497.26	35178.25
497.44	35311.66
497.62	35386.56
497.79	35833.60
497.97	35889.77
498.14	36229.15
498.32	36720.66
498.50	36596.62
498.67	37081.11
498.85	36638.75
499.03	36781.52
499.20	36715.98
499.38	37123.24
499.56	37347.93
499.73	37488.36
499.91	37521.13
500.08	37914.34
500.26	38061.79
500.44	38450.32
500.61	38361.38
500.79	38031.36
500.97	38234.99
501.14	38911.41
501.32	38859.91
501.49	38911.41
501.67	38962.90
501.84	39250.78
502.02	38897.36
502.20	39309.30
502.37	39770.38
502.55	39590.16
502.72	40257.21
502.90	40343.81
503.07	39835.92
503.25	40460.84
503.43	39484.84
503.60	40444.46
503.78	40332.11
503.95	40498.29
504.13	41106.83
504.30	41008.53
504.48	40311.05
504.65	41097.47
504.83	41338.54
505.01	41467.27
505.18	41523.44
505.36	41944.74
505.53	41443.87
505.71	41502.38
505.88	42019.64
506.06	41734.09
506.23	42225.60
506.41	42232.63
506.58	42237.31
506.76	42265.39
506.93	42895.00
507.11	42962.87
507.28	43044.79
507.46	42691.37
507.63	43491.83
507.81	43339.70
507.98	43342.04
508.16	43182.88
508.33	43421.62
508.50	43779.72
508.68	43831.21
508.85	43988.03
509.03	43871.00
509.20	44304.00
509.38	44458.48
509.55	44776.79
509.73	44760.40
509.90	44879.77
510.08	44512.31
510.25	45001.48
510.42	45270.64
510.60	45511.72
510.77	45329.16
510.95	45640.45
511.12	45230.85
511.30	45715.34
511.47	45635.77
511.64	45879.18
511.82	46218.56
511.99	46138.98
512.17	45858.12
512.34	46447.93
512.51	46703.05
512.69	46534.53
512.86	46749.86
513.04	46906.68
513.21	46862.21
513.38	46948.81
513.56	46667.94
513.73	47016.68
513.90	47063.49
514.08	47388.83
514.25	47152.43
514.43	47749.27
514.60	47620.54
514.77	47805.44
514.95	47917.79
515.12	47971.62
515.29	47840.55
515.47	48507.60
515.64	48617.61
515.81	48051.20
515.99	48472.49
516.16	48615.27
516.33	48622.29
516.51	49235.51
516.68	48919.54
516.85	48505.26
517.03	49055.29
517.20	49315.09
517.37	49408.71
517.54	48858.68
517.72	49406.37
517.89	49422.75
518.06	49427.43
518.24	49619.36
518.41	49502.33
518.58	49923.63
518.75	49572.55
518.93	49893.20
519.10	49605.31
519.27	50284.07
519.45	49932.99
519.62	49858.09
519.79	50656.21
519.96	50040.65
520.14	50438.54
520.31	50384.71
520.48	50901.97
520.65	50824.73
520.83	50937.08
521.00	51194.54
521.17	50672.60
521.34	50937.08
521.52	51079.85
521.69	51215.60
521.86	51576.04
522.03	51253.05
522.20	51578.39
522.38	51723.50
522.55	51901.38
522.72	51814.78
522.89	51554.98
523.07	51877.97
523.24	51987.98
523.41	52081.60
523.58	51739.88
523.75	52161.18
523.92	52032.45
524.10	52177.56
524.27	52495.88
524.44	52135.43
524.61	52371.83
524.78	52460.77
524.96	52664.39
525.13	52645.67
525.30	52690.14
525.47	52788.44
525.64	52762.70
525.81	52786.10
525.98	52914.83
526.16	52666.73
526.33	52671.42
526.50	53134.84
526.67	53118.46
526.84	53495.28
527.01	53104.41
527.18	53244.85
527.36	53219.10
527.53	53277.61
527.70	53649.76
527.87	53511.67
528.04	53654.44
528.21	53759.76
528.38	53457.84
528.55	53827.64
528.72	53408.68
528.89	53602.95
529.07	53478.90
529.24	53703.59
529.41	53813.60
529.58	53771.47
529.75	53666.14
529.92	54026.59
530.09	54049.99
530.26	54099.14
530.43	54155.32
530.60	53822.96
530.77	54045.31
530.94	54478.31
531.11	54216.17
531.28	54412.77
531.46	54258.30
531.63	54459.58
531.80	54557.89
531.97	54532.14
532.14	54653.85
532.31	54574.27
532.48	54899.61
532.65	55084.51
532.82	54590.66
532.99	55047.06
533.16	54593.00
533.33	54946.42
533.50	55157.06
533.67	54834.07
533.84	55161.75
534.01	55147.70
534.18	54894.92
534.35	55564.32
534.52	55206.22
534.69	55327.92
534.86	55468.36
535.03	55456.65
535.20	55489.42
535.37	55941.14
535.54	55660.28
535.71	55550.27
535.88	55536.23
536.05	55632.19
536.22	55798.37
536.38	55891.99
536.55	55931.78
536.72	55824.12
536.89	55480.06
537.06	55955.19
537.23	55976.25
537.40	55819.44
537.57	55903.70
537.74	56097.96
537.91	56095.62
538.08	56142.43
538.25	56044.13
538.42	56240.73
538.59	56397.55
538.75	56186.90
538.92	56229.03
539.09	56467.76
539.26	56402.23
539.43	56348.40
539.60	56378.82
539.77	56488.83
539.94	56502.87
540.11	56563.73
540.28	56535.64
540.44	56502.87
540.61	56664.37
540.78	56645.65
540.95	56662.03
541.12	56348.40
541.29	56647.99
541.46	56793.10
541.62	56959.28
541.79	56774.37
541.96	56399.89
542.13	56685.43
542.30	56860.97
542.47	57080.98
542.63	56938.21
542.80	57003.75
542.97	57141.84
543.14	57399.30
543.31	57406.32
543.48	57469.51
543.64	57560.79
543.81	57591.22
543.98	57666.12
544.15	57464.83
544.32	57815.91
544.48	57689.52
544.65	57427.38
544.82	57574.84
544.99	57469.51
545.16	57635.69
545.32	57708.25
545.49	58028.90
545.66	57755.06
545.83	57918.90
546.00	57893.15
546.16	57631.01
546.33	57790.17
546.50	57556.11
546.67	57769.10
546.83	57457.81
547.00	58101.46
547.17	57949.32
547.34	57869.75
547.50	58059.33
547.67	58492.33
547.84	58094.44
548.00	58099.12
548.17	58354.24
548.34	58319.13
548.51	58436.16
548.67	58513.39
548.84	58248.91
549.01	58284.02
549.18	58265.30
549.34	58253.59
549.51	58382.32
549.68	58667.87
549.84	58445.52
550.01	58768.51
550.18	58436.16
550.34	58464.24
550.51	58571.91
550.68	58733.40
550.84	58466.58
551.01	58724.04
551.18	58756.81
551.34	58698.30
551.51	58864.47
551.68	58721.70
551.84	58894.90
552.01	58684.25
552.18	58820.00
552.34	58511.05
552.51	58759.15
552.68	58836.39
552.84	58773.19
553.01	59007.25
553.18	59056.40
553.34	59072.78
553.51	59051.72
553.67	58997.88
553.84	59365.35
554.01	59241.30
554.17	59311.52
554.34	59222.58
554.51	59196.83
554.67	59203.85
554.84	59091.51
555.00	59164.06
555.17	59152.36
555.33	59414.50
555.50	59288.11
555.67	59318.54
555.83	59260.02
556.00	59227.26
556.16	59564.29
556.33	59568.97
556.50	59304.49
556.66	59505.78
556.83	59377.05
556.99	59512.80
557.16	59793.67
557.32	59833.46
557.49	59587.70
557.65	59552.59
557.82	59578.34
557.98	59442.59
558.15	59590.04
558.32	59718.77
558.48	59695.36
558.65	59613.44
558.81	59723.45
558.98	59751.54
559.14	59592.38
559.31	59891.97
559.47	59737.49
559.64	59767.92
559.80	59917.71
559.97	59973.89
560.13	59655.57
560.30	59819.41
560.46	59973.89
560.63	60023.04
560.79	60044.10
560.96	60147.09
561.12	59824.09
561.29	60142.41
561.45	59978.57
561.61	60001.97
561.78	60123.68
561.94	59781.96
562.11	59943.46
562.27	60097.94
562.44	60149.43
562.60	60278.16
562.77	60100.28
562.93	60126.02
563.10	60430.29
563.26	60041.76
563.42	60236.03
563.59	60229.01
563.75	60137.72
563.92	60126.02
564.08	60243.05
564.24	60233.69
564.41	60214.96
564.57	60322.63
564.74	60236.03
564.90	60254.75
565.07	60273.48
565.23	60397.52
565.39	60484.12
565.56	60308.58
565.72	60186.88
565.88	60449.02
566.05	60331.99
566.21	60371.78
566.38	60498.17
566.54	60474.76
566.70	60275.82
566.87	60509.87
567.03	60470.08
567.19	60561.36
567.36	60654.98
567.52	60537.96
567.68	60594.13
567.85	60556.68
568.01	60502.85
568.17	60537.96
568.34	60706.47
568.50	60549.66
568.66	60523.91
568.83	60729.88
568.99	60453.70
569.15	60521.57
569.32	60629.24
569.48	60474.76
569.64	60839.89
569.81	60694.77
569.97	60514.55
570.13	60608.17
570.30	60624.56
570.46	60692.43
570.62	60823.50
570.78	60580.09
570.95	60692.43
571.11	60853.93
571.27	60645.62
571.43	60605.83
571.60	60896.06
571.76	60706.47
571.92	60734.56
572.09	60729.88
572.25	60701.79
572.41	60807.12
572.57	60823.50
572.74	60891.38
572.90	60657.32
573.06	60690.09
573.22	60800.10
573.38	60711.16
573.55	60959.25
573.71	60896.06
573.87	60842.23
574.03	60889.04
574.20	61057.56
574.36	60790.73
574.52	61017.77
574.68	60942.87
574.84	60933.51
575.01	60919.46
575.17	60713.50
575.33	60882.02
575.49	60704.13
575.65	60877.33
575.82	60882.02
575.98	60921.80
576.14	61132.45
576.30	60963.93
576.46	60879.67
576.62	61003.72
576.79	60856.27
576.95	60772.01
577.11	60814.14
577.27	61104.37
577.43	60982.66
577.59	60872.65
577.75	60837.54
577.92	60872.65
578.08	61069.26
578.24	60907.76
578.40	61179.26
578.56	61132.45
578.72	60867.97
578.88	61289.27
579.04	61275.22
579.21	61109.05
579.37	60989.68
579.53	61209.69
579.69	60779.03
579.85	60940.53
580.01	61048.19
580.17	60851.59
580.33	60961.59
580.49	61144.16
580.65	61085.64
580.82	61022.45
580.98	60921.80
581.14	60963.93
581.30	61228.41
581.46	61038.83
581.62	61167.56
581.78	60982.66
581.94	61190.97
582.10	61190.97
582.26	60952.23
582.42	61118.41
582.58	61102.03
582.74	61158.20
582.90	61090.32
583.06	61197.99
583.22	60783.71
583.38	61031.81
583.54	61214.37
583.70	61127.77
583.86	61261.18
584.02	61155.86
584.18	61132.45
584.34	60928.83
584.50	61179.26
584.66	61034.15
584.82	60823.50
584.98	61462.47
585.14	61102.03
585.30	61226.07
585.46	61076.28
585.62	61174.58
585.78	61169.90
585.94	61052.87
586.10	61230.75
586.26	61134.79
586.42	61193.31
586.58	61160.54
586.74	61303.31
586.90	61209.69
587.06	61190.97
587.22	61181.60
587.38	61256.50
587.54	61483.53
587.70	61315.01
587.86	61233.10
588.02	61216.71
588.18	61310.33
588.34	61212.03
588.49	61141.81
