SpectraSuite Data File
++++++++++++++++++++++++++++++++++++
Date: Fri Oct 25 10:44:48 EDT 2013
User: price-jones
Dark Spectrum Present: No
Reference Spectrum Present: No
Number of Sampled Component Spectra: 1
Spectrometers: USB2+H05261
Integration Time (usec): 100000 (USB2+H05261)
Spectra Averaged: 1 (USB2+H05261)
Boxcar Smoothing: 0 (USB2+H05261)
Correct for Electrical Dark: No (USB2+H05261)
Strobe/Lamp Enabled: No (USB2+H05261)
Correct for Detector Non-linearity: No (USB2+H05261)
Correct for Stray Light: No (USB2+H05261)
Number of Pixels in Processed Spectrum: 2048
>>>>>Begin Processed Spectral Data<<<<<
365.73	117.03
365.92	117.03
366.12	117.03
366.32	4.68
366.52	60.85
366.72	131.07
366.91	39.79
367.11	0.00
367.31	2.34
367.51	0.00
367.70	131.07
367.90	72.56
368.10	0.00
368.30	0.00
368.49	0.00
368.69	49.15
368.89	72.56
369.09	23.41
369.28	9.36
369.48	67.88
369.68	154.48
369.87	117.03
370.07	70.22
370.27	112.35
370.47	222.35
370.66	266.82
370.86	428.32
371.06	465.77
371.25	451.72
371.45	458.74
371.65	472.79
371.84	402.57
372.04	538.32
372.24	468.11
372.44	428.32
372.63	498.53
372.83	472.79
373.03	512.58
373.22	512.58
373.42	475.13
373.62	493.85
373.81	554.71
374.01	613.22
374.21	517.26
374.40	521.94
374.60	535.98
374.79	592.16
374.99	489.17
375.19	550.03
375.38	587.47
375.58	559.39
375.78	526.62
375.97	613.22
376.17	528.96
376.37	592.16
376.56	547.69
376.76	554.71
376.95	517.26
377.15	571.09
377.35	531.30
377.54	613.22
377.74	550.03
377.93	620.24
378.13	573.43
378.33	575.77
378.52	594.50
378.72	578.11
378.91	601.52
379.11	575.77
379.31	664.71
379.50	641.31
379.70	709.18
379.89	643.65
380.09	690.46
380.28	624.92
380.48	606.20
380.68	662.37
380.87	643.65
381.07	655.35
381.26	727.91
381.46	641.31
381.65	695.14
381.85	709.18
382.04	716.20
382.24	704.50
382.43	547.69
382.63	636.63
382.83	758.33
383.02	669.39
383.22	601.52
383.41	723.23
383.61	657.69
383.80	688.12
384.00	767.70
384.19	784.08
384.39	657.69
384.58	791.10
384.78	760.67
384.97	678.76
385.17	683.44
385.36	751.31
385.56	713.86
385.75	772.38
385.95	702.16
386.14	858.98
386.34	772.38
386.53	798.12
386.72	828.55
386.92	828.55
387.11	844.93
387.31	816.85
387.50	737.27
387.70	734.93
387.89	763.01
388.09	866.00
388.28	760.67
388.48	767.70
388.67	840.25
388.86	816.85
389.06	901.11
389.25	912.81
389.45	875.36
389.64	870.68
389.84	870.68
390.03	837.91
390.22	924.51
390.42	917.49
390.61	844.93
390.81	884.72
391.00	1013.45
391.19	910.47
391.39	954.94
391.58	912.81
391.78	851.96
391.97	976.00
392.16	917.49
392.36	1050.90
392.55	987.71
392.75	987.71
392.94	898.77
393.13	926.85
393.33	952.60
393.52	943.24
393.71	936.21
393.91	1109.41
394.10	999.41
394.29	992.39
394.49	1055.58
394.68	1020.47
394.88	1144.52
395.07	1123.46
395.26	1142.18
395.46	1146.86
395.65	1266.23
395.84	1210.06
396.04	1156.22
396.23	1057.92
396.42	1123.46
396.62	1139.84
396.81	1139.84
397.00	1090.69
397.19	1086.01
397.39	1198.35
397.58	1214.74
397.77	1259.21
397.97	1146.86
398.16	1228.78
398.35	1299.00
398.55	1313.04
398.74	1191.33
398.93	1341.13
399.12	1268.57
399.32	1249.85
399.51	1289.64
399.70	1476.88
399.90	1301.34
400.09	1343.47
400.28	1343.47
400.47	1383.26
400.67	1519.01
400.86	1448.79
401.05	1577.52
401.24	1432.41
401.44	1451.13
401.63	1469.86
401.82	1434.75
402.01	1507.30
402.21	1493.26
402.40	1516.67
402.59	1530.71
402.78	1519.01
402.97	1551.78
403.17	1612.63
403.36	1603.27
403.55	1547.09
403.74	1640.72
403.93	1584.54
404.13	1638.38
404.32	1682.85
404.51	1589.22
404.70	1760.08
404.89	1706.25
405.09	1750.72
405.28	1682.85
405.47	1755.40
405.66	1771.79
405.85	1785.83
406.05	1792.85
406.24	1799.87
406.43	1806.89
406.62	1893.49
406.81	1900.52
407.00	1788.17
407.20	1706.25
407.39	1823.28
407.58	1942.64
407.77	1998.82
407.96	1919.24
408.15	2012.86
408.34	1975.41
408.54	2019.88
408.73	1919.24
408.92	2059.67
409.11	2024.56
409.30	2029.24
409.49	1973.07
409.68	2132.23
409.87	2092.44
410.07	2031.58
410.26	2127.55
410.45	2085.42
410.64	2239.89
410.83	2143.93
411.02	2139.25
411.21	2246.91
411.40	2282.02
411.59	2314.79
411.78	2296.07
411.98	2382.67
412.17	2352.24
412.36	2396.71
412.55	2415.43
412.74	2443.52
412.93	2396.71
413.12	2434.16
413.31	2609.70
413.50	2565.23
413.69	2490.33
413.88	2635.44
414.07	2523.10
414.26	2630.76
414.45	2658.85
414.64	2672.89
414.83	2705.66
415.02	2745.45
415.22	2719.70
415.41	2813.32
415.60	2813.32
415.79	2668.21
415.98	2923.33
416.17	2942.05
416.36	2843.75
416.55	2977.16
416.74	2806.30
416.93	2918.65
417.12	3019.29
417.31	2930.35
417.50	2867.16
417.69	3180.79
417.88	3049.72
418.07	3082.49
418.26	3002.91
418.45	3068.44
418.64	3197.17
418.83	3185.47
419.02	3159.72
419.21	3087.17
419.39	3152.70
419.58	3176.11
419.77	3145.68
419.96	3267.39
420.15	3260.37
420.34	3258.03
420.53	3258.03
420.72	3368.03
420.91	3435.91
421.10	3330.58
421.29	3466.33
421.48	3281.43
421.67	3496.76
421.86	3342.28
422.05	3431.23
422.24	3513.14
422.43	3386.76
422.61	3421.86
422.80	3445.27
422.99	3515.48
423.18	3459.31
423.37	3585.70
423.56	3574.00
423.75	3543.57
423.94	3403.14
424.13	3375.05
424.32	3459.31
424.50	3684.00
424.69	3637.19
424.88	3531.87
425.07	3510.80
425.26	3447.61
425.45	3566.98
425.64	3513.14
425.83	3618.47
426.01	3749.54
426.20	3613.79
426.39	3667.62
426.58	3585.70
426.77	3545.91
426.96	3693.37
427.15	3555.27
427.33	3782.31
427.52	3669.96
427.71	3723.79
427.90	3779.97
428.09	3815.07
428.28	3772.94
428.46	3854.86
428.65	3763.58
428.84	3831.46
429.03	4074.87
429.22	3801.03
429.40	3749.54
429.59	3808.05
429.78	3761.24
429.97	3637.19
430.16	3763.58
430.34	3772.94
430.53	3801.03
430.72	3775.28
430.91	3934.44
431.10	3899.33
431.28	4091.26
431.47	4212.96
431.66	4147.43
431.85	4121.68
432.03	4271.48
432.22	4119.34
432.41	4243.39
432.60	4205.94
432.79	4210.62
432.97	4372.12
433.16	4257.43
433.35	4156.79
433.54	4390.84
433.72	4285.52
433.91	4208.28
434.10	4372.12
434.28	4402.55
434.47	4400.21
434.66	4229.35
434.85	4374.46
435.03	4489.15
435.22	4491.49
435.41	4512.55
435.59	4571.07
435.78	4624.90
435.97	4564.04
436.16	4641.28
436.34	4645.96
436.53	4552.34
436.72	4657.67
436.90	4667.03
437.09	4690.43
437.28	4631.92
437.46	4727.88
437.65	4727.88
437.84	4643.62
438.02	4772.35
438.21	4720.86
438.40	4847.25
438.58	4856.61
438.77	4912.78
438.96	4891.72
439.14	5027.47
439.33	5104.71
439.52	5118.75
439.70	5146.84
439.89	5107.05
440.08	5095.35
440.26	5305.99
440.45	5193.65
440.63	5359.83
440.82	5291.95
441.01	5261.52
441.19	5437.06
441.38	5497.92
441.57	5467.49
441.75	5514.30
441.94	5591.54
442.12	5542.39
442.31	5554.09
442.50	5849.00
442.68	5778.78
442.87	5701.54
443.05	5612.60
443.24	5841.98
443.43	5799.85
443.61	5839.64
443.80	5837.30
443.98	5795.17
444.17	5621.97
444.35	5755.38
444.54	5947.30
444.73	5884.11
444.91	5804.53
445.10	5926.24
445.28	5795.17
445.47	5785.80
445.65	5834.96
445.84	5926.24
446.02	5916.87
446.21	6057.31
446.39	5837.30
446.58	6043.26
446.77	5919.21
446.95	5809.21
447.14	6090.07
447.32	6066.67
447.51	6001.13
447.69	5954.32
447.88	6160.29
448.06	6071.35
448.25	6136.88
448.43	6160.29
448.62	5963.68
448.80	6069.01
448.99	6040.92
449.17	6047.94
449.36	6099.44
449.54	6314.77
449.73	6387.32
449.91	6338.17
450.10	6312.42
450.28	6415.41
450.46	6544.14
450.65	6595.63
450.83	6211.78
451.02	6427.11
451.20	6394.34
451.39	6691.59
451.57	6569.88
451.76	6532.44
451.94	6480.94
452.13	6448.18
452.31	6518.39
452.49	6502.01
452.68	6485.62
452.86	6471.58
453.05	6516.05
453.23	6719.68
453.42	6600.31
453.60	6520.73
453.78	6576.91
453.97	6642.44
454.15	6693.93
454.34	6626.06
454.52	6757.13
454.70	6846.07
454.89	6764.15
455.07	6895.22
455.26	7105.87
455.44	6862.45
455.62	6897.56
455.81	6939.69
455.99	6942.03
456.17	7047.35
456.36	7166.72
456.54	7225.23
456.73	7042.67
456.91	7309.49
457.09	7122.25
457.28	7452.27
457.46	7255.66
457.64	7236.94
457.83	7400.77
458.01	7119.91
458.19	7564.61
458.38	7204.17
458.56	7492.05
458.74	7414.82
458.93	7386.73
459.11	7555.25
459.29	7508.44
459.48	7683.98
459.66	7541.21
459.84	7501.42
460.03	7770.58
460.21	7695.68
460.39	7548.23
460.57	7672.28
460.76	7571.63
460.94	7702.70
461.12	7850.16
461.31	7803.35
461.49	7873.56
461.67	7925.05
461.85	8138.04
462.04	8072.51
462.22	7950.80
462.40	8140.38
462.59	7997.61
462.77	8006.97
462.95	8042.08
463.13	8177.83
463.32	8138.04
463.50	8142.72
463.68	8114.64
463.86	8224.64
464.05	8035.06
464.23	8042.08
464.41	8208.26
464.59	7988.25
464.78	8351.03
464.96	8386.14
465.14	8215.28
465.32	8491.46
465.50	8283.16
465.69	8468.06
465.87	8217.62
466.05	8390.82
466.23	8297.20
466.41	8510.19
466.60	8592.11
466.78	8369.76
466.96	8407.20
467.14	8311.24
467.32	8386.14
467.51	8875.31
467.69	8439.97
467.87	8538.27
468.05	8720.84
468.23	8727.86
468.41	8601.47
468.60	8713.81
468.78	8762.97
468.96	8519.55
469.14	8835.52
469.32	8889.35
469.50	8624.87
469.69	8985.32
469.87	8954.89
470.05	8872.97
470.23	9064.89
470.41	9069.58
470.59	9013.40
470.77	9057.87
470.95	9092.98
471.14	9308.31
471.32	9224.05
471.50	9338.74
471.68	9343.42
471.86	9448.74
472.04	9352.78
472.22	9696.84
472.40	9441.72
472.58	9495.55
472.77	9535.34
472.95	9462.79
473.13	9912.17
473.31	9607.90
473.49	9638.33
473.67	9640.67
473.85	9888.76
474.03	10019.83
474.21	9792.80
474.39	10066.64
474.57	10235.16
474.75	10164.95
474.93	10197.71
475.12	10218.78
475.30	10373.25
475.48	10300.70
475.66	10277.29
475.84	10207.08
476.02	10389.64
476.20	10567.52
476.38	10677.52
476.56	10803.91
476.74	10684.55
476.92	10750.08
477.10	10796.89
477.28	11122.23
477.46	10864.77
477.64	11049.67
477.82	11265.00
478.00	11623.10
478.18	11543.52
478.36	11178.40
478.54	11494.37
478.72	11772.89
478.90	11716.72
479.08	11527.14
479.26	11824.39
479.44	11843.11
479.62	12079.50
479.80	12058.44
479.98	11960.14
480.16	12594.42
480.34	12231.64
480.52	12594.42
480.70	12685.70
480.88	12685.70
481.06	12664.64
481.24	12809.75
481.41	12854.22
481.59	12945.50
481.77	13118.70
481.95	13158.49
482.13	13345.73
482.31	13284.88
482.49	13671.07
482.67	13523.62
482.85	13537.66
483.03	13673.41
483.21	14106.41
483.39	14045.55
483.57	14265.57
483.74	14286.63
483.92	14185.99
484.10	14284.29
484.28	14382.59
484.46	14829.63
484.64	15007.52
484.82	14745.38
485.00	14930.28
485.18	15140.93
485.35	15358.60
485.53	14934.96
485.71	15016.88
485.89	15379.66
486.07	15365.62
486.25	15297.74
486.43	15599.67
486.61	15620.74
486.78	16128.63
486.96	15864.15
487.14	16313.53
487.32	16278.43
487.50	16556.95
487.68	16589.72
487.85	16919.73
488.03	16791.00
488.21	17071.87
488.39	17191.23
488.57	17216.98
488.75	17296.56
488.92	17795.09
489.10	17673.39
489.28	17736.58
489.46	18288.95
489.64	18164.90
489.81	18469.17
489.99	18562.79
490.17	18604.92
490.35	18686.84
490.53	18696.20
490.70	19030.90
490.88	18972.38
491.06	19379.64
491.24	19101.11
491.41	18768.76
491.59	18948.98
491.77	19534.11
491.95	19639.44
492.13	19487.30
492.30	19791.57
492.48	19866.47
492.66	19688.59
492.84	19859.45
493.01	20088.82
493.19	20301.81
493.37	20552.24
493.54	20638.84
493.72	20610.76
493.90	20868.22
494.08	20933.75
494.25	21205.25
494.43	21645.27
494.61	21563.36
494.79	21261.43
494.96	21097.59
495.14	21633.57
495.32	21743.58
495.49	22022.10
495.67	22146.15
495.85	22089.98
496.02	22398.93
496.20	22485.53
496.38	22541.70
496.55	22459.78
496.73	22831.93
496.91	22740.64
497.09	23199.39
497.26	23229.82
497.44	22981.72
497.62	23208.75
497.79	23463.87
497.97	23211.09
498.14	23669.84
498.32	23536.43
498.50	23948.36
498.67	24163.69
498.85	24276.04
499.03	24149.65
499.20	24240.93
499.38	24510.09
499.56	24353.27
499.73	24498.39
499.91	24556.90
500.08	24790.95
500.26	24549.88
500.44	24676.27
500.61	24552.22
500.79	24758.19
500.97	25436.94
501.14	25612.48
501.32	25343.32
501.49	25263.74
501.67	25427.58
501.84	25446.30
502.02	25572.69
502.20	25619.50
502.37	25986.97
502.55	25839.51
502.72	25883.98
502.90	26101.65
503.07	26125.06
503.25	26352.09
503.43	26312.30
503.60	26359.11
503.78	26099.31
503.95	26295.92
504.13	26267.83
504.30	26527.63
504.48	26806.16
504.65	26899.78
504.83	26892.76
505.01	26775.73
505.18	27019.14
505.36	27194.68
505.53	27250.86
505.71	27410.01
505.88	27510.66
506.06	27206.39
506.23	27501.29
506.41	27131.49
506.58	27365.54
506.76	27718.96
506.93	27728.33
507.11	27847.69
507.28	27777.48
507.46	27660.45
507.63	28261.97
507.81	28173.03
507.98	28053.66
508.16	28379.00
508.33	28301.76
508.50	28432.83
508.68	28687.95
508.85	28804.97
509.03	28613.05
509.20	29006.26
509.38	29095.20
509.55	29177.12
509.73	28779.23
509.90	29249.67
510.08	29017.96
510.25	28987.53
510.42	29743.53
510.60	29745.87
510.77	29708.42
510.95	29883.96
511.12	29797.36
511.30	29516.50
511.47	30026.73
511.64	30040.78
511.82	30153.12
511.99	30143.76
512.17	29783.32
512.34	29982.26
512.51	30349.73
512.69	30635.27
512.86	30541.65
513.04	31026.14
513.21	30829.54
513.38	30487.82
513.56	30806.13
513.73	30543.99
513.90	30820.17
514.08	30948.90
514.25	30927.84
514.43	30742.94
514.60	31115.08
514.77	31175.94
514.95	31571.49
515.12	31136.15
515.29	31417.01
515.47	31569.15
515.64	32231.52
515.81	31503.61
515.99	31487.23
516.16	31641.70
516.33	31718.94
516.51	31969.38
516.68	31639.36
516.85	31828.95
517.03	31845.33
517.20	32245.56
517.37	32175.34
517.54	32479.61
517.72	32098.11
517.89	31730.64
518.06	32053.64
518.24	32205.77
518.41	32442.17
518.58	32549.83
518.75	32144.92
518.93	32507.70
519.10	32491.32
519.27	32886.87
519.45	32730.05
519.62	32931.34
519.79	33181.77
519.96	33418.17
520.14	33530.51
520.31	33029.64
520.48	33310.50
520.65	33359.66
520.83	33839.47
521.00	33614.77
521.17	33895.64
521.34	33422.85
521.52	33846.49
521.69	34005.64
521.86	33958.83
522.03	33888.62
522.20	34433.96
522.38	34670.36
522.55	34333.32
522.72	34129.69
522.89	34473.75
523.07	34480.77
523.24	34330.98
523.41	35005.05
523.58	34696.10
523.75	35138.46
523.92	35086.97
524.10	35122.08
524.27	34969.94
524.44	35152.51
524.61	35145.48
524.78	35246.13
524.96	35283.58
525.13	35318.68
525.30	35468.48
525.47	35372.52
525.64	35391.24
525.81	35395.92
525.98	35075.27
526.16	35208.68
526.33	35314.00
526.50	35442.73
526.67	35555.08
526.84	35655.72
527.01	35014.41
527.18	36027.87
527.36	36163.62
527.53	35971.69
527.70	36500.65
527.87	36102.76
528.04	36137.87
528.21	36149.57
528.38	36533.42
528.55	36491.29
528.72	36325.11
528.89	36666.83
529.07	36261.92
529.24	36692.58
529.41	36409.37
529.58	36680.88
529.75	36315.75
529.92	36486.61
530.09	36730.03
530.26	36748.75
530.43	36774.50
530.60	36971.10
530.77	36627.04
530.94	37001.53
531.11	37127.92
531.28	37102.17
531.46	37209.84
531.63	37411.12
531.80	37366.65
531.97	37081.11
532.14	37296.44
532.31	37160.69
532.48	37619.43
532.65	37322.18
532.82	37944.76
532.99	37376.01
533.16	37378.36
533.33	37766.88
533.50	37968.17
533.67	37771.57
533.84	37682.62
534.01	38057.11
534.18	37738.80
534.35	38155.41
534.52	38031.36
534.69	38520.54
534.86	38260.74
535.03	38342.66
535.20	38506.49
535.37	38754.59
535.54	38588.41
535.71	38242.01
535.88	38766.29
536.05	38586.07
536.22	38466.70
536.38	38349.68
536.55	38712.46
536.72	38684.37
536.89	38473.73
537.06	38366.06
537.23	38990.98
537.40	38857.57
537.57	38438.62
537.74	38951.20
537.91	38796.72
538.08	39276.53
538.25	38621.18
538.42	38941.83
538.59	39386.54
538.75	38780.34
538.92	39255.46
539.09	39491.86
539.26	38909.07
539.43	39222.70
539.60	39152.48
539.77	39306.96
539.94	39515.26
540.11	39597.18
540.28	39452.07
540.44	39819.53
540.61	39353.77
540.78	39564.42
540.95	39545.69
541.12	39470.79
541.29	39800.81
541.46	39927.20
541.62	39854.64
541.79	39604.20
541.96	39594.84
542.13	40172.96
542.30	40002.10
542.47	40076.99
542.63	39688.46
542.80	40374.24
542.97	40196.36
543.14	41170.02
543.31	40322.75
543.48	40521.69
543.64	40900.86
543.81	40781.49
543.98	40992.14
544.15	40725.32
544.32	40896.18
544.48	41198.11
544.65	41010.87
544.82	40561.48
544.99	40488.93
545.16	40966.40
545.32	41123.21
545.49	41598.34
545.66	41235.56
545.83	41191.09
546.00	41207.47
546.16	41350.24
546.33	41111.51
546.50	40680.85
546.67	41413.44
546.83	40924.27
547.00	41251.94
547.17	41216.83
547.34	41237.90
547.50	41244.92
547.67	41624.09
547.84	41326.84
548.00	42054.75
548.17	41610.04
548.34	41546.85
548.51	42209.22
548.67	41888.57
548.84	41497.70
549.01	41715.37
549.18	41448.55
549.34	41764.52
549.51	41993.89
549.68	41596.00
549.84	41525.78
550.01	41783.24
550.18	41961.12
550.34	41937.72
550.51	41771.54
550.68	41911.97
550.84	41598.34
551.01	42398.80
551.18	41858.14
551.34	42134.32
551.51	41860.48
551.68	42141.35
551.84	42103.90
552.01	41991.55
552.18	42050.06
552.34	42274.76
552.51	42415.19
552.68	42094.53
552.84	42607.11
553.01	42429.23
553.18	42497.11
553.34	42183.48
553.51	42291.14
553.67	42415.19
553.84	43086.92
554.01	42518.17
554.17	42607.11
554.34	42801.38
554.51	43056.50
554.67	42813.08
554.84	42429.23
555.00	42497.11
555.17	42871.59
555.33	42515.83
555.50	42792.01
555.67	42337.95
555.83	42703.07
556.00	43070.54
556.16	43171.18
556.33	43161.82
556.50	42513.49
556.66	43271.82
556.83	42485.40
556.99	43255.44
557.16	43398.21
557.32	43239.06
557.49	42892.66
557.65	42731.16
557.82	42981.60
557.98	43208.63
558.15	43264.80
558.32	43859.30
558.48	43597.16
558.65	43058.84
558.81	43519.92
558.98	42824.78
559.14	43379.49
559.31	43522.26
559.47	43522.26
559.64	43910.79
559.80	43597.16
559.97	43367.79
560.13	43255.44
560.30	42918.40
560.46	43002.66
560.63	43702.48
560.79	43571.41
560.96	44051.22
561.12	43473.11
561.29	43482.47
561.45	43398.21
561.61	44009.09
561.78	43473.11
561.94	43695.46
562.11	43885.04
562.27	43496.52
562.44	43414.60
562.60	43714.19
562.77	43676.74
562.93	43594.82
563.10	43854.62
563.26	43571.41
563.42	43803.13
563.59	43650.99
563.75	43812.49
563.92	43779.72
564.08	43859.30
564.24	43819.51
564.41	43669.72
564.57	44072.29
564.74	43831.21
564.90	43725.89
565.07	43920.15
565.23	44023.14
565.39	43658.01
565.56	44219.74
565.72	43679.08
565.88	44058.24
566.05	44086.33
566.21	44264.21
566.38	44521.67
566.54	43969.30
566.70	44198.68
566.87	44402.30
567.03	44032.50
567.19	44762.75
567.36	44128.46
567.52	43973.98
567.68	44212.72
567.85	43854.62
568.01	44428.05
568.17	44236.12
568.34	43833.55
568.50	43716.53
568.66	43971.64
568.83	44034.84
568.99	43580.78
569.15	43817.17
569.32	43828.87
569.48	43821.85
569.64	44224.42
569.81	44325.07
569.97	44264.21
570.13	44116.76
570.30	44165.91
570.46	43945.90
570.62	43995.05
570.78	43817.17
570.95	44109.74
571.11	44280.60
571.27	44360.17
571.43	43817.17
571.60	44605.93
571.76	43887.39
571.92	43999.73
572.09	44315.70
572.25	44072.29
572.41	44268.89
572.57	44308.68
572.74	44732.32
572.90	44194.00
573.06	44126.12
573.22	44329.75
573.38	44711.25
573.55	44355.49
573.71	44250.17
573.87	44580.18
574.03	44591.89
574.20	44402.30
574.36	44086.33
574.52	44552.10
574.68	44690.19
574.84	44172.93
575.01	43903.77
575.17	44556.78
575.33	43962.28
575.49	44130.80
575.65	45008.50
575.82	44776.79
575.98	44135.48
576.14	44449.11
576.30	44463.16
576.46	44217.40
576.62	44474.86
576.79	44900.84
576.95	44165.91
577.11	44774.45
577.27	44435.07
577.43	44868.07
577.59	44657.42
577.75	44502.95
577.92	44154.21
578.08	44212.72
578.24	44224.42
578.40	44208.04
578.56	44547.42
578.72	44287.62
578.88	44797.85
579.04	44648.06
579.21	44439.75
579.37	44182.29
579.53	44516.99
579.69	43959.94
579.85	44926.58
580.01	44896.16
580.17	44559.12
580.33	44542.74
580.49	44601.25
580.65	44608.27
580.82	44442.09
580.98	44645.72
581.14	44374.22
581.30	44687.85
581.46	44891.48
581.62	44964.03
581.78	44790.83
581.94	44856.37
582.10	44271.23
582.26	44940.63
582.42	44531.03
582.58	44868.07
582.74	44465.50
582.90	44779.13
583.06	44601.25
583.22	44980.42
583.38	44856.37
583.54	44776.79
583.70	45198.09
583.86	44652.74
584.02	44418.69
584.18	44751.04
584.34	44615.29
584.50	44516.99
584.66	44397.62
584.82	44076.97
584.98	44978.07
585.14	44802.53
585.30	44687.85
585.46	44849.35
585.62	44603.59
585.78	44268.89
585.94	43903.77
586.10	44418.69
586.26	44832.96
586.42	44917.22
586.58	45050.63
586.74	44430.39
586.90	44531.03
587.06	44498.26
587.22	44484.22
587.38	44088.67
587.54	44573.16
587.70	44713.59
587.86	44870.41
588.02	44563.80
588.18	45038.93
588.34	44350.81
588.49	44589.55
588.65	43936.54
588.81	44587.21
588.97	44636.36
589.13	44545.08
589.29	44645.72
589.45	44538.05
589.61	44615.29
589.77	44933.60
589.93	44722.96
590.08	45048.29
590.24	44919.56
