SpectraSuite Data File
++++++++++++++++++++++++++++++++++++
Date: Fri Oct 25 11:25:20 EDT 2013
User: price-jones
Dark Spectrum Present: No
Reference Spectrum Present: No
Number of Sampled Component Spectra: 1
Spectrometers: USB2+H05261
Integration Time (usec): 100000 (USB2+H05261)
Spectra Averaged: 1 (USB2+H05261)
Boxcar Smoothing: 0 (USB2+H05261)
Correct for Electrical Dark: No (USB2+H05261)
Strobe/Lamp Enabled: No (USB2+H05261)
Correct for Detector Non-linearity: No (USB2+H05261)
Correct for Stray Light: No (USB2+H05261)
Number of Pixels in Processed Spectrum: 2048
>>>>>Begin Processed Spectral Data<<<<<
365.73	259.80
365.92	259.80
366.12	259.80
366.32	184.90
366.52	154.48
366.72	177.88
366.91	79.58
367.11	117.03
367.31	140.43
367.51	114.69
367.70	194.26
367.90	210.65
368.10	117.03
368.30	114.69
368.49	88.94
368.69	84.26
368.89	168.52
369.09	124.05
369.28	142.77
369.48	91.28
369.68	187.24
369.87	227.03
370.07	198.95
370.27	273.84
370.47	306.61
370.66	535.98
370.86	606.20
371.06	650.67
371.25	655.35
371.45	631.94
371.65	758.33
371.84	683.44
372.04	699.82
372.24	711.52
372.44	692.80
372.63	763.01
372.83	704.50
373.03	676.41
373.22	746.63
373.42	798.12
373.62	767.70
373.81	774.72
374.01	800.46
374.21	772.38
374.40	784.08
374.60	870.68
374.79	816.85
374.99	826.21
375.19	840.25
375.38	877.70
375.58	858.98
375.78	849.61
375.97	868.34
376.17	901.11
376.37	866.00
376.56	849.61
376.76	840.25
376.95	842.59
377.15	873.02
377.35	842.59
377.54	915.15
377.74	866.00
377.93	851.96
378.13	884.72
378.33	980.68
378.52	863.66
378.72	912.81
378.91	875.36
379.11	912.81
379.31	968.98
379.50	929.19
379.70	919.83
379.89	990.05
380.09	933.87
380.28	1018.13
380.48	919.83
380.68	1032.18
380.87	997.07
381.07	1027.50
381.26	1053.24
381.46	933.87
381.65	1013.45
381.85	952.60
382.04	1116.44
382.24	1062.60
382.43	1057.92
382.63	1046.22
382.83	1111.75
383.02	1050.90
383.22	1071.97
383.41	1128.14
383.61	1172.61
383.80	1174.95
384.00	1125.80
384.19	1188.99
384.39	1062.60
384.58	1107.07
384.78	1193.67
384.97	1245.16
385.17	1167.93
385.36	1121.12
385.56	1146.86
385.75	1163.25
385.95	1179.63
386.14	1214.74
386.34	1146.86
386.53	1273.25
386.72	1160.91
386.92	1184.31
387.11	1160.91
387.31	1275.59
387.50	1247.51
387.70	1299.00
387.89	1256.87
388.09	1231.12
388.28	1345.81
388.48	1266.23
388.67	1196.01
388.86	1411.34
389.06	1380.92
389.25	1320.06
389.45	1385.60
389.64	1383.26
389.84	1371.55
390.03	1331.76
390.22	1263.89
390.42	1411.34
390.61	1437.09
390.81	1301.34
391.00	1390.28
391.19	1394.96
391.39	1409.00
391.58	1425.39
391.78	1469.86
391.97	1399.64
392.16	1434.75
392.36	1455.81
392.55	1556.46
392.75	1469.86
392.94	1511.99
393.13	1537.73
393.33	1507.30
393.52	1547.09
393.71	1610.29
393.91	1652.42
394.10	1610.29
394.29	1575.18
394.49	1598.59
394.68	1619.65
394.88	1652.42
395.07	1664.12
395.26	1666.46
395.46	1673.48
395.65	1678.16
395.84	1652.42
396.04	1842.00
396.23	1795.19
396.42	1753.06
396.62	1781.15
396.81	1783.49
397.00	1804.55
397.19	1785.83
397.39	1790.51
397.58	1776.47
397.77	1717.95
397.97	1727.32
398.16	1818.60
398.35	1844.34
398.55	1809.23
398.74	1898.17
398.93	1937.96
399.12	1874.77
399.32	1846.68
399.51	1888.81
399.70	1996.48
399.90	1874.77
400.09	2038.61
400.28	2003.50
400.47	2022.22
400.67	2017.54
400.86	2001.16
401.05	2146.27
401.24	2083.08
401.44	2120.53
401.63	2223.51
401.82	2094.78
402.01	2080.74
402.21	2139.25
402.40	2239.89
402.59	2162.66
402.78	2286.70
402.97	2148.61
403.17	2214.15
403.36	2253.94
403.55	2211.81
403.74	2361.60
403.93	2445.86
404.13	2232.87
404.32	2286.70
404.51	2370.96
404.70	2314.79
404.89	2356.92
405.09	2452.88
405.28	2382.67
405.47	2434.16
405.66	2450.54
405.85	2588.63
406.05	2464.58
406.24	2619.06
406.43	2511.39
406.62	2555.86
406.81	2717.36
407.00	2555.86
407.20	2483.31
407.39	2722.04
407.58	2736.09
407.77	2703.32
407.96	2726.72
408.15	2773.53
408.34	2715.02
408.54	2682.25
408.73	2862.48
408.92	2696.30
409.11	2832.05
409.30	2946.73
409.49	2986.52
409.68	2977.16
409.87	2946.73
410.07	2963.12
410.26	2923.33
410.45	2944.39
410.64	3096.53
410.83	3063.76
411.02	3084.83
411.21	3169.09
411.40	3089.51
411.59	3176.11
411.78	3180.79
411.98	3131.64
412.17	3178.45
412.36	3173.77
412.55	3225.26
412.74	3424.20
412.93	3377.39
413.12	3346.97
413.31	3522.51
413.50	3543.57
413.69	3412.50
413.88	3618.47
414.07	3548.25
414.26	3534.21
414.45	3684.00
414.64	3665.28
414.83	3672.30
415.02	3754.22
415.22	3789.33
415.41	3824.44
415.60	3796.35
415.79	3953.16
415.98	3854.86
416.17	3969.55
416.36	4063.17
416.55	3861.88
416.74	3941.46
416.93	4072.53
417.12	4063.17
417.31	4051.47
417.50	4161.47
417.69	4397.87
417.88	4257.43
418.07	4250.41
418.26	4301.90
418.45	4234.03
418.64	4367.44
418.83	4252.75
419.02	4346.37
419.21	4386.16
419.39	4505.53
419.58	4503.19
419.77	4386.16
419.96	4381.48
420.15	4472.76
420.34	4531.28
420.53	4596.81
420.72	4638.94
420.91	4535.96
421.10	4795.76
421.29	4727.88
421.48	4723.20
421.67	4685.75
421.86	4772.35
422.05	4716.18
422.24	4809.80
422.43	4884.70
422.61	4968.96
422.80	4851.93
422.99	4891.72
423.18	4730.22
423.37	4926.83
423.56	4830.87
423.75	4812.14
423.94	4814.48
424.13	4540.64
424.32	4823.84
424.50	4880.02
424.69	4908.10
424.88	5053.22
425.07	4994.70
425.26	5027.47
425.45	4849.59
425.64	4912.78
425.83	4784.06
426.01	5046.20
426.20	4975.98
426.39	4973.64
426.58	4936.19
426.77	5025.13
426.96	5198.33
427.15	5123.43
427.33	5156.20
427.52	5020.45
427.71	5301.31
427.90	5203.01
428.09	5327.06
428.28	5439.40
428.46	5233.44
428.65	5362.17
428.84	5439.40
429.03	5416.00
429.22	5221.74
429.40	5425.36
429.59	5401.96
429.78	5167.90
429.97	5181.95
430.16	5427.70
430.34	5638.35
430.53	5586.86
430.72	5495.58
430.91	5572.82
431.10	5460.47
431.28	5589.20
431.47	5540.05
431.66	5746.02
431.85	5731.97
432.03	5757.72
432.22	5959.00
432.41	5987.09
432.60	5956.66
432.79	5884.11
432.97	6097.10
433.16	5989.43
433.35	5907.51
433.54	6153.27
433.72	6148.59
433.91	6010.50
434.10	6047.94
434.28	6005.81
434.47	6071.35
434.66	6279.66
434.85	6274.98
435.03	6195.40
435.22	6174.33
435.41	6436.47
435.59	6361.58
435.78	6359.24
435.97	6251.57
436.16	6490.31
436.34	6499.67
436.53	6539.46
436.72	6684.57
436.90	6516.05
437.09	6562.86
437.28	6417.75
437.46	6375.62
437.65	6668.19
437.84	6707.98
438.02	6630.74
438.21	6672.87
438.40	6787.55
438.58	6871.81
438.77	7007.56
438.96	6974.80
439.14	7000.54
439.33	7157.36
439.52	7110.55
439.70	7201.83
439.89	7215.87
440.08	7463.97
440.26	7253.32
440.45	7190.13
440.63	7417.16
440.82	7609.08
441.01	7501.42
441.19	7410.14
441.38	7761.22
441.57	7630.15
441.75	7815.05
441.94	7875.90
442.12	7859.52
442.31	8046.76
442.50	7969.52
442.68	7854.84
442.87	7730.79
443.05	7939.10
443.24	8313.58
443.43	8079.53
443.61	8084.21
443.80	8191.88
443.98	7983.57
444.17	7833.77
444.35	8315.92
444.54	8187.19
444.73	8226.98
444.91	8072.51
445.10	8072.51
445.28	8404.86
445.47	8187.19
445.65	8327.63
445.84	8287.84
446.02	8416.57
446.21	8299.54
446.39	8428.27
446.58	8397.84
446.77	8353.37
446.95	8318.26
447.14	8273.79
447.32	8573.38
447.51	8454.02
447.69	8498.49
447.88	8505.51
448.06	8528.91
448.25	8655.30
448.43	8465.72
448.62	8402.52
448.80	8566.36
448.99	8706.79
449.17	8688.07
449.36	8601.47
449.54	8716.16
449.73	8896.38
449.91	8973.61
450.10	8945.53
450.28	8952.55
450.46	8997.02
450.65	8978.30
450.83	8985.32
451.02	9090.64
451.20	9004.04
451.39	9125.75
451.57	9329.38
451.76	8929.14
451.94	9043.83
452.13	9151.49
452.31	9535.34
452.49	9289.59
452.68	9425.34
452.86	9186.60
453.05	9266.18
453.23	9446.40
453.42	9411.29
453.60	9413.63
453.78	9460.45
453.97	9518.96
454.15	9359.80
454.34	9476.83
454.52	9523.64
454.70	9582.15
454.89	9624.28
455.07	9568.11
455.26	9858.34
455.44	9771.74
455.62	9734.29
455.81	9984.73
455.99	9818.55
456.17	10087.71
456.36	10176.65
456.54	10289.00
456.73	10221.12
456.91	10469.22
457.09	10195.37
457.28	10616.67
457.46	10298.36
457.64	10417.72
457.83	10560.50
458.01	10132.18
458.19	10567.52
458.38	10429.43
458.56	10544.11
458.74	10541.77
458.93	10560.50
459.11	10740.72
459.29	10691.57
459.48	10771.15
459.66	10560.50
459.84	10874.13
460.03	10963.07
460.21	10916.26
460.39	10700.93
460.57	10860.09
460.76	11124.57
460.94	11140.95
461.12	11009.88
461.31	11070.73
461.49	11044.99
461.67	11173.72
461.85	11445.22
462.04	10869.45
462.22	11660.55
462.40	11597.35
462.59	11288.40
462.77	11440.54
462.95	11566.93
463.13	11634.80
463.32	11353.94
463.50	11611.40
463.68	11585.65
463.86	11749.49
464.05	11639.48
464.23	11676.93
464.41	11812.68
464.59	11452.24
464.78	12095.89
464.96	11590.33
465.14	11882.90
465.32	12035.03
465.50	12248.02
465.69	11999.93
465.87	11955.46
466.05	12028.01
466.23	12072.48
466.41	12194.19
466.60	12472.71
466.78	12081.85
466.96	12217.60
467.14	12168.45
467.32	12353.35
467.51	12245.68
467.69	12145.04
467.87	12500.80
468.05	12528.89
468.23	12287.81
468.41	12402.50
468.60	12683.36
468.78	12678.68
468.96	12500.80
469.14	12526.55
469.32	13102.32
469.50	12578.04
469.69	13107.00
469.87	12989.97
470.05	13018.06
470.23	13275.52
470.41	12791.03
470.59	13186.58
470.77	12973.59
470.95	13385.52
471.14	13551.70
471.32	13013.38
471.50	13525.96
471.68	13509.57
471.86	13502.55
472.04	13727.24
472.22	13727.24
472.40	13483.83
472.58	13947.25
472.77	13621.92
472.95	13745.97
473.13	14551.11
473.31	14209.39
473.49	14169.60
473.67	13802.14
473.85	14380.25
474.03	14473.87
474.21	14766.44
474.39	14600.26
474.57	14899.85
474.75	14923.26
474.93	14871.76
475.12	14881.13
475.30	14974.75
475.48	14881.13
475.66	14867.08
475.84	14988.79
476.02	15246.25
476.20	15328.17
476.38	15517.75
476.56	15728.40
476.74	15744.78
476.92	15709.68
477.10	15585.63
477.28	15906.28
477.46	16128.63
477.64	16161.40
477.82	16336.94
478.00	16964.20
478.18	16638.87
478.36	16872.92
478.54	17015.69
478.72	17174.85
478.90	17184.21
479.08	17326.99
479.26	17776.37
479.44	17762.33
479.62	17664.02
479.80	17799.77
479.98	18082.98
480.16	18295.97
480.34	18272.56
480.52	18412.99
480.70	18569.81
480.88	18602.58
481.06	18541.72
481.24	18712.58
481.41	18883.44
481.59	19248.57
481.77	19482.62
481.95	19468.58
482.13	19711.99
482.31	19541.13
482.49	20140.31
482.67	20283.08
482.85	20079.46
483.03	20423.51
483.21	20601.40
483.39	20788.64
483.57	20737.15
483.74	20896.30
483.92	21415.90
484.10	21188.87
484.28	21759.96
484.46	21748.26
484.64	21933.16
484.82	21696.77
485.00	22134.45
485.18	22478.50
485.35	22600.21
485.53	22384.88
485.71	22733.62
485.89	23466.21
486.07	22948.95
486.25	23353.87
486.43	23641.75
486.61	23599.62
486.78	24109.86
486.96	24451.58
487.14	24439.87
487.32	24678.61
487.50	24718.40
487.68	24753.51
487.85	25486.09
488.03	25242.68
488.21	25666.31
488.39	25633.55
488.57	25991.65
488.75	26001.01
488.92	26429.33
489.10	26579.12
489.28	26326.35
489.46	26553.38
489.64	26546.36
489.81	27117.45
489.99	27421.72
490.17	27353.84
490.35	28039.62
490.53	27632.36
490.70	28252.61
490.88	28048.98
491.06	28556.88
491.24	28570.92
491.41	28697.31
491.59	29303.51
491.77	28790.93
491.95	29287.12
492.13	29509.47
492.30	29872.26
492.48	30054.82
492.66	30017.37
492.84	30155.46
493.01	30525.27
493.19	30707.83
493.37	30906.77
493.54	30841.24
493.72	31323.39
493.90	30897.41
494.08	31101.04
494.25	31854.69
494.43	31482.55
494.61	31952.99
494.79	32130.87
494.96	32119.17
495.14	32591.96
495.32	33029.64
495.49	32968.79
495.67	33071.77
495.85	33249.65
496.02	33818.40
496.20	33537.54
496.38	33490.73
496.55	33572.64
496.73	34506.52
496.91	34438.64
497.09	34593.12
497.26	34787.38
497.44	34305.23
497.62	34700.78
497.79	35496.56
497.97	35314.00
498.14	35747.00
498.32	36147.23
498.50	35629.98
498.67	36704.28
498.85	36168.30
499.03	36643.43
499.20	36849.39
499.38	36741.73
499.56	36715.98
499.73	36858.76
499.91	37228.56
500.08	37574.96
500.26	36994.51
500.44	37181.75
500.61	37818.38
500.79	37780.93
500.97	37738.80
501.14	37937.74
501.32	38363.72
501.49	38249.03
501.67	38677.35
501.84	38909.07
502.02	38663.31
502.20	38866.94
502.37	39285.89
502.55	39110.35
502.72	39328.02
502.90	39461.43
503.07	39667.40
503.25	39498.88
503.43	39491.86
503.60	39433.35
503.78	39875.71
503.95	40254.87
504.13	39793.79
504.30	40561.48
504.48	40381.26
504.65	40226.79
504.83	40524.04
505.01	40966.40
505.18	40854.05
505.36	41411.10
505.53	41022.57
505.71	41560.89
505.88	41565.57
506.06	41216.83
506.23	41523.44
506.41	41542.17
506.58	41930.70
506.76	41785.58
506.93	42099.22
507.11	42057.09
507.28	42316.89
507.46	42199.86
507.63	42478.38
507.81	42902.02
507.98	42590.73
508.16	43016.71
508.33	43351.40
508.50	43278.85
508.68	43264.80
508.85	43894.41
509.03	43538.65
509.20	43777.38
509.38	43681.42
509.55	44039.52
509.73	43985.69
509.90	44360.17
510.08	44093.35
510.25	44430.39
510.42	44563.80
510.60	45123.19
510.77	45137.23
510.95	44933.60
511.12	44898.50
511.30	45081.06
511.47	45319.79
511.64	45382.99
511.82	45731.73
511.99	45490.65
512.17	45287.03
512.34	45820.67
512.51	46197.49
512.69	46136.64
512.86	46146.00
513.04	46356.65
513.21	46305.16
513.38	46536.87
513.56	46581.34
513.73	46190.47
513.90	46726.46
514.08	46887.95
514.25	46806.03
514.43	47505.85
514.60	46817.74
514.77	47086.90
514.95	47405.21
515.12	47255.42
515.29	47578.41
515.47	47639.26
515.64	47697.78
515.81	47648.63
515.99	47966.94
516.16	48123.75
516.33	47789.06
516.51	48229.08
516.68	48236.10
516.85	47971.62
517.03	48573.14
517.20	48570.80
517.37	48491.22
517.54	48821.23
517.72	48573.14
517.89	48690.16
518.06	49165.29
518.24	48732.29
518.41	49001.46
518.58	49354.88
518.75	48928.90
518.93	49048.27
519.10	49186.36
519.27	49521.05
519.45	49411.05
519.62	49827.66
519.79	49485.95
519.96	50019.59
520.14	50101.51
520.31	49635.74
520.48	50295.77
520.65	49827.66
520.83	50483.01
521.00	50618.77
521.17	50237.26
521.34	50260.66
521.52	50564.93
521.69	50255.98
521.86	50899.63
522.03	50600.04
522.20	51264.75
522.38	51395.82
522.55	51147.73
522.72	50838.78
522.89	51231.99
523.07	51098.58
523.24	51136.02
523.41	51704.77
523.58	51311.56
523.75	51798.40
523.92	51641.58
524.10	51686.05
524.27	52112.03
524.44	51653.28
524.61	51814.78
524.78	51845.21
524.96	51835.84
525.13	51952.87
525.30	52299.27
525.47	52346.08
525.64	52299.27
525.81	52243.10
525.98	52392.89
526.16	52231.40
526.33	52294.59
526.50	52750.99
526.67	52439.70
526.84	52783.76
527.01	52708.86
527.18	52891.43
527.36	52779.08
527.53	53282.30
527.70	53165.27
527.87	53027.18
528.04	52729.93
528.21	53193.36
528.38	53022.50
528.55	53673.16
528.72	53160.59
528.89	53467.20
529.07	53242.51
529.24	53319.74
529.41	53488.26
529.58	53553.80
529.75	53602.95
529.92	53645.08
530.09	53776.15
530.26	53656.78
530.43	53923.60
530.60	53865.09
530.77	53916.58
530.94	54033.61
531.11	53851.05
531.28	53956.37
531.46	54087.44
531.63	54171.70
531.80	54082.76
531.97	54141.27
532.14	54443.20
532.31	54199.79
532.48	54241.92
532.65	54883.22
532.82	54277.02
532.99	54389.37
533.16	54527.46
533.33	54658.53
533.50	54700.66
533.67	54560.23
533.84	54494.69
534.01	54637.47
534.18	54745.13
534.35	54969.82
534.52	54733.43
534.69	55021.31
534.86	55143.02
535.03	55051.74
535.20	55187.49
535.37	55215.58
535.54	55100.89
535.71	55030.68
535.88	55044.72
536.05	55253.03
536.22	55426.23
536.38	55613.47
536.55	55234.30
536.72	55501.12
536.89	55330.26
537.06	55302.18
537.23	55440.27
537.40	55381.76
537.57	55112.59
537.74	55669.64
537.91	56030.08
538.08	55622.83
538.25	55615.81
538.42	55627.51
538.59	56016.04
538.75	55573.68
538.92	55751.56
539.09	55990.30
539.26	56100.30
539.43	56039.45
539.60	56009.02
539.77	56004.34
539.94	56313.29
540.11	56238.39
540.28	56301.59
540.44	56257.12
540.61	56299.25
540.78	56303.93
540.95	56062.85
541.12	56341.38
541.29	56362.44
541.46	56516.92
541.62	56327.33
541.79	56512.23
541.96	56458.40
542.13	56371.80
542.30	56493.51
542.47	56697.14
542.63	56757.99
542.80	56926.51
542.97	56945.23
543.14	57029.49
543.31	56853.95
543.48	57258.87
543.64	57228.44
543.81	57223.76
543.98	57202.69
544.15	57022.47
544.32	57076.30
544.48	57357.17
544.65	57244.82
544.82	57277.59
544.99	57120.77
545.16	57544.41
545.32	57195.67
545.49	57525.69
545.66	57399.30
545.83	57396.96
546.00	57542.07
546.16	57628.67
546.33	57090.35
546.50	57146.52
546.67	57425.04
546.83	57331.42
547.00	57640.37
547.17	57640.37
547.34	57619.31
547.50	57682.50
547.67	58045.29
547.84	57813.57
548.00	57836.98
548.17	58103.80
548.34	57975.07
548.51	58115.50
548.67	57939.96
548.84	57972.73
549.01	57907.19
549.18	58010.18
549.34	58073.37
549.51	58141.25
549.68	58138.91
549.84	58391.68
550.01	58223.17
550.18	58174.02
550.34	58253.59
550.51	58417.43
550.68	58347.21
550.84	58089.76
551.01	58396.37
551.18	58445.52
551.34	58258.27
551.51	58384.66
551.68	58330.83
551.84	58368.28
552.01	58181.04
552.18	58546.16
552.34	58410.41
552.51	58454.88
552.68	58335.51
552.84	58475.94
553.01	58742.77
553.18	58497.01
553.34	58686.59
553.51	58630.42
553.67	58686.59
553.84	58808.30
554.01	58672.55
554.17	58925.33
554.34	58904.26
554.51	58639.78
554.67	58934.69
554.84	58841.07
555.00	58794.26
555.17	58822.34
555.33	58913.62
555.50	58899.58
555.67	58782.55
555.83	58749.79
556.00	58894.90
556.16	59154.70
556.33	58951.07
556.50	59063.42
556.66	59150.02
556.83	59007.25
556.99	59208.53
557.16	59355.99
557.32	59131.29
557.49	59489.40
557.65	59320.88
557.82	59145.34
557.98	59224.92
558.15	59098.53
558.32	59430.88
558.48	59056.40
558.65	59234.28
558.81	59217.89
558.98	59416.84
559.14	59484.72
559.31	59531.53
559.47	59494.08
559.64	59407.48
559.80	59629.83
559.97	59559.61
560.13	59505.78
560.30	59358.33
560.46	59664.94
560.63	59686.00
560.79	59723.45
560.96	59852.18
561.12	59688.34
561.29	59774.94
561.45	59678.98
561.61	59662.60
561.78	59765.58
561.94	59889.63
562.11	59496.42
562.27	59903.67
562.44	59962.18
562.60	59896.65
562.77	59702.38
562.93	59629.83
563.10	59772.60
563.26	59618.13
563.42	60179.85
563.59	59891.97
563.75	59931.76
563.92	59943.46
564.08	59629.83
564.24	60072.19
564.41	59990.27
564.57	59948.14
564.74	60149.43
564.90	59887.29
565.07	60004.31
565.23	60121.34
565.39	60116.66
565.56	60111.98
565.72	59920.05
565.88	60034.74
566.05	59913.03
566.21	60142.41
566.38	60055.81
566.54	59990.27
566.70	60093.25
566.87	60088.57
567.03	59910.69
567.19	60158.79
567.36	60168.15
567.52	60296.88
567.68	60528.59
567.85	60175.17
568.01	60081.55
568.17	60306.24
568.34	60191.56
568.50	60296.88
568.66	60353.05
568.83	60257.09
568.99	60083.89
569.15	60420.93
569.32	60271.14
569.48	60203.26
569.64	60301.56
569.81	60252.41
569.97	60275.82
570.13	60381.14
570.30	60254.75
570.46	60301.56
570.62	60516.89
570.78	60451.36
570.95	60343.69
571.11	60416.25
571.27	60320.29
571.43	60339.01
571.60	60434.97
571.76	60388.16
571.92	60336.67
572.09	60341.35
572.25	60343.69
572.41	60257.09
572.57	60374.12
572.74	60619.88
572.90	60509.87
573.06	60561.36
573.22	60341.35
573.38	60367.10
573.55	60516.89
573.71	60554.34
573.87	60573.06
574.03	60226.66
574.20	60472.42
574.36	60582.43
574.52	60776.69
574.68	60406.89
574.84	60622.22
575.01	60563.70
575.17	60594.13
575.33	60486.46
575.49	60544.98
575.65	60598.81
575.82	60540.30
575.98	60713.50
576.14	60720.52
576.30	60694.77
576.46	60423.27
576.62	60704.13
576.79	60540.30
576.95	60282.84
577.11	60713.50
577.27	60713.50
577.43	60575.40
577.59	60530.93
577.75	60509.87
577.92	60542.64
578.08	60835.20
578.24	60788.39
578.40	60704.13
578.56	60846.91
578.72	60610.51
578.88	60882.02
579.04	60952.23
579.21	60647.96
579.37	60767.33
579.53	60788.39
579.69	60645.62
579.85	60598.81
580.01	60626.90
580.17	60657.32
580.33	60898.40
580.49	60807.12
580.65	60811.80
580.82	60694.77
580.98	60495.83
581.14	60676.05
581.30	60938.19
581.46	60755.63
581.62	60720.52
581.78	60800.10
581.94	60935.85
582.10	60776.69
582.26	60910.10
582.42	60502.85
582.58	60678.39
582.74	60795.42
582.90	60772.01
583.06	60893.72
583.22	60776.69
583.38	60760.31
583.54	60732.22
583.70	60933.51
583.86	60706.47
584.02	60729.88
584.18	60816.48
584.34	60832.86
584.50	60837.54
584.66	60750.94
584.82	60732.22
584.98	60982.66
585.14	60795.42
585.30	60701.79
585.46	61027.13
585.62	61031.81
585.78	61001.38
585.94	60715.84
586.10	60926.49
586.26	60874.99
586.42	60924.14
586.58	60952.23
586.74	61031.81
586.90	60783.71
587.06	60947.55
587.22	61087.98
587.38	60896.06
587.54	61038.83
587.70	61193.31
587.86	60786.05
588.02	60795.42
588.18	61062.24
588.34	60947.55
588.49	60736.90
