SpectraSuite Data File
++++++++++++++++++++++++++++++++++++
Date: Fri Oct 25 11:33:18 EDT 2013
User: price-jones
Dark Spectrum Present: No
Reference Spectrum Present: No
Number of Sampled Component Spectra: 1
Spectrometers: USB2+H05261
Integration Time (usec): 100000 (USB2+H05261)
Spectra Averaged: 1 (USB2+H05261)
Boxcar Smoothing: 0 (USB2+H05261)
Correct for Electrical Dark: No (USB2+H05261)
Strobe/Lamp Enabled: No (USB2+H05261)
Correct for Detector Non-linearity: No (USB2+H05261)
Correct for Stray Light: No (USB2+H05261)
Number of Pixels in Processed Spectrum: 2048
>>>>>Begin Processed Spectral Data<<<<<
365.73	264.48
365.92	264.48
366.12	264.48
366.32	140.43
366.52	175.54
366.72	278.52
366.91	95.96
367.11	175.54
367.31	201.29
367.51	166.18
367.70	196.60
367.90	215.33
368.10	180.22
368.30	191.92
368.49	131.07
368.69	231.71
368.89	236.39
369.09	224.69
369.28	159.16
369.48	236.39
369.68	175.54
369.87	243.42
370.07	210.65
370.27	243.42
370.47	315.97
370.66	498.53
370.86	442.36
371.06	547.69
371.25	566.41
371.45	631.94
371.65	571.09
371.84	456.40
372.04	561.73
372.24	573.43
372.44	566.41
372.63	521.94
372.83	613.22
373.03	610.88
373.22	538.32
373.42	615.56
373.62	540.66
373.81	599.18
374.01	690.46
374.21	620.24
374.40	697.48
374.60	681.10
374.79	720.88
374.99	622.58
375.19	669.39
375.38	610.88
375.58	620.24
375.78	664.71
375.97	596.84
376.17	641.31
376.37	734.93
376.56	660.03
376.76	634.29
376.95	657.69
377.15	657.69
377.35	716.20
377.54	667.05
377.74	697.48
377.93	655.35
378.13	713.86
378.33	678.76
378.52	664.71
378.72	748.97
378.91	748.97
379.11	704.50
379.31	645.99
379.50	667.05
379.70	683.44
379.89	727.91
380.09	758.33
380.28	753.65
380.48	737.27
380.68	753.65
380.87	704.50
381.07	758.33
381.26	847.27
381.46	774.72
381.65	774.72
381.85	732.59
382.04	807.48
382.24	748.97
382.43	798.12
382.63	828.55
382.83	781.74
383.02	809.83
383.22	739.61
383.41	823.87
383.61	802.80
383.80	849.61
384.00	760.67
384.19	765.36
384.39	842.59
384.58	739.61
384.78	795.78
384.97	861.32
385.17	889.40
385.36	802.80
385.56	798.12
385.75	798.12
385.95	849.61
386.14	837.91
386.34	826.21
386.53	851.96
386.72	873.02
386.92	842.59
387.11	903.45
387.31	842.59
387.50	870.68
387.70	819.19
387.89	833.23
388.09	835.57
388.28	887.06
388.48	943.24
388.67	971.32
388.86	917.49
389.06	873.02
389.25	926.85
389.45	940.90
389.64	1032.18
389.84	980.68
390.03	915.15
390.22	983.02
390.42	905.79
390.61	945.58
390.81	964.30
391.00	994.73
391.19	987.71
391.39	1025.15
391.58	1055.58
391.78	1041.54
391.97	1086.01
392.16	1034.52
392.36	1022.81
392.55	1011.11
392.75	1060.26
392.94	1071.97
393.13	1062.60
393.33	1048.56
393.52	1121.12
393.71	978.34
393.91	1121.12
394.10	1078.99
394.29	1081.33
394.49	1020.47
394.68	1139.84
394.88	1149.20
395.07	1151.54
395.26	1090.69
395.46	1158.57
395.65	1107.07
395.84	1156.22
396.04	1203.04
396.23	1214.74
396.42	1212.40
396.62	1231.12
396.81	1270.91
397.00	1196.01
397.19	1181.97
397.39	1233.46
397.58	1352.83
397.77	1268.57
397.97	1282.61
398.16	1226.44
398.35	1296.66
398.55	1259.21
398.74	1296.66
398.93	1315.38
399.12	1334.11
399.32	1441.77
399.51	1299.00
399.70	1380.92
399.90	1432.41
400.09	1315.38
400.28	1380.92
400.47	1277.93
400.67	1427.73
400.86	1341.13
401.05	1357.51
401.24	1371.55
401.44	1430.07
401.63	1565.82
401.82	1460.49
402.01	1448.79
402.21	1481.56
402.40	1502.62
402.59	1465.18
402.78	1479.22
402.97	1563.48
403.17	1486.24
403.36	1579.86
403.55	1549.43
403.74	1514.33
403.93	1629.01
404.13	1547.09
404.32	1516.67
404.51	1666.46
404.70	1629.01
404.89	1701.57
405.09	1657.10
405.28	1689.87
405.47	1689.87
405.66	1701.57
405.85	1703.91
406.05	1699.23
406.24	1769.44
406.43	1769.44
406.62	1860.73
406.81	1886.47
407.00	1842.00
407.20	1760.08
407.39	1771.79
407.58	1809.23
407.77	1912.22
407.96	1802.21
408.15	1914.56
408.34	1846.68
408.54	2050.31
408.73	1863.07
408.92	1933.28
409.11	1914.56
409.30	1900.52
409.49	1961.37
409.68	1956.69
409.87	2045.63
410.07	1980.09
410.26	2132.23
410.45	2122.87
410.64	2108.82
410.83	2113.50
411.02	2127.55
411.21	2186.06
411.40	2186.06
411.59	2232.87
411.78	2176.70
411.98	2136.91
412.17	2275.00
412.36	2277.34
412.55	2218.83
412.74	2314.79
412.93	2448.20
413.12	2387.35
413.31	2363.94
413.50	2464.58
413.69	2513.74
413.88	2532.46
414.07	2511.39
414.26	2532.46
414.45	2569.91
414.64	2555.86
414.83	2497.35
415.02	2684.59
415.22	2555.86
415.41	2731.41
415.60	2724.38
415.79	2672.89
415.98	2682.25
416.17	2810.98
416.36	2860.13
416.55	2752.47
416.74	2810.98
416.93	2822.69
417.12	2759.49
417.31	2841.41
417.50	2862.48
417.69	3005.25
417.88	2928.01
418.07	3045.04
418.26	2871.84
418.45	3007.59
418.64	3056.74
418.83	3009.93
419.02	2963.12
419.21	3077.80
419.39	3105.89
419.58	3150.36
419.77	3148.02
419.96	3143.34
420.15	3150.36
420.34	3194.83
420.53	3300.16
420.72	3178.45
420.91	3253.34
421.10	3276.75
421.29	3391.44
421.48	3265.05
421.67	3389.10
421.86	3419.52
422.05	3330.58
422.24	3344.63
422.43	3197.17
422.61	3349.31
422.80	3304.84
422.99	3328.24
423.18	3309.52
423.37	3524.85
423.56	3400.80
423.75	3447.61
423.94	3426.54
424.13	3248.66
424.32	3304.84
424.50	3407.82
424.69	3480.38
424.88	3564.64
425.07	3520.17
425.26	3356.33
425.45	3424.20
425.64	3445.27
425.83	3454.63
426.01	3456.97
426.20	3524.85
426.39	3482.72
426.58	3496.76
426.77	3503.78
426.96	3475.70
427.15	3606.77
427.33	3492.08
427.52	3653.58
427.71	3665.28
427.90	3625.49
428.09	3733.15
428.28	3625.49
428.46	3679.32
428.65	3705.07
428.84	3824.44
429.03	3871.25
429.22	3735.50
429.40	3817.41
429.59	3798.69
429.78	3632.51
429.97	3705.07
430.16	3927.42
430.34	3941.46
430.53	3999.98
430.72	3868.91
430.91	3894.65
431.10	3918.06
431.28	4011.68
431.47	4009.34
431.66	4114.66
431.85	4049.13
432.03	4091.26
432.22	4117.00
432.41	4046.79
432.60	3983.59
432.79	4175.52
432.97	4084.23
433.16	4217.65
433.35	4086.58
433.54	4170.83
433.72	4095.94
433.91	4140.41
434.10	4189.56
434.28	4149.77
434.47	4245.73
434.66	4278.50
434.85	4346.37
435.03	4411.91
435.22	4271.48
435.41	4440.00
435.59	4505.53
435.78	4388.50
435.97	4327.65
436.16	4372.12
436.34	4461.06
436.53	4514.89
436.72	4519.57
436.90	4393.19
437.09	4566.39
437.28	4447.02
437.46	4596.81
437.65	4669.37
437.84	4678.73
438.02	4526.60
438.21	4599.15
438.40	4730.22
438.58	4760.65
438.77	4821.50
438.96	4823.84
439.14	4910.44
439.33	5001.72
439.52	4922.15
439.70	4851.93
439.89	5186.63
440.08	5046.20
440.26	4985.34
440.45	4971.30
440.63	5107.05
440.82	5261.52
441.01	5188.97
441.19	5376.21
441.38	5451.11
441.57	5263.86
441.75	5343.44
441.94	5521.32
442.12	5425.36
442.31	5490.90
442.50	5366.85
442.68	5322.38
442.87	5378.55
443.05	5561.11
443.24	5610.26
443.43	5570.48
443.61	5607.92
443.80	5888.79
443.98	5561.11
444.17	5434.72
444.35	5591.54
444.54	5600.90
444.73	5636.01
444.91	5575.16
445.10	5678.14
445.28	5689.84
445.47	5593.88
445.65	5727.29
445.84	5781.12
446.02	5767.08
446.21	5706.23
446.39	5692.18
446.58	5643.03
446.77	5891.13
446.95	5685.16
447.14	5811.55
447.32	5790.49
447.51	5764.74
447.69	5832.62
447.88	5783.46
448.06	5738.99
448.25	5767.08
448.43	5753.04
448.62	5717.93
448.80	5743.67
448.99	5774.10
449.17	5895.81
449.36	5994.11
449.54	6052.63
449.73	6012.84
449.91	6050.28
450.10	6134.54
450.28	6216.46
450.46	6239.87
450.65	6160.29
450.83	6267.95
451.02	6136.88
451.20	6129.86
451.39	6171.99
451.57	6246.89
451.76	6195.40
451.94	6310.08
452.13	6408.39
452.31	6338.17
452.49	6370.94
452.68	6342.85
452.86	6333.49
453.05	6476.26
453.23	6387.32
453.42	6352.21
453.60	6476.26
453.78	6665.85
453.97	6450.52
454.15	6396.68
454.34	6382.64
454.52	6607.33
454.70	6469.24
454.89	6427.11
455.07	6583.93
455.26	6750.10
455.44	6832.02
455.62	6839.05
455.81	6588.61
455.99	6817.98
456.17	6839.05
456.36	6888.20
456.54	6944.37
456.73	6956.07
456.91	6970.12
457.09	7164.38
457.28	7009.90
457.46	6960.75
457.64	7180.76
457.83	7096.50
458.01	7049.69
458.19	7286.09
458.38	7105.87
458.56	7105.87
458.74	7318.86
458.93	7143.32
459.11	7236.94
459.29	7412.48
459.48	7157.36
459.66	7382.05
459.84	7281.41
460.03	7588.02
460.21	7279.07
460.39	7382.05
460.57	7529.50
460.76	7454.61
460.94	7581.00
461.12	7616.10
461.31	7688.66
461.49	7407.80
461.67	7452.27
461.85	7964.84
462.04	7531.84
462.22	8044.42
462.40	7691.00
462.59	7845.48
462.77	7754.19
462.95	7754.19
463.13	7786.96
463.32	7808.03
463.50	7941.44
463.68	8070.17
463.86	7875.90
464.05	8051.44
464.23	7936.76
464.41	7899.31
464.59	7903.99
464.78	8168.47
464.96	8042.08
465.14	8070.17
465.32	8131.02
465.50	8231.66
465.69	8243.37
465.87	8212.94
466.05	8212.94
466.23	8269.11
466.41	8283.16
466.60	8407.20
466.78	8292.52
466.96	8250.39
467.14	8182.51
467.32	8198.90
467.51	8416.57
467.69	8315.92
467.87	8336.99
468.05	8540.61
468.23	8365.07
468.41	8430.61
468.60	8397.84
468.78	8652.96
468.96	8638.92
469.14	8678.71
469.32	8723.18
469.50	8697.43
469.69	8802.75
469.87	8667.00
470.05	8667.00
470.23	8856.59
470.41	8987.66
470.59	8772.33
470.77	8821.48
470.95	8879.99
471.14	9097.66
471.32	8868.29
471.50	9076.60
471.68	9149.15
471.86	9085.96
472.04	9123.41
472.22	9287.25
472.40	9109.36
472.58	9287.25
472.77	9273.20
472.95	9549.39
473.13	9942.60
473.31	9441.72
473.49	9298.95
473.67	9413.63
473.85	9621.94
474.03	9741.31
474.21	9916.85
474.39	9825.57
474.57	9916.85
474.75	9966.00
474.93	10036.22
475.12	9877.06
475.30	10064.30
475.48	9954.30
475.66	9996.43
475.84	10129.84
476.02	10413.04
476.20	10118.14
476.38	10349.85
476.56	10637.73
476.74	10745.40
476.92	10539.43
477.10	10635.39
477.28	10841.36
477.46	10801.57
477.64	10846.04
477.82	10974.77
478.00	11321.17
478.18	11253.30
478.36	11417.13
478.54	11541.18
478.72	11433.52
478.90	11655.87
479.08	11775.24
479.26	11873.54
479.44	11803.32
479.62	11969.50
479.80	12046.74
479.98	12013.97
480.16	12276.11
480.34	12056.10
480.52	12404.84
480.70	12168.45
480.88	12332.28
481.06	12512.50
481.24	12423.56
481.41	12641.23
481.59	12802.73
481.77	12989.97
481.95	13158.49
482.13	12901.03
482.31	13057.85
482.49	13586.81
482.67	13572.77
482.85	13748.31
483.03	13558.72
483.21	13949.59
483.39	13771.71
483.57	13727.24
483.74	13942.57
483.92	14113.43
484.10	13994.06
484.28	14406.00
484.46	14551.11
484.64	14766.44
484.82	14642.39
485.00	14724.31
485.18	15005.17
485.35	15286.04
485.53	15112.84
485.71	15241.57
485.89	15658.18
486.07	15363.28
486.25	15363.28
486.43	15716.70
486.61	15824.36
486.78	16212.89
486.96	15960.11
487.14	16290.13
487.32	16035.01
487.50	16163.74
487.68	16460.99
487.85	16814.41
488.03	16903.35
488.21	16835.47
488.39	17245.07
488.57	17448.69
488.75	17357.41
488.92	17301.24
489.10	17818.50
489.28	17858.29
489.46	17837.22
489.64	18136.81
489.81	18515.98
489.99	18424.70
490.17	18087.66
490.35	18855.36
490.53	18614.28
490.70	18932.59
490.88	18654.07
491.06	19040.26
491.24	18700.88
491.41	19286.01
491.59	19278.99
491.77	19302.40
491.95	19374.95
492.13	19644.12
492.30	19800.93
492.48	19875.83
492.66	19843.06
492.84	20631.82
493.01	20482.03
493.19	20194.14
493.37	20554.58
493.54	20355.64
493.72	20805.02
493.90	20727.78
494.08	20961.84
494.25	21193.55
494.43	21144.40
494.61	21420.58
494.79	21301.22
494.96	21151.42
495.14	21633.57
495.32	21319.94
495.49	21570.38
495.67	21844.22
495.85	22183.60
496.02	22256.15
496.20	22501.91
496.38	23098.75
496.55	22672.77
496.73	22600.21
496.91	22794.48
497.09	22834.27
497.26	23211.09
497.44	23070.66
497.62	23400.68
497.79	23548.13
497.97	23456.85
498.14	23679.20
498.32	23782.18
498.50	23955.38
498.67	24137.94
498.85	24049.00
499.03	24196.46
499.20	23999.85
499.38	24353.27
499.56	24577.97
499.73	24517.11
499.91	24697.33
500.08	24814.36
500.26	25006.28
500.44	24837.76
500.61	25280.13
500.79	24900.96
500.97	25270.76
501.14	25282.47
501.32	25291.83
501.49	25537.59
501.67	25427.58
501.84	26143.78
502.02	26019.74
502.20	25755.26
502.37	25998.67
502.55	26146.12
502.72	25991.65
502.90	26199.96
503.07	26412.95
503.25	26426.99
503.43	26188.25
503.60	26752.32
503.78	26565.08
503.95	26658.70
504.13	26735.94
504.30	27019.14
504.48	26555.72
504.65	26855.31
504.83	27332.78
505.01	27370.22
505.18	27737.69
505.36	27452.14
505.53	27253.20
505.71	27953.02
505.88	27761.09
506.06	27709.60
506.23	28203.46
506.41	27566.83
506.58	28025.57
506.76	28116.86
506.93	28123.88
507.11	27857.06
507.28	28210.48
507.46	28158.99
507.63	28596.67
507.81	28989.88
507.98	28465.60
508.16	28741.78
508.33	28760.50
508.50	29179.46
508.68	29074.13
508.85	29191.16
509.03	29099.88
509.20	29453.30
509.38	29869.92
509.55	29575.01
509.73	29675.65
509.90	29792.68
510.08	29558.63
510.25	29907.37
510.42	29958.86
510.60	29848.85
510.77	30302.92
510.95	30321.64
511.12	30139.08
511.30	30148.44
511.47	30349.73
511.64	30328.66
511.82	30782.73
511.99	30473.78
512.17	30258.45
512.34	30616.55
512.51	31042.53
512.69	31082.31
512.86	30639.95
513.04	31360.84
513.21	31407.65
513.38	31400.63
513.56	31718.94
513.73	30984.01
513.90	31281.26
514.08	31295.30
514.25	31859.37
514.43	31892.14
514.60	31920.23
514.77	31857.03
514.95	32002.14
515.12	32039.59
515.29	32020.87
515.47	32400.04
515.64	32002.14
515.81	32299.39
515.99	32701.96
516.16	32552.17
516.33	32680.90
516.51	32655.15
516.68	32315.78
516.85	32638.77
517.03	32741.75
517.20	32943.04
517.37	32989.85
517.54	33141.99
517.72	32900.91
517.89	33151.35
518.06	33303.48
518.24	33453.28
518.41	33425.19
518.58	33118.58
518.75	33317.53
518.93	33930.75
519.10	33647.54
519.27	33914.36
519.45	33450.94
519.62	33930.75
519.79	34106.29
519.96	33958.83
520.14	34384.81
520.31	33670.95
520.48	34405.88
520.65	34054.79
520.83	34663.33
521.00	34586.10
521.17	34448.00
521.34	34607.16
521.52	34855.26
521.69	34838.87
521.86	34574.39
522.03	34993.35
522.20	35426.35
522.38	35517.63
522.55	35335.07
522.72	34941.86
522.89	35381.88
523.07	35620.61
523.24	35302.30
523.41	35704.87
523.58	35543.38
523.75	35601.89
523.92	36142.55
524.10	35751.68
524.27	36137.87
524.44	36329.80
524.61	35952.97
524.78	36133.19
524.96	36357.88
525.13	36327.45
525.30	36690.24
525.47	36591.94
525.64	36395.33
525.81	36594.28
525.98	37031.96
526.16	36802.58
526.33	36306.39
526.50	37097.49
526.67	36730.03
526.84	36713.64
527.01	36765.14
527.18	37177.07
527.36	37333.89
527.53	37029.62
527.70	37233.24
527.87	37565.60
528.04	37422.83
528.21	37097.49
528.38	37443.89
528.55	37619.43
528.72	37450.91
528.89	37549.21
529.07	37338.57
529.24	37202.82
529.41	37516.45
529.58	37647.52
529.75	37507.08
529.92	38033.71
530.09	38031.36
530.26	37696.67
530.43	38354.36
530.60	37888.59
530.77	37855.82
530.94	38022.00
531.11	37942.42
531.28	38440.96
531.46	38314.57
531.63	38539.26
531.80	38522.88
531.97	38614.16
532.14	38539.26
532.31	38789.70
532.48	38595.43
532.65	38939.49
532.82	39124.40
532.99	39276.53
533.16	38710.12
533.33	38873.96
533.50	38934.81
533.67	39014.39
533.84	39033.11
534.01	39250.78
534.18	39643.99
534.35	39351.43
534.52	39555.05
534.69	39695.49
534.86	39667.40
535.03	39229.72
535.20	39981.03
535.37	39739.96
535.54	39842.94
535.71	39976.35
535.88	40334.45
536.05	40048.91
536.22	40397.65
536.38	40037.20
536.55	40182.32
536.72	39885.07
536.89	39943.58
537.06	40203.38
537.23	40442.12
537.40	40182.32
537.57	40175.30
537.74	40194.02
537.91	40140.19
538.08	40460.84
538.25	40006.78
538.42	40673.83
538.59	40774.47
538.75	40304.02
538.92	40685.53
539.09	40699.58
539.26	41015.55
539.43	40821.28
539.60	40706.60
539.77	40746.39
539.94	41254.28
540.11	41256.62
540.28	40938.31
540.44	41074.06
540.61	41153.64
540.78	40730.00
540.95	41308.11
541.12	41343.22
541.29	41148.96
541.46	41565.57
541.62	41647.49
541.79	41305.77
541.96	41528.13
542.13	41207.47
542.30	41759.84
542.47	42223.26
542.63	41825.37
542.80	41783.24
542.97	41717.71
543.14	42014.96
543.31	42127.30
543.48	41996.23
543.64	42637.54
543.81	42459.66
543.98	42518.17
544.15	41991.55
544.32	42515.83
544.48	43012.02
544.65	42382.42
544.82	42607.11
544.99	42085.17
545.16	42930.11
545.32	42625.84
545.49	42927.77
545.66	43042.45
545.83	43065.86
546.00	43026.07
546.16	42862.23
546.33	42607.11
546.50	42927.77
546.67	43147.78
546.83	42792.01
547.00	42829.46
547.17	43098.62
547.34	42827.12
547.50	43168.84
547.67	43753.97
547.84	43566.73
548.00	43817.17
548.17	43714.19
548.34	43641.63
548.51	43828.87
548.67	43800.79
548.84	43615.88
549.01	43489.49
549.18	44053.56
549.34	43896.75
549.51	43810.15
549.68	44156.55
549.84	43835.89
550.01	43782.06
550.18	43643.97
550.34	43798.44
550.51	43627.59
550.68	44027.82
550.84	44074.63
551.01	44299.32
551.18	43938.88
551.34	44210.38
551.51	44233.78
551.68	44095.69
551.84	44493.58
552.01	44072.29
552.18	44194.00
552.34	44142.50
552.51	44313.36
552.68	44388.26
552.84	44165.91
553.01	44376.56
553.18	44559.12
553.34	45036.59
553.51	44626.99
553.67	44741.68
553.84	44931.26
554.01	44603.59
554.17	45020.20
554.34	44619.97
554.51	44952.33
554.67	44957.01
554.84	45120.85
555.00	45055.31
555.17	44942.97
555.33	44978.07
555.50	44678.49
555.67	45036.59
555.83	44924.24
556.00	45165.32
556.16	45631.08
556.33	45109.14
556.50	45095.10
556.66	45635.77
556.83	44921.90
556.99	45223.83
557.16	45502.35
557.32	45649.81
557.49	45563.21
557.65	45034.25
557.82	45446.18
557.98	45558.53
558.15	45464.91
558.32	45399.37
558.48	45078.72
558.65	45745.77
558.81	46087.49
558.98	45282.34
559.14	45198.09
559.31	45727.05
559.47	45359.58
559.64	45446.18
559.80	45375.97
559.97	45785.56
560.13	45411.07
560.30	45202.77
560.46	46050.04
560.63	46092.17
560.79	46101.53
560.96	46256.01
561.12	46183.45
561.29	45996.21
561.45	46553.26
561.61	45965.78
561.78	45961.10
561.94	45893.22
562.11	45804.28
562.27	46113.23
562.44	46036.00
562.60	46330.90
562.77	46405.80
562.93	46185.79
563.10	46375.37
563.26	46277.07
563.42	46464.32
563.59	46094.51
563.75	46028.98
563.92	46387.08
564.08	45869.82
564.24	46487.72
564.41	46216.22
564.57	46314.52
564.74	46265.37
564.90	46593.04
565.07	46387.08
565.23	46157.70
565.39	46611.77
565.56	46756.88
565.72	46403.46
565.88	46754.54
566.05	46546.23
566.21	46803.69
566.38	46529.85
566.54	46513.47
566.70	46457.29
566.87	46745.18
567.03	46415.16
567.19	46731.14
567.36	46623.47
567.52	46520.49
567.68	46960.51
567.85	46749.86
568.01	46876.25
568.17	46934.76
568.34	46958.17
568.50	46820.08
568.66	46623.47
568.83	46679.64
568.99	46358.99
569.15	46806.03
569.32	46817.74
569.48	46981.57
569.64	46761.56
569.81	47133.71
569.97	47089.24
570.13	47124.35
570.30	46616.45
570.46	46981.57
570.62	47070.51
570.78	46574.32
570.95	47281.16
571.11	46951.15
571.27	47098.60
571.43	46597.73
571.60	46803.69
571.76	46843.48
571.92	46976.89
572.09	47063.49
572.25	46487.72
572.41	46674.96
572.57	47220.31
572.74	47426.28
572.90	47302.23
573.06	47381.80
573.22	47056.47
573.38	47487.13
573.55	47236.69
573.71	47292.86
573.87	47386.49
574.03	47124.35
574.20	47334.99
574.36	47611.18
574.52	47262.44
574.68	47409.89
574.84	47344.36
575.01	47524.58
575.17	47512.88
575.33	47339.68
575.49	47234.35
575.65	47606.50
575.82	47374.78
575.98	47363.08
576.14	47412.23
576.30	47622.88
576.46	47459.04
576.62	47463.72
576.79	47342.02
576.95	47112.64
577.11	47320.95
577.27	47604.16
577.43	47072.85
577.59	47285.84
577.75	46983.91
577.92	46866.89
578.08	47540.96
578.24	47681.39
578.40	47533.94
578.56	47732.89
578.72	47491.81
578.88	47295.21
579.04	47068.17
579.21	47217.97
579.37	47547.98
579.53	47325.63
579.69	47098.60
579.85	47840.55
580.01	47459.04
580.17	47641.60
580.33	47475.43
580.49	47421.59
580.65	47363.08
580.82	47351.38
580.98	47274.14
581.14	47292.86
581.30	47643.94
581.46	47447.34
581.62	47295.21
581.78	47222.65
581.94	47372.44
582.10	47189.88
582.26	47772.67
582.42	47306.91
582.58	47449.68
582.74	47643.94
582.90	47615.86
583.06	47718.84
583.22	47229.67
583.38	47463.72
583.54	47807.78
583.70	47791.40
583.86	47800.76
584.02	47728.20
584.18	47330.31
584.34	47796.08
584.50	47648.63
584.66	47753.95
584.82	48172.91
584.98	47964.60
585.14	47615.86
585.30	47482.45
585.46	47709.48
585.62	47374.78
585.78	47655.65
585.94	47203.92
586.10	47735.23
586.26	47466.06
586.42	47669.69
586.58	48030.13
586.74	47793.74
586.90	47454.36
587.06	47428.62
587.22	48287.59
587.38	47269.46
587.54	48011.41
587.70	48222.06
587.86	47538.62
588.02	47608.84
588.18	47672.03
588.34	47433.30
588.49	47732.89
588.65	47330.31
588.81	47992.68
588.97	47955.24
589.13	47920.13
589.29	47751.61
589.45	48200.99
589.61	47763.31
589.77	48107.37
589.93	47690.76
590.08	47990.34
