SpectraSuite Data File
++++++++++++++++++++++++++++++++++++
Date: Fri Oct 25 11:23:32 EDT 2013
User: price-jones
Dark Spectrum Present: No
Reference Spectrum Present: No
Number of Sampled Component Spectra: 1
Spectrometers: USB2+H05261
Integration Time (usec): 100000 (USB2+H05261)
Spectra Averaged: 1 (USB2+H05261)
Boxcar Smoothing: 0 (USB2+H05261)
Correct for Electrical Dark: No (USB2+H05261)
Strobe/Lamp Enabled: No (USB2+H05261)
Correct for Detector Non-linearity: No (USB2+H05261)
Correct for Stray Light: No (USB2+H05261)
Number of Pixels in Processed Spectrum: 2048
>>>>>Begin Processed Spectral Data<<<<<
365.73	262.14
365.92	262.14
366.12	262.14
366.32	81.92
366.52	2.34
366.72	189.58
366.91	131.07
367.11	95.96
367.31	58.51
367.51	184.90
367.70	191.92
367.90	152.13
368.10	117.03
368.30	102.98
368.49	152.13
368.69	201.29
368.89	51.49
369.09	77.24
369.28	175.54
369.48	147.45
369.68	175.54
369.87	217.67
370.07	138.09
370.27	236.39
370.47	341.72
370.66	620.24
370.86	653.01
371.06	699.82
371.25	671.73
371.45	627.26
371.65	674.07
371.84	674.07
372.04	716.20
372.24	676.41
372.44	655.35
372.63	713.86
372.83	713.86
373.03	779.40
373.22	723.23
373.42	814.51
373.62	774.72
373.81	737.27
374.01	802.80
374.21	812.17
374.40	781.74
374.60	791.10
374.79	788.76
374.99	751.31
375.19	877.70
375.38	903.45
375.58	898.77
375.78	919.83
375.97	833.23
376.17	908.13
376.37	947.92
376.56	823.87
376.76	863.66
376.95	828.55
377.15	978.34
377.35	866.00
377.54	926.85
377.74	919.83
377.93	924.51
378.13	807.48
378.33	999.41
378.52	943.24
378.72	929.19
378.91	966.64
379.11	933.87
379.31	976.00
379.50	926.85
379.70	947.92
379.89	940.90
380.09	922.17
380.28	898.77
380.48	1041.54
380.68	976.00
380.87	919.83
381.07	1015.79
381.26	976.00
381.46	983.02
381.65	1034.52
381.85	1055.58
382.04	994.73
382.24	1078.99
382.43	1135.16
382.63	1083.67
382.83	1121.12
383.02	1071.97
383.22	1196.01
383.41	1062.60
383.61	1109.41
383.80	1142.18
384.00	1109.41
384.19	1055.58
384.39	1170.27
384.58	1167.93
384.78	1102.39
384.97	1158.57
385.17	1111.75
385.36	1217.08
385.56	1231.12
385.75	1135.16
385.95	1083.67
386.14	1313.04
386.34	1282.61
386.53	1156.22
386.72	1207.72
386.92	1249.85
387.11	1186.65
387.31	1210.06
387.50	1177.29
387.70	1249.85
387.89	1273.25
388.09	1217.08
388.28	1364.53
388.48	1242.82
388.67	1301.34
388.86	1294.32
389.06	1299.00
389.25	1409.00
389.45	1334.11
389.64	1338.79
389.84	1289.64
390.03	1369.21
390.22	1394.96
390.42	1364.53
390.61	1324.74
390.81	1371.55
391.00	1247.51
391.19	1460.49
391.39	1451.13
391.58	1451.13
391.78	1355.17
391.97	1479.22
392.16	1451.13
392.36	1479.22
392.55	1479.22
392.75	1547.09
392.94	1490.92
393.13	1544.75
393.33	1497.94
393.52	1511.99
393.71	1664.12
393.91	1542.41
394.10	1600.93
394.29	1603.27
394.49	1547.09
394.68	1640.72
394.88	1530.71
395.07	1743.70
395.26	1654.76
395.46	1699.23
395.65	1643.06
395.84	1774.13
396.04	1696.89
396.23	1727.32
396.42	1781.15
396.62	1842.00
396.81	1844.34
397.00	1682.85
397.19	1699.23
397.39	1778.81
397.58	1820.94
397.77	1825.62
397.97	1879.45
398.16	1832.64
398.35	1788.17
398.55	1762.42
398.74	1893.49
398.93	1839.66
399.12	1842.00
399.32	1994.14
399.51	1919.24
399.70	1975.41
399.90	1966.05
400.09	1912.22
400.28	2045.63
400.47	2033.93
400.67	1923.92
400.86	2019.88
401.05	1996.48
401.24	2143.93
401.44	2066.69
401.63	2141.59
401.82	2139.25
402.01	2090.10
402.21	2132.23
402.40	2169.68
402.59	2157.97
402.78	2216.49
402.97	2235.21
403.17	2223.51
403.36	2193.08
403.55	2340.54
403.74	2375.64
403.93	2394.37
404.13	2478.63
404.32	2310.11
404.51	2263.30
404.70	2399.05
404.89	2387.35
405.09	2511.39
405.28	2511.39
405.47	2509.05
405.66	2487.99
405.85	2551.18
406.05	2609.70
406.24	2658.85
406.43	2616.72
406.62	2619.06
406.81	2661.19
407.00	2572.25
407.20	2703.32
407.39	2553.52
407.58	2717.36
407.77	2761.83
407.96	2778.22
408.15	2806.30
408.34	2642.46
408.54	2759.49
408.73	2768.85
408.92	2911.63
409.11	2923.33
409.30	2855.45
409.49	2857.79
409.68	2942.05
409.87	2832.05
410.07	2970.14
410.26	3023.97
410.45	2913.97
410.64	3052.06
410.83	3089.51
411.02	3045.04
411.21	3232.28
411.40	3047.38
411.59	3091.85
411.78	3183.13
411.98	3204.19
412.17	3236.96
412.36	3363.35
412.55	3302.50
412.74	3407.82
412.93	3382.07
413.12	3440.59
413.31	3531.87
413.50	3501.44
413.69	3536.55
413.88	3641.87
414.07	3452.29
414.26	3684.00
414.45	3786.99
414.64	3669.96
414.83	3646.55
415.02	3674.64
415.22	3817.41
415.41	3896.99
415.60	3864.22
415.79	3948.48
415.98	3967.21
416.17	4051.47
416.36	3899.33
416.55	4079.55
416.74	4007.00
416.93	4046.79
417.12	4093.60
417.31	4212.96
417.50	4210.62
417.69	4395.53
417.88	4259.78
418.07	4217.65
418.26	4358.08
418.45	4306.59
418.64	4564.04
418.83	4524.26
419.02	4538.30
419.21	4458.72
419.39	4449.36
419.58	4449.36
419.77	4411.91
419.96	4674.05
420.15	4737.24
420.34	4571.07
420.53	4636.60
420.72	4880.02
420.91	4596.81
421.10	4842.57
421.29	4828.53
421.48	4655.33
421.67	4767.67
421.86	4650.64
422.05	4762.99
422.24	4770.01
422.43	4964.28
422.61	4990.02
422.80	4964.28
422.99	4947.89
423.18	4999.38
423.37	5174.92
423.56	4975.98
423.75	4950.23
423.94	5011.09
424.13	4791.08
424.32	4847.25
424.50	5020.45
424.69	5067.26
424.88	5081.30
425.07	4985.34
425.26	5095.35
425.45	4931.51
425.64	5006.41
425.83	4997.04
426.01	5069.60
426.20	5055.56
426.39	4919.81
426.58	5130.45
426.77	5093.01
426.96	5071.94
427.15	5064.92
427.33	5334.08
427.52	4968.96
427.71	5177.26
427.90	5329.40
428.09	5394.93
428.28	5275.57
428.46	5366.85
428.65	5245.14
428.84	5514.30
429.03	5507.28
429.22	5362.17
429.40	5467.49
429.59	5399.62
429.78	5320.04
429.97	5315.36
430.16	5423.02
430.34	5647.71
430.53	5577.50
430.72	5746.02
430.91	5493.24
431.10	5654.73
431.28	5877.09
431.47	5914.53
431.66	5977.73
431.85	5781.12
432.03	6022.20
432.22	6073.69
432.41	5811.55
432.60	6015.18
432.79	5991.77
432.97	6064.33
433.16	5951.98
433.35	5984.75
433.54	6129.86
433.72	6183.70
433.91	6003.47
434.10	6157.95
434.28	6057.31
434.47	6260.93
434.66	6230.51
434.85	6347.53
435.03	6237.53
435.22	6342.85
435.41	6464.56
435.59	6389.66
435.78	6375.62
435.97	6459.88
436.16	6305.40
436.34	6476.26
436.53	6574.56
436.72	6740.74
436.90	6478.60
437.09	6616.69
437.28	6743.08
437.46	6693.93
437.65	6619.04
437.84	6703.29
438.02	6789.89
438.21	6757.13
438.40	6860.11
438.58	6927.99
438.77	7199.49
438.96	6932.67
439.14	7040.33
439.33	7070.76
439.52	7222.89
439.70	7185.44
439.89	7260.34
440.08	7335.24
440.26	7424.18
440.45	7503.76
440.63	7403.11
440.82	7723.77
441.01	7506.10
441.19	7779.94
441.38	7662.91
441.57	7700.36
441.75	7929.74
441.94	7992.93
442.12	7969.52
442.31	8194.22
442.50	8079.53
442.68	7894.63
442.87	7962.50
443.05	8215.28
443.24	8381.46
443.43	8159.11
443.61	8161.45
443.80	8472.74
443.98	8201.24
444.17	7873.56
444.35	8287.84
444.54	8341.67
444.73	8334.65
444.91	8344.01
445.10	8446.99
445.28	8449.33
445.47	8243.37
445.65	8386.14
445.84	8500.83
446.02	8437.63
446.21	8341.67
446.39	8456.36
446.58	8617.85
446.77	8493.80
446.95	8184.85
447.14	8496.14
447.32	8468.06
447.51	8634.24
447.69	8418.91
447.88	8505.51
448.06	8519.55
448.25	8580.40
448.43	8549.98
448.62	8557.00
448.80	8571.04
448.99	8592.11
449.17	8711.47
449.36	8704.45
449.54	8819.14
449.73	9048.51
449.91	8772.33
450.10	9137.45
450.28	8982.98
450.46	9142.13
450.65	9165.54
450.83	8917.44
451.02	8992.34
451.20	9107.02
451.39	9135.11
451.57	9050.85
451.76	8910.42
451.94	9233.41
452.13	9315.33
452.31	9385.55
452.49	9165.54
452.68	9345.76
452.86	9233.41
453.05	9537.68
453.23	9706.20
453.42	9437.04
453.60	9287.25
453.78	9535.34
453.97	9621.94
454.15	9514.28
454.34	9465.13
454.52	9694.50
454.70	9589.17
454.89	9905.15
455.07	9944.94
455.26	9844.29
455.44	9982.38
455.62	9839.61
455.81	10181.33
455.99	9905.15
456.17	9923.87
456.36	10228.14
456.54	10136.86
456.73	10272.61
456.91	10485.60
457.09	10429.43
457.28	10466.88
457.46	10328.78
457.64	10434.11
457.83	10731.36
458.01	10408.36
458.19	10736.04
458.38	10719.65
458.56	10768.80
458.74	10665.82
458.93	10595.61
459.11	10743.06
459.29	10611.99
459.48	10724.33
459.66	10780.51
459.84	10953.71
460.03	11119.89
460.21	10808.59
460.39	10953.71
460.57	10904.56
460.76	11206.48
460.94	11286.06
461.12	11351.60
461.31	11283.72
461.49	11178.40
461.67	11323.51
461.85	11393.73
462.04	11316.49
462.22	11899.28
462.40	11623.10
462.59	11489.69
462.77	11485.01
462.95	11866.52
463.13	11470.97
463.32	11510.75
463.50	11892.26
463.68	11646.51
463.86	12006.95
464.05	11513.10
464.23	11639.48
464.41	11815.02
464.59	11772.89
464.78	12395.48
464.96	11978.86
465.14	11901.62
465.32	11976.52
465.50	12182.49
465.69	12339.30
465.87	12037.38
466.05	12030.35
466.23	12245.68
466.41	12294.83
466.60	12475.06
466.78	12119.29
466.96	12241.00
467.14	12353.35
467.32	12407.18
467.51	12936.14
467.69	12187.17
467.87	12486.76
468.05	12613.15
468.23	12435.27
468.41	12582.72
468.60	12580.38
468.78	12802.73
468.96	12578.04
469.14	12947.84
469.32	13034.44
469.50	12758.26
469.69	13104.66
469.87	13188.92
470.05	13163.17
470.23	13343.39
470.41	13195.94
470.59	13191.26
470.77	13240.41
470.95	13486.17
471.14	13589.15
471.32	13085.94
471.50	13549.36
471.68	13687.45
471.86	13703.84
472.04	13832.57
472.22	13905.12
472.40	13884.06
472.58	13624.26
472.77	13998.74
472.95	14235.14
473.13	14541.75
473.31	14057.26
473.49	14452.81
473.67	14368.55
473.85	14305.35
474.03	14523.02
474.21	14642.39
474.39	14604.94
474.57	14703.25
474.75	15082.41
474.93	15028.58
475.12	14984.11
475.30	15178.37
475.48	15030.92
475.66	15370.30
475.84	15323.49
476.02	15510.73
476.20	15644.14
476.38	15894.58
476.56	15910.96
476.74	15964.79
476.92	15896.92
477.10	15791.59
477.28	16081.82
477.46	16119.27
477.64	16240.98
477.82	16552.27
478.00	17097.61
478.18	17081.23
478.36	17085.91
478.54	17188.89
478.72	17195.92
478.90	17371.46
479.08	17474.44
479.26	17811.48
479.44	17530.61
479.62	17820.84
479.80	18361.50
479.98	18050.21
480.16	18623.64
480.34	18302.99
480.52	18775.78
480.70	18817.91
480.88	18216.39
481.06	18956.00
481.24	19176.01
481.41	19346.87
481.59	19276.65
481.77	19569.22
481.95	19625.39
482.13	19702.63
482.31	19747.10
482.49	20306.49
482.67	20203.50
482.85	20397.77
483.03	20608.42
483.21	20915.03
483.39	21074.18
483.57	21015.67
483.74	21247.38
483.92	21537.61
484.10	21425.26
484.28	21734.21
484.46	21893.37
484.64	22211.68
484.82	22038.48
485.00	22382.54
485.18	22471.48
485.35	22799.16
485.53	22944.27
485.71	23314.08
485.89	23735.37
486.07	23185.35
486.25	23658.14
486.43	23623.03
486.61	23805.59
486.78	24126.24
486.96	24491.37
487.14	24849.47
487.32	24669.25
487.50	25010.96
487.68	24980.54
487.85	25266.08
488.03	25158.42
488.21	26267.83
488.39	25811.43
488.57	26265.49
488.75	26185.91
488.92	26469.12
489.10	26869.35
489.28	27300.01
489.46	27253.20
489.64	27222.77
489.81	27906.21
489.99	27681.52
490.17	27824.29
490.35	28163.67
490.53	28166.01
490.70	28624.75
490.88	28187.07
491.06	28982.85
491.24	28917.32
491.41	29331.59
491.59	29420.53
491.77	29443.94
491.95	29832.47
492.13	29991.62
492.30	30426.96
492.48	30169.51
492.66	30672.72
492.84	30431.65
493.01	30878.69
493.19	30974.65
493.37	30934.86
493.54	31243.81
493.72	31447.44
493.90	31583.19
494.08	31751.71
494.25	32395.35
494.43	31725.96
494.61	32556.85
494.79	32545.15
494.96	32849.42
495.14	32790.91
495.32	33481.36
495.49	33521.15
495.67	33202.84
495.85	33935.43
496.02	33603.07
496.20	34153.10
496.38	33846.49
496.55	33862.87
496.73	34881.00
496.91	34438.64
497.09	34719.51
497.26	35056.54
497.44	35082.29
497.62	35381.88
497.79	35936.59
497.97	35662.74
498.14	36020.84
498.32	36079.36
498.50	36369.58
498.67	36678.54
498.85	36687.90
499.03	36903.23
499.20	36463.21
499.38	37134.94
499.56	37284.73
499.73	37134.94
499.91	37406.44
500.08	37851.14
500.26	37479.00
500.44	38003.28
500.61	37991.58
500.79	37961.15
500.97	38321.59
501.14	38883.32
501.32	38405.85
501.49	38209.25
501.67	39119.71
501.84	39063.54
502.02	38785.02
502.20	39173.55
502.37	39131.42
502.55	39365.47
502.72	39461.43
502.90	39866.34
503.07	39934.22
503.25	39789.11
503.43	40236.15
503.60	40093.38
503.78	40098.06
503.95	40491.27
504.13	40194.02
504.30	40734.68
504.48	40311.05
504.65	40769.79
504.83	41336.20
505.01	41855.80
505.18	41155.98
505.36	41530.47
505.53	41413.44
505.71	41801.97
505.88	42092.19
506.06	41701.32
506.23	42227.95
506.41	42059.43
506.58	42117.94
506.76	42597.75
506.93	42698.39
507.11	42274.76
507.28	42710.10
507.46	42848.19
507.63	42836.48
507.81	43433.32
507.98	43079.90
508.16	43129.05
508.33	43559.71
508.50	43599.50
508.68	44086.33
508.85	44009.09
509.03	44149.53
509.20	43910.79
509.38	44018.46
509.55	44851.69
509.73	45078.72
509.90	44617.63
510.08	44802.53
510.25	44720.62
510.42	44931.26
510.60	45167.66
510.77	45029.57
510.95	45923.65
511.12	45179.36
511.30	45041.27
511.47	45364.26
511.64	45696.62
511.82	46127.28
511.99	45532.78
512.17	46195.15
512.34	46110.89
512.51	46546.23
512.69	46375.37
512.86	46312.18
513.04	46894.97
513.21	46766.24
513.38	47009.66
513.56	47295.21
513.73	47004.98
513.90	47491.81
514.08	46951.15
514.25	47447.34
514.43	47416.91
514.60	47445.00
514.77	47796.08
514.95	47835.87
515.12	47686.07
515.29	47782.04
515.47	47899.06
515.64	48257.17
515.81	48259.51
515.99	48828.26
516.16	48390.58
516.33	48353.13
516.51	48985.07
516.68	48762.72
516.85	49048.27
517.03	48884.43
517.20	48896.13
517.37	48788.47
517.54	48882.09
517.72	48842.30
517.89	49074.01
518.06	49670.85
518.24	49219.13
518.41	49436.80
518.58	49549.14
518.75	49427.43
518.93	49764.47
519.10	49745.75
519.27	49729.36
519.45	50047.68
519.62	49808.94
519.79	50026.61
519.96	50061.72
520.14	50534.51
520.31	50000.86
520.48	50656.21
520.65	50253.64
520.83	50843.46
521.00	50604.72
521.17	50562.59
521.34	50773.24
521.52	50714.73
521.69	50997.93
521.86	51068.15
522.03	51344.33
522.20	51480.08
522.38	51597.11
522.55	51927.13
522.72	51192.20
522.89	51461.36
523.07	51433.27
523.24	51323.27
523.41	51704.77
523.58	51894.36
523.75	51863.93
523.92	52224.37
524.10	52332.04
524.27	52016.07
524.44	52090.96
524.61	52165.86
524.78	52367.15
524.96	52140.11
525.13	52479.49
525.30	52404.59
525.47	52891.43
525.64	52725.25
525.81	52566.09
525.98	53017.82
526.16	52872.70
526.33	52926.53
526.50	53216.76
526.67	52949.94
526.84	53202.72
527.01	53066.97
527.18	53141.86
527.36	53083.35
527.53	53497.62
527.70	53588.91
527.87	53635.72
528.04	53167.61
528.21	53593.59
528.38	53640.40
528.55	53574.86
528.72	53361.87
528.89	53628.69
529.07	53607.63
529.24	53544.44
529.41	53937.65
529.58	53752.74
529.75	53776.15
529.92	53719.98
530.09	53977.43
530.26	53921.26
530.43	54007.86
530.60	53670.82
530.77	53839.34
530.94	54438.52
531.11	53958.71
531.28	54305.11
531.46	54117.87
531.63	54143.61
531.80	54515.76
531.97	54394.05
532.14	54300.43
532.31	54546.18
532.48	54656.19
532.65	54581.29
532.82	54246.60
532.99	54878.54
533.16	54571.93
533.33	54981.52
533.50	54969.82
533.67	54944.08
533.84	54920.67
534.01	55079.83
534.18	54850.45
534.35	55402.82
534.52	54901.95
534.69	55276.43
534.86	55341.97
535.03	55040.04
535.20	55283.45
535.37	55201.53
535.54	55512.83
535.71	55398.14
535.88	55295.16
536.05	55540.91
536.22	55877.95
536.38	55615.81
536.55	55636.87
536.72	55489.42
536.89	55683.69
537.06	55831.14
537.23	56039.45
537.40	55929.44
537.57	55681.34
537.74	55894.33
537.91	56060.51
538.08	55920.08
538.25	55927.10
538.42	55901.36
538.59	56200.94
538.75	56027.74
538.92	56210.31
539.09	56016.04
539.26	56238.39
539.43	56315.63
539.60	56530.96
539.77	56453.72
539.94	56299.25
540.11	56760.33
540.28	56552.02
540.44	56549.68
540.61	56612.88
540.78	56399.89
540.95	56435.00
541.12	56568.41
541.29	56547.34
541.46	56509.89
541.62	56765.01
541.79	56992.04
541.96	56584.79
542.13	56659.69
542.30	56732.25
542.47	56879.70
542.63	57130.14
542.80	56935.87
542.97	57001.41
543.14	57382.91
543.31	57345.47
543.48	57099.71
543.64	57649.74
543.81	57684.84
543.98	57577.18
544.15	57474.20
544.32	57453.13
544.48	57801.87
544.65	57418.02
544.82	57399.30
544.99	57403.98
545.16	57633.35
545.32	57499.94
545.49	57616.97
545.66	57764.42
545.83	57776.12
546.00	57881.45
546.16	57591.22
546.33	57813.57
546.50	57874.43
546.67	57851.02
546.83	57488.24
547.00	57832.30
547.17	58092.10
547.34	57799.53
547.50	58277.00
547.67	58202.10
547.84	57937.62
548.00	58321.47
548.17	58277.00
548.34	58176.36
548.51	58204.44
548.67	58195.08
548.84	58314.45
549.01	58171.67
549.18	58106.14
549.34	58080.39
549.51	58436.16
549.68	58433.81
549.84	58412.75
550.01	58555.52
550.18	58447.86
550.34	58482.97
550.51	58557.86
550.68	58464.24
550.84	58295.72
551.01	58677.23
551.18	58621.06
551.34	58637.44
551.51	58621.06
551.68	58784.90
551.84	58901.92
552.01	58543.82
552.18	58702.98
552.34	58702.98
552.51	58883.20
552.68	58576.59
552.84	58775.53
553.01	59002.56
553.18	58934.69
553.34	58843.41
553.51	58885.54
553.67	58922.99
553.84	59049.38
554.01	59000.22
554.17	58953.41
554.34	59014.27
554.51	59086.82
554.67	59030.65
554.84	59023.63
555.00	59175.76
555.17	58901.92
555.33	59072.78
555.50	59147.68
555.67	59014.27
555.83	59110.23
556.00	59292.79
556.16	59763.24
556.33	59278.75
556.50	59461.31
556.66	59522.16
556.83	59157.04
556.99	59360.67
557.16	59580.68
557.32	59426.20
557.49	59613.44
557.65	59449.61
557.82	59288.11
557.98	59306.83
558.15	59327.90
558.32	59625.15
558.48	59576.00
558.65	59587.70
558.81	59597.06
558.98	59737.49
559.14	59653.23
559.31	59737.49
559.47	59723.45
559.64	59760.90
559.80	59737.49
559.97	59709.41
560.13	59580.68
560.30	59805.37
560.46	59992.61
560.63	59648.55
560.79	59788.98
560.96	59941.12
561.12	59938.78
561.29	59807.71
561.45	59931.76
561.61	59952.82
561.78	59845.16
561.94	59788.98
562.11	59906.01
562.27	59758.56
562.44	59992.61
562.60	60097.94
562.77	60186.88
562.93	59728.13
563.10	60212.62
563.26	60009.00
563.42	60191.56
563.59	60172.83
563.75	60168.15
563.92	60081.55
564.08	60100.28
564.24	60140.07
564.41	60280.50
564.57	60350.71
564.74	59884.95
564.90	60177.51
565.07	60177.51
565.23	60168.15
565.39	60135.38
565.56	60346.03
565.72	60186.88
565.88	60458.38
566.05	60275.82
566.21	60390.50
566.38	60343.69
566.54	60465.40
566.70	60463.06
566.87	60331.99
567.03	60317.95
567.19	60493.49
567.36	60437.31
567.52	60418.59
567.68	60626.90
567.85	60587.11
568.01	60568.38
568.17	60289.86
568.34	60348.37
568.50	60650.30
568.66	60437.31
568.83	60491.15
568.99	60280.50
569.15	60392.84
569.32	60493.49
569.48	60472.42
569.64	60456.04
569.81	60654.98
569.97	60509.87
570.13	60285.18
570.30	60568.38
570.46	60486.46
570.62	60495.83
570.78	60547.32
570.95	60626.90
571.11	60755.63
571.27	60580.09
571.43	60598.81
571.60	60734.56
571.76	60591.79
571.92	60718.18
572.09	60680.73
572.25	60662.00
572.41	60772.01
572.57	60823.50
572.74	60704.13
572.90	60867.97
573.06	60748.60
573.22	60687.75
573.38	60718.18
573.55	60809.46
573.71	60893.72
573.87	60750.94
574.03	60699.45
574.20	60870.31
574.36	60762.65
574.52	60879.67
574.68	60910.10
574.84	60874.99
575.01	60835.20
575.17	60823.50
575.33	60685.41
575.49	60851.59
575.65	60867.97
575.82	60816.48
575.98	60835.20
576.14	60877.33
576.30	60985.00
576.46	60762.65
576.62	60949.89
576.79	60877.33
576.95	60605.83
577.11	60882.02
577.27	60999.04
577.43	60968.61
577.59	60851.59
577.75	60760.31
577.92	60722.86
578.08	60963.93
578.24	60842.23
578.40	60788.39
578.56	61162.88
578.72	61083.30
578.88	61066.92
579.04	61305.65
579.21	61069.26
579.37	61059.90
579.53	61109.05
579.69	60903.08
579.85	60985.00
580.01	61141.81
580.17	60776.69
580.33	61125.43
580.49	60996.70
580.65	60935.85
580.82	61052.87
580.98	60968.61
581.14	61066.92
581.30	61097.34
581.46	61008.40
581.62	61003.72
581.78	60807.12
581.94	60891.38
582.10	60994.36
582.26	61085.64
582.42	61027.13
582.58	61064.58
582.74	60992.02
582.90	61092.66
583.06	61076.28
583.22	60907.76
583.38	61052.87
583.54	61193.31
583.70	61015.43
583.86	61111.39
584.02	61048.19
584.18	61118.41
584.34	61282.25
584.50	61041.17
584.66	60837.54
584.82	60952.23
584.98	61228.41
585.14	61219.05
585.30	60959.25
585.46	61139.47
585.62	61240.12
585.78	61268.20
585.94	60921.80
586.10	61080.96
586.26	61310.33
586.42	61291.61
586.58	61228.41
586.74	61097.34
586.90	61048.19
587.06	61066.92
587.22	61296.29
587.38	61169.90
587.54	61322.04
587.70	61244.80
587.86	61270.54
588.02	61247.14
588.18	61312.67
588.34	61020.11
588.49	61357.14
