SpectraSuite Data File
++++++++++++++++++++++++++++++++++++
Date: Fri Oct 25 10:47:48 EDT 2013
User: price-jones
Dark Spectrum Present: No
Reference Spectrum Present: No
Number of Sampled Component Spectra: 1
Spectrometers: USB2+H05261
Integration Time (usec): 100000 (USB2+H05261)
Spectra Averaged: 1 (USB2+H05261)
Boxcar Smoothing: 0 (USB2+H05261)
Correct for Electrical Dark: No (USB2+H05261)
Strobe/Lamp Enabled: No (USB2+H05261)
Correct for Detector Non-linearity: No (USB2+H05261)
Correct for Stray Light: No (USB2+H05261)
Number of Pixels in Processed Spectrum: 2048
>>>>>Begin Processed Spectral Data<<<<<
365.73	180.22
365.92	180.22
366.12	180.22
366.32	124.05
366.52	42.13
366.72	35.11
366.91	0.00
367.11	95.96
367.31	0.00
367.51	65.54
367.70	58.51
367.90	23.41
368.10	42.13
368.30	93.62
368.49	0.00
368.69	56.17
368.89	9.36
369.09	18.72
369.28	105.32
369.48	39.79
369.68	44.47
369.87	112.35
370.07	95.96
370.27	142.77
370.47	166.18
370.66	397.89
370.86	489.17
371.06	404.91
371.25	418.96
371.45	414.27
371.65	533.64
371.84	435.34
372.04	482.15
372.24	451.72
372.44	491.51
372.63	505.56
372.83	524.28
373.03	526.62
373.22	475.13
373.42	437.68
373.62	477.47
373.81	517.26
374.01	517.26
374.21	545.34
374.40	482.15
374.60	479.81
374.79	571.09
374.99	470.45
375.19	580.45
375.38	550.03
375.58	524.28
375.78	638.97
375.97	631.94
376.17	683.44
376.37	615.56
376.56	545.34
376.76	559.39
376.95	608.54
377.15	596.84
377.35	603.86
377.54	550.03
377.74	559.39
377.93	589.82
378.13	610.88
378.33	641.31
378.52	617.90
378.72	662.37
378.91	676.41
379.11	671.73
379.31	538.32
379.50	615.56
379.70	603.86
379.89	758.33
380.09	585.13
380.28	643.65
380.48	718.54
380.68	645.99
380.87	660.03
381.07	709.18
381.26	648.33
381.46	636.63
381.65	622.58
381.85	650.67
382.04	662.37
382.24	772.38
382.43	734.93
382.63	610.88
382.83	669.39
383.02	671.73
383.22	760.67
383.41	737.27
383.61	753.65
383.80	744.29
384.00	751.31
384.19	755.99
384.39	697.48
384.58	786.42
384.78	737.27
384.97	809.83
385.17	765.36
385.36	819.19
385.56	720.88
385.75	751.31
385.95	868.34
386.14	795.78
386.34	737.27
386.53	833.23
386.72	765.36
386.92	870.68
387.11	800.46
387.31	828.55
387.50	805.14
387.70	870.68
387.89	802.80
388.09	847.27
388.28	704.50
388.48	763.01
388.67	837.91
388.86	887.06
389.06	868.34
389.25	866.00
389.45	849.61
389.64	889.40
389.84	917.49
390.03	877.70
390.22	945.58
390.42	924.51
390.61	828.55
390.81	922.17
391.00	926.85
391.19	891.74
391.39	1015.79
391.58	933.87
391.78	915.15
391.97	1006.43
392.16	961.96
392.36	1008.77
392.55	999.41
392.75	1046.22
392.94	851.96
393.13	922.17
393.33	894.08
393.52	894.08
393.71	957.28
393.91	1015.79
394.10	1067.28
394.29	1076.65
394.49	1015.79
394.68	1100.05
394.88	1137.50
395.07	1083.67
395.26	1128.14
395.46	1156.22
395.65	1167.93
395.84	1160.91
396.04	1184.31
396.23	1109.41
396.42	1114.10
396.62	1104.73
396.81	1062.60
397.00	1200.69
397.19	1198.35
397.39	1193.67
397.58	1294.32
397.77	1172.61
397.97	1383.26
398.16	1287.29
398.35	1299.00
398.55	1355.17
398.74	1404.32
398.93	1357.51
399.12	1308.36
399.32	1320.06
399.51	1423.05
399.70	1338.79
399.90	1301.34
400.09	1390.28
400.28	1462.83
400.47	1507.30
400.67	1504.96
400.86	1416.02
401.05	1509.65
401.24	1483.90
401.44	1533.05
401.63	1427.73
401.82	1486.24
402.01	1401.98
402.21	1614.97
402.40	1607.95
402.59	1558.80
402.78	1528.37
402.97	1551.78
403.17	1619.65
403.36	1516.67
403.55	1565.82
403.74	1614.97
403.93	1682.85
404.13	1675.82
404.32	1685.19
404.51	1612.63
404.70	1689.87
404.89	1638.38
405.09	1776.47
405.28	1640.72
405.47	1750.72
405.66	1839.66
405.85	1811.57
406.05	1724.97
406.24	1790.51
406.43	1851.36
406.62	1760.08
406.81	1853.70
407.00	1769.44
407.20	1720.29
407.39	1877.11
407.58	1863.07
407.77	1898.17
407.96	1891.15
408.15	1947.33
408.34	1930.94
408.54	1949.67
408.73	1984.77
408.92	1975.41
409.11	2022.22
409.30	2005.84
409.49	1952.01
409.68	2113.50
409.87	2066.69
410.07	2087.76
410.26	2115.84
410.45	2155.63
410.64	2099.46
410.83	2169.68
411.02	2256.28
411.21	2298.41
411.40	2162.66
411.59	2272.66
411.78	2303.09
411.98	2321.81
412.17	2385.01
412.36	2361.60
412.55	2410.75
412.74	2495.01
412.93	2504.37
413.12	2352.24
413.31	2483.31
413.50	2466.92
413.69	2380.32
413.88	2656.51
414.07	2602.68
414.26	2532.46
414.45	2663.53
414.64	2686.94
414.83	2729.06
415.02	2679.91
415.22	2820.35
415.41	2808.64
415.60	2750.13
415.79	2860.13
415.98	2892.90
416.17	2848.43
416.36	2888.22
416.55	2810.98
416.74	2843.75
416.93	2974.82
417.12	3005.25
417.31	2963.12
417.50	2932.69
417.69	3002.91
417.88	3000.57
418.07	2991.20
418.26	3094.19
418.45	2956.10
418.64	3145.68
418.83	3136.32
419.02	3159.72
419.21	3227.60
419.39	3141.00
419.58	3070.78
419.77	3169.09
419.96	3265.05
420.15	3379.73
420.34	3236.96
420.53	3332.92
420.72	3389.10
420.91	3421.86
421.10	3375.05
421.29	3536.55
421.48	3421.86
421.67	3382.07
421.86	3386.76
422.05	3440.59
422.24	3377.39
422.43	3440.59
422.61	3475.70
422.80	3541.23
422.99	3538.89
423.18	3707.41
423.37	3583.36
423.56	3508.46
423.75	3508.46
423.94	3428.88
424.13	3323.56
424.32	3433.57
424.50	3529.53
424.69	3655.92
424.88	3691.02
425.07	3625.49
425.26	3524.85
425.45	3452.29
425.64	3588.04
425.83	3513.14
426.01	3716.77
426.20	3709.75
426.39	3691.02
426.58	3489.74
426.77	3541.23
426.96	3538.89
427.15	3545.91
427.33	3716.77
427.52	3653.58
427.71	3805.71
427.90	3726.13
428.09	3791.67
428.28	3714.43
428.46	3768.26
428.65	3791.67
428.84	3705.07
429.03	3859.54
429.22	3796.35
429.40	3810.39
429.59	3768.26
429.78	3646.55
429.97	3660.60
430.16	3709.75
430.34	3901.67
430.53	3833.80
430.72	3967.21
430.91	3866.56
431.10	4063.17
431.28	4124.02
431.47	4196.58
431.66	4219.99
431.85	4011.68
432.03	4112.32
432.22	4201.26
432.41	4074.87
432.60	4152.11
432.79	4170.83
432.97	4262.12
433.16	4128.70
433.35	4156.79
433.54	4362.76
433.72	4264.46
433.91	4257.43
434.10	4311.27
434.28	4278.50
434.47	4238.71
434.66	4479.79
434.85	4491.49
435.03	4440.00
435.22	4505.53
435.41	4594.47
435.59	4458.72
435.78	4648.30
435.97	4613.20
436.16	4645.96
436.34	4772.35
436.53	4631.92
436.72	4805.12
436.90	4695.11
437.09	4758.31
437.28	4599.15
437.46	4629.58
437.65	4615.54
437.84	4772.35
438.02	4751.29
438.21	4671.71
438.40	4657.67
438.58	4840.23
438.77	4915.12
438.96	4826.18
439.14	5139.82
439.33	5043.85
439.52	5210.03
439.70	5015.77
439.89	5170.24
440.08	5041.51
440.26	5132.79
440.45	4966.62
440.63	5322.38
440.82	5296.63
441.01	5364.51
441.19	5404.30
441.38	5350.46
441.57	5469.83
441.75	5493.24
441.94	5607.92
442.12	5645.37
442.31	5762.40
442.50	5717.93
442.68	5696.86
442.87	5746.02
443.05	5652.39
443.24	5858.36
443.43	5811.55
443.61	5731.97
443.80	5881.77
443.98	5636.01
444.17	5598.56
444.35	5776.44
444.54	6031.56
444.73	5900.49
444.91	5811.55
445.10	5806.87
445.28	5877.09
445.47	5715.59
445.65	5741.33
445.84	5823.25
446.02	5870.06
446.21	5827.93
446.39	5771.76
446.58	6057.31
446.77	6001.13
446.95	5996.45
447.14	5994.11
447.32	6076.03
447.51	6057.31
447.69	5940.28
447.88	5966.03
448.06	6099.44
448.25	6050.28
448.43	6207.10
448.62	5940.28
448.80	5968.37
448.99	5998.79
449.17	6207.10
449.36	6141.57
449.54	6326.47
449.73	6284.34
449.91	6317.11
450.10	6338.17
450.28	6527.75
450.46	6518.39
450.65	6509.03
450.83	6506.69
451.02	6427.11
451.20	6530.09
451.39	6555.84
451.57	6487.96
451.76	6237.53
451.94	6494.99
452.13	6497.33
452.31	6509.03
452.49	6537.12
452.68	6595.63
452.86	6544.14
453.05	6609.67
453.23	6698.61
453.42	6434.13
453.60	6534.78
453.78	6796.92
453.97	6754.79
454.15	6691.59
454.34	6684.57
454.52	6853.09
454.70	6740.74
454.89	6885.86
455.07	6888.20
455.26	6841.39
455.44	7023.95
455.62	7108.21
455.81	6923.30
455.99	6949.05
456.17	7166.72
456.36	6977.14
456.54	7068.42
456.73	7096.50
456.91	7180.76
457.09	7117.57
457.28	7534.18
457.46	7110.55
457.64	7410.14
457.83	7229.91
458.01	7206.51
458.19	7466.31
458.38	7304.81
458.56	7550.57
458.74	7623.12
458.93	7243.96
459.11	7419.50
459.29	7438.22
459.48	7595.04
459.66	7583.34
459.84	7489.71
460.03	7665.25
460.21	7793.98
460.39	7576.31
460.57	7555.25
460.76	7822.07
460.94	7805.69
461.12	7772.92
461.31	7665.25
461.49	7719.09
461.67	7559.93
461.85	8028.04
462.04	7960.16
462.22	8360.39
462.40	8025.70
462.59	7992.93
462.77	7971.86
462.95	8058.46
463.13	8063.15
463.32	8088.89
463.50	8168.47
463.68	8177.83
463.86	8325.29
464.05	8035.06
464.23	8065.49
464.41	8229.32
464.59	7985.91
464.78	8329.97
464.96	8002.29
465.14	8308.90
465.32	8430.61
465.50	8229.32
465.69	8437.63
465.87	8346.35
466.05	8336.99
466.23	8414.23
466.41	8334.65
466.60	8564.02
466.78	8348.69
466.96	8531.25
467.14	8421.25
467.32	8596.79
467.51	8547.64
467.69	8374.44
467.87	8533.59
468.05	8688.07
468.23	8634.24
468.41	8594.45
468.60	8645.94
468.78	8898.72
468.96	8559.34
469.14	8659.98
469.32	8863.61
469.50	8657.64
469.69	8798.07
469.87	8973.61
470.05	8884.67
470.23	8954.89
470.41	8982.98
470.59	9177.24
470.77	8968.93
470.95	9130.43
471.14	9317.67
471.32	9022.77
471.50	9331.72
471.68	9327.03
471.86	9451.08
472.04	9308.31
472.22	9643.01
472.40	9174.90
472.58	9401.93
472.77	9355.12
472.95	9479.17
473.13	9774.08
473.31	9486.19
473.49	9750.67
473.67	9558.75
473.85	9680.46
474.03	9788.12
474.21	9830.25
474.39	10050.26
474.57	10134.52
474.75	10111.11
474.93	10078.35
475.12	10129.84
475.30	10239.84
475.48	10080.69
475.66	10361.55
475.84	10171.97
476.02	10193.03
476.20	10457.51
476.38	10459.85
476.56	10855.40
476.74	10689.23
476.92	10792.21
477.10	10745.40
477.28	10876.47
477.46	11150.31
477.64	11286.06
477.82	11257.98
478.00	11569.27
478.18	11426.50
478.36	11489.69
478.54	11655.87
478.72	11445.22
478.90	11707.36
479.08	11850.13
479.26	12091.21
479.44	12121.63
479.62	12095.89
479.80	12058.44
479.98	12121.63
480.16	12362.71
480.34	12313.56
480.52	12437.61
480.70	12596.76
480.88	12503.14
481.06	12475.06
481.24	12695.07
481.41	12861.24
481.59	13034.44
481.77	12952.52
481.95	13184.24
482.13	13214.66
482.31	13308.29
482.49	13818.52
482.67	13532.98
482.85	13832.57
483.03	13687.45
483.21	13977.68
483.39	14064.28
483.57	13902.78
483.74	14160.24
483.92	14267.91
484.10	14387.27
484.28	14455.15
484.46	14609.62
484.64	15059.01
484.82	14635.37
485.00	14916.23
485.18	15110.50
485.35	15126.88
485.53	15084.75
485.71	15068.37
485.89	15740.10
486.07	15272.00
486.25	15332.85
486.43	15515.41
486.61	15749.46
486.78	15873.51
486.96	15899.26
487.14	16313.53
487.32	16236.30
487.50	16666.95
487.68	16542.91
487.85	16922.07
488.03	16807.39
488.21	17139.74
488.39	17137.40
488.57	17532.95
488.75	17329.33
488.92	17678.07
489.10	17635.94
489.28	17909.78
489.46	18258.52
489.64	18115.75
489.81	18492.57
489.99	18443.42
490.17	18586.19
490.35	19016.85
490.53	18665.77
490.70	18792.16
490.88	18911.53
491.06	19066.00
491.24	19012.17
491.41	19150.26
491.59	19204.10
491.77	18911.53
491.95	19726.04
492.13	19389.00
492.30	19662.84
492.48	19604.33
492.66	20074.77
492.84	20142.65
493.01	20287.76
493.19	19976.47
493.37	20477.35
493.54	20608.42
493.72	20793.32
493.90	20999.29
494.08	21008.65
494.25	21488.46
494.43	21364.41
494.61	21415.90
494.79	21350.37
494.96	21570.38
495.14	21516.54
495.32	21757.62
495.49	21977.63
495.67	21949.54
495.85	22068.91
496.02	22487.87
496.20	22279.56
496.38	22731.28
496.55	22260.84
496.73	23051.94
496.91	22682.13
497.09	22960.66
497.26	23152.58
497.44	22834.27
497.62	23367.91
497.79	23431.10
497.97	23335.14
498.14	23826.65
498.32	23421.74
498.50	23821.97
498.67	24210.50
498.85	24109.86
499.03	24222.20
499.20	24334.55
499.38	24287.74
499.56	24610.73
499.73	24386.04
499.91	24503.07
500.08	24879.89
500.26	24655.20
500.44	24664.57
500.61	24727.76
500.79	24657.54
500.97	25078.84
501.14	25200.55
501.32	25149.06
501.49	25106.93
501.67	25170.12
501.84	25518.86
502.02	25322.26
502.20	25963.56
502.37	25951.86
502.55	25977.61
502.72	25795.04
502.90	25956.54
503.07	25900.37
503.25	26403.58
503.43	25893.35
503.60	26139.10
503.78	26075.91
503.95	26363.79
504.13	26637.64
504.30	26441.03
504.48	26881.05
504.65	26710.19
504.83	26927.86
505.01	26869.35
505.18	26859.99
505.36	27335.12
505.53	27243.84
505.71	27683.86
505.88	27667.47
506.06	27089.36
506.23	27541.08
506.41	27316.39
506.58	27676.83
506.76	28034.94
506.93	28149.62
507.11	27896.85
507.28	27864.08
507.46	27917.91
507.63	28137.92
507.81	28336.87
507.98	28203.46
508.16	28325.16
508.33	28472.62
508.50	28409.42
508.68	28357.93
508.85	28903.28
509.03	29057.75
509.20	28961.79
509.38	28957.11
509.55	29371.38
509.73	29041.37
509.90	29345.64
510.08	29235.63
510.25	29357.34
510.42	29490.75
510.60	29773.95
510.77	29752.89
510.95	29764.59
511.12	29708.42
511.30	30017.37
511.47	29762.25
511.64	30188.23
511.82	30174.19
511.99	29961.20
512.17	29865.24
512.34	30242.06
512.51	30597.82
512.69	30391.86
512.86	30167.16
513.04	30452.71
513.21	30705.49
513.38	31016.78
513.56	30878.69
513.73	30654.00
513.90	31152.53
514.08	30445.69
514.25	31164.23
514.43	31637.02
514.60	31211.04
514.77	31234.45
514.95	31412.33
515.12	31185.30
515.29	31314.03
515.47	31550.42
515.64	31938.95
515.81	31541.06
515.99	31704.90
516.16	31622.98
516.33	32016.19
516.51	32011.51
516.68	31386.58
516.85	31555.10
517.03	31580.85
517.20	31999.80
517.37	32231.52
517.54	31955.33
517.72	32631.75
517.89	31999.80
518.06	32112.15
518.24	32311.10
518.41	32074.70
518.58	32549.83
518.75	32414.08
518.93	32608.34
519.10	32732.39
519.27	33010.92
519.45	33212.20
519.62	32931.34
519.79	33057.73
519.96	33280.08
520.14	33336.25
520.31	33118.58
520.48	33961.17
520.65	33415.83
520.83	33553.92
521.00	34026.71
521.17	33743.50
521.34	33919.04
521.52	33729.46
521.69	33830.10
521.86	33989.26
522.03	34066.50
522.20	33759.89
522.38	34099.26
522.55	33961.17
522.72	34459.71
522.89	34066.50
523.07	34445.66
523.24	34527.58
523.41	34501.84
523.58	34143.74
523.75	34904.41
523.92	34801.43
524.10	34850.58
524.27	35325.71
524.44	35005.05
524.61	35110.38
524.78	35175.91
524.96	35119.74
525.13	35264.85
525.30	35775.09
525.47	35590.19
525.64	35442.73
525.81	35337.41
525.98	35412.31
526.16	35688.49
526.33	35426.35
526.50	35501.25
526.67	35433.37
526.84	35550.40
527.01	35440.39
527.18	35882.75
527.36	36378.95
527.53	36147.23
527.70	36376.61
527.87	36428.10
528.04	36004.46
528.21	36236.17
528.38	36009.14
528.55	36683.22
528.72	36189.36
528.89	36355.54
529.07	36772.16
529.24	36149.57
529.41	36818.97
529.58	36172.98
529.75	36566.19
529.92	36851.73
530.09	37029.62
530.26	36840.03
530.43	37127.92
530.60	36587.25
530.77	36680.88
530.94	37514.11
531.11	37036.64
531.28	37266.01
531.46	37174.73
531.63	37350.27
531.80	37294.10
531.97	37284.73
532.14	37067.06
532.31	37900.29
532.48	37336.23
532.65	37516.45
532.82	37652.20
532.99	37429.85
533.16	37804.33
533.33	37724.75
533.50	37979.87
533.67	37755.18
533.84	37661.56
534.01	38155.41
534.18	38405.85
534.35	38506.49
534.52	37806.67
534.69	38323.93
534.86	38150.73
535.03	38052.43
535.20	38471.39
535.37	38642.24
535.54	38637.56
535.71	38181.16
535.88	38176.48
536.05	38574.37
536.22	38827.15
536.38	38323.93
536.55	38459.68
536.72	38679.69
536.89	38394.15
537.06	38941.83
537.23	38820.13
537.40	38782.68
537.57	38642.24
537.74	38955.88
537.91	39571.44
538.08	38698.42
538.25	39243.76
538.42	39182.91
538.59	39241.42
538.75	38768.63
538.92	38993.32
539.09	39271.85
539.26	39924.86
539.43	39400.58
539.60	39672.08
539.77	39543.35
539.94	39358.45
540.11	39210.99
540.28	39690.80
540.44	39351.43
540.61	39442.71
540.78	39068.22
540.95	39431.01
541.12	39618.25
541.29	39716.55
541.46	39763.36
541.62	40039.54
541.79	40254.87
541.96	39503.56
542.13	39768.04
542.30	40076.99
542.47	39955.29
542.63	40198.70
542.80	40259.55
542.97	40573.19
543.14	40514.67
543.31	40683.19
543.48	40512.33
543.64	41031.93
543.81	40697.24
543.98	40722.98
544.15	40615.32
544.32	40982.78
544.48	41170.02
544.65	40767.45
544.82	41036.61
544.99	40680.85
545.16	40863.41
545.32	40612.98
545.49	40931.29
545.66	41406.42
545.83	41258.96
546.00	41481.31
546.16	41130.23
546.33	41209.81
546.50	40914.90
546.67	41596.00
546.83	40935.97
547.00	40996.82
547.17	41591.32
547.34	41198.11
547.50	41221.52
547.67	41961.12
547.84	41799.63
548.00	41778.56
548.17	42349.65
548.34	41694.30
548.51	42082.83
548.67	41956.44
548.84	42005.59
549.01	41670.90
549.18	41434.50
549.34	41900.27
549.51	41778.56
549.68	41914.31
549.84	42359.02
550.01	42436.25
550.18	41984.53
550.34	42059.43
550.51	42007.94
550.68	41642.81
550.84	41486.00
551.01	42574.34
551.18	42122.62
551.34	42101.56
551.51	42328.59
551.68	42955.85
551.84	42398.80
552.01	41911.97
552.18	42068.79
552.34	42087.51
552.51	42431.57
552.68	42412.85
552.84	42763.93
553.01	42719.46
553.18	42590.73
553.34	43136.07
553.51	42557.96
553.67	42389.44
553.84	42862.23
554.01	42696.05
554.17	42653.92
554.34	42995.64
554.51	43407.58
554.67	42974.58
554.84	42955.85
555.00	42653.92
555.17	42567.32
555.33	42878.61
555.50	42934.79
555.67	43084.58
555.83	42670.31
556.00	43072.88
556.16	43405.23
556.33	43084.58
556.50	43068.20
556.66	43068.20
556.83	42845.85
556.99	43276.51
557.16	43578.43
557.32	43281.19
557.49	43363.11
557.65	43007.34
557.82	42969.90
557.98	43407.58
558.15	43658.01
558.32	43423.96
558.48	43173.52
558.65	43372.47
558.81	43328.00
558.98	43573.75
559.14	43248.42
559.31	43597.16
559.47	43428.64
559.64	43824.19
559.80	43915.47
559.97	43973.98
560.13	43379.49
560.30	43225.01
560.46	43302.25
560.63	43849.94
560.79	43608.86
560.96	44065.27
561.12	43903.77
561.29	43964.62
561.45	43761.00
561.61	44341.45
561.78	43665.03
561.94	43686.10
562.11	44065.27
562.27	43573.75
562.44	43845.26
562.60	44151.87
562.77	44151.87
562.93	43688.44
563.10	44217.40
563.26	43332.68
563.42	43875.68
563.59	43533.96
563.75	44060.58
563.92	43842.92
564.08	44058.24
564.24	44486.56
564.41	44037.18
564.57	43990.37
564.74	44086.33
564.90	44418.69
565.07	44357.83
565.23	44091.01
565.39	44072.29
565.56	44418.69
565.72	43578.43
565.88	44322.72
566.05	44002.07
566.21	44133.14
566.38	43597.16
566.54	44720.62
566.70	44507.63
566.87	44648.06
567.03	44357.83
567.19	44467.84
567.36	44238.47
567.52	44334.43
567.68	44568.48
567.85	44102.71
568.01	44339.11
568.17	44414.01
568.34	44236.12
568.50	43990.37
568.66	44369.54
568.83	44493.58
568.99	44240.81
569.15	44299.32
569.32	44088.67
569.48	44135.48
569.64	44580.18
569.81	44479.54
569.97	44296.98
570.13	44575.50
570.30	44430.39
570.46	44203.36
570.62	43761.00
570.78	43913.13
570.95	44179.95
571.11	44289.96
571.27	44367.20
571.43	44568.48
571.60	44566.14
571.76	44502.95
571.92	44678.49
572.09	43966.96
572.25	44304.00
572.41	44383.58
572.57	44671.46
572.74	44875.09
572.90	44353.15
573.06	44577.84
573.22	44725.30
573.38	44481.88
573.55	44334.43
573.71	44467.84
573.87	44509.97
574.03	44669.12
574.20	44435.07
574.36	44505.29
574.52	44531.03
574.68	44739.34
574.84	44603.59
575.01	44442.09
575.17	44924.24
575.33	44493.58
575.49	44325.07
575.65	44538.05
575.82	44350.81
575.98	44596.57
576.14	45074.04
576.30	44739.34
576.46	44861.05
576.62	44479.54
576.79	44886.79
576.95	44144.84
577.11	44304.00
577.27	44748.70
577.43	44531.03
577.59	44591.89
577.75	44439.75
577.92	44259.53
578.08	44573.16
578.24	44505.29
578.40	44402.30
578.56	44907.86
578.72	44655.08
578.88	44722.96
579.04	44624.65
579.21	44811.90
579.37	44285.28
579.53	44610.61
579.69	44690.19
579.85	44978.07
580.01	44605.93
580.17	44762.75
580.33	44933.60
580.49	45240.21
580.65	44788.49
580.82	44655.08
580.98	44875.09
581.14	44449.11
581.30	45148.93
581.46	44708.91
581.62	44900.84
581.78	45074.04
581.94	45116.17
582.10	44662.10
582.26	45088.08
582.42	44870.41
582.58	44844.66
582.74	44399.96
582.90	44762.75
583.06	44524.01
583.22	44758.06
583.38	45427.46
583.54	44570.82
583.70	45071.70
583.86	44818.92
584.02	44531.03
584.18	45170.00
584.34	45090.42
584.50	44772.11
584.66	44479.54
584.82	44186.97
584.98	44910.20
585.14	45106.80
585.30	44289.96
585.46	44650.40
585.62	44542.74
585.78	44472.52
585.94	44615.29
586.10	44926.58
586.26	44498.26
586.42	44832.96
586.58	45226.17
586.74	44694.87
586.90	44692.53
587.06	44545.08
587.22	44872.75
587.38	44746.36
587.54	45523.42
587.70	45455.54
587.86	44837.64
588.02	44739.34
588.18	45193.40
588.34	44926.58
588.49	44626.99
588.65	44680.83
588.81	44435.07
588.97	44692.53
589.13	44809.56
589.29	45090.42
589.45	44594.23
589.61	44933.60
589.77	45144.25
589.93	45162.98
590.08	45081.06
590.24	45298.73
