SpectraSuite Data File
++++++++++++++++++++++++++++++++++++
Date: Fri Oct 25 10:43:37 EDT 2013
User: price-jones
Dark Spectrum Present: No
Reference Spectrum Present: No
Number of Sampled Component Spectra: 1
Spectrometers: USB2+H05261
Integration Time (usec): 100000 (USB2+H05261)
Spectra Averaged: 1 (USB2+H05261)
Boxcar Smoothing: 0 (USB2+H05261)
Correct for Electrical Dark: No (USB2+H05261)
Strobe/Lamp Enabled: No (USB2+H05261)
Correct for Detector Non-linearity: No (USB2+H05261)
Correct for Stray Light: No (USB2+H05261)
Number of Pixels in Processed Spectrum: 2048
>>>>>Begin Processed Spectral Data<<<<<
365.73	117.03
365.92	117.03
366.12	117.03
366.32	44.47
366.52	28.09
366.72	0.00
366.91	53.83
367.11	51.49
367.31	4.68
367.51	91.28
367.70	0.00
367.90	65.54
368.10	77.24
368.30	32.77
368.49	28.09
368.69	93.62
368.89	81.92
369.09	58.51
369.28	95.96
369.48	107.66
369.68	30.43
369.87	138.09
370.07	53.83
370.27	149.79
370.47	175.54
370.66	383.85
370.86	374.49
371.06	416.62
371.25	503.22
371.45	428.32
371.65	533.64
371.84	477.47
372.04	454.06
372.24	418.96
372.44	465.77
372.63	493.85
372.83	575.77
373.03	524.28
373.22	416.62
373.42	528.96
373.62	589.82
373.81	557.05
374.01	594.50
374.21	524.28
374.40	538.32
374.60	587.47
374.79	578.11
374.99	524.28
375.19	507.90
375.38	610.88
375.58	627.26
375.78	629.60
375.97	582.79
376.17	629.60
376.37	510.24
376.56	636.63
376.76	547.69
376.95	561.73
377.15	669.39
377.35	615.56
377.54	641.31
377.74	582.79
377.93	664.71
378.13	671.73
378.33	711.52
378.52	657.69
378.72	713.86
378.91	629.60
379.11	683.44
379.31	681.10
379.50	624.92
379.70	655.35
379.89	688.12
380.09	716.20
380.28	690.46
380.48	657.69
380.68	753.65
380.87	688.12
381.07	746.63
381.26	760.67
381.46	641.31
381.65	770.04
381.85	669.39
382.04	690.46
382.24	704.50
382.43	720.88
382.63	706.84
382.83	683.44
383.02	763.01
383.22	746.63
383.41	690.46
383.61	765.36
383.80	833.23
384.00	861.32
384.19	833.23
384.39	777.06
384.58	896.43
384.78	840.25
384.97	919.83
385.17	837.91
385.36	844.93
385.56	784.08
385.75	777.06
385.95	854.30
386.14	912.81
386.34	863.66
386.53	793.44
386.72	833.23
386.92	882.38
387.11	947.92
387.31	842.59
387.50	807.48
387.70	842.59
387.89	896.43
388.09	833.23
388.28	889.40
388.48	922.17
388.67	933.87
388.86	896.43
389.06	912.81
389.25	1011.11
389.45	992.39
389.64	1046.22
389.84	983.02
390.03	1011.11
390.22	1050.90
390.42	1036.86
390.61	1078.99
390.81	1020.47
391.00	1034.52
391.19	1060.26
391.39	1069.62
391.58	983.02
391.78	1022.81
391.97	1095.37
392.16	990.05
392.36	1076.65
392.55	1050.90
392.75	1022.81
392.94	931.53
393.13	1039.20
393.33	964.30
393.52	1011.11
393.71	1104.73
393.91	1107.07
394.10	1137.50
394.29	1174.95
394.49	1144.52
394.68	1210.06
394.88	1245.16
395.07	1259.21
395.26	1240.48
395.46	1226.44
395.65	1289.64
395.84	1245.16
396.04	1327.08
396.23	1170.27
396.42	1233.46
396.62	1259.21
396.81	1214.74
397.00	1228.78
397.19	1207.72
397.39	1303.68
397.58	1444.11
397.77	1458.15
397.97	1446.45
398.16	1343.47
398.35	1455.81
398.55	1472.20
398.74	1577.52
398.93	1619.65
399.12	1540.07
399.32	1493.26
399.51	1481.56
399.70	1530.71
399.90	1626.67
400.09	1563.48
400.28	1645.40
400.47	1673.48
400.67	1699.23
400.86	1638.38
401.05	1741.36
401.24	1614.97
401.44	1741.36
401.63	1685.19
401.82	1746.04
402.01	1661.78
402.21	1813.92
402.40	1839.66
402.59	1783.49
402.78	1827.96
402.97	1863.07
403.17	1799.87
403.36	1834.98
403.55	1956.69
403.74	1998.82
403.93	1940.30
404.13	1870.09
404.32	1825.62
404.51	1905.20
404.70	1940.30
404.89	1930.94
405.09	2010.52
405.28	1973.07
405.47	1982.43
405.66	1940.30
405.85	1996.48
406.05	2031.58
406.24	2111.16
406.43	2141.59
406.62	2052.65
406.81	2101.80
407.00	2062.01
407.20	2214.15
407.39	2146.27
407.58	2101.80
407.77	2118.18
407.96	2221.17
408.15	2258.62
408.34	2305.43
408.54	2249.25
408.73	2235.21
408.92	2352.24
409.11	2307.77
409.30	2244.57
409.49	2275.00
409.68	2209.47
409.87	2237.55
410.07	2340.54
410.26	2349.90
410.45	2546.50
410.64	2340.54
410.83	2466.92
411.02	2492.67
411.21	2574.59
411.40	2480.97
411.59	2583.95
411.78	2658.85
411.98	2572.25
412.17	2593.31
412.36	2750.13
412.55	2677.57
412.74	2771.19
412.93	2745.45
413.12	2731.41
413.31	2935.03
413.50	2890.56
413.69	2913.97
413.88	2881.20
414.07	3077.80
414.26	2935.03
414.45	2944.39
414.64	3096.53
414.83	3021.63
415.02	3007.59
415.22	3075.46
415.41	3133.98
415.60	3173.77
415.79	3206.53
415.98	3283.77
416.17	3356.33
416.36	3272.07
416.55	3356.33
416.74	3241.64
416.93	3365.69
417.12	3213.56
417.31	3412.50
417.50	3321.22
417.69	3492.08
417.88	3492.08
418.07	3524.85
418.26	3412.50
418.45	3632.51
418.64	3667.62
418.83	3599.74
419.02	3623.15
419.21	3557.61
419.39	3747.20
419.58	3634.85
419.77	3611.45
419.96	3726.13
420.15	3770.60
420.34	3819.75
420.53	3922.74
420.72	3887.63
420.91	3861.88
421.10	3742.52
421.29	4011.68
421.48	3801.03
421.67	4107.64
421.86	3868.91
422.05	3864.22
422.24	3749.54
422.43	3875.93
422.61	3779.97
422.80	3880.61
422.99	4002.32
423.18	4044.45
423.37	3971.89
423.56	4053.81
423.75	3915.72
423.94	3887.63
424.13	3775.28
424.32	3864.22
424.50	3974.23
424.69	4051.47
424.88	4035.08
425.07	3911.04
425.26	3988.27
425.45	3859.54
425.64	3859.54
425.83	3950.82
426.01	4175.52
426.20	4154.45
426.39	4002.32
426.58	4042.11
426.77	4021.04
426.96	3887.63
427.15	4084.23
427.33	4102.96
427.52	4201.26
427.71	4145.09
427.90	4117.00
428.09	4203.60
428.28	4262.12
428.46	4208.28
428.65	4166.15
428.84	4287.86
429.03	4418.93
429.22	3990.61
429.40	4217.65
429.59	4091.26
429.78	4070.19
429.97	4035.08
430.16	4102.96
430.34	4205.94
430.53	4124.02
430.72	4266.80
430.91	4383.82
431.10	4381.48
431.28	4435.32
431.47	4573.41
431.66	4709.16
431.85	4746.61
432.03	4819.16
432.22	4823.84
432.41	4746.61
432.60	4870.65
432.79	4596.81
432.97	4868.31
433.16	4809.80
433.35	4798.10
433.54	4767.67
433.72	4753.63
433.91	4615.54
434.10	4603.83
434.28	4702.14
434.47	5006.41
434.66	5078.96
434.85	4954.91
435.03	4833.21
435.22	5116.41
435.41	5191.31
435.59	5172.58
435.78	5142.16
435.97	5280.25
436.16	5355.15
436.34	5046.20
436.53	5172.58
436.72	5406.64
436.90	5069.60
437.09	5228.76
437.28	5254.50
437.46	5261.52
437.65	5146.84
437.84	5263.86
438.02	5310.68
438.21	5282.59
438.40	5186.63
438.58	5371.53
438.77	5423.02
438.96	5441.75
439.14	5753.04
439.33	5624.31
439.52	5771.76
439.70	5731.97
439.89	5776.44
440.08	5568.13
440.26	5771.76
440.45	5692.18
440.63	5785.80
440.82	5987.09
441.01	6003.47
441.19	6113.48
441.38	6071.35
441.57	6164.97
441.75	6069.01
441.94	6380.30
442.12	6291.36
442.31	6408.39
442.50	6480.94
442.68	6267.95
442.87	6342.85
443.05	6347.53
443.24	6373.28
443.43	6602.65
443.61	6686.91
443.80	6698.61
443.98	6537.12
444.17	6289.02
444.35	6516.05
444.54	6841.39
444.73	6677.55
444.91	6555.84
445.10	6593.29
445.28	6504.35
445.47	6516.05
445.65	6511.37
445.84	6558.18
446.02	6675.21
446.21	6565.20
446.39	6684.57
446.58	6649.46
446.77	6684.57
446.95	6710.32
447.14	6743.08
447.32	6902.24
447.51	6663.51
447.69	6850.75
447.88	6766.49
448.06	6801.60
448.25	6675.21
448.43	6911.60
448.62	6700.95
448.80	6885.86
448.99	6923.30
449.17	7012.24
449.36	6925.65
449.54	7073.10
449.73	7082.46
449.91	7396.09
450.10	7187.79
450.28	7379.71
450.46	7152.68
450.65	7339.92
450.83	7396.09
451.02	7353.96
451.20	7368.01
451.39	7405.46
451.57	7449.93
451.76	7220.55
451.94	7393.75
452.13	7365.67
452.31	7302.47
452.49	7260.34
452.68	7332.90
452.86	7325.88
453.05	7314.17
453.23	7424.18
453.42	7349.28
453.60	7403.11
453.78	7510.78
453.97	7265.02
454.15	7573.97
454.34	7641.85
454.52	7789.30
454.70	7536.52
454.89	7485.03
455.07	7648.87
455.26	7604.40
455.44	7770.58
455.62	7810.37
455.81	7742.49
455.99	7826.75
456.17	7889.95
456.36	7829.09
456.54	7981.23
456.73	8142.72
456.91	8306.56
457.09	7999.95
457.28	8442.31
457.46	7981.23
457.64	8292.52
457.83	8294.86
458.01	8004.63
458.19	8346.35
458.38	8175.49
458.56	8334.65
458.74	8351.03
458.93	8425.93
459.11	8402.52
459.29	8503.17
459.48	8510.19
459.66	8322.94
459.84	8636.58
460.03	8690.41
460.21	8716.16
460.39	8662.32
460.57	8730.20
460.76	8851.91
460.94	8842.54
461.12	8643.60
461.31	8877.65
461.49	8781.69
461.67	8966.59
461.85	9135.11
462.04	8936.17
462.22	9502.58
462.40	8999.36
462.59	8926.80
462.77	9064.89
462.95	9163.20
463.13	9151.49
463.32	9048.51
463.50	8959.57
463.68	9144.47
463.86	9041.49
464.05	9020.42
464.23	8945.53
464.41	8926.80
464.59	9029.79
464.78	9312.99
464.96	9224.05
465.14	9294.27
465.32	9366.82
465.50	9291.93
465.69	9296.61
465.87	9303.63
466.05	9399.59
466.23	9217.03
466.41	9207.67
466.60	9352.78
466.78	9081.28
466.96	9298.95
467.14	9401.93
467.32	9387.89
467.51	9675.77
467.69	9327.03
467.87	9514.28
468.05	9731.95
468.23	9423.00
468.41	9589.17
468.60	9692.16
468.78	9865.36
468.96	9755.35
469.14	9600.88
469.32	9914.51
469.50	9834.93
469.69	9895.78
469.87	10061.96
470.05	9909.83
470.23	9886.42
470.41	9750.67
470.59	10036.22
470.77	10087.71
470.95	10249.21
471.14	10452.83
471.32	10150.90
471.50	10396.66
471.68	10340.49
471.86	10520.71
472.04	10384.96
472.22	10656.46
472.40	10384.96
472.58	10436.45
472.77	10729.02
472.95	10682.20
473.13	10974.77
473.31	10487.94
473.49	10644.76
473.67	10766.46
473.85	10897.53
474.03	11054.35
474.21	10965.41
474.39	11190.10
474.57	11129.25
474.75	11265.00
474.93	11611.40
475.12	11208.83
475.30	11335.21
475.48	11311.81
475.66	11620.76
475.84	11426.50
476.02	11686.29
476.20	11590.33
476.38	11819.71
476.56	11934.39
476.74	12051.42
476.92	11988.22
477.10	11927.37
477.28	12196.53
477.46	12196.53
477.64	12149.72
477.82	12453.99
478.00	12676.34
478.18	12554.63
478.36	12580.38
478.54	12917.42
478.72	13013.38
478.90	13174.88
479.08	13125.72
479.26	13364.46
479.44	13404.25
479.62	13795.12
479.80	13556.38
479.98	13514.25
480.16	13832.57
480.34	13486.17
480.52	13724.90
480.70	13886.40
480.88	13855.97
481.06	14270.25
481.24	14029.17
481.41	14504.30
481.59	14331.10
481.77	14593.24
481.95	14644.73
482.13	14614.30
482.31	14637.71
482.49	15157.31
482.67	14876.44
482.85	15215.82
483.03	15161.99
483.21	15321.15
483.39	15342.21
483.57	15566.90
483.74	15492.01
483.92	15772.87
484.10	15683.93
484.28	16067.78
484.46	16149.70
484.64	16601.42
484.82	16332.26
485.00	16215.23
485.18	16489.07
485.35	16535.88
485.53	16287.79
485.71	16685.68
485.89	16451.63
486.07	16634.19
486.25	17193.58
486.43	17032.08
486.61	17170.17
486.78	17319.96
486.96	17603.17
487.14	17827.86
487.32	17991.70
487.50	17989.36
487.68	18586.19
487.85	18663.43
488.03	18794.50
488.21	18775.78
488.39	18541.72
488.57	18785.14
488.75	18745.35
488.92	19522.41
489.10	19693.27
489.28	19882.85
489.46	19798.59
489.64	19988.18
489.81	20156.69
489.99	20652.89
490.17	20514.80
490.35	20781.62
490.53	20168.40
490.70	20910.35
490.88	20760.55
491.06	21067.16
491.24	21146.74
491.41	21146.74
491.59	20709.06
491.77	20929.07
491.95	21521.23
492.13	21420.58
492.30	21825.50
492.48	22284.24
492.66	21970.61
492.84	22146.15
493.01	22146.15
493.19	22270.20
493.37	22441.06
493.54	22363.82
493.72	23091.73
493.90	22759.37
494.08	22890.44
494.25	23110.45
494.43	23367.91
494.61	23285.99
494.79	23967.09
494.96	23653.45
495.14	24159.01
495.32	23950.70
495.49	23857.08
495.67	24006.87
495.85	24407.11
496.02	24362.64
496.20	24510.09
496.38	24467.96
496.55	24840.11
496.73	25345.66
496.91	24800.32
497.09	25221.61
497.26	25776.32
497.44	25425.24
497.62	25694.40
497.79	26022.08
497.97	25357.36
498.14	25610.14
498.32	26136.76
498.50	25661.63
498.67	26295.92
498.85	26574.44
499.03	26342.73
499.20	26335.71
499.38	26841.26
499.56	26567.42
499.73	26768.71
499.91	26895.10
500.08	26824.88
500.26	26836.58
500.44	26925.52
500.61	27295.33
500.79	27028.51
500.97	27037.87
501.14	27400.65
501.32	27143.19
501.49	27501.29
501.67	27421.72
501.84	27707.26
502.02	27857.06
502.20	27990.47
502.37	27676.83
502.55	27859.40
502.72	27852.38
502.90	28067.70
503.07	28304.10
503.25	28402.40
503.43	28538.15
503.60	28458.57
503.78	28584.96
503.95	28311.12
504.13	28758.16
504.30	28811.99
504.48	29226.27
504.65	29244.99
504.83	29067.11
505.01	29717.78
505.18	29338.62
505.36	29591.39
505.53	29570.33
505.71	30157.80
505.88	29890.98
506.06	29752.89
506.23	29757.57
506.41	29626.50
506.58	29888.64
506.76	30068.86
506.93	30651.66
507.11	30410.58
507.28	30295.89
507.46	30586.12
507.63	30153.12
507.81	30087.59
507.98	30499.52
508.16	30253.76
508.33	30604.84
508.50	31028.48
508.68	31119.76
508.85	31613.62
509.03	30955.93
509.20	31332.75
509.38	31527.02
509.55	31470.84
509.73	31660.43
509.90	31503.61
510.08	31824.26
510.25	31365.52
510.42	32004.49
510.60	32034.91
510.77	32278.33
510.95	32191.73
511.12	32442.17
511.30	32208.11
511.47	32891.55
511.64	32818.99
511.82	32804.95
511.99	32634.09
512.17	32875.16
512.34	32451.53
512.51	32713.67
512.69	33149.01
512.86	32671.54
513.04	32999.21
513.21	33237.95
513.38	33020.28
513.56	33441.57
513.73	32809.63
513.90	33495.41
514.08	33455.62
514.25	33139.65
514.43	33717.76
514.60	33586.69
514.77	33598.39
514.95	33434.55
515.12	33764.57
515.29	33593.71
515.47	33984.58
515.64	34024.37
515.81	33862.87
515.99	34178.84
516.16	34066.50
516.33	34092.24
516.51	34043.09
516.68	33392.42
516.85	33717.76
517.03	33486.04
517.20	34103.95
517.37	34223.31
517.54	34677.38
517.72	34815.47
517.89	34183.52
518.06	34600.14
518.24	34249.06
518.41	34291.19
518.58	34983.99
518.75	35110.38
518.93	34829.51
519.10	35016.75
519.27	35849.99
519.45	35108.04
519.62	35445.07
519.79	35445.07
519.96	35524.65
520.14	35672.10
520.31	35775.09
520.48	35871.05
520.65	35454.44
520.83	35796.15
521.00	36327.45
521.17	36369.58
521.34	36140.21
521.52	36184.68
521.69	36428.10
521.86	36847.05
522.03	36879.82
522.20	36491.29
522.38	36893.86
522.55	36638.75
522.72	36797.90
522.89	36694.92
523.07	36884.50
523.24	36741.73
523.41	37010.89
523.58	37148.98
523.75	37743.48
523.92	37457.93
524.10	37397.08
524.27	37670.92
524.44	37649.86
524.61	37633.47
524.78	37420.48
524.96	37745.82
525.13	38211.59
525.30	37977.53
525.47	37893.27
525.64	37738.80
525.81	37902.64
525.98	37989.24
526.16	37603.05
526.33	37553.90
526.50	37600.71
526.67	37394.74
526.84	37490.70
527.01	37558.58
527.18	38225.63
527.36	38548.62
527.53	38532.24
527.70	38918.43
527.87	38660.97
528.04	38424.57
528.21	38672.67
528.38	38574.37
528.55	39002.69
528.72	39063.54
528.89	39182.91
529.07	39519.95
529.24	38873.96
529.41	39012.05
529.58	39000.35
529.75	39246.10
529.92	39515.26
530.09	39360.79
530.26	39477.82
530.43	39765.70
530.60	38895.02
530.77	39501.22
530.94	39690.80
531.11	39679.10
531.28	39573.78
531.46	39878.05
531.63	40168.27
531.80	39833.58
531.97	39775.06
532.14	39608.89
532.31	39510.58
532.48	39700.17
532.65	39995.07
532.82	39842.94
532.99	40121.46
533.16	39920.18
533.33	39842.94
533.50	40306.37
533.67	40346.15
533.84	39943.58
534.01	40046.57
534.18	40371.90
534.35	40772.13
534.52	40437.44
534.69	40708.94
534.86	40992.14
535.03	40278.28
535.20	41371.31
535.37	41371.31
535.54	40992.14
535.71	41045.97
535.88	41256.62
536.05	41003.85
536.22	40919.59
536.38	41350.24
536.55	40889.16
536.72	40767.45
536.89	40821.28
537.06	41022.57
537.23	41617.07
537.40	41495.36
537.57	41607.70
537.74	41380.67
537.91	41670.90
538.08	41476.63
538.25	41273.01
538.42	41794.95
538.59	41546.85
538.75	41350.24
538.92	41710.69
539.09	41659.20
539.26	41968.15
539.43	41354.93
539.60	41574.94
539.77	41682.60
539.94	41820.69
540.11	41415.78
540.28	41504.72
540.44	42148.37
540.61	41745.80
540.78	41654.51
540.95	41486.00
541.12	41539.83
541.29	42256.03
541.46	42380.08
541.62	42029.00
541.79	42426.89
541.96	41731.75
542.13	42021.98
542.30	42410.51
542.47	42291.14
542.63	42178.79
542.80	42724.14
542.97	42733.50
543.14	43435.66
543.31	43002.66
543.48	42745.20
543.64	43173.52
543.81	43140.75
543.98	43040.11
544.15	43203.95
544.32	42913.72
544.48	43702.48
544.65	43487.15
544.82	43356.08
544.99	42932.45
545.16	43187.56
545.32	43430.98
545.49	43758.66
545.66	43608.86
545.83	43171.18
546.00	43365.45
546.16	43639.29
546.33	43395.87
546.50	43100.97
546.67	43540.99
546.83	43257.78
547.00	43700.14
547.17	43618.22
547.34	43608.86
547.50	43342.04
547.67	43810.15
547.84	43613.54
548.00	43959.94
548.17	43945.90
548.34	43452.05
548.51	44514.65
548.67	44004.41
548.84	43934.20
549.01	43768.02
549.18	43945.90
549.34	43966.96
549.51	44479.54
549.68	44252.51
549.84	44046.54
550.01	44596.57
550.18	44245.49
550.34	44238.47
550.51	44406.98
550.68	43611.20
550.84	44114.42
551.01	44154.21
551.18	44076.97
551.34	43957.60
551.51	44449.11
551.68	44582.52
551.84	44486.56
552.01	44446.77
552.18	44891.48
552.34	44140.16
552.51	44634.02
552.68	44470.18
552.84	44947.65
553.01	44889.13
553.18	44779.13
553.34	44683.17
553.51	44554.44
553.67	45174.68
553.84	45010.84
554.01	45090.42
554.17	45050.63
554.34	45198.09
554.51	44706.57
554.67	45195.74
554.84	45270.64
555.00	44811.90
555.17	44823.60
555.33	44872.75
555.50	44659.76
555.67	44886.79
555.83	45209.79
556.00	45031.91
556.16	45310.43
556.33	44987.44
556.50	45305.75
556.66	45088.08
556.83	44767.43
556.99	45067.02
557.16	45633.42
557.32	45298.73
557.49	45455.54
557.65	45062.33
557.82	45682.58
557.98	45450.86
558.15	44875.09
558.32	45443.84
558.48	45127.87
558.65	45045.95
558.81	45134.89
558.98	45205.11
559.14	45303.41
559.31	45125.53
559.47	45490.65
559.64	45563.21
559.80	45394.69
559.97	45525.76
560.13	45221.49
560.30	45827.69
560.46	45525.76
560.63	45949.40
560.79	45584.27
560.96	45949.40
561.12	45476.61
561.29	45242.56
561.45	45457.88
561.61	45394.69
561.78	45357.24
561.94	45216.81
562.11	45043.61
562.27	45497.67
562.44	45811.31
562.60	45933.01
562.77	45595.98
562.93	45830.03
563.10	45806.62
563.26	45825.35
563.42	45982.16
563.59	45680.24
563.75	45748.11
563.92	46401.12
564.08	46059.40
564.24	46005.57
564.41	46124.94
564.57	45883.86
564.74	45691.94
564.90	46178.77
565.07	45661.51
565.23	45773.86
565.39	45989.19
565.56	45844.07
565.72	45708.32
565.88	45825.35
566.05	45769.18
566.21	45801.94
566.38	45794.92
566.54	46047.70
566.70	46295.80
566.87	46101.53
567.03	46490.06
567.19	46431.55
567.36	45851.09
567.52	45865.14
567.68	46082.81
567.85	45766.84
568.01	45909.61
568.17	46000.89
568.34	46401.12
568.50	45841.73
568.66	45855.78
568.83	46220.90
568.99	45705.98
569.15	45638.11
569.32	45895.56
569.48	45776.20
569.64	45968.12
569.81	46073.45
569.97	45759.81
570.13	46148.34
570.30	45862.80
570.46	45701.30
570.62	45619.38
570.78	45682.58
570.95	45617.04
571.11	46171.75
571.27	45769.18
571.43	45954.08
571.60	46656.24
571.76	46384.74
571.92	45933.01
572.09	46277.07
572.25	46162.39
572.41	46450.27
572.57	46445.59
572.74	46628.15
572.90	46307.50
573.06	46160.05
573.22	46195.15
573.38	46148.34
573.55	45998.55
573.71	46354.31
573.87	46464.32
574.03	46120.26
574.20	46050.04
574.36	45867.48
574.52	46171.75
574.68	46656.24
574.84	46410.48
575.01	46267.71
575.17	46494.74
575.33	45925.99
575.49	46220.90
575.65	46307.50
575.82	46347.29
575.98	46134.30
576.14	46246.65
576.30	46754.54
576.46	46295.80
576.62	46649.22
576.79	46293.46
576.95	46148.34
577.11	46562.62
577.27	45979.82
577.43	45963.44
577.59	46188.13
577.75	46323.88
577.92	46267.71
578.08	46036.00
578.24	46047.70
578.40	46209.20
578.56	46272.39
578.72	46110.89
578.88	46424.53
579.04	46529.85
579.21	46078.13
579.37	46330.90
579.53	46373.03
579.69	46003.23
579.85	46171.75
580.01	46183.45
580.17	46323.88
580.33	45937.69
580.49	46639.86
580.65	46354.31
580.82	46380.06
580.98	46354.31
581.14	45827.69
581.30	46445.59
581.46	46302.82
581.62	46794.33
581.78	46309.84
581.94	46579.00
582.10	46550.91
582.26	46571.98
582.42	46471.34
582.58	46321.54
582.74	46454.95
582.90	46780.29
583.06	46761.56
583.22	46464.32
583.38	46738.16
583.54	46436.23
583.70	46234.94
583.86	46342.61
584.02	46288.77
584.18	46473.68
584.34	46321.54
584.50	46443.25
584.66	46440.91
584.82	46450.27
584.98	46525.17
585.14	46653.90
585.30	45897.91
585.46	46536.87
585.62	46309.84
585.78	46092.17
585.94	46050.04
586.10	46178.77
586.26	45785.56
586.42	46782.63
586.58	46784.97
586.74	46564.96
586.90	46363.67
587.06	46384.74
587.22	46925.40
587.38	46110.89
587.54	46440.91
587.70	46670.28
587.86	46211.54
588.02	46248.99
588.18	46028.98
588.34	46302.82
588.49	46131.96
588.65	45958.76
588.81	46024.29
588.97	45991.53
589.13	45979.82
589.29	45579.59
589.45	45968.12
589.61	46099.19
589.77	46164.73
589.93	46703.05
