SpectraSuite Data File
++++++++++++++++++++++++++++++++++++
Date: Fri Oct 25 10:47:34 EDT 2013
User: price-jones
Dark Spectrum Present: No
Reference Spectrum Present: No
Number of Sampled Component Spectra: 1
Spectrometers: USB2+H05261
Integration Time (usec): 100000 (USB2+H05261)
Spectra Averaged: 1 (USB2+H05261)
Boxcar Smoothing: 0 (USB2+H05261)
Correct for Electrical Dark: No (USB2+H05261)
Strobe/Lamp Enabled: No (USB2+H05261)
Correct for Detector Non-linearity: No (USB2+H05261)
Correct for Stray Light: No (USB2+H05261)
Number of Pixels in Processed Spectrum: 2048
>>>>>Begin Processed Spectral Data<<<<<
365.73	152.13
365.92	152.13
366.12	152.13
366.32	23.41
366.52	100.64
366.72	86.60
366.91	37.45
367.11	102.98
367.31	88.94
367.51	0.00
367.70	0.00
367.90	7.02
368.10	58.51
368.30	91.28
368.49	7.02
368.69	112.35
368.89	91.28
369.09	100.64
369.28	14.04
369.48	79.58
369.68	65.54
369.87	102.98
370.07	100.64
370.27	67.88
370.47	180.22
370.66	360.44
370.86	367.46
371.06	430.66
371.25	517.26
371.45	440.02
371.65	425.98
371.84	449.38
372.04	512.58
372.24	463.43
372.44	470.45
372.63	500.87
372.83	461.09
373.03	498.53
373.22	475.13
373.42	547.69
373.62	531.30
373.81	533.64
374.01	657.69
374.21	566.41
374.40	552.37
374.60	545.34
374.79	575.77
374.99	533.64
375.19	575.77
375.38	610.88
375.58	559.39
375.78	599.18
375.97	615.56
376.17	624.92
376.37	648.33
376.56	552.37
376.76	585.13
376.95	568.75
377.15	561.73
377.35	671.73
377.54	599.18
377.74	589.82
377.93	543.00
378.13	662.37
378.33	613.22
378.52	690.46
378.72	636.63
378.91	645.99
379.11	636.63
379.31	622.58
379.50	603.86
379.70	713.86
379.89	620.24
380.09	709.18
380.28	571.09
380.48	615.56
380.68	610.88
380.87	596.84
381.07	608.54
381.26	763.01
381.46	753.65
381.65	685.78
381.85	671.73
382.04	699.82
382.24	664.71
382.43	685.78
382.63	718.54
382.83	772.38
383.02	741.95
383.22	727.91
383.41	671.73
383.61	695.14
383.80	746.63
384.00	662.37
384.19	697.48
384.39	622.58
384.58	725.57
384.78	805.14
384.97	770.04
385.17	709.18
385.36	732.59
385.56	718.54
385.75	798.12
385.95	739.61
386.14	861.32
386.34	894.08
386.53	802.80
386.72	763.01
386.92	699.82
387.11	835.57
387.31	767.70
387.50	763.01
387.70	851.96
387.89	784.08
388.09	774.72
388.28	847.27
388.48	781.74
388.67	833.23
388.86	952.60
389.06	987.71
389.25	924.51
389.45	870.68
389.64	873.02
389.84	894.08
390.03	919.83
390.22	933.87
390.42	837.91
390.61	884.72
390.81	858.98
391.00	1041.54
391.19	940.90
391.39	980.68
391.58	1036.86
391.78	1025.15
391.97	894.08
392.16	968.98
392.36	917.49
392.55	968.98
392.75	915.15
392.94	973.66
393.13	999.41
393.33	966.64
393.52	992.39
393.71	992.39
393.91	926.85
394.10	1018.13
394.29	968.98
394.49	1053.24
394.68	1123.46
394.88	1043.88
395.07	1078.99
395.26	1027.50
395.46	1188.99
395.65	1210.06
395.84	1060.26
396.04	1142.18
396.23	1123.46
396.42	1165.59
396.62	1167.93
396.81	1137.50
397.00	1050.90
397.19	1093.03
397.39	1252.19
397.58	1125.80
397.77	1263.89
397.97	1263.89
398.16	1254.53
398.35	1261.55
398.55	1259.21
398.74	1336.45
398.93	1348.15
399.12	1331.76
399.32	1366.87
399.51	1324.74
399.70	1350.49
399.90	1394.96
400.09	1284.95
400.28	1357.51
400.47	1366.87
400.67	1467.52
400.86	1373.89
401.05	1401.98
401.24	1394.96
401.44	1469.86
401.63	1514.33
401.82	1451.13
402.01	1521.35
402.21	1460.49
402.40	1511.99
402.59	1537.73
402.78	1455.81
402.97	1455.81
403.17	1652.42
403.36	1511.99
403.55	1481.56
403.74	1739.02
403.93	1572.84
404.13	1636.03
404.32	1572.84
404.51	1528.37
404.70	1694.55
404.89	1633.69
405.09	1624.33
405.28	1659.44
405.47	1668.80
405.66	1720.29
405.85	1783.49
406.05	1607.95
406.24	1767.10
406.43	1781.15
406.62	1783.49
406.81	1818.60
407.00	1834.98
407.20	1778.81
407.39	1837.32
407.58	1872.43
407.77	1891.15
407.96	1942.64
408.15	1909.88
408.34	1905.20
408.54	2036.27
408.73	1881.79
408.92	2047.97
409.11	2057.33
409.30	1944.99
409.49	2099.46
409.68	2059.67
409.87	2005.84
410.07	2040.95
410.26	2169.68
410.45	2157.97
410.64	2059.67
410.83	2150.95
411.02	2256.28
411.21	2361.60
411.40	2228.19
411.59	2293.72
411.78	2216.49
411.98	2251.60
412.17	2218.83
412.36	2303.09
412.55	2352.24
412.74	2310.11
412.93	2431.82
413.12	2408.41
413.31	2513.74
413.50	2431.82
413.69	2513.74
413.88	2562.89
414.07	2445.86
414.26	2473.95
414.45	2640.12
414.64	2523.10
414.83	2771.19
415.02	2562.89
415.22	2635.44
415.41	2605.02
415.60	2796.94
415.79	2663.53
415.98	2799.28
416.17	2923.33
416.36	2708.00
416.55	2869.50
416.74	2909.29
416.93	2897.58
417.12	2951.42
417.31	2991.20
417.50	2920.99
417.69	3030.99
417.88	2939.71
418.07	3089.51
418.26	3061.42
418.45	3094.19
418.64	3108.23
418.83	3047.38
419.02	3145.68
419.21	3173.77
419.39	3000.57
419.58	3211.22
419.77	3145.68
419.96	3117.59
420.15	3314.20
420.34	3258.03
420.53	3363.35
420.72	3309.52
420.91	3241.64
421.10	3358.67
421.29	3438.25
421.48	3330.58
421.67	3447.61
421.86	3314.20
422.05	3435.91
422.24	3466.33
422.43	3283.77
422.61	3403.14
422.80	3337.60
422.99	3482.72
423.18	3487.40
423.37	3520.17
423.56	3515.48
423.75	3384.41
423.94	3463.99
424.13	3173.77
424.32	3335.26
424.50	3496.76
424.69	3536.55
424.88	3721.45
425.07	3382.07
425.26	3461.65
425.45	3410.16
425.64	3527.19
425.83	3428.88
426.01	3641.87
426.20	3529.53
426.39	3569.32
426.58	3590.38
426.77	3585.70
426.96	3557.61
427.15	3482.72
427.33	3571.66
427.52	3637.19
427.71	3574.00
427.90	3716.77
428.09	3751.88
428.28	3658.26
428.46	3574.00
428.65	3744.86
428.84	3833.80
429.03	3782.31
429.22	3721.45
429.40	3698.05
429.59	3768.26
429.78	3669.96
429.97	3492.08
430.16	3777.62
430.34	3822.09
430.53	3911.04
430.72	3901.67
430.91	3765.92
431.10	3880.61
431.28	4002.32
431.47	4023.38
431.66	4098.28
431.85	3983.59
432.03	4236.37
432.22	4168.49
432.41	4081.89
432.60	4168.49
432.79	4100.62
432.97	4262.12
433.16	4367.44
433.35	4072.53
433.54	4086.58
433.72	4205.94
433.91	4198.92
434.10	4159.13
434.28	4269.14
434.47	4315.95
434.66	4334.67
434.85	4451.70
435.03	4414.25
435.22	4533.62
435.41	4550.00
435.59	4447.02
435.78	4507.87
435.97	4641.28
436.16	4568.73
436.34	4514.89
436.53	4627.24
436.72	4770.01
436.90	4461.06
437.09	4631.92
437.28	4575.75
437.46	4638.94
437.65	4610.86
437.84	4615.54
438.02	4493.83
438.21	4741.93
438.40	4564.04
438.58	4760.65
438.77	4865.97
438.96	4807.46
439.14	4933.85
439.33	4966.62
439.52	5090.67
439.70	5032.15
439.89	5132.79
440.08	4936.19
440.26	5165.56
440.45	5233.44
440.63	5205.35
440.82	5247.48
441.01	5427.70
441.19	5263.86
441.38	5451.11
441.57	5364.51
441.75	5453.45
441.94	5575.16
442.12	5673.46
442.31	5605.58
442.50	5589.20
442.68	5561.11
442.87	5516.64
443.05	5664.10
443.24	5720.27
443.43	5755.38
443.61	5701.54
443.80	5865.38
443.98	5710.91
444.17	5455.79
444.35	5774.10
444.54	5968.37
444.73	5748.36
444.91	5563.45
445.10	5717.93
445.28	5827.93
445.47	5685.16
445.65	5720.27
445.84	5783.46
446.02	5994.11
446.21	5785.80
446.39	5734.31
446.58	5853.68
446.77	5947.30
446.95	5792.83
447.14	5830.27
447.32	6066.67
447.51	6024.54
447.69	5907.51
447.88	5954.32
448.06	5916.87
448.25	5926.24
448.43	6033.90
448.62	5963.68
448.80	5825.59
448.99	6024.54
449.17	6258.59
449.36	6122.84
449.54	6303.06
449.73	6242.21
449.91	6286.68
450.10	6045.60
450.28	6359.24
450.46	6326.47
450.65	6246.89
450.83	6230.51
451.02	6338.17
451.20	6354.55
451.39	6235.19
451.57	6380.30
451.76	6487.96
451.94	6403.71
452.13	6469.24
452.31	6317.11
452.49	6291.36
452.68	6452.86
452.86	6317.11
453.05	6399.02
453.23	6506.69
453.42	6607.33
453.60	6548.82
453.78	6668.19
453.97	6399.02
454.15	6415.41
454.34	6399.02
454.52	6745.42
454.70	6682.23
454.89	6626.06
455.07	6670.53
455.26	6534.78
455.44	6862.45
455.62	6700.95
455.81	6789.89
455.99	6705.63
456.17	6911.60
456.36	6869.47
456.54	6794.58
456.73	7215.87
456.91	7456.95
457.09	7091.82
457.28	7330.56
457.46	7080.12
457.64	7363.33
457.83	7276.73
458.01	7169.06
458.19	7227.57
458.38	7222.89
458.56	7255.66
458.74	7339.92
458.93	7321.20
459.11	7356.30
459.29	7325.88
459.48	7449.93
459.66	7386.73
459.84	7531.84
460.03	7651.21
460.21	7527.16
460.39	7606.74
460.57	7754.19
460.76	7585.68
460.94	7562.27
461.12	7693.34
461.31	7915.69
461.49	7632.49
461.67	7627.81
461.85	7761.22
462.04	7829.09
462.22	8194.22
462.40	7815.05
462.59	7920.37
462.77	7976.55
462.95	8016.33
463.13	7922.71
463.32	7969.52
463.50	8142.72
463.68	7929.74
463.86	8011.65
464.05	7957.82
464.23	8032.72
464.41	8102.93
464.59	7861.86
464.78	8145.06
464.96	7988.25
465.14	7903.99
465.32	8269.11
465.50	8341.67
465.69	8250.39
465.87	8329.97
466.05	8477.42
466.23	8315.92
466.41	8131.02
466.60	8383.80
466.78	8248.05
466.96	8376.78
467.14	8355.71
467.32	8355.71
467.51	8552.32
467.69	8271.45
467.87	8425.93
468.05	8549.98
468.23	8320.60
468.41	8524.23
468.60	8493.80
468.78	8507.85
468.96	8531.25
469.14	8755.94
469.32	8751.26
469.50	8491.46
469.69	8692.75
469.87	8713.81
470.05	9055.53
470.23	8699.77
470.41	8727.86
470.59	8971.27
470.77	9062.55
470.95	8968.93
471.14	9217.03
471.32	8938.51
471.50	9212.35
471.68	9235.75
471.86	9181.92
472.04	9235.75
472.22	9465.13
472.40	9214.69
472.58	9320.01
472.77	9476.83
472.95	9371.50
473.13	9830.25
473.31	9385.55
473.49	9392.57
473.67	9593.86
473.85	9570.45
474.03	9804.50
474.21	9785.78
474.39	10015.15
474.57	9954.30
474.75	9973.02
474.93	9982.38
475.12	10019.83
475.30	10448.15
475.48	9961.32
475.66	10066.64
475.84	10068.98
476.02	10256.23
476.20	10125.16
476.38	10672.84
476.56	10565.18
476.74	10483.26
476.92	10876.47
477.10	10633.05
477.28	10736.04
477.46	10668.16
477.64	10883.49
477.82	11089.46
478.00	11176.06
478.18	11190.10
478.36	11274.36
478.54	11597.35
478.72	11440.54
478.90	11707.36
479.08	11587.99
479.26	11667.57
479.44	11892.26
479.62	11831.41
479.80	11957.80
479.98	12149.72
480.16	12468.03
480.34	12250.36
480.52	12491.44
480.70	12388.46
480.88	12276.11
481.06	12512.50
481.24	12580.38
481.41	12674.00
481.59	13018.06
481.77	12924.44
481.95	12985.29
482.13	13266.16
482.31	13020.40
482.49	13406.59
482.67	13369.14
482.85	13420.63
483.03	13837.25
483.21	13940.23
483.39	13724.90
483.57	13874.70
483.74	13975.34
483.92	13881.72
484.10	14242.16
484.28	14396.64
484.46	14209.39
484.64	14583.88
484.82	14527.71
485.00	14822.61
485.18	14932.62
485.35	15056.67
485.53	15070.71
485.71	15112.84
485.89	15042.62
486.07	14986.45
486.25	15229.87
486.43	15293.06
486.61	15810.32
486.78	15871.17
486.96	15936.71
487.14	16020.97
487.32	16023.31
487.50	16074.80
487.68	16484.39
487.85	16589.72
488.03	16730.15
488.21	16826.11
488.39	17200.60
488.57	16982.93
488.75	17020.38
488.92	17465.08
489.10	17539.97
489.28	17610.19
489.46	17521.25
489.64	17764.67
489.81	18228.09
489.99	18022.12
490.17	18274.90
490.35	18331.08
490.53	18319.37
490.70	18817.91
490.88	18799.18
491.06	19225.16
491.24	18958.34
491.41	18934.93
491.59	19204.10
491.77	19058.98
491.95	19304.74
492.13	19353.89
492.30	19576.24
492.48	19576.24
492.66	20009.24
492.84	19882.85
493.01	20264.36
493.19	19932.00
493.37	20360.32
493.54	20479.69
493.72	20758.21
493.90	20608.42
494.08	20549.90
494.25	21165.46
494.43	21181.85
494.61	21324.62
494.79	21383.13
494.96	21364.41
495.14	21282.49
495.32	21322.28
495.49	21511.86
495.67	21654.64
495.85	21884.01
496.02	22225.73
496.20	22075.93
496.38	22462.12
496.55	22410.63
496.73	22864.69
496.91	22679.79
497.09	22611.92
497.26	22595.53
497.44	22731.28
497.62	22860.01
497.79	23175.98
497.97	23145.56
498.14	23288.33
498.32	23124.49
498.50	23187.69
498.67	23941.34
498.85	23789.20
499.03	23967.09
499.20	23885.17
499.38	23754.10
499.56	24254.97
499.73	24376.68
499.91	24247.95
500.08	24404.77
500.26	23758.78
500.44	24685.63
500.61	24650.52
500.79	24470.30
500.97	24762.87
501.14	25041.39
501.32	25076.50
501.49	24903.30
501.67	25200.55
501.84	25156.08
502.02	25350.34
502.20	25530.56
502.37	25376.09
502.55	25813.77
502.72	25727.17
502.90	25298.85
503.07	26010.37
503.25	25963.56
503.43	25743.55
503.60	25940.16
503.78	25748.23
503.95	26038.46
504.13	26197.62
504.30	26469.12
504.48	26443.37
504.65	26602.53
504.83	26328.69
505.01	26595.51
505.18	26859.99
505.36	26977.01
505.53	26757.00
505.71	27056.59
505.88	27091.70
506.06	26902.12
506.23	26918.50
506.41	27012.12
506.58	27503.64
506.76	27112.77
506.93	27744.71
507.11	27700.24
507.28	27321.07
507.46	27477.89
507.63	27508.32
507.81	27791.52
507.98	28011.53
508.16	28304.10
508.33	28320.48
508.50	28673.90
508.68	28514.75
508.85	28690.29
509.03	28360.27
509.20	28641.14
509.38	28821.36
509.55	28758.16
509.73	29315.21
509.90	29261.38
510.08	29099.88
510.25	28762.84
510.42	29273.08
510.60	28952.43
510.77	29228.61
510.95	29399.47
511.12	29401.81
511.30	29462.66
511.47	29867.58
511.64	29738.85
511.82	30015.03
511.99	29556.28
512.17	30085.25
512.34	30045.46
512.51	29993.97
512.69	30309.94
512.86	30417.60
513.04	30377.81
513.21	30443.35
513.38	30305.26
513.56	30452.71
513.73	30321.64
513.90	30747.62
514.08	30778.04
514.25	30759.32
514.43	30551.01
514.60	30504.20
514.77	31140.83
514.95	30991.03
515.12	31271.90
515.29	31278.92
515.47	31079.97
515.64	31445.10
515.81	31302.32
515.99	31438.08
516.16	31529.36
516.33	31693.19
516.51	32233.86
516.68	31337.43
516.85	31433.39
517.03	31807.88
517.20	31831.29
517.37	31728.30
517.54	32119.17
517.72	31889.80
517.89	32055.98
518.06	32011.51
518.24	32048.96
518.41	32009.17
518.58	31983.42
518.75	32147.26
518.93	32788.56
519.10	32613.02
519.27	32610.68
519.45	32622.39
519.62	32893.89
519.79	32617.71
519.96	32598.98
520.14	33156.03
520.31	32706.65
520.48	33214.54
520.65	33209.86
520.83	33141.99
521.00	33429.87
521.17	33530.51
521.34	33383.06
521.52	33703.71
521.69	33839.47
521.86	33827.76
522.03	33844.15
522.20	33893.30
522.38	33937.77
522.55	34429.28
522.72	34361.40
522.89	34462.05
523.07	34363.75
523.24	33956.49
523.41	34089.90
523.58	34363.75
523.75	34602.48
523.92	34761.64
524.10	34504.18
524.27	34625.89
524.44	34754.61
524.61	34588.44
524.78	34883.34
524.96	34820.15
525.13	35431.03
525.30	35152.51
525.47	35438.05
525.64	35089.31
525.81	35302.30
525.98	35501.25
526.16	35131.44
526.33	35227.40
526.50	35789.13
526.67	35241.45
526.84	35356.13
527.01	35180.59
527.18	35622.95
527.36	35938.93
527.53	35651.04
527.70	36030.21
527.87	35908.50
528.04	35716.58
528.21	35988.08
528.38	35835.94
528.55	36240.86
528.72	36215.11
528.89	36479.59
529.07	36285.33
529.24	35997.44
529.41	36495.97
529.58	36126.17
529.75	36350.86
529.92	36680.88
530.09	36264.26
530.26	36320.43
530.43	36575.55
530.60	36591.94
530.77	36369.58
530.94	37006.21
531.11	36449.16
531.28	37095.15
531.46	37046.00
531.63	37099.83
531.80	37053.02
531.97	36900.89
532.14	36898.55
532.31	36760.45
532.48	37401.76
532.65	37228.56
532.82	37488.36
532.99	37237.92
533.16	37200.47
533.33	37703.69
533.50	37488.36
533.67	37514.11
533.84	37366.65
534.01	37544.53
534.18	37546.87
534.35	38150.73
534.52	37982.21
534.69	37621.77
534.86	37944.76
535.03	37860.51
535.20	38047.75
535.37	38527.56
535.54	38237.33
535.71	38164.78
535.88	38277.12
536.05	38270.10
536.22	38227.97
536.38	38330.95
536.55	38471.39
536.72	38651.61
536.89	38251.38
537.06	38770.97
537.23	38618.84
537.40	38443.30
537.57	38653.95
537.74	38766.29
537.91	39079.92
538.08	39026.09
538.25	38724.16
538.42	39056.52
538.59	39178.23
538.75	38469.04
538.92	39014.39
539.09	39552.71
539.26	39306.96
539.43	39112.69
539.60	38799.06
539.77	39035.45
539.94	38843.53
540.11	39021.41
540.28	39007.37
540.44	39072.90
540.61	39515.26
540.78	39175.89
540.95	39526.97
541.12	39367.81
541.29	38981.62
541.46	39335.04
541.62	39611.23
541.79	39646.33
541.96	39250.78
542.13	39548.03
542.30	39842.94
542.47	39892.09
542.63	39686.12
542.80	39974.01
542.97	39810.17
543.14	40250.19
543.31	40187.00
543.48	40325.09
543.64	40774.47
543.81	40456.16
543.98	40208.06
544.15	40484.25
544.32	40673.83
544.48	40786.18
544.65	40470.20
544.82	40456.16
544.99	40360.20
545.16	40542.76
545.32	40615.32
545.49	41106.83
545.66	40837.67
545.83	40357.86
546.00	41111.51
546.16	41001.50
546.33	40540.42
546.50	40112.10
546.67	41008.53
546.83	40495.95
547.00	41123.21
547.17	41291.73
547.34	40987.46
547.50	41226.20
547.67	41237.90
547.84	41631.11
548.00	41682.60
548.17	41434.50
548.34	41310.46
548.51	41357.27
548.67	41734.09
548.84	41385.35
549.01	41675.58
549.18	41280.03
549.34	41617.07
549.51	42005.59
549.68	42047.72
549.84	41558.55
550.01	41706.01
550.18	41542.17
550.34	41537.49
550.51	41249.60
550.68	41848.78
550.84	41724.73
551.01	41813.67
551.18	41588.98
551.34	41780.90
551.51	41855.80
551.68	41757.50
551.84	42572.00
552.01	41687.28
552.18	41785.58
552.34	42206.88
552.51	42438.59
552.68	42335.61
552.84	42253.69
553.01	42841.17
553.18	42354.33
553.34	42190.50
553.51	42237.31
553.67	42375.40
553.84	42555.62
554.01	42433.91
554.17	42534.56
554.34	42429.23
554.51	42754.57
554.67	43110.33
554.84	42436.25
555.00	42403.49
555.17	42546.26
555.33	42258.37
555.50	42473.70
555.67	42499.45
555.83	42506.47
556.00	42653.92
556.16	43370.13
556.33	42801.38
556.50	42518.17
556.66	42824.78
556.83	42492.43
556.99	43093.94
557.16	43096.28
557.32	43105.65
557.49	43215.65
557.65	43100.97
557.82	42579.03
557.98	42948.83
558.15	43395.87
558.32	43243.74
558.48	43040.11
558.65	42831.80
558.81	43246.08
558.98	43089.26
559.14	43379.49
559.31	43215.65
559.47	43154.80
559.64	43344.38
559.80	43732.91
559.97	43494.18
560.13	43442.68
560.30	43030.75
560.46	43372.47
560.63	43255.44
560.79	43512.90
560.96	43658.01
561.12	43849.94
561.29	43454.39
561.45	43711.84
561.61	43639.29
561.78	43445.02
561.94	43117.35
562.11	43100.97
562.27	43538.65
562.44	43316.29
562.60	43761.00
562.77	43824.19
562.93	43632.27
563.10	43653.33
563.26	43606.52
563.42	43636.95
563.59	43566.73
563.75	43936.54
563.92	43997.39
564.08	43721.21
564.24	44102.71
564.41	43756.32
564.57	43438.00
564.74	43952.92
564.90	43370.13
565.07	43889.73
565.23	43854.62
565.39	43456.73
565.56	44172.93
565.72	43398.21
565.88	43522.26
566.05	43672.06
566.21	43758.66
566.38	43608.86
566.54	43725.89
566.70	44266.55
566.87	44208.04
567.03	44273.57
567.19	44533.37
567.36	43856.96
567.52	43899.09
567.68	44357.83
567.85	43604.18
568.01	44083.99
568.17	44130.80
568.34	44163.57
568.50	43962.28
568.66	44009.09
568.83	44212.72
568.99	43856.96
569.15	44100.37
569.32	44093.35
569.48	43653.33
569.64	44067.61
569.81	44486.56
569.97	44048.88
570.13	44121.44
570.30	43704.82
570.46	43995.05
570.62	43723.55
570.78	43487.15
570.95	44018.46
571.11	43959.94
571.27	44048.88
571.43	43920.15
571.60	44154.21
571.76	43885.04
571.92	44320.38
572.09	43782.06
572.25	44034.84
572.41	44224.42
572.57	44327.41
572.74	44615.29
572.90	44184.63
573.06	44189.31
573.22	44172.93
573.38	44570.82
573.55	44189.31
573.71	44638.70
573.87	44296.98
574.03	44013.77
574.20	44198.68
574.36	44116.76
574.52	44201.02
574.68	44467.84
574.84	44538.05
575.01	44287.62
575.17	44526.35
575.33	44081.65
575.49	43725.89
575.65	44975.73
575.82	44748.70
575.98	44495.92
576.14	44961.69
576.30	44580.18
576.46	44280.60
576.62	44123.78
576.79	44524.01
576.95	44385.92
577.11	44383.58
577.27	44634.02
577.43	44760.40
577.59	44694.87
577.75	44311.02
577.92	44037.18
578.08	44083.99
578.24	44460.82
578.40	44610.61
578.56	44456.14
578.72	44367.20
578.88	44596.57
579.04	44561.46
579.21	44542.74
579.37	44037.18
579.53	44329.75
579.69	44322.72
579.85	44786.15
580.01	44641.04
580.17	44547.42
580.33	44807.22
580.49	44594.23
580.65	44240.81
580.82	44460.82
580.98	44348.47
581.14	43889.73
581.30	44933.60
581.46	44877.43
581.62	44748.70
581.78	44526.35
581.94	44891.48
582.10	44552.10
582.26	44711.25
582.42	44451.45
582.58	44367.20
582.74	44634.02
582.90	44538.05
583.06	44451.45
583.22	44814.24
583.38	44687.85
583.54	44729.98
583.70	44512.31
583.86	44243.15
584.02	44451.45
584.18	44818.92
584.34	44561.46
584.50	44605.93
584.66	44355.49
584.82	44385.92
584.98	45230.85
585.14	44385.92
585.30	44217.40
585.46	44289.96
585.62	44470.18
585.78	44889.13
585.94	44116.76
586.10	44498.26
586.26	44210.38
586.42	44748.70
586.58	44886.79
586.74	44306.34
586.90	44556.78
587.06	44823.60
587.22	44601.25
587.38	44446.77
587.54	45256.60
587.70	44928.92
587.86	44921.90
588.02	44751.04
588.18	44811.90
588.34	44472.52
588.49	44144.84
588.65	44306.34
588.81	44362.51
588.97	44411.67
589.13	44107.40
589.29	45024.89
589.45	44495.92
589.61	44580.18
589.77	44580.18
589.93	44898.50
590.08	45074.04
590.24	44949.99
