SpectraSuite Data File
++++++++++++++++++++++++++++++++++++
Date: Fri Oct 25 10:47:11 EDT 2013
User: price-jones
Dark Spectrum Present: No
Reference Spectrum Present: No
Number of Sampled Component Spectra: 1
Spectrometers: USB2+H05261
Integration Time (usec): 100000 (USB2+H05261)
Spectra Averaged: 1 (USB2+H05261)
Boxcar Smoothing: 0 (USB2+H05261)
Correct for Electrical Dark: No (USB2+H05261)
Strobe/Lamp Enabled: No (USB2+H05261)
Correct for Detector Non-linearity: No (USB2+H05261)
Correct for Stray Light: No (USB2+H05261)
Number of Pixels in Processed Spectrum: 2048
>>>>>Begin Processed Spectral Data<<<<<
365.73	86.60
365.92	86.60
366.12	86.60
366.32	0.00
366.52	56.17
366.72	88.94
366.91	93.62
367.11	0.00
367.31	4.68
367.51	18.72
367.70	49.15
367.90	79.58
368.10	16.38
368.30	44.47
368.49	16.38
368.69	30.43
368.89	39.79
369.09	39.79
369.28	147.45
369.48	98.30
369.68	117.03
369.87	84.26
370.07	74.90
370.27	173.20
370.47	231.71
370.66	393.21
370.86	372.15
371.06	393.21
371.25	479.81
371.45	447.04
371.65	440.02
371.84	409.59
372.04	428.32
372.24	489.17
372.44	461.09
372.63	482.15
372.83	500.87
373.03	411.93
373.22	376.83
373.42	519.60
373.62	498.53
373.81	547.69
374.01	550.03
374.21	531.30
374.40	521.94
374.60	470.45
374.79	491.51
374.99	575.77
375.19	535.98
375.38	512.58
375.58	631.94
375.78	599.18
375.97	500.87
376.17	674.07
376.37	550.03
376.56	550.03
376.76	603.86
376.95	568.75
377.15	592.16
377.35	641.31
377.54	575.77
377.74	620.24
377.93	622.58
378.13	615.56
378.33	681.10
378.52	617.90
378.72	594.50
378.91	636.63
379.11	631.94
379.31	613.22
379.50	575.77
379.70	641.31
379.89	685.78
380.09	596.84
380.28	622.58
380.48	674.07
380.68	727.91
380.87	575.77
381.07	578.11
381.26	697.48
381.46	751.31
381.65	643.65
381.85	657.69
382.04	669.39
382.24	589.82
382.43	657.69
382.63	629.60
382.83	730.25
383.02	716.20
383.22	622.58
383.41	699.82
383.61	641.31
383.80	669.39
384.00	704.50
384.19	643.65
384.39	695.14
384.58	713.86
384.78	760.67
384.97	737.27
385.17	741.95
385.36	744.29
385.56	784.08
385.75	706.84
385.95	737.27
386.14	755.99
386.34	716.20
386.53	751.31
386.72	844.93
386.92	816.85
387.11	809.83
387.31	821.53
387.50	802.80
387.70	716.20
387.89	765.36
388.09	840.25
388.28	816.85
388.48	816.85
388.67	887.06
388.86	866.00
389.06	847.27
389.25	922.17
389.45	950.26
389.64	807.48
389.84	891.74
390.03	891.74
390.22	901.11
390.42	901.11
390.61	985.37
390.81	863.66
391.00	976.00
391.19	957.28
391.39	924.51
391.58	1008.77
391.78	938.55
391.97	901.11
392.16	917.49
392.36	929.19
392.55	1004.09
392.75	999.41
392.94	891.74
393.13	936.21
393.33	971.32
393.52	1013.45
393.71	1018.13
393.91	1039.20
394.10	1004.09
394.29	1011.11
394.49	980.68
394.68	990.05
394.88	1107.07
395.07	1081.33
395.26	1060.26
395.46	1074.31
395.65	1118.78
395.84	1050.90
396.04	1125.80
396.23	1032.18
396.42	1107.07
396.62	1125.80
396.81	1203.04
397.00	1123.46
397.19	1186.65
397.39	1205.38
397.58	1170.27
397.77	1238.14
397.97	1242.82
398.16	1261.55
398.35	1315.38
398.55	1280.27
398.74	1277.93
398.93	1331.76
399.12	1275.59
399.32	1231.12
399.51	1294.32
399.70	1378.58
399.90	1338.79
400.09	1352.83
400.28	1373.89
400.47	1322.40
400.67	1380.92
400.86	1453.47
401.05	1467.52
401.24	1390.28
401.44	1474.54
401.63	1467.52
401.82	1409.00
402.01	1434.75
402.21	1523.69
402.40	1516.67
402.59	1453.47
402.78	1509.65
402.97	1530.71
403.17	1542.41
403.36	1584.54
403.55	1521.35
403.74	1533.05
403.93	1544.75
404.13	1696.89
404.32	1746.04
404.51	1626.67
404.70	1682.85
404.89	1610.29
405.09	1736.68
405.28	1764.76
405.47	1685.19
405.66	1703.91
405.85	1788.17
406.05	1666.46
406.24	1762.42
406.43	1692.21
406.62	1811.57
406.81	1879.45
407.00	1891.15
407.20	1778.81
407.39	1863.07
407.58	1769.44
407.77	1886.47
407.96	1984.77
408.15	1856.04
408.34	1853.70
408.54	1933.28
408.73	1886.47
408.92	2031.58
409.11	1989.46
409.30	2071.37
409.49	2026.90
409.68	1980.09
409.87	1973.07
410.07	2043.29
410.26	2038.61
410.45	2092.44
410.64	2059.67
410.83	2223.51
411.02	2108.82
411.21	2305.43
411.40	2221.17
411.59	2277.34
411.78	2225.85
411.98	2195.42
412.17	2218.83
412.36	2340.54
412.55	2253.94
412.74	2349.90
412.93	2417.77
413.12	2422.45
413.31	2509.05
413.50	2359.26
413.69	2473.95
413.88	2576.93
414.07	2525.44
414.26	2509.05
414.45	2518.42
414.64	2541.82
414.83	2569.91
415.02	2626.08
415.22	2710.34
415.41	2747.79
415.60	2715.02
415.79	2682.25
415.98	2705.66
416.17	2822.69
416.36	2724.38
416.55	2717.36
416.74	2799.28
416.93	2717.36
417.12	2810.98
417.31	2801.62
417.50	2867.16
417.69	3077.80
417.88	2942.05
418.07	2970.14
418.26	3066.10
418.45	3028.65
418.64	3110.57
418.83	3028.65
419.02	2998.23
419.21	3105.89
419.39	3087.17
419.58	3222.92
419.77	3183.13
419.96	3098.87
420.15	3260.37
420.34	3208.87
420.53	3297.81
420.72	3311.86
420.91	3344.63
421.10	3363.35
421.29	3363.35
421.48	3328.24
421.67	3321.22
421.86	3473.36
422.05	3262.71
422.24	3323.56
422.43	3269.73
422.61	3414.84
422.80	3361.01
422.99	3438.25
423.18	3459.31
423.37	3529.53
423.56	3426.54
423.75	3410.16
423.94	3370.37
424.13	3122.27
424.32	3236.96
424.50	3431.23
424.69	3435.91
424.88	3492.08
425.07	3449.95
425.26	3487.40
425.45	3433.57
425.64	3487.40
425.83	3492.08
426.01	3461.65
426.20	3475.70
426.39	3487.40
426.58	3478.04
426.77	3478.04
426.96	3597.40
427.15	3529.53
427.33	3592.72
427.52	3639.53
427.71	3660.60
427.90	3695.71
428.09	3674.64
428.28	3669.96
428.46	3667.62
428.65	3747.20
428.84	3850.18
429.03	3854.86
429.22	3637.19
429.40	3655.92
429.59	3543.57
429.78	3562.30
429.97	3630.17
430.16	3686.34
430.34	3904.01
430.53	3747.20
430.72	3887.63
430.91	3920.40
431.10	3850.18
431.28	3981.25
431.47	3906.35
431.66	4084.23
431.85	3948.48
432.03	3955.51
432.22	4224.67
432.41	3995.29
432.60	4152.11
432.79	4173.18
432.97	4290.20
433.16	4156.79
433.35	4028.06
433.54	4198.92
433.72	4177.86
433.91	4191.90
434.10	4287.86
434.28	4124.02
434.47	4259.78
434.66	4339.35
434.85	4257.43
435.03	4407.23
435.22	4390.84
435.41	4638.94
435.59	4386.16
435.78	4411.91
435.97	4545.32
436.16	4491.49
436.34	4479.79
436.53	4472.76
436.72	4592.13
436.90	4498.51
437.09	4622.56
437.28	4421.27
437.46	4512.55
437.65	4615.54
437.84	4690.43
438.02	4734.90
438.21	4559.36
438.40	4498.51
438.58	4746.61
438.77	4755.97
438.96	4777.03
439.14	4908.10
439.33	4940.87
439.52	5041.51
439.70	5004.07
439.89	4975.98
440.08	5118.75
440.26	5011.09
440.45	5057.90
440.63	5130.45
440.82	5280.25
441.01	5233.44
441.19	5308.34
441.38	5387.91
441.57	5296.63
441.75	5352.81
441.94	5493.24
442.12	5507.28
442.31	5671.12
442.50	5556.43
442.68	5544.73
442.87	5493.24
443.05	5565.79
443.24	5774.10
443.43	5680.48
443.61	5657.07
443.80	5919.21
443.98	5568.13
444.17	5434.72
444.35	5549.41
444.54	5757.72
444.73	5666.44
444.91	5626.65
445.10	5743.67
445.28	5483.88
445.47	5619.63
445.65	5851.34
445.84	5802.19
446.02	5764.74
446.21	5612.60
446.39	5816.23
446.58	5804.53
446.77	5680.48
446.95	5713.25
447.14	5849.00
447.32	5879.43
447.51	5865.38
447.69	5762.40
447.88	5837.30
448.06	5834.96
448.25	5919.21
448.43	5919.21
448.62	5827.93
448.80	5813.89
448.99	5900.49
449.17	6029.22
449.36	5980.07
449.54	6162.63
449.73	6251.57
449.91	6176.67
450.10	6108.80
450.28	6375.62
450.46	6303.06
450.65	6258.59
450.83	6162.63
451.02	6265.61
451.20	6319.45
451.39	6174.33
451.57	6218.80
451.76	6181.35
451.94	6272.64
452.13	6377.96
452.31	6396.68
452.49	6115.82
452.68	6363.92
452.86	6356.90
453.05	6471.58
453.23	6499.67
453.42	6387.32
453.60	6312.42
453.78	6544.14
453.97	6469.24
454.15	6509.03
454.34	6532.44
454.52	6670.53
454.70	6612.01
454.89	6630.74
455.07	6443.49
455.26	6715.00
455.44	6829.68
455.62	6754.79
455.81	6855.43
455.99	6839.05
456.17	6733.72
456.36	7068.42
456.54	6984.16
456.73	6965.43
456.91	6949.05
457.09	6892.88
457.28	7295.45
457.46	6937.35
457.64	7307.15
457.83	7391.41
458.01	7016.93
458.19	7309.49
458.38	7211.19
458.56	7258.00
458.74	7054.37
458.93	7321.20
459.11	7227.57
459.29	7428.86
459.48	7393.75
459.66	7365.67
459.84	7283.75
460.03	7501.42
460.21	7513.12
460.39	7414.82
460.57	7323.54
460.76	7716.75
460.94	7489.71
461.12	7667.60
461.31	7496.74
461.49	7700.36
461.67	7665.25
461.85	7929.74
462.04	7712.07
462.22	8210.60
462.40	7737.81
462.59	7817.39
462.77	7873.56
462.95	7892.29
463.13	7686.32
463.32	7960.16
463.50	7960.16
463.68	8056.12
463.86	7901.65
464.05	7911.01
464.23	8042.08
464.41	8049.10
464.59	7791.64
464.78	8044.42
464.96	8070.17
465.14	8161.45
465.32	8226.98
465.50	8163.79
465.69	8231.66
465.87	8152.09
466.05	8079.53
466.23	8168.47
466.41	8182.51
466.60	8290.18
466.78	8070.17
466.96	8196.56
467.14	8189.53
467.32	8241.03
467.51	8353.37
467.69	8290.18
467.87	8390.82
468.05	8568.70
468.23	8379.12
468.41	8432.95
468.60	8545.30
468.78	8564.02
468.96	8503.17
469.14	8863.61
469.32	8681.05
469.50	8404.86
469.69	8477.42
469.87	8730.20
470.05	8940.85
470.23	8830.84
470.41	8774.67
470.59	8896.38
470.77	8760.63
470.95	8795.73
471.14	8978.30
471.32	8755.94
471.50	9118.73
471.68	8964.25
471.86	9104.68
472.04	9369.16
472.22	9362.14
472.40	9156.18
472.58	9202.99
472.77	9305.97
472.95	9343.42
473.13	9727.27
473.31	9219.37
473.49	9493.21
473.67	9483.85
473.85	9682.80
474.03	9720.24
474.21	9589.17
474.39	9806.84
474.57	9643.01
474.75	9767.06
474.93	9902.81
475.12	10017.49
475.30	10176.65
475.48	9930.89
475.66	10022.17
475.84	9895.78
476.02	10010.47
476.20	10251.55
476.38	10551.14
476.56	10633.05
476.74	10703.27
476.92	10525.39
477.10	10537.09
477.28	10848.38
477.46	10654.12
477.64	11012.22
477.82	10920.94
478.00	11246.27
478.18	11159.67
478.36	11115.20
478.54	11445.22
478.72	11389.05
478.90	11360.96
479.08	11531.82
479.26	11716.72
479.44	11817.36
479.62	11892.26
479.80	11997.59
479.98	12030.35
480.16	12379.09
480.34	12072.48
480.52	12299.52
480.70	12112.27
480.88	11983.54
481.06	12519.53
481.24	12285.47
481.41	12620.17
481.59	12755.92
481.77	12788.69
481.95	12582.72
482.13	12872.95
482.31	12898.69
482.49	13188.92
482.67	13418.29
482.85	13467.44
483.03	13362.12
483.21	13631.28
483.39	13790.44
483.57	13802.14
483.74	14094.71
483.92	13940.23
484.10	14064.28
484.28	14335.78
484.46	14370.89
484.64	14618.99
484.82	14352.16
485.00	14544.09
485.18	14731.33
485.35	14841.34
485.53	14628.35
485.71	14780.48
485.89	14890.49
486.07	15110.50
486.25	15119.86
486.43	15463.92
486.61	15372.64
486.78	15609.03
486.96	15786.91
487.14	15810.32
487.32	15878.19
487.50	16163.74
487.68	16248.00
487.85	16489.07
488.03	16758.24
488.21	16856.54
488.39	16751.21
488.57	16910.37
488.75	17074.21
488.92	17195.92
489.10	17399.54
489.28	17334.01
489.46	17451.03
489.64	17628.92
489.81	17951.91
489.99	17909.78
490.17	17886.37
490.35	18192.98
490.53	18295.97
490.70	18263.20
490.88	18494.91
491.06	18740.67
491.24	18796.84
491.41	18834.29
491.59	18981.74
491.77	18993.45
491.95	18913.87
492.13	19274.31
492.30	19557.52
492.48	19616.03
492.66	19604.33
492.84	19508.37
493.01	19793.91
493.19	19697.95
493.37	20039.67
493.54	20360.32
493.72	20816.72
493.90	20409.47
494.08	20657.57
494.25	20985.24
494.43	21142.06
494.61	21046.10
494.79	21305.90
494.96	21149.08
495.14	21003.97
495.32	21558.67
495.49	21490.80
495.67	21860.60
495.85	21774.00
496.02	21804.43
496.20	22279.56
496.38	22024.44
496.55	22024.44
496.73	22405.95
496.91	22214.02
497.09	22658.73
497.26	22443.40
497.44	22869.37
497.62	22738.30
497.79	23124.49
497.97	23201.73
498.14	23026.19
498.32	23246.20
498.50	23012.15
498.67	23878.15
498.85	23447.49
499.03	24126.24
499.20	23889.85
499.38	23913.25
499.56	23845.38
499.73	24053.69
499.91	23922.62
500.08	24205.82
500.26	24065.39
500.44	24463.28
500.61	24521.79
500.79	24259.65
500.97	24833.08
501.14	24945.43
501.32	24851.81
501.49	25322.26
501.67	24893.94
501.84	24964.15
502.02	25329.28
502.20	25502.48
502.37	25406.52
502.55	25530.56
502.72	25127.99
502.90	25605.46
503.07	25694.40
503.25	25406.52
503.43	25390.13
503.60	25958.88
503.78	25989.31
503.95	25839.51
504.13	25947.18
504.30	26338.05
504.48	25977.61
504.65	26115.70
504.83	26551.04
505.01	26492.52
505.18	26321.66
505.36	26857.65
505.53	26909.14
505.71	26799.13
505.88	26934.88
506.06	26618.91
506.23	27110.43
506.41	26745.30
506.58	27143.19
506.76	26951.27
506.93	27101.06
507.11	27346.82
507.28	27482.57
507.46	27283.62
507.63	27548.11
507.81	27791.52
507.98	27751.73
508.16	27833.65
508.33	28142.60
508.50	28297.08
508.68	28212.82
508.85	28811.99
509.03	28098.13
509.20	28191.75
509.38	28662.20
509.55	28540.49
509.73	28591.98
509.90	28982.85
510.08	28524.11
510.25	28638.80
510.42	29003.92
510.60	29081.16
510.77	29343.30
510.95	29481.39
511.12	29127.97
511.30	29350.32
511.47	29518.84
511.64	29680.33
511.82	29649.91
511.99	29214.57
512.17	29647.57
512.34	29481.39
512.51	29846.51
512.69	30087.59
512.86	30050.14
513.04	30089.93
513.21	30429.30
513.38	30038.44
513.56	30242.06
513.73	29989.28
513.90	30237.38
514.08	30586.12
514.25	30384.83
514.43	30136.74
514.60	30689.10
514.77	30913.80
514.95	30934.86
515.12	30829.54
515.29	31199.34
515.47	31040.18
515.64	31524.68
515.81	31201.68
515.99	31084.65
516.16	31754.05
516.33	31487.23
516.51	31281.26
516.68	31239.13
516.85	31082.31
517.03	31498.93
517.20	31564.46
517.37	31566.81
517.54	32053.64
517.72	31583.19
517.89	31695.53
518.06	31323.39
518.24	32060.66
518.41	31477.86
518.58	32004.49
518.75	31768.09
518.93	32493.66
519.10	32250.24
519.27	33034.32
519.45	32575.58
519.62	32631.75
519.79	32847.08
519.96	32748.78
520.14	33010.92
520.31	32690.26
520.48	33083.47
520.65	32606.00
520.83	33380.72
521.00	33551.58
521.17	33406.47
521.34	33083.47
521.52	33455.62
521.69	33366.68
521.86	33755.21
522.03	33289.44
522.20	33291.78
522.38	33874.57
522.55	33902.66
522.72	33738.82
522.89	34082.88
523.07	34141.39
523.24	33998.62
523.41	33954.15
523.58	33670.95
523.75	34185.86
523.92	34504.18
524.10	34366.09
524.27	34616.52
524.44	34747.59
524.61	34490.13
524.78	34925.47
524.96	34803.77
525.13	34705.46
525.30	34895.05
525.47	35250.81
525.64	34932.50
525.81	34976.97
525.98	34998.03
526.16	34934.84
526.33	34366.09
526.50	35243.79
526.67	35189.95
526.84	34742.91
527.01	35117.40
527.18	35597.21
527.36	35306.98
527.53	35262.51
527.70	35894.46
527.87	35810.20
528.04	35709.55
528.21	35920.20
528.38	35629.98
528.55	36388.31
528.72	36144.89
528.89	36077.02
529.07	36165.96
529.24	36198.73
529.41	36161.28
529.58	35894.46
529.75	35976.37
529.92	36720.66
530.09	36308.73
530.26	36687.90
530.43	36624.70
530.60	36264.26
530.77	36322.77
530.94	36973.44
531.11	36353.20
531.28	36481.93
531.46	36858.76
531.63	37209.84
531.80	37015.57
531.97	36973.44
532.14	37097.49
532.31	36652.79
532.48	36788.54
532.65	37097.49
532.82	36999.19
532.99	37003.87
533.16	37083.45
533.33	37228.56
533.50	37518.79
533.67	37525.81
533.84	37088.13
534.01	37076.43
534.18	37373.67
534.35	37823.06
534.52	37397.08
534.69	37715.39
534.86	37858.17
535.03	37553.90
535.20	37989.24
535.37	38012.64
535.54	37745.82
535.71	37986.89
535.88	38064.13
536.05	37738.80
536.22	37912.00
536.38	38124.99
536.55	38246.69
536.72	38293.50
536.89	37897.95
537.06	38274.78
537.23	38169.46
537.40	38017.32
537.57	38213.93
537.74	38567.35
537.91	38663.31
538.08	38766.29
538.25	38635.22
538.42	38401.17
538.59	38682.03
538.75	38560.33
538.92	38567.35
539.09	39105.67
539.26	38719.48
539.43	39168.87
539.60	38721.82
539.77	38806.08
539.94	39241.42
540.11	38850.55
540.28	39133.76
540.44	38761.61
540.61	39166.52
540.78	39035.45
540.95	39374.83
541.12	38866.94
541.29	39321.00
541.46	39281.21
541.62	39309.30
541.79	39634.63
541.96	39335.04
542.13	39414.62
542.30	39599.52
542.47	39791.45
542.63	39433.35
542.80	39824.22
542.97	40107.42
543.14	40065.29
543.31	39833.58
543.48	40112.10
543.64	40432.75
543.81	40650.42
543.98	40362.54
544.15	40175.30
544.32	40687.87
544.48	40687.87
544.65	40348.50
544.82	40479.57
544.99	40081.67
545.16	40720.64
545.32	40524.04
545.49	40978.10
545.66	40622.34
545.83	39812.51
546.00	40332.11
546.16	40790.86
546.33	40575.53
546.50	40474.88
546.67	40980.44
546.83	40149.55
547.00	40840.01
547.17	40905.54
547.34	40624.68
547.50	40673.83
547.67	41244.92
547.84	41160.66
548.00	41095.13
548.17	41429.82
548.34	41251.94
548.51	41401.74
548.67	41717.71
548.84	41483.66
549.01	41500.04
549.18	41406.42
549.34	41581.96
549.51	41483.66
549.68	41476.63
549.84	41696.64
550.01	42197.52
550.18	41546.85
550.34	41455.57
550.51	41329.18
550.68	42047.72
550.84	41296.41
551.01	41982.19
551.18	41731.75
551.34	41233.22
551.51	41808.99
551.68	41853.46
551.84	42277.10
552.01	41724.73
552.18	42036.02
552.34	41553.87
552.51	41387.69
552.68	41935.38
552.84	42080.49
553.01	41811.33
553.18	41923.68
553.34	42148.37
553.51	41979.85
553.67	42052.41
553.84	42300.50
554.01	41944.74
554.17	42536.90
554.34	42412.85
554.51	42738.18
554.67	42614.13
554.84	42590.73
555.00	42167.09
555.17	42305.18
555.33	42866.91
555.50	42080.49
555.67	42806.06
555.83	42656.26
556.00	42759.25
556.16	43175.86
556.33	42784.99
556.50	42689.03
556.66	43152.46
556.83	42412.85
556.99	42656.26
557.16	42454.98
557.32	43091.60
557.49	42866.91
557.65	42382.42
557.82	42843.51
557.98	42677.33
558.15	42646.90
558.32	42817.76
558.48	43023.73
558.65	43168.84
558.81	43306.93
558.98	43056.50
559.14	42614.13
559.31	43044.79
559.47	43100.97
559.64	43445.02
559.80	43058.84
559.97	43175.86
560.13	42958.19
560.30	43702.48
560.46	42674.99
560.63	42990.96
560.79	43103.31
560.96	43716.53
561.12	43234.38
561.29	43126.71
561.45	43234.38
561.61	43615.88
561.78	43203.95
561.94	43246.08
562.11	43075.22
562.27	43365.45
562.44	43316.29
562.60	43232.04
562.77	43538.65
562.93	43374.81
563.10	43344.38
563.26	43449.70
563.42	43377.15
563.59	43112.67
563.75	43707.16
563.92	43627.59
564.08	43440.34
564.24	43531.62
564.41	43730.57
564.57	43730.57
564.74	43564.39
564.90	43800.79
565.07	43679.08
565.23	43421.62
565.39	43543.33
565.56	44025.48
565.72	43611.20
565.88	43459.07
566.05	43440.34
566.21	43388.85
566.38	43627.59
566.54	43594.82
566.70	43899.09
566.87	44280.60
567.03	44186.97
567.19	44240.81
567.36	43868.66
567.52	43782.06
567.68	43475.45
567.85	43625.25
568.01	43826.53
568.17	43871.00
568.34	43945.90
568.50	44086.33
568.66	43674.40
568.83	44357.83
568.99	43761.00
569.15	44306.34
569.32	43983.35
569.48	43342.04
569.64	43948.24
569.81	44175.27
569.97	43866.32
570.13	43716.53
570.30	43580.78
570.46	43704.82
570.62	43632.27
570.78	43578.43
570.95	43686.10
571.11	44208.04
571.27	44158.89
571.43	43985.69
571.60	44158.89
571.76	44079.31
571.92	43723.55
572.09	44013.77
572.25	44304.00
572.41	43985.69
572.57	43730.57
572.74	44252.51
572.90	44088.67
573.06	44203.36
573.22	44215.06
573.38	44212.72
573.55	43966.96
573.71	44289.96
573.87	44060.58
574.03	43681.42
574.20	44271.23
574.36	43927.17
574.52	44334.43
574.68	44699.55
574.84	44076.97
575.01	44083.99
575.17	44198.68
575.33	44161.23
575.49	43959.94
575.65	44437.41
575.82	44376.56
575.98	44638.70
576.14	44587.21
576.30	44271.23
576.46	44161.23
576.62	43737.59
576.79	44100.37
576.95	43807.81
577.11	44016.11
577.27	44355.49
577.43	44304.00
577.59	44168.25
577.75	44130.80
577.92	43758.66
578.08	44025.48
578.24	44107.40
578.40	44205.70
578.56	44041.86
578.72	44203.36
578.88	44041.86
579.04	44449.11
579.21	44205.70
579.37	44168.25
579.53	44296.98
579.69	44203.36
579.85	44278.25
580.01	44196.34
580.17	44116.76
580.33	44706.57
580.49	44282.94
580.65	44472.52
580.82	44488.90
580.98	44402.30
581.14	44201.02
581.30	44385.92
581.46	44388.26
581.62	44538.05
581.78	44437.41
581.94	44425.71
582.10	44437.41
582.26	44126.12
582.42	44547.42
582.58	44538.05
582.74	44210.38
582.90	44350.81
583.06	44254.85
583.22	44428.05
583.38	44348.47
583.54	44186.97
583.70	44257.19
583.86	44158.89
584.02	44069.95
584.18	44624.65
584.34	44392.94
584.50	44718.28
584.66	44086.33
584.82	44095.69
584.98	44615.29
585.14	44657.42
585.30	43915.47
585.46	44023.14
585.62	43929.51
585.78	44217.40
585.94	44219.74
586.10	44308.68
586.26	44175.27
586.42	44378.90
586.58	44683.17
586.74	44643.38
586.90	43957.60
587.06	44360.17
587.22	44102.71
587.38	44034.84
587.54	44907.86
587.70	44996.80
587.86	44638.70
588.02	44645.72
588.18	44938.29
588.34	44577.84
588.49	44245.49
588.65	44397.62
588.81	44067.61
588.97	44184.63
589.13	44435.07
589.29	44444.43
589.45	44404.64
589.61	44371.88
589.77	44816.58
589.93	44741.68
590.08	44718.28
590.24	44575.50
590.40	44610.61
