SpectraSuite Data File
++++++++++++++++++++++++++++++++++++
Date: Fri Oct 25 10:44:53 EDT 2013
User: price-jones
Dark Spectrum Present: No
Reference Spectrum Present: No
Number of Sampled Component Spectra: 1
Spectrometers: USB2+H05261
Integration Time (usec): 100000 (USB2+H05261)
Spectra Averaged: 1 (USB2+H05261)
Boxcar Smoothing: 0 (USB2+H05261)
Correct for Electrical Dark: No (USB2+H05261)
Strobe/Lamp Enabled: No (USB2+H05261)
Correct for Detector Non-linearity: No (USB2+H05261)
Correct for Stray Light: No (USB2+H05261)
Number of Pixels in Processed Spectrum: 2048
>>>>>Begin Processed Spectral Data<<<<<
365.73	135.75
365.92	135.75
366.12	135.75
366.32	56.17
366.52	11.70
366.72	56.17
366.91	18.72
367.11	72.56
367.31	79.58
367.51	70.22
367.70	14.04
367.90	88.94
368.10	93.62
368.30	44.47
368.49	0.00
368.69	0.00
368.89	0.00
369.09	70.22
369.28	65.54
369.48	84.26
369.68	9.36
369.87	60.85
370.07	86.60
370.27	112.35
370.47	187.24
370.66	395.55
370.86	433.00
371.06	433.00
371.25	528.96
371.45	440.02
371.65	468.11
371.84	458.74
372.04	379.17
372.24	505.56
372.44	440.02
372.63	557.05
372.83	461.09
373.03	437.68
373.22	409.59
373.42	545.34
373.62	498.53
373.81	533.64
374.01	505.56
374.21	545.34
374.40	526.62
374.60	512.58
374.79	472.79
374.99	566.41
375.19	629.60
375.38	594.50
375.58	545.34
375.78	664.71
375.97	594.50
376.17	629.60
376.37	645.99
376.56	599.18
376.76	601.52
376.95	599.18
377.15	585.13
377.35	587.47
377.54	706.84
377.74	589.82
377.93	641.31
378.13	638.97
378.33	627.26
378.52	594.50
378.72	657.69
378.91	645.99
379.11	533.64
379.31	571.09
379.50	638.97
379.70	697.48
379.89	599.18
380.09	599.18
380.28	617.90
380.48	683.44
380.68	709.18
380.87	578.11
381.07	634.29
381.26	629.60
381.46	704.50
381.65	690.46
381.85	613.22
382.04	713.86
382.24	657.69
382.43	699.82
382.63	592.16
382.83	751.31
383.02	730.25
383.22	798.12
383.41	688.12
383.61	744.29
383.80	636.63
384.00	678.76
384.19	704.50
384.39	753.65
384.58	678.76
384.78	798.12
384.97	798.12
385.17	746.63
385.36	821.53
385.56	767.70
385.75	695.14
385.95	702.16
386.14	821.53
386.34	816.85
386.53	753.65
386.72	840.25
386.92	795.78
387.11	807.48
387.31	844.93
387.50	791.10
387.70	732.59
387.89	835.57
388.09	819.19
388.28	779.40
388.48	966.64
388.67	905.79
388.86	873.02
389.06	816.85
389.25	964.30
389.45	896.43
389.64	929.19
389.84	847.27
390.03	891.74
390.22	997.07
390.42	961.96
390.61	924.51
390.81	847.27
391.00	961.96
391.19	961.96
391.39	1015.79
391.58	954.94
391.78	912.81
391.97	917.49
392.16	971.32
392.36	1100.05
392.55	924.51
392.75	891.74
392.94	1029.84
393.13	931.53
393.33	933.87
393.52	945.58
393.71	1043.88
393.91	1048.56
394.10	1055.58
394.29	1036.86
394.49	1071.97
394.68	1022.81
394.88	1132.82
395.07	1107.07
395.26	1093.03
395.46	1123.46
395.65	1149.20
395.84	1128.14
396.04	1137.50
396.23	1123.46
396.42	1102.39
396.62	1188.99
396.81	1046.22
397.00	1050.90
397.19	1196.01
397.39	1205.38
397.58	1341.13
397.77	1291.98
397.97	1252.19
398.16	1203.04
398.35	1277.93
398.55	1296.66
398.74	1273.25
398.93	1306.02
399.12	1306.02
399.32	1303.68
399.51	1280.27
399.70	1519.01
399.90	1252.19
400.09	1392.62
400.28	1467.52
400.47	1425.39
400.67	1465.18
400.86	1430.07
401.05	1444.11
401.24	1523.69
401.44	1551.78
401.63	1519.01
401.82	1479.22
402.01	1479.22
402.21	1472.20
402.40	1584.54
402.59	1549.43
402.78	1556.46
402.97	1528.37
403.17	1551.78
403.36	1582.20
403.55	1526.03
403.74	1610.29
403.93	1703.91
404.13	1724.97
404.32	1673.48
404.51	1643.06
404.70	1682.85
404.89	1647.74
405.09	1802.21
405.28	1732.00
405.47	1666.46
405.66	1764.76
405.85	1717.95
406.05	1755.40
406.24	1776.47
406.43	1860.73
406.62	1863.07
406.81	1856.04
407.00	1837.32
407.20	1832.64
407.39	1858.39
407.58	1935.62
407.77	1966.05
407.96	1891.15
408.15	1996.48
408.34	1926.26
408.54	2069.03
408.73	2092.44
408.92	2015.20
409.11	2099.46
409.30	1963.71
409.49	1980.09
409.68	2104.14
409.87	1966.05
410.07	1996.48
410.26	2111.16
410.45	2047.97
410.64	2101.80
410.83	2270.32
411.02	2223.51
411.21	2228.19
411.40	2286.70
411.59	2310.11
411.78	2307.77
411.98	2242.23
412.17	2200.10
412.36	2377.98
412.55	2333.51
412.74	2457.56
412.93	2518.42
413.12	2534.80
413.31	2600.34
413.50	2518.42
413.69	2590.97
413.88	2628.42
414.07	2590.97
414.26	2614.38
414.45	2712.68
414.64	2614.38
414.83	2717.36
415.02	2726.72
415.22	2773.53
415.41	2754.81
415.60	2698.64
415.79	2829.71
415.98	2902.26
416.17	2850.77
416.36	2902.26
416.55	2904.60
416.74	2827.37
416.93	2878.86
417.12	3038.02
417.31	3012.27
417.50	3019.29
417.69	3082.49
417.88	3124.62
418.07	3171.43
418.26	3028.65
418.45	3087.17
418.64	3269.73
418.83	3126.96
419.02	3220.58
419.21	3171.43
419.39	3314.20
419.58	3183.13
419.77	3295.47
419.96	3293.13
420.15	3258.03
420.34	3253.34
420.53	3398.46
420.72	3398.46
420.91	3332.92
421.10	3445.27
421.29	3466.33
421.48	3424.20
421.67	3473.36
421.86	3548.25
422.05	3396.12
422.24	3562.30
422.43	3543.57
422.61	3407.82
422.80	3335.26
422.99	3403.14
423.18	3527.19
423.37	3653.58
423.56	3447.61
423.75	3463.99
423.94	3562.30
424.13	3353.99
424.32	3353.99
424.50	3435.91
424.69	3536.55
424.88	3669.96
425.07	3471.01
425.26	3632.51
425.45	3581.02
425.64	3463.99
425.83	3555.27
426.01	3613.79
426.20	3559.95
426.39	3576.34
426.58	3625.49
426.77	3520.17
426.96	3599.74
427.15	3590.38
427.33	3611.45
427.52	3609.11
427.71	3824.44
427.90	3726.13
428.09	3693.37
428.28	3698.05
428.46	3756.56
428.65	3789.33
428.84	3908.69
429.03	3936.78
429.22	3742.52
429.40	3925.08
429.59	3763.58
429.78	3595.06
429.97	3721.45
430.16	3765.92
430.34	3791.67
430.53	3857.20
430.72	3861.88
430.91	3847.84
431.10	3922.74
431.28	4070.19
431.47	4102.96
431.66	4170.83
431.85	4070.19
432.03	4112.32
432.22	4147.43
432.41	4203.60
432.60	4318.29
432.79	4299.56
432.97	4402.55
433.16	4325.31
433.35	4250.41
433.54	4180.20
433.72	4269.14
433.91	4205.94
434.10	4234.03
434.28	4234.03
434.47	4334.67
434.66	4503.19
434.85	4428.29
435.03	4503.19
435.22	4444.68
435.41	4503.19
435.59	4624.90
435.78	4587.45
435.97	4503.19
436.16	4697.46
436.34	4620.22
436.53	4671.71
436.72	4664.69
436.90	4507.87
437.09	4697.46
437.28	4519.57
437.46	4645.96
437.65	4788.74
437.84	4786.40
438.02	4657.67
438.21	4786.40
438.40	4702.14
438.58	4868.31
438.77	4950.23
438.96	4987.68
439.14	4880.02
439.33	5022.79
439.52	5064.92
439.70	5109.39
439.89	5132.79
440.08	5114.07
440.26	5121.09
440.45	5212.37
440.63	5334.08
440.82	5291.95
441.01	5310.68
441.19	5291.95
441.38	5418.34
441.57	5533.03
441.75	5481.53
441.94	5659.42
442.12	5717.93
442.31	5678.14
442.50	5650.05
442.68	5619.63
442.87	5533.03
443.05	5741.33
443.24	5750.70
443.43	5743.67
443.61	5720.27
443.80	5961.34
443.98	5813.89
444.17	5582.18
444.35	5984.75
444.54	5954.32
444.73	5898.15
444.91	5746.02
445.10	5844.32
445.28	5746.02
445.47	5678.14
445.65	5748.36
445.84	5839.64
446.02	5820.91
446.21	5874.74
446.39	6038.58
446.58	5942.62
446.77	5991.77
446.95	6050.28
447.14	6005.81
447.32	5951.98
447.51	6071.35
447.69	6010.50
447.88	5879.43
448.06	5982.41
448.25	6017.52
448.43	5909.85
448.62	6104.12
448.80	5987.09
448.99	6179.01
449.17	6083.05
449.36	6061.99
449.54	6408.39
449.73	6420.09
449.91	6221.14
450.10	6377.96
450.28	6478.60
450.46	6511.37
450.65	6310.08
450.83	6473.92
451.02	6436.47
451.20	6429.45
451.39	6471.58
451.57	6359.24
451.76	6394.34
451.94	6462.22
452.13	6600.31
452.31	6583.93
452.49	6392.00
452.68	6544.14
452.86	6436.47
453.05	6689.25
453.23	6635.42
453.42	6614.35
453.60	6574.56
453.78	6682.23
453.97	6527.75
454.15	6567.54
454.34	6707.98
454.52	6764.15
454.70	6679.89
454.89	6965.43
455.07	6850.75
455.26	6967.77
455.44	7014.59
455.62	7012.24
455.81	7033.31
455.99	6923.30
456.17	6981.82
456.36	7225.23
456.54	7258.00
456.73	7164.38
456.91	7279.07
457.09	7344.60
457.28	7405.46
457.46	7311.83
457.64	7307.15
457.83	7218.21
458.01	7456.95
458.19	7262.68
458.38	7501.42
458.56	7403.11
458.74	7405.46
458.93	7433.54
459.11	7503.76
459.29	7360.98
459.48	7569.29
459.66	7536.52
459.84	7496.74
460.03	7801.01
460.21	7428.86
460.39	7655.89
460.57	7723.77
460.76	7658.23
460.94	7997.61
461.12	7777.60
461.31	7639.51
461.49	7854.84
461.67	7676.96
461.85	7882.92
462.04	7833.77
462.22	8004.63
462.40	8011.65
462.59	7868.88
462.77	7971.86
462.95	8053.78
463.13	8044.42
463.32	8039.74
463.50	8098.25
463.68	8299.54
463.86	8301.88
464.05	8234.00
464.23	8112.30
464.41	8124.00
464.59	8182.51
464.78	8231.66
464.96	8308.90
465.14	8180.17
465.32	8334.65
465.50	8397.84
465.69	8351.03
465.87	8535.93
466.05	8465.72
466.23	8318.26
466.41	8269.11
466.60	8477.42
466.78	8257.41
466.96	8299.54
467.14	8643.60
467.32	8554.66
467.51	8580.40
467.69	8367.42
467.87	8538.27
468.05	8659.98
468.23	8571.04
468.41	8652.96
468.60	8564.02
468.78	8641.26
468.96	8542.96
469.14	8718.50
469.32	8868.29
469.50	8617.85
469.69	8889.35
469.87	8999.36
470.05	8971.27
470.23	9125.75
470.41	8940.85
470.59	8917.44
470.77	8854.25
470.95	9074.26
471.14	9160.86
471.32	9027.45
471.50	9392.57
471.68	9329.38
471.86	9415.98
472.04	9394.91
472.22	9320.01
472.40	9329.38
472.58	9502.58
472.77	9404.27
472.95	9458.10
473.13	9734.29
473.31	9731.95
473.49	9582.15
473.67	9867.70
473.85	9661.73
474.03	10024.51
474.21	10054.94
474.39	9961.32
474.57	10099.41
474.75	10345.17
474.93	10143.88
475.12	10132.18
475.30	10134.52
475.48	10169.63
475.66	10090.05
475.84	10333.47
476.02	10466.88
476.20	10560.50
476.38	10581.56
476.56	10775.83
476.74	11028.60
476.92	11009.88
477.10	10607.31
477.28	11147.97
477.46	11122.23
477.64	11262.66
477.82	11426.50
478.00	11454.58
478.18	11358.62
478.36	11360.96
478.54	11426.50
478.72	11583.31
478.90	11714.38
479.08	11763.53
479.26	11714.38
479.44	12018.65
479.62	11999.93
479.80	11875.88
479.98	12269.09
480.16	12615.49
480.34	12409.52
480.52	12629.53
480.70	12706.77
480.88	12470.37
481.06	12594.42
481.24	12617.83
481.41	12732.51
481.59	12957.21
481.77	13287.22
481.95	13097.64
482.13	13268.50
482.31	13144.45
482.49	13666.39
482.67	13607.87
482.85	13479.15
483.03	13961.30
483.21	14043.21
483.39	13834.91
483.57	13991.72
483.74	14572.18
483.92	14347.48
484.10	14235.14
484.28	14277.27
484.46	14555.79
484.64	14988.79
484.82	14696.22
485.00	14497.28
485.18	15161.99
485.35	15363.28
485.53	15002.83
485.71	14881.13
485.89	15543.50
486.07	15353.91
486.25	15335.19
486.43	15697.97
486.61	15583.29
486.78	15789.25
486.96	15955.43
487.14	16042.03
487.32	16451.63
487.50	16430.56
487.68	16531.20
487.85	16877.60
488.03	16910.37
488.21	17121.02
488.39	17259.11
488.57	17254.43
488.75	17551.68
488.92	17816.16
489.10	17921.48
489.28	17649.98
489.46	18113.41
489.64	18263.20
489.81	18689.18
489.99	18464.49
490.17	18604.92
490.35	18499.59
490.53	18342.78
490.70	18817.91
490.88	18670.45
491.06	19201.76
491.24	18813.23
491.41	19005.15
491.59	19489.64
491.77	19461.55
491.95	19566.88
492.13	19810.29
492.30	19887.53
492.48	19922.64
492.66	19927.32
492.84	19915.62
493.01	20460.96
493.19	20067.75
493.37	20601.40
493.54	20601.40
493.72	20680.97
493.90	20709.06
494.08	20954.82
494.25	21493.14
494.43	21144.40
494.61	21411.22
494.79	21598.46
494.96	21387.82
495.14	21717.83
495.32	21809.11
495.49	21898.05
495.67	21764.64
495.85	22525.32
496.02	22347.44
496.20	22530.00
496.38	22618.94
496.55	22735.96
496.73	23012.15
496.91	22501.91
497.09	22974.70
497.26	23323.44
497.44	23201.73
497.62	23154.92
497.79	23693.24
497.97	23232.16
498.14	23583.24
498.32	23515.36
498.50	23637.07
498.67	24114.54
498.85	23854.74
499.03	24222.20
499.20	24283.06
499.38	24222.20
499.56	24140.29
499.73	24456.26
499.91	24423.49
500.08	24489.03
500.26	24343.91
500.44	24519.45
500.61	24657.54
500.79	24666.91
500.97	24959.47
501.14	25319.92
501.32	25270.76
501.49	25530.56
501.67	25420.56
501.84	25486.09
502.02	25462.69
502.20	25589.08
502.37	25748.23
502.55	25682.70
502.72	26036.12
502.90	25734.19
503.07	26001.01
503.25	25977.61
503.43	26073.57
503.60	26185.91
503.78	26197.62
503.95	26719.56
504.13	26349.75
504.30	26476.14
504.48	26572.10
504.65	26658.70
504.83	26686.79
505.01	27065.96
505.18	27105.74
505.36	26948.93
505.53	27061.27
505.71	27337.46
505.88	27737.69
506.06	27491.93
506.23	27777.48
506.41	27513.00
506.58	27660.45
506.76	27529.38
506.93	27983.44
507.11	27894.50
507.28	27917.91
507.46	27957.70
507.63	28254.95
507.81	27964.72
507.98	28109.83
508.16	28079.41
508.33	28329.84
508.50	28676.24
508.68	28549.85
508.85	28877.53
509.03	29024.98
509.20	28739.44
509.38	29167.76
509.55	29034.35
509.73	28929.02
509.90	29130.31
510.08	29193.50
510.25	28999.24
510.42	29380.74
510.60	29537.56
510.77	29642.88
510.95	30057.16
511.12	29495.43
511.30	30059.50
511.47	30183.55
511.64	30228.02
511.82	30167.16
511.99	30221.00
512.17	30988.69
512.34	30085.25
512.51	30639.95
512.69	30529.95
512.86	30581.44
513.04	30864.64
513.21	30974.65
513.38	30803.79
513.56	30485.48
513.73	30810.81
513.90	31138.49
514.08	30866.98
514.25	31058.91
514.43	30824.86
514.60	31349.14
514.77	31325.73
514.95	31662.77
515.12	31358.50
515.29	31255.51
515.47	31557.44
515.64	31859.37
515.81	31508.29
515.99	31838.31
516.16	31651.06
516.33	31639.36
516.51	31988.10
516.68	31398.29
516.85	31412.33
517.03	31662.77
517.20	31962.36
517.37	32060.66
517.54	32416.42
517.72	32137.90
517.89	32194.07
518.06	32271.31
518.24	31842.99
518.41	32252.58
518.58	32484.30
518.75	32603.66
518.93	32793.25
519.10	32694.94
519.27	32652.81
519.45	32711.33
519.62	33031.98
519.79	32945.38
519.96	32830.69
520.14	33118.58
520.31	32940.70
520.48	33415.83
520.65	33397.10
520.83	33813.72
521.00	33813.72
521.17	33853.51
521.34	33633.50
521.52	33500.09
521.69	33844.15
521.86	34106.29
522.03	34499.50
522.20	34450.35
522.38	34550.99
522.55	34036.07
522.72	34312.25
522.89	33914.36
523.07	34281.83
523.24	34026.71
523.41	34796.74
523.58	34501.84
523.75	34906.75
523.92	35086.97
524.10	35049.52
524.27	35215.70
524.44	35009.73
524.61	35157.19
524.78	35047.18
524.96	35367.84
525.13	35302.30
525.30	35571.46
525.47	35772.75
525.64	35377.20
525.81	35672.10
525.98	35395.92
526.16	35480.18
526.33	35524.65
526.50	35992.76
526.67	35711.89
526.84	35655.72
527.01	35611.25
527.18	35438.05
527.36	35936.59
527.53	36137.87
527.70	36353.20
527.87	36395.33
528.04	36182.34
528.21	36006.80
528.38	35920.20
528.55	36280.64
528.72	36622.36
528.89	36659.81
529.07	36341.50
529.24	36573.21
529.41	36708.96
529.58	36833.01
529.75	36259.58
529.92	36856.42
530.09	36715.98
530.26	37053.02
530.43	36699.60
530.60	36781.52
530.77	36636.41
530.94	37191.11
531.11	36975.78
531.28	37273.03
531.46	37310.48
531.63	37654.54
531.80	37153.66
531.97	36924.29
532.14	37151.32
532.31	37291.76
532.48	37790.29
532.65	37401.76
532.82	37235.58
532.99	37755.18
533.16	37422.83
533.33	37619.43
533.50	38010.30
533.67	37640.50
533.84	37703.69
534.01	38403.51
534.18	37724.75
534.35	38267.76
534.52	37827.74
534.69	38127.33
534.86	38080.52
535.03	38167.12
535.20	38827.15
535.37	38862.26
535.54	38583.73
535.71	38419.89
535.88	38143.71
536.05	38527.56
536.22	38543.94
536.38	38539.26
536.55	38024.34
536.72	38443.30
536.89	38499.47
537.06	38902.04
537.23	38773.31
537.40	39112.69
537.57	38536.92
537.74	38698.42
537.91	39009.71
538.08	39082.27
538.25	38820.13
538.42	38892.68
538.59	38632.88
538.75	38878.64
538.92	39021.41
539.09	39400.58
539.26	38895.02
539.43	39012.05
539.60	39517.60
539.77	39541.01
539.94	39297.59
540.11	39278.87
540.28	39714.21
540.44	39739.96
540.61	39643.99
540.78	39290.57
540.95	39585.48
541.12	39138.44
541.29	39629.95
541.46	39353.77
541.62	39955.29
541.79	40105.08
541.96	39414.62
542.13	39786.77
542.30	39786.77
542.47	39878.05
542.63	40128.48
542.80	39892.09
542.97	40289.98
543.14	40886.82
543.31	40292.32
543.48	40268.92
543.64	41209.81
543.81	40751.07
543.98	40964.06
544.15	40760.43
544.32	41305.77
544.48	40818.94
544.65	41113.85
544.82	41027.25
544.99	40870.43
545.16	40790.86
545.32	40547.44
545.49	40950.01
545.66	41471.95
545.83	41193.43
546.00	41420.46
546.16	41088.10
546.33	41013.21
546.50	40638.72
546.67	41265.99
546.83	40854.05
547.00	41057.68
547.17	41455.57
547.34	40884.48
547.50	41163.00
547.67	41429.82
547.84	41448.55
548.00	41956.44
548.17	41528.13
548.34	41792.61
548.51	41659.20
548.67	41918.99
548.84	41926.02
549.01	41371.31
549.18	42185.82
549.34	41900.27
549.51	41734.09
549.68	42101.56
549.84	42099.22
550.01	42021.98
550.18	41701.32
550.34	41968.15
550.51	41918.99
550.68	42003.25
550.84	41460.25
551.01	42387.10
551.18	42087.51
551.34	42096.88
551.51	41918.99
551.68	41954.10
551.84	41996.23
552.01	41928.36
552.18	42469.02
552.34	41869.84
552.51	42389.44
552.68	42342.63
552.84	42815.42
553.01	42209.22
553.18	42611.79
553.34	42522.85
553.51	42094.53
553.67	42040.70
553.84	42920.74
554.01	42082.83
554.17	42787.33
554.34	43005.00
554.51	42471.36
554.67	43070.54
554.84	42969.90
555.00	42635.20
555.17	42377.74
555.33	42618.81
555.50	42801.38
555.67	42897.34
555.83	42815.42
556.00	42946.49
556.16	43040.11
556.33	42625.84
556.50	42845.85
556.66	43227.35
556.83	42923.08
556.99	43145.44
557.16	43068.20
557.32	43138.41
557.49	43358.42
557.65	43159.48
557.82	42782.65
557.98	42721.80
558.15	43154.80
558.32	43126.71
558.48	43023.73
558.65	43473.11
558.81	43196.93
558.98	43129.05
559.14	43608.86
559.31	43299.91
559.47	43243.74
559.64	43388.85
559.80	43817.17
559.97	43690.78
560.13	43171.18
560.30	43206.29
560.46	43892.07
560.63	43906.11
560.79	43866.32
560.96	43775.04
561.12	43945.90
561.29	43599.50
561.45	43758.66
561.61	43650.99
561.78	43803.13
561.94	43356.08
562.11	43557.37
562.27	43164.16
562.44	43515.24
562.60	43899.09
562.77	43838.23
562.93	43454.39
563.10	43793.76
563.26	42948.83
563.42	44051.22
563.59	43880.36
563.75	43356.08
563.92	43873.34
564.08	43887.39
564.24	44009.09
564.41	43632.27
564.57	43810.15
564.74	44051.22
564.90	43934.20
565.07	44341.45
565.23	44095.69
565.39	43716.53
565.56	44044.20
565.72	43618.22
565.88	43859.30
566.05	44023.14
566.21	44100.37
566.38	43730.57
566.54	44378.90
566.70	44374.22
566.87	44404.64
567.03	43899.09
567.19	44311.02
567.36	44058.24
567.52	44191.65
567.68	44315.70
567.85	44147.18
568.01	43885.04
568.17	43988.03
568.34	44002.07
568.50	44046.54
568.66	43871.00
568.83	44247.83
568.99	44009.09
569.15	44184.63
569.32	43599.50
569.48	43573.75
569.64	44088.67
569.81	44493.58
569.97	44388.26
570.13	44238.47
570.30	44032.50
570.46	44079.31
570.62	43639.29
570.78	43770.36
570.95	43985.69
571.11	44315.70
571.27	44076.97
571.43	43990.37
571.60	44037.18
571.76	43725.89
571.92	44404.64
572.09	43896.75
572.25	44327.41
572.41	44556.78
572.57	44381.24
572.74	44598.91
572.90	43985.69
573.06	44254.85
573.22	44601.25
573.38	44430.39
573.55	44341.45
573.71	44406.98
573.87	44137.82
574.03	44142.50
574.20	44367.20
574.36	44149.53
574.52	44526.35
574.68	44371.88
574.84	44341.45
575.01	44353.15
575.17	44577.84
575.33	43959.94
575.49	43856.96
575.65	44432.73
575.82	44706.57
575.98	44315.70
576.14	44495.92
576.30	44582.52
576.46	44556.78
576.62	44765.09
576.79	44224.42
576.95	43959.94
577.11	44729.98
577.27	44470.18
577.43	44744.02
577.59	44589.55
577.75	44098.03
577.92	43863.98
578.08	44257.19
578.24	44416.35
578.40	44238.47
578.56	44399.96
578.72	44416.35
578.88	44746.36
579.04	44430.39
579.21	44573.16
579.37	44486.56
579.53	44524.01
579.69	43934.20
579.85	44285.28
580.01	44847.00
580.17	44318.04
580.33	44559.12
580.49	44713.59
580.65	44629.34
580.82	44893.82
580.98	44538.05
581.14	44598.91
581.30	44535.71
581.46	44566.14
581.62	44662.10
581.78	44488.90
581.94	44512.31
582.10	44451.45
582.26	44374.22
582.42	44900.84
582.58	44524.01
582.74	44701.89
582.90	44376.56
583.06	44575.50
583.22	44685.51
583.38	44545.08
583.54	45034.25
583.70	44697.21
583.86	44631.68
584.02	44481.88
584.18	44839.98
584.34	44486.56
584.50	44636.36
584.66	44292.30
584.82	44397.62
584.98	44645.72
585.14	44477.20
585.30	44395.28
585.46	44662.10
585.62	44509.97
585.78	44605.93
585.94	44430.39
586.10	44680.83
586.26	44360.17
586.42	44842.32
586.58	44442.09
586.74	44690.19
586.90	44472.52
587.06	44341.45
587.22	44800.19
587.38	44179.95
587.54	44706.57
587.70	45017.86
587.86	44898.50
588.02	44830.62
588.18	45413.41
588.34	44748.70
588.49	44404.64
588.65	44215.06
588.81	44245.49
588.97	44292.30
589.13	44409.32
589.29	44683.17
589.45	44580.18
589.61	44687.85
589.77	44858.71
589.93	44839.98
590.08	45099.78
590.24	44868.07
