SpectraSuite Data File
++++++++++++++++++++++++++++++++++++
Date: Fri Oct 25 11:34:30 EDT 2013
User: price-jones
Dark Spectrum Present: No
Reference Spectrum Present: No
Number of Sampled Component Spectra: 1
Spectrometers: USB2+H05261
Integration Time (usec): 100000 (USB2+H05261)
Spectra Averaged: 1 (USB2+H05261)
Boxcar Smoothing: 0 (USB2+H05261)
Correct for Electrical Dark: No (USB2+H05261)
Strobe/Lamp Enabled: No (USB2+H05261)
Correct for Detector Non-linearity: No (USB2+H05261)
Correct for Stray Light: No (USB2+H05261)
Number of Pixels in Processed Spectrum: 2048
>>>>>Begin Processed Spectral Data<<<<<
365.73	339.38
365.92	339.38
366.12	339.38
366.32	177.88
366.52	166.18
366.72	170.86
366.91	180.22
367.11	142.77
367.31	154.48
367.51	149.79
367.70	264.48
367.90	205.97
368.10	189.58
368.30	140.43
368.49	182.56
368.69	229.37
368.89	175.54
369.09	152.13
369.28	149.79
369.48	234.05
369.68	203.63
369.87	262.14
370.07	180.22
370.27	269.16
370.47	337.04
370.66	559.39
370.86	493.85
371.06	627.26
371.25	526.62
371.45	540.66
371.65	561.73
371.84	491.51
372.04	489.17
372.24	554.71
372.44	566.41
372.63	561.73
372.83	559.39
373.03	620.24
373.22	575.77
373.42	624.92
373.62	657.69
373.81	610.88
374.01	624.92
374.21	648.33
374.40	564.07
374.60	608.54
374.79	603.86
374.99	664.71
375.19	655.35
375.38	671.73
375.58	634.29
375.78	678.76
375.97	624.92
376.17	723.23
376.37	727.91
376.56	709.18
376.76	674.07
376.95	629.60
377.15	699.82
377.35	760.67
377.54	685.78
377.74	692.80
377.93	645.99
378.13	660.03
378.33	748.97
378.52	835.57
378.72	758.33
378.91	725.57
379.11	732.59
379.31	697.48
379.50	737.27
379.70	758.33
379.89	645.99
380.09	725.57
380.28	788.76
380.48	727.91
380.68	704.50
380.87	760.67
381.07	741.95
381.26	725.57
381.46	791.10
381.65	685.78
381.85	777.06
382.04	758.33
382.24	814.51
382.43	767.70
382.63	779.40
382.83	732.59
383.02	732.59
383.22	842.59
383.41	809.83
383.61	746.63
383.80	807.48
384.00	770.04
384.19	786.42
384.39	816.85
384.58	795.78
384.78	858.98
384.97	844.93
385.17	821.53
385.36	791.10
385.56	875.36
385.75	760.67
385.95	880.04
386.14	833.23
386.34	891.74
386.53	774.72
386.72	800.46
386.92	926.85
387.11	912.81
387.31	821.53
387.50	851.96
387.70	812.17
387.89	912.81
388.09	877.70
388.28	870.68
388.48	926.85
388.67	828.55
388.86	959.62
389.06	901.11
389.25	957.28
389.45	873.02
389.64	793.44
389.84	894.08
390.03	971.32
390.22	898.77
390.42	877.70
390.61	985.37
390.81	973.66
391.00	959.62
391.19	997.07
391.39	978.34
391.58	1029.84
391.78	983.02
391.97	1006.43
392.16	957.28
392.36	1020.47
392.55	1011.11
392.75	971.32
392.94	1034.52
393.13	1081.33
393.33	1104.73
393.52	1081.33
393.71	1165.59
393.91	1153.88
394.10	1025.15
394.29	1069.62
394.49	1043.88
394.68	1048.56
394.88	1100.05
395.07	1104.73
395.26	1048.56
395.46	1095.37
395.65	1109.41
395.84	1153.88
396.04	1252.19
396.23	1114.10
396.42	1207.72
396.62	1217.08
396.81	1172.61
397.00	1186.65
397.19	1186.65
397.39	1172.61
397.58	1196.01
397.77	1142.18
397.97	1249.85
398.16	1233.46
398.35	1275.59
398.55	1287.29
398.74	1238.14
398.93	1268.57
399.12	1221.76
399.32	1273.25
399.51	1210.06
399.70	1299.00
399.90	1315.38
400.09	1287.29
400.28	1380.92
400.47	1296.66
400.67	1348.15
400.86	1458.15
401.05	1280.27
401.24	1406.66
401.44	1376.24
401.63	1409.00
401.82	1420.71
402.01	1392.62
402.21	1451.13
402.40	1409.00
402.59	1401.98
402.78	1385.60
402.97	1439.43
403.17	1486.24
403.36	1425.39
403.55	1544.75
403.74	1563.48
403.93	1467.52
404.13	1490.92
404.32	1547.09
404.51	1582.20
404.70	1629.01
404.89	1584.54
405.09	1591.56
405.28	1565.82
405.47	1650.08
405.66	1575.18
405.85	1706.25
406.05	1614.97
406.24	1682.85
406.43	1668.80
406.62	1715.61
406.81	1825.62
407.00	1621.99
407.20	1678.16
407.39	1746.04
407.58	1802.21
407.77	1739.02
407.96	1851.36
408.15	1797.53
408.34	1816.26
408.54	1778.81
408.73	1734.34
408.92	1872.43
409.11	1823.28
409.30	1926.26
409.49	1956.69
409.68	1912.22
409.87	1888.81
410.07	1916.90
410.26	2015.20
410.45	1982.43
410.64	1991.80
410.83	2097.12
411.02	1961.37
411.21	2076.06
411.40	2059.67
411.59	2162.66
411.78	2122.87
411.98	2134.57
412.17	2181.38
412.36	2132.23
412.55	2195.42
412.74	2181.38
412.93	2251.60
413.12	2237.55
413.31	2335.85
413.50	2282.02
413.69	2291.38
413.88	2267.98
414.07	2251.60
414.26	2415.43
414.45	2408.41
414.64	2431.82
414.83	2359.26
415.02	2588.63
415.22	2612.04
415.41	2476.29
415.60	2429.48
415.79	2656.51
415.98	2633.10
416.17	2588.63
416.36	2562.89
416.55	2602.68
416.74	2614.38
416.93	2789.92
417.12	2640.12
417.31	2857.79
417.50	2724.38
417.69	2860.13
417.88	2846.09
418.07	2944.39
418.26	2822.69
418.45	2832.05
418.64	2885.88
418.83	2881.20
419.02	2857.79
419.21	3000.57
419.39	2944.39
419.58	2911.63
419.77	2930.35
419.96	2995.89
420.15	3136.32
420.34	3096.53
420.53	3023.97
420.72	3251.00
420.91	3052.06
421.10	3145.68
421.29	3105.89
421.48	3171.43
421.67	3267.39
421.86	3112.91
422.05	3145.68
422.24	3295.47
422.43	3276.75
422.61	3262.71
422.80	3323.56
422.99	3349.31
423.18	3304.84
423.37	3183.13
423.56	3318.88
423.75	3351.65
423.94	3108.23
424.13	3098.87
424.32	3220.58
424.50	3311.86
424.69	3304.84
424.88	3243.98
425.07	3419.52
425.26	3288.45
425.45	3363.35
425.64	3262.71
425.83	3325.90
426.01	3311.86
426.20	3328.24
426.39	3396.12
426.58	3297.81
426.77	3293.13
426.96	3492.08
427.15	3332.92
427.33	3515.48
427.52	3325.90
427.71	3447.61
427.90	3403.14
428.09	3494.42
428.28	3431.23
428.46	3576.34
428.65	3693.37
428.84	3714.43
429.03	3737.84
429.22	3529.53
429.40	3641.87
429.59	3588.04
429.78	3494.42
429.97	3461.65
430.16	3611.45
430.34	3712.09
430.53	3723.79
430.72	3744.86
430.91	3686.34
431.10	3805.71
431.28	3733.15
431.47	3777.62
431.66	3875.93
431.85	3733.15
432.03	3850.18
432.22	4056.15
432.41	3925.08
432.60	3873.59
432.79	3882.95
432.97	3939.12
433.16	3946.14
433.35	3850.18
433.54	3990.61
433.72	4039.76
433.91	4114.66
434.10	4053.81
434.28	3894.65
434.47	3981.25
434.66	4049.13
434.85	4102.96
435.03	4138.07
435.22	4023.38
435.41	4271.48
435.59	4287.86
435.78	4259.78
435.97	4285.52
436.16	4341.69
436.34	4124.02
436.53	4313.61
436.72	4266.80
436.90	4304.25
437.09	4435.32
437.28	4238.71
437.46	4397.87
437.65	4290.20
437.84	4477.44
438.02	4294.88
438.21	4332.33
438.40	4489.15
438.58	4681.07
438.77	4610.86
438.96	4367.44
439.14	4627.24
439.33	4681.07
439.52	4713.84
439.70	4751.29
439.89	4798.10
440.08	5048.54
440.26	4873.00
440.45	5055.56
440.63	4964.28
440.82	4931.51
441.01	5013.43
441.19	5055.56
441.38	5142.16
441.57	5107.05
441.75	4994.70
441.94	5252.16
442.12	5256.84
442.31	5163.22
442.50	5301.31
442.68	5226.42
442.87	5181.95
443.05	5158.54
443.24	5408.98
443.43	5242.80
443.61	5137.48
443.80	5465.15
443.98	5259.18
444.17	5029.81
444.35	5210.03
444.54	5364.51
444.73	5469.83
444.91	5434.72
445.10	5366.85
445.28	5322.38
445.47	5385.57
445.65	5280.25
445.84	5458.13
446.02	5427.70
446.21	5366.85
446.39	5420.68
446.58	5579.84
446.77	5549.41
446.95	5341.10
447.14	5481.53
447.32	5458.13
447.51	5479.19
447.69	5661.76
447.88	5628.99
448.06	5563.45
448.25	5640.69
448.43	5636.01
448.62	5444.09
448.80	5547.07
448.99	5556.43
449.17	5668.78
449.36	5701.54
449.54	5710.91
449.73	5708.57
449.91	5834.96
450.10	5809.21
450.28	5757.72
450.46	5823.25
450.65	5858.36
450.83	5933.26
451.02	5898.15
451.20	5980.07
451.39	5834.96
451.57	5973.05
451.76	6017.52
451.94	5998.79
452.13	6183.70
452.31	6031.56
452.49	5846.66
452.68	6080.71
452.86	6052.63
453.05	6012.84
453.23	6216.46
453.42	5994.11
453.60	5996.45
453.78	6228.17
453.97	6200.08
454.15	6183.70
454.34	6061.99
454.52	6270.30
454.70	6331.15
454.89	6366.26
455.07	6466.90
455.26	6469.24
455.44	6326.47
455.62	6494.99
455.81	6401.37
455.99	6504.35
456.17	6548.82
456.36	6443.49
456.54	6438.81
456.73	6682.23
456.91	6843.73
457.09	6843.73
457.28	6747.76
457.46	6724.36
457.64	6649.46
457.83	6745.42
458.01	6792.23
458.19	6822.66
458.38	7075.44
458.56	6979.48
458.74	6803.94
458.93	6820.32
459.11	6923.30
459.29	6970.12
459.48	7002.88
459.66	7094.16
459.84	6998.20
460.03	7246.30
460.21	7073.10
460.39	6981.82
460.57	7192.47
460.76	7145.66
460.94	7208.85
461.12	7311.83
461.31	7162.04
461.49	7302.47
461.67	7325.88
461.85	7314.17
462.04	7297.79
462.22	7791.64
462.40	7571.63
462.59	7428.86
462.77	7438.22
462.95	7508.44
463.13	7482.69
463.32	7478.01
463.50	7417.16
463.68	7665.25
463.86	7658.23
464.05	7353.96
464.23	7602.06
464.41	7831.43
464.59	7730.79
464.78	7964.84
464.96	7646.53
465.14	7562.27
465.32	7674.62
465.50	7861.86
465.69	7667.60
465.87	7819.73
466.05	7716.75
466.23	7733.13
466.41	7791.64
466.60	7964.84
466.78	7826.75
466.96	7903.99
467.14	7911.01
467.32	7756.54
467.51	7894.63
467.69	7819.73
467.87	8004.63
468.05	8107.62
468.23	8035.06
468.41	7936.76
468.60	8161.45
468.78	8114.64
468.96	7901.65
469.14	8121.66
469.32	8264.43
469.50	8098.25
469.69	8234.00
469.87	8374.44
470.05	8383.80
470.23	8489.12
470.41	8479.76
470.59	8524.23
470.77	8484.44
470.95	8372.10
471.14	8685.73
471.32	8505.51
471.50	8542.96
471.68	8683.39
471.86	8685.73
472.04	8631.90
472.22	8833.18
472.40	8667.00
472.58	8741.90
472.77	8938.51
472.95	8985.32
473.13	9156.18
473.31	9018.08
473.49	8889.35
473.67	8861.27
473.85	8985.32
474.03	9202.99
474.21	9242.78
474.39	9256.82
474.57	9486.19
474.75	9516.62
474.93	9554.07
475.12	9535.34
475.30	9551.73
475.48	9643.01
475.66	9600.88
475.84	9696.84
476.02	9755.35
476.20	9781.10
476.38	9933.23
476.56	10012.81
476.74	10094.73
476.92	10176.65
477.10	10277.29
477.28	10307.72
477.46	10132.18
477.64	10312.40
477.82	10679.86
478.00	10824.98
478.18	10534.75
478.36	10626.03
478.54	10876.47
478.72	10998.18
478.90	10829.66
479.08	11176.06
479.26	11351.60
479.44	11117.54
479.62	11396.07
479.80	11304.79
479.98	11449.90
480.16	11784.60
480.34	11592.67
480.52	11808.00
480.70	11838.43
480.88	11712.04
481.06	11962.48
481.24	11894.60
481.41	12212.92
481.59	12215.26
481.77	12212.92
481.95	12334.62
482.13	12475.06
482.31	12437.61
482.49	12643.57
482.67	12954.87
482.85	12791.03
483.03	12833.16
483.21	13139.77
483.39	13303.60
483.57	13067.21
483.74	13329.35
483.92	13422.97
484.10	13568.09
484.28	13408.93
484.46	13738.94
484.64	14008.11
484.82	13884.06
485.00	14097.05
485.18	14288.97
485.35	14675.16
485.53	14272.59
485.71	14848.36
485.89	14876.44
486.07	14888.15
486.25	14855.38
486.43	14609.62
486.61	14965.39
486.78	15229.87
486.96	15173.69
487.14	15274.34
487.32	15550.52
487.50	15740.10
487.68	15489.67
487.85	15957.77
488.03	16093.52
488.21	16243.32
488.39	16318.22
488.57	16224.59
488.75	16676.32
488.92	16697.38
489.10	16711.42
489.28	16748.87
489.46	16952.50
489.64	17036.76
489.81	17376.14
489.99	17502.53
490.17	17675.73
490.35	17687.43
490.53	17575.08
490.70	17975.31
490.88	17912.12
491.06	18029.15
491.24	18052.55
491.41	18476.19
491.59	18321.71
491.77	18167.24
491.95	18445.76
492.13	18609.60
492.30	18689.18
492.48	18855.36
492.66	18902.17
492.84	19023.87
493.01	19070.68
493.19	19005.15
493.37	19644.12
493.54	19585.60
493.72	19733.06
493.90	19461.55
494.08	19761.14
494.25	20229.25
494.43	19854.76
494.61	20243.29
494.79	20269.04
494.96	20416.49
495.14	20634.16
495.32	20596.71
495.49	20615.44
495.67	21106.95
495.85	20987.58
496.02	21287.17
496.20	21420.58
496.38	21439.31
496.55	21427.60
496.73	21963.59
496.91	21701.45
497.09	21764.64
497.26	22024.44
497.44	21717.83
497.62	21942.52
497.79	22504.25
497.97	22382.54
498.14	22506.59
498.32	22773.41
498.50	22728.94
498.67	22923.21
498.85	22661.07
499.03	23178.33
499.20	23288.33
499.38	23351.52
499.56	23234.50
499.73	23377.27
499.91	23447.49
500.08	23585.58
500.26	23894.53
500.44	23793.89
500.61	23501.32
500.79	23356.21
500.97	23735.37
501.14	24180.07
501.32	24292.42
501.49	24446.90
501.67	24503.07
501.84	24533.50
502.02	24299.44
502.20	24671.59
502.37	24259.65
502.55	24835.42
502.72	24774.57
502.90	24425.83
503.07	24994.58
503.25	24931.39
503.43	24940.75
503.60	25350.34
503.78	25113.95
503.95	24896.28
504.13	25467.37
504.30	25364.39
504.48	25556.31
504.65	25809.09
504.83	25944.84
505.01	25895.69
505.18	26185.91
505.36	26120.38
505.53	25715.47
505.71	25996.33
505.88	26237.41
506.06	26134.42
506.23	26572.10
506.41	26548.70
506.58	26576.78
506.76	26333.37
506.93	26679.77
507.11	26824.88
507.28	26757.00
507.46	26686.79
507.63	26764.03
507.81	26979.36
507.98	26752.32
508.16	27019.14
508.33	27087.02
508.50	27379.59
508.68	27365.54
508.85	27440.44
509.03	27690.88
509.20	27573.85
509.38	28224.52
509.55	27791.52
509.73	27723.65
509.90	28006.85
510.08	27981.10
510.25	28219.84
510.42	28173.03
510.60	28418.78
510.77	28652.84
510.95	28893.91
511.12	28023.23
511.30	29053.07
511.47	28847.10
511.64	28987.53
511.82	28971.15
511.99	28634.11
512.17	29010.94
512.34	28940.72
512.51	29364.36
512.69	29022.64
512.86	29228.61
513.04	29659.27
513.21	29406.49
513.38	29748.21
513.56	29280.10
513.73	29940.13
513.90	29930.77
514.08	29970.56
514.25	29750.55
514.43	30300.58
514.60	29921.41
514.77	30082.91
514.95	30012.69
515.12	30560.37
515.29	30441.01
515.47	30415.26
515.64	30441.01
515.81	30316.96
515.99	30984.01
516.16	30836.56
516.33	30864.64
516.51	30962.95
516.68	30979.33
516.85	30895.07
517.03	31288.28
517.20	31168.91
517.37	31365.52
517.54	31487.23
517.72	31527.02
517.89	31307.01
518.06	31475.52
518.24	31351.48
518.41	31604.25
518.58	31693.19
518.75	31442.76
518.93	31709.58
519.10	32107.47
519.27	31583.19
519.45	32191.73
519.62	31992.78
519.79	32357.91
519.96	32229.18
520.14	32304.07
520.31	31700.22
520.48	32914.95
520.65	32666.86
520.83	32945.38
521.00	32676.22
521.17	32814.31
521.34	33055.39
521.52	32655.15
521.69	32854.10
521.86	33141.99
522.03	33104.54
522.20	33607.75
522.38	33659.24
522.55	33146.67
522.72	33495.41
522.89	33605.41
523.07	33795.00
523.24	33457.96
523.41	33621.80
523.58	33759.89
523.75	33874.57
523.92	33804.36
524.10	34054.79
524.27	33799.68
524.44	33968.19
524.61	34307.57
524.78	33923.72
524.96	34703.12
525.13	34443.32
525.30	34522.90
525.47	34660.99
525.64	34096.92
525.81	34677.38
525.98	34583.76
526.16	34602.48
526.33	34705.46
526.50	35239.11
526.67	34796.74
526.84	35175.91
527.01	34621.20
527.18	35086.97
527.36	35044.84
527.53	35115.06
527.70	35405.28
527.87	35784.45
528.04	35295.28
528.21	35267.19
528.38	35475.50
528.55	35309.32
528.72	35468.48
528.89	35601.89
529.07	35768.07
529.24	35695.51
529.41	35388.90
529.58	35978.72
529.75	35887.43
529.92	36023.19
530.09	36304.05
530.26	36140.21
530.43	36168.30
530.60	36046.59
530.77	36091.06
530.94	36100.42
531.11	36180.00
531.28	36006.80
531.46	36271.28
531.63	35985.74
531.80	36254.90
531.97	36474.91
532.14	36348.52
532.31	36325.11
532.48	36708.96
532.65	37216.86
532.82	36671.51
532.99	37067.06
533.16	36481.93
533.33	37202.82
533.50	37078.77
533.67	36849.39
533.84	36935.99
534.01	37247.29
534.18	37563.26
534.35	37469.64
534.52	37130.26
534.69	37581.98
534.86	37684.97
535.03	37287.07
535.20	37820.72
535.37	37607.73
535.54	37607.73
535.71	38026.68
535.88	38101.58
536.05	38089.88
536.22	37846.46
536.38	37778.59
536.55	37652.20
536.72	37589.00
536.89	37944.76
537.06	38167.12
537.23	38382.45
537.40	37996.26
537.57	38103.92
537.74	38150.73
537.91	38588.41
538.08	38506.49
538.25	38368.40
538.42	38904.38
538.59	38738.21
538.75	38455.00
538.92	38794.38
539.09	38981.62
539.26	38822.47
539.43	38789.70
539.60	38930.13
539.77	38909.07
539.94	38925.45
540.11	39042.48
540.28	38967.58
540.44	38911.41
540.61	38829.49
540.78	39192.27
540.95	38817.78
541.12	39012.05
541.29	39070.56
541.46	39112.69
541.62	39077.58
541.79	39468.45
541.96	39253.12
542.13	39117.37
542.30	39426.32
542.47	39543.35
542.63	39063.54
542.80	39796.13
542.97	39777.40
543.14	40369.56
543.31	39466.11
543.48	40231.47
543.64	40315.73
543.81	40109.76
543.98	40275.94
544.15	40297.00
544.32	40491.27
544.48	40676.17
544.65	40266.58
544.82	40367.22
544.99	40044.23
545.16	40418.71
545.32	40718.30
545.49	40727.66
545.66	40502.97
545.83	40762.77
546.00	40720.64
546.16	40861.07
546.33	40589.57
546.50	40734.68
546.67	41209.81
546.83	40154.23
547.00	40999.16
547.17	40582.55
547.34	40605.95
547.50	41284.71
547.67	41570.25
547.84	41139.60
548.00	41242.58
548.17	41401.74
548.34	41364.29
548.51	41170.02
548.67	41186.41
548.84	41298.75
549.01	41001.50
549.18	41153.64
549.34	41081.08
549.51	41879.21
549.68	41722.39
549.84	41434.50
550.01	41600.68
550.18	41151.30
550.34	41584.30
550.51	41811.33
550.68	41998.57
550.84	41532.81
551.01	41621.75
551.18	41979.85
551.34	41394.71
551.51	41860.48
551.68	41897.93
551.84	42059.43
552.01	41801.97
552.18	41909.63
552.34	41724.73
552.51	42244.33
552.68	41909.63
552.84	42113.26
553.01	42548.60
553.18	41839.42
553.34	41989.21
553.51	42127.30
553.67	42101.56
553.84	42476.04
554.01	42195.18
554.17	42368.38
554.34	42384.76
554.51	42628.18
554.67	42749.88
554.84	42574.34
555.00	42674.99
555.17	42536.90
555.33	43239.06
555.50	43002.66
555.67	42462.00
555.83	42595.41
556.00	42939.47
556.16	43107.99
556.33	43391.19
556.50	43012.02
556.66	42522.85
556.83	43124.37
556.99	43384.17
557.16	43105.65
557.32	43192.25
557.49	43098.62
557.65	42897.34
557.82	43409.92
557.98	43358.42
558.15	43311.61
558.32	43255.44
558.48	43203.95
558.65	43290.55
558.81	43253.10
558.98	43370.13
559.14	42974.58
559.31	43269.48
559.47	43182.88
559.64	43615.88
559.80	43517.58
559.97	43587.80
560.13	43337.36
560.30	43210.97
560.46	44121.44
560.63	43545.67
560.79	43777.38
560.96	44210.38
561.12	43903.77
561.29	43540.99
561.45	43510.56
561.61	43936.54
561.78	43180.54
561.94	43971.64
562.11	43302.25
562.27	43370.13
562.44	43737.59
562.60	43983.35
562.77	44034.84
562.93	43927.17
563.10	43910.79
563.26	43807.81
563.42	44598.91
563.59	43730.57
563.75	44210.38
563.92	44076.97
564.08	43910.79
564.24	43906.11
564.41	43964.62
564.57	43910.79
564.74	43971.64
564.90	44151.87
565.07	43812.49
565.23	44032.50
565.39	43936.54
565.56	44315.70
565.72	44023.14
565.88	43917.81
566.05	43807.81
566.21	44182.29
566.38	44088.67
566.54	44254.85
566.70	44123.78
566.87	44509.97
567.03	43793.76
567.19	44399.96
567.36	44435.07
567.52	44179.95
567.68	44294.64
567.85	44638.70
568.01	44399.96
568.17	44289.96
568.34	44762.75
568.50	44765.09
568.66	44973.39
568.83	44619.97
568.99	44561.46
569.15	44669.12
569.32	44301.66
569.48	44315.70
569.64	44938.29
569.81	44687.85
569.97	44847.00
570.13	45034.25
570.30	44435.07
570.46	44786.15
570.62	44865.73
570.78	44678.49
570.95	44388.26
571.11	45017.86
571.27	44765.09
571.43	44147.18
571.60	44704.23
571.76	44664.44
571.92	44718.28
572.09	44252.51
572.25	44729.98
572.41	44746.36
572.57	44535.71
572.74	45113.83
572.90	44769.77
573.06	44945.31
573.22	44481.88
573.38	45102.12
573.55	45055.31
573.71	44861.05
573.87	45067.02
574.03	44849.35
574.20	45256.60
574.36	44844.66
574.52	45036.59
574.68	44624.65
574.84	45017.86
575.01	45191.06
575.17	45476.61
575.33	45443.84
575.49	44921.90
575.65	45378.31
575.82	45010.84
575.98	45024.89
576.14	45357.24
576.30	44996.80
576.46	44896.16
576.62	45331.50
576.79	44945.31
576.95	45106.80
577.11	45132.55
577.27	45200.43
577.43	45001.48
577.59	45172.34
577.75	45034.25
577.92	45013.18
578.08	45024.89
578.24	45113.83
578.40	46045.36
578.56	45022.54
578.72	45139.57
578.88	45357.24
579.04	45186.38
579.21	45076.38
579.37	45031.91
579.53	45064.67
579.69	45209.79
579.85	45223.83
580.01	45139.57
580.17	44921.90
580.33	45544.48
580.49	44954.67
580.65	45368.94
580.82	45212.13
580.98	45151.27
581.14	44641.04
581.30	45303.41
581.46	45312.77
581.62	45638.11
581.78	45226.17
581.94	45411.07
582.10	45214.47
582.26	45102.12
582.42	45413.41
582.58	45303.41
582.74	45050.63
582.90	45326.81
583.06	45509.38
583.22	45036.59
583.38	45745.77
583.54	45687.26
583.70	45450.86
583.86	45193.40
584.02	45155.96
584.18	45675.55
584.34	45804.28
584.50	45603.00
584.66	45748.11
584.82	45703.64
584.98	45764.49
585.14	45315.11
585.30	45523.42
585.46	45570.23
585.62	45090.42
585.78	45738.75
585.94	44875.09
586.10	44999.14
586.26	45656.83
586.42	45338.52
586.58	45694.28
586.74	45373.63
586.90	45390.01
587.06	45240.21
587.22	45446.18
587.38	45001.48
587.54	45633.42
587.70	45750.45
587.86	45916.63
588.02	45464.91
588.18	45441.50
588.34	45139.57
588.49	45495.33
588.65	45467.25
588.81	45584.27
588.97	45633.42
589.13	45041.27
589.29	45614.70
589.45	45553.85
589.61	45713.00
589.77	45820.67
589.93	45621.72
590.08	45713.00
