SpectraSuite Data File
++++++++++++++++++++++++++++++++++++
Date: Fri Oct 25 10:48:28 EDT 2013
User: price-jones
Dark Spectrum Present: No
Reference Spectrum Present: No
Number of Sampled Component Spectra: 1
Spectrometers: USB2+H05261
Integration Time (usec): 100000 (USB2+H05261)
Spectra Averaged: 1 (USB2+H05261)
Boxcar Smoothing: 0 (USB2+H05261)
Correct for Electrical Dark: No (USB2+H05261)
Strobe/Lamp Enabled: No (USB2+H05261)
Correct for Detector Non-linearity: No (USB2+H05261)
Correct for Stray Light: No (USB2+H05261)
Number of Pixels in Processed Spectrum: 2048
>>>>>Begin Processed Spectral Data<<<<<
365.73	166.18
365.92	166.18
366.12	166.18
366.32	86.60
366.52	16.38
366.72	91.28
366.91	35.11
367.11	79.58
367.31	0.00
367.51	30.43
367.70	72.56
367.90	49.15
368.10	110.01
368.30	51.49
368.49	74.90
368.69	72.56
368.89	88.94
369.09	145.11
369.28	86.60
369.48	56.17
369.68	91.28
369.87	86.60
370.07	63.19
370.27	121.71
370.47	264.48
370.66	440.02
370.86	493.85
371.06	528.96
371.25	524.28
371.45	444.70
371.65	519.60
371.84	505.56
372.04	440.02
372.24	531.30
372.44	383.85
372.63	550.03
372.83	561.73
373.03	571.09
373.22	507.90
373.42	564.07
373.62	557.05
373.81	568.75
374.01	655.35
374.21	603.86
374.40	603.86
374.60	620.24
374.79	559.39
374.99	620.24
375.19	535.98
375.38	657.69
375.58	629.60
375.78	624.92
375.97	573.43
376.17	627.26
376.37	638.97
376.56	725.57
376.76	601.52
376.95	667.05
377.15	528.96
377.35	681.10
377.54	655.35
377.74	676.41
377.93	599.18
378.13	711.52
378.33	685.78
378.52	613.22
378.72	610.88
378.91	662.37
379.11	734.93
379.31	601.52
379.50	645.99
379.70	716.20
379.89	737.27
380.09	676.41
380.28	676.41
380.48	704.50
380.68	683.44
380.87	615.56
381.07	730.25
381.26	763.01
381.46	669.39
381.65	739.61
381.85	711.52
382.04	734.93
382.24	697.48
382.43	770.04
382.63	734.93
382.83	711.52
383.02	819.19
383.22	802.80
383.41	732.59
383.61	786.42
383.80	711.52
384.00	819.19
384.19	765.36
384.39	734.93
384.58	814.51
384.78	889.40
384.97	856.64
385.17	849.61
385.36	823.87
385.56	793.44
385.75	912.81
385.95	779.40
386.14	793.44
386.34	856.64
386.53	786.42
386.72	791.10
386.92	851.96
387.11	889.40
387.31	903.45
387.50	917.49
387.70	866.00
387.89	936.21
388.09	945.58
388.28	898.77
388.48	837.91
388.67	926.85
388.86	924.51
389.06	901.11
389.25	994.73
389.45	964.30
389.64	968.98
389.84	1022.81
390.03	985.37
390.22	1032.18
390.42	1046.22
390.61	1057.92
390.81	1029.84
391.00	992.39
391.19	1153.88
391.39	1116.44
391.58	1109.41
391.78	1055.58
391.97	1053.24
392.16	1057.92
392.36	1060.26
392.55	1060.26
392.75	1008.77
392.94	1029.84
393.13	1008.77
393.33	877.70
393.52	1088.35
393.71	1151.54
393.91	1097.71
394.10	1144.52
394.29	1130.48
394.49	1160.91
394.68	1144.52
394.88	1188.99
395.07	1249.85
395.26	1303.68
395.46	1212.40
395.65	1289.64
395.84	1249.85
396.04	1233.46
396.23	1132.82
396.42	1266.23
396.62	1151.54
396.81	1200.69
397.00	1299.00
397.19	1291.98
397.39	1310.70
397.58	1383.26
397.77	1366.87
397.97	1409.00
398.16	1418.36
398.35	1369.21
398.55	1441.77
398.74	1458.15
398.93	1556.46
399.12	1493.26
399.32	1516.67
399.51	1544.75
399.70	1572.84
399.90	1572.84
400.09	1598.59
400.28	1607.95
400.47	1589.22
400.67	1629.01
400.86	1612.63
401.05	1722.63
401.24	1687.53
401.44	1671.14
401.63	1715.61
401.82	1764.76
402.01	1811.57
402.21	1638.38
402.40	1771.79
402.59	1675.82
402.78	1746.04
402.97	1790.51
403.17	1732.00
403.36	1778.81
403.55	1811.57
403.74	1783.49
403.93	1755.40
404.13	1858.39
404.32	1813.92
404.51	1874.77
404.70	1949.67
404.89	1792.85
405.09	1987.11
405.28	1926.26
405.47	1975.41
405.66	2026.90
405.85	1940.30
406.05	1987.11
406.24	1912.22
406.43	2001.16
406.62	2080.74
406.81	2078.40
407.00	2003.50
407.20	2017.54
407.39	2038.61
407.58	2076.06
407.77	2150.95
407.96	2097.12
408.15	2267.98
408.34	2106.48
408.54	2277.34
408.73	2195.42
408.92	2204.78
409.11	2211.81
409.30	2270.32
409.49	2284.36
409.68	2225.85
409.87	2237.55
410.07	2389.69
410.26	2380.32
410.45	2394.37
410.64	2424.80
410.83	2473.95
411.02	2459.90
411.21	2504.37
411.40	2516.08
411.59	2590.97
411.78	2649.49
411.98	2499.69
412.17	2555.86
412.36	2619.06
412.55	2593.31
412.74	2780.56
412.93	2717.36
413.12	2768.85
413.31	2834.39
413.50	2832.05
413.69	2801.62
413.88	2782.90
414.07	2815.66
414.26	2876.52
414.45	2930.35
414.64	2885.88
414.83	2906.95
415.02	3061.42
415.22	3066.10
415.41	3052.06
415.60	2958.44
415.79	3063.76
415.98	3112.91
416.17	3119.93
416.36	3131.64
416.55	3157.38
416.74	3239.30
416.93	3098.87
417.12	3276.75
417.31	3353.99
417.50	3283.77
417.69	3527.19
417.88	3442.93
418.07	3459.31
418.26	3379.73
418.45	3419.52
418.64	3482.72
418.83	3534.21
419.02	3487.40
419.21	3581.02
419.39	3541.23
419.58	3431.23
419.77	3534.21
419.96	3569.32
420.15	3508.46
420.34	3538.89
420.53	3714.43
420.72	3765.92
420.91	3852.52
421.10	3765.92
421.29	3791.67
421.48	3838.48
421.67	3861.88
421.86	3672.30
422.05	3775.28
422.24	3721.45
422.43	3801.03
422.61	3770.60
422.80	3882.95
422.99	3815.07
423.18	3927.42
423.37	3918.06
423.56	4016.36
423.75	3960.19
423.94	3941.46
424.13	3639.53
424.32	3765.92
424.50	3925.08
424.69	3875.93
424.88	4016.36
425.07	3868.91
425.26	3967.21
425.45	3756.56
425.64	3896.99
425.83	3838.48
426.01	4084.23
426.20	3995.29
426.39	4081.89
426.58	3969.55
426.77	3885.29
426.96	3978.91
427.15	3939.12
427.33	3974.23
427.52	3943.80
427.71	4039.76
427.90	3999.98
428.09	4135.73
428.28	4109.98
428.46	4182.54
428.65	4149.77
428.84	4231.69
429.03	4102.96
429.22	4058.49
429.40	4393.19
429.59	4053.81
429.78	3871.25
429.97	3864.22
430.16	4067.85
430.34	4077.21
430.53	4243.39
430.72	4182.54
430.91	4201.26
431.10	4156.79
431.28	4568.73
431.47	4678.73
431.66	4648.30
431.85	4346.37
432.03	4655.33
432.22	4648.30
432.41	4538.30
432.60	4643.62
432.79	4540.64
432.97	4720.86
433.16	4685.75
433.35	4601.49
433.54	4631.92
433.72	4660.01
433.91	4699.80
434.10	4669.37
434.28	4727.88
434.47	4788.74
434.66	4657.67
434.85	4880.02
435.03	4830.87
435.22	4849.59
435.41	5088.32
435.59	5004.07
435.78	4936.19
435.97	5142.16
436.16	5018.11
436.34	5060.24
436.53	5111.73
436.72	5177.26
436.90	5020.45
437.09	5121.09
437.28	5088.32
437.46	5090.67
437.65	5156.20
437.84	5240.46
438.02	5284.93
438.21	5247.48
438.40	4964.28
438.58	5259.18
438.77	5406.64
438.96	5420.68
439.14	5465.15
439.33	5526.00
439.52	5507.28
439.70	5561.11
439.89	5767.08
440.08	5617.29
440.26	5659.42
440.45	5638.35
440.63	5806.87
440.82	6036.24
441.01	5884.11
441.19	5980.07
441.38	6040.92
441.57	6026.88
441.75	6132.20
441.94	6108.80
442.12	6289.02
442.31	6340.51
442.50	6267.95
442.68	6225.82
442.87	6321.79
443.05	6080.71
443.24	6260.93
443.43	6347.53
443.61	6422.43
443.80	6595.63
443.98	6221.14
444.17	6176.67
444.35	6506.69
444.54	6478.60
444.73	6452.86
444.91	6286.68
445.10	6335.83
445.28	6448.18
445.47	6429.45
445.65	6497.33
445.84	6469.24
446.02	6483.28
446.21	6537.12
446.39	6429.45
446.58	6511.37
446.77	6792.23
446.95	6530.09
447.14	6670.53
447.32	6808.62
447.51	6785.21
447.69	6532.44
447.88	6677.55
448.06	6715.00
448.25	6642.44
448.43	6523.07
448.62	6635.42
448.80	6677.55
448.99	6691.59
449.17	6967.77
449.36	6670.53
449.54	6939.69
449.73	6958.41
449.91	7084.80
450.10	6902.24
450.28	7143.32
450.46	6965.43
450.65	7108.21
450.83	7133.95
451.02	7152.68
451.20	7279.07
451.39	7112.89
451.57	7129.27
451.76	7250.98
451.94	7176.08
452.13	7288.43
452.31	7213.53
452.49	7075.44
452.68	7129.27
452.86	6995.86
453.05	7112.89
453.23	7138.63
453.42	7304.81
453.60	7103.53
453.78	7328.22
453.97	7325.88
454.15	7595.04
454.34	7447.58
454.52	7662.91
454.70	7379.71
454.89	7522.48
455.07	7524.82
455.26	7417.16
455.44	7468.65
455.62	7492.05
455.81	7513.12
455.99	7625.47
456.17	7789.30
456.36	7882.92
456.54	7859.52
456.73	7953.14
456.91	7901.65
457.09	7983.57
457.28	8198.90
457.46	8025.70
457.64	7999.95
457.83	8105.28
458.01	7864.20
458.19	7978.89
458.38	8044.42
458.56	8091.23
458.74	7990.59
458.93	8292.52
459.11	8250.39
459.29	7918.03
459.48	8226.98
459.66	8067.83
459.84	8367.42
460.03	8397.84
460.21	8351.03
460.39	8299.54
460.57	8334.65
460.76	8491.46
460.94	8482.10
461.12	8500.83
461.31	8507.85
461.49	8702.11
461.67	8367.42
461.85	8730.20
462.04	8695.09
462.22	9226.39
462.40	8643.60
462.59	8713.81
462.77	8812.12
462.95	8781.69
463.13	8931.48
463.32	8821.48
463.50	8903.40
463.68	9034.47
463.86	8931.48
464.05	8720.84
464.23	8769.99
464.41	9078.94
464.59	8741.90
464.78	9207.67
464.96	9142.13
465.14	9025.11
465.32	9320.01
465.50	9202.99
465.69	9151.49
465.87	9254.48
466.05	8919.78
466.23	9184.26
466.41	9179.58
466.60	9329.38
466.78	9158.52
466.96	9081.28
467.14	9256.82
467.32	9320.01
467.51	9275.54
467.69	9312.99
467.87	9305.97
468.05	9563.43
468.23	9362.14
468.41	9210.01
468.60	9397.25
468.78	9568.11
468.96	9411.29
469.14	9577.47
469.32	9741.31
469.50	9324.69
469.69	9528.32
469.87	9685.14
470.05	9823.23
470.23	9678.12
470.41	9731.95
470.59	9958.98
470.77	9804.50
470.95	9942.60
471.14	10141.54
471.32	9654.71
471.50	10242.18
471.68	10083.03
471.86	10300.70
472.04	10274.95
472.22	10719.65
472.40	10050.26
472.58	10204.74
472.77	10310.06
472.95	10289.00
473.13	10663.48
473.31	10368.57
473.49	10284.31
473.67	10431.77
473.85	10614.33
474.03	10771.15
474.21	10558.16
474.39	11044.99
474.57	10920.94
474.75	11016.90
474.93	11101.16
475.12	10906.90
475.30	11272.02
475.48	10953.71
475.66	11185.42
475.84	11204.14
476.02	11330.53
476.20	11288.40
476.38	11449.90
476.56	11777.58
476.74	11571.61
476.92	11548.20
477.10	11793.96
477.28	11955.46
477.46	11960.14
477.64	12182.49
477.82	12147.38
478.00	12379.09
478.18	12400.16
478.36	12297.17
478.54	12681.02
478.72	12620.17
478.90	12996.99
479.08	12814.43
479.26	13191.26
479.44	13123.38
479.62	12985.29
479.80	13235.73
479.98	13376.16
480.16	13607.87
480.34	13671.07
480.52	13633.62
480.70	13497.87
480.88	13664.05
481.06	13823.20
481.24	13916.83
481.41	14054.92
481.59	14125.13
481.77	14480.89
481.95	14303.01
482.13	14410.68
482.31	14675.16
482.49	14686.86
482.67	14623.67
482.85	14846.02
483.03	15059.01
483.21	15234.55
483.39	15372.64
483.57	15360.94
483.74	15534.14
483.92	15534.14
484.10	15176.03
484.28	15775.21
484.46	16114.59
484.64	16189.49
484.82	16074.80
485.00	15824.36
485.18	16077.14
485.35	16365.03
485.53	16262.04
485.71	16046.71
485.89	16650.57
486.07	16498.44
486.25	16732.49
486.43	16755.90
486.61	17025.06
486.78	17338.69
486.96	17205.28
487.14	17727.22
487.32	17542.32
487.50	18022.12
487.68	17970.63
487.85	18228.09
488.03	18398.95
488.21	18796.84
488.39	18345.12
488.57	18548.75
488.75	18506.62
488.92	18916.21
489.10	19171.33
489.28	19410.06
489.46	19307.08
489.64	19225.16
489.81	19889.87
489.99	19913.28
490.17	19927.32
490.35	20144.99
490.53	20280.74
490.70	20421.17
490.88	20372.02
491.06	20524.16
491.24	20418.83
491.41	20383.73
491.59	20987.58
491.77	20650.55
491.95	21060.14
492.13	21366.75
492.30	21235.68
492.48	21682.72
492.66	21876.99
492.84	21530.59
493.01	21778.68
493.19	21865.28
493.37	21994.01
493.54	22405.95
493.72	22459.78
493.90	22434.03
494.08	22689.15
494.25	22909.16
494.43	22843.63
494.61	23065.98
494.79	22855.33
494.96	23243.86
495.14	23133.86
495.32	23438.12
495.49	23807.93
495.67	23564.51
495.85	23971.77
496.02	24444.56
496.20	24215.18
496.38	24301.78
496.55	24250.29
496.73	24648.18
496.91	24940.75
497.09	24776.91
497.26	25064.80
497.44	25097.56
497.62	25036.71
497.79	25294.17
497.97	25345.66
498.14	25439.28
498.32	25738.87
498.50	25671.00
498.67	25949.52
498.85	25799.73
499.03	26195.28
499.20	26101.65
499.38	26654.02
499.56	25937.82
499.73	26534.65
499.91	26438.69
500.08	26520.61
500.26	25972.92
500.44	26499.55
500.61	26625.93
500.79	26567.42
500.97	26948.93
501.14	27358.52
501.32	27082.34
501.49	27206.39
501.67	27321.07
501.84	26946.59
502.02	27339.80
502.20	27536.40
502.37	27498.95
502.55	27749.39
502.72	27971.74
502.90	27709.60
503.07	27857.06
503.25	28166.01
503.43	27901.53
503.60	27878.12
503.78	28041.96
503.95	28500.70
504.13	28599.01
504.30	28819.02
504.48	28648.16
504.65	28552.20
504.83	29024.98
505.01	29237.97
505.18	29067.11
505.36	29703.74
505.53	29153.71
505.71	29289.46
505.88	29860.55
506.06	29514.16
506.23	29511.81
506.41	29397.13
506.58	29837.15
506.76	29762.25
506.93	29748.21
507.11	29956.52
507.28	29916.73
507.46	29788.00
507.63	30178.87
507.81	30108.65
507.98	29752.89
508.16	29993.97
508.33	30848.26
508.50	30204.61
508.68	30892.73
508.85	30923.16
509.03	30845.92
509.20	31002.74
509.38	31215.72
509.55	31108.06
509.73	30955.93
509.90	31056.57
510.08	31136.15
510.25	31185.30
510.42	31548.08
510.60	31524.68
510.77	31658.09
510.95	32037.25
511.12	31901.50
511.30	31964.70
511.47	32360.25
511.64	32311.10
511.82	32332.16
511.99	32198.75
512.17	32744.09
512.34	31999.80
512.51	32650.47
512.69	32823.67
512.86	32844.74
513.04	32390.67
513.21	32802.61
513.38	32823.67
513.56	32807.29
513.73	32355.57
513.90	33214.54
514.08	32938.36
514.25	33319.87
514.43	33401.79
514.60	32854.10
514.77	33216.88
514.95	33610.09
515.12	33376.04
515.29	33582.01
515.47	33876.91
515.64	34052.45
515.81	33411.15
515.99	33949.47
516.16	33617.11
516.33	33703.71
516.51	33453.28
516.68	33523.49
516.85	33247.31
517.03	33827.76
517.20	33879.25
517.37	34155.44
517.54	34637.59
517.72	34347.36
517.89	34190.55
518.06	34279.49
518.24	34375.45
518.41	34391.83
518.58	34333.32
518.75	34356.72
518.93	34965.26
519.10	34899.73
519.27	34817.81
519.45	35016.75
519.62	35304.64
519.79	35136.12
519.96	35583.16
520.14	35491.88
520.31	35168.89
520.48	35693.17
520.65	35849.99
520.83	35667.42
521.00	35779.77
521.17	35929.56
521.34	36112.13
521.52	36453.84
521.69	36301.71
521.86	36404.69
522.03	36348.52
522.20	36397.67
522.38	36638.75
522.55	36631.72
522.72	36346.18
522.89	36474.91
523.07	36620.02
523.24	36662.15
523.41	36751.09
523.58	36561.51
523.75	37104.51
523.92	37420.48
524.10	37462.61
524.27	37380.70
524.44	37219.20
524.61	36985.15
524.78	37670.92
524.96	37364.31
525.13	37357.29
525.30	37809.01
525.47	38242.01
525.64	37771.57
525.81	37481.34
525.98	37633.47
526.16	37687.31
526.33	37368.99
526.50	37834.76
526.67	37378.36
526.84	37989.24
527.01	37509.43
527.18	37804.33
527.36	37879.23
527.53	37886.25
527.70	38471.39
527.87	38873.96
528.04	38366.06
528.21	38504.15
528.38	38536.92
528.55	38550.96
528.72	38487.77
528.89	39047.16
529.07	39349.09
529.24	38277.12
529.41	39110.35
529.58	38583.73
529.75	38450.32
529.92	39023.75
530.09	39220.36
530.26	39044.82
530.43	39236.74
530.60	38983.96
530.77	39150.14
530.94	39449.73
531.11	39440.37
531.28	39459.09
531.46	39730.59
531.63	39618.25
531.80	39777.40
531.97	40163.59
532.14	39990.39
532.31	39580.80
532.48	39435.69
532.65	39587.82
532.82	39709.53
532.99	40299.34
533.16	39707.19
533.33	40217.43
533.50	40102.74
533.67	40123.80
533.84	40231.47
534.01	39878.05
534.18	40250.19
534.35	40329.77
534.52	40540.42
534.69	40584.89
534.86	40514.67
535.03	40161.25
535.20	40624.68
535.37	40961.72
535.54	41062.36
535.71	40495.95
535.88	40910.22
536.05	41067.04
536.22	40666.81
536.38	40865.75
536.55	41219.17
536.72	40999.16
536.89	40425.73
537.06	40809.58
537.23	41153.64
537.40	40774.47
537.57	41141.94
537.74	41397.06
537.91	41453.23
538.08	41670.90
538.25	41242.58
538.42	41010.87
538.59	41303.43
538.75	41319.82
538.92	41216.83
539.09	41471.95
539.26	41404.08
539.43	41635.79
539.60	41979.85
539.77	41221.52
539.94	42031.34
540.11	41375.99
540.28	41226.20
540.44	41596.00
540.61	41361.95
540.78	41553.87
540.95	41724.73
541.12	41656.85
541.29	41928.36
541.46	41996.23
541.62	41659.20
541.79	42124.96
541.96	41757.50
542.13	42061.77
542.30	42410.51
542.47	42408.17
542.63	42103.90
542.80	42366.04
542.97	42775.63
543.14	42749.88
543.31	42916.06
543.48	42471.36
543.64	43086.92
543.81	42983.94
543.98	42796.70
544.15	43122.03
544.32	43054.15
544.48	42997.98
544.65	43304.59
544.82	43299.91
544.99	42834.14
545.16	43147.78
545.32	42768.61
545.49	43016.71
545.66	43398.21
545.83	43234.38
546.00	43189.91
546.16	43227.35
546.33	43150.12
546.50	42850.53
546.67	43501.20
546.83	43182.88
547.00	43351.40
547.17	43650.99
547.34	43208.63
547.50	43316.29
547.67	43377.15
547.84	43894.41
548.00	43908.45
548.17	43887.39
548.34	43796.10
548.51	44170.59
548.67	44168.25
548.84	44034.84
549.01	43330.34
549.18	43875.68
549.34	44006.75
549.51	44058.24
549.68	44046.54
549.84	44144.84
550.01	44264.21
550.18	44243.15
550.34	44083.99
550.51	44006.75
550.68	44069.95
550.84	43665.03
551.01	44254.85
551.18	44861.05
551.34	44158.89
551.51	43934.20
551.68	44414.01
551.84	44390.60
552.01	44086.33
552.18	44088.67
552.34	43924.83
552.51	44444.43
552.68	44690.19
552.84	44655.08
553.01	44835.30
553.18	44390.60
553.34	44687.85
553.51	44676.15
553.67	44680.83
553.84	44851.69
554.01	44949.99
554.17	45399.37
554.34	45099.78
554.51	45177.02
554.67	45354.90
554.84	44652.74
555.00	44907.86
555.17	44720.62
555.33	44882.11
555.50	45207.45
555.67	45031.91
555.83	45123.19
556.00	45179.36
556.16	45584.27
556.33	45364.26
556.50	44573.16
556.66	45102.12
556.83	44795.51
556.99	45158.30
557.16	45427.46
557.32	45488.31
557.49	45497.67
557.65	45125.53
557.82	44924.24
557.98	45329.16
558.15	44917.22
558.32	45450.86
558.48	45144.25
558.65	45151.27
558.81	45221.49
558.98	45488.31
559.14	45209.79
559.31	45404.05
559.47	45717.68
559.64	45605.34
559.80	45799.60
559.97	45729.39
560.13	45263.62
560.30	45425.12
560.46	45713.00
560.63	45565.55
560.79	45329.16
560.96	46136.64
561.12	45308.09
561.29	45799.60
561.45	45347.88
561.61	45750.45
561.78	45776.20
561.94	45354.90
562.11	45567.89
562.27	45853.44
562.44	45823.01
562.60	46143.66
562.77	45670.87
562.93	45696.62
563.10	45928.33
563.26	45464.91
563.42	46117.92
563.59	45979.82
563.75	45654.49
563.92	46003.23
564.08	46239.62
564.24	46415.16
564.41	46143.66
564.57	45797.26
564.74	45979.82
564.90	46265.37
565.07	45956.42
565.23	45930.67
565.39	45958.76
565.56	46160.05
565.72	45713.00
565.88	45897.91
566.05	46057.06
566.21	46036.00
566.38	45916.63
566.54	45954.08
566.70	46560.28
566.87	46436.23
567.03	46106.21
567.19	46422.19
567.36	46272.39
567.52	46038.34
567.68	46054.72
567.85	45949.40
568.01	46366.01
568.17	46010.25
568.34	46211.54
568.50	46068.76
568.66	45771.52
568.83	45785.56
568.99	45790.24
569.15	46220.90
569.32	46071.10
569.48	45471.93
569.64	46408.14
569.81	46618.79
569.97	46373.03
570.13	45918.97
570.30	45874.50
570.46	45851.09
570.62	45720.02
570.78	46096.85
570.95	45830.03
571.11	46431.55
571.27	46667.94
571.43	46127.28
571.60	45909.61
571.76	46389.42
571.92	46408.14
572.09	46454.95
572.25	46302.82
572.41	46302.82
572.57	46326.22
572.74	46752.20
572.90	46548.57
573.06	46031.32
573.22	46169.41
573.38	46466.66
573.55	46298.14
573.71	46312.18
573.87	46546.23
574.03	46349.63
574.20	46349.63
574.36	46216.22
574.52	46705.39
574.68	46653.90
574.84	46424.53
575.01	46770.93
575.17	46291.12
575.33	45691.94
575.49	46239.62
575.65	46843.48
575.82	46686.67
575.98	46431.55
576.14	46382.40
576.30	46618.79
576.46	46740.50
576.62	45996.21
576.79	46590.70
576.95	45876.84
577.11	46146.00
577.27	46541.55
577.43	46700.71
577.59	46564.96
577.75	46508.79
577.92	46220.90
578.08	45841.73
578.24	45968.12
578.40	46700.71
578.56	46199.83
578.72	46075.79
578.88	46522.83
579.04	46183.45
579.21	46349.63
579.37	46534.53
579.53	46326.22
579.69	46150.68
579.85	46347.29
580.01	46752.20
580.17	46373.03
580.33	46649.22
580.49	46815.40
580.65	46405.80
580.82	46246.65
580.98	46330.90
581.14	46763.90
581.30	46555.60
581.46	46607.09
581.62	46808.37
581.78	46518.15
581.94	46784.97
582.10	46602.41
582.26	46698.37
582.42	46834.12
582.58	46358.99
582.74	46539.21
582.90	46672.62
583.06	46499.42
583.22	46735.82
583.38	46869.23
583.54	46422.19
583.70	46618.79
583.86	46354.31
584.02	46148.34
584.18	46691.35
584.34	46944.12
584.50	46866.89
584.66	46298.14
584.82	46356.65
584.98	46674.96
585.14	46328.56
585.30	46330.90
585.46	46686.67
585.62	46351.97
585.78	46520.49
585.94	46452.61
586.10	46623.47
586.26	46424.53
586.42	46508.79
586.58	46883.27
586.74	46581.34
586.90	46253.67
587.06	46518.15
587.22	46302.82
587.38	46291.12
587.54	46534.53
587.70	46904.34
587.86	46618.79
588.02	46555.60
588.18	46761.56
588.34	46515.81
588.49	46216.22
588.65	46227.92
588.81	46021.95
588.97	45823.01
589.13	46174.09
589.29	46457.29
589.45	46586.02
589.61	46550.91
589.77	46581.34
589.93	46920.72
