SpectraSuite Data File
++++++++++++++++++++++++++++++++++++
Date: Fri Oct 25 10:44:24 EDT 2013
User: price-jones
Dark Spectrum Present: No
Reference Spectrum Present: No
Number of Sampled Component Spectra: 1
Spectrometers: USB2+H05261
Integration Time (usec): 100000 (USB2+H05261)
Spectra Averaged: 1 (USB2+H05261)
Boxcar Smoothing: 0 (USB2+H05261)
Correct for Electrical Dark: No (USB2+H05261)
Strobe/Lamp Enabled: No (USB2+H05261)
Correct for Detector Non-linearity: No (USB2+H05261)
Correct for Stray Light: No (USB2+H05261)
Number of Pixels in Processed Spectrum: 2048
>>>>>Begin Processed Spectral Data<<<<<
365.73	198.95
365.92	198.95
366.12	198.95
366.32	117.03
366.52	9.36
366.72	51.49
366.91	42.13
367.11	37.45
367.31	53.83
367.51	58.51
367.70	46.81
367.90	81.92
368.10	0.00
368.30	18.72
368.49	84.26
368.69	14.04
368.89	49.15
369.09	30.43
369.28	102.98
369.48	65.54
369.68	39.79
369.87	72.56
370.07	65.54
370.27	110.01
370.47	238.73
370.66	369.80
370.86	449.38
371.06	519.60
371.25	545.34
371.45	451.72
371.65	449.38
371.84	486.83
372.04	430.66
372.24	543.00
372.44	559.39
372.63	482.15
372.83	517.26
373.03	517.26
373.22	528.96
373.42	585.13
373.62	564.07
373.81	606.20
374.01	554.71
374.21	573.43
374.40	631.94
374.60	601.52
374.79	585.13
374.99	585.13
375.19	676.41
375.38	582.79
375.58	678.76
375.78	631.94
375.97	566.41
376.17	737.27
376.37	655.35
376.56	557.05
376.76	608.54
376.95	599.18
377.15	648.33
377.35	596.84
377.54	585.13
377.74	685.78
377.93	702.16
378.13	648.33
378.33	667.05
378.52	603.86
378.72	688.12
378.91	671.73
379.11	655.35
379.31	660.03
379.50	683.44
379.70	720.88
379.89	718.54
380.09	732.59
380.28	730.25
380.48	760.67
380.68	671.73
380.87	704.50
381.07	763.01
381.26	770.04
381.46	737.27
381.65	699.82
381.85	746.63
382.04	690.46
382.24	798.12
382.43	704.50
382.63	727.91
382.83	774.72
383.02	779.40
383.22	746.63
383.41	641.31
383.61	770.04
383.80	753.65
384.00	779.40
384.19	870.68
384.39	802.80
384.58	760.67
384.78	802.80
384.97	781.74
385.17	894.08
385.36	819.19
385.56	746.63
385.75	835.57
385.95	777.06
386.14	875.36
386.34	856.64
386.53	844.93
386.72	847.27
386.92	835.57
387.11	898.77
387.31	903.45
387.50	861.32
387.70	898.77
387.89	940.90
388.09	851.96
388.28	849.61
388.48	943.24
388.67	1022.81
388.86	1015.79
389.06	954.94
389.25	983.02
389.45	1004.09
389.64	1090.69
389.84	1034.52
390.03	978.34
390.22	1057.92
390.42	1004.09
390.61	1015.79
390.81	1083.67
391.00	1118.78
391.19	1116.44
391.39	1027.50
391.58	1071.97
391.78	1095.37
391.97	947.92
392.16	1071.97
392.36	1043.88
392.55	1029.84
392.75	1004.09
392.94	1022.81
393.13	1128.14
393.33	1020.47
393.52	1032.18
393.71	1137.50
393.91	1043.88
394.10	1130.48
394.29	1118.78
394.49	1165.59
394.68	1160.91
394.88	1252.19
395.07	1322.40
395.26	1261.55
395.46	1275.59
395.65	1284.95
395.84	1268.57
396.04	1247.51
396.23	1158.57
396.42	1240.48
396.62	1198.35
396.81	1291.98
397.00	1294.32
397.19	1348.15
397.39	1348.15
397.58	1373.89
397.77	1362.19
397.97	1399.64
398.16	1446.45
398.35	1650.08
398.55	1535.39
398.74	1605.61
398.93	1549.43
399.12	1577.52
399.32	1519.01
399.51	1600.93
399.70	1652.42
399.90	1654.76
400.09	1612.63
400.28	1636.03
400.47	1570.50
400.67	1746.04
400.86	1734.34
401.05	1643.06
401.24	1760.08
401.44	1668.80
401.63	1865.41
401.82	1748.38
402.01	1790.51
402.21	1816.26
402.40	1809.23
402.59	1813.92
402.78	1820.94
402.97	1813.92
403.17	1905.20
403.36	1872.43
403.55	1935.62
403.74	1949.67
403.93	1973.07
404.13	1949.67
404.32	1877.11
404.51	1940.30
404.70	1940.30
404.89	2040.95
405.09	2129.89
405.28	2090.10
405.47	2078.40
405.66	2183.72
405.85	2101.80
406.05	1989.46
406.24	2047.97
406.43	2090.10
406.62	2141.59
406.81	2139.25
407.00	2139.25
407.20	2120.53
407.39	2101.80
407.58	2169.68
407.77	2349.90
407.96	2253.94
408.15	2263.30
408.34	2321.81
408.54	2272.66
408.73	2354.58
408.92	2272.66
409.11	2387.35
409.30	2427.14
409.49	2389.69
409.68	2256.28
409.87	2314.79
410.07	2420.11
410.26	2370.96
410.45	2436.50
410.64	2518.42
410.83	2579.27
411.02	2605.02
411.21	2719.70
411.40	2722.04
411.59	2719.70
411.78	2752.47
411.98	2668.21
412.17	2675.23
412.36	2703.32
412.55	2899.92
412.74	2780.56
412.93	2946.73
413.12	2794.60
413.31	2918.65
413.50	2949.08
413.69	2972.48
413.88	3117.59
414.07	2939.71
414.26	2935.03
414.45	3049.72
414.64	3103.55
414.83	3124.62
415.02	3162.06
415.22	3234.62
415.41	3183.13
415.60	3199.51
415.79	3293.13
415.98	3400.80
416.17	3428.88
416.36	3248.66
416.55	3379.73
416.74	3431.23
416.93	3325.90
417.12	3566.98
417.31	3412.50
417.50	3466.33
417.69	3485.06
417.88	3606.77
418.07	3440.59
418.26	3428.88
418.45	3520.17
418.64	3658.26
418.83	3604.42
419.02	3623.15
419.21	3726.13
419.39	3730.81
419.58	3545.91
419.77	3712.09
419.96	3709.75
420.15	3857.20
420.34	3747.20
420.53	3882.95
420.72	3812.73
420.91	3894.65
421.10	3880.61
421.29	4023.38
421.48	3904.01
421.67	4088.92
421.86	4046.79
422.05	3967.21
422.24	3798.69
422.43	3878.27
422.61	3925.08
422.80	4023.38
422.99	4016.36
423.18	4138.07
423.37	4058.49
423.56	4056.15
423.75	4149.77
423.94	3852.52
424.13	3918.06
424.32	3866.56
424.50	4175.52
424.69	4084.23
424.88	4046.79
425.07	4030.40
425.26	4035.08
425.45	4058.49
425.64	4187.22
425.83	4014.02
426.01	4203.60
426.20	4119.34
426.39	4121.68
426.58	4053.81
426.77	4100.62
426.96	4053.81
427.15	4100.62
427.33	4112.32
427.52	4255.09
427.71	4292.54
427.90	4362.76
428.09	4231.69
428.28	4306.59
428.46	4348.72
428.65	4369.78
428.84	4409.57
429.03	4344.03
429.22	4166.15
429.40	4353.40
429.59	4231.69
429.78	3978.91
429.97	4028.06
430.16	4100.62
430.34	4201.26
430.53	4294.88
430.72	4255.09
430.91	4475.10
431.10	4507.87
431.28	4730.22
431.47	4835.55
431.66	4753.63
431.85	4730.22
432.03	4730.22
432.22	4734.90
432.41	4833.21
432.60	4849.59
432.79	4877.68
432.97	4961.94
433.16	4919.81
433.35	4896.40
433.54	4844.91
433.72	4821.50
433.91	4805.12
434.10	4933.85
434.28	4840.23
434.47	4975.98
434.66	5121.09
434.85	4940.87
435.03	5088.32
435.22	5137.48
435.41	5088.32
435.59	5139.82
435.78	5303.65
435.97	5296.63
436.16	5256.84
436.34	5364.51
436.53	5305.99
436.72	5408.98
436.90	5408.98
437.09	5444.09
437.28	5191.31
437.46	5149.18
437.65	5289.61
437.84	5420.68
438.02	5369.19
438.21	5390.25
438.40	5446.43
438.58	5448.77
438.77	5549.41
438.96	5472.17
439.14	5724.95
439.33	5797.51
439.52	5701.54
439.70	5776.44
439.89	5813.89
440.08	5811.55
440.26	5949.64
440.45	5928.58
440.63	6017.52
440.82	6108.80
441.01	6094.76
441.19	6141.57
441.38	6099.44
441.57	6331.15
441.75	6305.40
441.94	6548.82
442.12	6560.52
442.31	6555.84
442.50	6471.58
442.68	6415.41
442.87	6359.24
443.05	6466.90
443.24	6626.06
443.43	6651.80
443.61	6476.26
443.80	6946.71
443.98	6581.59
444.17	6356.90
444.35	6834.36
444.54	6768.83
444.73	6651.80
444.91	6775.85
445.10	6722.02
445.28	6548.82
445.47	6745.42
445.65	6595.63
445.84	6703.29
446.02	6792.23
446.21	6885.86
446.39	6796.92
446.58	6785.21
446.77	6799.26
446.95	6649.46
447.14	6942.03
447.32	6916.28
447.51	6787.55
447.69	6836.70
447.88	6979.48
448.06	6986.50
448.25	7049.69
448.43	7185.44
448.62	6740.74
448.80	6946.71
448.99	7035.65
449.17	7082.46
449.36	7075.44
449.54	7250.98
449.73	7283.75
449.91	7117.57
450.10	7218.21
450.28	7400.77
450.46	7508.44
450.65	7349.28
450.83	7414.82
451.02	7492.05
451.20	7691.00
451.39	7510.78
451.57	7456.95
451.76	7417.16
451.94	7606.74
452.13	7489.71
452.31	7344.60
452.49	7377.37
452.68	7552.91
452.86	7541.21
453.05	7581.00
453.23	7679.30
453.42	7529.50
453.60	7510.78
453.78	7719.09
453.97	7714.41
454.15	7590.36
454.34	7653.55
454.52	7756.54
454.70	7775.26
454.89	7737.81
455.07	7847.82
455.26	7861.86
455.44	7967.18
455.62	8063.15
455.81	7873.56
455.99	8039.74
456.17	8004.63
456.36	8042.08
456.54	8100.59
456.73	8273.79
456.91	8454.02
457.09	8329.97
457.28	8531.25
457.46	8184.85
457.64	8484.44
457.83	8388.48
458.01	8276.13
458.19	8634.24
458.38	8601.47
458.56	8596.79
458.74	8369.76
458.93	8512.53
459.11	8461.04
459.29	8739.56
459.48	8784.03
459.66	8575.72
459.84	8615.51
460.03	8786.37
460.21	8734.88
460.39	8826.16
460.57	8837.86
460.76	8739.56
460.94	8987.66
461.12	8947.87
461.31	8786.37
461.49	9001.70
461.67	8889.35
461.85	9139.79
462.04	9029.79
462.22	9205.33
462.40	9280.22
462.59	9207.67
462.77	9261.50
462.95	9287.25
463.13	9238.09
463.32	9128.09
463.50	9303.63
463.68	9233.41
463.86	9062.55
464.05	9280.22
464.23	9397.25
464.41	9380.87
464.59	9011.06
464.78	9612.58
464.96	9467.47
465.14	9331.72
465.32	9341.08
465.50	9514.28
465.69	9406.61
465.87	9568.11
466.05	9554.07
466.23	9441.72
466.41	9713.22
466.60	9870.04
466.78	9533.00
466.96	9432.36
467.14	9628.96
467.32	9734.29
467.51	9628.96
467.69	9448.74
467.87	9668.75
468.05	9715.56
468.23	9743.65
468.41	9685.14
468.60	9951.96
468.78	9778.76
468.96	9767.06
469.14	9991.75
469.32	9982.38
469.50	9715.56
469.69	9982.38
469.87	9788.12
470.05	10127.50
470.23	9975.36
470.41	10054.94
470.59	10012.81
470.77	10031.54
470.95	10090.05
471.14	10490.28
471.32	10286.65
471.50	10438.79
471.68	10579.22
471.86	10602.63
472.04	10775.83
472.22	10883.49
472.40	10394.32
472.58	10499.64
472.77	10817.96
472.95	10712.63
473.13	11147.97
473.31	11009.88
473.49	10724.33
473.67	10909.24
473.85	11005.20
474.03	11290.74
474.21	11412.45
474.39	11424.15
474.57	11384.37
474.75	11222.87
474.93	11681.61
475.12	11531.82
475.30	11630.12
475.48	11800.98
475.66	11424.15
475.84	11477.99
476.02	11859.49
476.20	11686.29
476.38	11899.28
476.56	12276.11
476.74	12365.05
476.92	12470.37
477.10	12107.59
477.28	12383.77
477.46	12500.80
477.64	12793.37
477.82	12741.88
478.00	12856.56
478.18	12596.76
478.36	12816.77
478.54	12870.61
478.72	12894.01
478.90	13322.33
479.08	13474.46
479.26	13394.89
479.44	13432.33
479.62	13532.98
479.80	13694.47
479.98	13767.03
480.16	14052.58
480.34	13865.33
480.52	14001.08
480.70	14141.52
480.88	13944.91
481.06	14270.25
481.24	14677.50
481.41	14747.72
481.59	14834.32
481.77	14752.40
481.95	14792.19
482.13	14995.81
482.31	14956.02
482.49	15370.30
482.67	15208.80
482.85	15611.37
483.03	15639.46
483.21	15398.38
483.39	15943.73
483.57	15896.92
483.74	15740.10
483.92	15917.98
484.10	16030.33
484.28	16168.42
484.46	16617.80
484.64	16926.75
484.82	16521.84
485.00	16615.46
485.18	16968.88
485.35	16805.05
485.53	16578.01
485.71	16601.42
485.89	16884.62
486.07	16821.43
486.25	17013.35
486.43	17303.58
486.61	17460.40
486.78	17638.28
486.96	17806.80
487.14	18057.23
487.32	17994.04
487.50	18422.36
487.68	18787.48
487.85	18857.70
488.03	18874.08
488.21	19112.81
488.39	19082.39
488.57	19178.35
488.75	19239.20
488.92	19461.55
489.10	19920.30
489.28	19873.49
489.46	20152.01
489.64	20362.66
489.81	20589.69
489.99	20613.10
490.17	20547.56
490.35	21039.08
490.53	20877.58
490.70	21097.59
490.88	21064.82
491.06	21245.04
491.24	21223.98
491.41	21596.12
491.59	21247.38
491.77	21233.34
491.95	21467.39
492.13	21940.18
492.30	22380.20
492.48	22611.92
492.66	22565.10
492.84	22183.60
493.01	22904.48
493.19	22696.17
493.37	22902.14
493.54	22850.65
493.72	23293.01
493.90	23140.88
494.08	23728.35
494.25	23899.21
494.43	23679.20
494.61	24095.82
494.79	24070.07
494.96	24395.40
495.14	23948.36
495.32	24610.73
495.49	24266.67
495.67	24346.25
495.85	24800.32
496.02	24903.30
496.20	24903.30
496.38	25200.55
496.55	25455.67
496.73	25371.41
496.91	25507.16
497.09	25879.30
497.26	25893.35
497.44	25809.09
497.62	25799.73
497.79	26026.76
497.97	25893.35
498.14	25799.73
498.32	26064.21
498.50	26162.51
498.67	26621.25
498.85	26525.29
499.03	27131.49
499.20	26888.07
499.38	26948.93
499.56	27080.00
499.73	26967.65
499.91	27330.44
500.08	26962.97
500.26	26960.63
500.44	27295.33
500.61	27501.29
500.79	27442.78
500.97	27445.12
501.14	27688.54
501.32	27632.36
501.49	27737.69
501.67	27515.34
501.84	28114.52
502.02	28327.50
502.20	28376.66
502.37	28645.82
502.55	28257.29
502.72	28982.85
502.90	28807.31
503.07	28627.09
503.25	28929.02
503.43	28912.64
503.60	28510.07
503.78	28826.04
503.95	28903.28
504.13	29509.47
504.30	29462.66
504.48	29591.39
504.65	29404.15
504.83	29834.81
505.01	30068.86
505.18	29876.94
505.36	30169.51
505.53	30232.70
505.71	30431.65
505.88	30335.68
506.06	29832.47
506.23	30501.86
506.41	30445.69
506.58	30625.91
506.76	30642.29
506.93	30771.02
507.11	30719.53
507.28	30724.21
507.46	30785.07
507.63	30799.11
507.81	31007.42
507.98	30991.03
508.16	31236.79
508.33	31140.83
508.50	31330.41
508.68	31576.17
508.85	31763.41
509.03	31782.13
509.20	31791.50
509.38	32009.17
509.55	31840.65
509.73	32158.96
509.90	31955.33
510.08	32041.93
510.25	32313.44
510.42	32273.65
510.60	32268.97
510.77	32844.74
510.95	32807.29
511.12	32900.91
511.30	32615.37
511.47	32961.76
511.64	33378.38
511.82	33071.77
511.99	33177.09
512.17	33214.54
512.34	32620.05
512.51	33696.69
512.69	33291.78
512.86	33692.01
513.04	33565.62
513.21	33727.12
513.38	33584.35
513.56	33640.52
513.73	33617.11
513.90	33715.42
514.08	33406.47
514.25	34185.86
514.43	34312.25
514.60	34218.63
514.77	33818.40
514.95	34714.83
515.12	34646.95
515.29	34670.36
515.47	34876.32
515.64	34831.85
515.81	34560.35
515.99	34696.10
516.16	34298.21
516.33	34174.16
516.51	34707.80
516.68	34125.01
516.85	33989.26
517.03	34333.32
517.20	34705.46
517.37	35512.95
517.54	35374.86
517.72	35161.87
517.89	34672.70
518.06	34885.68
518.24	34850.58
518.41	35068.25
518.58	35239.11
518.75	35290.60
518.93	35859.35
519.10	35744.66
519.27	35386.56
519.45	36020.84
519.62	36456.18
519.79	36435.12
519.96	36208.09
520.14	36306.39
520.31	36147.23
520.48	36126.17
520.65	36542.78
520.83	36177.66
521.00	37022.59
521.17	36877.48
521.34	36245.54
521.52	36851.73
521.69	37008.55
521.86	37418.14
522.03	37483.68
522.20	37216.86
522.38	37001.53
522.55	37317.50
522.72	37008.55
522.89	37151.32
523.07	37834.76
523.24	37134.94
523.41	37736.46
523.58	37750.50
523.75	37956.47
523.92	37909.66
524.10	37780.93
524.27	38045.41
524.44	38143.71
524.61	38260.74
524.78	38443.30
524.96	38522.88
525.13	38359.04
525.30	38625.86
525.47	38724.16
525.64	38284.14
525.81	38817.78
525.98	38234.99
526.16	38223.29
526.33	38307.55
526.50	38153.07
526.67	37773.91
526.84	38375.42
527.01	38216.27
527.18	38754.59
527.36	39091.63
527.53	39264.83
527.70	39433.35
527.87	39058.86
528.04	39414.62
528.21	39676.76
528.38	39246.10
528.55	39730.59
528.72	39793.79
528.89	39920.18
529.07	39571.44
529.24	39924.86
529.41	39463.77
529.58	39744.64
529.75	39873.37
529.92	39908.47
530.09	39519.95
530.26	39606.55
530.43	39761.02
530.60	40020.82
530.77	40095.72
530.94	40699.58
531.11	40343.81
531.28	40416.37
531.46	40725.32
531.63	40601.27
531.80	40428.07
531.97	40502.97
532.14	40474.88
532.31	40189.34
532.48	40172.96
532.65	40383.60
532.82	40488.93
532.99	40465.52
533.16	40402.33
533.33	41153.64
533.50	40994.48
533.67	41258.96
533.84	40858.73
534.01	40793.20
534.18	41401.74
534.35	41450.89
534.52	40879.80
534.69	41429.82
534.86	41373.65
535.03	41060.02
535.20	41717.71
535.37	41586.64
535.54	42197.52
535.71	41607.70
535.88	41734.09
536.05	41134.92
536.22	41617.07
536.38	41464.93
536.55	41495.36
536.72	41357.27
536.89	41483.66
537.06	41680.26
537.23	42050.06
537.40	42120.28
537.57	41698.98
537.74	42061.77
537.91	42092.19
538.08	42436.25
538.25	41642.81
538.42	42153.05
538.59	42155.39
538.75	41897.93
538.92	41954.10
539.09	42270.08
539.26	42471.36
539.43	42335.61
539.60	42241.99
539.77	41858.14
539.94	42078.15
540.11	42209.22
540.28	42337.95
540.44	42190.50
540.61	42117.94
540.78	42204.54
540.95	42347.31
541.12	42712.44
541.29	42927.77
541.46	42710.10
541.62	42632.86
541.79	42588.39
541.96	42679.67
542.13	42604.77
542.30	42808.40
542.47	42827.12
542.63	42887.98
542.80	43037.77
542.97	43529.28
543.14	43648.65
543.31	43573.75
543.48	43749.29
543.64	44102.71
543.81	44116.76
543.98	43597.16
544.15	43934.20
544.32	43550.35
544.48	44598.91
544.65	43854.62
544.82	43695.46
544.99	43421.62
545.16	43805.47
545.32	43737.59
545.49	44371.88
545.66	44280.60
545.83	44552.10
546.00	44034.84
546.16	44025.48
546.33	44098.03
546.50	44140.16
546.67	44322.72
546.83	43931.86
547.00	43583.12
547.17	44224.42
547.34	44044.20
547.50	44421.03
547.67	44177.61
547.84	44589.55
548.00	44540.39
548.17	44399.96
548.34	44596.57
548.51	44896.16
548.67	44437.41
548.84	44875.09
549.01	44362.51
549.18	44615.29
549.34	44605.93
549.51	45137.23
549.68	44636.36
549.84	44641.04
550.01	44947.65
550.18	44828.28
550.34	44978.07
550.51	44935.95
550.68	44905.52
550.84	44868.07
551.01	44811.90
551.18	44755.72
551.34	45198.09
551.51	44797.85
551.68	45155.96
551.84	45254.26
552.01	45067.02
552.18	44875.09
552.34	45078.72
552.51	45181.70
552.68	45134.89
552.84	45418.10
553.01	45366.60
553.18	45064.67
553.34	45017.86
553.51	45272.98
553.67	45095.10
553.84	45446.18
554.01	45862.80
554.17	45698.96
554.34	45439.16
554.51	45572.57
554.67	45858.12
554.84	45516.40
555.00	45488.31
555.17	45539.80
555.33	45673.21
555.50	45172.34
555.67	45244.90
555.83	45462.57
556.00	45769.18
556.16	46085.15
556.33	45462.57
556.50	44938.29
556.66	45696.62
556.83	45635.77
556.99	46007.91
557.16	45804.28
557.32	46012.59
557.49	46150.68
557.65	45780.88
557.82	46120.26
557.98	45624.06
558.15	45848.75
558.32	45738.75
558.48	45780.88
558.65	45497.67
558.81	45610.02
558.98	45670.87
559.14	45792.58
559.31	45326.81
559.47	46129.62
559.64	46061.74
559.80	46073.45
559.97	46237.28
560.13	45518.74
560.30	45628.74
560.46	46038.34
560.63	46019.61
560.79	46234.94
560.96	46864.55
561.12	46272.39
561.29	46307.50
561.45	45993.87
561.61	46101.53
561.78	46040.68
561.94	45907.27
562.11	46080.47
562.27	46183.45
562.44	46635.17
562.60	46700.71
562.77	46274.73
562.93	46398.78
563.10	46642.20
563.26	46136.64
563.42	46075.79
563.59	45996.21
563.75	46511.13
563.92	46562.62
564.08	46445.59
564.24	46677.30
564.41	46539.21
564.57	46653.90
564.74	45916.63
564.90	46354.31
565.07	46459.63
565.23	46335.59
565.39	46241.96
565.56	46227.92
565.72	46281.75
565.88	46213.88
566.05	46265.37
566.21	46401.12
566.38	46518.15
566.54	46726.46
566.70	46293.46
566.87	46869.23
567.03	46607.09
567.19	47133.71
567.36	46824.76
567.52	46450.27
567.68	46642.20
567.85	46630.49
568.01	46705.39
568.17	46593.04
568.34	46623.47
568.50	46789.65
568.66	46483.04
568.83	46354.31
568.99	46157.70
569.15	46380.06
569.32	46515.81
569.48	46220.90
569.64	46850.50
569.81	46527.51
569.97	46258.35
570.13	46731.14
570.30	46204.52
570.46	46501.76
570.62	46040.68
570.78	46731.14
570.95	46782.63
571.11	46429.21
571.27	46461.97
571.43	46469.00
571.60	46508.79
571.76	46417.50
571.92	46389.42
572.09	46597.73
572.25	46941.78
572.41	46670.28
572.57	47044.77
572.74	46829.44
572.90	46644.54
573.06	46731.14
573.22	46691.35
573.38	46686.67
573.55	46576.66
573.71	46691.35
573.87	46815.40
574.03	46581.34
574.20	46738.16
574.36	46939.44
574.52	46902.00
574.68	46721.77
574.84	46586.02
575.01	46616.45
575.17	46703.05
575.33	46660.92
575.49	46927.74
575.65	46735.82
575.82	46663.26
575.98	46649.22
576.14	47288.18
576.30	46841.14
576.46	46719.43
576.62	46576.66
576.79	46988.60
576.95	46185.79
577.11	46707.73
577.27	46974.55
577.43	47007.32
577.59	46469.00
577.75	46595.38
577.92	46340.27
578.08	46866.89
578.24	46581.34
578.40	46681.98
578.56	46759.22
578.72	46827.10
578.88	46958.17
579.04	47304.57
579.21	46457.29
579.37	46876.25
579.53	46899.65
579.69	46445.59
579.85	46550.91
580.01	47124.35
580.17	46480.70
580.33	47098.60
580.49	46728.80
580.65	46880.93
580.82	47091.58
580.98	46803.69
581.14	46564.96
581.30	47365.42
581.46	47192.22
581.62	46997.96
581.78	46658.58
581.94	47248.39
582.10	46946.47
582.26	47189.88
582.42	46817.74
582.58	46997.96
582.74	47084.56
582.90	47477.77
583.06	47033.07
583.22	47342.02
583.38	47206.26
583.54	47526.92
583.70	46948.81
583.86	47100.94
584.02	47033.07
584.18	46955.83
584.34	46618.79
584.50	46600.07
584.66	46948.81
584.82	46740.50
584.98	47407.55
585.14	47072.85
585.30	46869.23
585.46	46801.35
585.62	46749.86
585.78	47175.84
585.94	46279.41
586.10	47042.43
586.26	47016.68
586.42	47012.00
586.58	46941.78
586.74	47147.75
586.90	46934.76
587.06	46871.57
587.22	47243.71
587.38	46855.18
587.54	46859.87
587.70	47136.05
587.86	46941.78
588.02	46845.82
588.18	47217.97
588.34	47171.16
588.49	46436.23
588.65	46061.74
588.81	46197.49
588.97	46960.51
589.13	46040.68
589.29	46211.54
589.45	46405.80
589.61	47093.92
589.77	47381.80
