SpectraSuite Data File
++++++++++++++++++++++++++++++++++++
Date: Fri Oct 25 11:34:45 EDT 2013
User: price-jones
Dark Spectrum Present: No
Reference Spectrum Present: No
Number of Sampled Component Spectra: 1
Spectrometers: USB2+H05261
Integration Time (usec): 100000 (USB2+H05261)
Spectra Averaged: 1 (USB2+H05261)
Boxcar Smoothing: 0 (USB2+H05261)
Correct for Electrical Dark: No (USB2+H05261)
Strobe/Lamp Enabled: No (USB2+H05261)
Correct for Detector Non-linearity: No (USB2+H05261)
Correct for Stray Light: No (USB2+H05261)
Number of Pixels in Processed Spectrum: 2048
>>>>>Begin Processed Spectral Data<<<<<
365.73	297.25
365.92	297.25
366.12	297.25
366.32	182.56
366.52	128.73
366.72	217.67
366.91	241.08
367.11	205.97
367.31	180.22
367.51	161.50
367.70	147.45
367.90	205.97
368.10	149.79
368.30	159.16
368.49	191.92
368.69	220.01
368.89	198.95
369.09	224.69
369.28	222.35
369.48	191.92
369.68	255.12
369.87	269.16
370.07	238.73
370.27	250.44
370.47	369.80
370.66	498.53
370.86	454.06
371.06	528.96
371.25	580.45
371.45	524.28
371.65	538.32
371.84	475.13
372.04	564.07
372.24	561.73
372.44	547.69
372.63	561.73
372.83	596.84
373.03	552.37
373.22	575.77
373.42	559.39
373.62	554.71
373.81	540.66
374.01	662.37
374.21	634.29
374.40	629.60
374.60	681.10
374.79	613.22
374.99	653.01
375.19	594.50
375.38	730.25
375.58	655.35
375.78	716.20
375.97	671.73
376.17	690.46
376.37	671.73
376.56	660.03
376.76	660.03
376.95	617.90
377.15	683.44
377.35	662.37
377.54	755.99
377.74	711.52
377.93	585.13
378.13	723.23
378.33	667.05
378.52	613.22
378.72	669.39
378.91	603.86
379.11	711.52
379.31	760.67
379.50	702.16
379.70	739.61
379.89	746.63
380.09	732.59
380.28	746.63
380.48	706.84
380.68	723.23
380.87	716.20
381.07	774.72
381.26	800.46
381.46	844.93
381.65	713.86
381.85	819.19
382.04	748.97
382.24	795.78
382.43	730.25
382.63	781.74
382.83	765.36
383.02	805.14
383.22	741.95
383.41	828.55
383.61	751.31
383.80	866.00
384.00	791.10
384.19	760.67
384.39	774.72
384.58	744.29
384.78	863.66
384.97	805.14
385.17	830.89
385.36	816.85
385.56	763.01
385.75	840.25
385.95	842.59
386.14	840.25
386.34	863.66
386.53	821.53
386.72	821.53
386.92	917.49
387.11	875.36
387.31	877.70
387.50	929.19
387.70	826.21
387.89	819.19
388.09	863.66
388.28	898.77
388.48	851.96
388.67	924.51
388.86	915.15
389.06	891.74
389.25	922.17
389.45	891.74
389.64	954.94
389.84	926.85
390.03	983.02
390.22	959.62
390.42	968.98
390.61	847.27
390.81	931.53
391.00	870.68
391.19	1011.11
391.39	997.07
391.58	976.00
391.78	924.51
391.97	1062.60
392.16	1011.11
392.36	1076.65
392.55	1006.43
392.75	1011.11
392.94	1067.28
393.13	1025.15
393.33	1071.97
393.52	1027.50
393.71	1015.79
393.91	1153.88
394.10	1060.26
394.29	1125.80
394.49	1018.13
394.68	1036.86
394.88	1146.86
395.07	1090.69
395.26	1184.31
395.46	1123.46
395.65	1135.16
395.84	1090.69
396.04	1238.14
396.23	1151.54
396.42	1151.54
396.62	1104.73
396.81	1196.01
397.00	1111.75
397.19	1151.54
397.39	1188.99
397.58	1193.67
397.77	1144.52
397.97	1214.74
398.16	1226.44
398.35	1184.31
398.55	1177.29
398.74	1310.70
398.93	1306.02
399.12	1359.85
399.32	1252.19
399.51	1219.42
399.70	1341.13
399.90	1181.97
400.09	1207.72
400.28	1270.91
400.47	1394.96
400.67	1327.08
400.86	1329.42
401.05	1245.16
401.24	1341.13
401.44	1434.75
401.63	1331.76
401.82	1401.98
402.01	1387.94
402.21	1460.49
402.40	1387.94
402.59	1348.15
402.78	1507.30
402.97	1460.49
403.17	1502.62
403.36	1488.58
403.55	1378.58
403.74	1530.71
403.93	1519.01
404.13	1547.09
404.32	1561.14
404.51	1490.92
404.70	1572.84
404.89	1600.93
405.09	1612.63
405.28	1678.16
405.47	1629.01
405.66	1626.67
405.85	1624.33
406.05	1586.88
406.24	1743.70
406.43	1593.90
406.62	1619.65
406.81	1832.64
407.00	1689.87
407.20	1699.23
407.39	1720.29
407.58	1722.63
407.77	1715.61
407.96	1774.13
408.15	1771.79
408.34	1818.60
408.54	1764.76
408.73	1771.79
408.92	1842.00
409.11	1886.47
409.30	1921.58
409.49	1888.81
409.68	1991.80
409.87	1928.60
410.07	1966.05
410.26	1952.01
410.45	1952.01
410.64	1944.99
410.83	2057.33
411.02	1968.39
411.21	2066.69
411.40	2050.31
411.59	2113.50
411.78	2064.35
411.98	2108.82
412.17	2146.27
412.36	2165.00
412.55	2094.78
412.74	2361.60
412.93	2258.62
413.12	2277.34
413.31	2380.32
413.50	2282.02
413.69	2246.91
413.88	2326.49
414.07	2361.60
414.26	2424.80
414.45	2436.50
414.64	2436.50
414.83	2523.10
415.02	2366.28
415.22	2504.37
415.41	2410.75
415.60	2586.29
415.79	2553.52
415.98	2534.80
416.17	2612.04
416.36	2640.12
416.55	2649.49
416.74	2693.96
416.93	2656.51
417.12	2750.13
417.31	2808.64
417.50	2794.60
417.69	2871.84
417.88	2738.43
418.07	2731.41
418.26	2773.53
418.45	2918.65
418.64	2897.58
418.83	2869.50
419.02	2895.24
419.21	2890.56
419.39	2967.80
419.58	3101.21
419.77	3000.57
419.96	2998.23
420.15	2995.89
420.34	2946.73
420.53	2988.86
420.72	3084.83
420.91	3089.51
421.10	3080.14
421.29	3218.24
421.48	3122.27
421.67	3150.36
421.86	3056.74
422.05	3218.24
422.24	3173.77
422.43	3248.66
422.61	3258.03
422.80	3185.47
422.99	3180.79
423.18	3199.51
423.37	3262.71
423.56	3241.64
423.75	3222.92
423.94	3124.62
424.13	2981.84
424.32	2939.71
424.50	3239.30
424.69	3258.03
424.88	3300.16
425.07	3164.40
425.26	3290.79
425.45	3232.28
425.64	3220.58
425.83	3262.71
426.01	3309.52
426.20	3339.94
426.39	3356.33
426.58	3248.66
426.77	3288.45
426.96	3386.76
427.15	3272.07
427.33	3407.82
427.52	3288.45
427.71	3398.46
427.90	3550.59
428.09	3412.50
428.28	3515.48
428.46	3510.80
428.65	3475.70
428.84	3531.87
429.03	3658.26
429.22	3538.89
429.40	3517.83
429.59	3653.58
429.78	3428.88
429.97	3386.76
430.16	3571.66
430.34	3639.53
430.53	3719.11
430.72	3702.73
430.91	3822.09
431.10	3712.09
431.28	3801.03
431.47	3726.13
431.66	3911.04
431.85	3749.54
432.03	3887.63
432.22	3880.61
432.41	3772.94
432.60	3911.04
432.79	3899.33
432.97	3852.52
433.16	3936.78
433.35	3840.82
433.54	4088.92
433.72	4159.13
433.91	3824.44
434.10	4051.47
434.28	3918.06
434.47	4007.00
434.66	4121.68
434.85	4060.83
435.03	4138.07
435.22	4131.05
435.41	4224.67
435.59	4161.47
435.78	4072.53
435.97	4091.26
436.16	4196.58
436.34	4273.82
436.53	4252.75
436.72	4409.57
436.90	4248.07
437.09	4175.52
437.28	4257.43
437.46	4416.59
437.65	4353.40
437.84	4351.06
438.02	4346.37
438.21	4440.00
438.40	4315.95
438.58	4489.15
438.77	4519.57
438.96	4573.41
439.14	4645.96
439.33	4571.07
439.52	4603.83
439.70	4550.00
439.89	4795.76
440.08	4716.18
440.26	4784.06
440.45	4784.06
440.63	4821.50
440.82	5057.90
441.01	4844.91
441.19	4880.02
441.38	4994.70
441.57	5022.79
441.75	4917.47
441.94	5107.05
442.12	4980.66
442.31	5282.59
442.50	5036.83
442.68	4987.68
442.87	4983.00
443.05	5273.23
443.24	5266.21
443.43	5193.65
443.61	5451.11
443.80	5303.65
443.98	5217.05
444.17	5036.83
444.35	5380.89
444.54	5390.25
444.73	5425.36
444.91	5502.60
445.10	5331.74
445.28	5310.68
445.47	5523.66
445.65	5413.66
445.84	5380.89
446.02	5394.93
446.21	5380.89
446.39	5364.51
446.58	5416.00
446.77	5416.00
446.95	5390.25
447.14	5481.53
447.32	5518.98
447.51	5530.69
447.69	5336.42
447.88	5348.12
448.06	5486.22
448.25	5474.51
448.43	5472.17
448.62	5605.58
448.80	5472.17
448.99	5636.01
449.17	5762.40
449.36	5483.88
449.54	5577.50
449.73	5547.07
449.91	5760.06
450.10	5636.01
450.28	5809.21
450.46	5830.27
450.65	5715.59
450.83	5724.95
451.02	5879.43
451.20	5902.83
451.39	5734.31
451.57	5916.87
451.76	5720.27
451.94	5846.66
452.13	5984.75
452.31	5959.00
452.49	5970.71
452.68	6129.86
452.86	5940.28
453.05	6059.65
453.23	6071.35
453.42	6071.35
453.60	5919.21
453.78	6141.57
453.97	6132.20
454.15	6008.16
454.34	5968.37
454.52	6200.08
454.70	6052.63
454.89	6148.59
455.07	6181.35
455.26	6211.78
455.44	6274.98
455.62	6303.06
455.81	6389.66
455.99	6471.58
456.17	6487.96
456.36	6417.75
456.54	6520.73
456.73	6424.77
456.91	6932.67
457.09	6679.89
457.28	6684.57
457.46	6558.18
457.64	6630.74
457.83	6565.20
458.01	6546.48
458.19	6909.26
458.38	6775.85
458.56	6820.32
458.74	6904.58
458.93	6700.95
459.11	6672.87
459.29	6857.77
459.48	6796.92
459.66	7033.31
459.84	6801.60
460.03	7075.44
460.21	7042.67
460.39	6988.84
460.57	6930.33
460.76	6986.50
460.94	7068.42
461.12	7007.56
461.31	7248.64
461.49	6946.71
461.67	7075.44
461.85	7349.28
462.04	7112.89
462.22	7463.97
462.40	7353.96
462.59	7344.60
462.77	7382.05
462.95	7265.02
463.13	7332.90
463.32	7398.43
463.50	7625.47
463.68	7513.12
463.86	7625.47
464.05	7417.16
464.23	7410.14
464.41	7627.81
464.59	7440.56
464.78	7714.41
464.96	7515.46
465.14	7538.87
465.32	7714.41
465.50	7585.68
465.69	7634.83
465.87	7716.75
466.05	7873.56
466.23	7798.66
466.41	7831.43
466.60	7957.82
466.78	7838.45
466.96	7819.73
467.14	7824.41
467.32	7866.54
467.51	7840.79
467.69	7901.65
467.87	7845.48
468.05	7859.52
468.23	7801.01
468.41	8072.51
468.60	8126.34
468.78	7812.71
468.96	8100.59
469.14	8266.77
469.32	8386.14
469.50	8098.25
469.69	8112.30
469.87	8234.00
470.05	8252.73
470.23	8255.07
470.41	8280.82
470.59	8442.31
470.77	8411.89
470.95	8449.33
471.14	8760.63
471.32	8369.76
471.50	8510.19
471.68	8648.28
471.86	8444.65
472.04	8442.31
472.22	8903.40
472.40	8699.77
472.58	8643.60
472.77	8847.22
472.95	8781.69
473.13	8975.95
473.31	8924.46
473.49	8737.22
473.67	9069.58
473.85	9029.79
474.03	9158.52
474.21	9153.84
474.39	9280.22
474.57	9111.71
474.75	9315.33
474.93	9437.04
475.12	9540.02
475.30	9352.78
475.48	9544.70
475.66	9713.22
475.84	9689.82
476.02	9680.46
476.20	9643.01
476.38	9774.08
476.56	10076.01
476.74	9996.43
476.92	10050.26
477.10	10106.43
477.28	10211.76
477.46	10001.11
477.64	10335.81
477.82	10380.28
478.00	10738.38
478.18	10401.34
478.36	10663.48
478.54	10773.49
478.72	10871.79
478.90	10916.26
479.08	11044.99
479.26	11077.76
479.44	11257.98
479.62	11110.52
479.80	11262.66
479.98	11265.00
480.16	11763.53
480.34	11365.64
480.52	11796.30
480.70	11620.76
480.88	11206.48
481.06	11461.60
481.24	11983.54
481.41	12020.99
481.59	11934.39
481.77	12109.93
481.95	12236.32
482.13	12255.04
482.31	12215.26
482.49	12531.23
482.67	12587.40
482.85	12690.38
483.03	12966.57
483.21	12776.98
483.39	13078.91
483.57	13008.70
483.74	12982.95
483.92	12992.31
484.10	12952.52
484.28	13380.84
484.46	13813.84
484.64	13977.68
484.82	13418.29
485.00	13474.46
485.18	14176.62
485.35	14146.20
485.53	13907.46
485.71	14382.59
485.89	14604.94
486.07	14506.64
486.25	14539.41
486.43	14534.73
486.61	14780.48
486.78	14911.55
486.96	15183.06
487.14	15229.87
487.32	15232.21
487.50	15405.41
487.68	15770.53
487.85	15566.90
488.03	15690.95
488.21	15868.83
488.39	15946.07
488.57	16088.84
488.75	16311.19
488.92	16657.59
489.10	16531.20
489.28	16559.29
489.46	17156.13
489.64	16833.13
489.81	17355.07
489.99	17090.59
490.17	17174.85
490.35	17462.74
490.53	17523.59
490.70	17778.71
490.88	17914.46
491.06	17806.80
491.24	17839.56
491.41	17879.35
491.59	18270.22
491.77	18143.83
491.95	18134.47
492.13	18298.31
492.30	18665.77
492.48	18508.96
492.66	18696.20
492.84	18609.60
493.01	19070.68
493.19	18953.66
493.37	19311.76
493.54	18728.97
493.72	19499.00
493.90	19386.66
494.08	19541.13
494.25	19728.38
494.43	19683.91
494.61	19852.42
494.79	20147.33
494.96	19992.86
495.14	20332.23
495.32	20521.82
495.49	20500.75
495.67	20561.61
495.85	20776.94
496.02	20699.70
496.20	21057.80
496.38	20865.88
496.55	21268.45
496.73	21486.12
496.91	21223.98
497.09	21785.71
497.26	21956.57
497.44	21233.34
497.62	21584.42
497.79	22106.36
497.97	21837.20
498.14	22073.59
498.32	22214.02
498.50	22115.72
498.67	22670.43
498.85	22438.72
499.03	22471.48
499.20	22651.70
499.38	22789.80
499.56	23229.82
499.73	23290.67
499.91	23016.83
500.08	23253.22
500.26	23477.91
500.44	23061.30
500.61	23543.45
500.79	23494.30
500.97	23695.58
501.14	23950.70
501.32	24018.58
501.49	23772.82
501.67	24091.13
501.84	24051.34
502.02	24276.04
502.20	24187.10
502.37	24175.39
502.55	24135.60
502.72	24285.40
502.90	24400.08
503.07	24364.98
503.25	24315.83
503.43	24439.87
503.60	24748.82
503.78	24875.21
503.95	24723.08
504.13	24863.51
504.30	25390.13
504.48	25282.47
504.65	24987.56
504.83	25556.31
505.01	25640.57
505.18	25486.09
505.36	25844.20
505.53	25706.10
505.71	25762.28
505.88	25673.34
506.06	26270.17
506.23	25844.20
506.41	26108.68
506.58	25832.49
506.76	26174.21
506.93	26230.38
507.11	26370.82
507.28	26300.60
507.46	26597.85
507.63	26665.72
507.81	27103.40
507.98	26780.41
508.16	26815.52
508.33	27133.83
508.50	27175.96
508.68	27246.18
508.85	27590.24
509.03	27388.95
509.20	27449.80
509.38	27484.91
509.55	27803.22
509.73	27662.79
509.90	28060.68
510.08	27733.01
510.25	27812.59
510.42	27845.35
510.60	28369.63
510.77	28297.08
510.95	28329.84
511.12	27910.89
511.30	28418.78
511.47	28481.98
511.64	28423.47
511.82	28652.84
511.99	28524.11
512.17	28617.73
512.34	28587.30
512.51	29097.54
512.69	28884.55
512.86	29020.30
513.04	29074.13
513.21	29163.08
513.38	29305.85
513.56	29558.63
513.73	29441.60
513.90	29296.49
514.08	29654.59
514.25	29673.31
514.43	29806.72
514.60	29841.83
514.77	29748.21
514.95	29834.81
515.12	29928.43
515.29	29872.26
515.47	30387.18
515.64	30487.82
515.81	30082.91
515.99	30183.55
516.16	30490.16
516.33	30223.34
516.51	30359.09
516.68	30146.10
516.85	30888.05
517.03	31065.93
517.20	30630.59
517.37	30771.02
517.54	30747.62
517.72	30824.86
517.89	31147.85
518.06	31157.21
518.24	30918.48
518.41	31126.78
518.58	30703.15
518.75	31054.23
518.93	31571.49
519.10	31360.84
519.27	31475.52
519.45	31793.84
519.62	31592.55
519.79	31892.14
519.96	31711.92
520.14	31754.05
520.31	31997.46
520.48	31955.33
520.65	31859.37
520.83	32257.26
521.00	32297.05
521.17	32449.19
521.34	32308.76
521.52	32573.24
521.69	32655.15
521.86	32783.88
522.03	32732.39
522.20	32929.00
522.38	33329.23
522.55	32837.72
522.72	33097.52
522.89	33200.50
523.07	33139.65
523.24	32804.95
523.41	33317.53
523.58	32966.45
523.75	33141.99
523.92	33261.35
524.10	33720.10
524.27	33802.02
524.44	33612.43
524.61	33748.18
524.78	33362.00
524.96	33806.70
525.13	34270.12
525.30	33991.60
525.47	34377.79
525.64	34022.03
525.81	33947.13
525.98	34003.30
526.16	34197.57
526.33	33869.89
526.50	34574.39
526.67	34153.10
526.84	34209.27
527.01	34396.51
527.18	34611.84
527.36	34904.41
527.53	34663.33
527.70	34955.90
527.87	35196.98
528.04	34623.54
528.21	34976.97
528.38	34925.47
528.55	35026.12
528.72	35086.97
528.89	35044.84
529.07	35306.98
529.24	34644.61
529.41	35304.64
529.58	35175.91
529.75	35379.54
529.92	35835.94
530.09	35658.06
530.26	35402.94
530.43	35971.69
530.60	34979.31
530.77	35707.21
530.94	35594.87
531.11	35585.50
531.28	35548.06
531.46	35901.48
531.63	36018.50
531.80	35517.63
531.97	35819.56
532.14	36353.20
532.31	36685.56
532.48	36591.94
532.65	36708.96
532.82	36355.54
532.99	36542.78
533.16	36315.75
533.33	36062.97
533.50	36500.65
533.67	36362.56
533.84	36325.11
534.01	36608.32
534.18	36624.70
534.35	36959.40
534.52	37022.59
534.69	37373.67
534.86	37141.96
535.03	37153.66
535.20	37247.29
535.37	37275.37
535.54	37067.06
535.71	37127.92
535.88	37479.00
536.05	37148.98
536.22	37490.70
536.38	37443.89
536.55	37448.57
536.72	37427.51
536.89	37736.46
537.06	37867.53
537.23	37670.92
537.40	37883.91
537.57	37170.05
537.74	37607.73
537.91	37984.55
538.08	38410.53
538.25	37493.04
538.42	37909.66
538.59	38183.50
538.75	37984.55
538.92	38038.39
539.09	38258.40
539.26	38192.86
539.43	38183.50
539.60	37979.87
539.77	38403.51
539.94	38366.06
540.11	38373.08
540.28	38199.88
540.44	38218.61
540.61	38401.17
540.78	38295.85
540.95	38333.29
541.12	38796.72
541.29	38347.34
541.46	39019.07
541.62	38607.14
541.79	38967.58
541.96	38595.43
542.13	38335.63
542.30	38904.38
542.47	38515.86
542.63	39005.03
542.80	38792.04
542.97	39267.17
543.14	39449.73
543.31	39040.14
543.48	39344.41
543.64	39728.25
543.81	39852.30
543.98	39337.38
544.15	39662.72
544.32	39739.96
544.48	40133.17
544.65	39847.62
544.82	40144.87
544.99	39758.68
545.16	40168.27
545.32	39449.73
545.49	40334.45
545.66	40247.85
545.83	40332.11
546.00	40182.32
546.16	40238.49
546.33	39927.20
546.50	39374.83
546.67	40617.66
546.83	39856.98
547.00	40224.45
547.17	40215.08
547.34	40701.92
547.50	40580.21
547.67	41331.52
547.84	40493.61
548.00	40893.84
548.17	40879.80
548.34	41071.72
548.51	41017.89
548.67	40982.78
548.84	40802.56
549.01	40601.27
549.18	40980.44
549.34	40938.31
549.51	41764.52
549.68	41031.93
549.84	41249.60
550.01	41216.83
550.18	40926.61
550.34	40961.72
550.51	41298.75
550.68	41544.51
550.84	41064.70
551.01	41205.13
551.18	40945.33
551.34	41111.51
551.51	41549.19
551.68	41303.43
551.84	41340.88
552.01	41242.58
552.18	41179.39
552.34	41614.72
552.51	41530.47
552.68	41467.27
552.84	41860.48
553.01	41839.42
553.18	41722.39
553.34	41551.53
553.51	41640.47
553.67	41823.03
553.84	42047.72
554.01	41715.37
554.17	41834.74
554.34	41766.86
554.51	41787.92
554.67	42408.17
554.84	42054.75
555.00	42157.73
555.17	42218.58
555.33	42146.03
555.50	42429.23
555.67	42108.58
555.83	42607.11
556.00	42333.27
556.16	42698.39
556.33	42337.95
556.50	42499.45
556.66	42274.76
556.83	42300.50
556.99	42969.90
557.16	42848.19
557.32	42845.85
557.49	42820.10
557.65	42426.89
557.82	42293.48
557.98	42436.25
558.15	42525.19
558.32	42689.03
558.48	42403.49
558.65	42660.94
558.81	42955.85
558.98	42513.49
559.14	42766.27
559.31	42490.09
559.47	42618.81
559.64	42815.42
559.80	42763.93
559.97	43194.59
560.13	42747.54
560.30	43454.39
560.46	43182.88
560.63	42955.85
560.79	43100.97
560.96	43173.52
561.12	43466.09
561.29	43201.61
561.45	43468.43
561.61	43171.18
561.78	43269.48
561.94	43393.53
562.11	43428.64
562.27	43210.97
562.44	43442.68
562.60	43232.04
562.77	43470.77
562.93	43147.78
563.10	43356.08
563.26	43505.88
563.42	43379.49
563.59	43833.55
563.75	43159.48
563.92	43580.78
564.08	43255.44
564.24	43328.00
564.41	43615.88
564.57	43564.39
564.74	43842.92
564.90	43335.02
565.07	43234.38
565.23	43615.88
565.39	43634.61
565.56	43662.69
565.72	43606.52
565.88	43536.30
566.05	43587.80
566.21	43889.73
566.38	43934.20
566.54	43629.93
566.70	43470.77
566.87	43786.74
567.03	43782.06
567.19	44264.21
567.36	43789.08
567.52	43838.23
567.68	44568.48
567.85	44229.10
568.01	44121.44
568.17	43461.41
568.34	43714.19
568.50	44058.24
568.66	43889.73
568.83	43859.30
568.99	43709.50
569.15	43721.21
569.32	43751.63
569.48	43730.57
569.64	44184.63
569.81	44460.82
569.97	44201.02
570.13	44425.71
570.30	43791.42
570.46	44177.61
570.62	44435.07
570.78	44076.97
570.95	44294.64
571.11	44318.04
571.27	44121.44
571.43	44149.53
571.60	44287.62
571.76	43842.92
571.92	44037.18
572.09	44577.84
572.25	44308.68
572.41	43606.52
572.57	44481.88
572.74	44371.88
572.90	44088.67
573.06	44346.13
573.22	44320.38
573.38	44245.49
573.55	44062.93
573.71	44470.18
573.87	44713.59
574.03	44065.27
574.20	44540.39
574.36	44570.82
574.52	44453.79
574.68	44484.22
574.84	44273.57
575.01	44811.90
575.17	44179.95
575.33	44505.29
575.49	44425.71
575.65	44147.18
575.82	44629.34
575.98	44538.05
576.14	44896.16
576.30	44748.70
576.46	44629.34
576.62	44325.07
576.79	44737.00
576.95	44051.22
577.11	44179.95
577.27	44664.44
577.43	44610.61
577.59	44589.55
577.75	43983.35
577.92	44584.86
578.08	44322.72
578.24	44720.62
578.40	44477.20
578.56	44641.04
578.72	44521.67
578.88	44516.99
579.04	44732.32
579.21	44416.35
579.37	44725.30
579.53	44556.78
579.69	44140.16
579.85	44320.38
580.01	44844.66
580.17	44217.40
580.33	44219.74
580.49	44605.93
580.65	45010.84
580.82	44734.66
580.98	44631.68
581.14	44191.65
581.30	44903.18
581.46	44643.38
581.62	44348.47
581.78	44673.81
581.94	44734.66
582.10	44898.50
582.26	45207.45
582.42	44828.28
582.58	44598.91
582.74	44694.87
582.90	44765.09
583.06	44624.65
583.22	44554.44
583.38	44994.46
583.54	45078.72
583.70	44893.82
583.86	44961.69
584.02	44847.00
584.18	44837.64
584.34	44907.86
584.50	45017.86
584.66	44877.43
584.82	45024.89
584.98	45359.58
585.14	44935.95
585.30	44769.77
585.46	44671.46
585.62	44898.50
585.78	45097.44
585.94	44856.37
586.10	44903.18
586.26	44645.72
586.42	44729.98
586.58	44910.20
586.74	44957.01
586.90	44926.58
587.06	45155.96
587.22	44949.99
587.38	44524.01
587.54	44802.53
587.70	45385.33
587.86	45015.52
588.02	44839.98
588.18	44638.70
588.34	45029.57
588.49	44917.22
588.65	44741.68
588.81	45067.02
588.97	45146.59
589.13	44751.04
589.29	44961.69
589.45	44999.14
589.61	44989.78
589.77	44999.14
589.93	45102.12
590.08	45118.51
