SpectraSuite Data File
++++++++++++++++++++++++++++++++++++
Date: Fri Oct 25 10:44:29 EDT 2013
User: price-jones
Dark Spectrum Present: No
Reference Spectrum Present: No
Number of Sampled Component Spectra: 1
Spectrometers: USB2+H05261
Integration Time (usec): 100000 (USB2+H05261)
Spectra Averaged: 1 (USB2+H05261)
Boxcar Smoothing: 0 (USB2+H05261)
Correct for Electrical Dark: No (USB2+H05261)
Strobe/Lamp Enabled: No (USB2+H05261)
Correct for Detector Non-linearity: No (USB2+H05261)
Correct for Stray Light: No (USB2+H05261)
Number of Pixels in Processed Spectrum: 2048
>>>>>Begin Processed Spectral Data<<<<<
365.73	142.77
365.92	142.77
366.12	142.77
366.32	0.00
366.52	2.34
366.72	0.00
366.91	16.38
367.11	30.43
367.31	0.00
367.51	0.00
367.70	0.00
367.90	14.04
368.10	0.00
368.30	23.41
368.49	0.00
368.69	81.92
368.89	46.81
369.09	11.70
369.28	114.69
369.48	58.51
369.68	88.94
369.87	126.39
370.07	42.13
370.27	119.37
370.47	212.99
370.66	339.38
370.86	433.00
371.06	507.90
371.25	461.09
371.45	390.87
371.65	524.28
371.84	498.53
372.04	472.79
372.24	489.17
372.44	496.19
372.63	468.11
372.83	524.28
373.03	475.13
373.22	475.13
373.42	482.15
373.62	528.96
373.81	521.94
374.01	547.69
374.21	512.58
374.40	528.96
374.60	617.90
374.79	475.13
374.99	543.00
375.19	559.39
375.38	547.69
375.58	631.94
375.78	545.34
375.97	615.56
376.17	650.67
376.37	699.82
376.56	636.63
376.76	550.03
376.95	606.20
377.15	566.41
377.35	638.97
377.54	599.18
377.74	631.94
377.93	613.22
378.13	627.26
378.33	636.63
378.52	678.76
378.72	610.88
378.91	641.31
379.11	634.29
379.31	613.22
379.50	699.82
379.70	589.82
379.89	688.12
380.09	718.54
380.28	648.33
380.48	688.12
380.68	716.20
380.87	692.80
381.07	655.35
381.26	741.95
381.46	737.27
381.65	641.31
381.85	704.50
382.04	669.39
382.24	634.29
382.43	692.80
382.63	692.80
382.83	638.97
383.02	725.57
383.22	737.27
383.41	730.25
383.61	791.10
383.80	763.01
384.00	744.29
384.19	835.57
384.39	779.40
384.58	765.36
384.78	833.23
384.97	809.83
385.17	840.25
385.36	774.72
385.56	774.72
385.75	823.87
385.95	840.25
386.14	915.15
386.34	791.10
386.53	868.34
386.72	849.61
386.92	884.72
387.11	851.96
387.31	835.57
387.50	931.53
387.70	887.06
387.89	800.46
388.09	887.06
388.28	830.89
388.48	805.14
388.67	908.13
388.86	931.53
389.06	905.79
389.25	959.62
389.45	947.92
389.64	924.51
389.84	990.05
390.03	957.28
390.22	1118.78
390.42	1027.50
390.61	997.07
390.81	1062.60
391.00	1053.24
391.19	1020.47
391.39	1090.69
391.58	1004.09
391.78	1064.94
391.97	1013.45
392.16	1050.90
392.36	1043.88
392.55	1064.94
392.75	1020.47
392.94	992.39
393.13	929.19
393.33	1027.50
393.52	1100.05
393.71	1025.15
393.91	1177.29
394.10	1114.10
394.29	1137.50
394.49	1128.14
394.68	1196.01
394.88	1231.12
395.07	1170.27
395.26	1196.01
395.46	1156.22
395.65	1219.42
395.84	1268.57
396.04	1268.57
396.23	1198.35
396.42	1186.65
396.62	1135.16
396.81	1289.64
397.00	1303.68
397.19	1315.38
397.39	1207.72
397.58	1392.62
397.77	1430.07
397.97	1434.75
398.16	1355.17
398.35	1406.66
398.55	1409.00
398.74	1481.56
398.93	1577.52
399.12	1528.37
399.32	1444.11
399.51	1420.71
399.70	1502.62
399.90	1465.18
400.09	1551.78
400.28	1551.78
400.47	1617.31
400.67	1523.69
400.86	1586.88
401.05	1563.48
401.24	1661.78
401.44	1668.80
401.63	1626.67
401.82	1626.67
402.01	1551.78
402.21	1689.87
402.40	1724.97
402.59	1643.06
402.78	1682.85
402.97	1741.36
403.17	1785.83
403.36	1783.49
403.55	1673.48
403.74	1832.64
403.93	1762.42
404.13	1811.57
404.32	1809.23
404.51	1863.07
404.70	1893.49
404.89	1844.34
405.09	1970.73
405.28	2019.88
405.47	1806.89
405.66	1919.24
405.85	1975.41
406.05	1970.73
406.24	2015.20
406.43	1935.62
406.62	2043.29
406.81	2083.08
407.00	2033.93
407.20	1968.39
407.39	2062.01
407.58	2122.87
407.77	2176.70
407.96	2148.61
408.15	2146.27
408.34	2153.29
408.54	2071.37
408.73	2162.66
408.92	2143.93
409.11	2169.68
409.30	2235.21
409.49	2197.76
409.68	2225.85
409.87	2282.02
410.07	2284.36
410.26	2422.45
410.45	2291.38
410.64	2546.50
410.83	2380.32
411.02	2478.63
411.21	2403.73
411.40	2490.33
411.59	2581.61
411.78	2506.71
411.98	2593.31
412.17	2633.10
412.36	2602.68
412.55	2583.95
412.74	2679.91
412.93	2689.28
413.12	2703.32
413.31	2787.58
413.50	2881.20
413.69	2822.69
413.88	2913.97
414.07	2843.75
414.26	2771.19
414.45	2883.54
414.64	2855.45
414.83	2951.42
415.02	2885.88
415.22	2965.46
415.41	3143.34
415.60	3063.76
415.79	3084.83
415.98	3084.83
416.17	3290.79
416.36	3105.89
416.55	3169.09
416.74	3171.43
416.93	3105.89
417.12	3248.66
417.31	3323.56
417.50	3295.47
417.69	3405.48
417.88	3293.13
418.07	3300.16
418.26	3309.52
418.45	3215.90
418.64	3508.46
418.83	3527.19
419.02	3489.74
419.21	3438.25
419.39	3461.65
419.58	3508.46
419.77	3396.12
419.96	3435.91
420.15	3705.07
420.34	3583.36
420.53	3660.60
420.72	3749.54
420.91	3723.79
421.10	3693.37
421.29	3761.24
421.48	3712.09
421.67	3737.84
421.86	3740.18
422.05	3744.86
422.24	3639.53
422.43	3733.15
422.61	3892.31
422.80	3852.52
422.99	3864.22
423.18	3653.58
423.37	3915.72
423.56	3955.51
423.75	3859.54
423.94	3786.99
424.13	3726.13
424.32	3644.21
424.50	3934.44
424.69	3815.07
424.88	3964.87
425.07	3871.25
425.26	3660.60
425.45	3901.67
425.64	3925.08
425.83	3845.50
426.01	4004.66
426.20	3929.76
426.39	3918.06
426.58	3777.62
426.77	3899.33
426.96	3915.72
427.15	3969.55
427.33	3941.46
427.52	3859.54
427.71	4004.66
427.90	3936.78
428.09	4102.96
428.28	4105.30
428.46	4133.39
428.65	4077.21
428.84	4219.99
429.03	4147.43
429.22	3960.19
429.40	4060.83
429.59	4035.08
429.78	3810.39
429.97	3791.67
430.16	4037.42
430.34	4168.49
430.53	4098.28
430.72	4217.65
430.91	4215.30
431.10	4294.88
431.28	4311.27
431.47	4482.13
431.66	4470.42
431.85	4461.06
432.03	4606.17
432.22	4519.57
432.41	4517.23
432.60	4652.98
432.79	4521.92
432.97	4706.82
433.16	4648.30
433.35	4514.89
433.54	4505.53
433.72	4713.84
433.91	4507.87
434.10	4793.42
434.28	4573.41
434.47	4713.84
434.66	4830.87
434.85	4826.18
435.03	4819.16
435.22	4938.53
435.41	5022.79
435.59	4947.89
435.78	5027.47
435.97	5006.41
436.16	4957.25
436.34	4961.94
436.53	5015.77
436.72	5275.57
436.90	5050.88
437.09	5074.28
437.28	5025.13
437.46	4999.38
437.65	5025.13
437.84	5057.90
438.02	5104.71
438.21	5078.96
438.40	5097.69
438.58	5416.00
438.77	5343.44
438.96	5259.18
439.14	5413.66
439.33	5631.33
439.52	5570.48
439.70	5584.52
439.89	5603.24
440.08	5533.03
440.26	5579.84
440.45	5589.20
440.63	5825.59
440.82	5823.25
441.01	5851.34
441.19	5837.30
441.38	5877.09
441.57	5977.73
441.75	5954.32
441.94	6141.57
442.12	6223.48
442.31	6377.96
442.50	6319.45
442.68	6176.67
442.87	6127.52
443.05	6146.25
443.24	6326.47
443.43	6193.06
443.61	6328.81
443.80	6621.38
443.98	6310.08
444.17	6115.82
444.35	6417.75
444.54	6525.41
444.73	6349.87
444.91	6366.26
445.10	6251.57
445.28	6530.09
445.47	6340.51
445.65	6303.06
445.84	6480.94
446.02	6485.62
446.21	6420.09
446.39	6511.37
446.58	6537.12
446.77	6602.65
446.95	6359.24
447.14	6576.91
447.32	6513.71
447.51	6530.09
447.69	6422.43
447.88	6511.37
448.06	6565.20
448.25	6422.43
448.43	6548.82
448.62	6429.45
448.80	6532.44
448.99	6768.83
449.17	6724.36
449.36	6654.14
449.54	6857.77
449.73	6860.11
449.91	6974.80
450.10	6881.18
450.28	6927.99
450.46	6974.80
450.65	7040.33
450.83	6981.82
451.02	7066.08
451.20	7101.19
451.39	7157.36
451.57	7091.82
451.76	7040.33
451.94	7140.97
452.13	7206.51
452.31	6991.18
452.49	6813.30
452.68	7023.95
452.86	7136.29
453.05	7243.96
453.23	7140.97
453.42	7133.95
453.60	7166.72
453.78	7218.21
453.97	7206.51
454.15	7220.55
454.34	7143.32
454.52	7424.18
454.70	7304.81
454.89	7269.70
455.07	7311.83
455.26	7524.82
455.44	7459.29
455.62	7478.01
455.81	7581.00
455.99	7433.54
456.17	7796.32
456.36	7702.70
456.54	7845.48
456.73	7896.97
456.91	7843.14
457.09	7990.59
457.28	8119.32
457.46	7786.96
457.64	8004.63
457.83	8044.42
458.01	7826.75
458.19	8145.06
458.38	8006.97
458.56	7969.52
458.74	7822.07
458.93	8100.59
459.11	8051.44
459.29	8163.79
459.48	8219.96
459.66	8318.26
459.84	8217.62
460.03	8496.14
460.21	8348.69
460.39	8606.15
460.57	8346.35
460.76	8236.35
460.94	8409.54
461.12	8559.34
461.31	8514.87
461.49	8456.36
461.67	8472.74
461.85	8945.53
462.04	8559.34
462.22	8861.27
462.40	8826.16
462.59	8636.58
462.77	8889.35
462.95	8814.46
463.13	8769.99
463.32	8791.05
463.50	8744.24
463.68	8896.38
463.86	8915.10
464.05	8816.80
464.23	8718.50
464.41	9011.06
464.59	8887.01
464.78	9135.11
464.96	9078.94
465.14	9022.77
465.32	8968.93
465.50	9186.60
465.69	9092.98
465.87	9041.49
466.05	9116.39
466.23	9270.86
466.41	9081.28
466.60	9214.69
466.78	9151.49
466.96	9020.42
467.14	9301.29
467.32	9214.69
467.51	9149.15
467.69	8915.10
467.87	9254.48
468.05	9418.32
468.23	9067.24
468.41	9289.59
468.60	9277.88
468.78	9310.65
468.96	9312.99
469.14	9643.01
469.32	9579.81
469.50	9254.48
469.69	9413.63
469.87	9802.16
470.05	9788.12
470.23	9769.40
470.41	9774.08
470.59	9853.66
470.77	9818.55
470.95	9905.15
471.14	9860.68
471.32	9591.52
471.50	10200.05
471.68	10303.04
471.86	10176.65
472.04	10160.27
472.22	10361.55
472.40	10036.22
472.58	10225.80
472.77	10281.97
472.95	10347.51
473.13	10675.18
473.31	10296.02
473.49	10368.57
473.67	10321.76
473.85	10705.61
474.03	10768.80
474.21	10658.80
474.39	11084.78
474.57	10885.83
474.75	11037.97
474.93	10883.49
475.12	10970.09
475.30	11089.46
475.48	11140.95
475.66	11190.10
475.84	11070.73
476.02	11122.23
476.20	11337.56
476.38	11447.56
476.56	11644.17
476.74	11754.17
476.92	11730.76
477.10	11651.19
477.28	11929.71
477.46	11634.80
477.64	11889.92
477.82	11976.52
478.00	12102.91
478.18	12458.67
478.36	12437.61
478.54	12634.21
478.72	12362.71
478.90	12727.83
479.08	12837.84
479.26	12994.65
479.44	12678.68
479.62	13067.21
479.80	13348.08
479.98	13242.75
480.16	13268.50
480.34	13160.83
480.52	13610.22
480.70	13694.47
480.88	13322.33
481.06	13575.11
481.24	13900.44
481.41	14033.85
481.59	14118.11
481.77	14090.02
481.95	13973.00
482.13	14326.42
482.31	14448.13
482.49	14827.29
482.67	14602.60
482.85	14640.05
483.03	14831.97
483.21	14963.04
483.39	15480.30
483.57	15136.24
483.74	15328.17
483.92	15250.93
484.10	15164.33
484.28	15660.52
484.46	15569.24
484.64	16294.81
484.82	15637.12
485.00	16123.95
485.18	16315.87
485.35	16187.14
485.53	15969.48
485.71	15857.13
485.89	15971.82
486.07	16173.10
486.25	16039.69
486.43	16592.06
486.61	16893.99
486.78	17013.35
486.96	17130.38
487.14	17570.40
487.32	17418.27
487.50	17612.53
487.68	17972.97
487.85	17961.27
488.03	18157.88
488.21	18335.76
488.39	18450.44
488.57	18415.34
488.75	18558.11
488.92	18855.36
489.10	19110.47
489.28	19166.65
489.46	19143.24
489.64	19274.31
489.81	19709.65
489.99	19798.59
490.17	19800.93
490.35	20180.10
490.53	19852.42
490.70	19992.86
490.88	19992.86
491.06	20603.74
491.24	20397.77
491.41	20365.00
491.59	20528.84
491.77	20664.59
491.95	21104.61
492.13	21055.46
492.30	21256.75
492.48	21502.50
492.66	21401.86
492.84	21598.46
493.01	21589.10
493.19	21759.96
493.37	21970.61
493.54	22263.18
493.72	22272.54
493.90	22057.21
494.08	22511.27
494.25	22654.05
494.43	22993.42
494.61	22862.35
494.79	23138.54
494.96	22764.05
495.14	23133.86
495.32	23323.44
495.49	23758.78
495.67	23676.86
495.85	23756.44
496.02	23660.48
496.20	24077.09
496.38	24294.76
496.55	24367.32
496.73	24978.20
496.91	24173.05
497.09	24905.64
497.26	24645.84
497.44	25083.52
497.62	24774.57
497.79	24797.98
497.97	24910.32
498.14	25530.56
498.32	25137.35
498.50	25366.73
498.67	25638.23
498.85	25490.77
499.03	25951.86
499.20	25958.88
499.38	25795.04
499.56	26118.04
499.73	25996.33
499.91	26022.08
500.08	26302.94
500.26	26143.78
500.44	26469.12
500.61	26284.22
500.79	26441.03
500.97	26377.84
501.14	27180.64
501.32	26511.25
501.49	26869.35
501.67	26511.25
501.84	26778.07
502.02	26813.18
502.20	27473.21
502.37	27658.11
502.55	27447.46
502.72	27529.38
502.90	27625.34
503.07	27634.71
503.25	27843.01
503.43	27784.50
503.60	27789.18
503.78	27679.18
503.95	27793.86
504.13	27899.19
504.30	28278.35
504.48	28240.90
504.65	28526.45
504.83	28912.64
505.01	28563.90
505.18	28891.57
505.36	29193.50
505.53	29104.56
505.71	29373.72
505.88	29481.39
506.06	28769.86
506.23	29174.78
506.41	29095.20
506.58	29766.93
506.76	29603.10
506.93	29586.71
507.11	29731.83
507.28	29528.20
507.46	29788.00
507.63	29762.25
507.81	29832.47
507.98	29722.46
508.16	30394.20
508.33	30410.58
508.50	30272.49
508.68	30789.75
508.85	30927.84
509.03	30775.70
509.20	30689.10
509.38	30731.23
509.55	30927.84
509.73	31129.12
509.90	30878.69
510.08	30923.16
510.25	30808.47
510.42	31433.39
510.60	31644.04
510.77	31541.06
510.95	31721.28
511.12	31585.53
511.30	31917.89
511.47	32112.15
511.64	32030.23
511.82	32299.39
511.99	31875.76
512.17	31873.42
512.34	31971.72
512.51	32163.64
512.69	32175.34
512.86	32231.52
513.04	32723.03
513.21	31985.76
513.38	31899.16
513.56	32257.26
513.73	32493.66
513.90	32657.49
514.08	32701.96
514.25	32332.16
514.43	32577.92
514.60	32957.08
514.77	33069.43
514.95	33455.62
515.12	33069.43
515.29	33071.77
515.47	33659.24
515.64	33893.30
515.81	33584.35
515.99	33708.40
516.16	33582.01
516.33	33141.99
516.51	33408.81
516.68	33071.77
516.85	33186.46
517.03	33448.60
517.20	33680.31
517.37	33308.16
517.54	33949.47
517.72	34040.75
517.89	33179.43
518.06	33888.62
518.24	33975.22
518.41	33940.11
518.58	34408.22
518.75	34401.19
518.93	34284.17
519.10	34380.13
519.27	34504.18
519.45	34607.16
519.62	34579.07
519.79	34572.05
519.96	35182.93
520.14	34974.63
520.31	35079.95
520.48	35157.19
520.65	35569.12
520.83	35763.39
521.00	35754.02
521.17	35278.89
521.34	35330.39
521.52	35665.08
521.69	35894.46
521.86	36039.57
522.03	35967.01
522.20	36121.49
522.38	35976.37
522.55	36165.96
522.72	35945.95
522.89	36294.69
523.07	36156.60
523.24	36446.82
523.41	36664.49
523.58	36690.24
523.75	36725.35
523.92	36549.81
524.10	37144.30
524.27	37331.54
524.44	36758.11
524.61	37188.77
524.78	36971.10
524.96	37532.83
525.13	37366.65
525.30	37343.25
525.47	37493.04
525.64	37567.94
525.81	37258.99
525.98	37170.05
526.16	36851.73
526.33	36940.68
526.50	37368.99
526.67	36561.51
526.84	37338.57
527.01	36975.78
527.18	37539.85
527.36	37928.38
527.53	37947.11
527.70	38199.88
527.87	38085.20
528.04	38108.60
528.21	38426.92
528.38	37970.51
528.55	38249.03
528.72	38174.14
528.89	38415.21
529.07	38408.19
529.24	38340.32
529.41	38335.63
529.58	38635.22
529.75	37919.02
529.92	38742.89
530.09	38686.71
530.26	38934.81
530.43	39159.50
530.60	38651.61
530.77	39143.12
530.94	38923.11
531.11	39615.91
531.28	39220.36
531.46	39662.72
531.63	39112.69
531.80	39061.20
531.97	38955.88
532.14	38848.21
532.31	39164.18
532.48	39122.05
532.65	39271.85
532.82	39339.72
532.99	39391.22
533.16	39199.29
533.33	39590.16
533.50	39484.84
533.67	39868.69
533.84	39735.27
534.01	39714.21
534.18	39831.24
534.35	40301.68
534.52	39756.34
534.69	40011.46
534.86	40060.61
535.03	39971.67
535.20	40135.51
535.37	40877.46
535.54	40732.34
535.71	40594.25
535.88	40629.36
536.05	40032.52
536.22	41053.00
536.38	40512.33
536.55	40493.61
536.72	40388.28
536.89	40449.14
537.06	40533.40
537.23	40737.02
537.40	40659.79
537.57	40884.48
537.74	40414.03
537.91	40921.93
538.08	40849.37
538.25	40774.47
538.42	41228.54
538.59	40903.20
538.75	40905.54
538.92	40811.92
539.09	41392.37
539.26	41006.19
539.43	41057.68
539.60	41144.28
539.77	41303.43
539.94	41347.90
540.11	41418.12
540.28	41322.16
540.44	40921.93
540.61	41174.70
540.78	41383.01
540.95	40748.73
541.12	41415.78
541.29	41579.62
541.46	41640.47
541.62	41713.03
541.79	41687.28
541.96	41350.24
542.13	41607.70
542.30	41696.64
542.47	41893.25
542.63	41874.52
542.80	42036.02
542.97	42419.87
543.14	42366.04
543.31	42387.10
543.48	42204.54
543.64	42979.26
543.81	42756.91
543.98	42728.82
544.15	42691.37
544.32	42693.71
544.48	43358.42
544.65	42464.34
544.82	42485.40
544.99	42029.00
545.16	42508.81
545.32	42735.84
545.49	42920.74
545.66	43749.29
545.83	42944.15
546.00	43210.97
546.16	42689.03
546.33	42927.77
546.50	42623.50
546.67	42815.42
546.83	42628.18
547.00	43136.07
547.17	43115.01
547.34	42897.34
547.50	43072.88
547.67	43372.47
547.84	43552.69
548.00	43753.97
548.17	43339.70
548.34	43791.42
548.51	43433.32
548.67	43697.80
548.84	43861.64
549.01	43328.00
549.18	43545.67
549.34	43510.56
549.51	43613.54
549.68	43548.01
549.84	43711.84
550.01	43800.79
550.18	43250.76
550.34	43688.44
550.51	43817.17
550.68	43702.48
550.84	43456.73
551.01	43824.19
551.18	43435.66
551.34	43817.17
551.51	43990.37
551.68	43868.66
551.84	44198.68
552.01	43817.17
552.18	44098.03
552.34	44285.28
552.51	44271.23
552.68	44315.70
552.84	44580.18
553.01	44547.42
553.18	44044.20
553.34	44086.33
553.51	43952.92
553.67	44074.63
553.84	44245.49
554.01	44516.99
554.17	44168.25
554.34	44318.04
554.51	44306.34
554.67	44753.38
554.84	44512.31
555.00	44346.13
555.17	44617.63
555.33	44526.35
555.50	44458.48
555.67	44404.64
555.83	44545.08
556.00	44203.36
556.16	45013.18
556.33	44591.89
556.50	44624.65
556.66	44783.81
556.83	44437.41
556.99	44830.62
557.16	45074.04
557.32	44931.26
557.49	45382.99
557.65	44861.05
557.82	44739.34
557.98	44952.33
558.15	44971.05
558.32	44814.24
558.48	44762.75
558.65	44631.68
558.81	44385.92
558.98	44624.65
559.14	44914.88
559.31	44767.43
559.47	44968.71
559.64	44835.30
559.80	45031.91
559.97	45034.25
560.13	45008.50
560.30	45195.74
560.46	45041.27
560.63	45139.57
560.79	45649.81
560.96	45469.59
561.12	45235.53
561.29	45375.97
561.45	44676.15
561.61	44933.60
561.78	45544.48
561.94	45272.98
562.11	45057.65
562.27	45081.06
562.44	45549.17
562.60	45572.57
562.77	45544.48
562.93	45106.80
563.10	45436.82
563.26	44898.50
563.42	45481.29
563.59	45202.77
563.75	45195.74
563.92	45443.84
564.08	45439.16
564.24	45804.28
564.41	45684.92
564.57	45308.09
564.74	45230.85
564.90	45663.85
565.07	45521.08
565.23	45425.12
565.39	45488.31
565.56	45617.04
565.72	45380.65
565.88	45722.37
566.05	45291.71
566.21	45720.02
566.38	45752.79
566.54	45631.08
566.70	45600.66
566.87	46195.15
567.03	45652.15
567.19	45701.30
567.36	45734.07
567.52	45701.30
567.68	45750.45
567.85	45441.50
568.01	45677.90
568.17	45455.54
568.34	45689.60
568.50	45691.94
568.66	45551.51
568.83	46059.40
568.99	45415.76
569.15	45614.70
569.32	45464.91
569.48	45570.23
569.64	45951.74
569.81	45724.71
569.97	45565.55
570.13	46026.63
570.30	45565.55
570.46	45659.17
570.62	45729.39
570.78	45574.91
570.95	45963.44
571.11	45942.38
571.27	45460.23
571.43	45804.28
571.60	46024.29
571.76	45797.26
571.92	45813.65
572.09	45879.18
572.25	45776.20
572.41	45574.91
572.57	45794.92
572.74	46167.07
572.90	45841.73
573.06	45663.85
573.22	45804.28
573.38	45500.01
573.55	45467.25
573.71	45860.46
573.87	45956.42
574.03	46204.52
574.20	45963.44
574.36	45635.77
574.52	45890.88
574.68	45933.01
574.84	45605.34
575.01	45691.94
575.17	45640.45
575.33	45497.67
575.49	45628.74
575.65	46066.42
575.82	45907.27
575.98	46181.11
576.14	46040.68
576.30	45794.92
576.46	46183.45
576.62	45780.88
576.79	46061.74
576.95	45949.40
577.11	46106.21
577.27	45595.98
577.43	45406.39
577.59	45860.46
577.75	45619.38
577.92	45457.88
578.08	45544.48
578.24	45696.62
578.40	46075.79
578.56	45553.85
578.72	45890.88
578.88	46157.70
579.04	45663.85
579.21	46115.58
579.37	45942.38
579.53	45755.13
579.69	45413.41
579.85	45780.88
580.01	45755.13
580.17	45858.12
580.33	46370.69
580.49	45713.00
580.65	46038.34
580.82	46459.63
580.98	45567.89
581.14	45579.59
581.30	46328.56
581.46	46127.28
581.62	46377.72
581.78	45989.19
581.94	46270.05
582.10	45897.91
582.26	46127.28
582.42	46003.23
582.58	46075.79
582.74	45832.37
582.90	46108.55
583.06	46567.30
583.22	46270.05
583.38	46403.46
583.54	46312.18
583.70	46527.51
583.86	46024.29
584.02	45504.70
584.18	45886.20
584.34	46284.09
584.50	46169.41
584.66	45811.31
584.82	46117.92
584.98	46487.72
585.14	46206.86
585.30	46220.90
585.46	45951.74
585.62	46000.89
585.78	45853.44
585.94	45291.71
586.10	46059.40
586.26	45811.31
586.42	46539.21
586.58	46291.12
586.74	46059.40
586.90	45940.04
587.06	45689.60
587.22	46115.58
587.38	45963.44
587.54	46057.06
587.70	46445.59
587.86	46335.59
588.02	46239.62
588.18	46281.75
588.34	45970.46
588.49	45521.08
588.65	45364.26
588.81	45380.65
588.97	45553.85
589.13	45649.81
589.29	46047.70
589.45	45977.48
589.61	45944.72
589.77	46244.30
589.93	45968.12
590.08	46241.96
