SpectraSuite Data File
++++++++++++++++++++++++++++++++++++
Date: Fri Oct 25 11:23:30 EDT 2013
User: price-jones
Dark Spectrum Present: No
Reference Spectrum Present: No
Number of Sampled Component Spectra: 1
Spectrometers: USB2+H05261
Integration Time (usec): 100000 (USB2+H05261)
Spectra Averaged: 1 (USB2+H05261)
Boxcar Smoothing: 0 (USB2+H05261)
Correct for Electrical Dark: No (USB2+H05261)
Strobe/Lamp Enabled: No (USB2+H05261)
Correct for Detector Non-linearity: No (USB2+H05261)
Correct for Stray Light: No (USB2+H05261)
Number of Pixels in Processed Spectrum: 2048
>>>>>Begin Processed Spectral Data<<<<<
365.73	248.10
365.92	248.10
366.12	248.10
366.32	138.09
366.52	133.41
366.72	133.41
366.91	44.47
367.11	154.48
367.31	98.30
367.51	98.30
367.70	121.71
367.90	121.71
368.10	168.52
368.30	166.18
368.49	114.69
368.69	203.63
368.89	93.62
369.09	180.22
369.28	180.22
369.48	140.43
369.68	145.11
369.87	182.56
370.07	156.82
370.27	110.01
370.47	325.33
370.66	608.54
370.86	624.92
371.06	671.73
371.25	727.91
371.45	615.56
371.65	699.82
371.84	678.76
372.04	713.86
372.24	681.10
372.44	692.80
372.63	720.88
372.83	744.29
373.03	765.36
373.22	739.61
373.42	748.97
373.62	744.29
373.81	763.01
374.01	791.10
374.21	821.53
374.40	858.98
374.60	847.27
374.79	821.53
374.99	812.17
375.19	772.38
375.38	772.38
375.58	779.40
375.78	844.93
375.97	873.02
376.17	875.36
376.37	812.17
376.56	833.23
376.76	812.17
376.95	929.19
377.15	908.13
377.35	931.53
377.54	840.25
377.74	903.45
377.93	877.70
378.13	858.98
378.33	903.45
378.52	891.74
378.72	887.06
378.91	882.38
379.11	894.08
379.31	851.96
379.50	910.47
379.70	861.32
379.89	957.28
380.09	1001.75
380.28	990.05
380.48	961.96
380.68	1013.45
380.87	1013.45
381.07	950.26
381.26	1015.79
381.46	1100.05
381.65	1013.45
381.85	1050.90
382.04	973.66
382.24	1116.44
382.43	1025.15
382.63	1015.79
382.83	994.73
383.02	945.58
383.22	1144.52
383.41	1078.99
383.61	1097.71
383.80	1153.88
384.00	1146.86
384.19	1137.50
384.39	1132.82
384.58	1095.37
384.78	1132.82
384.97	1165.59
385.17	1095.37
385.36	1069.62
385.56	1118.78
385.75	1224.10
385.95	1149.20
386.14	1172.61
386.34	1203.04
386.53	1191.33
386.72	1196.01
386.92	1233.46
387.11	1249.85
387.31	1184.31
387.50	1191.33
387.70	1233.46
387.89	1268.57
388.09	1263.89
388.28	1275.59
388.48	1294.32
388.67	1338.79
388.86	1291.98
389.06	1420.71
389.25	1240.48
389.45	1322.40
389.64	1287.29
389.84	1378.58
390.03	1401.98
390.22	1409.00
390.42	1341.13
390.61	1416.02
390.81	1420.71
391.00	1409.00
391.19	1448.79
391.39	1401.98
391.58	1474.54
391.78	1432.41
391.97	1432.41
392.16	1486.24
392.36	1511.99
392.55	1444.11
392.75	1544.75
392.94	1493.26
393.13	1537.73
393.33	1575.18
393.52	1577.52
393.71	1563.48
393.91	1563.48
394.10	1617.31
394.29	1549.43
394.49	1577.52
394.68	1701.57
394.88	1631.35
395.07	1626.67
395.26	1645.40
395.46	1694.55
395.65	1736.68
395.84	1720.29
396.04	1865.41
396.23	1804.55
396.42	1710.93
396.62	1717.95
396.81	1710.93
397.00	1746.04
397.19	1788.17
397.39	1830.30
397.58	1783.49
397.77	1760.08
397.97	1881.79
398.16	1830.30
398.35	1921.58
398.55	1839.66
398.74	1895.83
398.93	1893.49
399.12	1895.83
399.32	1909.88
399.51	1853.70
399.70	1996.48
399.90	2022.22
400.09	1952.01
400.28	1998.82
400.47	1987.11
400.67	2017.54
400.86	2078.40
401.05	2071.37
401.24	2050.31
401.44	2090.10
401.63	2064.35
401.82	2230.53
402.01	2120.53
402.21	2225.85
402.40	2073.71
402.59	2209.47
402.78	2277.34
402.97	2232.87
403.17	2279.68
403.36	2282.02
403.55	2272.66
403.74	2328.83
403.93	2403.73
404.13	2377.98
404.32	2211.81
404.51	2354.58
404.70	2396.71
404.89	2459.90
405.09	2459.90
405.28	2490.33
405.47	2504.37
405.66	2567.57
405.85	2586.29
406.05	2408.41
406.24	2583.95
406.43	2602.68
406.62	2719.70
406.81	2637.78
407.00	2551.18
407.20	2677.57
407.39	2605.02
407.58	2712.68
407.77	2649.49
407.96	2656.51
408.15	2733.75
408.34	2724.38
408.54	2782.90
408.73	2778.22
408.92	2829.71
409.11	3110.57
409.30	2892.90
409.49	2832.05
409.68	2970.14
409.87	3007.59
410.07	3021.63
410.26	2965.46
410.45	2995.89
410.64	3098.87
410.83	3103.55
411.02	3096.53
411.21	3239.30
411.40	3126.96
411.59	3075.46
411.78	3122.27
411.98	3171.43
412.17	3279.09
412.36	3211.22
412.55	3400.80
412.74	3503.78
412.93	3412.50
413.12	3396.12
413.31	3510.80
413.50	3531.87
413.69	3501.44
413.88	3578.68
414.07	3548.25
414.26	3655.92
414.45	3655.92
414.64	3733.15
414.83	3705.07
415.02	3730.81
415.22	3831.46
415.41	3700.39
415.60	3819.75
415.79	3908.69
415.98	4030.40
416.17	3908.69
416.36	3854.86
416.55	4009.34
416.74	4173.18
416.93	4084.23
417.12	4028.06
417.31	4264.46
417.50	4166.15
417.69	4334.67
417.88	4283.18
418.07	4355.74
418.26	4348.72
418.45	4276.16
418.64	4517.23
418.83	4355.74
419.02	4440.00
419.21	4561.70
419.39	4535.96
419.58	4475.10
419.77	4409.57
419.96	4793.42
420.15	4634.26
420.34	4669.37
420.53	4652.98
420.72	4697.46
420.91	4713.84
421.10	4793.42
421.29	4926.83
421.48	4667.03
421.67	4786.40
421.86	4786.40
422.05	4718.52
422.24	4868.31
422.43	4884.70
422.61	4936.19
422.80	4849.59
422.99	4910.44
423.18	4947.89
423.37	5078.96
423.56	4863.63
423.75	4863.63
423.94	4851.93
424.13	4655.33
424.32	4711.50
424.50	5027.47
424.69	4975.98
424.88	5125.77
425.07	5004.07
425.26	4985.34
425.45	4975.98
425.64	4987.68
425.83	5085.98
426.01	5093.01
426.20	5245.14
426.39	5174.92
426.58	5135.14
426.77	4983.00
426.96	5135.14
427.15	5151.52
427.33	5235.78
427.52	5090.67
427.71	5179.61
427.90	5149.18
428.09	5305.99
428.28	5371.53
428.46	5242.80
428.65	5390.25
428.84	5476.85
429.03	5565.79
429.22	5439.40
429.40	5495.58
429.59	5568.13
429.78	5329.40
429.97	5294.29
430.16	5528.35
430.34	5476.85
430.53	5729.63
430.72	5668.78
430.91	5643.03
431.10	5617.29
431.28	5795.17
431.47	5783.46
431.66	5919.21
431.85	5631.33
432.03	5926.24
432.22	6015.18
432.41	5989.43
432.60	5919.21
432.79	5968.37
432.97	5949.64
433.16	6186.04
433.35	6115.82
433.54	6101.78
433.72	6118.16
433.91	6092.41
434.10	6106.46
434.28	6043.26
434.47	6167.31
434.66	6431.79
434.85	6392.00
435.03	6326.47
435.22	6181.35
435.41	6553.50
435.59	6415.41
435.78	6537.12
435.97	6651.80
436.16	6487.96
436.34	6492.65
436.53	6555.84
436.72	6869.47
436.90	6394.34
437.09	6743.08
437.28	6544.14
437.46	6803.94
437.65	6593.29
437.84	6717.34
438.02	6864.79
438.21	6841.39
438.40	6672.87
438.58	7126.93
438.77	7073.10
438.96	7028.63
439.14	7131.61
439.33	7190.13
439.52	7272.04
439.70	7386.73
439.89	7569.29
440.08	7377.37
440.26	7482.69
440.45	7309.49
440.63	7475.67
440.82	7819.73
441.01	7569.29
441.19	7604.40
441.38	7660.57
441.57	7660.57
441.75	7838.45
441.94	8042.08
442.12	7941.44
442.31	7960.16
442.50	8138.04
442.68	7950.80
442.87	7906.33
443.05	8079.53
443.24	8109.96
443.43	8175.49
443.61	8205.92
443.80	8395.50
443.98	8016.33
444.17	7840.79
444.35	8180.17
444.54	8411.89
444.73	8358.05
444.91	8252.73
445.10	8439.97
445.28	8217.62
445.47	8332.31
445.65	8397.84
445.84	8510.19
446.02	8482.10
446.21	8421.25
446.39	8360.39
446.58	8505.51
446.77	8603.81
446.95	8486.78
447.14	8409.54
447.32	8589.77
447.51	8482.10
447.69	8580.40
447.88	8500.83
448.06	8505.51
448.25	8561.68
448.43	8400.18
448.62	8777.01
448.80	8678.71
448.99	8671.68
449.17	8875.31
449.36	8767.65
449.54	8723.18
449.73	8959.57
449.91	9125.75
450.10	9022.77
450.28	9188.94
450.46	8971.27
450.65	8961.91
450.83	9114.05
451.02	9144.47
451.20	9060.21
451.39	9118.73
451.57	8912.76
451.76	9100.00
451.94	9245.12
452.13	9298.95
452.31	9399.59
452.49	9411.29
452.68	9397.25
452.86	9336.40
453.05	9453.42
453.23	9579.81
453.42	9408.95
453.60	9315.33
453.78	9797.48
453.97	9607.90
454.15	9511.94
454.34	9331.72
454.52	9738.97
454.70	9745.99
454.89	9912.17
455.07	9792.80
455.26	9720.24
455.44	9783.44
455.62	9846.63
455.81	9834.93
455.99	9919.19
456.17	10022.17
456.36	10005.79
456.54	10211.76
456.73	10085.37
456.91	10532.41
457.09	10324.10
457.28	10333.47
457.46	10544.11
457.64	10661.14
457.83	10750.08
458.01	10361.55
458.19	10661.14
458.38	10193.03
458.56	10813.28
458.74	10747.74
458.93	10780.51
459.11	10787.53
459.29	10707.95
459.48	10815.62
459.66	10656.46
459.84	11089.46
460.03	11026.26
460.21	11075.42
460.39	10951.37
460.57	11159.67
460.76	11192.44
460.94	11286.06
461.12	11356.28
461.31	11325.85
461.49	11257.98
461.67	11206.48
461.85	11342.24
462.04	11089.46
462.22	11796.30
462.40	11667.57
462.59	11363.30
462.77	11496.71
462.95	11602.04
463.13	11688.64
463.32	11515.44
463.50	11789.28
463.68	11552.88
463.86	11939.07
464.05	11707.36
464.23	11686.29
464.41	11953.12
464.59	11602.04
464.78	12208.23
464.96	11981.20
465.14	11824.39
465.32	12241.00
465.50	12156.74
465.69	12332.28
465.87	12100.57
466.05	12138.02
466.23	12252.70
466.41	12046.74
466.60	12498.46
466.78	12046.74
466.96	12468.03
467.14	12098.23
467.32	12423.56
467.51	12571.02
467.69	11964.82
467.87	12428.24
468.05	12741.88
468.23	12336.96
468.41	12531.23
468.60	12587.40
468.78	12711.45
468.96	12720.81
469.14	12760.60
469.32	13050.83
469.50	12718.47
469.69	12926.78
469.87	13242.75
470.05	13090.62
470.23	13099.98
470.41	13305.95
470.59	13350.42
470.77	13109.34
470.95	13308.29
471.14	13394.89
471.32	13228.71
471.50	13348.08
471.68	13823.20
471.86	13642.98
472.04	13884.06
472.22	13954.27
472.40	13839.59
472.58	14073.64
472.77	14080.66
472.95	14265.57
473.13	14733.67
473.31	14216.41
473.49	14373.23
473.67	14235.14
473.85	14455.15
474.03	14724.31
474.21	14668.14
474.39	14906.87
474.57	14853.04
474.75	15023.90
474.93	15297.74
475.12	14693.88
475.30	15190.08
475.48	15042.62
475.66	14930.28
475.84	15201.78
476.02	15367.96
476.20	15545.84
476.38	15681.59
476.56	15943.73
476.74	16229.27
476.92	16025.65
477.10	15697.97
477.28	16266.72
477.46	16098.20
477.64	16479.71
477.82	16599.08
478.00	17095.27
478.18	16957.18
478.36	17039.10
478.54	16905.69
478.72	17462.74
478.90	17282.52
479.08	17493.16
479.26	17738.92
479.44	17687.43
479.62	17933.18
479.80	18207.03
479.98	18338.10
480.16	18611.94
480.34	18661.09
480.52	18682.16
480.70	18892.80
480.88	18380.23
481.06	19133.88
481.24	18916.21
481.41	18967.70
481.59	19489.64
481.77	19440.49
481.95	19393.68
482.13	19487.30
482.31	19719.01
482.49	20201.16
482.67	20018.60
482.85	20655.23
483.03	20559.27
483.21	20900.98
483.39	20828.43
483.57	20751.19
483.74	21195.89
483.92	21504.84
484.10	21240.36
484.28	21614.85
484.46	22354.46
484.64	22281.90
484.82	21851.24
485.00	22408.29
485.18	22862.35
485.35	22970.02
485.53	22883.42
485.71	23131.51
485.89	23414.72
486.07	23201.73
486.25	23206.41
486.43	23784.52
486.61	24191.78
486.78	23695.58
486.96	24269.01
487.14	24320.51
487.32	24671.59
487.50	25022.67
487.68	25348.00
487.85	25572.69
488.03	25539.93
488.21	25617.16
488.39	25862.92
488.57	26466.78
488.75	26366.13
488.92	26735.94
489.10	26780.41
489.28	26958.29
489.46	27159.58
489.64	27061.27
489.81	27779.82
489.99	27360.86
490.17	27983.44
490.35	28287.71
490.53	28290.06
490.70	28481.98
490.88	28629.43
491.06	28765.18
491.24	28821.36
491.41	29153.71
491.59	29525.86
491.77	29422.87
491.95	29340.96
492.13	29792.68
492.30	30029.07
492.48	30204.61
492.66	30536.97
492.84	30574.42
493.01	30974.65
493.19	31082.31
493.37	31288.28
493.54	30728.89
493.72	31854.69
493.90	31271.90
494.08	31772.77
494.25	32280.67
494.43	32264.28
494.61	32130.87
494.79	32191.73
494.96	32865.80
495.14	33067.09
495.32	33184.12
495.49	33390.08
495.67	33413.49
495.85	33572.64
496.02	33717.76
496.20	34113.31
496.38	34087.56
496.55	34181.18
496.73	34948.88
496.91	34569.71
497.09	35016.75
497.26	35096.33
497.44	34944.20
497.62	34995.69
497.79	36247.88
497.97	35854.67
498.14	36046.59
498.32	36318.09
498.50	36521.72
498.67	36804.92
498.85	36877.48
499.03	36830.67
499.20	36790.88
499.38	37055.36
499.56	36816.63
499.73	37432.19
499.91	37258.99
500.08	37912.00
500.26	37549.21
500.44	37462.61
500.61	38101.58
500.79	37694.33
500.97	38160.09
501.14	38806.08
501.32	38663.31
501.49	39316.32
501.67	39112.69
501.84	39208.65
502.02	39098.65
502.20	39225.04
502.37	39629.95
502.55	39526.97
502.72	39620.59
502.90	39526.97
503.07	39590.16
503.25	39835.92
503.43	40257.21
503.60	39842.94
503.78	40172.96
503.95	40533.40
504.13	40676.17
504.30	40926.61
504.48	40203.38
504.65	41130.23
504.83	41359.61
505.01	41429.82
505.18	41102.15
505.36	41762.18
505.53	41153.64
505.71	41773.88
505.88	42101.56
506.06	41392.37
506.23	42029.00
506.41	42061.77
506.58	42195.18
506.76	42569.66
506.93	42693.71
507.11	42366.04
507.28	42419.87
507.46	43044.79
507.63	43283.53
507.81	43501.20
507.98	43056.50
508.16	42960.53
508.33	43531.62
508.50	44231.44
508.68	43749.29
508.85	43971.64
509.03	44254.85
509.20	44203.36
509.38	44732.32
509.55	44304.00
509.73	44495.92
509.90	44952.33
510.08	44765.09
510.25	44549.76
510.42	45017.86
510.60	44971.05
510.77	45406.39
510.95	45635.77
511.12	44570.82
511.30	45549.17
511.47	45668.53
511.64	45488.31
511.82	45869.82
511.99	45595.98
512.17	46373.03
512.34	46176.43
512.51	46871.57
512.69	46197.49
512.86	46557.94
513.04	46869.23
513.21	46955.83
513.38	46976.89
513.56	46817.74
513.73	46880.93
513.90	47159.45
514.08	46583.68
514.25	47250.74
514.43	47480.11
514.60	47421.59
514.77	47503.51
514.95	47966.94
515.12	47758.63
515.29	47571.39
515.47	48128.44
515.64	47988.00
515.81	47992.68
515.99	48083.97
516.16	48516.96
516.33	48470.15
516.51	48832.94
516.68	48755.70
516.85	48385.89
517.03	49041.24
517.20	48844.64
517.37	48617.61
517.54	48872.73
517.72	49151.25
517.89	48800.17
518.06	49710.64
518.24	49724.68
518.41	49432.11
518.58	49642.76
518.75	49752.77
518.93	49544.46
519.10	49762.13
519.27	49977.46
519.45	49549.14
519.62	50148.32
519.79	49851.07
519.96	50167.04
520.14	50562.59
520.31	50225.56
520.48	50672.60
520.65	50475.99
520.83	50703.03
521.00	51047.08
521.17	50656.21
521.34	50763.88
521.52	50532.17
521.69	50696.00
521.86	51330.29
522.03	51487.10
522.20	51262.41
522.38	51931.81
522.55	51217.94
522.72	51641.58
522.89	51447.32
523.07	51676.69
523.24	51402.85
523.41	51896.70
523.58	51379.44
523.75	52231.40
523.92	52112.03
524.10	52303.95
524.27	52329.70
524.44	51927.13
524.61	52273.52
524.78	52315.65
524.96	52348.42
525.13	52409.28
525.30	52516.94
525.47	52479.49
525.64	52453.75
525.81	52538.01
525.98	52790.78
526.16	52694.82
526.33	52563.75
526.50	53153.57
526.67	52989.73
526.84	53055.26
527.01	53036.54
527.18	52844.62
527.36	52683.12
527.53	52882.06
527.70	53572.52
527.87	53560.82
528.04	53219.10
528.21	53614.65
528.38	53371.24
528.55	53748.06
528.72	53476.56
528.89	53731.68
529.07	53558.48
529.24	53724.66
529.41	53614.65
529.58	53741.04
529.75	53872.11
529.92	53748.06
530.09	53904.88
530.26	53858.07
530.43	53986.80
530.60	53626.35
530.77	54026.59
530.94	54288.73
531.11	54199.79
531.28	54305.11
531.46	54316.81
531.63	54223.19
531.80	54457.24
531.97	54471.29
532.14	54578.95
532.31	54583.63
532.48	54642.15
532.65	54810.67
532.82	54197.44
532.99	54710.02
533.16	54688.96
533.33	55136.00
533.50	54890.24
533.67	54988.55
533.84	54997.91
534.01	54944.08
534.18	55213.24
534.35	55302.18
534.52	55344.31
534.69	55304.52
534.86	55636.87
535.03	55021.31
535.20	55159.41
535.37	55344.31
535.54	55646.24
535.71	55370.05
535.88	55559.64
536.05	55487.08
536.22	55662.62
536.38	55688.37
536.55	55693.05
536.72	55632.19
536.89	55662.62
537.06	55714.11
537.23	55817.10
537.40	55629.85
537.57	55746.88
537.74	55739.86
537.91	56210.31
538.08	56182.22
538.25	55742.20
538.42	55931.78
538.59	56147.11
538.75	56214.99
538.92	56102.64
539.09	56306.27
539.26	56104.98
539.43	56212.65
539.60	56341.38
539.77	56271.16
539.94	56376.48
540.11	56446.70
540.28	56851.61
540.44	56638.62
540.61	56324.99
540.78	56493.51
540.95	56584.79
541.12	56786.08
541.29	56619.90
541.46	56603.52
541.62	56573.09
541.79	56741.61
541.96	56329.67
542.13	56664.37
542.30	56626.92
542.47	57043.54
542.63	56802.46
542.80	57162.90
542.97	57148.86
543.14	57092.69
543.31	57088.01
543.48	57268.23
543.64	57448.45
543.81	57488.24
543.98	57558.45
544.15	57553.77
544.32	57607.61
544.48	57703.57
544.65	57378.23
544.82	57729.31
544.99	57343.12
545.16	57375.89
545.32	57598.24
545.49	57853.36
545.66	57771.44
545.83	57666.12
546.00	57829.96
546.16	57729.31
546.33	57579.52
546.50	57535.05
546.67	57925.92
546.83	57609.95
547.00	57717.61
547.17	57804.21
547.34	57764.42
547.50	58174.02
547.67	58195.08
547.84	58059.33
548.00	58218.49
548.17	58291.04
548.34	58211.46
548.51	58241.89
548.67	58300.40
548.84	58248.91
549.01	58244.23
549.18	58384.66
549.34	58473.60
549.51	58447.86
549.68	58347.21
549.84	58480.63
550.01	58546.16
550.18	58319.13
550.34	58480.63
550.51	58539.14
550.68	58464.24
550.84	58295.72
551.01	58803.62
551.18	58625.74
551.34	58866.81
551.51	58578.93
551.68	58599.99
551.84	58637.44
552.01	58504.03
552.18	59011.93
552.34	58695.95
552.51	58805.96
552.68	58518.07
552.84	58796.60
553.01	58951.07
553.18	58838.73
553.34	58997.88
553.51	58674.89
553.67	58927.67
553.84	59084.48
554.01	59025.97
554.17	59128.95
554.34	59143.00
554.51	59236.62
554.67	59100.87
554.84	58997.88
555.00	59063.42
555.17	59262.36
555.33	59180.45
555.50	59002.56
555.67	59159.38
555.83	59105.55
556.00	59103.21
556.16	59334.92
556.33	59337.26
556.50	59215.55
556.66	59316.20
556.83	59133.63
556.99	59461.31
557.16	59676.64
557.32	59676.64
557.49	59791.33
557.65	59456.63
557.82	59407.48
557.98	59367.69
558.15	59550.25
558.32	59721.11
558.48	59288.11
558.65	59653.23
558.81	59650.89
558.98	59613.44
559.14	59646.21
559.31	59707.07
559.47	59587.70
559.64	59931.76
559.80	59784.30
559.97	59920.05
560.13	59774.94
560.30	59744.51
560.46	59824.09
560.63	59779.62
560.79	59840.48
560.96	59870.90
561.12	59973.89
561.29	60060.49
561.45	59667.28
561.61	59948.14
561.78	59973.89
561.94	59737.49
562.11	59880.27
562.27	60001.97
562.44	60240.71
562.60	60163.47
562.77	60060.49
562.93	59826.43
563.10	60072.19
563.26	60032.40
563.42	60336.67
563.59	59877.93
563.75	60137.72
563.92	60231.35
564.08	60156.45
564.24	60236.03
564.41	60247.73
564.57	60214.96
564.74	60329.65
564.90	60053.47
565.07	60210.28
565.23	60250.07
565.39	60264.11
565.56	60292.20
565.72	60310.92
565.88	60175.17
566.05	60196.24
566.21	60250.07
566.38	60467.74
566.54	60289.86
566.70	60491.15
566.87	60477.10
567.03	60104.96
567.19	60488.80
567.36	60200.92
567.52	60535.62
567.68	60383.48
567.85	60477.10
568.01	60591.79
568.17	60458.38
568.34	60640.94
568.50	60416.25
568.66	60425.61
568.83	60453.70
568.99	60310.92
569.15	60521.57
569.32	60409.23
569.48	60441.99
569.64	60467.74
569.81	60526.25
569.97	60680.73
570.13	60629.24
570.30	60341.35
570.46	60598.81
570.62	60549.66
570.78	60725.20
570.95	60460.72
571.11	60692.43
571.27	60460.72
571.43	60769.67
571.60	60676.05
571.76	60800.10
571.92	60781.37
572.09	60612.85
572.25	60465.40
572.41	60748.60
572.57	60692.43
572.74	60671.37
572.90	60697.11
573.06	60828.18
573.22	60467.74
573.38	60678.39
573.55	60924.14
573.71	60842.23
573.87	60701.79
574.03	60561.36
574.20	60669.03
574.36	60505.19
574.52	60891.38
574.68	60781.37
574.84	60907.76
575.01	60624.56
575.17	60750.94
575.33	60755.63
575.49	60633.92
575.65	60874.99
575.82	60921.80
575.98	60779.03
576.14	61212.03
576.30	60781.37
576.46	60860.95
576.62	60830.52
576.79	60877.33
576.95	60605.83
577.11	61043.51
577.27	60926.49
577.43	61223.73
577.59	60692.43
577.75	60874.99
577.92	60865.63
578.08	60924.14
578.24	60968.61
578.40	61015.43
578.56	61099.68
578.72	61017.77
578.88	61087.98
579.04	61197.99
579.21	61029.47
579.37	61237.78
579.53	61277.57
579.69	60673.71
579.85	60940.53
580.01	61038.83
580.17	60989.68
580.33	60973.30
580.49	60935.85
580.65	61080.96
580.82	60956.91
580.98	60823.50
581.14	60917.12
581.30	61179.26
581.46	60917.12
581.62	61071.60
581.78	61006.06
581.94	61078.62
582.10	61048.19
582.26	61153.52
582.42	60996.70
582.58	61055.21
582.74	60985.00
582.90	61109.05
583.06	61052.87
583.22	60781.37
583.38	61071.60
583.54	60935.85
583.70	61050.53
583.86	60928.83
584.02	60849.25
584.18	61448.42
584.34	61050.53
584.50	61247.14
584.66	60858.61
584.82	60970.96
584.98	61092.66
585.14	61076.28
585.30	60903.08
585.46	61085.64
585.62	61139.47
585.78	61123.09
585.94	60980.32
586.10	61029.47
586.26	61066.92
586.42	61216.71
586.58	61212.03
586.74	61041.17
586.90	61080.96
587.06	61034.15
587.22	61172.24
587.38	61263.52
587.54	61329.06
587.70	61247.14
587.86	61186.28
588.02	61139.47
588.18	61300.97
588.34	61310.33
588.49	61162.88
