SpectraSuite Data File
++++++++++++++++++++++++++++++++++++
Date: Fri Oct 25 11:25:01 EDT 2013
User: price-jones
Dark Spectrum Present: No
Reference Spectrum Present: No
Number of Sampled Component Spectra: 1
Spectrometers: USB2+H05261
Integration Time (usec): 100000 (USB2+H05261)
Spectra Averaged: 1 (USB2+H05261)
Boxcar Smoothing: 0 (USB2+H05261)
Correct for Electrical Dark: No (USB2+H05261)
Strobe/Lamp Enabled: No (USB2+H05261)
Correct for Detector Non-linearity: No (USB2+H05261)
Correct for Stray Light: No (USB2+H05261)
Number of Pixels in Processed Spectrum: 2048
>>>>>Begin Processed Spectral Data<<<<<
365.73	234.05
365.92	234.05
366.12	234.05
366.32	119.37
366.52	166.18
366.72	191.92
366.91	67.88
367.11	131.07
367.31	81.92
367.51	156.82
367.70	128.73
367.90	168.52
368.10	182.56
368.30	135.75
368.49	215.33
368.69	163.84
368.89	95.96
369.09	189.58
369.28	198.95
369.48	217.67
369.68	196.60
369.87	173.20
370.07	152.13
370.27	159.16
370.47	325.33
370.66	613.22
370.86	566.41
371.06	662.37
371.25	683.44
371.45	753.65
371.65	727.91
371.84	662.37
372.04	723.23
372.24	753.65
372.44	685.78
372.63	739.61
372.83	786.42
373.03	763.01
373.22	732.59
373.42	767.70
373.62	741.95
373.81	802.80
374.01	823.87
374.21	896.43
374.40	763.01
374.60	807.48
374.79	800.46
374.99	788.76
375.19	772.38
375.38	858.98
375.58	851.96
375.78	905.79
375.97	933.87
376.17	959.62
376.37	795.78
376.56	809.83
376.76	828.55
376.95	833.23
377.15	863.66
377.35	866.00
377.54	959.62
377.74	938.55
377.93	821.53
378.13	903.45
378.33	954.94
378.52	931.53
378.72	973.66
378.91	924.51
379.11	929.19
379.31	976.00
379.50	849.61
379.70	957.28
379.89	938.55
380.09	985.37
380.28	943.24
380.48	954.94
380.68	973.66
380.87	964.30
381.07	1046.22
381.26	1015.79
381.46	971.32
381.65	983.02
381.85	1004.09
382.04	1057.92
382.24	1062.60
382.43	1125.80
382.63	1043.88
382.83	1022.81
383.02	1071.97
383.22	1088.35
383.41	1069.62
383.61	1050.90
383.80	1158.57
384.00	1104.73
384.19	1062.60
384.39	1200.69
384.58	1111.75
384.78	1196.01
384.97	1128.14
385.17	1128.14
385.36	1041.54
385.56	1144.52
385.75	1114.10
385.95	1174.95
386.14	1210.06
386.34	1186.65
386.53	1188.99
386.72	1214.74
386.92	1357.51
387.11	1275.59
387.31	1233.46
387.50	1231.12
387.70	1315.38
387.89	1207.72
388.09	1226.44
388.28	1284.95
388.48	1301.34
388.67	1322.40
388.86	1406.66
389.06	1299.00
389.25	1352.83
389.45	1376.24
389.64	1315.38
389.84	1366.87
390.03	1380.92
390.22	1387.94
390.42	1313.04
390.61	1252.19
390.81	1366.87
391.00	1432.41
391.19	1528.37
391.39	1455.81
391.58	1465.18
391.78	1413.68
391.97	1404.32
392.16	1425.39
392.36	1591.56
392.55	1488.58
392.75	1572.84
392.94	1514.33
393.13	1570.50
393.33	1558.80
393.52	1565.82
393.71	1593.90
393.91	1612.63
394.10	1523.69
394.29	1643.06
394.49	1673.48
394.68	1673.48
394.88	1526.03
395.07	1715.61
395.26	1661.78
395.46	1696.89
395.65	1816.26
395.84	1645.40
396.04	1849.02
396.23	1774.13
396.42	1757.74
396.62	1809.23
396.81	1741.36
397.00	1746.04
397.19	1884.13
397.39	1675.82
397.58	1870.09
397.77	1879.45
397.97	1909.88
398.16	1853.70
398.35	1980.09
398.55	1844.34
398.74	1898.17
398.93	1975.41
399.12	1980.09
399.32	1900.52
399.51	1975.41
399.70	1973.07
399.90	1994.14
400.09	2038.61
400.28	1949.67
400.47	2085.42
400.67	2106.48
400.86	2190.74
401.05	1963.71
401.24	2029.24
401.44	2167.34
401.63	2143.93
401.82	2160.31
402.01	2181.38
402.21	2258.62
402.40	2225.85
402.59	2085.42
402.78	2253.94
402.97	2172.02
403.17	2221.17
403.36	2338.20
403.55	2338.20
403.74	2345.22
403.93	2256.28
404.13	2319.47
404.32	2326.49
404.51	2366.28
404.70	2394.37
404.89	2366.28
405.09	2544.16
405.28	2410.75
405.47	2471.61
405.66	2424.80
405.85	2560.55
406.05	2466.92
406.24	2553.52
406.43	2438.84
406.62	2675.23
406.81	2654.17
407.00	2614.38
407.20	2539.48
407.39	2651.83
407.58	2808.64
407.77	2729.06
407.96	2803.96
408.15	2822.69
408.34	2574.59
408.54	2705.66
408.73	2892.90
408.92	2874.18
409.11	2853.11
409.30	2869.50
409.49	2958.44
409.68	2920.99
409.87	2942.05
410.07	3054.40
410.26	2935.03
410.45	3122.27
410.64	3021.63
410.83	3080.14
411.02	3075.46
411.21	3272.07
411.40	3028.65
411.59	3201.85
411.78	3103.55
411.98	3218.24
412.17	3262.71
412.36	3251.00
412.55	3339.94
412.74	3471.01
412.93	3211.22
413.12	3431.23
413.31	3499.10
413.50	3506.12
413.69	3370.37
413.88	3644.21
414.07	3555.27
414.26	3620.81
414.45	3632.51
414.64	3684.00
414.83	3644.21
415.02	3681.66
415.22	3838.48
415.41	3871.25
415.60	3913.38
415.79	3960.19
415.98	3981.25
416.17	3990.61
416.36	3946.14
416.55	3939.12
416.74	4135.73
416.93	4072.53
417.12	4177.86
417.31	4124.02
417.50	4266.80
417.69	4292.54
417.88	4215.30
418.07	4187.22
418.26	4304.25
418.45	4416.59
418.64	4337.01
418.83	4358.08
419.02	4411.91
419.21	4470.42
419.39	4390.84
419.58	4423.61
419.77	4372.12
419.96	4533.62
420.15	4557.02
420.34	4706.82
420.53	4643.62
420.72	4720.86
420.91	4652.98
421.10	4777.03
421.29	4795.76
421.48	4711.50
421.67	4835.55
421.86	4755.97
422.05	4777.03
422.24	4858.95
422.43	4851.93
422.61	4926.83
422.80	4917.47
422.99	5050.88
423.18	4924.49
423.37	4926.83
423.56	5011.09
423.75	4954.91
423.94	4917.47
424.13	4575.75
424.32	4723.20
424.50	4950.23
424.69	5118.75
424.88	5041.51
425.07	4903.42
425.26	4910.44
425.45	4781.71
425.64	4908.10
425.83	4868.31
426.01	5090.67
426.20	4884.70
426.39	5083.64
426.58	5067.26
426.77	5022.79
426.96	5146.84
427.15	5245.14
427.33	5298.97
427.52	5097.69
427.71	5364.51
427.90	5109.39
428.09	5203.01
428.28	5458.13
428.46	5355.15
428.65	5170.24
428.84	5467.49
429.03	5605.58
429.22	5334.08
429.40	5547.07
429.59	5472.17
429.78	5334.08
429.97	5352.81
430.16	5528.35
430.34	5476.85
430.53	5638.35
430.72	5837.30
430.91	5685.16
431.10	5495.58
431.28	5827.93
431.47	5696.86
431.66	5797.51
431.85	5760.06
432.03	5870.06
432.22	5951.98
432.41	5898.15
432.60	5884.11
432.79	5959.00
432.97	6019.86
433.16	6108.80
433.35	5989.43
433.54	5977.73
433.72	6087.73
433.91	6115.82
434.10	6157.95
434.28	6101.78
434.47	6211.78
434.66	6242.21
434.85	6155.61
435.03	6127.52
435.22	6181.35
435.41	6443.49
435.59	6253.91
435.78	6502.01
435.97	6520.73
436.16	6408.39
436.34	6387.32
436.53	6441.15
436.72	6651.80
436.90	6480.94
437.09	6738.40
437.28	6394.34
437.46	6642.44
437.65	6736.06
437.84	6658.82
438.02	6649.46
438.21	6848.41
438.40	6764.15
438.58	6993.52
438.77	6965.43
438.96	7016.93
439.14	7105.87
439.33	7091.82
439.52	7002.88
439.70	7391.41
439.89	7295.45
440.08	7522.48
440.26	7227.57
440.45	7232.26
440.63	7494.40
440.82	7602.06
441.01	7461.63
441.19	7517.80
441.38	7768.24
441.57	7719.09
441.75	7932.08
441.94	7948.46
442.12	7831.43
442.31	7903.99
442.50	7868.88
442.68	7946.12
442.87	8023.36
443.05	8170.81
443.24	8252.73
443.43	8285.50
443.61	8210.60
443.80	8432.95
443.98	8217.62
444.17	7817.39
444.35	8332.31
444.54	8290.18
444.73	8187.19
444.91	8224.64
445.10	8311.24
445.28	8318.26
445.47	8044.42
445.65	8486.78
445.84	8341.67
446.02	8374.44
446.21	8475.08
446.39	8582.74
446.58	8557.00
446.77	8449.33
446.95	8381.46
447.14	8404.86
447.32	8573.38
447.51	8514.87
447.69	8774.67
447.88	8472.74
448.06	8552.32
448.25	8386.14
448.43	8606.15
448.62	8671.68
448.80	8603.81
448.99	8709.13
449.17	8793.39
449.36	8411.89
449.54	8816.80
449.73	8971.27
449.91	8894.04
450.10	8767.65
450.28	9050.85
450.46	9060.21
450.65	9020.42
450.83	8898.72
451.02	9027.45
451.20	9291.93
451.39	9135.11
451.57	9102.34
451.76	9095.32
451.94	9172.56
452.13	9315.33
452.31	9469.81
452.49	9158.52
452.68	9575.13
452.86	9240.44
453.05	9327.03
453.23	9579.81
453.42	9439.38
453.60	9355.12
453.78	9362.14
453.97	9439.38
454.15	9518.96
454.34	9392.57
454.52	9713.22
454.70	9577.47
454.89	9832.59
455.07	9769.40
455.26	9865.36
455.44	9916.85
455.62	9802.16
455.81	9947.28
455.99	9874.72
456.17	9998.77
456.36	10111.11
456.54	10068.98
456.73	10139.20
456.91	10396.66
457.09	10150.90
457.28	10394.32
457.46	10321.76
457.64	10384.96
457.83	10586.24
458.01	10434.11
458.19	10672.84
458.38	10623.69
458.56	10551.14
458.74	10785.19
458.93	10717.31
459.11	10712.63
459.29	10909.24
459.48	10768.80
459.66	10745.40
459.84	10970.09
460.03	10977.11
460.21	10874.13
460.39	11108.18
460.57	11040.31
460.76	11215.85
460.94	11052.01
461.12	10984.13
461.31	11178.40
461.49	10939.66
461.67	11339.90
461.85	11510.75
462.04	11145.63
462.22	11859.49
462.40	11468.62
462.59	11440.54
462.77	11510.75
462.95	11550.54
463.13	11510.75
463.32	11641.82
463.50	11676.93
463.68	11948.43
463.86	11758.85
464.05	11772.89
464.23	11506.07
464.41	12025.67
464.59	11651.19
464.78	12332.28
464.96	11768.21
465.14	11918.01
465.32	11946.09
465.50	11918.01
465.69	11925.03
465.87	12266.75
466.05	12138.02
466.23	12163.76
466.41	12030.35
466.60	12425.90
466.78	12376.75
466.96	11915.67
467.14	12196.53
467.32	12348.67
467.51	12636.55
467.69	12163.76
467.87	12463.35
468.05	12751.24
468.23	12369.73
468.41	12208.23
468.60	12697.41
468.78	12657.62
468.96	12470.37
469.14	12692.73
469.32	12748.90
469.50	12589.74
469.69	12950.18
469.87	12940.82
470.05	13156.15
470.23	13310.63
470.41	13179.56
470.59	13680.43
470.77	13364.46
470.95	13378.50
471.14	13661.71
471.32	12870.61
471.50	13523.62
471.68	13497.87
471.86	13720.22
472.04	13568.09
472.22	13921.51
472.40	13607.87
472.58	13949.59
472.77	14071.30
472.95	14092.37
473.13	14527.71
473.31	13970.66
473.49	14164.92
473.67	14097.05
473.85	14181.31
474.03	14541.75
474.21	14525.36
474.39	14583.88
474.57	14640.05
474.75	15133.90
474.93	14822.61
475.12	14860.06
475.30	15161.99
475.48	15007.52
475.66	15178.37
475.84	15049.64
476.02	15405.41
476.20	15480.30
476.38	15630.10
476.56	15995.22
476.74	15988.20
476.92	15833.72
477.10	15950.75
477.28	16240.98
477.46	16320.56
477.64	16521.84
477.82	16563.97
478.00	16854.20
478.18	16828.45
478.36	16940.80
478.54	16952.50
478.72	16943.14
478.90	17294.22
479.08	17809.14
479.26	17635.94
479.44	17750.62
479.62	17647.64
479.80	18167.24
479.98	18207.03
480.16	18712.58
480.34	18242.14
480.52	18345.12
480.70	18735.99
480.88	18389.59
481.06	18785.14
481.24	18771.10
481.41	19087.07
481.59	19215.80
481.77	19559.86
481.95	19569.22
482.13	19676.88
482.31	19653.48
482.49	20236.27
482.67	20049.03
482.85	20638.84
483.03	20573.31
483.21	20924.39
483.39	20861.19
483.57	21118.65
483.74	21085.89
483.92	21429.94
484.10	21245.04
484.28	21584.42
484.46	22150.83
484.64	22265.52
484.82	21905.07
485.00	22232.75
485.18	22764.05
485.35	22836.61
485.53	22728.94
485.71	22754.69
485.89	23620.69
486.07	23524.72
486.25	23496.64
486.43	23728.35
486.61	23807.93
486.78	24219.86
486.96	24032.62
487.14	24484.34
487.32	24687.97
487.50	24652.86
487.68	25324.60
487.85	25380.77
488.03	25458.01
488.21	25909.73
488.39	25989.31
488.57	26094.63
488.75	26094.63
488.92	26178.89
489.10	26689.13
489.28	26462.10
489.46	27550.45
489.64	27051.91
489.81	27461.51
489.99	27531.72
490.17	28060.68
490.35	27948.34
490.53	28154.30
490.70	28474.96
490.88	28194.09
491.06	28858.81
491.24	29013.28
491.41	29050.73
491.59	29436.92
491.77	29158.39
491.95	29558.63
492.13	29366.70
492.30	30506.54
492.48	29982.26
492.66	30064.18
492.84	30162.48
493.01	30916.14
493.19	30405.90
493.37	30646.97
493.54	30948.90
493.72	31732.98
493.90	31424.03
494.08	31866.39
494.25	31786.82
494.43	31721.28
494.61	32505.36
494.79	32173.00
494.96	32140.24
495.14	32821.33
495.32	32891.55
495.49	32893.89
495.67	33263.69
495.85	33242.63
496.02	33750.52
496.20	33795.00
496.38	34431.62
496.55	33722.44
496.73	34492.47
496.91	34712.49
497.09	35028.46
497.26	34499.50
497.44	34845.90
497.62	35414.65
497.79	35489.54
497.97	35700.19
498.14	36084.04
498.32	35941.27
498.50	36376.61
498.67	36423.42
498.85	36318.09
499.03	36608.32
499.20	36751.09
499.38	37127.92
499.56	37010.89
499.73	36793.22
499.91	37457.93
500.08	37750.50
500.26	37165.37
500.44	37581.98
500.61	37755.18
500.79	37715.39
500.97	38553.30
501.14	38410.53
501.32	38731.18
501.49	38382.45
501.67	38623.52
501.84	38787.36
502.02	38845.87
502.20	38962.90
502.37	39108.01
502.55	39615.91
502.72	39861.66
502.90	39468.45
503.07	39040.14
503.25	39660.38
503.43	40065.29
503.60	39906.13
503.78	39992.73
503.95	40334.45
504.13	40507.65
504.30	40811.92
504.48	40395.31
504.65	40582.55
504.83	40868.09
505.01	41184.07
505.18	41219.17
505.36	41542.17
505.53	41336.20
505.71	41614.72
505.88	41888.57
506.06	41556.21
506.23	42153.05
506.41	41804.31
506.58	41944.74
506.76	41820.69
506.93	42464.34
507.11	42274.76
507.28	42532.22
507.46	42497.11
507.63	42768.61
507.81	43047.13
507.98	42799.04
508.16	43290.55
508.33	43276.51
508.50	43377.15
508.68	43440.34
508.85	44069.95
509.03	44039.52
509.20	43950.58
509.38	44622.31
509.55	44383.58
509.73	44378.90
509.90	44678.49
510.08	44809.56
510.25	44641.04
510.42	44273.57
510.60	44865.73
510.77	45008.50
510.95	45179.36
511.12	45481.29
511.30	45354.90
511.47	45350.22
511.64	45338.52
511.82	45595.98
511.99	45401.71
512.17	45762.15
512.34	45937.69
512.51	46136.64
512.69	46209.20
512.86	46162.39
513.04	46721.77
513.21	46579.00
513.38	46337.93
513.56	46923.06
513.73	46506.44
513.90	47014.34
514.08	46843.48
514.25	47215.63
514.43	47079.88
514.60	47400.53
514.77	47255.42
514.95	47288.18
515.12	47159.45
515.29	47660.33
515.47	47290.52
515.64	47859.27
515.81	47934.17
515.99	48336.74
516.16	48301.64
516.33	48135.46
516.51	48392.92
516.68	48198.65
516.85	48126.10
517.03	49003.80
517.20	48807.19
517.37	48741.66
517.54	48741.66
517.72	48987.41
517.89	49099.76
518.06	49413.39
518.24	48889.11
518.41	49214.44
518.58	49497.65
518.75	49411.05
518.93	49542.12
519.10	49509.35
519.27	49642.76
519.45	49656.81
519.62	49862.77
519.79	49825.32
519.96	49979.80
520.14	50164.70
520.31	50087.46
520.48	50450.25
520.65	50438.54
520.83	50560.25
521.00	50670.26
521.17	50398.76
521.34	50387.05
521.52	50468.97
521.69	50618.77
521.86	50773.24
522.03	51026.02
522.20	51437.95
522.38	51374.76
522.55	51035.38
522.72	51484.76
522.89	51178.15
523.07	51573.70
523.24	51241.35
523.41	51414.55
523.58	51346.67
523.75	51941.17
523.92	51751.59
524.10	51742.22
524.27	52317.99
524.44	51920.10
524.61	52273.52
524.78	52259.48
524.96	51824.14
525.13	52217.35
525.30	52381.19
525.47	52472.47
525.64	52575.45
525.81	52545.03
525.98	52500.56
526.16	52261.82
526.33	52673.76
526.50	52912.49
526.67	52956.96
526.84	52956.96
527.01	52886.74
527.18	52804.83
527.36	53209.74
527.53	52877.38
527.70	53478.90
527.87	53268.25
528.04	53020.16
528.21	53434.43
528.38	52987.39
528.55	53602.95
528.72	53497.62
528.89	53504.65
529.07	53574.86
529.24	53354.85
529.41	53616.99
529.58	53741.04
529.75	53549.12
529.92	53549.12
530.09	53787.85
530.26	54068.72
530.43	54017.22
530.60	53642.74
530.77	53687.21
530.94	54031.27
531.11	54113.19
531.28	54244.26
531.46	54298.09
531.63	54101.48
531.80	54270.00
531.97	54459.58
532.14	54499.37
532.31	54429.16
532.48	54567.25
532.65	54567.25
532.82	54653.85
532.99	54742.79
533.16	54546.18
533.33	54684.28
533.50	54927.69
533.67	54630.44
533.84	54585.97
534.01	54901.95
534.18	54953.44
534.35	55295.16
534.52	55033.02
534.69	55269.41
534.86	55398.14
535.03	54747.47
535.20	54976.84
535.37	55016.63
535.54	55248.35
535.71	55077.49
535.88	55290.48
536.05	55192.17
536.22	55739.86
536.38	55648.58
536.55	55547.93
536.72	55468.36
536.89	55196.85
537.06	55688.37
537.23	55597.09
537.40	55580.70
537.57	55828.80
537.74	55774.97
537.91	56004.34
538.08	55643.90
538.25	55683.69
538.42	55924.76
538.59	56119.02
538.75	55948.17
538.92	55994.98
539.09	56165.84
539.26	55936.46
539.43	56097.96
539.60	56212.65
539.77	56388.19
539.94	56561.39
540.11	56456.06
540.28	56282.86
540.44	56406.91
540.61	56512.23
540.78	56472.45
540.95	56451.38
541.12	56278.18
541.29	56453.72
541.46	56423.29
541.62	56491.17
541.79	56631.60
541.96	56493.51
542.13	56638.62
542.30	56643.30
542.47	56851.61
542.63	56502.87
542.80	56753.31
542.97	56877.36
543.14	56999.07
543.31	57111.41
543.48	57048.22
543.64	57289.29
543.81	57308.02
543.98	57219.08
544.15	57331.42
544.32	57226.10
544.48	57513.98
544.65	57352.49
544.82	57270.57
544.99	57418.02
545.16	57450.79
545.32	57235.46
545.49	57591.22
545.66	57820.59
545.83	57626.33
546.00	57687.18
546.16	57733.99
546.33	57499.94
546.50	57462.49
546.67	57614.63
546.83	57207.37
547.00	57769.10
547.17	57689.52
547.34	57551.43
547.50	58024.22
547.67	58131.89
547.84	58042.95
548.00	58061.67
548.17	58120.18
548.34	58089.76
548.51	58253.59
548.67	58291.04
548.84	58202.10
549.01	58108.48
549.18	58150.61
549.34	58309.77
549.51	58267.64
549.68	58197.42
549.84	58286.36
550.01	58557.86
550.18	58220.83
550.34	58424.45
550.51	58602.33
550.68	58298.06
550.84	58419.77
551.01	58473.60
551.18	58639.78
551.34	58227.85
551.51	58468.92
551.68	58667.87
551.84	58602.33
552.01	58485.31
552.18	58789.58
552.34	58522.76
552.51	58628.08
552.68	58473.60
552.84	58529.78
553.01	58738.08
553.18	58866.81
553.34	58618.72
553.51	58876.18
553.67	58761.49
553.84	58925.33
554.01	58752.13
554.17	58897.24
554.34	59138.32
554.51	59002.56
554.67	58988.52
554.84	58904.26
555.00	58927.67
555.17	58960.44
555.33	59021.29
555.50	58859.79
555.67	58887.88
555.83	58974.48
556.00	58974.48
556.16	59320.88
556.33	59351.30
556.50	59152.36
556.66	59367.69
556.83	59140.66
556.99	59152.36
557.16	59583.02
557.32	59288.11
557.49	59482.37
557.65	59166.40
557.82	59175.76
557.98	59180.45
558.15	59330.24
558.32	59540.89
558.48	59360.67
558.65	59407.48
558.81	59416.84
558.98	59278.75
559.14	59524.50
559.31	59721.11
559.47	59723.45
559.64	59632.17
559.80	59678.98
559.97	59737.49
560.13	59524.50
560.30	59721.11
560.46	59526.84
560.63	59887.29
560.79	59653.23
560.96	59732.81
561.12	60055.81
561.29	59732.81
561.45	59821.75
561.61	59877.93
561.78	59847.50
561.94	59884.95
562.11	59875.58
562.27	59756.22
562.44	60116.66
562.60	59992.61
562.77	59796.01
562.93	59676.64
563.10	59920.05
563.26	59901.33
563.42	60097.94
563.59	59847.50
563.75	59887.29
563.92	60079.21
564.08	59861.54
564.24	59985.59
564.41	60268.79
564.57	60196.24
564.74	59894.31
564.90	60100.28
565.07	60123.68
565.23	60060.49
565.39	60175.17
565.56	60264.11
565.72	60229.01
565.88	60086.23
566.05	59985.59
566.21	60236.03
566.38	60163.47
566.54	60392.84
566.70	60432.63
566.87	60313.26
567.03	60161.13
567.19	60259.43
567.36	60324.97
567.52	60383.48
567.68	60402.21
567.85	60271.14
568.01	60432.63
568.17	60154.11
568.34	60458.38
568.50	60151.77
568.66	60381.14
568.83	60341.35
568.99	60287.52
569.15	60420.93
569.32	60402.21
569.48	60423.27
569.64	60544.98
569.81	60271.14
569.97	60404.55
570.13	60456.04
570.30	60411.57
570.46	60418.59
570.62	60540.30
570.78	60507.53
570.95	60486.46
571.11	60725.20
571.27	60704.13
571.43	60537.96
571.60	60566.04
571.76	60636.26
571.92	60643.28
572.09	60584.77
572.25	60355.39
572.41	60544.98
572.57	60666.69
572.74	60699.45
572.90	60837.54
573.06	60416.25
573.22	60470.08
573.38	60561.36
573.55	60706.47
573.71	60626.90
573.87	60931.17
574.03	60589.45
574.20	60615.19
574.36	60645.62
574.52	60617.53
574.68	60739.24
574.84	60914.78
575.01	60729.88
575.17	60757.97
575.33	60664.35
575.49	60516.89
575.65	60788.39
575.82	60654.98
575.98	60837.54
576.14	60839.89
576.30	61006.06
576.46	60809.46
576.62	60727.54
576.79	60701.79
576.95	60636.26
577.11	60772.01
577.27	60767.33
577.43	60704.13
577.59	60669.03
577.75	60825.84
577.92	60722.86
578.08	60638.60
578.24	60891.38
578.40	60966.27
578.56	60889.04
578.72	60774.35
578.88	61216.71
579.04	61078.62
579.21	60931.17
579.37	60877.33
579.53	60795.42
579.69	60872.65
579.85	60671.37
580.01	60977.98
580.17	60748.60
580.33	60851.59
580.49	60823.50
580.65	60837.54
580.82	60680.73
580.98	60638.60
581.14	60889.04
581.30	60945.21
581.46	60685.41
581.62	60837.54
581.78	60844.57
581.94	61080.96
582.10	60807.12
582.26	60718.18
582.42	60800.10
582.58	60774.35
582.74	60886.70
582.90	60973.30
583.06	60963.93
583.22	60718.18
583.38	60828.18
583.54	60940.53
583.70	60919.46
583.86	61090.32
584.02	60933.51
584.18	61001.38
584.34	61029.47
584.50	60961.59
584.66	60867.97
584.82	60552.00
584.98	60989.68
585.14	60996.70
585.30	60818.82
585.46	61031.81
585.62	61066.92
585.78	61141.81
585.94	60774.35
586.10	60947.55
586.26	61078.62
586.42	60970.96
586.58	61080.96
586.74	60863.29
586.90	60994.36
587.06	60977.98
587.22	61174.58
587.38	61008.40
587.54	61066.92
587.70	61272.88
587.86	61057.56
588.02	61153.52
588.18	61155.86
588.34	60938.19
588.49	60900.74
