SpectraSuite Data File
++++++++++++++++++++++++++++++++++++
Date: Fri Oct 25 11:26:13 EDT 2013
User: price-jones
Dark Spectrum Present: No
Reference Spectrum Present: No
Number of Sampled Component Spectra: 1
Spectrometers: USB2+H05261
Integration Time (usec): 100000 (USB2+H05261)
Spectra Averaged: 1 (USB2+H05261)
Boxcar Smoothing: 0 (USB2+H05261)
Correct for Electrical Dark: No (USB2+H05261)
Strobe/Lamp Enabled: No (USB2+H05261)
Correct for Detector Non-linearity: No (USB2+H05261)
Correct for Stray Light: No (USB2+H05261)
Number of Pixels in Processed Spectrum: 2048
>>>>>Begin Processed Spectral Data<<<<<
365.73	252.78
365.92	252.78
366.12	252.78
366.32	184.90
366.52	138.09
366.72	149.79
366.91	135.75
367.11	152.13
367.31	105.32
367.51	149.79
367.70	147.45
367.90	107.66
368.10	131.07
368.30	107.66
368.49	131.07
368.69	149.79
368.89	161.50
369.09	74.90
369.28	184.90
369.48	135.75
369.68	250.44
369.87	241.08
370.07	252.78
370.27	241.08
370.47	301.93
370.66	636.63
370.86	631.94
371.06	732.59
371.25	765.36
371.45	716.20
371.65	674.07
371.84	676.41
372.04	727.91
372.24	765.36
372.44	723.23
372.63	660.03
372.83	725.57
373.03	697.48
373.22	751.31
373.42	800.46
373.62	795.78
373.81	781.74
374.01	898.77
374.21	868.34
374.40	830.89
374.60	739.61
374.79	779.40
374.99	784.08
375.19	833.23
375.38	880.04
375.58	854.30
375.78	882.38
375.97	863.66
376.17	866.00
376.37	870.68
376.56	877.70
376.76	868.34
376.95	987.71
377.15	917.49
377.35	866.00
377.54	844.93
377.74	917.49
377.93	901.11
378.13	919.83
378.33	915.15
378.52	954.94
378.72	1008.77
378.91	992.39
379.11	922.17
379.31	924.51
379.50	950.26
379.70	983.02
379.89	957.28
380.09	980.68
380.28	1022.81
380.48	1081.33
380.68	950.26
380.87	994.73
381.07	1011.11
381.26	1008.77
381.46	999.41
381.65	1046.22
381.85	1050.90
382.04	950.26
382.24	1027.50
382.43	1006.43
382.63	1076.65
382.83	1123.46
383.02	1083.67
383.22	1158.57
383.41	1100.05
383.61	1006.43
383.80	1317.72
384.00	1114.10
384.19	1146.86
384.39	1170.27
384.58	1123.46
384.78	1177.29
384.97	1196.01
385.17	1123.46
385.36	1111.75
385.56	1172.61
385.75	1142.18
385.95	1224.10
386.14	1341.13
386.34	1231.12
386.53	1212.40
386.72	1170.27
386.92	1188.99
387.11	1219.42
387.31	1315.38
387.50	1233.46
387.70	1235.80
387.89	1254.53
388.09	1219.42
388.28	1259.21
388.48	1275.59
388.67	1362.19
388.86	1336.45
389.06	1357.51
389.25	1357.51
389.45	1409.00
389.64	1219.42
389.84	1411.34
390.03	1430.07
390.22	1425.39
390.42	1373.89
390.61	1383.26
390.81	1359.85
391.00	1476.88
391.19	1390.28
391.39	1416.02
391.58	1420.71
391.78	1472.20
391.97	1493.26
392.16	1476.88
392.36	1526.03
392.55	1540.07
392.75	1572.84
392.94	1469.86
393.13	1497.94
393.33	1563.48
393.52	1526.03
393.71	1643.06
393.91	1495.60
394.10	1537.73
394.29	1631.35
394.49	1572.84
394.68	1685.19
394.88	1659.44
395.07	1706.25
395.26	1671.14
395.46	1722.63
395.65	1783.49
395.84	1729.66
396.04	1746.04
396.23	1710.93
396.42	1657.10
396.62	1830.30
396.81	1799.87
397.00	1844.34
397.19	1776.47
397.39	1795.19
397.58	1792.85
397.77	1757.74
397.97	1919.24
398.16	1914.56
398.35	1863.07
398.55	1902.86
398.74	1984.77
398.93	1956.69
399.12	1905.20
399.32	1944.99
399.51	1935.62
399.70	2031.58
399.90	1916.90
400.09	1954.35
400.28	2010.52
400.47	1961.37
400.67	1989.46
400.86	2181.38
401.05	2125.21
401.24	2054.99
401.44	2069.03
401.63	2104.14
401.82	2101.80
402.01	2150.95
402.21	2193.08
402.40	2300.75
402.59	2155.63
402.78	2195.42
402.97	2244.57
403.17	2279.68
403.36	2239.89
403.55	2403.73
403.74	2328.83
403.93	2373.30
404.13	2377.98
404.32	2389.69
404.51	2354.58
404.70	2382.67
404.89	2410.75
405.09	2516.08
405.28	2497.35
405.47	2532.46
405.66	2607.36
405.85	2408.41
406.05	2492.67
406.24	2588.63
406.43	2527.78
406.62	2579.27
406.81	2597.99
407.00	2565.23
407.20	2480.97
407.39	2588.63
407.58	2729.06
407.77	2832.05
407.96	2733.75
408.15	2719.70
408.34	2679.91
408.54	2740.77
408.73	2841.41
408.92	2820.35
409.11	2869.50
409.30	2981.84
409.49	2829.71
409.68	2906.95
409.87	2984.18
410.07	2899.92
410.26	3091.85
410.45	2899.92
410.64	3007.59
410.83	3056.74
411.02	3124.62
411.21	3173.77
411.40	3143.34
411.59	3225.26
411.78	3110.57
411.98	3342.28
412.17	3318.88
412.36	3260.37
412.55	3243.98
412.74	3323.56
412.93	3445.27
413.12	3300.16
413.31	3597.40
413.50	3522.51
413.69	3520.17
413.88	3517.83
414.07	3583.36
414.26	3646.55
414.45	3651.24
414.64	3510.80
414.83	3630.17
415.02	3829.12
415.22	3826.78
415.41	3749.54
415.60	3892.31
415.79	3871.25
415.98	3911.04
416.17	4058.49
416.36	3866.56
416.55	3913.38
416.74	4067.85
416.93	4009.34
417.12	4105.30
417.31	4119.34
417.50	3981.25
417.69	4117.00
417.88	4313.61
418.07	4266.80
418.26	4231.69
418.45	4297.22
418.64	4393.19
418.83	4346.37
419.02	4393.19
419.21	4550.00
419.39	4528.94
419.58	4360.42
419.77	4472.76
419.96	4524.26
420.15	4802.78
420.34	4580.43
420.53	4645.96
420.72	4662.35
420.91	4608.51
421.10	4709.16
421.29	4650.64
421.48	4678.73
421.67	4671.71
421.86	4725.54
422.05	4706.82
422.24	4596.81
422.43	4678.73
422.61	4835.55
422.80	4868.31
422.99	4943.21
423.18	4884.70
423.37	4772.35
423.56	4887.04
423.75	4889.38
423.94	4732.56
424.13	4610.86
424.32	4819.16
424.50	4865.97
424.69	5151.52
424.88	5100.03
425.07	5015.77
425.26	4863.63
425.45	4983.00
425.64	4875.34
425.83	5006.41
426.01	5022.79
426.20	4966.62
426.39	5025.13
426.58	4903.42
426.77	5034.49
426.96	5107.05
427.15	5193.65
427.33	5163.22
427.52	5067.26
427.71	5179.61
427.90	5181.95
428.09	5177.26
428.28	5308.34
428.46	5280.25
428.65	5322.38
428.84	5710.91
429.03	5507.28
429.22	5188.97
429.40	5455.79
429.59	5371.53
429.78	5263.86
429.97	5104.71
430.16	5619.63
430.34	5643.03
430.53	5643.03
430.72	5579.84
430.91	5570.48
431.10	5591.54
431.28	5760.06
431.47	5729.63
431.66	5664.10
431.85	5724.95
432.03	5959.00
432.22	6010.50
432.41	5849.00
432.60	5731.97
432.79	5834.96
432.97	6125.18
433.16	5853.68
433.35	6026.88
433.54	5900.49
433.72	6146.25
433.91	6085.39
434.10	6207.10
434.28	6136.88
434.47	5980.07
434.66	6319.45
434.85	6274.98
435.03	6338.17
435.22	6232.85
435.41	6560.52
435.59	6347.53
435.78	6270.30
435.97	6553.50
436.16	6441.15
436.34	6342.85
436.53	6190.72
436.72	6614.35
436.90	6520.73
437.09	6698.61
437.28	6382.64
437.46	6513.71
437.65	6780.53
437.84	6740.74
438.02	6586.27
438.21	6731.38
438.40	6789.89
438.58	7068.42
438.77	6939.69
438.96	6885.86
439.14	7136.29
439.33	7201.83
439.52	7297.79
439.70	7098.84
439.89	7405.46
440.08	7351.62
440.26	7318.86
440.45	7419.50
440.63	7527.16
440.82	7611.42
441.01	7353.96
441.19	7508.44
441.38	7791.64
441.57	7595.04
441.75	7793.98
441.94	7990.59
442.12	7903.99
442.31	7999.95
442.50	8079.53
442.68	7929.74
442.87	7913.35
443.05	8184.85
443.24	8159.11
443.43	8098.25
443.61	8116.98
443.80	8346.35
443.98	7936.76
444.17	7763.56
444.35	8131.02
444.54	8437.63
444.73	8114.64
444.91	8219.96
445.10	8269.11
445.28	8081.87
445.47	8198.90
445.65	8198.90
445.84	8348.69
446.02	8571.04
446.21	8430.61
446.39	8348.69
446.58	8297.20
446.77	8496.14
446.95	8198.90
447.14	8306.56
447.32	8486.78
447.51	8390.82
447.69	8388.48
447.88	8561.68
448.06	8482.10
448.25	8336.99
448.43	8638.92
448.62	8571.04
448.80	8638.92
448.99	8676.37
449.17	8711.47
449.36	8617.85
449.54	8720.84
449.73	8868.29
449.91	8882.33
450.10	8802.75
450.28	8936.17
450.46	9163.20
450.65	9092.98
450.83	8950.21
451.02	9025.11
451.20	8980.64
451.39	8877.65
451.57	9025.11
451.76	8994.68
451.94	9158.52
452.13	9172.56
452.31	9235.75
452.49	9193.62
452.68	9308.31
452.86	9392.57
453.05	9547.05
453.23	9380.87
453.42	9308.31
453.60	9153.84
453.78	9626.62
453.97	9413.63
454.15	9444.06
454.34	9231.07
454.52	9635.99
454.70	9633.64
454.89	9736.63
455.07	9650.03
455.26	9933.23
455.44	10015.15
455.62	9729.61
455.81	10038.56
455.99	9956.64
456.17	9987.07
456.36	10064.30
456.54	9987.07
456.73	10307.72
456.91	10122.82
457.09	10342.83
457.28	10354.53
457.46	10068.98
457.64	10345.17
457.83	10406.02
458.01	10431.77
458.19	10586.24
458.38	10546.45
458.56	10839.02
458.74	10633.05
458.93	10733.70
459.11	10637.73
459.29	10820.30
459.48	10768.80
459.66	10700.93
459.84	11073.07
460.03	11159.67
460.21	10916.26
460.39	10815.62
460.57	10953.71
460.76	11012.22
460.94	11110.52
461.12	11190.10
461.31	10984.13
461.49	11101.16
461.67	10906.90
461.85	11358.62
462.04	11265.00
462.22	11843.11
462.40	11447.56
462.59	11323.51
462.77	11473.31
462.95	11651.19
463.13	11473.31
463.32	11566.93
463.50	11751.83
463.68	11864.18
463.86	12011.63
464.05	11707.36
464.23	11501.39
464.41	11824.39
464.59	11602.04
464.78	12313.56
464.96	12004.61
465.14	11765.87
465.32	12102.91
465.50	11927.37
465.69	12138.02
465.87	12116.95
466.05	12091.21
466.23	12098.23
466.41	12077.16
466.60	12299.52
466.78	11990.56
466.96	12180.15
467.14	12360.37
467.32	12194.19
467.51	12580.38
467.69	12175.47
467.87	12453.99
468.05	12725.49
468.23	12233.98
468.41	12369.73
468.60	12446.97
468.78	12662.30
468.96	12549.95
469.14	12601.44
469.32	12964.23
469.50	12755.92
469.69	12828.48
469.87	13151.47
470.05	13085.94
470.23	12870.61
470.41	13343.39
470.59	13350.42
470.77	13364.46
470.95	13369.14
471.14	13507.23
471.32	13020.40
471.50	13329.35
471.68	13598.51
471.86	13397.23
472.04	13411.27
472.22	14064.28
472.40	13458.08
472.58	13930.87
472.77	13870.01
472.95	14085.34
473.13	14750.06
473.31	14228.12
473.49	14047.90
473.67	14118.11
473.85	14197.69
474.03	14778.14
474.21	14567.49
474.39	14499.62
474.57	14537.07
474.75	14899.85
474.93	14703.25
475.12	15037.94
475.30	14679.84
475.48	15033.26
475.66	15096.46
475.84	15234.55
476.02	15234.55
476.20	15494.35
476.38	15569.24
476.56	16060.76
476.74	15726.06
476.92	15630.10
477.10	15824.36
477.28	16074.80
477.46	16255.02
477.64	16105.23
477.82	16238.64
478.00	16828.45
478.18	16570.99
478.36	16643.55
478.54	17170.17
478.72	17092.93
478.90	17624.23
479.08	17451.03
479.26	17500.19
479.44	17771.69
479.62	17696.79
479.80	17914.46
479.98	17937.87
480.16	18513.64
480.34	18155.54
480.52	18424.70
480.70	18366.18
480.88	18274.90
481.06	18417.68
481.24	18808.54
481.41	19054.30
481.59	19384.32
481.77	19325.80
481.95	19470.92
482.13	19688.59
482.31	19763.48
482.49	20042.01
482.67	19967.11
482.85	20496.07
483.03	20629.48
483.21	20545.22
483.39	20641.18
483.57	20566.29
483.74	21090.57
483.92	21062.48
484.10	21275.47
484.28	21521.23
484.46	21935.50
484.64	22434.03
484.82	21848.90
485.00	22237.43
485.18	22520.63
485.35	22761.71
485.53	22377.86
485.71	23133.86
485.89	23498.98
486.07	23152.58
486.25	23147.90
486.43	23545.79
486.61	23800.91
486.78	23733.03
486.96	24105.18
487.14	24528.81
487.32	24409.45
487.50	24503.07
487.68	24980.54
487.85	25371.41
488.03	25399.49
488.21	25586.74
488.39	25781.00
488.57	25907.39
488.75	25769.30
488.92	26424.65
489.10	26700.83
489.28	26630.62
489.46	26969.99
489.64	26855.31
489.81	27370.22
489.99	27505.98
490.17	27309.37
490.35	27721.30
490.53	28278.35
490.70	27803.22
490.88	28325.16
491.06	28570.92
491.24	28701.99
491.41	29020.30
491.59	29090.52
491.77	28893.91
491.95	29790.34
492.13	29462.66
492.30	29682.67
492.48	29638.20
492.66	29745.87
492.84	29970.56
493.01	30513.56
493.19	30398.88
493.37	30787.41
493.54	30686.76
493.72	31674.47
493.90	31454.46
494.08	31618.30
494.25	31784.48
494.43	31718.94
494.61	31983.42
494.79	32009.17
494.96	32173.00
495.14	32676.22
495.32	33244.97
495.49	32823.67
495.67	32737.07
495.85	33350.29
496.02	33621.80
496.20	34178.84
496.38	33855.85
496.55	34136.71
496.73	34445.66
496.91	34085.22
497.09	34429.28
497.26	34686.74
497.44	34841.21
497.62	34962.92
497.79	35480.18
497.97	35014.41
498.14	36002.12
498.32	36081.70
498.50	35440.39
498.67	36416.40
498.85	36142.55
499.03	36510.02
499.20	36849.39
499.38	36559.17
499.56	37134.94
499.73	36975.78
499.91	37029.62
500.08	37090.47
500.26	37315.16
500.44	37296.44
500.61	37633.47
500.79	37289.42
500.97	38127.33
501.14	38438.62
501.32	38424.57
501.49	37785.61
501.67	38162.43
501.84	38759.27
502.02	38822.47
502.20	38536.92
502.37	39206.31
502.55	39014.39
502.72	39140.78
502.90	39515.26
503.07	39100.99
503.25	39615.91
503.43	39487.18
503.60	39648.68
503.78	39915.50
503.95	39974.01
504.13	40460.84
504.30	40610.64
504.48	40385.94
504.65	40409.35
504.83	40713.62
505.01	40849.37
505.18	41263.64
505.36	41251.94
505.53	41071.72
505.71	41394.71
505.88	41558.55
506.06	41244.92
506.23	41661.54
506.41	41497.70
506.58	41621.75
506.76	41862.82
506.93	42148.37
507.11	42213.90
507.28	42569.66
507.46	42838.83
507.63	42433.91
507.81	43166.50
507.98	42469.02
508.16	42880.95
508.33	43089.26
508.50	43208.63
508.68	43318.64
508.85	43636.95
509.03	43320.98
509.20	43618.22
509.38	44383.58
509.55	43943.56
509.73	44135.48
509.90	44493.58
510.08	44273.57
510.25	44247.83
510.42	44729.98
510.60	44926.58
510.77	44912.54
510.95	45303.41
511.12	44870.41
511.30	45146.59
511.47	44882.11
511.64	44935.95
511.82	45888.54
511.99	45593.64
512.17	45841.73
512.34	46007.91
512.51	45977.48
512.69	45883.86
512.86	46209.20
513.04	46522.83
513.21	46429.21
513.38	46665.60
513.56	47199.24
513.73	46588.36
513.90	46787.31
514.08	46438.57
514.25	47103.28
514.43	47625.22
514.60	47260.10
514.77	47054.13
514.95	47599.47
515.12	47236.69
515.29	47342.02
515.47	47866.30
515.64	48100.35
515.81	47587.77
515.99	47878.00
516.16	48341.42
516.33	48102.69
516.51	48418.66
516.68	48109.71
516.85	47997.37
517.03	48741.66
517.20	48711.23
517.37	48364.83
517.54	48603.56
517.72	48374.19
517.89	48898.47
518.06	49167.63
518.24	49045.93
518.41	49139.55
518.58	48758.04
518.75	49312.75
518.93	49045.93
519.10	49289.34
519.27	49696.59
519.45	49514.03
519.62	49743.41
519.79	49703.62
519.96	49755.11
520.14	50143.64
520.31	49886.18
520.48	50590.68
520.65	50019.59
520.83	50253.64
521.00	50632.81
521.17	50202.15
521.34	50356.63
521.52	50770.90
521.69	50384.71
521.86	50637.49
522.03	51049.42
522.20	51323.27
522.38	51423.91
522.55	51000.27
522.72	51021.34
522.89	50710.05
523.07	51341.99
523.24	51283.48
523.41	51592.43
523.58	51253.05
523.75	51704.77
523.92	51702.43
524.10	51789.03
524.27	52268.84
524.44	51810.10
524.61	52067.56
524.78	51730.52
524.96	51992.66
525.13	52322.68
525.30	52357.78
525.47	52289.91
525.64	52018.41
525.81	52442.04
525.98	52533.32
526.16	52163.52
526.33	52428.00
526.50	52980.37
526.67	52500.56
526.84	52678.44
527.01	52563.75
527.18	52566.09
527.36	52739.29
527.53	53059.94
527.70	53148.88
527.87	52973.34
528.04	53064.63
528.21	53272.93
528.38	53191.01
528.55	53193.36
528.72	53038.88
528.89	53450.81
529.07	53261.23
529.24	53169.95
529.41	53483.58
529.58	53631.04
529.75	53588.91
529.92	53647.42
530.09	53544.44
530.26	53923.60
530.43	54038.29
530.60	53729.34
530.77	53607.63
530.94	54068.72
531.11	53743.38
531.28	54054.67
531.46	54059.35
531.63	53977.43
531.80	54078.08
531.97	54260.64
532.14	54368.30
532.31	54117.87
532.48	54370.64
532.65	54862.16
532.82	54195.10
532.99	54408.09
533.16	54436.18
533.33	54623.42
533.50	54515.76
533.67	54887.90
533.84	54461.93
534.01	54541.50
534.18	54834.07
534.35	54937.05
534.52	54976.84
534.69	55051.74
534.86	55047.06
535.03	54461.93
535.20	55047.06
535.37	55234.30
535.54	55292.82
535.71	54880.88
535.88	55044.72
536.05	55372.39
536.22	55526.87
536.38	55358.35
536.55	55430.91
536.72	55559.64
536.89	55124.30
537.06	55491.76
537.23	55430.91
537.40	55402.82
537.57	55578.36
537.74	55704.75
537.91	55695.39
538.08	55903.70
538.25	55538.57
538.42	55662.62
538.59	55955.19
538.75	55849.86
538.92	55948.17
539.09	55842.84
539.26	55849.86
539.43	55955.19
539.60	56219.67
539.77	56093.28
539.94	56350.74
540.11	56165.84
540.28	56151.79
540.44	56200.94
540.61	56310.95
540.78	56292.22
540.95	56332.01
541.12	56346.06
541.29	56367.12
541.46	56186.90
541.62	56507.55
541.79	56755.65
541.96	56282.86
542.13	56357.76
542.30	56470.11
542.47	56741.61
542.63	56816.50
542.80	56650.33
542.97	57003.75
543.14	57097.37
543.31	56973.32
543.48	57165.24
543.64	57073.96
543.81	57066.94
543.98	57352.49
544.15	57076.30
544.32	57214.40
544.48	57509.30
544.65	57284.61
544.82	57406.32
544.99	57436.75
545.16	57256.53
545.32	57380.57
545.49	57422.70
545.66	57504.62
545.83	57570.16
546.00	57858.04
546.16	57359.51
546.33	57542.07
546.50	57403.98
546.67	57649.74
546.83	57214.40
547.00	57743.36
547.17	57413.34
547.34	57418.02
547.50	57703.57
547.67	58052.31
547.84	57963.37
548.00	57961.03
548.17	57942.30
548.34	58059.33
548.51	58075.71
548.67	58124.86
548.84	57986.77
549.01	57771.44
549.18	58019.54
549.34	58066.35
549.51	58368.28
549.68	58185.72
549.84	58218.49
550.01	58305.09
550.18	58159.97
550.34	58412.75
550.51	58408.07
550.68	58354.24
550.84	58115.50
551.01	58532.12
551.18	58344.87
551.34	58227.85
551.51	58546.16
551.68	58623.40
551.84	58330.83
552.01	58443.18
552.18	58499.35
552.34	58396.37
552.51	58642.12
552.68	58419.77
552.84	58506.37
553.01	58965.12
553.18	58599.99
553.34	58749.79
553.51	58717.02
553.67	58541.48
553.84	58808.30
554.01	58820.00
554.17	58791.92
554.34	58908.94
554.51	58946.39
554.67	58897.24
554.84	58922.99
555.00	58866.81
555.17	58976.82
555.33	58782.55
555.50	58665.53
555.67	59110.23
555.83	58749.79
556.00	58965.12
556.16	59269.39
556.33	59044.69
556.50	59021.29
556.66	59131.29
556.83	58955.75
556.99	59189.81
557.16	59241.30
557.32	59236.62
557.49	59559.61
557.65	59107.89
557.82	59140.66
557.98	59152.36
558.15	59344.28
558.32	59283.43
558.48	59297.47
558.65	59531.53
558.81	59316.20
558.98	59363.01
559.14	59334.92
559.31	59465.99
559.47	59522.16
559.64	59573.66
559.80	59611.10
559.97	59578.34
560.13	59468.33
560.30	59505.78
560.46	59877.93
560.63	59458.97
560.79	59608.76
560.96	59728.13
561.12	59674.30
561.29	59611.10
561.45	59568.97
561.61	59798.35
561.78	59693.02
561.94	59674.30
562.11	59552.59
562.27	59641.53
562.44	59749.20
562.60	59936.44
562.77	59957.50
562.93	59487.06
563.10	59966.87
563.26	59709.41
563.42	60027.72
563.59	59709.41
563.75	59667.28
563.92	59767.92
564.08	60088.57
564.24	60083.89
564.41	60062.83
564.57	59955.16
564.74	60186.88
564.90	59922.40
565.07	59943.46
565.23	60076.87
565.39	59927.08
565.56	59889.63
565.72	59948.14
565.88	60065.17
566.05	60165.81
566.21	60074.53
566.38	60053.47
566.54	60179.85
566.70	60268.79
566.87	60207.94
567.03	59917.71
567.19	60287.52
567.36	60186.88
567.52	60308.58
567.68	60528.59
567.85	60287.52
568.01	60245.39
568.17	60119.00
568.34	60341.35
568.50	60191.56
568.66	60336.67
568.83	60486.46
568.99	60205.60
569.15	60423.27
569.32	60322.63
569.48	60381.14
569.64	60392.84
569.81	60221.98
569.97	60203.26
570.13	60411.57
570.30	60287.52
570.46	60477.10
570.62	60523.91
570.78	60395.18
570.95	60362.42
571.11	60432.63
571.27	60346.03
571.43	60243.05
571.60	60423.27
571.76	60484.12
571.92	60708.82
572.09	60437.31
572.25	60505.19
572.41	60390.50
572.57	60467.74
572.74	60563.70
572.90	60378.80
573.06	60350.71
573.22	60561.36
573.38	60465.40
573.55	60566.04
573.71	60743.92
573.87	60657.32
574.03	60467.74
574.20	60800.10
574.36	60580.09
574.52	60645.62
574.68	60626.90
574.84	60652.64
575.01	60591.79
575.17	60629.24
575.33	60516.89
575.49	60357.74
575.65	60542.64
575.82	60720.52
575.98	60809.46
576.14	60694.77
576.30	60715.84
576.46	60463.06
576.62	60556.68
576.79	60500.51
576.95	60587.11
577.11	60750.94
577.27	60708.82
577.43	60720.52
577.59	60575.40
577.75	60591.79
577.92	60526.25
578.08	60657.32
578.24	60802.44
578.40	60671.37
578.56	60772.01
578.72	60568.38
578.88	60973.30
579.04	60963.93
579.21	60753.29
579.37	60860.95
579.53	61010.74
579.69	60500.51
579.85	60872.65
580.01	60636.26
580.17	60629.24
580.33	60949.89
580.49	60985.00
580.65	60676.05
580.82	60825.84
580.98	60774.35
581.14	60666.69
581.30	60786.05
581.46	60790.73
581.62	60830.52
581.78	60699.45
581.94	60603.49
582.10	60797.76
582.26	60605.83
582.42	60715.84
582.58	60903.08
582.74	60818.82
582.90	60867.97
583.06	60968.61
583.22	60692.43
583.38	60706.47
583.54	60793.07
583.70	60884.36
583.86	60945.21
584.02	60596.47
584.18	60942.87
584.34	60879.67
584.50	60851.59
584.66	60825.84
584.82	60779.03
584.98	60987.34
585.14	61003.72
585.30	60739.24
585.46	61104.37
585.62	60917.12
585.78	61212.03
585.94	60727.54
586.10	60928.83
586.26	60743.92
586.42	60872.65
586.58	61015.43
586.74	60954.57
586.90	60844.57
587.06	60959.25
587.22	61066.92
587.38	60879.67
587.54	60917.12
587.70	61097.34
587.86	60755.63
588.02	60849.25
588.18	61102.03
588.34	60886.70
588.49	61020.11
