SpectraSuite Data File
++++++++++++++++++++++++++++++++++++
Date: Fri Oct 25 11:25:21 EDT 2013
User: price-jones
Dark Spectrum Present: No
Reference Spectrum Present: No
Number of Sampled Component Spectra: 1
Spectrometers: USB2+H05261
Integration Time (usec): 100000 (USB2+H05261)
Spectra Averaged: 1 (USB2+H05261)
Boxcar Smoothing: 0 (USB2+H05261)
Correct for Electrical Dark: No (USB2+H05261)
Strobe/Lamp Enabled: No (USB2+H05261)
Correct for Detector Non-linearity: No (USB2+H05261)
Correct for Stray Light: No (USB2+H05261)
Number of Pixels in Processed Spectrum: 2048
>>>>>Begin Processed Spectral Data<<<<<
365.73	315.97
365.92	315.97
366.12	315.97
366.32	126.39
366.52	145.11
366.72	93.62
366.91	88.94
367.11	152.13
367.31	107.66
367.51	117.03
367.70	135.75
367.90	133.41
368.10	170.86
368.30	98.30
368.49	175.54
368.69	196.60
368.89	102.98
369.09	184.90
369.28	184.90
369.48	126.39
369.68	196.60
369.87	182.56
370.07	210.65
370.27	241.08
370.47	294.91
370.66	697.48
370.86	674.07
371.06	678.76
371.25	709.18
371.45	674.07
371.65	692.80
371.84	622.58
372.04	674.07
372.24	718.54
372.44	704.50
372.63	706.84
372.83	784.08
373.03	711.52
373.22	713.86
373.42	800.46
373.62	753.65
373.81	758.33
374.01	795.78
374.21	802.80
374.40	929.19
374.60	877.70
374.79	875.36
374.99	830.89
375.19	793.44
375.38	849.61
375.58	809.83
375.78	889.40
375.97	903.45
376.17	875.36
376.37	851.96
376.56	830.89
376.76	840.25
376.95	898.77
377.15	821.53
377.35	870.68
377.54	905.79
377.74	898.77
377.93	933.87
378.13	924.51
378.33	908.13
378.52	917.49
378.72	924.51
378.91	1013.45
379.11	929.19
379.31	992.39
379.50	1011.11
379.70	997.07
379.89	1039.20
380.09	1001.75
380.28	940.90
380.48	990.05
380.68	980.68
380.87	1036.86
381.07	964.30
381.26	990.05
381.46	931.53
381.65	1039.20
381.85	1074.31
382.04	961.96
382.24	1025.15
382.43	1046.22
382.63	997.07
382.83	1088.35
383.02	1086.01
383.22	1046.22
383.41	1130.48
383.61	1132.82
383.80	1137.50
384.00	1095.37
384.19	1102.39
384.39	1118.78
384.58	1046.22
384.78	1074.31
384.97	1097.71
385.17	1097.71
385.36	1235.80
385.56	1191.33
385.75	1137.50
385.95	1210.06
386.14	1144.52
386.34	1193.67
386.53	1146.86
386.72	1217.08
386.92	1268.57
387.11	1275.59
387.31	1301.34
387.50	1252.19
387.70	1214.74
387.89	1273.25
388.09	1320.06
388.28	1203.04
388.48	1303.68
388.67	1289.64
388.86	1331.76
389.06	1369.21
389.25	1420.71
389.45	1308.36
389.64	1299.00
389.84	1383.26
390.03	1401.98
390.22	1345.81
390.42	1294.32
390.61	1345.81
390.81	1385.60
391.00	1500.28
391.19	1458.15
391.39	1357.51
391.58	1486.24
391.78	1526.03
391.97	1558.80
392.16	1511.99
392.36	1495.60
392.55	1495.60
392.75	1476.88
392.94	1523.69
393.13	1526.03
393.33	1493.26
393.52	1591.56
393.71	1603.27
393.91	1582.20
394.10	1540.07
394.29	1577.52
394.49	1715.61
394.68	1715.61
394.88	1633.69
395.07	1647.74
395.26	1621.99
395.46	1720.29
395.65	1727.32
395.84	1629.01
396.04	1741.36
396.23	1694.55
396.42	1706.25
396.62	1666.46
396.81	1802.21
397.00	1732.00
397.19	1755.40
397.39	1769.44
397.58	1858.39
397.77	1846.68
397.97	1940.30
398.16	1921.58
398.35	1888.81
398.55	1839.66
398.74	1891.15
398.93	1961.37
399.12	1907.54
399.32	1877.11
399.51	1921.58
399.70	1968.39
399.90	1837.32
400.09	2008.18
400.28	2057.33
400.47	2026.90
400.67	2069.03
400.86	2040.95
401.05	2026.90
401.24	2176.70
401.44	2134.57
401.63	2155.63
401.82	2146.27
402.01	2085.42
402.21	2193.08
402.40	2066.69
402.59	2169.68
402.78	2204.78
402.97	2218.83
403.17	2307.77
403.36	2267.98
403.55	2284.36
403.74	2312.45
403.93	2361.60
404.13	2263.30
404.32	2352.24
404.51	2328.83
404.70	2427.14
404.89	2431.82
405.09	2553.52
405.28	2438.84
405.47	2506.71
405.66	2551.18
405.85	2513.74
406.05	2427.14
406.24	2520.76
406.43	2541.82
406.62	2455.22
406.81	2698.64
407.00	2593.31
407.20	2523.10
407.39	2609.70
407.58	2775.88
407.77	2789.92
407.96	2740.77
408.15	2633.10
408.34	2731.41
408.54	2731.41
408.73	2810.98
408.92	2787.58
409.11	2822.69
409.30	2820.35
409.49	2825.03
409.68	2822.69
409.87	2848.43
410.07	3033.33
410.26	2888.22
410.45	2818.00
410.64	2998.23
410.83	3061.42
411.02	3075.46
411.21	3150.36
411.40	3033.33
411.59	3178.45
411.78	3148.02
411.98	3169.09
412.17	3295.47
412.36	3206.53
412.55	3307.18
412.74	3445.27
412.93	3412.50
413.12	3321.22
413.31	3524.85
413.50	3412.50
413.69	3461.65
413.88	3548.25
414.07	3557.61
414.26	3510.80
414.45	3688.68
414.64	3730.81
414.83	3712.09
415.02	3691.02
415.22	3810.39
415.41	3838.48
415.60	3978.91
415.79	3985.93
415.98	4002.32
416.17	4086.58
416.36	3995.29
416.55	4023.38
416.74	4021.04
416.93	4112.32
417.12	4030.40
417.31	4100.62
417.50	4154.45
417.69	4161.47
417.88	4315.95
418.07	4278.50
418.26	4231.69
418.45	4355.74
418.64	4547.66
418.83	4376.80
419.02	4325.31
419.21	4514.89
419.39	4528.94
419.58	4411.91
419.77	4568.73
419.96	4444.68
420.15	4512.55
420.34	4631.92
420.53	4500.85
420.72	4559.36
420.91	4629.58
421.10	4718.52
421.29	4648.30
421.48	4697.46
421.67	4706.82
421.86	4678.73
422.05	4585.11
422.24	4657.67
422.43	4826.18
422.61	4807.46
422.80	4889.38
422.99	5004.07
423.18	4889.38
423.37	5179.61
423.56	4802.78
423.75	4877.68
423.94	4875.34
424.13	4510.21
424.32	4681.07
424.50	4933.85
424.69	5004.07
424.88	5046.20
425.07	5039.17
425.26	4933.85
425.45	4910.44
425.64	5032.15
425.83	4945.55
426.01	4952.57
426.20	4908.10
426.39	5095.35
426.58	4940.87
426.77	5057.90
426.96	5067.26
427.15	5158.54
427.33	5130.45
427.52	5217.05
427.71	5153.86
427.90	5266.21
428.09	5273.23
428.28	5327.06
428.46	5331.74
428.65	5270.89
428.84	5401.96
429.03	5514.30
429.22	5305.99
429.40	5327.06
429.59	5451.11
429.78	5336.42
429.97	5317.70
430.16	5614.95
430.34	5483.88
430.53	5806.87
430.72	5614.95
430.91	5521.32
431.10	5624.31
431.28	5724.95
431.47	5837.30
431.66	5710.91
431.85	5617.29
432.03	5717.93
432.22	5984.75
432.41	5816.23
432.60	5874.74
432.79	5980.07
432.97	5860.70
433.16	5884.11
433.35	5799.85
433.54	5785.80
433.72	5994.11
433.91	5956.66
434.10	6104.12
434.28	6043.26
434.47	6146.25
434.66	6352.21
434.85	6139.23
435.03	6209.44
435.22	6162.63
435.41	6246.89
435.59	6277.32
435.78	6399.02
435.97	6448.18
436.16	6476.26
436.34	6597.97
436.53	6420.09
436.72	6420.09
436.90	6249.23
437.09	6707.98
437.28	6583.93
437.46	6640.10
437.65	6649.46
437.84	6778.19
438.02	6509.03
438.21	6553.50
438.40	6672.87
438.58	7077.78
438.77	6974.80
438.96	6881.18
439.14	7124.59
439.33	7009.90
439.52	7002.88
439.70	7140.97
439.89	7337.58
440.08	7300.13
440.26	7250.98
440.45	7232.26
440.63	7344.60
440.82	7494.40
441.01	7447.58
441.19	7595.04
441.38	7602.06
441.57	7742.49
441.75	7721.43
441.94	7882.92
442.12	7854.84
442.31	7852.50
442.50	8170.81
442.68	8044.42
442.87	7988.25
443.05	8205.92
443.24	8182.51
443.43	8299.54
443.61	8212.94
443.80	8631.90
443.98	8016.33
444.17	7840.79
444.35	8248.05
444.54	8299.54
444.73	8201.24
444.91	8088.89
445.10	8313.58
445.28	8266.77
445.47	8369.76
445.65	8009.31
445.84	8418.91
446.02	8381.46
446.21	8519.55
446.39	8346.35
446.58	8437.63
446.77	8383.80
446.95	8294.86
447.14	8496.14
447.32	8641.26
447.51	8327.63
447.69	8294.86
447.88	8491.46
448.06	8479.76
448.25	8571.04
448.43	8568.70
448.62	8615.51
448.80	8500.83
448.99	8631.90
449.17	8601.47
449.36	8463.38
449.54	8599.13
449.73	8844.88
449.91	8952.55
450.10	8887.01
450.28	9025.11
450.46	9004.04
450.65	8987.66
450.83	9027.45
451.02	9104.68
451.20	9085.96
451.39	9085.96
451.57	8971.27
451.76	9069.58
451.94	9273.20
452.13	9212.35
452.31	9280.22
452.49	8887.01
452.68	9511.94
452.86	9329.38
453.05	9268.52
453.23	9231.07
453.42	9214.69
453.60	9446.40
453.78	9652.37
453.97	9474.49
454.15	9277.88
454.34	9647.69
454.52	9593.86
454.70	9549.39
454.89	9767.06
455.07	9741.31
455.26	9912.17
455.44	9982.38
455.62	9626.62
455.81	9790.46
455.99	10003.45
456.17	9865.36
456.36	10022.17
456.54	9942.60
456.73	10022.17
456.91	10274.95
457.09	10417.72
457.28	10558.16
457.46	10349.85
457.64	10551.14
457.83	10403.68
458.01	10342.83
458.19	10773.49
458.38	10466.88
458.56	10736.04
458.74	10691.57
458.93	10553.48
459.11	10803.91
459.29	10630.71
459.48	10714.97
459.66	10595.61
459.84	10752.42
460.03	10794.55
460.21	10843.70
460.39	11119.89
460.57	11047.33
460.76	10956.05
460.94	11147.97
461.12	11094.14
461.31	11145.63
461.49	11105.84
461.67	11087.12
461.85	11377.34
462.04	11183.08
462.22	11506.07
462.40	11531.82
462.59	11405.43
462.77	11199.46
462.95	11440.54
463.13	11459.26
463.32	11466.28
463.50	11707.36
463.68	11604.38
463.86	11693.32
464.05	11630.12
464.23	11499.05
464.41	11683.95
464.59	11742.47
464.78	11812.68
464.96	11868.86
465.14	11943.75
465.32	12044.40
465.50	12208.23
465.69	12266.75
465.87	12046.74
466.05	12161.42
466.23	12423.56
466.41	12484.42
466.60	12191.85
466.78	12201.21
466.96	12109.93
467.14	12189.51
467.32	12145.04
467.51	12395.48
467.69	12346.33
467.87	12336.96
468.05	12645.91
468.23	12322.92
468.41	12264.41
468.60	12437.61
468.78	12793.37
468.96	12435.27
469.14	12758.26
469.32	12828.48
469.50	12351.01
469.69	12861.24
469.87	13298.92
470.05	12837.84
470.23	13338.71
470.41	13273.18
470.59	13212.32
470.77	12999.34
470.95	13048.49
471.14	13624.26
471.32	13013.38
471.50	13294.24
471.68	13689.79
471.86	13633.62
472.04	13792.78
472.22	13968.32
472.40	13610.22
472.58	13607.87
472.77	14118.11
472.95	13977.68
473.13	14633.03
473.31	14101.73
473.49	14150.88
473.67	14085.34
473.85	14141.52
474.03	14611.96
474.21	14527.71
474.39	14389.61
474.57	14450.47
474.75	14579.20
474.93	14689.20
475.12	14839.00
475.30	14977.09
475.48	14981.77
475.66	15023.90
475.84	15119.86
476.02	15396.04
476.20	15183.06
476.38	15594.99
476.56	15985.86
476.74	15772.87
476.92	16100.55
477.10	15679.25
477.28	15936.71
477.46	16114.59
477.64	16182.46
477.82	16353.32
478.00	16833.13
478.18	16620.14
478.36	16875.26
478.54	16772.28
478.72	17067.19
478.90	17280.18
479.08	17469.76
479.26	17530.61
479.44	17642.96
479.62	17834.88
479.80	18064.25
479.98	17980.00
480.16	18349.80
480.34	18153.20
480.52	18445.76
480.70	18450.44
480.88	18204.69
481.06	18815.57
481.24	18728.97
481.41	19000.47
481.59	19307.08
481.77	19541.13
481.95	19346.87
482.13	19641.78
482.31	19782.21
482.49	20098.18
482.67	19957.75
482.85	20215.21
483.03	20297.13
483.21	20643.52
483.39	20821.41
483.57	20685.65
483.74	21109.29
483.92	21544.63
484.10	20790.98
484.28	21706.13
484.46	21771.66
484.64	22134.45
484.82	21806.77
485.00	22319.35
485.18	22530.00
485.35	22728.94
485.53	22747.67
485.71	22813.20
485.89	23426.42
486.07	23026.19
486.25	23185.35
486.43	23737.71
486.61	23852.40
486.78	23974.11
486.96	23964.75
487.14	24577.97
487.32	24453.92
487.50	24931.39
487.68	25067.14
487.85	25078.84
488.03	25432.26
488.21	25830.15
488.39	25907.39
488.57	25757.60
488.75	26089.95
488.92	26164.85
489.10	26539.33
489.28	26558.06
489.46	26932.54
489.64	26911.48
489.81	27529.38
489.99	27468.53
490.17	27658.11
490.35	27999.83
490.53	27807.90
490.70	28236.22
490.88	27936.63
491.06	28477.30
491.24	28940.72
491.41	28762.84
491.59	28917.32
491.77	29209.89
491.95	29610.12
492.13	29500.11
492.30	29699.06
492.48	29865.24
492.66	29846.51
492.84	29912.05
493.01	30539.31
493.19	30352.07
493.37	30843.58
493.54	31084.65
493.72	31295.30
493.90	31145.51
494.08	31536.38
494.25	31407.65
494.43	31892.14
494.61	32098.11
494.79	32341.52
494.96	32322.80
495.14	32596.64
495.32	32882.19
495.49	32957.08
495.67	33326.89
495.85	33130.28
496.02	33729.46
496.20	33804.36
496.38	33972.88
496.55	33830.10
496.73	34630.57
496.91	34389.49
497.09	34974.63
497.26	34639.93
497.44	34644.61
497.62	35086.97
497.79	35651.04
497.97	35056.54
498.14	35487.20
498.32	35768.07
498.50	35990.42
498.67	36226.81
498.85	36205.75
499.03	36781.52
499.20	36650.45
499.38	36781.52
499.56	36732.37
499.73	36893.86
499.91	37148.98
500.08	37581.98
500.26	37106.85
500.44	37481.34
500.61	37366.65
500.79	37942.42
500.97	37715.39
501.14	38361.38
501.32	38089.88
501.49	38162.43
501.67	38284.14
501.84	38710.12
502.02	38632.88
502.20	38838.85
502.37	39140.78
502.55	38969.92
502.72	39021.41
502.90	39313.98
503.07	39559.73
503.25	39632.29
503.43	39524.63
503.60	39985.71
503.78	39894.43
503.95	40217.43
504.13	40407.01
504.30	40196.36
504.48	40528.72
504.65	40294.66
504.83	40325.09
505.01	41020.23
505.18	41069.38
505.36	41663.88
505.53	41092.79
505.71	41530.47
505.88	41340.88
506.06	40950.01
506.23	41675.58
506.41	41467.27
506.58	42192.84
506.76	42302.84
506.93	41935.38
507.11	42089.85
507.28	42335.61
507.46	42263.05
507.63	42366.04
507.81	43178.20
507.98	42649.24
508.16	42930.11
508.33	43229.69
508.50	43217.99
508.68	43079.90
508.85	43723.55
509.03	43920.15
509.20	43775.04
509.38	44247.83
509.55	43749.29
509.73	44086.33
509.90	44229.10
510.08	44257.19
510.25	43995.05
510.42	44683.17
510.60	44507.63
510.77	45055.31
510.95	45153.62
511.12	45010.84
511.30	44573.16
511.47	45109.14
511.64	45155.96
511.82	45504.70
511.99	45560.87
512.17	45659.17
512.34	45584.27
512.51	46096.85
512.69	46066.42
512.86	45783.22
513.04	46562.62
513.21	46784.97
513.38	46525.17
513.56	46375.37
513.73	46773.27
513.90	46686.67
514.08	46808.37
514.25	47192.22
514.43	47367.76
514.60	47112.64
514.77	47152.43
514.95	47423.93
515.12	47688.42
515.29	47550.32
515.47	47852.25
515.64	47782.04
515.81	47657.99
515.99	48130.78
516.16	48149.50
516.33	47908.43
516.51	48376.53
516.68	48399.94
516.85	48130.78
517.03	48531.01
517.20	48643.35
517.37	48898.47
517.54	48825.92
517.72	48940.60
517.89	48872.73
518.06	48975.71
518.24	49134.87
518.41	48968.69
518.58	49066.99
518.75	49008.48
518.93	49366.58
519.10	49226.15
519.27	49312.75
519.45	49354.88
519.62	49691.91
519.79	49853.41
519.96	49469.56
520.14	49698.94
520.31	49972.78
520.48	49900.22
520.65	50356.63
520.83	50291.09
521.00	50658.56
521.17	50466.63
521.34	50628.13
521.52	50501.74
521.69	50508.76
521.86	50696.00
522.03	50948.78
522.20	50939.42
522.38	51093.89
522.55	51344.33
522.72	51110.28
522.89	50993.25
523.07	51224.96
523.24	51508.17
523.41	51271.78
523.58	51180.49
523.75	51812.44
523.92	51480.08
524.10	51585.41
524.27	51854.57
524.44	52257.14
524.61	51938.83
524.78	52137.77
524.96	52240.76
525.13	52147.14
525.30	52109.69
525.47	52182.24
525.64	52123.73
525.81	52217.35
525.98	52413.96
526.16	52495.88
526.33	52175.22
526.50	52683.12
526.67	52575.45
526.84	52669.08
527.01	52552.05
527.18	52598.86
527.36	52769.72
527.53	52676.10
527.70	53216.76
527.87	53256.55
528.04	52912.49
528.21	53354.85
528.38	52996.75
528.55	53347.83
528.72	52865.68
528.89	53389.96
529.07	53389.96
529.24	53050.58
529.41	53317.40
529.58	53010.79
529.75	53488.26
529.92	53654.44
530.09	53731.68
530.26	53785.51
530.43	53860.41
530.60	53544.44
530.77	53855.73
530.94	53900.20
531.11	53682.53
531.28	53790.19
531.46	53797.21
531.63	54129.57
531.80	53982.12
531.97	54136.59
532.14	54141.27
532.31	54209.15
532.48	54424.48
532.65	54454.90
532.82	54382.35
532.99	54466.61
533.16	54564.91
533.33	54674.91
533.50	54508.74
533.67	54487.67
533.84	54684.28
534.01	54724.07
534.18	54808.32
534.35	55105.57
534.52	54805.98
534.69	55035.36
534.86	55147.70
535.03	54770.88
535.20	55103.23
535.37	55224.94
535.54	55079.83
535.71	55138.34
535.88	55035.36
536.05	55157.06
536.22	55292.82
536.38	55386.44
536.55	55468.36
536.72	55571.34
536.89	55250.69
537.06	55601.77
537.23	55501.12
537.40	55348.99
537.57	55730.50
537.74	55491.76
537.91	55746.88
538.08	55840.50
538.25	55679.00
538.42	55599.43
538.59	56154.13
538.75	55501.12
538.92	55845.18
539.09	55987.95
539.26	56240.73
539.43	55821.78
539.60	56186.90
539.77	56158.81
539.94	56360.10
540.11	56123.71
540.28	56266.48
540.44	56226.69
540.61	56140.09
540.78	56261.80
540.95	56252.44
541.12	56378.82
541.29	56308.61
541.46	56549.68
541.62	56500.53
541.79	56596.49
541.96	56552.02
542.13	56484.15
542.30	56350.74
542.47	56708.84
542.63	56889.06
542.80	56619.90
542.97	56790.76
543.14	57102.05
543.31	56952.26
543.48	57137.16
543.64	57268.23
543.81	57130.14
543.98	57237.80
544.15	57298.65
544.32	57387.60
544.48	57581.86
544.65	57176.95
544.82	56956.94
544.99	57165.24
545.16	57523.35
545.32	57298.65
545.49	57513.98
545.66	57619.31
545.83	57506.96
546.00	57591.22
546.16	57528.03
546.33	57359.51
546.50	57403.98
546.67	57324.40
546.83	57322.06
547.00	57549.09
547.17	57621.65
547.34	57408.66
547.50	57525.69
547.67	57708.25
547.84	57783.15
548.00	58066.35
548.17	57954.00
548.34	57862.72
548.51	58157.63
548.67	58122.52
548.84	57900.17
549.01	57954.00
549.18	57996.13
549.34	58007.84
549.51	58099.12
549.68	58108.48
549.84	58012.52
550.01	58316.79
550.18	58045.29
550.34	58319.13
550.51	58305.09
550.68	58389.34
550.84	58155.29
551.01	58571.91
551.18	58241.89
551.34	58426.79
551.51	58438.50
551.68	58597.65
551.84	58293.38
552.01	58394.03
552.18	58452.54
552.34	58497.01
552.51	58511.05
552.68	58293.38
552.84	58459.56
553.01	58590.63
553.18	58651.48
553.34	58499.35
553.51	58419.77
553.67	58908.94
553.84	58862.13
554.01	58820.00
554.17	59028.31
554.34	58990.86
554.51	58742.77
554.67	58686.59
554.84	58890.22
555.00	58841.07
555.17	58866.81
555.33	58920.65
555.50	58922.99
555.67	58979.16
555.83	58812.98
556.00	59030.65
556.16	59302.15
556.33	59260.02
556.50	59098.53
556.66	59117.25
556.83	59025.97
556.99	59082.14
557.16	59421.52
557.32	59346.62
557.49	59407.48
557.65	59407.48
557.82	59250.66
557.98	59269.39
558.15	59489.40
558.32	59173.42
558.48	59264.70
558.65	59487.06
558.81	59178.10
558.98	59470.67
559.14	59166.40
559.31	59407.48
559.47	59482.37
559.64	59496.42
559.80	59536.21
559.97	59583.02
560.13	59461.31
560.30	59566.63
560.46	59700.04
560.63	59683.66
560.79	59629.83
560.96	59833.46
561.12	59587.70
561.29	59641.53
561.45	59667.28
561.61	59737.49
561.78	59891.97
561.94	59498.76
562.11	59487.06
562.27	59660.26
562.44	59868.56
562.60	59910.69
562.77	59810.05
562.93	59744.51
563.10	60053.47
563.26	59882.61
563.42	59854.52
563.59	59695.36
563.75	59980.91
563.92	59854.52
564.08	59760.90
564.24	60032.40
564.41	59817.07
564.57	59835.80
564.74	59826.43
564.90	60095.60
565.07	59917.71
565.23	60016.02
565.39	59838.14
565.56	60032.40
565.72	60119.00
565.88	60081.55
566.05	60062.83
566.21	60041.76
566.38	60123.68
566.54	60179.85
566.70	60364.76
566.87	60367.10
567.03	59980.91
567.19	60266.45
567.36	60163.47
567.52	60083.89
567.68	60446.68
567.85	60313.26
568.01	60121.34
568.17	60273.48
568.34	60219.64
568.50	60168.15
568.66	60264.11
568.83	60306.24
568.99	60018.36
569.15	60425.61
569.32	60142.41
569.48	60268.79
569.64	60404.55
569.81	60168.15
569.97	60292.20
570.13	60200.92
570.30	60418.59
570.46	60423.27
570.62	60268.79
570.78	60240.71
570.95	60465.40
571.11	60451.36
571.27	60427.95
571.43	60303.90
571.60	60378.80
571.76	60315.61
571.92	60444.33
572.09	60561.36
572.25	60425.61
572.41	60530.93
572.57	60441.99
572.74	60491.15
572.90	60214.96
573.06	60444.33
573.22	60467.74
573.38	60500.51
573.55	60364.76
573.71	60537.96
573.87	60619.88
574.03	60367.10
574.20	60488.80
574.36	60587.11
574.52	60570.72
574.68	60573.06
574.84	60762.65
575.01	60666.69
575.17	60729.88
575.33	60732.22
575.49	60409.23
575.65	60636.26
575.82	60779.03
575.98	60786.05
576.14	60797.76
576.30	60725.20
576.46	60626.90
576.62	60729.88
576.79	60657.32
576.95	60434.97
577.11	60521.57
577.27	60699.45
577.43	60708.82
577.59	60563.70
577.75	60760.31
577.92	60692.43
578.08	60711.16
578.24	60540.30
578.40	60891.38
578.56	61052.87
578.72	60767.33
578.88	60757.97
579.04	60830.52
579.21	60853.93
579.37	60687.75
579.53	60739.24
579.69	60624.56
579.85	60704.13
580.01	60750.94
580.17	60472.42
580.33	60729.88
580.49	60795.42
580.65	60647.96
580.82	60725.20
580.98	60767.33
581.14	60690.09
581.30	60985.00
581.46	60676.05
581.62	60982.66
581.78	60683.07
581.94	60945.21
582.10	60706.47
582.26	60886.70
582.42	60591.79
582.58	60945.21
582.74	60903.08
582.90	60879.67
583.06	60692.43
583.22	60842.23
583.38	60769.67
583.54	60839.89
583.70	60657.32
583.86	60905.42
584.02	60772.01
584.18	60856.27
584.34	60886.70
584.50	60935.85
584.66	60748.60
584.82	60474.76
584.98	60954.57
585.14	60889.04
585.30	60636.26
585.46	60882.02
585.62	60942.87
585.78	61113.73
585.94	60767.33
586.10	60865.63
586.26	60872.65
586.42	61125.43
586.58	60865.63
586.74	61010.74
586.90	60961.59
587.06	60760.31
587.22	60853.93
587.38	60879.67
587.54	61001.38
587.70	61123.09
587.86	60952.23
588.02	60856.27
588.18	61062.24
588.34	60877.33
588.49	60886.70
