SpectraSuite Data File
++++++++++++++++++++++++++++++++++++
Date: Fri Oct 25 10:47:56 EDT 2013
User: price-jones
Dark Spectrum Present: No
Reference Spectrum Present: No
Number of Sampled Component Spectra: 1
Spectrometers: USB2+H05261
Integration Time (usec): 100000 (USB2+H05261)
Spectra Averaged: 1 (USB2+H05261)
Boxcar Smoothing: 0 (USB2+H05261)
Correct for Electrical Dark: No (USB2+H05261)
Strobe/Lamp Enabled: No (USB2+H05261)
Correct for Detector Non-linearity: No (USB2+H05261)
Correct for Stray Light: No (USB2+H05261)
Number of Pixels in Processed Spectrum: 2048
>>>>>Begin Processed Spectral Data<<<<<
365.73	175.54
365.92	175.54
366.12	175.54
366.32	42.13
366.52	70.22
366.72	81.92
366.91	28.09
367.11	7.02
367.31	0.00
367.51	58.51
367.70	51.49
367.90	79.58
368.10	44.47
368.30	32.77
368.49	117.03
368.69	37.45
368.89	32.77
369.09	51.49
369.28	95.96
369.48	32.77
369.68	135.75
369.87	93.62
370.07	133.41
370.27	121.71
370.47	252.78
370.66	376.83
370.86	416.62
371.06	519.60
371.25	510.24
371.45	540.66
371.65	571.09
371.84	386.19
372.04	470.45
372.24	507.90
372.44	433.00
372.63	489.17
372.83	482.15
373.03	535.98
373.22	521.94
373.42	470.45
373.62	514.92
373.81	599.18
374.01	603.86
374.21	477.47
374.40	568.75
374.60	566.41
374.79	519.60
374.99	531.30
375.19	550.03
375.38	613.22
375.58	645.99
375.78	617.90
375.97	559.39
376.17	636.63
376.37	554.71
376.56	601.52
376.76	547.69
376.95	585.13
377.15	603.86
377.35	669.39
377.54	683.44
377.74	636.63
377.93	589.82
378.13	622.58
378.33	627.26
378.52	564.07
378.72	608.54
378.91	655.35
379.11	545.34
379.31	603.86
379.50	610.88
379.70	695.14
379.89	678.76
380.09	641.31
380.28	643.65
380.48	697.48
380.68	758.33
380.87	676.41
381.07	702.16
381.26	634.29
381.46	617.90
381.65	734.93
381.85	725.57
382.04	599.18
382.24	699.82
382.43	664.71
382.63	685.78
382.83	765.36
383.02	723.23
383.22	730.25
383.41	641.31
383.61	676.41
383.80	779.40
384.00	844.93
384.19	763.01
384.39	685.78
384.58	713.86
384.78	744.29
384.97	767.70
385.17	730.25
385.36	781.74
385.56	718.54
385.75	765.36
385.95	725.57
386.14	779.40
386.34	805.14
386.53	828.55
386.72	741.95
386.92	814.51
387.11	777.06
387.31	910.47
387.50	830.89
387.70	856.64
387.89	844.93
388.09	849.61
388.28	788.76
388.48	877.70
388.67	814.51
388.86	915.15
389.06	894.08
389.25	866.00
389.45	880.04
389.64	844.93
389.84	891.74
390.03	966.64
390.22	863.66
390.42	887.06
390.61	884.72
390.81	924.51
391.00	905.79
391.19	1008.77
391.39	968.98
391.58	961.96
391.78	922.17
391.97	1055.58
392.16	938.55
392.36	964.30
392.55	952.60
392.75	976.00
392.94	945.58
393.13	997.07
393.33	976.00
393.52	945.58
393.71	985.37
393.91	1076.65
394.10	1025.15
394.29	1107.07
394.49	1083.67
394.68	1137.50
394.88	1137.50
395.07	1107.07
395.26	1076.65
395.46	1083.67
395.65	1151.54
395.84	1172.61
396.04	1226.44
396.23	1200.69
396.42	1088.35
396.62	1160.91
396.81	1198.35
397.00	1137.50
397.19	1174.95
397.39	1170.27
397.58	1261.55
397.77	1301.34
397.97	1289.64
398.16	1207.72
398.35	1350.49
398.55	1336.45
398.74	1268.57
398.93	1401.98
399.12	1256.87
399.32	1350.49
399.51	1291.98
399.70	1355.17
399.90	1322.40
400.09	1469.86
400.28	1327.08
400.47	1483.90
400.67	1535.39
400.86	1453.47
401.05	1420.71
401.24	1486.24
401.44	1458.15
401.63	1486.24
401.82	1509.65
402.01	1483.90
402.21	1434.75
402.40	1568.16
402.59	1511.99
402.78	1523.69
402.97	1591.56
403.17	1617.31
403.36	1593.90
403.55	1575.18
403.74	1657.10
403.93	1605.61
404.13	1678.16
404.32	1582.20
404.51	1647.74
404.70	1771.79
404.89	1666.46
405.09	1708.59
405.28	1795.19
405.47	1858.39
405.66	1708.59
405.85	1792.85
406.05	1666.46
406.24	1694.55
406.43	1823.28
406.62	1785.83
406.81	1849.02
407.00	1844.34
407.20	1732.00
407.39	1834.98
407.58	1823.28
407.77	1980.09
407.96	1830.30
408.15	2015.20
408.34	1916.90
408.54	1926.26
408.73	2050.31
408.92	1996.48
409.11	2108.82
409.30	2017.54
409.49	1984.77
409.68	2033.93
409.87	2141.59
410.07	2125.21
410.26	2101.80
410.45	2071.37
410.64	2153.29
410.83	2235.21
411.02	2157.97
411.21	2256.28
411.40	2363.94
411.59	2385.01
411.78	2225.85
411.98	2340.54
412.17	2335.85
412.36	2296.07
412.55	2389.69
412.74	2387.35
412.93	2326.49
413.12	2413.09
413.31	2593.31
413.50	2363.94
413.69	2541.82
413.88	2586.29
414.07	2527.78
414.26	2520.76
414.45	2612.04
414.64	2497.35
414.83	2595.65
415.02	2757.15
415.22	2684.59
415.41	2799.28
415.60	2768.85
415.79	2944.39
415.98	2923.33
416.17	2822.69
416.36	2775.88
416.55	2902.26
416.74	2965.46
416.93	2785.24
417.12	2944.39
417.31	2829.71
417.50	2935.03
417.69	3171.43
417.88	3035.67
418.07	3054.40
418.26	3000.57
418.45	3213.56
418.64	3038.02
418.83	3232.28
419.02	3173.77
419.21	3119.93
419.39	3304.84
419.58	3108.23
419.77	3148.02
419.96	3283.77
420.15	3375.05
420.34	3321.22
420.53	3227.60
420.72	3342.28
420.91	3393.78
421.10	3377.39
421.29	3487.40
421.48	3302.50
421.67	3349.31
421.86	3396.12
422.05	3534.21
422.24	3370.37
422.43	3428.88
422.61	3461.65
422.80	3442.93
422.99	3482.72
423.18	3492.08
423.37	3529.53
423.56	3559.95
423.75	3534.21
423.94	3456.97
424.13	3213.56
424.32	3344.63
424.50	3456.97
424.69	3623.15
424.88	3585.70
425.07	3480.38
425.26	3503.78
425.45	3496.76
425.64	3606.77
425.83	3524.85
426.01	3688.68
426.20	3606.77
426.39	3632.51
426.58	3494.42
426.77	3522.51
426.96	3592.72
427.15	3655.92
427.33	3684.00
427.52	3632.51
427.71	3674.64
427.90	3684.00
428.09	3824.44
428.28	3831.46
428.46	3803.37
428.65	3817.41
428.84	3786.99
429.03	3889.97
429.22	3726.13
429.40	3798.69
429.59	3801.03
429.78	3531.87
429.97	3595.06
430.16	3534.21
430.34	3845.50
430.53	3801.03
430.72	3861.88
430.91	3880.61
431.10	3929.76
431.28	4023.38
431.47	4138.07
431.66	4217.65
431.85	4021.04
432.03	4262.12
432.22	4222.33
432.41	4308.93
432.60	4212.96
432.79	4156.79
432.97	4224.67
433.16	4227.01
433.35	4245.73
433.54	4248.07
433.72	4386.16
433.91	4184.88
434.10	4283.18
434.28	4388.50
434.47	4348.72
434.66	4435.32
434.85	4507.87
435.03	4390.84
435.22	4573.41
435.41	4528.94
435.59	4489.15
435.78	4690.43
435.97	4557.02
436.16	4589.79
436.34	4622.56
436.53	4493.83
436.72	4723.20
436.90	4615.54
437.09	4697.46
437.28	4645.96
437.46	4711.50
437.65	4601.49
437.84	4660.01
438.02	4587.45
438.21	4636.60
438.40	4753.63
438.58	4959.60
438.77	4978.32
438.96	4833.21
439.14	4987.68
439.33	5111.73
439.52	5069.60
439.70	5174.92
439.89	5109.39
440.08	5188.97
440.26	5085.98
440.45	5146.84
440.63	5198.33
440.82	5331.74
441.01	5284.93
441.19	5568.13
441.38	5401.96
441.57	5493.24
441.75	5579.84
441.94	5589.20
442.12	5504.94
442.31	5804.53
442.50	5762.40
442.68	5673.46
442.87	5685.16
443.05	5554.09
443.24	5977.73
443.43	5731.97
443.61	5881.77
443.80	5877.09
443.98	5605.58
444.17	5614.95
444.35	5748.36
444.54	5909.85
444.73	5781.12
444.91	5935.60
445.10	5867.72
445.28	5776.44
445.47	5626.65
445.65	5762.40
445.84	6111.14
446.02	6094.76
446.21	5856.02
446.39	5902.83
446.58	5944.96
446.77	5891.13
446.95	5858.36
447.14	5928.58
447.32	5956.66
447.51	5949.64
447.69	5886.45
447.88	5937.94
448.06	6134.54
448.25	5998.79
448.43	6026.88
448.62	5909.85
448.80	6129.86
448.99	6090.07
449.17	6122.84
449.36	6045.60
449.54	6221.14
449.73	6333.49
449.91	6373.28
450.10	6249.23
450.28	6345.19
450.46	6314.77
450.65	6270.30
450.83	6427.11
451.02	6427.11
451.20	6279.66
451.39	6450.52
451.57	6497.33
451.76	6473.92
451.94	6338.17
452.13	6675.21
452.31	6581.59
452.49	6403.71
452.68	6352.21
452.86	6459.88
453.05	6623.72
453.23	6651.80
453.42	6539.46
453.60	6548.82
453.78	6771.17
453.97	6586.27
454.15	6679.89
454.34	6532.44
454.52	6808.62
454.70	6656.48
454.89	6595.63
455.07	6810.96
455.26	6923.30
455.44	6927.99
455.62	6883.52
455.81	7028.63
455.99	6970.12
456.17	6986.50
456.36	7033.31
456.54	7061.40
456.73	7148.00
456.91	7274.38
457.09	7279.07
457.28	7356.30
457.46	7328.22
457.64	7377.37
457.83	7391.41
458.01	7152.68
458.19	7466.31
458.38	7295.45
458.56	7595.04
458.74	7389.07
458.93	7583.34
459.11	7510.78
459.29	7536.52
459.48	7501.42
459.66	7613.76
459.84	7548.23
460.03	7808.03
460.21	7538.87
460.39	7630.15
460.57	7573.97
460.76	7824.41
460.94	7681.64
461.12	7709.72
461.31	7672.28
461.49	7772.92
461.67	7730.79
461.85	7992.93
462.04	7854.84
462.22	8395.50
462.40	8091.23
462.59	7878.24
462.77	8091.23
462.95	8145.06
463.13	8098.25
463.32	8102.93
463.50	7981.23
463.68	8086.55
463.86	8135.70
464.05	8013.99
464.23	7911.01
464.41	8264.43
464.59	8053.78
464.78	8264.43
464.96	8226.98
465.14	8348.69
465.32	8276.13
465.50	8334.65
465.69	8273.79
465.87	8322.94
466.05	8400.18
466.23	8388.48
466.41	8470.40
466.60	8624.87
466.78	8308.90
466.96	8325.29
467.14	8416.57
467.32	8470.40
467.51	8720.84
467.69	8458.70
467.87	8411.89
468.05	8683.39
468.23	8571.04
468.41	8535.93
468.60	8566.36
468.78	8699.77
468.96	8578.06
469.14	8809.78
469.32	8800.41
469.50	8706.79
469.69	8777.01
469.87	8781.69
470.05	8800.41
470.23	8975.95
470.41	8856.59
470.59	8865.95
470.77	8917.44
470.95	9085.96
471.14	9179.58
471.32	9165.54
471.50	9387.89
471.68	9226.39
471.86	9432.36
472.04	9198.31
472.22	9755.35
472.40	9167.88
472.58	9289.59
472.77	9404.27
472.95	9540.02
473.13	9919.19
473.31	9378.53
473.49	9533.00
473.67	9502.58
473.85	9568.11
474.03	9710.88
474.21	9949.62
474.39	9900.47
474.57	10097.07
474.75	10045.58
474.93	10122.82
475.12	10188.35
475.30	10221.12
475.48	10237.50
475.66	10284.31
475.84	10181.33
476.02	10534.75
476.20	10511.35
476.38	10611.99
476.56	10778.17
476.74	10796.89
476.92	10672.84
477.10	10696.25
477.28	10949.03
477.46	10984.13
477.64	11016.90
477.82	11311.81
478.00	11302.45
478.18	11335.21
478.36	11321.17
478.54	11510.75
478.72	11435.86
478.90	11489.69
479.08	11779.92
479.26	11882.90
479.44	11960.14
479.62	12114.61
479.80	11953.12
479.98	12184.83
480.16	12266.75
480.34	12505.48
480.52	12664.64
480.70	12526.55
480.88	12477.40
481.06	12706.77
481.24	12397.82
481.41	12915.08
481.59	13186.58
481.77	12973.59
481.95	13207.64
482.13	13331.69
482.31	13282.54
482.49	13659.37
482.67	13458.08
482.85	13488.51
483.03	13846.61
483.21	13916.83
483.39	14022.15
483.57	13973.00
483.74	14235.14
483.92	14403.66
484.10	14134.50
484.28	14675.16
484.46	14532.39
484.64	14677.50
484.82	14609.62
485.00	14820.27
485.18	14888.15
485.35	15154.97
485.53	15051.99
485.71	15059.01
485.89	15414.77
486.07	15541.16
486.25	15332.85
486.43	15524.77
486.61	15726.06
486.78	16219.91
486.96	16135.65
487.14	15976.50
487.32	16067.78
487.50	16500.78
487.68	16819.09
487.85	16772.28
488.03	17053.14
488.21	16952.50
488.39	17020.38
488.57	17240.39
488.75	17137.40
488.92	17308.26
489.10	18001.06
489.28	17544.66
489.46	18019.78
489.64	18040.85
489.81	18380.23
489.99	18305.33
490.17	18307.67
490.35	18618.96
490.53	18820.25
490.70	18721.95
490.88	18806.20
491.06	19066.00
491.24	18974.72
491.41	19143.24
491.59	19241.54
491.77	19124.52
491.95	19566.88
492.13	19480.28
492.30	19969.45
492.48	20238.61
492.66	19606.67
492.84	19824.34
493.01	20353.30
493.19	19850.08
493.37	20177.76
493.54	20243.29
493.72	20751.19
493.90	20575.65
494.08	20952.48
494.25	21212.28
494.43	21434.63
494.61	21025.03
494.79	21579.74
494.96	21120.99
495.14	21556.33
495.32	21476.76
495.49	22059.55
495.67	21986.99
495.85	22059.55
496.02	22207.00
496.20	22614.26
496.38	22305.31
496.55	22541.70
496.73	22899.80
496.91	22731.28
497.09	22951.29
497.26	22972.36
497.44	22843.63
497.62	23386.63
497.79	23274.29
497.97	23297.69
498.14	23435.78
498.32	23248.54
498.50	23957.72
498.67	23667.50
498.85	23737.71
499.03	24346.25
499.20	24041.98
499.38	23981.13
499.56	24173.05
499.73	24498.39
499.91	24425.83
500.08	24432.85
500.26	24203.48
500.44	24554.56
500.61	24624.78
500.79	24706.70
500.97	24898.62
501.14	25331.62
501.32	25184.16
501.49	25081.18
501.67	25226.29
501.84	25399.49
502.02	25638.23
502.20	25689.72
502.37	25783.34
502.55	25612.48
502.72	25902.71
502.90	25687.38
503.07	25830.15
503.25	26075.91
503.43	26010.37
503.60	26188.25
503.78	26085.27
503.95	26670.40
504.13	26162.51
504.30	26441.03
504.48	26485.50
504.65	26838.92
504.83	27056.59
505.01	27007.44
505.18	26834.24
505.36	27091.70
505.53	27211.07
505.71	27625.34
505.88	27508.32
506.06	27381.93
506.23	27370.22
506.41	27213.41
506.58	27627.68
506.76	27953.02
506.93	27758.75
507.11	27943.66
507.28	27917.91
507.46	27969.40
507.63	28030.26
507.81	28163.67
507.98	28182.39
508.16	28002.17
508.33	27950.68
508.50	28236.22
508.68	28608.37
508.85	28807.31
509.03	28751.14
509.20	28933.70
509.38	29081.16
509.55	29193.50
509.73	28985.19
509.90	28978.17
510.08	29099.88
510.25	29237.97
510.42	29289.46
510.60	29436.92
510.77	29507.13
510.95	29912.05
511.12	29436.92
511.30	30005.67
511.47	29626.50
511.64	30146.10
511.82	30506.54
511.99	30047.80
512.17	30143.76
512.34	30209.29
512.51	30354.41
512.69	30539.31
512.86	30441.01
513.04	30267.81
513.21	30792.09
513.38	30850.60
513.56	30721.87
513.73	30543.99
513.90	31014.44
514.08	30679.74
514.25	31194.66
514.43	31234.45
514.60	31154.87
514.77	30864.64
514.95	31480.21
515.12	31349.14
515.29	31557.44
515.47	31398.29
515.64	31573.83
515.81	31634.68
515.99	31613.62
516.16	31700.22
516.33	31807.88
516.51	32025.55
516.68	31550.42
516.85	31674.47
517.03	32184.71
517.20	32198.75
517.37	32238.54
517.54	32266.63
517.72	31683.83
517.89	32528.77
518.06	32100.45
518.24	32568.55
518.41	32109.81
518.58	32280.67
518.75	32238.54
518.93	32795.59
519.10	32774.52
519.27	32772.18
519.45	32900.91
519.62	32861.12
519.79	33130.28
519.96	33303.48
520.14	33099.86
520.31	33184.12
520.48	33083.47
520.65	33303.48
520.83	33376.04
521.00	33675.63
521.17	33614.77
521.34	33729.46
521.52	33736.48
521.69	34197.57
521.86	34106.29
522.03	33897.98
522.20	34389.49
522.38	34330.98
522.55	34415.24
522.72	33750.52
522.89	34314.59
523.07	34429.28
523.24	34473.75
523.41	34946.54
523.58	34541.63
523.75	34857.60
523.92	34548.65
524.10	34499.50
524.27	35077.61
524.44	34689.08
524.61	34937.18
524.78	35278.89
524.96	34834.19
525.13	34981.65
525.30	35641.68
525.47	35526.99
525.64	35534.01
525.81	35496.56
525.98	35180.59
526.16	35213.36
526.33	35285.92
526.50	35934.24
526.67	35534.01
526.84	35222.72
527.01	35515.29
527.18	35742.32
527.36	35611.25
527.53	35957.65
527.70	36444.48
527.87	36374.27
528.04	35999.78
528.21	36329.80
528.38	35805.52
528.55	36222.13
528.72	36486.61
528.89	36596.62
529.07	36325.11
529.24	36201.07
529.41	36706.62
529.58	36367.24
529.75	36418.74
529.92	36669.17
530.09	36779.18
530.26	36947.70
530.43	37017.91
530.60	36734.71
530.77	36980.46
530.94	36797.90
531.11	37027.28
531.28	37179.41
531.46	37076.43
531.63	37471.98
531.80	37326.86
531.97	37247.29
532.14	37652.20
532.31	37291.76
532.48	37514.11
532.65	37483.68
532.82	37146.64
532.99	37572.62
533.16	37167.71
533.33	37851.14
533.50	38153.07
533.67	38087.54
533.84	37743.48
534.01	38089.88
534.18	37855.82
534.35	38609.48
534.52	37626.45
534.69	38300.53
534.86	38087.54
535.03	38003.28
535.20	38232.65
535.37	38148.39
535.54	38850.55
535.71	38169.46
535.88	38139.03
536.05	38242.01
536.22	38562.67
536.38	38700.76
536.55	38359.04
536.72	38733.53
536.89	38281.80
537.06	38705.44
537.23	39026.09
537.40	38892.68
537.57	38756.93
537.74	39012.05
537.91	38990.98
538.08	38885.66
538.25	39089.29
538.42	39276.53
538.59	39346.75
538.75	39199.29
538.92	39054.18
539.09	39423.98
539.26	39131.42
539.43	39306.96
539.60	39426.32
539.77	39311.64
539.94	39269.51
540.11	39246.10
540.28	39405.26
540.44	39496.54
540.61	39634.63
540.78	39084.61
540.95	39526.97
541.12	39091.63
541.29	39550.37
541.46	39756.34
541.62	39693.15
541.79	40032.52
541.96	39452.07
542.13	40032.52
542.30	40016.14
542.47	40371.90
542.63	40100.40
542.80	40540.42
542.97	40519.35
543.14	40800.22
543.31	40184.66
543.48	40627.02
543.64	40783.83
543.81	40933.63
543.98	40498.29
544.15	40418.71
544.32	41090.44
544.48	41256.62
544.65	40334.45
544.82	40378.92
544.99	40793.20
545.16	40942.99
545.32	40584.89
545.49	40849.37
545.66	41333.86
545.83	41050.66
546.00	41478.97
546.16	40814.26
546.33	40938.31
546.50	40402.33
546.67	41350.24
546.83	40783.83
547.00	40807.24
547.17	40935.97
547.34	41397.06
547.50	41366.63
547.67	41670.90
547.84	41902.61
548.00	41816.01
548.17	41876.86
548.34	41357.27
548.51	41928.36
548.67	41724.73
548.84	41841.76
549.01	41713.03
549.18	41673.24
549.34	41684.94
549.51	41853.46
549.68	41956.44
549.84	41961.12
550.01	42033.68
550.18	41762.18
550.34	41689.62
550.51	41970.49
550.68	42274.76
550.84	41668.56
551.01	42040.70
551.18	41918.99
551.34	42115.60
551.51	41888.57
551.68	42452.64
551.84	42314.55
552.01	42075.81
552.18	42342.63
552.34	42080.49
552.51	42323.91
552.68	42653.92
552.84	42677.33
553.01	42817.76
553.18	42557.96
553.34	42955.85
553.51	42234.97
553.67	42763.93
553.84	42796.70
554.01	42930.11
554.17	42897.34
554.34	42848.19
554.51	42780.31
554.67	43222.67
554.84	42614.13
555.00	42583.71
555.17	42497.11
555.33	42817.76
555.50	42564.98
555.67	42567.32
555.83	42724.14
556.00	42946.49
556.16	43470.77
556.33	43178.20
556.50	43126.71
556.66	43344.38
556.83	43079.90
556.99	43175.86
557.16	43393.53
557.32	43339.70
557.49	43440.34
557.65	42822.44
557.82	42981.60
557.98	43438.00
558.15	42904.36
558.32	43222.67
558.48	43164.16
558.65	43634.61
558.81	42979.26
558.98	42993.30
559.14	43143.09
559.31	43133.73
559.47	43164.16
559.64	43522.26
559.80	43702.48
559.97	43377.15
560.13	43494.18
560.30	43335.02
560.46	43447.36
560.63	43789.08
560.79	43480.13
560.96	43784.40
561.12	43538.65
561.29	42925.42
561.45	43320.98
561.61	43606.52
561.78	43578.43
561.94	43452.05
562.11	43599.50
562.27	43709.50
562.44	43910.79
562.60	43634.61
562.77	43978.67
562.93	43798.44
563.10	44212.72
563.26	43700.14
563.42	44055.90
563.59	43917.81
563.75	43714.19
563.92	43779.72
564.08	43894.41
564.24	44144.84
564.41	43842.92
564.57	43735.25
564.74	43683.76
564.90	44067.61
565.07	44137.82
565.23	43833.55
565.39	44133.14
565.56	44208.04
565.72	44362.51
565.88	44109.74
566.05	44275.91
566.21	44203.36
566.38	43683.76
566.54	43943.56
566.70	44196.34
566.87	44563.80
567.03	44081.65
567.19	44388.26
567.36	44282.94
567.52	44154.21
567.68	44861.05
567.85	44261.87
568.01	44205.70
568.17	44149.53
568.34	44133.14
568.50	44308.68
568.66	44133.14
568.83	44371.88
568.99	43608.86
569.15	44226.76
569.32	44175.27
569.48	44114.42
569.64	44619.97
569.81	44285.28
569.97	44479.54
570.13	44589.55
570.30	44198.68
570.46	43985.69
570.62	43899.09
570.78	44208.04
570.95	44280.60
571.11	44685.51
571.27	44105.06
571.43	44179.95
571.60	44399.96
571.76	44421.03
571.92	43995.05
572.09	44343.79
572.25	44713.59
572.41	44247.83
572.57	44774.45
572.74	44907.86
572.90	44135.48
573.06	44591.89
573.22	44512.31
573.38	44617.63
573.55	44414.01
573.71	44748.70
573.87	44308.68
574.03	44261.87
574.20	44086.33
574.36	44430.39
574.52	44601.25
574.68	44498.26
574.84	44259.53
575.01	44311.02
575.17	44444.43
575.33	44266.55
575.49	44456.14
575.65	44643.38
575.82	45043.61
575.98	44570.82
576.14	44847.00
576.30	44346.13
576.46	44767.43
576.62	44535.71
576.79	44133.14
576.95	44081.65
577.11	44545.08
577.27	44444.43
577.43	44917.22
577.59	44502.95
577.75	44760.40
577.92	44442.09
578.08	44243.15
578.24	44088.67
578.40	44327.41
578.56	44804.88
578.72	44500.61
578.88	44247.83
579.04	44774.45
579.21	44486.56
579.37	44657.42
579.53	44666.78
579.69	44369.54
579.85	44224.42
580.01	44758.06
580.17	44851.69
580.33	44816.58
580.49	45563.21
580.65	44748.70
580.82	44664.44
580.98	44919.56
581.14	44524.01
581.30	44737.00
581.46	45120.85
581.62	44678.49
581.78	44666.78
581.94	45141.91
582.10	44765.09
582.26	44877.43
582.42	44547.42
582.58	45043.61
582.74	44699.55
582.90	44542.74
583.06	44861.05
583.22	44800.19
583.38	44797.85
583.54	44526.35
583.70	44535.71
583.86	44804.88
584.02	44179.95
584.18	44835.30
584.34	45001.48
584.50	44802.53
584.66	44341.45
584.82	44608.27
584.98	45024.89
585.14	44877.43
585.30	44575.50
585.46	44992.12
585.62	44924.24
585.78	44261.87
585.94	44470.18
586.10	44531.03
586.26	44430.39
586.42	44968.71
586.58	44903.18
586.74	44800.19
586.90	44608.27
587.06	44725.30
587.22	44889.13
587.38	44341.45
587.54	45254.26
587.70	45027.23
587.86	44788.49
588.02	45106.80
588.18	45064.67
588.34	45008.50
588.49	44280.60
588.65	44507.63
588.81	44570.82
588.97	44493.58
589.13	44708.91
589.29	44587.21
589.45	44781.47
589.61	45027.23
589.77	45315.11
589.93	45200.43
590.08	45256.60
590.24	45144.25
