SpectraSuite Data File
++++++++++++++++++++++++++++++++++++
Date: Fri Oct 25 10:44:04 EDT 2013
User: price-jones
Dark Spectrum Present: No
Reference Spectrum Present: No
Number of Sampled Component Spectra: 1
Spectrometers: USB2+H05261
Integration Time (usec): 100000 (USB2+H05261)
Spectra Averaged: 1 (USB2+H05261)
Boxcar Smoothing: 0 (USB2+H05261)
Correct for Electrical Dark: No (USB2+H05261)
Strobe/Lamp Enabled: No (USB2+H05261)
Correct for Detector Non-linearity: No (USB2+H05261)
Correct for Stray Light: No (USB2+H05261)
Number of Pixels in Processed Spectrum: 2048
>>>>>Begin Processed Spectral Data<<<<<
365.73	88.94
365.92	88.94
366.12	88.94
366.32	107.66
366.52	63.19
366.72	63.19
366.91	11.70
367.11	23.41
367.31	0.00
367.51	49.15
367.70	0.00
367.90	0.00
368.10	58.51
368.30	0.00
368.49	32.77
368.69	67.88
368.89	11.70
369.09	28.09
369.28	60.85
369.48	53.83
369.68	107.66
369.87	72.56
370.07	91.28
370.27	107.66
370.47	177.88
370.66	304.27
370.86	400.23
371.06	458.74
371.25	461.09
371.45	418.96
371.65	491.51
371.84	379.17
372.04	526.62
372.24	524.28
372.44	524.28
372.63	512.58
372.83	545.34
373.03	535.98
373.22	496.19
373.42	573.43
373.62	601.52
373.81	545.34
374.01	475.13
374.21	641.31
374.40	587.47
374.60	627.26
374.79	622.58
374.99	601.52
375.19	554.71
375.38	596.84
375.58	631.94
375.78	561.73
375.97	587.47
376.17	676.41
376.37	599.18
376.56	669.39
376.76	636.63
376.95	606.20
377.15	699.82
377.35	648.33
377.54	660.03
377.74	622.58
377.93	624.92
378.13	746.63
378.33	718.54
378.52	716.20
378.72	676.41
378.91	706.84
379.11	681.10
379.31	697.48
379.50	662.37
379.70	704.50
379.89	744.29
380.09	713.86
380.28	697.48
380.48	798.12
380.68	683.44
380.87	674.07
381.07	739.61
381.26	807.48
381.46	671.73
381.65	786.42
381.85	716.20
382.04	734.93
382.24	791.10
382.43	744.29
382.63	739.61
382.83	837.91
383.02	800.46
383.22	741.95
383.41	657.69
383.61	851.96
383.80	800.46
384.00	805.14
384.19	744.29
384.39	833.23
384.58	856.64
384.78	706.84
384.97	884.72
385.17	781.74
385.36	868.34
385.56	842.59
385.75	828.55
385.95	875.36
386.14	828.55
386.34	943.24
386.53	919.83
386.72	901.11
386.92	936.21
387.11	837.91
387.31	866.00
387.50	767.70
387.70	983.02
387.89	926.85
388.09	812.17
388.28	971.32
388.48	835.57
388.67	957.28
388.86	877.70
389.06	1018.13
389.25	926.85
389.45	1055.58
389.64	959.62
389.84	1064.94
390.03	1067.28
390.22	1020.47
390.42	1006.43
390.61	999.41
390.81	987.71
391.00	990.05
391.19	1100.05
391.39	1011.11
391.58	1055.58
391.78	1139.84
391.97	1006.43
392.16	1015.79
392.36	1102.39
392.55	1020.47
392.75	1020.47
392.94	990.05
393.13	936.21
393.33	957.28
393.52	1029.84
393.71	1008.77
393.91	1198.35
394.10	1100.05
394.29	1179.63
394.49	1191.33
394.68	1256.87
394.88	1320.06
395.07	1207.72
395.26	1277.93
395.46	1254.53
395.65	1322.40
395.84	1240.48
396.04	1287.29
396.23	1221.76
396.42	1174.95
396.62	1273.25
396.81	1294.32
397.00	1137.50
397.19	1261.55
397.39	1366.87
397.58	1399.64
397.77	1404.32
397.97	1514.33
398.16	1488.58
398.35	1465.18
398.55	1390.28
398.74	1500.28
398.93	1621.99
399.12	1511.99
399.32	1689.87
399.51	1603.27
399.70	1549.43
399.90	1570.50
400.09	1579.86
400.28	1678.16
400.47	1584.54
400.67	1703.91
400.86	1706.25
401.05	1753.06
401.24	1755.40
401.44	1755.40
401.63	1816.26
401.82	1778.81
402.01	1736.68
402.21	1811.57
402.40	1884.13
402.59	1790.51
402.78	1846.68
402.97	1849.02
403.17	1795.19
403.36	1874.77
403.55	1923.92
403.74	1944.99
403.93	1870.09
404.13	2008.18
404.32	2024.56
404.51	1966.05
404.70	1982.43
404.89	1975.41
405.09	2064.35
405.28	2080.74
405.47	2026.90
405.66	2073.71
405.85	2019.88
406.05	2073.71
406.24	2080.74
406.43	2202.44
406.62	2153.29
406.81	2155.63
407.00	2139.25
407.20	2232.87
407.39	2083.08
407.58	2155.63
407.77	2246.91
407.96	2244.57
408.15	2265.64
408.34	2305.43
408.54	2410.75
408.73	2466.92
408.92	2427.14
409.11	2401.39
409.30	2385.01
409.49	2394.37
409.68	2401.39
409.87	2239.89
410.07	2387.35
410.26	2445.86
410.45	2527.78
410.64	2495.01
410.83	2595.65
411.02	2518.42
411.21	2689.28
411.40	2583.95
411.59	2724.38
411.78	2733.75
411.98	2644.81
412.17	2715.02
412.36	2752.47
412.55	2771.19
412.74	2970.14
412.93	2876.52
413.12	2780.56
413.31	3089.51
413.50	2864.82
413.69	2932.69
413.88	2995.89
414.07	2876.52
414.26	2960.78
414.45	3030.99
414.64	2979.50
414.83	3183.13
415.02	3028.65
415.22	3192.49
415.41	3204.19
415.60	3297.81
415.79	3314.20
415.98	3332.92
416.17	3293.13
416.36	3321.22
416.55	3489.74
416.74	3431.23
416.93	3353.99
417.12	3454.63
417.31	3393.78
417.50	3503.78
417.69	3515.48
417.88	3543.57
418.07	3555.27
418.26	3501.44
418.45	3623.15
418.64	3726.13
418.83	3777.62
419.02	3758.90
419.21	3733.15
419.39	3684.00
419.58	3583.36
419.77	3618.47
419.96	3768.26
420.15	3957.85
420.34	3995.29
420.53	3894.65
420.72	3866.56
420.91	3845.50
421.10	3939.12
421.29	3936.78
421.48	3845.50
421.67	3985.93
421.86	3999.98
422.05	3948.48
422.24	3854.86
422.43	3801.03
422.61	3948.48
422.80	4046.79
422.99	4095.94
423.18	4133.39
423.37	4091.26
423.56	4072.53
423.75	3976.57
423.94	3854.86
424.13	3920.40
424.32	3971.89
424.50	4140.41
424.69	4098.28
424.88	4112.32
425.07	4058.49
425.26	4046.79
425.45	4049.13
425.64	4236.37
425.83	4149.77
426.01	4121.68
426.20	4168.49
426.39	4212.96
426.58	4133.39
426.77	4138.07
426.96	4105.30
427.15	4039.76
427.33	4184.88
427.52	4222.33
427.71	4142.75
427.90	4262.12
428.09	4353.40
428.28	4177.86
428.46	4269.14
428.65	4252.75
428.84	4599.15
429.03	4353.40
429.22	4219.99
429.40	4283.18
429.59	4217.65
429.78	4035.08
429.97	4028.06
430.16	4079.55
430.34	4210.62
430.53	4250.41
430.72	4358.08
430.91	4468.08
431.10	4472.76
431.28	4641.28
431.47	4842.57
431.66	4702.14
431.85	4716.18
432.03	4692.77
432.22	4851.93
432.41	4662.35
432.60	4753.63
432.79	4833.21
432.97	4961.94
433.16	4870.65
433.35	4835.55
433.54	4842.57
433.72	4795.76
433.91	4809.80
434.10	4814.48
434.28	4924.49
434.47	4992.36
434.66	5226.42
434.85	5188.97
435.03	5090.67
435.22	5050.88
435.41	5184.29
435.59	5170.24
435.78	5224.08
435.97	5242.80
436.16	5355.15
436.34	5296.63
436.53	5469.83
436.72	5350.46
436.90	5313.02
437.09	5266.21
437.28	5315.36
437.46	5275.57
437.65	5343.44
437.84	5469.83
438.02	5460.47
438.21	5451.11
438.40	5387.91
438.58	5507.28
438.77	5504.94
438.96	5600.90
439.14	5858.36
439.33	5909.85
439.52	5813.89
439.70	5881.77
439.89	5923.90
440.08	5853.68
440.26	5994.11
440.45	5987.09
440.63	5987.09
440.82	6101.78
441.01	6139.23
441.19	6164.97
441.38	6296.04
441.57	6214.12
441.75	6438.81
441.94	6319.45
442.12	6619.04
442.31	6600.31
442.50	6574.56
442.68	6478.60
442.87	6473.92
443.05	6443.49
443.24	6656.48
443.43	6637.76
443.61	6532.44
443.80	6958.41
443.98	6450.52
444.17	6464.56
444.35	6588.61
444.54	6841.39
444.73	6930.33
444.91	6640.10
445.10	6579.25
445.28	6626.06
445.47	6644.78
445.65	6686.91
445.84	6792.23
446.02	6899.90
446.21	6609.67
446.39	6731.38
446.58	6888.20
446.77	6916.28
446.95	6796.92
447.14	6869.47
447.32	6988.84
447.51	6942.03
447.69	6649.46
447.88	6967.77
448.06	6705.63
448.25	7035.65
448.43	7178.42
448.62	6995.86
448.80	6984.16
448.99	6935.01
449.17	7075.44
449.36	7133.95
449.54	7260.34
449.73	7267.36
449.91	7272.04
450.10	7368.01
450.28	7356.30
450.46	7405.46
450.65	7431.20
450.83	7321.20
451.02	7478.01
451.20	7487.37
451.39	7742.49
451.57	7571.63
451.76	7363.33
451.94	7627.81
452.13	7426.52
452.31	7372.69
452.49	7295.45
452.68	7143.32
452.86	7506.10
453.05	7599.72
453.23	7588.02
453.42	7407.80
453.60	7405.46
453.78	7588.02
453.97	7548.23
454.15	7531.84
454.34	7691.00
454.52	7896.97
454.70	7756.54
454.89	7707.38
455.07	7857.18
455.26	8021.02
455.44	8180.17
455.62	8030.38
455.81	7969.52
455.99	8133.36
456.17	8013.99
456.36	8053.78
456.54	8189.53
456.73	8182.51
456.91	8564.02
457.09	8367.42
457.28	8479.76
457.46	8226.98
457.64	8439.97
457.83	8348.69
458.01	8299.54
458.19	8634.24
458.38	8259.75
458.56	8674.03
458.74	8374.44
458.93	8496.14
459.11	8582.74
459.29	8526.57
459.48	8559.34
459.66	8608.49
459.84	8648.28
460.03	9008.72
460.21	8769.99
460.39	8898.72
460.57	8863.61
460.76	8697.43
460.94	8816.80
461.12	8821.48
461.31	8936.17
461.49	8997.02
461.67	8748.92
461.85	9261.50
462.04	8968.93
462.22	9603.22
462.40	9151.49
462.59	9036.81
462.77	9345.76
462.95	9097.66
463.13	9259.16
463.32	9188.94
463.50	9233.41
463.68	9200.65
463.86	9380.87
464.05	9350.44
464.23	9245.12
464.41	9343.42
464.59	9385.55
464.78	9359.80
464.96	9415.98
465.14	9240.44
465.32	9533.00
465.50	9474.49
465.69	9661.73
465.87	9387.89
466.05	9249.80
466.23	9331.72
466.41	9579.81
466.60	9378.53
466.78	9593.86
466.96	9430.02
467.14	9535.34
467.32	9530.66
467.51	9607.90
467.69	9591.52
467.87	9802.16
468.05	9720.24
468.23	9699.18
468.41	9727.27
468.60	9811.53
468.78	9870.04
468.96	9745.99
469.14	9989.41
469.32	10071.33
469.50	9825.57
469.69	10153.24
469.87	10214.10
470.05	10207.08
470.23	10293.68
470.41	9813.87
470.59	10281.97
470.77	10223.46
470.95	10420.06
471.14	10485.60
471.32	10319.42
471.50	10569.86
471.68	10555.82
471.86	10719.65
472.04	10759.44
472.22	10789.87
472.40	10441.13
472.58	10644.76
472.77	10846.04
472.95	10787.53
473.13	11185.42
473.31	10920.94
473.49	10965.41
473.67	10925.62
473.85	11218.19
474.03	11328.19
474.21	11300.11
474.39	11367.98
474.57	11356.28
474.75	11534.16
474.93	11573.95
475.12	11515.44
475.30	11770.55
475.48	11602.04
475.66	11751.83
475.84	11480.33
476.02	11672.25
476.20	11939.07
476.38	11976.52
476.56	12304.20
476.74	12184.83
476.92	12292.49
477.10	12166.10
477.28	12479.74
477.46	12540.59
477.64	12655.28
477.82	12910.40
478.00	12973.59
478.18	13027.42
478.36	12809.75
478.54	12929.12
478.72	13273.18
478.90	13331.69
479.08	13291.90
479.26	13743.63
479.44	13518.93
479.62	13586.81
479.80	13699.16
479.98	13694.47
480.16	13909.80
480.34	13898.10
480.52	14073.64
480.70	14040.87
480.88	14141.52
481.06	14366.21
481.24	14321.74
481.41	14745.38
481.59	14604.94
481.77	14913.89
481.95	14817.93
482.13	14822.61
482.31	14869.42
482.49	15482.64
482.67	15323.49
482.85	15592.65
483.03	15510.73
483.21	15786.91
483.39	15899.26
483.57	15978.84
483.74	15723.72
483.92	15948.41
484.10	16067.78
484.28	16486.73
484.46	16549.93
484.64	16999.31
484.82	16477.37
485.00	16856.54
485.18	16819.09
485.35	16889.31
485.53	16446.94
485.71	16170.76
485.89	17036.76
486.07	16638.87
486.25	16999.31
486.43	17394.86
486.61	17322.30
486.78	17603.17
486.96	17926.16
487.14	18546.40
487.32	18080.64
487.50	18785.14
487.68	18735.99
487.85	18834.29
488.03	19300.06
488.21	19047.28
488.39	18927.91
488.57	19302.40
488.75	19529.43
488.92	19501.34
489.10	19824.34
489.28	20152.01
489.46	20154.35
489.64	20065.41
489.81	20802.68
489.99	20641.18
490.17	20795.66
490.35	21041.42
490.53	20744.17
490.70	20966.52
490.88	21090.57
491.06	21448.67
491.24	21263.77
491.41	21333.98
491.59	21268.45
491.77	21319.94
491.95	21879.33
492.13	21556.33
492.30	22403.61
492.48	22288.92
492.66	22696.17
492.84	22384.88
493.01	22768.73
493.19	22508.93
493.37	22735.96
493.54	22834.27
493.72	23470.89
493.90	23288.33
494.08	23463.87
494.25	23878.15
494.43	23784.52
494.61	24364.98
494.79	24379.02
494.96	24091.13
495.14	24037.30
495.32	24369.66
495.49	24226.89
495.67	24547.54
495.85	24629.46
496.02	24594.35
496.20	24692.65
496.38	24786.27
496.55	25432.26
496.73	25584.40
496.91	25568.01
497.09	25729.51
497.26	25781.00
497.44	25598.44
497.62	26129.74
497.79	26096.97
497.97	25874.62
498.14	25858.24
498.32	26162.51
498.50	26515.93
498.67	26473.80
498.85	26567.42
499.03	27159.58
499.20	27152.55
499.38	27075.32
499.56	27157.24
499.73	27061.27
499.91	27386.61
500.08	27435.76
500.26	27222.77
500.44	27283.62
500.61	27255.54
500.79	27342.14
500.97	27637.05
501.14	27733.01
501.32	27517.68
501.49	28086.43
501.67	27821.95
501.84	28039.62
502.02	28278.35
502.20	28215.16
502.37	28519.43
502.55	28364.95
502.72	28814.34
502.90	28985.19
503.07	28671.56
503.25	29034.35
503.43	28549.85
503.60	28966.47
503.78	29076.48
503.95	28947.75
504.13	29338.62
504.30	29509.47
504.48	29266.06
504.65	29525.86
504.83	29717.78
505.01	30017.37
505.18	29778.64
505.36	30347.39
505.53	30197.59
505.71	30331.00
505.88	30359.09
506.06	30134.40
506.23	30391.86
506.41	30199.93
506.58	30611.87
506.76	30541.65
506.93	30813.15
507.11	30384.83
507.28	30967.63
507.46	30733.57
507.63	30874.01
507.81	31150.19
507.98	30546.33
508.16	31269.56
508.33	31419.35
508.50	31330.41
508.68	31850.01
508.85	31718.94
509.03	31557.44
509.20	31281.26
509.38	31840.65
509.55	31983.42
509.73	32261.94
509.90	32133.21
510.08	32591.96
510.25	32397.70
510.42	32252.58
510.60	32533.45
510.77	32620.05
510.95	32914.95
511.12	32704.31
511.30	32788.56
511.47	33504.77
511.64	33249.65
511.82	33448.60
511.99	32966.45
512.17	32697.28
512.34	33385.40
512.51	33287.10
512.69	33352.63
512.86	33352.63
513.04	33797.34
513.21	33392.42
513.38	33460.30
513.56	33656.90
513.73	33507.11
513.90	34220.97
514.08	33528.17
514.25	34160.12
514.43	33919.04
514.60	34199.91
514.77	34330.98
514.95	34342.68
515.12	34525.24
515.29	34335.66
515.47	34719.51
515.64	34878.66
515.81	34693.76
515.99	34735.89
516.16	34473.75
516.33	34335.66
516.51	34218.63
516.68	33897.98
516.85	33778.61
517.03	34115.65
517.20	34775.68
517.37	34995.69
517.54	35042.50
517.72	35248.47
517.89	34703.12
518.06	34660.99
518.24	34782.70
518.41	35161.87
518.58	35477.84
518.75	35222.72
518.93	35693.17
519.10	35606.57
519.27	35868.71
519.45	35805.52
519.62	35922.54
519.79	36020.84
519.96	36224.47
520.14	36297.03
520.31	36114.47
520.48	36390.65
520.65	36442.14
520.83	36685.56
521.00	36708.96
521.17	36994.51
521.34	36769.82
521.52	36809.61
521.69	37095.15
521.86	37188.77
522.03	37177.07
522.20	37273.03
522.38	37125.58
522.55	36905.57
522.72	37074.09
522.89	37394.74
523.07	37240.26
523.24	37202.82
523.41	37675.60
523.58	37528.15
523.75	37902.64
523.92	38064.13
524.10	37984.55
524.27	38314.57
524.44	38047.75
524.61	38249.03
524.78	38314.57
524.96	38480.75
525.13	38780.34
525.30	38670.33
525.47	38693.74
525.64	38188.18
525.81	38319.25
525.98	38190.52
526.16	38466.70
526.33	37881.57
526.50	38555.64
526.67	37956.47
526.84	38415.21
527.01	38124.99
527.18	38740.55
527.36	38951.20
527.53	39374.83
527.70	39533.99
527.87	39363.13
528.04	38974.60
528.21	39199.29
528.38	39414.62
528.55	39648.68
528.72	39557.39
528.89	39875.71
529.07	39611.23
529.24	39510.58
529.41	39875.71
529.58	39562.08
529.75	39948.26
529.92	40034.86
530.09	39938.90
530.26	39868.69
530.43	40027.84
530.60	39974.01
530.77	40638.72
530.94	40727.66
531.11	40170.61
531.28	40596.59
531.46	40268.92
531.63	40722.98
531.80	40285.30
531.97	40048.91
532.14	40112.10
532.31	40004.44
532.48	39896.77
532.65	40385.94
532.82	40013.80
532.99	40730.00
533.16	40690.21
533.33	40577.87
533.50	41085.76
533.67	40596.59
533.84	41160.66
534.01	40722.98
534.18	41045.97
534.35	41708.35
534.52	40898.52
534.69	41394.71
534.86	41296.41
535.03	41195.77
535.20	41944.74
535.37	41890.91
535.54	41724.73
535.71	41474.29
535.88	41853.46
536.05	41455.57
536.22	41642.81
536.38	41933.04
536.55	41504.72
536.72	41481.31
536.89	41141.94
537.06	41586.64
537.23	42316.89
537.40	42117.94
537.57	41806.65
537.74	41832.39
537.91	42071.13
538.08	42139.00
538.25	42066.45
538.42	42223.26
538.59	42232.63
538.75	42096.88
538.92	42129.64
539.09	42258.37
539.26	42209.22
539.43	42349.65
539.60	41670.90
539.77	41848.78
539.94	42368.38
540.11	42258.37
540.28	42492.43
540.44	42443.27
540.61	42323.91
540.78	42307.52
540.95	42260.71
541.12	42031.34
541.29	42342.63
541.46	42843.51
541.62	42660.94
541.79	43086.92
541.96	42700.73
542.13	43192.25
542.30	42440.93
542.47	42934.79
542.63	43145.44
542.80	42731.16
542.97	43295.23
543.14	43690.78
543.31	43526.94
543.48	43693.12
543.64	44044.20
543.81	43894.41
543.98	43892.07
544.15	43358.42
544.32	43725.89
544.48	43704.82
544.65	43702.48
544.82	43791.42
544.99	43594.82
545.16	43573.75
545.32	43615.88
545.49	44135.48
545.66	44488.90
545.83	44025.48
546.00	44381.24
546.16	44364.85
546.33	44062.93
546.50	43716.53
546.67	44243.15
546.83	43559.71
547.00	43896.75
547.17	43847.60
547.34	44016.11
547.50	43746.95
547.67	44273.57
547.84	44610.61
548.00	44643.38
548.17	45045.95
548.34	44201.02
548.51	44949.99
548.67	44664.44
548.84	44825.94
549.01	44268.89
549.18	44797.85
549.34	44685.51
549.51	45006.16
549.68	44795.51
549.84	45059.99
550.01	45027.23
550.18	44940.63
550.34	44938.29
550.51	44800.19
550.68	44952.33
550.84	44547.42
551.01	44509.97
551.18	45123.19
551.34	45095.10
551.51	44947.65
551.68	45074.04
551.84	45446.18
552.01	45001.48
552.18	45022.54
552.34	44830.62
552.51	44758.06
552.68	45041.27
552.84	45551.51
553.01	45488.31
553.18	44940.63
553.34	45188.72
553.51	44863.39
553.67	45141.91
553.84	45759.81
554.01	45324.47
554.17	45539.80
554.34	45478.95
554.51	45759.81
554.67	45748.11
554.84	45462.57
555.00	45397.03
555.17	45270.64
555.33	45876.84
555.50	45504.70
555.67	45635.77
555.83	45654.49
556.00	45549.17
556.16	46120.26
556.33	45560.87
556.50	45539.80
556.66	45766.84
556.83	45610.02
556.99	45694.28
557.16	45839.39
557.32	46096.85
557.49	45766.84
557.65	46033.66
557.82	45785.56
557.98	45535.12
558.15	46017.27
558.32	46000.89
558.48	45872.16
558.65	45448.52
558.81	45682.58
558.98	45855.78
559.14	45982.16
559.31	45893.22
559.47	46007.91
559.64	46202.18
559.80	46157.70
559.97	46195.15
560.13	45666.19
560.30	45867.48
560.46	46019.61
560.63	46447.93
560.79	46234.94
560.96	46309.84
561.12	46092.17
561.29	46195.15
561.45	46595.38
561.61	45808.96
561.78	46202.18
561.94	46272.39
562.11	46068.76
562.27	45815.99
562.44	46370.69
562.60	46429.21
562.77	46241.96
562.93	46471.34
563.10	46543.89
563.26	45867.48
563.42	46291.12
563.59	46148.34
563.75	46344.95
563.92	46569.64
564.08	46630.49
564.24	46628.15
564.41	46309.84
564.57	46574.32
564.74	46234.94
564.90	46492.40
565.07	46689.01
565.23	46199.83
565.39	46513.47
565.56	46487.72
565.72	46396.44
565.88	46635.17
566.05	46256.01
566.21	46087.49
566.38	46506.44
566.54	46422.19
566.70	46838.80
566.87	46813.05
567.03	46721.77
567.19	46834.12
567.36	46993.28
567.52	46506.44
567.68	46761.56
567.85	46546.23
568.01	46698.37
568.17	46689.01
568.34	46628.15
568.50	46508.79
568.66	46703.05
568.83	46483.04
568.99	46742.84
569.15	46625.81
569.32	46529.85
569.48	46443.25
569.64	46384.74
569.81	46529.85
569.97	46321.54
570.13	46471.34
570.30	46281.75
570.46	46302.82
570.62	46522.83
570.78	45998.55
570.95	46525.17
571.11	46625.81
571.27	46351.97
571.43	46396.44
571.60	46777.95
571.76	46761.56
571.92	46651.56
572.09	46714.75
572.25	46291.12
572.41	46728.80
572.57	47000.30
572.74	46791.99
572.90	46817.74
573.06	47009.66
573.22	46602.41
573.38	46546.23
573.55	46766.24
573.71	46983.91
573.87	46986.25
574.03	46452.61
574.20	47012.00
574.36	46583.68
574.52	46375.37
574.68	46686.67
574.84	46740.50
575.01	46885.61
575.17	46553.26
575.33	46979.23
575.49	46637.51
575.65	46696.03
575.82	46855.18
575.98	46623.47
576.14	46909.02
576.30	47063.49
576.46	46761.56
576.62	46347.29
576.79	47028.38
576.95	46497.08
577.11	46726.46
577.27	46988.60
577.43	47012.00
577.59	46569.64
577.75	46387.08
577.92	46293.46
578.08	46822.42
578.24	46539.21
578.40	46869.23
578.56	46466.66
578.72	46459.63
578.88	47079.88
579.04	46796.67
579.21	46646.88
579.37	47004.98
579.53	47035.41
579.69	46838.80
579.85	46707.73
580.01	46974.55
580.17	46756.88
580.33	47276.48
580.49	47103.28
580.65	47112.64
580.82	46548.57
580.98	46756.88
581.14	46780.29
581.30	46972.21
581.46	46789.65
581.62	47152.43
581.78	47168.82
581.94	47437.98
582.10	46827.10
582.26	46918.38
582.42	46696.03
582.58	46749.86
582.74	47033.07
582.90	47012.00
583.06	47475.43
583.22	47049.45
583.38	47400.53
583.54	47311.59
583.70	47342.02
583.86	46646.88
584.02	46712.41
584.18	47416.91
584.34	46717.09
584.50	46822.42
584.66	46803.69
584.82	46890.29
584.98	47243.71
585.14	47255.42
585.30	46492.40
585.46	46799.01
585.62	46897.31
585.78	47084.56
585.94	46773.27
586.10	46717.09
586.26	46649.22
586.42	46794.33
586.58	47154.77
586.74	47159.45
586.90	46681.98
587.06	46705.39
587.22	46864.55
587.38	46810.71
587.54	47161.79
587.70	47098.60
587.86	47150.09
588.02	47000.30
588.18	46951.15
588.34	46588.36
588.49	46007.91
588.65	45769.18
588.81	46220.90
588.97	46305.16
589.13	46550.91
589.29	46490.06
589.45	46506.44
589.61	47154.77
589.77	46808.37
589.93	47079.88
