SpectraSuite Data File
++++++++++++++++++++++++++++++++++++
Date: Fri Oct 25 11:22:58 EDT 2013
User: price-jones
Dark Spectrum Present: No
Reference Spectrum Present: No
Number of Sampled Component Spectra: 1
Spectrometers: USB2+H05261
Integration Time (usec): 100000 (USB2+H05261)
Spectra Averaged: 1 (USB2+H05261)
Boxcar Smoothing: 0 (USB2+H05261)
Correct for Electrical Dark: No (USB2+H05261)
Strobe/Lamp Enabled: No (USB2+H05261)
Correct for Detector Non-linearity: No (USB2+H05261)
Correct for Stray Light: No (USB2+H05261)
Number of Pixels in Processed Spectrum: 2048
>>>>>Begin Processed Spectral Data<<<<<
365.73	182.56
365.92	182.56
366.12	182.56
366.32	65.54
366.52	117.03
366.72	138.09
366.91	88.94
367.11	124.05
367.31	110.01
367.51	149.79
367.70	84.26
367.90	142.77
368.10	173.20
368.30	74.90
368.49	124.05
368.69	124.05
368.89	133.41
369.09	208.31
369.28	194.26
369.48	189.58
369.68	180.22
369.87	266.82
370.07	177.88
370.27	257.46
370.47	290.23
370.66	561.73
370.86	596.84
371.06	589.82
371.25	667.05
371.45	601.52
371.65	617.90
371.84	683.44
372.04	685.78
372.24	734.93
372.44	664.71
372.63	683.44
372.83	800.46
373.03	734.93
373.22	634.29
373.42	716.20
373.62	763.01
373.81	706.84
374.01	748.97
374.21	873.02
374.40	851.96
374.60	791.10
374.79	746.63
374.99	833.23
375.19	805.14
375.38	889.40
375.58	788.76
375.78	861.32
375.97	894.08
376.17	840.25
376.37	830.89
376.56	884.72
376.76	861.32
376.95	830.89
377.15	917.49
377.35	833.23
377.54	889.40
377.74	819.19
377.93	961.96
378.13	933.87
378.33	936.21
378.52	880.04
378.72	887.06
378.91	908.13
379.11	959.62
379.31	936.21
379.50	971.32
379.70	936.21
379.89	947.92
380.09	961.96
380.28	961.96
380.48	959.62
380.68	997.07
380.87	1020.47
381.07	933.87
381.26	950.26
381.46	983.02
381.65	961.96
381.85	990.05
382.04	1100.05
382.24	1053.24
382.43	1078.99
382.63	1132.82
382.83	1062.60
383.02	1109.41
383.22	1135.16
383.41	1090.69
383.61	1057.92
383.80	1146.86
384.00	1158.57
384.19	1043.88
384.39	1008.77
384.58	1146.86
384.78	1139.84
384.97	1104.73
385.17	1128.14
385.36	1086.01
385.56	1125.80
385.75	1137.50
385.95	1095.37
386.14	1254.53
386.34	1125.80
386.53	1177.29
386.72	1256.87
386.92	1221.76
387.11	1256.87
387.31	1266.23
387.50	1254.53
387.70	1294.32
387.89	1224.10
388.09	1249.85
388.28	1373.89
388.48	1270.91
388.67	1324.74
388.86	1362.19
389.06	1252.19
389.25	1303.68
389.45	1287.29
389.64	1324.74
389.84	1406.66
390.03	1390.28
390.22	1441.77
390.42	1345.81
390.61	1331.76
390.81	1392.62
391.00	1488.58
391.19	1390.28
391.39	1472.20
391.58	1399.64
391.78	1462.83
391.97	1530.71
392.16	1430.07
392.36	1554.12
392.55	1509.65
392.75	1460.49
392.94	1551.78
393.13	1614.97
393.33	1493.26
393.52	1528.37
393.71	1596.25
393.91	1675.82
394.10	1685.19
394.29	1563.48
394.49	1621.99
394.68	1626.67
394.88	1626.67
395.07	1654.76
395.26	1652.42
395.46	1659.44
395.65	1748.38
395.84	1701.57
396.04	1851.36
396.23	1778.81
396.42	1708.59
396.62	1710.93
396.81	1907.54
397.00	1776.47
397.19	1790.51
397.39	1767.10
397.58	1912.22
397.77	1834.98
397.97	1881.79
398.16	1851.36
398.35	1916.90
398.55	1846.68
398.74	1827.96
398.93	1907.54
399.12	1975.41
399.32	1954.35
399.51	1921.58
399.70	2022.22
399.90	2026.90
400.09	2193.08
400.28	2172.02
400.47	2001.16
400.67	2134.57
400.86	2207.13
401.05	2003.50
401.24	2195.42
401.44	2134.57
401.63	2181.38
401.82	2249.25
402.01	2134.57
402.21	2275.00
402.40	2120.53
402.59	2200.10
402.78	2235.21
402.97	2207.13
403.17	2260.96
403.36	2338.20
403.55	2253.94
403.74	2363.94
403.93	2312.45
404.13	2326.49
404.32	2441.18
404.51	2406.07
404.70	2436.50
404.89	2263.30
405.09	2462.24
405.28	2569.91
405.47	2483.31
405.66	2408.41
405.85	2513.74
406.05	2628.42
406.24	2576.93
406.43	2640.12
406.62	2722.04
406.81	2717.36
407.00	2663.53
407.20	2609.70
407.39	2700.98
407.58	2815.66
407.77	2857.79
407.96	2656.51
408.15	2803.96
408.34	2633.10
408.54	2808.64
408.73	2871.84
408.92	2862.48
409.11	2888.22
409.30	2895.24
409.49	2972.48
409.68	2993.55
409.87	2998.23
410.07	2995.89
410.26	3159.72
410.45	3066.10
410.64	3124.62
410.83	3152.70
411.02	3014.61
411.21	3258.03
411.40	3108.23
411.59	3197.17
411.78	3180.79
411.98	3171.43
412.17	3316.54
412.36	3524.85
412.55	3272.07
412.74	3421.86
412.93	3398.46
413.12	3417.18
413.31	3417.18
413.50	3398.46
413.69	3515.48
413.88	3585.70
414.07	3648.90
414.26	3545.91
414.45	3655.92
414.64	3669.96
414.83	3716.77
415.02	3695.71
415.22	3859.54
415.41	3932.10
415.60	4018.70
415.79	3911.04
415.98	4030.40
416.17	4002.32
416.36	3983.59
416.55	4002.32
416.74	4128.70
416.93	4042.11
417.12	4131.05
417.31	4262.12
417.50	4215.30
417.69	4402.55
417.88	4294.88
418.07	4365.10
418.26	4269.14
418.45	4440.00
418.64	4423.61
418.83	4362.76
419.02	4486.81
419.21	4470.42
419.39	4491.49
419.58	4624.90
419.77	4528.94
419.96	4641.28
420.15	4683.41
420.34	4592.13
420.53	4643.62
420.72	4571.07
420.91	4667.03
421.10	4851.93
421.29	4851.93
421.48	4554.68
421.67	4929.17
421.86	4762.99
422.05	4854.27
422.24	4784.06
422.43	4802.78
422.61	4814.48
422.80	4889.38
422.99	4915.12
423.18	5139.82
423.37	5076.62
423.56	4990.02
423.75	4898.74
423.94	4819.16
424.13	4657.67
424.32	4685.75
424.50	5053.22
424.69	5151.52
424.88	4971.30
425.07	4936.19
425.26	4936.19
425.45	5022.79
425.64	4978.32
425.83	5114.07
426.01	5083.64
426.20	5214.71
426.39	5114.07
426.58	5004.07
426.77	5121.09
426.96	5252.16
427.15	5104.71
427.33	5308.34
427.52	5217.05
427.71	5322.38
427.90	5050.88
428.09	5317.70
428.28	5261.52
428.46	5486.22
428.65	5406.64
428.84	5626.65
429.03	5703.89
429.22	5291.95
429.40	5476.85
429.59	5483.88
429.78	5284.93
429.97	5231.10
430.16	5607.92
430.34	5666.44
430.53	5708.57
430.72	5710.91
430.91	5710.91
431.10	5647.71
431.28	5802.19
431.47	5888.79
431.66	5982.41
431.85	5844.32
432.03	6017.52
432.22	6059.65
432.41	6069.01
432.60	6097.10
432.79	6061.99
432.97	5947.30
433.16	5933.26
433.35	6223.48
433.54	6122.84
433.72	6069.01
433.91	6080.71
434.10	6209.44
434.28	6230.51
434.47	6361.58
434.66	6399.02
434.85	6232.85
435.03	6387.32
435.22	6373.28
435.41	6434.13
435.59	6506.69
435.78	6586.27
435.97	6607.33
436.16	6494.99
436.34	6305.40
436.53	6506.69
436.72	6595.63
436.90	6434.13
437.09	6761.81
437.28	6700.95
437.46	6705.63
437.65	6679.89
437.84	6864.79
438.02	6782.87
438.21	6792.23
438.40	6771.17
438.58	7124.59
438.77	7136.29
438.96	6974.80
439.14	7187.79
439.33	7330.56
439.52	7159.70
439.70	7365.67
439.89	7454.61
440.08	7356.30
440.26	7377.37
440.45	7478.01
440.63	7372.69
440.82	7880.58
441.01	7543.55
441.19	7686.32
441.38	7939.10
441.57	7798.66
441.75	7929.74
441.94	8042.08
442.12	7974.21
442.31	8023.36
442.50	8304.22
442.68	8131.02
442.87	8025.70
443.05	8070.17
443.24	8163.79
443.43	8191.88
443.61	8002.29
443.80	8580.40
443.98	8177.83
444.17	7978.89
444.35	8187.19
444.54	8367.42
444.73	8379.12
444.91	8243.37
445.10	8287.84
445.28	8299.54
445.47	8400.18
445.65	8327.63
445.84	8503.17
446.02	8528.91
446.21	8477.42
446.39	8458.70
446.58	8578.06
446.77	8315.92
446.95	8112.30
447.14	8470.40
447.32	8659.98
447.51	8442.31
447.69	8524.23
447.88	8681.05
448.06	8571.04
448.25	8545.30
448.43	8683.39
448.62	8716.16
448.80	8716.16
448.99	8674.03
449.17	8704.45
449.36	8685.73
449.54	8997.02
449.73	8875.31
449.91	9125.75
450.10	9085.96
450.28	9071.92
450.46	9142.13
450.65	9165.54
450.83	9352.78
451.02	9303.63
451.20	9317.67
451.39	9067.24
451.57	9104.68
451.76	9308.31
451.94	9254.48
452.13	9631.30
452.31	9329.38
452.49	9277.88
452.68	9301.29
452.86	9444.06
453.05	9434.70
453.23	9666.41
453.42	9425.34
453.60	9495.55
453.78	9654.71
453.97	9734.29
454.15	9465.13
454.34	9530.66
454.52	9912.17
454.70	9729.61
454.89	9933.23
455.07	9755.35
455.26	9928.55
455.44	9858.34
455.62	9783.44
455.81	9874.72
455.99	10143.88
456.17	10225.80
456.36	10167.29
456.54	10174.31
456.73	10471.56
456.91	10576.88
457.09	10567.52
457.28	10434.11
457.46	10731.36
457.64	10658.80
457.83	10611.99
458.01	10593.26
458.19	10679.86
458.38	10789.87
458.56	10764.12
458.74	10780.51
458.93	10876.47
459.11	10621.35
459.29	10780.51
459.48	10937.32
459.66	10871.79
459.84	11009.88
460.03	11000.52
460.21	10981.79
460.39	10920.94
460.57	11147.97
460.76	11124.57
460.94	11248.61
461.12	11232.23
461.31	11307.13
461.49	11414.79
461.67	11164.36
461.85	11550.54
462.04	11489.69
462.22	11674.59
462.40	11726.08
462.59	11662.89
462.77	11515.44
462.95	11805.66
463.13	11674.59
463.32	11679.27
463.50	11892.26
463.68	11999.93
463.86	11889.92
464.05	11712.04
464.23	11810.34
464.41	11969.50
464.59	11620.76
464.78	12156.74
464.96	12187.17
465.14	12035.03
465.32	12170.79
465.50	12081.85
465.69	12142.70
465.87	12416.54
466.05	12325.26
466.23	12299.52
466.41	12147.38
466.60	12353.35
466.78	12276.11
466.96	12341.64
467.14	12233.98
467.32	12662.30
467.51	12748.90
467.69	12093.55
467.87	12503.14
468.05	12652.94
468.23	12664.64
468.41	12414.20
468.60	12863.58
468.78	13022.74
468.96	12912.74
469.14	12884.65
469.32	13050.83
469.50	12716.13
469.69	12840.18
469.87	13107.00
470.05	13455.74
470.23	13256.79
470.41	13504.89
470.59	13259.13
470.77	13504.89
470.95	13359.78
471.14	13593.83
471.32	13277.86
471.50	13610.22
471.68	13811.50
471.86	13860.65
472.04	13841.93
472.22	14298.33
472.40	13532.98
472.58	14012.79
472.77	14003.43
472.95	14204.71
473.13	14747.72
473.31	14200.03
473.49	14207.05
473.67	14382.59
473.85	14436.42
474.03	14675.16
474.21	14728.99
474.39	15080.07
474.57	15084.75
474.75	14899.85
474.93	14979.43
475.12	15087.09
475.30	15042.62
475.48	15187.74
475.66	15307.10
475.84	15358.60
476.02	15625.42
476.20	15503.71
476.38	15967.13
476.56	16233.96
476.74	16226.93
476.92	15962.45
477.10	16170.76
477.28	16358.00
477.46	16102.89
477.64	16491.41
477.82	16606.10
478.00	17221.66
478.18	17207.62
478.36	17247.41
478.54	17202.94
478.72	17408.90
478.90	17591.47
479.08	17741.26
479.26	17703.81
479.44	17970.63
479.62	18085.32
479.80	17919.14
479.98	18513.64
480.16	18410.65
480.34	18354.48
480.52	18642.37
480.70	18986.43
480.88	18551.09
481.06	18754.71
481.24	18890.46
481.41	19417.08
481.59	19508.37
481.77	19747.10
481.95	19772.85
482.13	19976.47
482.31	19810.29
482.49	20498.41
482.67	20283.08
482.85	20472.67
483.03	20753.53
483.21	20968.86
483.39	21352.71
483.57	20821.41
483.74	21113.97
483.92	21748.26
484.10	21546.97
484.28	21919.12
484.46	22204.66
484.64	22506.59
484.82	22483.19
485.00	22780.43
485.18	22941.93
485.35	23384.29
485.53	23527.06
485.71	23494.30
485.89	24011.56
486.07	23552.81
486.25	23363.23
486.43	23618.35
486.61	24222.20
486.78	24596.69
486.96	24341.57
487.14	24613.07
487.32	25039.05
487.50	25282.47
487.68	25151.40
487.85	25479.07
488.03	25823.13
488.21	25940.16
488.39	26316.98
488.57	26209.32
488.75	26436.35
488.92	26857.65
489.10	26888.07
489.28	26892.76
489.46	27300.01
489.64	27206.39
489.81	27784.50
489.99	27931.95
490.17	28339.21
490.35	28552.20
490.53	28336.87
490.70	28896.25
490.88	28638.80
491.06	28919.66
491.24	28821.36
491.41	29303.51
491.59	29612.46
491.77	29659.27
491.95	30129.72
492.13	30071.20
492.30	30237.38
492.48	30473.78
492.66	30199.93
492.84	30883.37
493.01	30789.75
493.19	30881.03
493.37	31641.70
493.54	31559.78
493.72	31838.31
493.90	32055.98
494.08	32142.58
494.25	32327.48
494.43	32236.20
494.61	32378.97
494.79	32638.77
494.96	32868.14
495.14	33525.83
495.32	33429.87
495.49	33472.00
495.67	33565.62
495.85	33809.04
496.02	34061.82
496.20	34476.09
496.38	34312.25
496.55	34515.88
496.73	34962.92
496.91	34646.95
497.09	35047.18
497.26	35054.20
497.44	35072.93
497.62	35901.48
497.79	36037.23
497.97	35971.69
498.14	36383.63
498.32	36589.59
498.50	36282.98
498.67	37160.69
498.85	37034.30
499.03	36994.51
499.20	37134.94
499.38	36938.33
499.56	37354.95
499.73	37593.68
499.91	37816.04
500.08	37715.39
500.26	38003.28
500.44	38000.94
500.61	38256.06
500.79	38124.99
500.97	38487.77
501.14	38813.10
501.32	38990.98
501.49	39168.87
501.67	38958.22
501.84	39510.58
502.02	39512.92
502.20	39072.90
502.37	39292.91
502.55	39353.77
502.72	39927.20
502.90	40140.19
503.07	40044.23
503.25	40306.37
503.43	39782.09
503.60	40383.60
503.78	40430.41
503.95	40687.87
504.13	41120.87
504.30	41017.89
504.48	41062.36
504.65	40825.96
504.83	41677.92
505.01	41390.03
505.18	41869.84
505.36	41977.51
505.53	41961.12
505.71	41975.17
505.88	42274.76
506.06	41689.62
506.23	41778.56
506.41	41890.91
506.58	42457.32
506.76	42501.79
506.93	42986.28
507.11	43278.85
507.28	42953.51
507.46	43028.41
507.63	43192.25
507.81	43454.39
507.98	43292.89
508.16	43665.03
508.33	43863.98
508.50	43922.49
508.68	43798.44
508.85	44610.61
509.03	43915.47
509.20	44079.31
509.38	45055.31
509.55	44680.83
509.73	44842.32
509.90	45226.17
510.08	44851.69
510.25	45179.36
510.42	44811.90
510.60	45507.04
510.77	45113.83
510.95	45769.18
511.12	45935.35
511.30	45771.52
511.47	46052.38
511.64	45921.31
511.82	46597.73
511.99	46066.42
512.17	46436.23
512.34	46312.18
512.51	46710.07
512.69	46564.96
512.86	46408.14
513.04	47028.38
513.21	47213.29
513.38	47075.19
513.56	47337.33
513.73	47356.06
513.90	47545.64
514.08	46953.49
514.25	47592.45
514.43	47945.87
514.60	48182.27
514.77	47711.82
514.95	48121.41
515.12	47878.00
515.29	47964.60
515.47	48329.72
515.64	48079.28
515.81	48514.62
515.99	48594.20
516.16	48545.05
516.33	48435.05
516.51	49254.23
516.68	48797.83
516.85	48797.83
517.03	49375.94
517.20	49361.90
517.37	49588.93
517.54	49247.21
517.72	49359.56
517.89	49703.62
518.06	49736.38
518.24	49717.66
518.41	49404.03
518.58	49790.22
518.75	49771.49
518.93	50178.75
519.10	49523.40
519.27	50103.85
519.45	49813.62
519.62	50387.05
519.79	50099.17
519.96	50595.36
520.14	50293.43
520.31	50323.86
520.48	50665.58
520.65	50660.90
520.83	50838.78
521.00	51075.17
521.17	50920.70
521.34	51007.29
521.52	51192.20
521.69	51047.08
521.86	51295.18
522.03	51360.72
522.20	51767.97
522.38	52081.60
522.55	51646.26
522.72	51529.23
522.89	51449.66
523.07	51950.53
523.24	51700.09
523.41	52030.11
523.58	51622.86
523.75	52509.92
523.92	52219.69
524.10	52535.66
524.27	52079.26
524.44	52161.18
524.61	52137.77
524.78	52247.78
524.96	52556.73
525.13	52736.95
525.30	52919.51
525.47	52811.85
525.64	52760.36
525.81	53073.99
525.98	53200.38
526.16	52952.28
526.33	52795.46
526.50	53364.21
526.67	53127.82
526.84	53282.30
527.01	53270.59
527.18	53038.88
527.36	53193.36
527.53	53359.53
527.70	53497.62
527.87	53694.23
528.04	53474.22
528.21	53694.23
528.38	53689.55
528.55	53722.32
528.72	53705.93
528.89	53560.82
529.07	53745.72
529.24	53719.98
529.41	53872.11
529.58	53956.37
529.75	54028.93
529.92	54033.61
530.09	54099.14
530.26	54127.23
530.43	54394.05
530.60	54204.47
530.77	54202.13
530.94	54255.96
531.11	54466.61
531.28	54370.64
531.46	54546.18
531.63	54480.65
531.80	54457.24
531.97	55124.30
532.14	54663.21
532.31	54808.32
532.48	54677.25
532.65	55016.63
532.82	54649.17
532.99	54897.27
533.16	54794.28
533.33	55093.87
533.50	55182.81
533.67	55166.43
533.84	54850.45
534.01	55208.56
534.18	55157.06
534.35	55618.15
534.52	55613.47
534.69	55437.93
534.86	55777.31
535.03	55440.27
535.20	55456.65
535.37	55646.24
535.54	55643.90
535.71	55405.16
535.88	55601.77
536.05	55728.16
536.22	55800.71
536.38	55723.47
536.55	55611.13
536.72	55994.98
536.89	55936.46
537.06	55849.86
537.23	56238.39
537.40	56048.81
537.57	55796.03
537.74	56018.38
537.91	56198.60
538.08	56151.79
538.25	55999.66
538.42	55997.32
538.59	56367.12
538.75	56104.98
538.92	56374.14
539.09	56498.19
539.26	56278.18
539.43	56308.61
539.60	56493.51
539.77	56573.09
539.94	56680.75
540.11	56381.16
540.28	56519.26
540.44	56673.73
540.61	56739.27
540.78	56418.61
540.95	56828.21
541.12	56673.73
541.29	56500.53
541.46	56849.27
541.62	57097.37
541.79	56914.81
541.96	56526.28
542.13	56631.60
542.30	56872.68
542.47	57048.22
542.63	57200.35
542.80	57165.24
542.97	57457.81
543.14	57446.11
543.31	57326.74
543.48	57371.21
543.64	57790.17
543.81	57539.73
543.98	57415.68
544.15	57347.81
544.32	57813.57
544.48	57982.09
544.65	57628.67
544.82	57588.88
544.99	57453.13
545.16	57851.02
545.32	57626.33
545.49	57904.85
545.66	58000.82
545.83	57769.10
546.00	57869.75
546.16	58131.89
546.33	57591.22
546.50	57818.25
546.67	57902.51
546.83	57539.73
547.00	57867.40
547.17	57851.02
547.34	58218.49
547.50	58164.65
547.67	58508.71
547.84	57949.32
548.00	58532.12
548.17	58377.64
548.34	58429.13
548.51	58534.46
548.67	58658.51
548.84	58410.41
549.01	58501.69
549.18	58241.89
549.34	58501.69
549.51	58422.11
549.68	58700.64
549.84	58693.61
550.01	58726.38
550.18	58379.98
550.34	58777.87
550.51	58787.24
550.68	58747.45
550.84	58546.16
551.01	58922.99
551.18	58747.45
551.34	58518.07
551.51	58693.61
551.68	58653.82
551.84	59037.67
552.01	58679.57
552.18	58768.51
552.34	58824.68
552.51	58892.56
552.68	58822.34
552.84	58820.00
553.01	59231.94
553.18	59021.29
553.34	59030.65
553.51	58761.49
553.67	59166.40
553.84	59178.10
554.01	59199.17
554.17	59292.79
554.34	59185.13
554.51	59128.95
554.67	59320.88
554.84	59175.76
555.00	59175.76
555.17	59089.16
555.33	59236.62
555.50	59222.58
555.67	59426.20
555.83	59253.00
556.00	59332.58
556.16	59831.11
556.33	59395.77
556.50	59363.01
556.66	59487.06
556.83	59480.03
556.99	59662.60
557.16	59695.36
557.32	59669.62
557.49	59831.11
557.65	59618.13
557.82	59732.81
557.98	59606.42
558.15	59681.32
558.32	59678.98
558.48	59468.33
558.65	59533.87
558.81	59664.94
558.98	59824.09
559.14	59786.64
559.31	59903.67
559.47	59898.99
559.64	59753.88
559.80	59959.84
559.97	59990.27
560.13	59730.47
560.30	59803.03
560.46	59854.52
560.63	60130.70
560.79	59955.16
560.96	60175.17
561.12	60009.00
561.29	60144.75
561.45	60055.81
561.61	60013.68
561.78	60137.72
561.94	60046.44
562.11	60130.70
562.27	60053.47
562.44	60104.96
562.60	60449.02
562.77	60294.54
562.93	60055.81
563.10	60477.10
563.26	60193.90
563.42	60430.29
563.59	60320.29
563.75	60140.07
563.92	60261.77
564.08	60156.45
564.24	60720.52
564.41	60406.89
564.57	60495.83
564.74	60329.65
564.90	60320.29
565.07	60334.33
565.23	60479.44
565.39	60341.35
565.56	60587.11
565.72	60427.95
565.88	60542.64
566.05	60252.41
566.21	60392.84
566.38	60580.09
566.54	60449.02
566.70	60673.71
566.87	60626.90
567.03	60303.90
567.19	60514.55
567.36	60556.68
567.52	60399.86
567.68	61041.17
567.85	60467.74
568.01	60498.17
568.17	60638.60
568.34	60683.07
568.50	60617.53
568.66	60587.11
568.83	60706.47
568.99	60390.50
569.15	60769.67
569.32	60669.03
569.48	60573.06
569.64	60774.35
569.81	60559.02
569.97	60575.40
570.13	60645.62
570.30	60587.11
570.46	60830.52
570.62	60587.11
570.78	60821.16
570.95	60619.88
571.11	60818.82
571.27	60743.92
571.43	60797.76
571.60	60938.19
571.76	60877.33
571.92	60853.93
572.09	60860.95
572.25	60727.54
572.41	60718.18
572.57	60933.51
572.74	60790.73
572.90	60874.99
573.06	60886.70
573.22	60800.10
573.38	60699.45
573.55	60760.31
573.71	61001.38
573.87	60954.57
574.03	60687.75
574.20	60966.27
574.36	60746.26
574.52	60940.53
574.68	60938.19
574.84	61118.41
575.01	61078.62
575.17	61022.45
575.33	60849.25
575.49	60917.12
575.65	61113.73
575.82	60842.23
575.98	61038.83
576.14	61174.58
576.30	61034.15
576.46	61013.08
576.62	60793.07
576.79	60985.00
576.95	60788.39
577.11	60977.98
577.27	60973.30
577.43	61111.39
577.59	60884.36
577.75	60886.70
577.92	60893.72
578.08	61001.38
578.24	61151.18
578.40	61172.24
578.56	61013.08
578.72	60910.10
578.88	61223.73
579.04	61233.10
579.21	61207.35
579.37	61293.95
579.53	61329.06
579.69	61085.64
579.85	61048.19
580.01	61095.00
580.17	60980.32
580.33	61109.05
580.49	61319.70
580.65	61123.09
580.82	61036.49
580.98	61123.09
581.14	61045.85
581.30	61263.52
581.46	61322.04
581.62	61244.80
581.78	61087.98
581.94	61073.94
582.10	61244.80
582.26	61233.10
582.42	61179.26
582.58	61202.67
582.74	61226.07
582.90	61233.10
583.06	61073.94
583.22	60966.27
583.38	61202.67
583.54	61214.37
583.70	61272.88
583.86	61368.85
584.02	61078.62
584.18	61403.95
584.34	61214.37
584.50	61172.24
584.66	61059.90
584.82	61020.11
584.98	61361.82
585.14	61195.65
585.30	61104.37
585.46	61160.54
585.62	61200.33
585.78	61410.98
585.94	61109.05
586.10	61307.99
586.26	61212.03
586.42	61251.82
586.58	61282.25
586.74	61158.20
586.90	61258.84
587.06	61151.18
587.22	61371.19
587.38	61031.81
587.54	61413.32
587.70	61254.16
587.86	61413.32
588.02	61331.40
588.18	61387.57
588.34	61322.04
588.49	61228.41
