SpectraSuite Data File
++++++++++++++++++++++++++++++++++++
Date: Fri Oct 25 10:47:45 EDT 2013
User: price-jones
Dark Spectrum Present: No
Reference Spectrum Present: No
Number of Sampled Component Spectra: 1
Spectrometers: USB2+H05261
Integration Time (usec): 100000 (USB2+H05261)
Spectra Averaged: 1 (USB2+H05261)
Boxcar Smoothing: 0 (USB2+H05261)
Correct for Electrical Dark: No (USB2+H05261)
Strobe/Lamp Enabled: No (USB2+H05261)
Correct for Detector Non-linearity: No (USB2+H05261)
Correct for Stray Light: No (USB2+H05261)
Number of Pixels in Processed Spectrum: 2048
>>>>>Begin Processed Spectral Data<<<<<
365.73	119.37
365.92	119.37
366.12	119.37
366.32	39.79
366.52	51.49
366.72	53.83
366.91	32.77
367.11	0.00
367.31	42.13
367.51	72.56
367.70	88.94
367.90	70.22
368.10	32.77
368.30	28.09
368.49	58.51
368.69	23.41
368.89	74.90
369.09	0.00
369.28	128.73
369.48	133.41
369.68	102.98
369.87	140.43
370.07	84.26
370.27	124.05
370.47	184.90
370.66	379.17
370.86	358.10
371.06	435.34
371.25	425.98
371.45	360.44
371.65	447.04
371.84	414.27
372.04	468.11
372.24	486.83
372.44	414.27
372.63	472.79
372.83	512.58
373.03	454.06
373.22	517.26
373.42	517.26
373.62	582.79
373.81	573.43
374.01	475.13
374.21	517.26
374.40	533.64
374.60	564.07
374.79	571.09
374.99	531.30
375.19	533.64
375.38	561.73
375.58	463.43
375.78	601.52
375.97	620.24
376.17	650.67
376.37	589.82
376.56	660.03
376.76	585.13
376.95	524.28
377.15	587.47
377.35	571.09
377.54	645.99
377.74	592.16
377.93	643.65
378.13	594.50
378.33	599.18
378.52	585.13
378.72	697.48
378.91	599.18
379.11	610.88
379.31	617.90
379.50	608.54
379.70	671.73
379.89	662.37
380.09	660.03
380.28	594.50
380.48	580.45
380.68	657.69
380.87	620.24
381.07	795.78
381.26	631.94
381.46	634.29
381.65	671.73
381.85	634.29
382.04	662.37
382.24	617.90
382.43	748.97
382.63	650.67
382.83	636.63
383.02	758.33
383.22	741.95
383.41	678.76
383.61	690.46
383.80	770.04
384.00	784.08
384.19	744.29
384.39	795.78
384.58	732.59
384.78	734.93
384.97	746.63
385.17	760.67
385.36	786.42
385.56	753.65
385.75	725.57
385.95	821.53
386.14	894.08
386.34	826.21
386.53	823.87
386.72	809.83
386.92	891.74
387.11	802.80
387.31	685.78
387.50	849.61
387.70	837.91
387.89	802.80
388.09	744.29
388.28	784.08
388.48	786.42
388.67	917.49
388.86	814.51
389.06	931.53
389.25	924.51
389.45	863.66
389.64	961.96
389.84	961.96
390.03	889.40
390.22	954.94
390.42	919.83
390.61	971.32
390.81	870.68
391.00	919.83
391.19	999.41
391.39	952.60
391.58	987.71
391.78	976.00
391.97	1036.86
392.16	896.43
392.36	945.58
392.55	1004.09
392.75	992.39
392.94	978.34
393.13	976.00
393.33	957.28
393.52	1032.18
393.71	1048.56
393.91	1032.18
394.10	968.98
394.29	1057.92
394.49	1076.65
394.68	1104.73
394.88	1160.91
395.07	1151.54
395.26	1116.44
395.46	1102.39
395.65	1097.71
395.84	1088.35
396.04	1188.99
396.23	1057.92
396.42	1135.16
396.62	1071.97
396.81	1109.41
397.00	1144.52
397.19	1172.61
397.39	1245.16
397.58	1238.14
397.77	1207.72
397.97	1287.29
398.16	1299.00
398.35	1313.04
398.55	1320.06
398.74	1355.17
398.93	1320.06
399.12	1399.64
399.32	1214.74
399.51	1313.04
399.70	1331.76
399.90	1409.00
400.09	1383.26
400.28	1399.64
400.47	1387.94
400.67	1514.33
400.86	1462.83
401.05	1612.63
401.24	1490.92
401.44	1504.96
401.63	1469.86
401.82	1507.30
402.01	1455.81
402.21	1481.56
402.40	1516.67
402.59	1486.24
402.78	1469.86
402.97	1465.18
403.17	1561.14
403.36	1563.48
403.55	1598.59
403.74	1598.59
403.93	1657.10
404.13	1577.52
404.32	1596.25
404.51	1563.48
404.70	1638.38
404.89	1640.72
405.09	1762.42
405.28	1694.55
405.47	1685.19
405.66	1668.80
405.85	1696.89
406.05	1732.00
406.24	1792.85
406.43	1668.80
406.62	1891.15
406.81	1860.73
407.00	1856.04
407.20	1874.77
407.39	1774.13
407.58	1980.09
407.77	1952.01
407.96	1893.49
408.15	1937.96
408.34	1921.58
408.54	1977.75
408.73	1905.20
408.92	1961.37
409.11	2057.33
409.30	2059.67
409.49	2066.69
409.68	2015.20
409.87	2043.29
410.07	2127.55
410.26	2125.21
410.45	2181.38
410.64	2129.89
410.83	2188.40
411.02	2214.15
411.21	2221.17
411.40	2270.32
411.59	2263.30
411.78	2310.11
411.98	2347.56
412.17	2324.15
412.36	2434.16
412.55	2471.61
412.74	2452.88
412.93	2445.86
413.12	2422.45
413.31	2586.29
413.50	2429.48
413.69	2539.48
413.88	2593.31
414.07	2562.89
414.26	2565.23
414.45	2452.88
414.64	2715.02
414.83	2677.57
415.02	2693.96
415.22	2684.59
415.41	2738.43
415.60	2757.15
415.79	2813.32
415.98	2920.99
416.17	2848.43
416.36	2789.92
416.55	2794.60
416.74	2885.88
416.93	2951.42
417.12	2881.20
417.31	2956.10
417.50	3026.31
417.69	3068.44
417.88	3122.27
418.07	3035.67
418.26	3026.31
418.45	3021.63
418.64	3307.18
418.83	3171.43
419.02	3131.64
419.21	3180.79
419.39	3052.06
419.58	3260.37
419.77	3243.98
419.96	3286.11
420.15	3190.15
420.34	3117.59
420.53	3356.33
420.72	3349.31
420.91	3426.54
421.10	3344.63
421.29	3431.23
421.48	3417.18
421.67	3447.61
421.86	3400.80
422.05	3344.63
422.24	3398.46
422.43	3412.50
422.61	3463.99
422.80	3496.76
422.99	3527.19
423.18	3468.67
423.37	3691.02
423.56	3487.40
423.75	3440.59
423.94	3440.59
424.13	3358.67
424.32	3346.97
424.50	3541.23
424.69	3555.27
424.88	3763.58
425.07	3391.44
425.26	3494.42
425.45	3459.31
425.64	3569.32
425.83	3585.70
426.01	3660.60
426.20	3630.17
426.39	3548.25
426.58	3641.87
426.77	3609.11
426.96	3651.24
427.15	3599.74
427.33	3606.77
427.52	3583.36
427.71	3627.83
427.90	3707.41
428.09	3714.43
428.28	3679.32
428.46	3786.99
428.65	3763.58
428.84	3794.01
429.03	3950.82
429.22	3618.47
429.40	3838.48
429.59	3758.90
429.78	3632.51
429.97	3564.64
430.16	3796.35
430.34	3744.86
430.53	3779.97
430.72	3873.59
430.91	3857.20
431.10	3904.01
431.28	3939.12
431.47	4290.20
431.66	4212.96
431.85	4011.68
432.03	4105.30
432.22	4168.49
432.41	4126.36
432.60	4133.39
432.79	4234.03
432.97	4194.24
433.16	4142.75
433.35	4072.53
433.54	4203.60
433.72	4229.35
433.91	4205.94
434.10	4458.72
434.28	4444.68
434.47	4397.87
434.66	4535.96
434.85	4491.49
435.03	4505.53
435.22	4463.40
435.41	4685.75
435.59	4615.54
435.78	4526.60
435.97	4435.32
436.16	4521.92
436.34	4634.26
436.53	4692.77
436.72	4746.61
436.90	4547.66
437.09	4723.20
437.28	4620.22
437.46	4638.94
437.65	4692.77
437.84	4688.09
438.02	4631.92
438.21	4755.97
438.40	4610.86
438.58	4844.91
438.77	4905.76
438.96	4894.06
439.14	5025.13
439.33	5020.45
439.52	5032.15
439.70	5160.88
439.89	5011.09
440.08	5078.96
440.26	5027.47
440.45	5172.58
440.63	5308.34
440.82	5434.72
441.01	5366.85
441.19	5366.85
441.38	5488.56
441.57	5411.32
441.75	5551.75
441.94	5547.07
442.12	5631.33
442.31	5757.72
442.50	5692.18
442.68	5589.20
442.87	5518.98
443.05	5769.42
443.24	5746.02
443.43	5795.17
443.61	5846.66
443.80	5933.26
443.98	5729.63
444.17	5699.20
444.35	5806.87
444.54	5797.51
444.73	5788.14
444.91	5795.17
445.10	5806.87
445.28	5872.40
445.47	5795.17
445.65	5729.63
445.84	5771.76
446.02	6015.18
446.21	5856.02
446.39	5863.04
446.58	5919.21
446.77	5966.03
446.95	5802.19
447.14	5914.53
447.32	6038.58
447.51	5926.24
447.69	5879.43
447.88	5820.91
448.06	5891.13
448.25	5977.73
448.43	5987.09
448.62	5935.60
448.80	6097.10
448.99	6115.82
449.17	6202.42
449.36	6148.59
449.54	6342.85
449.73	6267.95
449.91	6373.28
450.10	6286.68
450.28	6373.28
450.46	6424.77
450.65	6413.07
450.83	6366.26
451.02	6345.19
451.20	6487.96
451.39	6455.20
451.57	6305.40
451.76	6377.96
451.94	6534.78
452.13	6513.71
452.31	6462.22
452.49	6399.02
452.68	6534.78
452.86	6548.82
453.05	6546.48
453.23	6574.56
453.42	6487.96
453.60	6366.26
453.78	6621.38
453.97	6572.22
454.15	6518.39
454.34	6600.31
454.52	6698.61
454.70	6609.67
454.89	6736.06
455.07	6665.85
455.26	6920.96
455.44	6757.13
455.62	6944.37
455.81	6874.15
455.99	6843.73
456.17	6885.86
456.36	6930.33
456.54	7033.31
456.73	7241.62
456.91	7194.81
457.09	7094.16
457.28	7295.45
457.46	7164.38
457.64	7192.47
457.83	7304.81
458.01	7258.00
458.19	7468.65
458.38	7372.69
458.56	7243.96
458.74	7368.01
458.93	7435.88
459.11	7389.07
459.29	7269.70
459.48	7501.42
459.66	7412.48
459.84	7506.10
460.03	7637.17
460.21	7438.22
460.39	7707.38
460.57	7796.32
460.76	7609.08
460.94	7805.69
461.12	7618.44
461.31	7836.11
461.49	7742.49
461.67	7765.90
461.85	7859.52
462.04	7838.45
462.22	8327.63
462.40	8112.30
462.59	7974.21
462.77	7751.85
462.95	8175.49
463.13	7981.23
463.32	8203.58
463.50	8173.15
463.68	8058.46
463.86	8219.96
464.05	8180.17
464.23	7974.21
464.41	8156.77
464.59	8128.68
464.78	8411.89
464.96	8262.09
465.14	8063.15
465.32	8063.15
465.50	8128.68
465.69	8439.97
465.87	8388.48
466.05	8234.00
466.23	8236.35
466.41	8313.58
466.60	8430.61
466.78	8135.70
466.96	8320.60
467.14	8311.24
467.32	8439.97
467.51	8669.34
467.69	8585.08
467.87	8617.85
468.05	8496.14
468.23	8393.16
468.41	8418.91
468.60	8767.65
468.78	8760.63
468.96	8608.49
469.14	8695.09
469.32	8884.67
469.50	8491.46
469.69	8683.39
469.87	8800.41
470.05	8933.82
470.23	9048.51
470.41	8924.46
470.59	8896.38
470.77	8847.22
470.95	9118.73
471.14	9249.80
471.32	8975.95
471.50	9270.86
471.68	9240.44
471.86	9263.84
472.04	9343.42
472.22	9479.17
472.40	9371.50
472.58	9408.95
472.77	9586.83
472.95	9565.77
473.13	9867.70
473.31	9371.50
473.49	9537.68
473.67	9675.77
473.85	9696.84
474.03	9867.70
474.21	10068.98
474.39	9750.67
474.57	10050.26
474.75	10193.03
474.93	10211.76
475.12	10001.11
475.30	10366.23
475.48	10073.67
475.66	10303.04
475.84	10249.21
476.02	10291.34
476.20	10272.61
476.38	10682.20
476.56	10750.08
476.74	10803.91
476.92	10721.99
477.10	10649.44
477.28	11023.92
477.46	10787.53
477.64	11119.89
477.82	11190.10
478.00	11384.37
478.18	11082.44
478.36	11414.79
478.54	11438.20
478.72	11719.06
478.90	11712.04
479.08	11587.99
479.26	12053.76
479.44	11971.84
479.62	11779.92
479.80	12084.19
479.98	11927.37
480.16	12351.01
480.34	12215.26
480.52	12301.86
480.70	12362.71
480.88	12156.74
481.06	12425.90
481.24	12830.82
481.41	12922.10
481.59	13104.66
481.77	13025.08
481.95	13118.70
482.13	13137.43
482.31	13151.47
482.49	13469.78
482.67	13472.12
482.85	13493.19
483.03	13750.65
483.21	13806.82
483.39	13865.33
483.57	13846.61
483.74	14052.58
483.92	14223.44
484.10	13930.87
484.28	14361.53
484.46	14789.85
484.64	14841.34
484.82	14572.18
485.00	14810.91
485.18	14862.40
485.35	15131.56
485.53	14986.45
485.71	14780.48
485.89	15330.51
486.07	15403.07
486.25	15323.49
486.43	15674.57
486.61	15592.65
486.78	15800.96
486.96	15749.46
487.14	16198.85
487.32	16126.29
487.50	16435.24
487.68	16753.55
487.85	16791.00
488.03	16943.14
488.21	17343.37
488.39	17039.10
488.57	17067.19
488.75	17071.87
488.92	17448.69
489.10	17600.83
489.28	17745.94
489.46	18331.08
489.64	18157.88
489.81	18380.23
489.99	18251.50
490.17	18420.02
490.35	18471.51
490.53	18452.78
490.70	18892.80
490.88	18813.23
491.06	19290.70
491.24	19098.77
491.41	19157.28
491.59	19131.54
491.77	18750.03
491.95	19503.68
492.13	19545.81
492.30	19559.86
492.48	19770.51
492.66	20058.39
492.84	19887.53
493.01	20299.47
493.19	20465.64
493.37	20353.30
493.54	20505.43
493.72	20996.95
493.90	20430.54
494.08	20875.24
494.25	21563.36
494.43	21200.57
494.61	21846.56
494.79	21488.46
494.96	21558.67
495.14	21626.55
495.32	21708.47
495.49	21827.84
495.67	22202.32
495.85	21869.97
496.02	22143.81
496.20	22295.94
496.38	22607.23
496.55	22530.00
496.73	22852.99
496.91	22515.95
497.09	22621.28
497.26	22855.33
497.44	22881.08
497.62	22925.55
497.79	23379.61
497.97	23110.45
498.14	23704.95
498.32	23749.42
498.50	23639.41
498.67	23978.79
498.85	23946.02
499.03	24224.54
499.20	23864.10
499.38	24285.40
499.56	24128.58
499.73	24121.56
499.91	24336.89
500.08	24797.98
500.26	24320.51
500.44	24566.26
500.61	24732.44
500.79	24552.22
500.97	25174.80
501.14	25179.48
501.32	25135.01
501.49	25216.93
501.67	24907.98
501.84	25071.82
502.02	25539.93
502.20	25827.81
502.37	25507.16
502.55	25591.42
502.72	26087.61
502.90	26185.91
503.07	25689.72
503.25	25734.19
503.43	25862.92
503.60	25968.24
503.78	26164.85
503.95	26307.62
504.13	26242.09
504.30	26661.04
504.48	26511.25
504.65	26764.03
504.83	26841.26
505.01	27131.49
505.18	26778.07
505.36	27194.68
505.53	27250.86
505.71	27234.47
505.88	27358.52
506.06	27351.50
506.23	27372.57
506.41	27381.93
506.58	27550.45
506.76	27522.36
506.93	27676.83
507.11	27522.36
507.28	28034.94
507.46	28006.85
507.63	28023.23
507.81	28147.28
507.98	28053.66
508.16	28460.91
508.33	28107.49
508.50	28119.20
508.68	28421.13
508.85	28727.74
509.03	29043.71
509.20	28814.34
509.38	28994.56
509.55	29228.61
509.73	29055.41
509.90	29282.44
510.08	28776.89
510.25	28992.22
510.42	29528.20
510.60	29591.39
510.77	29584.37
510.95	29415.85
511.12	29460.32
511.30	29689.70
511.47	30153.12
511.64	30370.79
511.82	30445.69
511.99	29795.02
512.17	30103.97
512.34	30192.91
512.51	30511.22
512.69	30279.51
512.86	30551.01
513.04	30850.60
513.21	30672.72
513.38	30663.36
513.56	30508.88
513.73	30522.93
513.90	31110.40
514.08	30600.16
514.25	31072.95
514.43	30923.16
514.60	30852.94
514.77	31168.91
514.95	31477.86
515.12	31592.55
515.29	31332.75
515.47	31510.63
515.64	31564.46
515.81	31632.34
515.99	31660.43
516.16	31786.82
516.33	31674.47
516.51	31688.51
516.68	31269.56
516.85	31360.84
517.03	31592.55
517.20	31812.56
517.37	31674.47
517.54	32144.92
517.72	31651.06
517.89	32322.80
518.06	32275.99
518.24	32037.25
518.41	32147.26
518.58	32217.47
518.75	32395.35
518.93	32629.41
519.10	32706.65
519.27	32868.14
519.45	32776.86
519.62	33085.81
519.79	32772.18
519.96	32919.63
520.14	33207.52
520.31	32943.04
520.48	32985.17
520.65	32966.45
520.83	33537.54
521.00	33429.87
521.17	33259.01
521.34	33577.33
521.52	34031.39
521.69	34031.39
521.86	34080.54
522.03	34000.96
522.20	34068.84
522.38	34092.24
522.55	34251.40
522.72	34534.60
522.89	34424.60
523.07	34490.13
523.24	34316.93
523.41	34167.14
523.58	34218.63
523.75	34962.92
523.92	34855.26
524.10	34794.40
524.27	34756.96
524.44	34962.92
524.61	34810.79
524.78	35086.97
524.96	34998.03
525.13	35367.84
525.30	35552.74
525.47	35449.75
525.64	35480.18
525.81	35562.10
525.98	35213.36
526.16	35204.00
526.33	35166.55
526.50	35737.64
526.67	35494.22
526.84	35487.20
527.01	35585.50
527.18	35587.85
527.36	35796.15
527.53	35782.11
527.70	36519.38
527.87	36046.59
528.04	36268.94
528.21	36231.49
528.38	35817.22
528.55	36435.12
528.72	36259.58
528.89	36893.86
529.07	36517.04
529.24	35948.29
529.41	36416.40
529.58	36566.19
529.75	36699.60
529.92	36652.79
530.09	36973.44
530.26	36870.46
530.43	36968.76
530.60	36795.56
530.77	36711.30
530.94	37333.89
531.11	37036.64
531.28	36692.58
531.46	37130.26
531.63	37446.23
531.80	37338.57
531.97	37247.29
532.14	36840.03
532.31	37174.73
532.48	37394.74
532.65	37284.73
532.82	37577.30
532.99	37902.64
533.16	37266.01
533.33	37132.60
533.50	38031.36
533.67	37574.96
533.84	37750.50
534.01	38082.86
534.18	37818.38
534.35	38382.45
534.52	38061.79
534.69	38071.15
534.86	38089.88
535.03	38314.57
535.20	38684.37
535.37	38539.26
535.54	38309.89
535.71	38288.82
535.88	38403.51
536.05	38270.10
536.22	38567.35
536.38	38639.90
536.55	38787.36
536.72	38770.97
536.89	38445.64
537.06	38333.29
537.23	38698.42
537.40	38871.62
537.57	38958.22
537.74	38653.95
537.91	39210.99
538.08	39019.07
538.25	38817.78
538.42	38593.09
538.59	39388.88
538.75	39093.97
538.92	39318.66
539.09	39206.31
539.26	38946.51
539.43	39321.00
539.60	39243.76
539.77	39328.02
539.94	39175.89
540.11	39220.36
540.28	39358.45
540.44	39445.05
540.61	38869.28
540.78	39136.10
540.95	39494.20
541.12	39473.13
541.29	39456.75
541.46	39578.46
541.62	39882.73
541.79	40142.53
541.96	39920.18
542.13	39817.19
542.30	39405.26
542.47	39824.22
542.63	40208.06
542.80	40226.79
542.97	40313.39
543.14	40823.62
543.31	40266.58
543.48	40332.11
543.64	41179.39
543.81	41008.53
543.98	40472.54
544.15	40772.13
544.32	40652.76
544.48	40643.40
544.65	41146.62
544.82	41198.11
544.99	40505.31
545.16	41074.06
545.32	40758.09
545.49	40882.14
545.66	41654.51
545.83	41116.19
546.00	40662.13
546.16	41322.16
546.33	41202.79
546.50	40531.06
546.67	41324.50
546.83	40924.27
547.00	41099.81
547.17	41139.60
547.34	41434.50
547.50	40919.59
547.67	41310.46
547.84	41846.44
548.00	41504.72
548.17	41841.76
548.34	41294.07
548.51	42040.70
548.67	41792.61
548.84	41368.97
549.01	41738.77
549.18	41647.49
549.34	41874.52
549.51	41996.23
549.68	41450.89
549.84	41832.39
550.01	42000.91
550.18	41764.52
550.34	41823.03
550.51	41890.91
550.68	41804.31
550.84	41834.74
551.01	42043.04
551.18	42061.77
551.34	42017.30
551.51	42232.63
551.68	42373.06
551.84	41951.76
552.01	42279.44
552.18	42417.53
552.34	41949.42
552.51	42660.94
552.68	42422.21
552.84	42209.22
553.01	42714.78
553.18	42405.83
553.34	42080.49
553.51	42066.45
553.67	42478.38
553.84	43026.07
554.01	42665.63
554.17	42965.21
554.34	43030.75
554.51	42880.95
554.67	42918.40
554.84	42667.97
555.00	42471.36
555.17	42834.14
555.33	42904.36
555.50	42550.94
555.67	43002.66
555.83	42773.29
556.00	43217.99
556.16	43072.88
556.33	43096.28
556.50	43091.60
556.66	43388.85
556.83	42995.64
556.99	42848.19
557.16	42829.46
557.32	42759.25
557.49	43278.85
557.65	42960.53
557.82	42976.92
557.98	43161.82
558.15	43482.47
558.32	43173.52
558.48	42988.62
558.65	43189.91
558.81	43152.46
558.98	43466.09
559.14	43051.81
559.31	43533.96
559.47	43358.42
559.64	43686.10
559.80	43700.14
559.97	43709.50
560.13	43725.89
560.30	43653.33
560.46	43742.27
560.63	43482.47
560.79	43995.05
560.96	44109.74
561.12	43419.28
561.29	43423.96
561.45	43732.91
561.61	43290.55
561.78	43786.74
561.94	43746.95
562.11	43391.19
562.27	43793.76
562.44	43779.72
562.60	43746.95
562.77	43702.48
562.93	43770.36
563.10	43908.45
563.26	43367.79
563.42	43945.90
563.59	43473.11
563.75	43686.10
563.92	43906.11
564.08	43859.30
564.24	43910.79
564.41	44224.42
564.57	44208.04
564.74	43667.37
564.90	43786.74
565.07	43978.67
565.23	44282.94
565.39	43597.16
565.56	44158.89
565.72	43899.09
565.88	43723.55
566.05	43863.98
566.21	43803.13
566.38	43833.55
566.54	43597.16
566.70	44154.21
566.87	44465.50
567.03	43826.53
567.19	44591.89
567.36	43852.28
567.52	44034.84
567.68	44458.48
567.85	44170.59
568.01	44025.48
568.17	44198.68
568.34	44296.98
568.50	44273.57
568.66	43910.79
568.83	44294.64
568.99	44112.08
569.15	44032.50
569.32	44350.81
569.48	43653.33
569.64	44011.43
569.81	44479.54
569.97	44032.50
570.13	44282.94
570.30	43934.20
570.46	43814.83
570.62	44100.37
570.78	43871.00
570.95	44332.09
571.11	44371.88
571.27	44402.30
571.43	44533.37
571.60	44151.87
571.76	44460.82
571.92	44779.13
572.09	44109.74
572.25	44079.31
572.41	44006.75
572.57	44414.01
572.74	45081.06
572.90	44659.76
573.06	44304.00
573.22	44575.50
573.38	44470.18
573.55	44278.25
573.71	44559.12
573.87	44369.54
574.03	44580.18
574.20	44535.71
574.36	44236.12
574.52	44715.93
574.68	44619.97
574.84	44830.62
575.01	44449.11
575.17	44091.01
575.33	44383.58
575.49	44069.95
575.65	44982.76
575.82	44828.28
575.98	44318.04
576.14	44844.66
576.30	44753.38
576.46	44172.93
576.62	44376.56
576.79	44437.41
576.95	44006.75
577.11	44636.36
577.27	44306.34
577.43	44795.51
577.59	44374.22
577.75	44458.48
577.92	44114.42
578.08	44603.59
578.24	44250.17
578.40	44641.04
578.56	44402.30
578.72	44641.04
578.88	44516.99
579.04	44854.03
579.21	44531.03
579.37	44505.29
579.53	44100.37
579.69	44465.50
579.85	44261.87
580.01	44477.20
580.17	44964.03
580.33	44783.81
580.49	44832.96
580.65	44626.99
580.82	44645.72
580.98	44781.47
581.14	44767.43
581.30	45125.53
581.46	44697.21
581.62	44655.08
581.78	44720.62
581.94	44816.58
582.10	44617.63
582.26	44910.20
582.42	44659.76
582.58	44636.36
582.74	44692.53
582.90	44664.44
583.06	45165.32
583.22	44935.95
583.38	44952.33
583.54	44605.93
583.70	44341.45
583.86	44116.76
584.02	44250.17
584.18	44240.81
584.34	44423.37
584.50	44844.66
584.66	44631.68
584.82	44437.41
584.98	45078.72
585.14	44879.77
585.30	44671.46
585.46	44854.03
585.62	44418.69
585.78	44334.43
585.94	44423.37
586.10	44589.55
586.26	44474.86
586.42	44797.85
586.58	44832.96
586.74	45109.14
586.90	44439.75
587.06	44804.88
587.22	44605.93
587.38	44465.50
587.54	45216.81
587.70	44903.18
587.86	45390.01
588.02	44835.30
588.18	44870.41
588.34	44973.39
588.49	44692.53
588.65	44355.49
588.81	44533.37
588.97	44376.56
589.13	44343.79
589.29	44751.04
589.45	45020.20
589.61	44861.05
589.77	45109.14
589.93	44999.14
590.08	45397.03
590.24	44793.17
