SpectraSuite Data File
++++++++++++++++++++++++++++++++++++
Date: Fri Oct 25 11:26:37 EDT 2013
User: price-jones
Dark Spectrum Present: No
Reference Spectrum Present: No
Number of Sampled Component Spectra: 1
Spectrometers: USB2+H05261
Integration Time (usec): 100000 (USB2+H05261)
Spectra Averaged: 1 (USB2+H05261)
Boxcar Smoothing: 0 (USB2+H05261)
Correct for Electrical Dark: No (USB2+H05261)
Strobe/Lamp Enabled: No (USB2+H05261)
Correct for Detector Non-linearity: No (USB2+H05261)
Correct for Stray Light: No (USB2+H05261)
Number of Pixels in Processed Spectrum: 2048
>>>>>Begin Processed Spectral Data<<<<<
365.73	241.08
365.92	241.08
366.12	241.08
366.32	180.22
366.52	93.62
366.72	173.20
366.91	159.16
367.11	110.01
367.31	135.75
367.51	84.26
367.70	166.18
367.90	152.13
368.10	145.11
368.30	102.98
368.49	156.82
368.69	187.24
368.89	145.11
369.09	182.56
369.28	189.58
369.48	142.77
369.68	168.52
369.87	180.22
370.07	189.58
370.27	262.14
370.47	322.99
370.66	561.73
370.86	641.31
371.06	678.76
371.25	711.52
371.45	678.76
371.65	685.78
371.84	697.48
372.04	730.25
372.24	627.26
372.44	755.99
372.63	725.57
372.83	809.83
373.03	774.72
373.22	751.31
373.42	835.57
373.62	795.78
373.81	739.61
374.01	844.93
374.21	795.78
374.40	816.85
374.60	847.27
374.79	828.55
374.99	809.83
375.19	868.34
375.38	821.53
375.58	844.93
375.78	973.66
375.97	908.13
376.17	917.49
376.37	873.02
376.56	873.02
376.76	880.04
376.95	868.34
377.15	926.85
377.35	933.87
377.54	919.83
377.74	966.64
377.93	957.28
378.13	924.51
378.33	896.43
378.52	915.15
378.72	947.92
378.91	985.37
379.11	973.66
379.31	877.70
379.50	994.73
379.70	1118.78
379.89	938.55
380.09	1029.84
380.28	994.73
380.48	922.17
380.68	990.05
380.87	1067.28
381.07	1015.79
381.26	1015.79
381.46	929.19
381.65	1067.28
381.85	1015.79
382.04	1018.13
382.24	1046.22
382.43	1151.54
382.63	1064.94
382.83	1109.41
383.02	1071.97
383.22	1095.37
383.41	1071.97
383.61	1116.44
383.80	1121.12
384.00	1125.80
384.19	1142.18
384.39	1205.38
384.58	1149.20
384.78	1135.16
384.97	1104.73
385.17	1163.25
385.36	1165.59
385.56	1172.61
385.75	1214.74
385.95	1299.00
386.14	1228.78
386.34	1205.38
386.53	1191.33
386.72	1167.93
386.92	1203.04
387.11	1203.04
387.31	1259.21
387.50	1210.06
387.70	1224.10
387.89	1303.68
388.09	1291.98
388.28	1289.64
388.48	1254.53
388.67	1226.44
388.86	1345.81
389.06	1329.42
389.25	1273.25
389.45	1249.85
389.64	1390.28
389.84	1315.38
390.03	1430.07
390.22	1366.87
390.42	1430.07
390.61	1320.06
390.81	1366.87
391.00	1439.43
391.19	1392.62
391.39	1462.83
391.58	1418.36
391.78	1409.00
391.97	1509.65
392.16	1521.35
392.36	1479.22
392.55	1509.65
392.75	1502.62
392.94	1500.28
393.13	1547.09
393.33	1519.01
393.52	1467.52
393.71	1577.52
393.91	1636.03
394.10	1626.67
394.29	1743.70
394.49	1584.54
394.68	1570.50
394.88	1617.31
395.07	1596.25
395.26	1706.25
395.46	1617.31
395.65	1739.02
395.84	1760.08
396.04	1820.94
396.23	1781.15
396.42	1802.21
396.62	1823.28
396.81	1816.26
397.00	1774.13
397.19	1818.60
397.39	1818.60
397.58	1867.75
397.77	1874.77
397.97	1942.64
398.16	1870.09
398.35	1872.43
398.55	1818.60
398.74	1842.00
398.93	1919.24
399.12	1989.46
399.32	1937.96
399.51	1944.99
399.70	2111.16
399.90	1949.67
400.09	2008.18
400.28	2120.53
400.47	2043.29
400.67	2157.97
400.86	2127.55
401.05	2083.08
401.24	2099.46
401.44	2139.25
401.63	2190.74
401.82	2165.00
402.01	2139.25
402.21	2139.25
402.40	2218.83
402.59	2204.78
402.78	2260.96
402.97	2349.90
403.17	2291.38
403.36	2284.36
403.55	2326.49
403.74	2272.66
403.93	2270.32
404.13	2324.15
404.32	2401.39
404.51	2314.79
404.70	2403.73
404.89	2445.86
405.09	2513.74
405.28	2495.01
405.47	2443.52
405.66	2452.88
405.85	2548.84
406.05	2523.10
406.24	2600.34
406.43	2551.18
406.62	2668.21
406.81	2778.22
407.00	2621.40
407.20	2658.85
407.39	2588.63
407.58	2813.32
407.77	2773.53
407.96	2803.96
408.15	2839.07
408.34	2785.24
408.54	2778.22
408.73	2736.09
408.92	2818.00
409.11	2897.58
409.30	2834.39
409.49	2951.42
409.68	2888.22
409.87	2937.37
410.07	2986.52
410.26	3038.02
410.45	3047.38
410.64	3014.61
410.83	3162.06
411.02	2995.89
411.21	3227.60
411.40	3075.46
411.59	3194.83
411.78	3220.58
411.98	3112.91
412.17	3183.13
412.36	3459.31
412.55	3473.36
412.74	3414.84
412.93	3398.46
413.12	3344.63
413.31	3550.59
413.50	3496.76
413.69	3515.48
413.88	3695.71
414.07	3730.81
414.26	3583.36
414.45	3648.90
414.64	3726.13
414.83	3653.58
415.02	3808.05
415.22	3730.81
415.41	3901.67
415.60	3801.03
415.79	3836.14
415.98	4002.32
416.17	3960.19
416.36	3960.19
416.55	4042.11
416.74	4159.13
416.93	4067.85
417.12	4191.90
417.31	4227.01
417.50	4313.61
417.69	4395.53
417.88	4280.84
418.07	4210.62
418.26	4362.76
418.45	4390.84
418.64	4411.91
418.83	4531.28
419.02	4486.81
419.21	4521.92
419.39	4465.74
419.58	4430.63
419.77	4519.57
419.96	4550.00
420.15	4573.41
420.34	4723.20
420.53	4519.57
420.72	4880.02
420.91	4645.96
421.10	4723.20
421.29	4678.73
421.48	4716.18
421.67	4898.74
421.86	4882.36
422.05	4945.55
422.24	4777.03
422.43	4837.89
422.61	4819.16
422.80	4884.70
422.99	4898.74
423.18	4975.98
423.37	5057.90
423.56	5027.47
423.75	4856.61
423.94	4814.48
424.13	4699.80
424.32	4814.48
424.50	4983.00
424.69	5193.65
424.88	5081.30
425.07	5027.47
425.26	4940.87
425.45	5060.24
425.64	4919.81
425.83	5046.20
426.01	5128.11
426.20	5146.84
426.39	5060.24
426.58	5032.15
426.77	5076.62
426.96	5102.37
427.15	5210.03
427.33	5205.35
427.52	5200.67
427.71	5170.24
427.90	5221.74
428.09	5329.40
428.28	5406.64
428.46	5488.56
428.65	5357.49
428.84	5511.96
429.03	5537.71
429.22	5439.40
429.40	5481.53
429.59	5495.58
429.78	5392.59
429.97	5294.29
430.16	5526.00
430.34	5605.58
430.53	5603.24
430.72	5652.39
430.91	5605.58
431.10	5741.33
431.28	5722.61
431.47	5804.53
431.66	5919.21
431.85	5619.63
432.03	6036.24
432.22	5900.49
432.41	5891.13
432.60	5966.03
432.79	5898.15
432.97	5970.71
433.16	6111.14
433.35	5991.77
433.54	6146.25
433.72	6164.97
433.91	6246.89
434.10	6087.73
434.28	6099.44
434.47	6193.06
434.66	6090.07
434.85	6347.53
435.03	6305.40
435.22	6410.73
435.41	6633.08
435.59	6422.43
435.78	6661.16
435.97	6469.24
436.16	6377.96
436.34	6347.53
436.53	6534.78
436.72	6644.78
436.90	6576.91
437.09	6768.83
437.28	6530.09
437.46	6855.43
437.65	6792.23
437.84	6796.92
438.02	6808.62
438.21	6747.76
438.40	6747.76
438.58	6883.52
438.77	7091.82
438.96	7108.21
439.14	7094.16
439.33	7199.49
439.52	7246.30
439.70	7171.40
439.89	7358.64
440.08	7473.33
440.26	7449.93
440.45	7452.27
440.63	7569.29
440.82	7606.74
441.01	7562.27
441.19	7669.94
441.38	7531.84
441.57	7793.98
441.75	7723.77
441.94	7932.08
442.12	8044.42
442.31	7976.55
442.50	7985.91
442.68	7990.59
442.87	7985.91
443.05	8081.87
443.24	8226.98
443.43	8173.15
443.61	8168.47
443.80	8402.52
443.98	8060.80
444.17	7761.22
444.35	8241.03
444.54	8479.76
444.73	8334.65
444.91	8215.28
445.10	8292.52
445.28	8294.86
445.47	8578.06
445.65	8278.47
445.84	8336.99
446.02	8484.44
446.21	8535.93
446.39	8482.10
446.58	8482.10
446.77	8533.59
446.95	8407.20
447.14	8538.27
447.32	8486.78
447.51	8610.83
447.69	8603.81
447.88	8835.52
448.06	8472.74
448.25	8629.56
448.43	8767.65
448.62	8519.55
448.80	8521.89
448.99	8793.39
449.17	8861.27
449.36	8690.41
449.54	8863.61
449.73	9270.86
449.91	9029.79
450.10	8908.08
450.28	9291.93
450.46	9231.07
450.65	9289.59
450.83	9153.84
451.02	9142.13
451.20	9305.97
451.39	9048.51
451.57	9273.20
451.76	9144.47
451.94	9198.31
452.13	9280.22
452.31	9221.71
452.49	9174.90
452.68	9364.48
452.86	9401.93
453.05	9832.59
453.23	9525.98
453.42	9352.78
453.60	9383.21
453.78	9514.28
453.97	9310.65
454.15	9455.76
454.34	9582.15
454.52	9795.14
454.70	9788.12
454.89	9720.24
455.07	9895.78
455.26	9940.26
455.44	9968.34
455.62	9966.00
455.81	9727.27
455.99	10092.39
456.17	9977.70
456.36	10207.08
456.54	10272.61
456.73	10043.24
456.91	10345.17
457.09	10436.45
457.28	10541.77
457.46	10450.49
457.64	10317.08
457.83	10448.15
458.01	10487.94
458.19	10785.19
458.38	10787.53
458.56	10806.25
458.74	10979.45
458.93	10600.29
459.11	10700.93
459.29	10796.89
459.48	11019.24
459.66	10810.93
459.84	10974.77
460.03	11049.67
460.21	11049.67
460.39	11012.22
460.57	10864.77
460.76	11206.48
460.94	11316.49
461.12	11265.00
461.31	11232.23
461.49	11049.67
461.67	10958.39
461.85	11648.85
462.04	11513.10
462.22	11419.47
462.40	11515.44
462.59	11391.39
462.77	11356.28
462.95	11747.15
463.13	11578.63
463.32	11712.04
463.50	11868.86
463.68	12053.76
463.86	12088.87
464.05	11709.70
464.23	11843.11
464.41	11960.14
464.59	11672.25
464.78	12079.50
464.96	12135.68
465.14	12023.33
465.32	12149.72
465.50	12163.76
465.69	12329.94
465.87	12318.24
466.05	12142.70
466.23	12196.53
466.41	12191.85
466.60	12250.36
466.78	12486.76
466.96	12381.43
467.14	12437.61
467.32	12587.40
467.51	12596.76
467.69	12334.62
467.87	12533.57
468.05	12549.95
468.23	12290.15
468.41	12503.14
468.60	12741.88
468.78	12847.20
468.96	12760.60
469.14	12837.84
469.32	12980.61
469.50	12776.98
469.69	12952.52
469.87	12975.93
470.05	13195.94
470.23	13102.32
470.41	13092.96
470.59	13291.90
470.77	13429.99
470.95	13422.97
471.14	13483.83
471.32	13378.50
471.50	13682.77
471.68	13638.30
471.86	13724.90
472.04	13818.52
472.22	14047.90
472.40	13781.07
472.58	13855.97
472.77	13991.72
472.95	14284.29
473.13	14827.29
473.31	14153.22
473.49	14157.90
473.67	14052.58
473.85	14396.64
474.03	14794.53
474.21	14593.24
474.39	14766.44
474.57	14916.23
474.75	14803.89
474.93	15037.94
475.12	15108.16
475.30	15126.88
475.48	15260.29
475.66	15239.23
475.84	15129.22
476.02	15410.09
476.20	15276.68
476.38	15709.68
476.56	16126.29
476.74	16128.63
476.92	15969.48
477.10	16042.03
477.28	16315.87
477.46	16180.12
477.64	16407.16
477.82	16627.17
478.00	17181.87
478.18	16889.31
478.36	17118.68
478.54	17181.87
478.72	17532.95
478.90	17640.62
479.08	17479.12
479.26	17788.07
479.44	17774.03
479.62	17785.73
479.80	18183.62
479.98	18249.16
480.16	18295.97
480.34	18373.21
480.52	18782.80
480.70	18651.73
480.88	18410.65
481.06	18916.21
481.24	18855.36
481.41	18883.44
481.59	19632.41
481.77	19508.37
481.95	19672.20
482.13	19915.62
482.31	19686.25
482.49	20460.96
482.67	20006.90
482.85	20425.86
483.03	20758.21
483.21	20893.96
483.39	21223.98
483.57	20936.09
483.74	21223.98
483.92	21614.85
484.10	21085.89
484.28	21748.26
484.46	22230.41
484.64	22394.25
484.82	21986.99
485.00	22473.82
485.18	22740.64
485.35	22981.72
485.53	23175.98
485.71	23000.44
485.89	23627.71
486.07	23566.85
486.25	23513.02
486.43	23501.32
486.61	23807.93
486.78	24037.30
486.96	24245.61
487.14	24690.31
487.32	24926.71
487.50	24933.73
487.68	25055.43
487.85	25411.20
488.03	25846.54
488.21	25752.91
488.39	25736.53
488.57	26141.44
488.75	26412.95
488.92	26480.82
489.10	26923.18
489.28	27091.70
489.46	27241.50
489.64	27087.02
489.81	27615.98
489.99	28198.77
490.17	27709.60
490.35	28196.43
490.53	28208.14
490.70	28549.85
490.88	28388.36
491.06	28758.16
491.24	28975.83
491.41	29060.09
491.59	29308.19
491.77	29048.39
491.95	29612.46
492.13	29488.41
492.30	30036.09
492.48	30459.73
492.66	30246.74
492.84	30345.05
493.01	30731.23
493.19	30609.53
493.37	31094.02
493.54	31835.97
493.72	31349.14
493.90	31386.58
494.08	31728.30
494.25	31812.56
494.43	32198.75
494.61	32591.96
494.79	32538.13
494.96	32383.65
495.14	33034.32
495.32	33495.41
495.49	33380.72
495.67	33296.46
495.85	33443.91
496.02	33727.12
496.20	33661.58
496.38	34284.17
496.55	34246.72
496.73	35143.14
496.91	34714.83
497.09	35051.86
497.26	35220.38
497.44	35206.34
497.62	35824.24
497.79	36180.00
497.97	35019.10
498.14	35857.01
498.32	36346.18
498.50	36336.82
498.67	36814.29
498.85	36905.57
499.03	36800.24
499.20	37020.25
499.38	37024.93
499.56	37027.28
499.73	37034.30
499.91	37551.56
500.08	37844.12
500.26	37244.94
500.44	37565.60
500.61	38047.75
500.79	37841.78
500.97	38024.34
501.14	38604.80
501.32	38518.20
501.49	38684.37
501.67	38574.37
501.84	39192.27
502.02	38756.93
502.20	38988.64
502.37	39152.48
502.55	38958.22
502.72	39658.04
502.90	39611.23
503.07	39363.13
503.25	39620.59
503.43	40112.10
503.60	40243.17
503.78	40542.76
503.95	40222.11
504.13	40942.99
504.30	41144.28
504.48	40449.14
504.65	40849.37
504.83	41366.63
505.01	41186.41
505.18	41350.24
505.36	41872.18
505.53	41455.57
505.71	41933.04
505.88	41874.52
506.06	41911.97
506.23	42323.91
506.41	41961.12
506.58	42817.76
506.76	41886.23
506.93	42628.18
507.11	42749.88
507.28	42581.37
507.46	42564.98
507.63	43185.22
507.81	43526.94
507.98	42955.85
508.16	43117.35
508.33	43503.54
508.50	43154.80
508.68	43716.53
508.85	44194.00
509.03	44151.87
509.20	44172.93
509.38	44296.98
509.55	44626.99
509.73	44786.15
509.90	44587.21
510.08	44542.74
510.25	44622.31
510.42	45074.04
510.60	44849.35
510.77	45439.16
510.95	45577.25
511.12	45338.52
511.30	45230.85
511.47	45382.99
511.64	45951.74
511.82	46080.47
511.99	45631.08
512.17	46197.49
512.34	46281.75
512.51	46700.71
512.69	46529.85
512.86	46501.76
513.04	46733.48
513.21	46784.97
513.38	46773.27
513.56	47133.71
513.73	46918.38
513.90	47255.42
514.08	47133.71
514.25	47608.84
514.43	47463.72
514.60	47564.37
514.77	47484.79
514.95	47721.18
515.12	47952.90
515.29	47903.74
515.47	48172.91
515.64	47859.27
515.81	48081.63
515.99	48266.53
516.16	48528.67
516.33	48662.08
516.51	48641.01
516.68	48479.52
516.85	48493.56
517.03	49027.20
517.20	48905.49
517.37	49120.82
517.54	48622.29
517.72	48928.90
517.89	49144.23
518.06	49499.99
518.24	49284.66
518.41	49322.11
518.58	49701.28
518.75	49361.90
518.93	49542.12
519.10	49544.46
519.27	49996.18
519.45	49947.03
519.62	50160.02
519.79	50064.06
519.96	50021.93
520.14	50183.43
520.31	50082.78
520.48	50333.22
520.65	50557.91
520.83	50960.48
521.00	50976.87
521.17	50569.61
521.34	51016.66
521.52	50937.08
521.69	50995.59
521.86	51264.75
522.03	51353.69
522.20	51276.46
522.38	51576.04
522.55	51875.63
522.72	51540.94
522.89	51313.90
523.07	51732.86
523.24	51760.95
523.41	51789.03
523.58	51344.33
523.75	51917.76
523.92	51875.63
524.10	52065.22
524.27	52170.54
524.44	52243.10
524.61	52325.02
524.78	52542.69
524.96	52369.49
525.13	52378.85
525.30	52271.18
525.47	52495.88
525.64	52505.24
525.81	52526.30
525.98	52743.97
526.16	52559.07
526.33	52816.53
526.50	53317.40
526.67	52683.12
526.84	53139.52
527.01	53347.83
527.18	53256.55
527.36	52790.78
527.53	52701.84
527.70	53530.39
527.87	53432.09
528.04	53254.21
528.21	53462.52
528.38	53460.18
528.55	53839.34
528.72	53584.22
528.89	53717.64
529.07	53539.75
529.24	53464.86
529.41	53944.67
529.58	53794.87
529.75	53867.43
529.92	54164.68
530.09	54010.20
530.26	54057.01
530.43	54321.49
530.60	53944.67
530.77	54183.40
530.94	54337.88
531.11	53900.20
531.28	54333.20
531.46	54216.17
531.63	54171.70
531.80	54309.79
531.97	54288.73
532.14	54541.50
532.31	54197.44
532.48	54920.67
532.65	54773.22
532.82	54756.83
532.99	54674.91
533.16	54850.45
533.33	54798.96
533.50	55054.08
533.67	55061.10
533.84	54595.34
534.01	55152.38
534.18	54986.21
534.35	55489.42
534.52	55313.88
534.69	55341.97
534.86	55360.69
535.03	54855.14
535.20	55220.26
535.37	55564.32
535.54	55292.82
535.71	55344.31
535.88	55402.82
536.05	55522.19
536.22	55634.53
536.38	55615.81
536.55	55449.63
536.72	55487.08
536.89	55648.58
537.06	55758.58
537.23	55990.30
537.40	55508.14
537.57	55854.54
537.74	55653.26
537.91	56069.87
538.08	56076.90
538.25	55936.46
538.42	55936.46
538.59	56236.05
538.75	55826.46
538.92	56301.59
539.09	56376.48
539.26	56313.29
539.43	55880.29
539.60	56332.01
539.77	56479.47
539.94	56587.13
540.11	56446.70
540.28	56633.94
540.44	56355.42
540.61	56790.76
540.78	56526.28
540.95	56299.25
541.12	56477.13
541.29	56512.23
541.46	56793.10
541.62	56839.91
541.79	56629.26
541.96	56507.55
542.13	56769.69
542.30	56846.93
542.47	56779.06
542.63	56961.62
542.80	57106.73
542.97	57415.68
543.14	57179.29
543.31	57345.47
543.48	57364.19
543.64	57492.92
543.81	57301.00
543.98	57652.08
544.15	57333.76
544.32	57247.16
544.48	57628.67
544.65	57462.49
544.82	57607.61
544.99	57347.81
545.16	57698.89
545.32	57317.38
545.49	57422.70
545.66	57682.50
545.83	57591.22
546.00	57806.55
546.16	57748.04
546.33	57766.76
546.50	57235.46
546.67	57916.56
546.83	57579.52
547.00	57944.64
547.17	57595.90
547.34	57799.53
547.50	58152.95
547.67	57991.45
547.84	58174.02
548.00	58244.23
548.17	58108.48
548.34	58286.36
548.51	58333.17
548.67	58501.69
548.84	58262.96
549.01	58068.69
549.18	58361.26
549.34	58494.67
549.51	58307.43
549.68	58578.93
549.84	58365.94
550.01	58408.07
550.18	58314.45
550.34	58700.64
550.51	58515.73
550.68	58279.34
550.84	57923.58
551.01	58625.74
551.18	58684.25
551.34	58653.82
551.51	58639.78
551.68	58679.57
551.84	58810.64
552.01	58475.94
552.18	58906.60
552.34	58569.57
552.51	58585.95
552.68	58529.78
552.84	58651.48
553.01	59028.31
553.18	58899.58
553.34	58890.22
553.51	58831.71
553.67	59009.59
553.84	58857.45
554.01	59054.06
554.17	58981.50
554.34	59124.27
554.51	59217.89
554.67	59054.06
554.84	59007.25
555.00	59346.62
555.17	58838.73
555.33	59194.49
555.50	59131.29
555.67	59018.95
555.83	58988.52
556.00	59150.02
556.16	59498.76
556.33	59348.96
556.50	59255.34
556.66	59533.87
556.83	59180.45
556.99	59437.90
557.16	59578.34
557.32	59576.00
557.49	59480.03
557.65	59311.52
557.82	59412.16
557.98	59650.89
558.15	59552.59
558.32	59873.24
558.48	59297.47
558.65	59770.26
558.81	59622.81
558.98	59536.21
559.14	59721.11
559.31	59592.38
559.47	59758.56
559.64	59788.98
559.80	59536.21
559.97	59807.71
560.13	59854.52
560.30	59791.33
560.46	59870.90
560.63	59812.39
560.79	59697.70
560.96	59831.11
561.12	59980.91
561.29	59810.05
561.45	59920.05
561.61	59840.48
561.78	59896.65
561.94	59767.92
562.11	59889.63
562.27	59931.76
562.44	60055.81
562.60	60016.02
562.77	60051.12
562.93	59973.89
563.10	60060.49
563.26	60046.44
563.42	60196.24
563.59	60088.57
563.75	60081.55
563.92	60364.76
564.08	60111.98
564.24	60331.99
564.41	60135.38
564.57	60212.62
564.74	60144.75
564.90	60233.69
565.07	60259.43
565.23	60416.25
565.39	60261.77
565.56	60299.22
565.72	60095.60
565.88	60615.19
566.05	60053.47
566.21	60212.62
566.38	60301.56
566.54	60252.41
566.70	60465.40
566.87	60432.63
567.03	60184.54
567.19	60444.33
567.36	60353.05
567.52	60465.40
567.68	60659.66
567.85	60397.52
568.01	60537.96
568.17	59950.48
568.34	60425.61
568.50	60505.19
568.66	60390.50
568.83	60598.81
568.99	60289.86
569.15	60416.25
569.32	60544.98
569.48	60458.38
569.64	60580.09
569.81	60535.62
569.97	60252.41
570.13	60402.21
570.30	60432.63
570.46	60425.61
570.62	60456.04
570.78	60676.05
570.95	60334.33
571.11	60535.62
571.27	60465.40
571.43	60390.50
571.60	60622.22
571.76	60367.10
571.92	60608.17
572.09	60481.78
572.25	60643.28
572.41	60662.00
572.57	60605.83
572.74	60903.08
572.90	60596.47
573.06	60678.39
573.22	61001.38
573.38	60844.57
573.55	60713.50
573.71	60835.20
573.87	60956.91
574.03	60645.62
574.20	60823.50
574.36	60580.09
574.52	60877.33
574.68	60942.87
574.84	60999.04
575.01	60917.12
575.17	60973.30
575.33	60867.97
575.49	60755.63
575.65	60872.65
575.82	61057.56
575.98	60912.44
576.14	60865.63
576.30	61038.83
576.46	60664.35
576.62	60851.59
576.79	60839.89
576.95	60760.31
577.11	60867.97
577.27	60893.72
577.43	61010.74
577.59	60788.39
577.75	60935.85
577.92	60772.01
578.08	60706.47
578.24	60945.21
578.40	61148.84
578.56	60942.87
578.72	60905.42
578.88	60996.70
579.04	61064.58
579.21	60940.53
579.37	61059.90
579.53	60874.99
579.69	60898.40
579.85	60898.40
580.01	60966.27
580.17	60753.29
580.33	60926.49
580.49	60959.25
580.65	61137.13
580.82	60734.56
580.98	60940.53
581.14	60870.31
581.30	61233.10
581.46	61223.73
581.62	60959.25
581.78	60872.65
581.94	61155.86
582.10	60809.46
582.26	61041.17
582.42	60863.29
582.58	60924.14
582.74	60992.02
582.90	60985.00
583.06	60816.48
583.22	60807.12
583.38	60949.89
583.54	60938.19
583.70	61104.37
583.86	61104.37
584.02	60725.20
584.18	61293.95
584.34	61087.98
584.50	60942.87
584.66	61010.74
584.82	60942.87
584.98	61172.24
585.14	61181.60
585.30	60996.70
585.46	61116.07
585.62	60917.12
585.78	61062.24
585.94	60919.46
586.10	61048.19
586.26	60963.93
586.42	61275.22
586.58	61132.45
586.74	61125.43
586.90	61190.97
587.06	60886.70
587.22	61158.20
587.38	61193.31
587.54	61176.92
587.70	61207.35
587.86	61251.82
588.02	61247.14
588.18	61242.46
588.34	61055.21
588.49	60942.87
