SpectraSuite Data File
++++++++++++++++++++++++++++++++++++
Date: Fri Oct 25 10:44:16 EDT 2013
User: price-jones
Dark Spectrum Present: No
Reference Spectrum Present: No
Number of Sampled Component Spectra: 1
Spectrometers: USB2+H05261
Integration Time (usec): 100000 (USB2+H05261)
Spectra Averaged: 1 (USB2+H05261)
Boxcar Smoothing: 0 (USB2+H05261)
Correct for Electrical Dark: No (USB2+H05261)
Strobe/Lamp Enabled: No (USB2+H05261)
Correct for Detector Non-linearity: No (USB2+H05261)
Correct for Stray Light: No (USB2+H05261)
Number of Pixels in Processed Spectrum: 2048
>>>>>Begin Processed Spectral Data<<<<<
365.73	175.54
365.92	175.54
366.12	175.54
366.32	70.22
366.52	32.77
366.72	79.58
366.91	0.00
367.11	140.43
367.31	9.36
367.51	23.41
367.70	0.00
367.90	11.70
368.10	42.13
368.30	74.90
368.49	42.13
368.69	0.00
368.89	32.77
369.09	0.00
369.28	100.64
369.48	0.00
369.68	131.07
369.87	56.17
370.07	84.26
370.27	93.62
370.47	114.69
370.66	414.27
370.86	388.53
371.06	421.30
371.25	491.51
371.45	414.27
371.65	514.92
371.84	421.30
372.04	447.04
372.24	531.30
372.44	484.49
372.63	449.38
372.83	521.94
373.03	468.11
373.22	456.40
373.42	559.39
373.62	496.19
373.81	538.32
374.01	533.64
374.21	500.87
374.40	566.41
374.60	582.79
374.79	535.98
374.99	566.41
375.19	580.45
375.38	566.41
375.58	531.30
375.78	596.84
375.97	531.30
376.17	664.71
376.37	662.37
376.56	650.67
376.76	645.99
376.95	571.09
377.15	620.24
377.35	653.01
377.54	727.91
377.74	662.37
377.93	613.22
378.13	603.86
378.33	662.37
378.52	653.01
378.72	610.88
378.91	655.35
379.11	622.58
379.31	664.71
379.50	636.63
379.70	716.20
379.89	734.93
380.09	683.44
380.28	681.10
380.48	704.50
380.68	648.33
380.87	702.16
381.07	716.20
381.26	688.12
381.46	755.99
381.65	737.27
381.85	699.82
382.04	688.12
382.24	622.58
382.43	695.14
382.63	744.29
382.83	660.03
383.02	765.36
383.22	702.16
383.41	737.27
383.61	774.72
383.80	802.80
384.00	788.76
384.19	727.91
384.39	812.17
384.58	777.06
384.78	788.76
384.97	772.38
385.17	781.74
385.36	802.80
385.56	816.85
385.75	774.72
385.95	751.31
386.14	793.44
386.34	854.30
386.53	868.34
386.72	887.06
386.92	854.30
387.11	926.85
387.31	849.61
387.50	866.00
387.70	943.24
387.89	875.36
388.09	896.43
388.28	912.81
388.48	933.87
388.67	940.90
388.86	915.15
389.06	936.21
389.25	992.39
389.45	1088.35
389.64	971.32
389.84	1029.84
390.03	983.02
390.22	1011.11
390.42	1048.56
390.61	1041.54
390.81	1050.90
391.00	1048.56
391.19	1060.26
391.39	1060.26
391.58	1090.69
391.78	1043.88
391.97	1076.65
392.16	1083.67
392.36	1043.88
392.55	1011.11
392.75	1097.71
392.94	983.02
393.13	1027.50
393.33	894.08
393.52	1034.52
393.71	1057.92
393.91	1050.90
394.10	1050.90
394.29	1188.99
394.49	1170.27
394.68	1163.25
394.88	1275.59
395.07	1287.29
395.26	1280.27
395.46	1184.31
395.65	1231.12
395.84	1228.78
396.04	1242.82
396.23	1128.14
396.42	1142.18
396.62	1153.88
396.81	1263.89
397.00	1174.95
397.19	1280.27
397.39	1270.91
397.58	1416.02
397.77	1308.36
397.97	1427.73
398.16	1476.88
398.35	1432.41
398.55	1411.34
398.74	1626.67
398.93	1607.95
399.12	1462.83
399.32	1474.54
399.51	1537.73
399.70	1596.25
399.90	1549.43
400.09	1502.62
400.28	1600.93
400.47	1549.43
400.67	1678.16
400.86	1586.88
401.05	1584.54
401.24	1610.29
401.44	1582.20
401.63	1715.61
401.82	1788.17
402.01	1720.29
402.21	1797.53
402.40	1778.81
402.59	1788.17
402.78	1689.87
402.97	1661.78
403.17	1785.83
403.36	1755.40
403.55	1834.98
403.74	1827.96
403.93	1923.92
404.13	1877.11
404.32	1881.79
404.51	1844.34
404.70	1935.62
404.89	1902.86
405.09	2003.50
405.28	1954.35
405.47	1933.28
405.66	1909.88
405.85	1963.71
406.05	2005.84
406.24	1994.14
406.43	1982.43
406.62	2031.58
406.81	2127.55
407.00	1998.82
407.20	2097.12
407.39	2139.25
407.58	2197.76
407.77	2221.17
407.96	2244.57
408.15	2183.72
408.34	2235.21
408.54	2415.43
408.73	2251.60
408.92	2291.38
409.11	2296.07
409.30	2197.76
409.49	2368.62
409.68	2204.78
409.87	2319.47
410.07	2312.45
410.26	2347.56
410.45	2380.32
410.64	2469.27
410.83	2497.35
411.02	2567.57
411.21	2675.23
411.40	2576.93
411.59	2602.68
411.78	2719.70
411.98	2590.97
412.17	2595.65
412.36	2670.55
412.55	2700.98
412.74	2736.09
412.93	2757.15
413.12	2768.85
413.31	2736.09
413.50	2787.58
413.69	2906.95
413.88	2911.63
414.07	2860.13
414.26	2949.08
414.45	2881.20
414.64	2944.39
414.83	2981.84
415.02	3021.63
415.22	3038.02
415.41	3222.92
415.60	3183.13
415.79	3052.06
415.98	3300.16
416.17	3225.26
416.36	3089.51
416.55	3272.07
416.74	3288.45
416.93	3176.11
417.12	3262.71
417.31	3288.45
417.50	3412.50
417.69	3417.18
417.88	3302.50
418.07	3386.76
418.26	3571.66
418.45	3454.63
418.64	3590.38
418.83	3655.92
419.02	3524.85
419.21	3541.23
419.39	3609.11
419.58	3581.02
419.77	3492.08
419.96	3606.77
420.15	3728.47
420.34	3660.60
420.53	3716.77
420.72	3798.69
420.91	3854.86
421.10	3819.75
421.29	3920.40
421.48	3824.44
421.67	3880.61
421.86	3749.54
422.05	3894.65
422.24	3737.84
422.43	3801.03
422.61	3744.86
422.80	3964.87
422.99	3892.31
423.18	4121.68
423.37	4002.32
423.56	4126.36
423.75	4037.42
423.94	3932.10
424.13	3695.71
424.32	3817.41
424.50	4002.32
424.69	3925.08
424.88	3971.89
425.07	3847.84
425.26	3840.82
425.45	3868.91
425.64	3875.93
425.83	4105.30
426.01	4044.45
426.20	3875.93
426.39	3939.12
426.58	3999.98
426.77	3955.51
426.96	3936.78
427.15	3803.37
427.33	4051.47
427.52	4093.60
427.71	4180.20
427.90	4121.68
428.09	4035.08
428.28	4119.34
428.46	4060.83
428.65	4098.28
428.84	4348.72
429.03	4241.05
429.22	4145.09
429.40	4168.49
429.59	4105.30
429.78	3925.08
429.97	3859.54
430.16	4077.21
430.34	4030.40
430.53	4140.41
430.72	4056.15
430.91	4194.24
431.10	4346.37
431.28	4669.37
431.47	4578.09
431.66	4657.67
431.85	4561.70
432.03	4496.17
432.22	4695.11
432.41	4631.92
432.60	4718.52
432.79	4781.71
432.97	4875.34
433.16	4730.22
433.35	4594.47
433.54	4594.47
433.72	4571.07
433.91	4592.13
434.10	4676.39
434.28	4568.73
434.47	4840.23
434.66	4828.53
434.85	4954.91
435.03	5027.47
435.22	4980.66
435.41	5280.25
435.59	5233.44
435.78	5085.98
435.97	5097.69
436.16	5172.58
436.34	5027.47
436.53	5118.75
436.72	5364.51
436.90	5135.14
437.09	5195.99
437.28	5074.28
437.46	5116.41
437.65	5083.64
437.84	5156.20
438.02	5102.37
438.21	5107.05
438.40	5060.24
438.58	5366.85
438.77	5317.70
438.96	5430.04
439.14	5596.22
439.33	5659.42
439.52	5528.35
439.70	5486.22
439.89	5664.10
440.08	5731.97
440.26	5675.80
440.45	5760.06
440.63	5870.06
440.82	5947.30
441.01	5872.40
441.19	5891.13
441.38	6129.86
441.57	5928.58
441.75	6043.26
441.94	6303.06
442.12	6448.18
442.31	6438.81
442.50	6462.22
442.68	6190.72
442.87	6237.53
443.05	6366.26
443.24	6541.80
443.43	6422.43
443.61	6436.47
443.80	6546.48
443.98	6258.59
444.17	6408.39
444.35	6506.69
444.54	6586.27
444.73	6434.13
444.91	6581.59
445.10	6518.39
445.28	6431.79
445.47	6361.58
445.65	6312.42
445.84	6441.15
446.02	6459.88
446.21	6527.75
446.39	6382.64
446.58	6722.02
446.77	6619.04
446.95	6733.72
447.14	6649.46
447.32	6574.56
447.51	6693.93
447.69	6649.46
447.88	6775.85
448.06	6675.21
448.25	6768.83
448.43	6700.95
448.62	6558.18
448.80	6827.34
448.99	6850.75
449.17	6874.15
449.36	6621.38
449.54	7080.12
449.73	7117.57
449.91	7094.16
450.10	7164.38
450.28	7185.44
450.46	7248.64
450.65	7117.57
450.83	7356.30
451.02	7379.71
451.20	7201.83
451.39	7300.13
451.57	7042.67
451.76	7026.29
451.94	7351.62
452.13	7323.54
452.31	7000.54
452.49	6857.77
452.68	7157.36
452.86	7356.30
453.05	7412.48
453.23	7342.26
453.42	7262.68
453.60	7321.20
453.78	7403.11
453.97	7417.16
454.15	7463.97
454.34	7178.42
454.52	7679.30
454.70	7424.18
454.89	7466.31
455.07	7358.64
455.26	7679.30
455.44	7686.32
455.62	7658.23
455.81	7803.35
455.99	7852.50
456.17	7850.16
456.36	7857.18
456.54	7934.42
456.73	7990.59
456.91	8142.72
457.09	8149.75
457.28	8348.69
457.46	8023.36
457.64	8128.68
457.83	8154.43
458.01	7929.74
458.19	8156.77
458.38	8334.65
458.56	8262.09
458.74	8355.71
458.93	8203.58
459.11	8456.36
459.29	8365.07
459.48	8477.42
459.66	8224.64
459.84	8301.88
460.03	8683.39
460.21	8601.47
460.39	8198.90
460.57	8395.50
460.76	8648.28
460.94	8755.94
461.12	8503.17
461.31	8559.34
461.49	8514.87
461.67	8645.94
461.85	8844.88
462.04	8781.69
462.22	8863.61
462.40	9170.22
462.59	8772.33
462.77	8805.10
462.95	9022.77
463.13	8901.06
463.32	8926.80
463.50	8985.32
463.68	9135.11
463.86	8901.06
464.05	9022.77
464.23	8980.64
464.41	9027.45
464.59	8793.39
464.78	9357.46
464.96	9210.01
465.14	9111.71
465.32	9259.16
465.50	9235.75
465.69	9231.07
465.87	9284.91
466.05	9212.35
466.23	9137.45
466.41	9125.75
466.60	9540.02
466.78	9336.40
466.96	9193.62
467.14	9273.20
467.32	9497.89
467.51	9322.35
467.69	9198.31
467.87	9523.64
468.05	9579.81
468.23	9357.46
468.41	9638.33
468.60	9561.09
468.78	9610.24
468.96	9511.94
469.14	9771.74
469.32	9832.59
469.50	9408.95
469.69	9778.76
469.87	9792.80
470.05	9841.95
470.23	9582.15
470.41	9877.06
470.59	9881.74
470.77	9914.51
470.95	9984.73
471.14	10181.33
471.32	9949.62
471.50	10265.59
471.68	10389.64
471.86	10370.91
472.04	10478.58
472.22	10560.50
472.40	10225.80
472.58	10340.49
472.77	10546.45
472.95	10696.25
473.13	10946.69
473.31	10476.24
473.49	10492.62
473.67	10593.26
473.85	10740.72
474.03	10813.28
474.21	11066.05
474.39	11089.46
474.57	11229.89
474.75	11087.12
474.93	11117.54
475.12	11119.89
475.30	11318.83
475.48	11138.61
475.66	11178.40
475.84	11206.48
476.02	11552.88
476.20	11438.20
476.38	11520.12
476.56	11747.15
476.74	11756.51
476.92	11812.68
477.10	11693.32
477.28	12292.49
477.46	12074.82
477.64	12042.06
477.82	12154.40
478.00	12755.92
478.18	12765.28
478.36	12241.00
478.54	12674.00
478.72	12837.84
478.90	12952.52
479.08	12908.05
479.26	13090.62
479.44	13172.54
479.62	13118.70
479.80	13172.54
479.98	13303.60
480.16	13743.63
480.34	13624.26
480.52	13811.50
480.70	13535.32
480.88	13717.88
481.06	13963.64
481.24	14319.40
481.41	14045.55
481.59	14548.77
481.77	14354.51
481.95	14438.76
482.13	14436.42
482.31	14731.33
482.49	14719.63
482.67	14750.06
482.85	15061.35
483.03	15157.31
483.21	15407.75
483.39	15513.07
483.57	15257.95
483.74	15580.95
483.92	15719.04
484.10	15473.28
484.28	15925.00
484.46	16077.14
484.64	16374.39
484.82	16287.79
485.00	16180.12
485.18	16489.07
485.35	16547.59
485.53	16238.64
485.71	16231.62
485.89	16521.84
486.07	16350.98
486.25	16882.28
486.43	16844.84
486.61	17076.55
486.78	17228.68
486.96	17525.93
487.14	17811.48
487.32	17799.77
487.50	18148.51
487.68	17930.84
487.85	18593.22
488.03	18824.93
488.21	18597.90
488.39	18707.90
488.57	18506.62
488.75	18677.48
488.92	19381.98
489.10	19358.57
489.28	19176.01
489.46	19660.50
489.64	19716.67
489.81	20222.23
489.99	20339.26
490.17	20201.16
490.35	20437.56
490.53	20203.50
490.70	20409.47
490.88	20451.60
491.06	20994.61
491.24	20563.95
491.41	20823.75
491.59	20753.53
491.77	20779.28
491.95	21149.08
492.13	21502.50
492.30	21647.61
492.48	21619.53
492.66	21975.29
492.84	21844.22
493.01	22188.28
493.19	21893.37
493.37	22211.68
493.54	22293.60
493.72	22398.93
493.90	22750.01
494.08	22654.05
494.25	23328.12
494.43	23484.94
494.61	23634.73
494.79	23344.50
494.96	23463.87
495.14	23335.14
495.32	23573.88
495.49	23566.85
495.67	23934.32
495.85	23885.17
496.02	24383.70
496.20	24329.87
496.38	24463.28
496.55	24594.35
496.73	25123.31
496.91	24912.66
497.09	25120.97
497.26	24816.70
497.44	25226.29
497.62	25230.98
497.79	25493.12
497.97	25109.27
498.14	25441.62
498.32	25818.45
498.50	26120.38
498.67	26040.80
498.85	25921.43
499.03	26202.30
499.20	26534.65
499.38	26010.37
499.56	26576.78
499.73	26581.46
499.91	26408.26
500.08	26726.58
500.26	26382.52
500.44	26796.79
500.61	26665.72
500.79	26703.17
500.97	26904.46
501.14	27269.58
501.32	26937.23
501.49	27140.85
501.67	27461.51
501.84	27508.32
502.02	27342.14
502.20	27388.95
502.37	27859.40
502.55	27747.05
502.72	28198.77
502.90	28112.17
503.07	28226.86
503.25	28140.26
503.43	27941.32
503.60	28409.42
503.78	28009.19
503.95	28212.82
504.13	28470.28
504.30	28783.91
504.48	28896.25
504.65	28767.52
504.83	29434.58
505.01	28966.47
505.18	28978.17
505.36	29401.81
505.53	29032.00
505.71	29972.90
505.88	29593.73
506.06	29268.40
506.23	29397.13
506.41	29352.66
506.58	29820.77
506.76	29944.81
506.93	29928.43
507.11	29834.81
507.28	30494.84
507.46	29872.26
507.63	29724.80
507.81	30366.11
507.98	29898.00
508.16	30368.45
508.33	30661.02
508.50	30850.60
508.68	31227.43
508.85	31225.09
509.03	30682.08
509.20	31164.23
509.38	31250.83
509.55	31669.79
509.73	31864.05
509.90	31138.49
510.08	31344.45
510.25	31206.36
510.42	31655.75
510.60	31901.50
510.77	31641.70
510.95	32243.22
511.12	32306.41
511.30	32044.27
511.47	32484.30
511.64	32531.11
511.82	32666.86
511.99	32484.30
512.17	32662.18
512.34	32327.48
512.51	32716.01
512.69	32671.54
512.86	32549.83
513.04	33090.49
513.21	33069.43
513.38	32734.73
513.56	32884.53
513.73	33034.32
513.90	32982.83
514.08	32968.79
514.25	32823.67
514.43	33158.37
514.60	33254.33
514.77	33467.32
514.95	33544.56
515.12	33160.71
515.29	33614.77
515.47	33970.54
515.64	34033.73
515.81	33897.98
515.99	33965.85
516.16	33677.97
516.33	33542.22
516.51	33593.71
516.68	33523.49
516.85	33343.27
517.03	33488.38
517.20	34117.99
517.37	34232.68
517.54	34572.05
517.72	34356.72
517.89	34174.16
518.06	34057.14
518.24	34520.56
518.41	34279.49
518.58	34309.91
518.75	34932.50
518.93	34869.30
519.10	35033.14
519.27	34925.47
519.45	35426.35
519.62	35175.91
519.79	35292.94
519.96	35569.12
520.14	35597.21
520.31	35679.13
520.48	35431.03
520.65	35849.99
520.83	35878.07
521.00	35927.22
521.17	36184.68
521.34	35906.16
521.52	36404.69
521.69	36088.72
521.86	36271.28
522.03	36133.19
522.20	36128.51
522.38	36573.21
522.55	36589.59
522.72	36627.04
522.89	36568.53
523.07	36692.58
523.24	36591.94
523.41	37067.06
523.58	36833.01
523.75	37256.65
523.92	37184.09
524.10	37497.72
524.27	37670.92
524.44	37567.94
524.61	37593.68
524.78	37305.80
524.96	37762.20
525.13	37415.80
525.30	37823.06
525.47	37972.85
525.64	37312.82
525.81	37422.83
525.98	37706.03
526.16	37448.57
526.33	37589.00
526.50	37706.03
526.67	37336.23
526.84	37729.44
527.01	37256.65
527.18	37993.92
527.36	38333.29
527.53	38415.21
527.70	38644.59
527.87	38569.69
528.04	38366.06
528.21	38541.60
528.38	38625.86
528.55	38728.84
528.72	39016.73
528.89	39449.73
529.07	38616.50
529.24	38572.03
529.41	39002.69
529.58	39093.97
529.75	38883.32
529.92	39098.65
530.09	38878.64
530.26	39622.93
530.43	39524.63
530.60	39304.62
530.77	39512.92
530.94	39819.53
531.11	39557.39
531.28	39587.82
531.46	39658.04
531.63	39782.09
531.80	39510.58
531.97	39253.12
532.14	39833.58
532.31	39372.49
532.48	39402.92
532.65	40027.84
532.82	39597.18
532.99	39732.93
533.16	39339.72
533.33	40151.89
533.50	40322.75
533.67	39889.75
533.84	39859.32
534.01	40172.96
534.18	39651.02
534.35	40524.04
534.52	40341.47
534.69	40545.10
534.86	40744.05
535.03	40620.00
535.20	40851.71
535.37	40814.26
535.54	41209.81
535.71	40802.56
535.88	40634.04
536.05	40809.58
536.22	40708.94
536.38	40830.65
536.55	40872.78
536.72	40975.76
536.89	40659.79
537.06	41336.20
537.23	41429.82
537.40	40851.71
537.57	41041.29
537.74	41464.93
537.91	41663.88
538.08	41392.37
538.25	41443.87
538.42	41326.84
538.59	41273.01
538.75	41062.36
538.92	41446.21
539.09	41434.50
539.26	41698.98
539.43	41296.41
539.60	41525.78
539.77	41579.62
539.94	41970.49
540.11	41338.54
540.28	41364.29
540.44	41570.25
540.61	41312.80
540.78	41523.44
540.95	41717.71
541.12	41539.83
541.29	41989.21
541.46	42092.19
541.62	41855.80
541.79	42476.04
541.96	41698.98
542.13	42176.45
542.30	42344.97
542.47	42103.90
542.63	41982.19
542.80	42239.65
542.97	42209.22
543.14	42660.94
543.31	42630.52
543.48	42476.04
543.64	43402.89
543.81	42976.92
543.98	43269.48
544.15	42768.61
544.32	43217.99
544.48	42895.00
544.65	43274.16
544.82	42974.58
544.99	43016.71
545.16	43159.48
545.32	43143.09
545.49	43316.29
545.66	43672.06
545.83	43447.36
546.00	43466.09
546.16	43484.81
546.33	43171.18
546.50	43119.69
546.67	43363.11
546.83	43377.15
547.00	43503.54
547.17	43222.67
547.34	43690.78
547.50	43194.59
547.67	43817.17
547.84	43484.81
548.00	43655.67
548.17	43957.60
548.34	43845.26
548.51	43732.91
548.67	43505.88
548.84	43615.88
549.01	43508.22
549.18	43529.28
549.34	44034.84
549.51	44069.95
549.68	44116.76
549.84	43742.27
550.01	44495.92
550.18	43758.66
550.34	44278.25
550.51	44287.62
550.68	44013.77
550.84	43753.97
551.01	43934.20
551.18	44404.64
551.34	44107.40
551.51	44226.76
551.68	44631.68
551.84	44414.01
552.01	44308.68
552.18	44512.31
552.34	44032.50
552.51	44409.32
552.68	44603.59
552.84	44830.62
553.01	44744.02
553.18	44624.65
553.34	44641.04
553.51	44332.09
553.67	44561.46
553.84	44725.30
554.01	44659.76
554.17	44945.31
554.34	44968.71
554.51	44954.67
554.67	45188.72
554.84	44875.09
555.00	44975.73
555.17	44521.67
555.33	44732.32
555.50	44774.45
555.67	44912.54
555.83	44631.68
556.00	44980.42
556.16	45324.47
556.33	45258.94
556.50	45123.19
556.66	45198.09
556.83	44975.73
556.99	45034.25
557.16	45432.14
557.32	45139.57
557.49	45244.90
557.65	44765.09
557.82	45027.23
557.98	45167.66
558.15	45240.21
558.32	45635.77
558.48	45422.78
558.65	44879.77
558.81	45092.76
558.98	44847.00
559.14	45326.81
559.31	45270.64
559.47	45050.63
559.64	45457.88
559.80	45296.39
559.97	45247.24
560.13	45137.23
560.30	45062.33
560.46	45462.57
560.63	45488.31
560.79	45626.40
560.96	45787.90
561.12	45317.45
561.29	45385.33
561.45	45478.95
561.61	45497.67
561.78	45052.97
561.94	45422.78
562.11	45301.07
562.27	45577.25
562.44	45411.07
562.60	45827.69
562.77	45691.94
562.93	45736.41
563.10	45794.92
563.26	45329.16
563.42	45998.55
563.59	45123.19
563.75	45408.73
563.92	45956.42
564.08	45783.22
564.24	45865.14
564.41	45464.91
564.57	45710.66
564.74	45855.78
564.90	45757.47
565.07	45837.05
565.23	45811.31
565.39	45736.41
565.56	45951.74
565.72	45881.52
565.88	45776.20
566.05	45815.99
566.21	45872.16
566.38	45537.46
566.54	45773.86
566.70	46209.20
566.87	46344.95
567.03	45951.74
567.19	46185.79
567.36	46057.06
567.52	46178.77
567.68	46050.04
567.85	45626.40
568.01	46216.22
568.17	45914.29
568.34	46253.67
568.50	45844.07
568.66	46040.68
568.83	45972.80
568.99	45972.80
569.15	45907.27
569.32	45986.85
569.48	45860.46
569.64	46153.02
569.81	46312.18
569.97	46094.51
570.13	46328.56
570.30	45443.84
570.46	45806.62
570.62	45509.38
570.78	45818.33
570.95	46153.02
571.11	45682.58
571.27	46258.35
571.43	45696.62
571.60	45790.24
571.76	45911.95
571.92	46241.96
572.09	45654.49
572.25	46199.83
572.41	45656.83
572.57	46328.56
572.74	46574.32
572.90	46075.79
573.06	46181.11
573.22	46445.59
573.38	46153.02
573.55	46092.17
573.71	46080.47
573.87	46192.81
574.03	46302.82
574.20	46473.68
574.36	46312.18
574.52	46300.48
574.68	45918.97
574.84	46101.53
575.01	46253.67
575.17	46171.75
575.33	46192.81
575.49	45708.32
575.65	46543.89
575.82	46234.94
575.98	46403.46
576.14	46522.83
576.30	46646.88
576.46	45883.86
576.62	46323.88
576.79	46160.05
576.95	46021.95
577.11	46019.61
577.27	46110.89
577.43	45933.01
577.59	46106.21
577.75	46241.96
577.92	45647.47
578.08	45694.28
578.24	46117.92
578.40	46408.14
578.56	46068.76
578.72	46302.82
578.88	46171.75
579.04	46146.00
579.21	46206.86
579.37	46138.98
579.53	46373.03
579.69	45965.78
579.85	46103.87
580.01	46576.66
580.17	46199.83
580.33	46394.10
580.49	46412.82
580.65	46724.11
580.82	46557.94
580.98	46167.07
581.14	46241.96
581.30	46759.22
581.46	46349.63
581.62	46424.53
581.78	46471.34
581.94	46412.82
582.10	46305.16
582.26	46504.10
582.42	46195.15
582.58	46483.04
582.74	46590.70
582.90	46401.12
583.06	46932.42
583.22	46588.36
583.38	46555.60
583.54	46209.20
583.70	46422.19
583.86	46527.51
584.02	46426.87
584.18	46469.00
584.34	46160.05
584.50	46586.02
584.66	46525.17
584.82	46288.77
584.98	46789.65
585.14	46700.71
585.30	45989.19
585.46	46181.11
585.62	46284.09
585.78	46021.95
585.94	46209.20
586.10	46103.87
586.26	46057.06
586.42	46438.57
586.58	46726.46
586.74	46817.74
586.90	46199.83
587.06	46368.35
587.22	46160.05
587.38	46539.21
587.54	46913.70
587.70	46424.53
587.86	46218.56
588.02	46007.91
588.18	46745.18
588.34	46038.34
588.49	45748.11
588.65	46040.68
588.81	45834.71
588.97	46333.24
589.13	45975.14
589.29	46256.01
589.45	46174.09
589.61	45853.44
589.77	46616.45
589.93	46469.00
