SpectraSuite Data File
++++++++++++++++++++++++++++++++++++
Date: Fri Oct 25 11:26:36 EDT 2013
User: price-jones
Dark Spectrum Present: No
Reference Spectrum Present: No
Number of Sampled Component Spectra: 1
Spectrometers: USB2+H05261
Integration Time (usec): 100000 (USB2+H05261)
Spectra Averaged: 1 (USB2+H05261)
Boxcar Smoothing: 0 (USB2+H05261)
Correct for Electrical Dark: No (USB2+H05261)
Strobe/Lamp Enabled: No (USB2+H05261)
Correct for Detector Non-linearity: No (USB2+H05261)
Correct for Stray Light: No (USB2+H05261)
Number of Pixels in Processed Spectrum: 2048
>>>>>Begin Processed Spectral Data<<<<<
365.73	205.97
365.92	205.97
366.12	205.97
366.32	156.82
366.52	135.75
366.72	234.05
366.91	121.71
367.11	63.19
367.31	124.05
367.51	114.69
367.70	173.20
367.90	196.60
368.10	107.66
368.30	46.81
368.49	138.09
368.69	184.90
368.89	175.54
369.09	121.71
369.28	238.73
369.48	220.01
369.68	189.58
369.87	236.39
370.07	217.67
370.27	280.86
370.47	294.91
370.66	533.64
370.86	667.05
371.06	676.41
371.25	706.84
371.45	622.58
371.65	636.63
371.84	695.14
372.04	713.86
372.24	678.76
372.44	763.01
372.63	695.14
372.83	753.65
373.03	746.63
373.22	678.76
373.42	805.14
373.62	821.53
373.81	807.48
374.01	760.67
374.21	812.17
374.40	861.32
374.60	830.89
374.79	791.10
374.99	791.10
375.19	896.43
375.38	784.08
375.58	791.10
375.78	915.15
375.97	823.87
376.17	910.47
376.37	880.04
376.56	866.00
376.76	807.48
376.95	863.66
377.15	933.87
377.35	877.70
377.54	866.00
377.74	950.26
377.93	793.44
378.13	856.64
378.33	894.08
378.52	952.60
378.72	985.37
378.91	1022.81
379.11	917.49
379.31	999.41
379.50	964.30
379.70	1015.79
379.89	968.98
380.09	1011.11
380.28	952.60
380.48	961.96
380.68	1013.45
380.87	1039.20
381.07	915.15
381.26	999.41
381.46	992.39
381.65	1022.81
381.85	1015.79
382.04	952.60
382.24	1057.92
382.43	1142.18
382.63	1090.69
382.83	1053.24
383.02	1078.99
383.22	1043.88
383.41	1067.28
383.61	1149.20
383.80	1210.06
384.00	1130.48
384.19	1181.97
384.39	1093.03
384.58	1149.20
384.78	1151.54
384.97	1165.59
385.17	1193.67
385.36	1203.04
385.56	1224.10
385.75	1142.18
385.95	1130.48
386.14	1247.51
386.34	1259.21
386.53	1186.65
386.72	1137.50
386.92	1231.12
387.11	1259.21
387.31	1277.93
387.50	1310.70
387.70	1254.53
387.89	1345.81
388.09	1277.93
388.28	1313.04
388.48	1273.25
388.67	1306.02
388.86	1371.55
389.06	1188.99
389.25	1313.04
389.45	1277.93
389.64	1256.87
389.84	1343.47
390.03	1488.58
390.22	1413.68
390.42	1329.42
390.61	1448.79
390.81	1348.15
391.00	1416.02
391.19	1394.96
391.39	1490.92
391.58	1425.39
391.78	1495.60
391.97	1460.49
392.16	1348.15
392.36	1558.80
392.55	1551.78
392.75	1511.99
392.94	1488.58
393.13	1584.54
393.33	1542.41
393.52	1577.52
393.71	1643.06
393.91	1537.73
394.10	1593.90
394.29	1750.72
394.49	1570.50
394.68	1617.31
394.88	1638.38
395.07	1767.10
395.26	1724.97
395.46	1633.69
395.65	1760.08
395.84	1645.40
396.04	1743.70
396.23	1776.47
396.42	1713.27
396.62	1722.63
396.81	1710.93
397.00	1820.94
397.19	1881.79
397.39	1769.44
397.58	1867.75
397.77	1741.36
397.97	1774.13
398.16	1912.22
398.35	1935.62
398.55	1909.88
398.74	1994.14
398.93	2050.31
399.12	1921.58
399.32	1998.82
399.51	1912.22
399.70	2003.50
399.90	1959.03
400.09	2015.20
400.28	2094.78
400.47	2134.57
400.67	2092.44
400.86	2291.38
401.05	2031.58
401.24	2085.42
401.44	2092.44
401.63	2083.08
401.82	2054.99
402.01	1996.48
402.21	2139.25
402.40	2150.95
402.59	2197.76
402.78	2239.89
402.97	2179.04
403.17	2253.94
403.36	2258.62
403.55	2331.17
403.74	2277.34
403.93	2359.26
404.13	2448.20
404.32	2406.07
404.51	2466.92
404.70	2373.30
404.89	2385.01
405.09	2450.54
405.28	2476.29
405.47	2572.25
405.66	2590.97
405.85	2544.16
406.05	2471.61
406.24	2560.55
406.43	2668.21
406.62	2583.95
406.81	2717.36
407.00	2523.10
407.20	2518.42
407.39	2551.18
407.58	2759.49
407.77	2764.17
407.96	2766.51
408.15	2789.92
408.34	2967.80
408.54	2808.64
408.73	2813.32
408.92	2787.58
409.11	2935.03
409.30	2906.95
409.49	2857.79
409.68	2956.10
409.87	2874.18
410.07	2977.16
410.26	2939.71
410.45	2892.90
410.64	3023.97
410.83	3002.91
411.02	3316.54
411.21	3199.51
411.40	3169.09
411.59	3162.06
411.78	3173.77
411.98	3265.05
412.17	3169.09
412.36	3330.58
412.55	3389.10
412.74	3358.67
412.93	3459.31
413.12	3316.54
413.31	3513.14
413.50	3566.98
413.69	3461.65
413.88	3538.89
414.07	3510.80
414.26	3588.04
414.45	3667.62
414.64	3726.13
414.83	3810.39
415.02	3730.81
415.22	3833.80
415.41	3843.16
415.60	3936.78
415.79	3948.48
415.98	4067.85
416.17	3955.51
416.36	3941.46
416.55	3941.46
416.74	4114.66
416.93	3997.64
417.12	4124.02
417.31	4107.64
417.50	4212.96
417.69	4290.20
417.88	4297.22
418.07	4304.25
418.26	4250.41
418.45	4369.78
418.64	4444.68
418.83	4334.67
419.02	4423.61
419.21	4568.73
419.39	4395.53
419.58	4447.02
419.77	4540.64
419.96	4585.11
420.15	4557.02
420.34	4601.49
420.53	4723.20
420.72	4732.56
420.91	4674.05
421.10	4739.58
421.29	4791.08
421.48	4662.35
421.67	4884.70
421.86	4863.63
422.05	4936.19
422.24	4704.48
422.43	4968.96
422.61	4980.66
422.80	5069.60
422.99	4882.36
423.18	5029.81
423.37	5128.11
423.56	4910.44
423.75	4975.98
423.94	4936.19
424.13	4615.54
424.32	4671.71
424.50	5064.92
424.69	5277.91
424.88	5130.45
425.07	4975.98
425.26	4931.51
425.45	4938.53
425.64	5006.41
425.83	4957.25
426.01	4947.89
426.20	5219.39
426.39	5142.16
426.58	4980.66
426.77	4983.00
426.96	5083.64
427.15	5100.03
427.33	5284.93
427.52	5039.17
427.71	5343.44
427.90	5390.25
428.09	5298.97
428.28	5291.95
428.46	5427.70
428.65	5348.12
428.84	5511.96
429.03	5511.96
429.22	5408.98
429.40	5432.38
429.59	5502.60
429.78	5221.74
429.97	5062.58
430.16	5558.77
430.34	5755.38
430.53	5647.71
430.72	5671.12
430.91	5628.99
431.10	5661.76
431.28	5738.99
431.47	5778.78
431.66	5771.76
431.85	5771.76
432.03	5865.38
432.22	6090.07
432.41	6033.90
432.60	5912.19
432.79	6017.52
432.97	5994.11
433.16	5959.00
433.35	6057.31
433.54	5968.37
433.72	6218.80
433.91	5982.41
434.10	6225.82
434.28	6113.48
434.47	6146.25
434.66	6246.89
434.85	6291.36
435.03	6359.24
435.22	6228.17
435.41	6537.12
435.59	6363.92
435.78	6520.73
435.97	6616.69
436.16	6441.15
436.34	6546.48
436.53	6494.99
436.72	6731.38
436.90	6499.67
437.09	6668.19
437.28	6553.50
437.46	6677.55
437.65	6553.50
437.84	6726.70
438.02	6754.79
438.21	6738.40
438.40	6661.16
438.58	7026.29
438.77	6850.75
438.96	6916.28
439.14	7087.14
439.33	7091.82
439.52	7176.08
439.70	7360.98
439.89	7328.22
440.08	7459.29
440.26	7339.92
440.45	7447.58
440.63	7496.74
440.82	7817.39
441.01	7576.31
441.19	7658.23
441.38	7548.23
441.57	7686.32
441.75	7829.09
441.94	7777.60
442.12	7901.65
442.31	8081.87
442.50	8119.32
442.68	7829.09
442.87	7934.42
443.05	8009.31
443.24	8505.51
443.43	8039.74
443.61	8252.73
443.80	8542.96
443.98	8060.80
444.17	7768.24
444.35	8208.26
444.54	8280.82
444.73	8526.57
444.91	8264.43
445.10	8503.17
445.28	8362.73
445.47	8383.80
445.65	8297.20
445.84	8444.65
446.02	8503.17
446.21	8381.46
446.39	8425.93
446.58	8617.85
446.77	8568.70
446.95	8299.54
447.14	8346.35
447.32	8564.02
447.51	8496.14
447.69	8535.93
447.88	8566.36
448.06	8549.98
448.25	8538.27
448.43	8601.47
448.62	8681.05
448.80	8730.20
448.99	8760.63
449.17	8552.32
449.36	8837.86
449.54	8858.93
449.73	8922.12
449.91	8968.93
450.10	9004.04
450.28	9092.98
450.46	9046.17
450.65	9006.38
450.83	9198.31
451.02	9050.85
451.20	9231.07
451.39	9116.39
451.57	9170.22
451.76	9193.62
451.94	9128.09
452.13	9331.72
452.31	9298.95
452.49	9231.07
452.68	9397.25
452.86	9324.69
453.05	9472.15
453.23	9542.36
453.42	9387.89
453.60	9432.36
453.78	9509.60
453.97	9460.45
454.15	9619.60
454.34	9359.80
454.52	9806.84
454.70	9474.49
454.89	9720.24
455.07	9694.50
455.26	9942.60
455.44	9856.00
455.62	10045.58
455.81	9970.68
455.99	10125.16
456.17	9973.02
456.36	10193.03
456.54	10331.12
456.73	10420.06
456.91	10146.22
457.09	10417.72
457.28	10677.52
457.46	10045.58
457.64	10483.26
457.83	10567.52
458.01	10490.28
458.19	10626.03
458.38	10607.31
458.56	10665.82
458.74	10614.33
458.93	10815.62
459.11	10752.42
459.29	10761.78
459.48	10792.21
459.66	10766.46
459.84	10892.85
460.03	11201.80
460.21	11042.65
460.39	11049.67
460.57	10899.87
460.76	10991.16
460.94	11070.73
461.12	11302.45
461.31	11105.84
461.49	11187.76
461.67	11330.53
461.85	11325.85
462.04	11358.62
462.22	11529.48
462.40	11939.07
462.59	11580.97
462.77	11534.16
462.95	11639.48
463.13	11747.15
463.32	11618.42
463.50	11815.02
463.68	11592.67
463.86	11779.92
464.05	11583.31
464.23	11520.12
464.41	11847.79
464.59	11786.94
464.78	12114.61
464.96	12042.06
465.14	11875.88
465.32	12102.91
465.50	12032.69
465.69	12222.28
465.87	12255.04
466.05	12301.86
466.23	12271.43
466.41	12198.87
466.60	12648.26
466.78	12203.55
466.96	12210.57
467.14	12259.73
467.32	12542.93
467.51	12578.04
467.69	12030.35
467.87	12505.48
468.05	12505.48
468.23	12489.10
468.41	12627.19
468.60	12613.15
468.78	12727.83
468.96	12798.05
469.14	12980.61
469.32	12847.20
469.50	12812.09
469.69	13048.49
469.87	13202.96
470.05	13167.85
470.23	13359.78
470.41	13109.34
470.59	13097.64
470.77	13284.88
470.95	13514.25
471.14	13593.83
471.32	13172.54
471.50	13500.21
471.68	13612.56
471.86	13682.77
472.04	13359.78
472.22	14270.25
472.40	13556.38
472.58	14043.21
472.77	14031.51
472.95	14216.41
473.13	14714.95
473.31	13926.19
473.49	13958.96
473.67	14008.11
473.85	14092.37
474.03	14686.86
474.21	14413.02
474.39	14714.95
474.57	14633.03
474.75	14785.16
474.93	15314.13
475.12	15220.50
475.30	15164.33
475.48	15063.69
475.66	15164.33
475.84	15145.61
476.02	15227.53
476.20	15396.04
476.38	15700.31
476.56	16304.17
476.74	16067.78
476.92	15840.75
477.10	15950.75
477.28	16140.33
477.46	16023.31
477.64	16215.23
477.82	16519.50
478.00	17046.12
478.18	16753.55
478.36	17165.49
478.54	17071.87
478.72	17006.33
478.90	17301.24
479.08	17446.35
479.26	17820.84
479.44	17783.39
479.62	18005.74
479.80	18050.21
479.98	18017.44
480.16	18600.24
480.34	18190.64
480.52	18768.76
480.70	18384.91
480.88	18405.97
481.06	18647.05
481.24	18862.38
481.41	19206.44
481.59	19491.98
481.77	19618.37
481.95	19632.41
482.13	19826.68
482.31	19941.36
482.49	20170.74
482.67	20252.66
482.85	20645.87
483.03	20833.11
483.21	21022.69
483.39	20943.11
483.57	20772.25
483.74	21326.96
483.92	21256.75
484.10	21184.19
484.28	21628.89
484.46	22038.48
484.64	22338.07
484.82	21923.80
485.00	22298.28
485.18	22546.38
485.35	23115.13
485.53	22932.57
485.71	23183.01
485.89	23480.25
486.07	23363.23
486.25	23194.71
486.43	23466.21
486.61	23763.46
486.78	24261.99
486.96	24393.06
487.14	24575.62
487.32	24613.07
487.50	24940.75
487.68	24940.75
487.85	25788.02
488.03	25551.63
488.21	26029.10
488.39	26078.25
488.57	25954.20
488.75	26075.91
488.92	26813.18
489.10	26670.40
489.28	26827.22
489.46	26984.04
489.64	27199.37
489.81	27641.73
489.99	27758.75
490.17	27662.79
490.35	27964.72
490.53	28226.86
490.70	28655.18
490.88	28374.31
491.06	28788.59
491.24	28830.72
491.41	29167.76
491.59	29310.53
491.77	29060.09
491.95	29579.69
492.13	29727.14
492.30	30485.48
492.48	30143.76
492.66	30417.60
492.84	30092.27
493.01	30668.04
493.19	30808.47
493.37	30827.20
493.54	31103.38
493.72	31931.93
493.90	31204.02
494.08	31948.31
494.25	32098.11
494.43	32201.09
494.61	32678.56
494.79	32514.72
494.96	32479.61
495.14	32570.90
495.32	33195.82
495.49	33209.86
495.67	33076.45
495.85	33717.76
496.02	33717.76
496.20	34316.93
496.38	34017.35
496.55	34209.27
496.73	34682.06
496.91	34969.94
497.09	35040.16
497.26	34951.22
497.44	35145.48
497.62	35559.76
497.79	35639.34
497.97	35318.68
498.14	36205.75
498.32	36360.22
498.50	36589.59
498.67	36465.55
498.85	36425.76
499.03	36554.49
499.20	36168.30
499.38	36641.09
499.56	37151.32
499.73	37464.96
499.91	37284.73
500.08	37628.79
500.26	37762.20
500.44	37706.03
500.61	38047.75
500.79	37769.22
500.97	38005.62
501.14	38504.15
501.32	38368.40
501.49	38665.65
501.67	38726.50
501.84	39262.49
502.02	38431.60
502.20	39220.36
502.37	39187.59
502.55	39658.04
502.72	39686.12
502.90	39199.29
503.07	39196.95
503.25	39838.26
503.43	39416.96
503.60	40123.80
503.78	40205.72
503.95	40612.98
504.13	40624.68
504.30	40526.38
504.48	40793.20
504.65	40458.50
504.83	40938.31
505.01	41652.17
505.18	41235.56
505.36	41610.04
505.53	41603.02
505.71	41703.67
505.88	41567.91
506.06	41467.27
506.23	42286.46
506.41	42141.35
506.58	42600.09
506.76	42415.19
506.93	42855.21
507.11	42387.10
507.28	42698.39
507.46	42834.14
507.63	42983.94
507.81	43103.31
507.98	42806.06
508.16	43145.44
508.33	43316.29
508.50	43643.97
508.68	43658.01
508.85	43950.58
509.03	43496.52
509.20	44168.25
509.38	44856.37
509.55	44683.17
509.73	44467.84
509.90	44554.44
510.08	44634.02
510.25	44687.85
510.42	44828.28
510.60	44968.71
510.77	45247.24
510.95	45408.73
511.12	45235.53
511.30	45256.60
511.47	45455.54
511.64	45511.72
511.82	45925.99
511.99	45347.88
512.17	46246.65
512.34	45916.63
512.51	46553.26
512.69	46766.24
512.86	46588.36
513.04	46876.25
513.21	46784.97
513.38	47154.77
513.56	46923.06
513.73	46986.25
513.90	47075.19
514.08	47187.54
514.25	47213.29
514.43	47667.35
514.60	47515.22
514.77	47665.01
514.95	47915.45
515.12	48041.84
515.29	47732.89
515.47	48037.16
515.64	48367.17
515.81	48210.35
515.99	48474.84
516.16	48360.15
516.33	48357.81
516.51	48938.26
516.68	48500.58
516.85	48701.87
517.03	49242.53
517.20	48851.66
517.37	49043.59
517.54	49055.29
517.72	49069.33
517.89	49085.72
518.06	49097.42
518.24	49413.39
518.41	49389.98
518.58	49521.05
518.75	49528.08
518.93	49935.33
519.10	49780.85
519.27	50164.70
519.45	49682.55
519.62	50124.91
519.79	50211.51
519.96	50176.40
520.14	50209.17
520.31	50234.92
520.48	50511.10
520.65	50394.07
520.83	50370.67
521.00	50490.04
521.17	50562.59
521.34	50845.80
521.52	50667.92
521.69	50864.52
521.86	50850.48
522.03	51267.09
522.20	51344.33
522.38	51749.24
522.55	51482.42
522.72	51173.47
522.89	51922.44
523.07	51662.64
523.24	51470.72
523.41	51793.71
523.58	51454.34
523.75	51854.57
523.92	51468.38
524.10	52044.15
524.27	52018.41
524.44	52023.09
524.61	52097.98
524.78	51885.00
524.96	52439.70
525.13	52203.31
525.30	52378.85
525.47	52823.55
525.64	52566.09
525.81	52420.98
525.98	52706.52
526.16	52528.64
526.33	52732.27
526.50	52886.74
526.67	53045.90
526.84	53083.35
527.01	52947.60
527.18	52910.15
527.36	52741.63
527.53	52863.34
527.70	53434.43
527.87	53492.94
528.04	53308.04
528.21	53413.37
528.38	53439.11
528.55	53846.36
528.72	53457.84
528.89	53731.68
529.07	53577.20
529.24	53425.07
529.41	53928.28
529.58	53591.25
529.75	53785.51
529.92	53755.08
530.09	53902.54
530.26	54113.19
530.43	53975.09
530.60	53804.24
530.77	53935.30
530.94	54237.23
531.11	53900.20
531.28	54178.72
531.46	54134.25
531.63	54293.41
531.80	54506.40
531.97	54412.77
532.14	54665.55
532.31	54543.84
532.48	54672.57
532.65	54684.28
532.82	54593.00
532.99	54621.08
533.16	54607.04
533.33	54990.89
533.50	55164.09
533.67	54719.38
533.84	54775.56
534.01	54969.82
534.18	55114.94
534.35	55374.73
534.52	55023.65
534.69	55192.17
534.86	55519.85
535.03	54944.08
535.20	55346.65
535.37	55601.77
535.54	55444.95
535.71	55299.84
535.88	55433.25
536.05	55615.81
536.22	55723.47
536.38	55526.87
536.55	55884.97
536.72	55641.56
536.89	55442.61
537.06	55765.60
537.23	55679.00
537.40	55709.43
537.57	55435.59
537.74	55793.69
537.91	56168.18
538.08	56303.93
538.25	55922.42
538.42	56140.09
538.59	56123.71
538.75	55833.48
538.92	56133.07
539.09	56193.92
539.26	56198.60
539.43	56296.91
539.60	56332.01
539.77	56566.07
539.94	56526.28
540.11	56458.40
540.28	56423.29
540.44	56381.16
540.61	56542.66
540.78	56184.56
540.95	56313.29
541.12	56605.86
541.29	56561.39
541.46	56615.22
541.62	56699.48
541.79	56676.07
541.96	56704.16
542.13	56573.09
542.30	56959.28
542.47	56662.03
542.63	57022.47
542.80	57127.80
542.97	57001.41
543.14	57186.31
543.31	57289.29
543.48	57427.38
543.64	57394.62
543.81	57425.04
543.98	57481.22
544.15	57305.68
544.32	57560.79
544.48	57649.74
544.65	57483.56
544.82	57539.73
544.99	57350.15
545.16	57680.16
545.32	57439.09
545.49	57893.15
545.66	57813.57
545.83	57633.35
546.00	57785.49
546.16	57708.25
546.33	57808.89
546.50	57535.05
546.67	57977.41
546.83	57607.61
547.00	57616.97
547.17	57759.74
547.34	57808.89
547.50	57668.46
547.67	58007.84
547.84	58021.88
548.00	58227.85
548.17	58314.45
548.34	57961.03
548.51	58351.90
548.67	58335.51
548.84	58260.62
549.01	58033.58
549.18	58096.78
549.34	58426.79
549.51	58436.16
549.68	58272.32
549.84	58265.30
550.01	58379.98
550.18	58295.72
550.34	58377.64
550.51	58667.87
550.68	58265.30
550.84	58232.53
551.01	58459.56
551.18	58578.93
551.34	58389.34
551.51	58585.95
551.68	58611.70
551.84	58508.71
552.01	58333.17
552.18	58653.82
552.34	58410.41
552.51	58960.44
552.68	58504.03
552.84	58763.83
553.01	59011.93
553.18	58717.02
553.34	59126.61
553.51	58899.58
553.67	58873.84
553.84	58864.47
554.01	58866.81
554.17	59126.61
554.34	59070.44
554.51	58979.16
554.67	59103.21
554.84	59014.27
555.00	59084.48
555.17	59096.19
555.33	59051.72
555.50	58941.71
555.67	59028.31
555.83	59065.76
556.00	59147.68
556.16	59458.97
556.33	59222.58
556.50	59222.58
556.66	59494.08
556.83	59150.02
556.99	59468.33
557.16	59487.06
557.32	59716.43
557.49	59732.81
557.65	59419.18
557.82	59536.21
557.98	59421.52
558.15	59540.89
558.32	59573.66
558.48	59583.02
558.65	59512.80
558.81	59662.60
558.98	59667.28
559.14	59468.33
559.31	59669.62
559.47	59835.80
559.64	59671.96
559.80	60009.00
559.97	59840.48
560.13	59716.43
560.30	59880.27
560.46	59842.82
560.63	59945.80
560.79	59870.90
560.96	59964.52
561.12	59948.14
561.29	59725.79
561.45	59945.80
561.61	59615.79
561.78	59798.35
561.94	59819.41
562.11	59994.95
562.27	59898.99
562.44	60013.68
562.60	59976.23
562.77	60004.31
562.93	59884.95
563.10	60219.64
563.26	59861.54
563.42	60170.49
563.59	60161.13
563.75	59971.55
563.92	60097.94
564.08	60079.21
564.24	60205.60
564.41	60189.22
564.57	60048.78
564.74	60313.26
564.90	60044.10
565.07	60193.90
565.23	60179.85
565.39	60147.09
565.56	60392.84
565.72	60217.30
565.88	60158.79
566.05	60362.42
566.21	60175.17
566.38	60322.63
566.54	60341.35
566.70	60451.36
566.87	60355.39
567.03	60149.43
567.19	60507.53
567.36	60371.78
567.52	60247.73
567.68	60598.81
567.85	60294.54
568.01	60383.48
568.17	60479.44
568.34	60420.93
568.50	60409.23
568.66	60369.44
568.83	60493.49
568.99	60383.48
569.15	60439.65
569.32	60467.74
569.48	60383.48
569.64	60402.21
569.81	60441.99
569.97	60409.23
570.13	60650.30
570.30	60299.22
570.46	60425.61
570.62	60521.57
570.78	60612.85
570.95	60629.24
571.11	60610.51
571.27	60563.70
571.43	60322.63
571.60	60596.47
571.76	60605.83
571.92	60404.55
572.09	60687.75
572.25	60715.84
572.41	60680.73
572.57	60678.39
572.74	60947.55
572.90	60699.45
573.06	60743.92
573.22	60767.33
573.38	60811.80
573.55	60715.84
573.71	60678.39
573.87	60722.86
574.03	60697.11
574.20	60741.58
574.36	60640.94
574.52	60725.20
574.68	60858.61
574.84	60800.10
575.01	60844.57
575.17	60816.48
575.33	60692.43
575.49	60622.22
575.65	60720.52
575.82	60776.69
575.98	61001.38
576.14	60910.10
576.30	60793.07
576.46	60746.26
576.62	60818.82
576.79	60652.64
576.95	60809.46
577.11	60835.20
577.27	60676.05
577.43	61010.74
577.59	60811.80
577.75	60797.76
577.92	60872.65
578.08	60818.82
578.24	60842.23
578.40	61078.62
578.56	61141.81
578.72	61010.74
578.88	60903.08
579.04	61109.05
579.21	60924.14
579.37	61001.38
579.53	60970.96
579.69	60772.01
579.85	60764.99
580.01	60942.87
580.17	60701.79
580.33	60980.32
580.49	61125.43
580.65	60987.34
580.82	60891.38
580.98	60769.67
581.14	60872.65
581.30	61167.56
581.46	61017.77
581.62	60917.12
581.78	60860.95
581.94	60961.59
582.10	60889.04
582.26	61022.45
582.42	61015.43
582.58	61190.97
582.74	61041.17
582.90	60877.33
583.06	60961.59
583.22	60896.06
583.38	60999.04
583.54	60825.84
583.70	61020.11
583.86	61188.63
584.02	61106.71
584.18	61197.99
584.34	61116.07
584.50	61055.21
584.66	61148.84
584.82	60870.31
584.98	61092.66
585.14	60977.98
585.30	60942.87
585.46	61064.58
585.62	60970.96
585.78	61087.98
585.94	60647.96
586.10	61085.64
586.26	61097.34
586.42	61186.28
586.58	61270.54
586.74	61244.80
586.90	61043.51
587.06	61197.99
587.22	61193.31
587.38	60989.68
587.54	61148.84
587.70	61436.72
587.86	60977.98
588.02	61111.39
588.18	61141.81
588.34	61041.17
588.49	61083.30
