SpectraSuite Data File
++++++++++++++++++++++++++++++++++++
Date: Fri Oct 25 11:23:50 EDT 2013
User: price-jones
Dark Spectrum Present: No
Reference Spectrum Present: No
Number of Sampled Component Spectra: 1
Spectrometers: USB2+H05261
Integration Time (usec): 100000 (USB2+H05261)
Spectra Averaged: 1 (USB2+H05261)
Boxcar Smoothing: 0 (USB2+H05261)
Correct for Electrical Dark: No (USB2+H05261)
Strobe/Lamp Enabled: No (USB2+H05261)
Correct for Detector Non-linearity: No (USB2+H05261)
Correct for Stray Light: No (USB2+H05261)
Number of Pixels in Processed Spectrum: 2048
>>>>>Begin Processed Spectral Data<<<<<
365.73	315.97
365.92	315.97
366.12	315.97
366.32	156.82
366.52	84.26
366.72	138.09
366.91	126.39
367.11	91.28
367.31	100.64
367.51	105.32
367.70	79.58
367.90	133.41
368.10	163.84
368.30	173.20
368.49	84.26
368.69	142.77
368.89	147.45
369.09	142.77
369.28	177.88
369.48	173.20
369.68	212.99
369.87	243.42
370.07	222.35
370.27	245.76
370.47	320.65
370.66	587.47
370.86	648.33
371.06	645.99
371.25	671.73
371.45	669.39
371.65	627.26
371.84	681.10
372.04	725.57
372.24	671.73
372.44	704.50
372.63	753.65
372.83	767.70
373.03	781.74
373.22	709.18
373.42	774.72
373.62	823.87
373.81	753.65
374.01	814.51
374.21	730.25
374.40	849.61
374.60	891.74
374.79	765.36
374.99	723.23
375.19	828.55
375.38	896.43
375.58	791.10
375.78	877.70
375.97	828.55
376.17	863.66
376.37	851.96
376.56	858.98
376.76	807.48
376.95	840.25
377.15	929.19
377.35	868.34
377.54	830.89
377.74	882.38
377.93	908.13
378.13	983.02
378.33	880.04
378.52	922.17
378.72	917.49
378.91	954.94
379.11	898.77
379.31	866.00
379.50	919.83
379.70	947.92
379.89	971.32
380.09	910.47
380.28	976.00
380.48	1057.92
380.68	905.79
380.87	1001.75
381.07	910.47
381.26	1046.22
381.46	976.00
381.65	915.15
381.85	1027.50
382.04	1020.47
382.24	957.28
382.43	1020.47
382.63	978.34
382.83	1093.03
383.02	1102.39
383.22	1149.20
383.41	1100.05
383.61	1121.12
383.80	1090.69
384.00	1116.44
384.19	1160.91
384.39	1149.20
384.58	1043.88
384.78	1034.52
384.97	1123.46
385.17	1118.78
385.36	1217.08
385.56	1158.57
385.75	1144.52
385.95	1252.19
386.14	1228.78
386.34	1207.72
386.53	1210.06
386.72	1198.35
386.92	1226.44
387.11	1348.15
387.31	1315.38
387.50	1238.14
387.70	1221.76
387.89	1228.78
388.09	1226.44
388.28	1273.25
388.48	1261.55
388.67	1348.15
388.86	1355.17
389.06	1259.21
389.25	1235.80
389.45	1376.24
389.64	1331.76
389.84	1394.96
390.03	1409.00
390.22	1324.74
390.42	1327.08
390.61	1359.85
390.81	1359.85
391.00	1420.71
391.19	1364.53
391.39	1502.62
391.58	1453.47
391.78	1451.13
391.97	1493.26
392.16	1586.88
392.36	1535.39
392.55	1554.12
392.75	1624.33
392.94	1526.03
393.13	1535.39
393.33	1488.58
393.52	1577.52
393.71	1537.73
393.91	1488.58
394.10	1598.59
394.29	1568.16
394.49	1619.65
394.68	1514.33
394.88	1600.93
395.07	1734.34
395.26	1694.55
395.46	1701.57
395.65	1701.57
395.84	1750.72
396.04	1825.62
396.23	1825.62
396.42	1753.06
396.62	1640.72
396.81	1764.76
397.00	1797.53
397.19	1827.96
397.39	1860.73
397.58	1900.52
397.77	1837.32
397.97	1781.15
398.16	1755.40
398.35	1994.14
398.55	1853.70
398.74	1912.22
398.93	1970.73
399.12	1874.77
399.32	1837.32
399.51	1937.96
399.70	2031.58
399.90	2001.16
400.09	2083.08
400.28	2050.31
400.47	2045.63
400.67	2083.08
400.86	2129.89
401.05	2090.10
401.24	2033.93
401.44	2275.00
401.63	2129.89
401.82	2129.89
402.01	2099.46
402.21	2094.78
402.40	2174.36
402.59	2230.53
402.78	2129.89
402.97	2209.47
403.17	2349.90
403.36	2214.15
403.55	2275.00
403.74	2401.39
403.93	2380.32
404.13	2260.96
404.32	2546.50
404.51	2307.77
404.70	2420.11
404.89	2359.26
405.09	2586.29
405.28	2502.03
405.47	2497.35
405.66	2483.31
405.85	2548.84
406.05	2429.48
406.24	2626.08
406.43	2537.14
406.62	2558.21
406.81	2745.45
407.00	2642.46
407.20	2682.25
407.39	2682.25
407.58	2740.77
407.77	2696.30
407.96	2747.79
408.15	2794.60
408.34	2773.53
408.54	2818.00
408.73	2846.09
408.92	2862.48
409.11	2923.33
409.30	2885.88
409.49	2916.31
409.68	2883.54
409.87	3026.31
410.07	2890.56
410.26	2920.99
410.45	2928.01
410.64	3009.93
410.83	3012.27
411.02	3098.87
411.21	3101.21
411.40	3045.04
411.59	3169.09
411.78	3183.13
411.98	3225.26
412.17	3183.13
412.36	3143.34
412.55	3318.88
412.74	3379.73
412.93	3471.01
413.12	3372.71
413.31	3459.31
413.50	3440.59
413.69	3538.89
413.88	3653.58
414.07	3581.02
414.26	3508.46
414.45	3653.58
414.64	3702.73
414.83	3735.50
415.02	3826.78
415.22	3812.73
415.41	4004.66
415.60	3859.54
415.79	3829.12
415.98	3948.48
416.17	4049.13
416.36	3885.29
416.55	3950.82
416.74	4044.45
416.93	4128.70
417.12	4112.32
417.31	4224.67
417.50	4273.82
417.69	4414.25
417.88	4276.16
418.07	4337.01
418.26	4337.01
418.45	4379.14
418.64	4444.68
418.83	4435.32
419.02	4379.14
419.21	4638.94
419.39	4613.20
419.58	4418.93
419.77	4404.89
419.96	4545.32
420.15	4582.77
420.34	4535.96
420.53	4596.81
420.72	4662.35
420.91	4727.88
421.10	4641.28
421.29	4770.01
421.48	4652.98
421.67	4777.03
421.86	4821.50
422.05	4830.87
422.24	4807.46
422.43	4828.53
422.61	4905.76
422.80	4961.94
422.99	4915.12
423.18	4905.76
423.37	5055.56
423.56	5053.22
423.75	4887.04
423.94	4718.52
424.13	4589.79
424.32	4896.40
424.50	4994.70
424.69	5261.52
424.88	5132.79
425.07	4978.32
425.26	4896.40
425.45	4994.70
425.64	5132.79
425.83	5013.43
426.01	5097.69
426.20	5090.67
426.39	5242.80
426.58	4950.23
426.77	5095.35
426.96	5235.78
427.15	5219.39
427.33	5163.22
427.52	4994.70
427.71	5261.52
427.90	5156.20
428.09	5104.71
428.28	5490.90
428.46	5446.43
428.65	5394.93
428.84	5542.39
429.03	5481.53
429.22	5334.08
429.40	5427.70
429.59	5526.00
429.78	5233.44
429.97	5266.21
430.16	5500.26
430.34	5628.99
430.53	5860.70
430.72	5680.48
430.91	5554.09
431.10	5612.60
431.28	5706.23
431.47	5736.65
431.66	5844.32
431.85	5937.94
432.03	5961.34
432.22	5870.06
432.41	5762.40
432.60	5954.32
432.79	5942.62
432.97	5921.56
433.16	6083.05
433.35	6033.90
433.54	6080.71
433.72	6026.88
433.91	6008.16
434.10	6216.46
434.28	6200.08
434.47	6019.86
434.66	6162.63
434.85	6174.33
435.03	6324.13
435.22	6244.55
435.41	6457.54
435.59	6532.44
435.78	6541.80
435.97	6466.90
436.16	6359.24
436.34	6415.41
436.53	6321.79
436.72	6635.42
436.90	6630.74
437.09	6579.25
437.28	6520.73
437.46	6677.55
437.65	6548.82
437.84	6773.51
438.02	6691.59
438.21	6637.76
438.40	6469.24
438.58	6925.65
438.77	7290.77
438.96	6984.16
439.14	6892.88
439.33	7140.97
439.52	7157.36
439.70	7035.65
439.89	7391.41
440.08	7398.43
440.26	7372.69
440.45	7351.62
440.63	7454.61
440.82	7372.69
441.01	7468.65
441.19	7578.65
441.38	7719.09
441.57	7709.72
441.75	7936.76
441.94	7955.48
442.12	7969.52
442.31	8271.45
442.50	8049.10
442.68	8131.02
442.87	7927.39
443.05	8248.05
443.24	8196.56
443.43	8175.49
443.61	8203.58
443.80	8421.25
443.98	8135.70
444.17	7749.51
444.35	8301.88
444.54	8465.72
444.73	8280.82
444.91	8292.52
445.10	8421.25
445.28	8393.16
445.47	8390.82
445.65	8344.01
445.84	8503.17
446.02	8510.19
446.21	8442.31
446.39	8360.39
446.58	8552.32
446.77	8547.64
446.95	8386.14
447.14	8521.89
447.32	8521.89
447.51	8470.40
447.69	8608.49
447.88	8755.94
448.06	8676.37
448.25	8533.59
448.43	8685.73
448.62	8737.22
448.80	8723.18
448.99	8608.49
449.17	8643.60
449.36	8774.67
449.54	8842.54
449.73	8922.12
449.91	8922.12
450.10	8982.98
450.28	8945.53
450.46	9160.86
450.65	9270.86
450.83	9181.92
451.02	8912.76
451.20	9107.02
451.39	9156.18
451.57	9060.21
451.76	8851.91
451.94	9170.22
452.13	9327.03
452.31	9502.58
452.49	9165.54
452.68	9418.32
452.86	9500.23
453.05	9490.87
453.23	9577.47
453.42	9373.85
453.60	9221.71
453.78	9621.94
453.97	9575.13
454.15	9516.62
454.34	9540.02
454.52	9944.94
454.70	9734.29
454.89	9626.62
455.07	9884.08
455.26	9769.40
455.44	10029.20
455.62	10068.98
455.81	10085.37
455.99	9919.19
456.17	9998.77
456.36	10171.97
456.54	10211.76
456.73	10090.05
456.91	10459.85
457.09	10457.51
457.28	10548.79
457.46	10265.59
457.64	10597.95
457.83	10499.64
458.01	10303.04
458.19	10534.75
458.38	10593.26
458.56	10937.32
458.74	10778.17
458.93	10721.99
459.11	10820.30
459.29	10862.43
459.48	10867.11
459.66	10726.68
459.84	11049.67
460.03	11215.85
460.21	11096.48
460.39	11122.23
460.57	11136.27
460.76	11314.15
460.94	11358.62
461.12	11246.27
461.31	11105.84
461.49	11384.37
461.67	11187.76
461.85	11466.28
462.04	11173.72
462.22	11569.27
462.40	11679.27
462.59	11674.59
462.77	11672.25
462.95	11812.68
463.13	11686.29
463.32	11669.91
463.50	11765.87
463.68	11833.75
463.86	11730.76
464.05	11660.55
464.23	11723.74
464.41	11754.17
464.59	11873.54
464.78	12257.39
464.96	12123.98
465.14	11929.71
465.32	12088.87
465.50	12205.89
465.69	12037.38
465.87	12121.63
466.05	12299.52
466.23	12147.38
466.41	12229.30
466.60	12685.70
466.78	12264.41
466.96	12147.38
467.14	12475.06
467.32	12072.48
467.51	12526.55
467.69	12051.42
467.87	12437.61
468.05	12725.49
468.23	12229.30
468.41	12372.07
468.60	12767.62
468.78	12814.43
468.96	12606.13
469.14	12706.77
469.32	13371.48
469.50	12755.92
469.69	13177.22
469.87	13128.06
470.05	13144.45
470.23	13329.35
470.41	13111.68
470.59	13303.60
470.77	13289.56
470.95	13305.95
471.14	13378.50
471.32	13247.43
471.50	13467.44
471.68	13598.51
471.86	13635.96
472.04	13813.84
472.22	14185.99
472.40	13460.42
472.58	13884.06
472.77	14012.79
472.95	13907.46
473.13	14485.58
473.31	13989.38
473.49	14209.39
473.67	14295.99
473.85	14480.89
474.03	14609.62
474.21	14626.01
474.39	14831.97
474.57	14874.10
474.75	15061.35
474.93	14895.17
475.12	14899.85
475.30	15161.99
475.48	15257.95
475.66	15091.77
475.84	15365.62
476.02	15269.66
476.20	15349.23
476.38	15662.86
476.56	16140.33
476.74	15934.37
476.92	15995.22
477.10	16079.48
477.28	16376.73
477.46	16437.58
477.64	16248.00
477.82	16430.56
478.00	17453.37
478.18	16727.81
478.36	17020.38
478.54	17521.25
478.72	17294.22
478.90	17390.18
479.08	17547.00
479.26	17781.05
479.44	17577.42
479.62	17860.63
479.80	17933.18
479.98	18183.62
480.16	18611.94
480.34	18202.35
480.52	18485.55
480.70	18888.12
480.88	18417.68
481.06	18670.45
481.24	18899.83
481.41	19257.93
481.59	19283.67
481.77	19363.25
481.95	19630.07
482.13	20004.56
482.31	19658.16
482.49	20170.74
482.67	20386.07
482.85	20451.60
483.03	20636.50
483.21	20879.92
483.39	21336.32
483.57	20957.16
483.74	21280.15
483.92	21490.80
484.10	20966.52
484.28	21970.61
484.46	22026.78
484.64	22567.45
484.82	22396.59
485.00	22398.93
485.18	22567.45
485.35	23077.68
485.53	22974.70
485.71	23026.19
485.89	23594.94
486.07	23281.31
486.25	23344.50
486.43	23515.36
486.61	24191.78
486.78	24301.78
486.96	24318.17
487.14	24676.27
487.32	24730.10
487.50	24716.06
487.68	25123.31
487.85	24886.92
488.03	25453.33
488.21	25891.01
488.39	25813.77
488.57	25975.27
488.75	26251.45
488.92	26424.65
489.10	26757.00
489.28	26742.96
489.46	27056.59
489.64	27101.06
489.81	27840.67
489.99	27709.60
490.17	27915.57
490.35	28240.90
490.53	27943.66
490.70	28524.11
490.88	28453.89
491.06	28893.91
491.24	28842.42
491.41	28809.65
491.59	29137.33
491.77	29427.56
491.95	29748.21
492.13	29947.15
492.30	29736.51
492.48	30253.76
492.66	30167.16
492.84	30417.60
493.01	30803.79
493.19	30714.85
493.37	30916.14
493.54	31253.17
493.72	31508.29
493.90	31627.66
494.08	31882.78
494.25	32198.75
494.43	32383.65
494.61	32163.64
494.79	32547.49
494.96	32327.48
495.14	33158.37
495.32	33132.62
495.49	33570.30
495.67	33134.96
495.85	33619.46
496.02	33907.34
496.20	33935.43
496.38	33975.22
496.55	34211.61
496.73	34576.73
496.91	34520.56
497.09	35122.08
497.26	35049.52
497.44	35255.49
497.62	35707.21
497.79	35707.21
497.97	35421.67
498.14	36074.68
498.32	35772.75
498.50	36519.38
498.67	37099.83
498.85	36400.01
499.03	37097.49
499.20	36858.76
499.38	36685.56
499.56	37060.04
499.73	37420.48
499.91	37170.05
500.08	37701.35
500.26	37413.46
500.44	37661.56
500.61	38127.33
500.79	37467.30
500.97	38272.44
501.14	38532.24
501.32	38660.97
501.49	38490.11
501.67	38637.56
501.84	38787.36
502.02	39086.95
502.20	39096.31
502.37	39353.77
502.55	39470.79
502.72	39688.46
502.90	39737.62
503.07	39423.98
503.25	39737.62
503.43	39938.90
503.60	40027.84
503.78	40254.87
503.95	40219.77
504.13	40821.28
504.30	40580.21
504.48	40392.97
504.65	41282.37
504.83	41153.64
505.01	41233.22
505.18	41317.48
505.36	41652.17
505.53	41289.39
505.71	41523.44
505.88	41879.21
506.06	41371.31
506.23	42286.46
506.41	41785.58
506.58	42293.48
506.76	42447.96
506.93	42639.88
507.11	42497.11
507.28	42939.47
507.46	43021.39
507.63	42923.08
507.81	43381.83
507.98	43079.90
508.16	43311.61
508.33	43510.56
508.50	43845.26
508.68	43796.10
508.85	44493.58
509.03	44030.16
509.20	44343.79
509.38	44025.48
509.55	44666.78
509.73	44465.50
509.90	44825.94
510.08	44687.85
510.25	44547.42
510.42	44804.88
510.60	44797.85
510.77	45139.57
510.95	46141.32
511.12	45167.66
511.30	45202.77
511.47	45312.77
511.64	45289.37
511.82	46099.19
511.99	45584.27
512.17	46256.01
512.34	45984.51
512.51	46244.30
512.69	46447.93
512.86	46361.33
513.04	46850.50
513.21	46822.42
513.38	46883.27
513.56	46714.75
513.73	46920.72
513.90	47419.25
514.08	47131.37
514.25	47224.99
514.43	47290.52
514.60	47510.53
514.77	47377.12
514.95	47854.59
515.12	47826.51
515.29	47683.73
515.47	48058.22
515.64	48170.57
515.81	47922.47
515.99	48381.21
516.16	48390.58
516.33	48509.94
516.51	48767.40
516.68	48633.99
516.85	48397.60
517.03	48931.24
517.20	49219.13
517.37	49095.08
517.54	48910.17
517.72	49020.18
517.89	49251.89
518.06	49467.22
518.24	49731.70
518.41	49338.49
518.58	49308.07
518.75	49244.87
518.93	49872.14
519.10	49343.17
519.27	50040.65
519.45	49804.26
519.62	49827.66
519.79	49954.05
519.96	50110.87
520.14	50103.85
520.31	50464.29
520.48	50478.33
520.65	50571.96
520.83	50885.59
521.00	50672.60
521.17	50337.90
521.34	50401.10
521.52	50777.92
521.69	51098.58
521.86	50974.53
522.03	51152.41
522.20	51416.89
522.38	51791.37
522.55	51676.69
522.72	51082.19
522.89	51416.89
523.07	51721.16
523.24	51859.25
523.41	52067.56
523.58	51444.98
523.75	51796.06
523.92	51885.00
524.10	52109.69
524.27	52238.42
524.44	52123.73
524.61	52296.93
524.78	52046.49
524.96	52346.08
525.13	52402.25
525.30	52837.59
525.47	52633.97
525.64	52460.77
525.81	52640.99
525.98	52720.57
526.16	52762.70
526.33	52853.98
526.50	52989.73
526.67	52704.18
526.84	52821.21
527.01	52877.38
527.18	53109.10
527.36	52952.28
527.53	53008.45
527.70	53485.92
527.87	53792.53
528.04	53511.67
528.21	53539.75
528.38	53443.79
528.55	53677.85
528.72	53357.19
528.89	53544.44
529.07	53425.07
529.24	53521.03
529.41	53867.43
529.58	53626.35
529.75	53764.45
529.92	53872.11
530.09	53593.59
530.26	54085.10
530.43	53979.78
530.60	53928.28
530.77	53822.96
530.94	54529.80
531.11	54267.66
531.28	54148.29
531.46	54321.49
531.63	54461.93
531.80	54377.67
531.97	54541.50
532.14	54569.59
532.31	54443.20
532.48	54848.11
532.65	54794.28
532.82	54574.27
532.99	54717.04
533.16	54780.24
533.33	54794.28
533.50	55136.00
533.67	54845.77
533.84	54784.92
534.01	54986.21
534.18	55079.83
534.35	55304.52
534.52	55339.63
534.69	55084.51
534.86	55363.03
535.03	55423.89
535.20	55217.92
535.37	55543.25
535.54	55510.49
535.71	55484.74
535.88	55524.53
536.05	55564.32
536.22	55597.09
536.38	55676.66
536.55	55765.60
536.72	55863.91
536.89	55538.57
537.06	55711.77
537.23	55901.36
537.40	55597.09
537.57	55866.25
537.74	55840.50
537.91	55971.57
538.08	55987.95
538.25	55728.16
538.42	55877.95
538.59	56427.98
538.75	55978.59
538.92	56083.92
539.09	56264.14
539.26	56058.17
539.43	56268.82
539.60	56128.39
539.77	56076.90
539.94	56360.10
540.11	56463.08
540.28	56474.79
540.44	56266.48
540.61	56708.84
540.78	56413.93
540.95	56442.02
541.12	56332.01
541.29	56657.35
541.46	56542.66
541.62	56837.57
541.79	56647.99
541.96	56444.36
542.13	56530.96
542.30	56750.97
542.47	57123.11
542.63	56968.64
542.80	57029.49
542.97	57284.61
543.14	57366.53
543.31	57242.48
543.48	57254.18
543.64	57645.05
543.81	57223.76
543.98	57373.55
544.15	57382.91
544.32	57588.88
544.48	57687.18
544.65	57403.98
544.82	57436.75
544.99	57158.22
545.16	57614.63
545.32	57481.22
545.49	57918.90
545.66	57916.56
545.83	57808.89
546.00	57549.09
546.16	57846.34
546.33	57652.08
546.50	57614.63
546.67	57876.77
546.83	57677.82
547.00	57939.96
547.17	57715.27
547.34	57858.04
547.50	58159.97
547.67	58155.29
547.84	57865.06
548.00	58218.49
548.17	58436.16
548.34	58251.25
548.51	58321.47
548.67	58330.83
548.84	58204.44
549.01	58211.46
549.18	58234.87
549.34	58216.14
549.51	58291.04
549.68	58623.40
549.84	58302.74
550.01	58445.52
550.18	58351.90
550.34	58607.01
550.51	58632.76
550.68	58534.46
550.84	58305.09
551.01	58504.03
551.18	58475.94
551.34	58665.53
551.51	58525.10
551.68	58855.11
551.84	58717.02
552.01	58536.80
552.18	58801.28
552.34	58674.89
552.51	58710.00
552.68	58628.08
552.84	58529.78
553.01	58979.16
553.18	58770.85
553.34	58805.96
553.51	58820.00
553.67	58871.49
553.84	58848.09
554.01	58906.60
554.17	59037.67
554.34	59114.91
554.51	59100.87
554.67	59189.81
554.84	58976.82
555.00	59112.57
555.17	59100.87
555.33	59145.34
555.50	59018.95
555.67	58953.41
555.83	59196.83
556.00	59065.76
556.16	59650.89
556.33	59440.24
556.50	59206.19
556.66	59220.23
556.83	59178.10
556.99	59363.01
557.16	59690.68
557.32	59416.84
557.49	59648.55
557.65	59409.82
557.82	59400.46
557.98	59304.49
558.15	59428.54
558.32	59529.19
558.48	59519.82
558.65	59664.94
558.81	59587.70
558.98	59465.99
559.14	59835.80
559.31	59877.93
559.47	59774.94
559.64	59800.69
559.80	59772.60
559.97	59756.22
560.13	59634.51
560.30	59763.24
560.46	59728.13
560.63	60046.44
560.79	59845.16
560.96	59959.84
561.12	59976.23
561.29	59863.88
561.45	59861.54
561.61	59962.18
561.78	59966.87
561.94	59990.27
562.11	59779.62
562.27	60039.42
562.44	60229.01
562.60	59976.23
562.77	59915.37
562.93	59824.09
563.10	59999.63
563.26	59913.03
563.42	60308.58
563.59	60072.19
563.75	59922.40
563.92	59985.59
564.08	60011.34
564.24	60076.87
564.41	60231.35
564.57	60175.17
564.74	60221.98
564.90	60266.45
565.07	60135.38
565.23	60111.98
565.39	60168.15
565.56	60320.29
565.72	60285.18
565.88	60402.21
566.05	60250.07
566.21	60236.03
566.38	60402.21
566.54	60196.24
566.70	60331.99
566.87	60397.52
567.03	60280.50
567.19	60701.79
567.36	60434.97
567.52	60376.46
567.68	60615.19
567.85	60360.08
568.01	60643.28
568.17	60285.18
568.34	60420.93
568.50	60388.16
568.66	60336.67
568.83	60446.68
568.99	60463.06
569.15	60369.44
569.32	60364.76
569.48	60486.46
569.64	60453.70
569.81	60484.12
569.97	60643.28
570.13	60453.70
570.30	60350.71
570.46	60706.47
570.62	60713.50
570.78	60664.35
570.95	60439.65
571.11	60720.52
571.27	60413.91
571.43	60631.58
571.60	60619.88
571.76	60680.73
571.92	60706.47
572.09	60631.58
572.25	60788.39
572.41	60570.72
572.57	60692.43
572.74	60889.04
572.90	60755.63
573.06	60764.99
573.22	60619.88
573.38	60779.03
573.55	60676.05
573.71	61015.43
573.87	60743.92
574.03	60626.90
574.20	60690.09
574.36	60729.88
574.52	60874.99
574.68	60659.66
574.84	60795.42
575.01	60800.10
575.17	60940.53
575.33	60556.68
575.49	60701.79
575.65	60874.99
575.82	60853.93
575.98	60647.96
576.14	60917.12
576.30	60804.78
576.46	60650.30
576.62	60830.52
576.79	60680.73
576.95	60713.50
577.11	60849.25
577.27	61008.40
577.43	60844.57
577.59	60931.17
577.75	60746.26
577.92	60842.23
578.08	60720.52
578.24	60905.42
578.40	61029.47
578.56	61200.33
578.72	60816.48
578.88	61179.26
579.04	61127.77
579.21	60884.36
579.37	60863.29
579.53	61237.78
579.69	60683.07
579.85	61027.13
580.01	60882.02
580.17	60945.21
580.33	61153.52
580.49	61064.58
580.65	61078.62
580.82	60973.30
580.98	60645.62
581.14	60846.91
581.30	61162.88
581.46	60900.74
581.62	60940.53
581.78	61031.81
581.94	61095.00
582.10	60938.19
582.26	61024.79
582.42	60954.57
582.58	60889.04
582.74	60963.93
582.90	61076.28
583.06	60853.93
583.22	60853.93
583.38	61130.11
583.54	60987.34
583.70	60966.27
583.86	61095.00
584.02	61078.62
584.18	61148.84
584.34	61118.41
584.50	61041.17
584.66	60856.27
584.82	60865.63
584.98	61155.86
585.14	61118.41
585.30	60910.10
585.46	61181.60
585.62	61139.47
585.78	61429.70
585.94	60992.02
586.10	60961.59
586.26	61106.71
586.42	61174.58
586.58	61380.55
586.74	61127.77
586.90	61151.18
587.06	61078.62
587.22	61233.10
587.38	61289.27
587.54	61146.50
587.70	61380.55
587.86	61261.18
588.02	61013.08
588.18	61209.69
588.34	61027.13
588.49	61076.28
