SpectraSuite Data File
++++++++++++++++++++++++++++++++++++
Date: Fri Oct 25 10:46:55 EDT 2013
User: price-jones
Dark Spectrum Present: No
Reference Spectrum Present: No
Number of Sampled Component Spectra: 1
Spectrometers: USB2+H05261
Integration Time (usec): 100000 (USB2+H05261)
Spectra Averaged: 1 (USB2+H05261)
Boxcar Smoothing: 0 (USB2+H05261)
Correct for Electrical Dark: No (USB2+H05261)
Strobe/Lamp Enabled: No (USB2+H05261)
Correct for Detector Non-linearity: No (USB2+H05261)
Correct for Stray Light: No (USB2+H05261)
Number of Pixels in Processed Spectrum: 2048
>>>>>Begin Processed Spectral Data<<<<<
365.73	196.60
365.92	196.60
366.12	196.60
366.32	37.45
366.52	16.38
366.72	60.85
366.91	0.00
367.11	39.79
367.31	0.00
367.51	58.51
367.70	0.00
367.90	70.22
368.10	0.00
368.30	25.75
368.49	0.00
368.69	32.77
368.89	93.62
369.09	39.79
369.28	112.35
369.48	2.34
369.68	35.11
369.87	2.34
370.07	37.45
370.27	217.67
370.47	187.24
370.66	358.10
370.86	456.40
371.06	550.03
371.25	433.00
371.45	428.32
371.65	547.69
371.84	454.06
372.04	407.25
372.24	454.06
372.44	535.98
372.63	505.56
372.83	519.60
373.03	507.90
373.22	526.62
373.42	500.87
373.62	521.94
373.81	545.34
374.01	580.45
374.21	580.45
374.40	592.16
374.60	615.56
374.79	561.73
374.99	636.63
375.19	631.94
375.38	564.07
375.58	585.13
375.78	631.94
375.97	585.13
376.17	596.84
376.37	650.67
376.56	692.80
376.76	636.63
376.95	676.41
377.15	699.82
377.35	608.54
377.54	676.41
377.74	657.69
377.93	601.52
378.13	671.73
378.33	648.33
378.52	716.20
378.72	643.65
378.91	589.82
379.11	685.78
379.31	657.69
379.50	543.00
379.70	760.67
379.89	755.99
380.09	688.12
380.28	713.86
380.48	669.39
380.68	676.41
380.87	716.20
381.07	760.67
381.26	676.41
381.46	770.04
381.65	784.08
381.85	791.10
382.04	725.57
382.24	704.50
382.43	758.33
382.63	718.54
382.83	741.95
383.02	784.08
383.22	758.33
383.41	699.82
383.61	732.59
383.80	833.23
384.00	805.14
384.19	828.55
384.39	830.89
384.58	856.64
384.78	784.08
384.97	798.12
385.17	812.17
385.36	844.93
385.56	763.01
385.75	774.72
385.95	800.46
386.14	889.40
386.34	823.87
386.53	844.93
386.72	835.57
386.92	908.13
387.11	844.93
387.31	809.83
387.50	805.14
387.70	903.45
387.89	933.87
388.09	809.83
388.28	866.00
388.48	887.06
388.67	926.85
388.86	858.98
389.06	966.64
389.25	1036.86
389.45	1011.11
389.64	952.60
389.84	1018.13
390.03	947.92
390.22	994.73
390.42	938.55
390.61	1046.22
390.81	1020.47
391.00	1020.47
391.19	1121.12
391.39	1071.97
391.58	1041.54
391.78	1078.99
391.97	1100.05
392.16	957.28
392.36	1097.71
392.55	1090.69
392.75	1043.88
392.94	1013.45
393.13	1029.84
393.33	1114.10
393.52	950.26
393.71	1093.03
393.91	1102.39
394.10	1172.61
394.29	1071.97
394.49	1116.44
394.68	1170.27
394.88	1205.38
395.07	1203.04
395.26	1207.72
395.46	1203.04
395.65	1235.80
395.84	1310.70
396.04	1270.91
396.23	1205.38
396.42	1095.37
396.62	1174.95
396.81	1240.48
397.00	1233.46
397.19	1238.14
397.39	1221.76
397.58	1397.30
397.77	1329.42
397.97	1479.22
398.16	1401.98
398.35	1490.92
398.55	1474.54
398.74	1462.83
398.93	1547.09
399.12	1490.92
399.32	1476.88
399.51	1636.03
399.70	1523.69
399.90	1598.59
400.09	1619.65
400.28	1626.67
400.47	1589.22
400.67	1621.99
400.86	1682.85
401.05	1586.88
401.24	1687.53
401.44	1654.76
401.63	1664.12
401.82	1664.12
402.01	1647.74
402.21	1729.66
402.40	1708.59
402.59	1764.76
402.78	1743.70
402.97	1736.68
403.17	1657.10
403.36	1621.99
403.55	1776.47
403.74	1785.83
403.93	1748.38
404.13	1884.13
404.32	1846.68
404.51	1900.52
404.70	1776.47
404.89	1858.39
405.09	1900.52
405.28	1956.69
405.47	1874.77
405.66	1984.77
405.85	1933.28
406.05	1968.39
406.24	1914.56
406.43	1996.48
406.62	2052.65
406.81	2033.93
407.00	2097.12
407.20	2033.93
407.39	2157.97
407.58	2193.08
407.77	2157.97
407.96	2256.28
408.15	2200.10
408.34	2289.04
408.54	2216.49
408.73	2289.04
408.92	2237.55
409.11	2284.36
409.30	2317.13
409.49	2263.30
409.68	2188.40
409.87	2251.60
410.07	2342.88
410.26	2289.04
410.45	2387.35
410.64	2387.35
410.83	2363.94
411.02	2443.52
411.21	2516.08
411.40	2574.59
411.59	2590.97
411.78	2574.59
411.98	2729.06
412.17	2605.02
412.36	2665.87
412.55	2726.72
412.74	2766.51
412.93	2661.19
413.12	2696.30
413.31	2942.05
413.50	2864.82
413.69	2843.75
413.88	2843.75
414.07	2691.62
414.26	2803.96
414.45	2904.60
414.64	2970.14
414.83	2998.23
415.02	2928.01
415.22	3101.21
415.41	3049.72
415.60	3133.98
415.79	3112.91
415.98	3122.27
416.17	3272.07
416.36	3190.15
416.55	3082.49
416.74	3304.84
416.93	3178.45
417.12	3335.26
417.31	3368.03
417.50	3309.52
417.69	3529.53
417.88	3309.52
418.07	3368.03
418.26	3243.98
418.45	3585.70
418.64	3550.59
418.83	3473.36
419.02	3557.61
419.21	3545.91
419.39	3562.30
419.58	3564.64
419.77	3506.12
419.96	3536.55
420.15	3606.77
420.34	3590.38
420.53	3669.96
420.72	3730.81
420.91	3805.71
421.10	3754.22
421.29	3810.39
421.48	3648.90
421.67	3826.78
421.86	3733.15
422.05	3833.80
422.24	3808.05
422.43	3758.90
422.61	3756.56
422.80	3700.39
422.99	3913.38
423.18	3859.54
423.37	3927.42
423.56	3864.22
423.75	3948.48
423.94	3838.48
424.13	3625.49
424.32	3845.50
424.50	3943.80
424.69	4030.40
424.88	3878.27
425.07	3894.65
425.26	3985.93
425.45	3871.25
425.64	3960.19
425.83	3920.40
426.01	3868.91
426.20	4025.72
426.39	3999.98
426.58	3873.59
426.77	3948.48
426.96	3985.93
427.15	3941.46
427.33	3988.27
427.52	4093.60
427.71	4109.98
427.90	4114.66
428.09	4084.23
428.28	4175.52
428.46	4184.88
428.65	4009.34
428.84	4266.80
429.03	4210.62
429.22	3873.59
429.40	4023.38
429.59	4173.18
429.78	3971.89
429.97	3885.29
430.16	3985.93
430.34	4030.40
430.53	4318.29
430.72	4285.52
430.91	4152.11
431.10	4203.60
431.28	4400.21
431.47	4599.15
431.66	4610.86
431.85	4341.69
432.03	4557.02
432.22	4610.86
432.41	4645.96
432.60	4479.79
432.79	4667.03
432.97	4734.90
433.16	4573.41
433.35	4643.62
433.54	4580.43
433.72	4727.88
433.91	4781.71
434.10	4807.46
434.28	4816.82
434.47	4692.77
434.66	4938.53
434.85	4868.31
435.03	4908.10
435.22	4737.24
435.41	5071.94
435.59	5256.84
435.78	4997.04
435.97	4975.98
436.16	5039.17
436.34	5046.20
436.53	5062.58
436.72	5170.24
436.90	5123.43
437.09	5170.24
437.28	4917.47
437.46	5172.58
437.65	5097.69
437.84	5214.71
438.02	5132.79
438.21	5167.90
438.40	5064.92
438.58	5291.95
438.77	5348.12
438.96	5401.96
439.14	5502.60
439.33	5596.22
439.52	5614.95
439.70	5722.61
439.89	5558.77
440.08	5617.29
440.26	5734.31
440.45	5738.99
440.63	5802.19
440.82	5860.70
441.01	5928.58
441.19	6052.63
441.38	5956.66
441.57	6174.33
441.75	6003.47
441.94	6300.72
442.12	6195.40
442.31	6347.53
442.50	6073.69
442.68	6270.30
442.87	6356.90
443.05	6270.30
443.24	6373.28
443.43	6169.65
443.61	6235.19
443.80	6494.99
443.98	6211.78
444.17	6211.78
444.35	6502.01
444.54	6544.14
444.73	6406.05
444.91	6494.99
445.10	6408.39
445.28	6314.77
445.47	6307.74
445.65	6375.62
445.84	6572.22
446.02	6476.26
446.21	6530.09
446.39	6616.69
446.58	6633.08
446.77	6607.33
446.95	6586.27
447.14	6595.63
447.32	6623.72
447.51	6429.45
447.69	6619.04
447.88	6719.68
448.06	6916.28
448.25	6670.53
448.43	6644.78
448.62	6609.67
448.80	6494.99
448.99	6623.72
449.17	6682.23
449.36	6743.08
449.54	6932.67
449.73	6963.09
449.91	6846.07
450.10	7133.95
450.28	7101.19
450.46	7152.68
450.65	7199.49
450.83	6883.52
451.02	7094.16
451.20	7253.32
451.39	7073.10
451.57	7035.65
451.76	7023.95
451.94	7164.38
452.13	7250.98
452.31	7131.61
452.49	6787.55
452.68	7162.04
452.86	7056.72
453.05	7281.41
453.23	7169.06
453.42	7183.10
453.60	7267.36
453.78	7220.55
453.97	7286.09
454.15	7300.13
454.34	7194.81
454.52	7325.88
454.70	7428.86
454.89	7438.22
455.07	7396.09
455.26	7552.91
455.44	7618.44
455.62	7550.57
455.81	7646.53
455.99	7803.35
456.17	7683.98
456.36	7653.55
456.54	7662.91
456.73	7957.82
456.91	8067.83
457.09	7868.88
457.28	8369.76
457.46	7747.17
457.64	7978.89
457.83	8056.12
458.01	7943.78
458.19	8180.17
458.38	7948.46
458.56	8074.85
458.74	8112.30
458.93	8173.15
459.11	8257.41
459.29	8219.96
459.48	8339.33
459.66	8147.40
459.84	8077.19
460.03	8468.06
460.21	8383.80
460.39	8468.06
460.57	8311.24
460.76	8526.57
460.94	8629.56
461.12	8554.66
461.31	8650.62
461.49	8554.66
461.67	8664.66
461.85	8828.50
462.04	8617.85
462.22	8999.36
462.40	8847.22
462.59	8549.98
462.77	8629.56
462.95	8842.54
463.13	8938.51
463.32	8697.43
463.50	8896.38
463.68	8762.97
463.86	8753.60
464.05	8772.33
464.23	8931.48
464.41	8891.70
464.59	9085.96
464.78	9151.49
464.96	9001.70
465.14	8926.80
465.32	9259.16
465.50	9046.17
465.69	9170.22
465.87	9156.18
466.05	9284.91
466.23	8992.34
466.41	9158.52
466.60	9341.08
466.78	9074.26
466.96	9100.00
467.14	9210.01
467.32	9184.26
467.51	9109.36
467.69	9041.49
467.87	9336.40
468.05	9523.64
468.23	9245.12
468.41	9427.68
468.60	9495.55
468.78	9673.43
468.96	9385.55
469.14	9631.30
469.32	9511.94
469.50	9317.67
469.69	9650.03
469.87	9565.77
470.05	9795.14
470.23	9757.69
470.41	9631.30
470.59	9846.63
470.77	9645.35
470.95	9806.84
471.14	10054.94
471.32	9790.46
471.50	10057.28
471.68	10167.29
471.86	10202.40
472.04	10143.88
472.22	10469.22
472.40	10146.22
472.58	10347.51
472.77	10345.17
472.95	10525.39
473.13	10719.65
473.31	10518.37
473.49	10427.09
473.67	10394.32
473.85	10494.96
474.03	10853.06
474.21	10981.79
474.39	10867.11
474.57	10846.04
474.75	10761.78
474.93	10981.79
475.12	11042.65
475.30	11052.01
475.48	11061.37
475.66	11272.02
475.84	11115.20
476.02	11431.18
476.20	11302.45
476.38	11384.37
476.56	11646.51
476.74	11789.28
476.92	11538.84
477.10	11852.47
477.28	11775.24
477.46	11826.73
477.64	12032.69
477.82	12159.08
478.00	12528.89
478.18	12395.48
478.36	12432.93
478.54	12809.75
478.72	12603.78
478.90	12814.43
479.08	13032.10
479.26	13048.49
479.44	13011.04
479.62	13104.66
479.80	13001.68
479.98	13074.23
480.16	13469.78
480.34	13465.10
480.52	13467.44
480.70	13715.54
480.88	13448.72
481.06	13748.31
481.24	14038.53
481.41	13830.23
481.59	14202.37
481.77	14445.79
481.95	14127.47
482.13	14420.04
482.31	14473.87
482.49	14878.79
482.67	14810.91
482.85	15098.80
483.03	15082.41
483.21	15463.92
483.39	15201.78
483.57	15372.64
483.74	15337.53
483.92	15335.19
484.10	15213.48
484.28	15702.65
484.46	15613.71
484.64	16201.19
484.82	15943.73
485.00	16133.31
485.18	16360.34
485.35	16308.85
485.53	16051.39
485.71	16355.66
485.89	16383.75
486.07	16404.81
486.25	16367.37
486.43	16641.21
486.61	16924.41
486.78	17259.11
486.96	17287.20
487.14	17521.25
487.32	17273.15
487.50	17759.98
487.68	17781.05
487.85	18150.85
488.03	18223.41
488.21	18597.90
488.39	18366.18
488.57	18279.58
488.75	18670.45
488.92	18993.45
489.10	19403.04
489.28	19096.43
489.46	19611.35
489.64	19601.99
489.81	19962.43
489.99	20049.03
490.17	20044.35
490.35	19955.41
490.53	19882.85
490.70	20217.55
490.88	20430.54
491.06	21008.65
491.24	20456.28
491.41	20746.51
491.59	20657.57
491.77	20851.83
491.95	20884.60
492.13	21153.76
492.30	21659.32
492.48	21713.15
492.66	21853.58
492.84	21530.59
493.01	22001.04
493.19	21891.03
493.37	22263.18
493.54	22319.35
493.72	22551.06
493.90	22359.14
494.08	22738.30
494.25	23112.79
494.43	22836.61
494.61	23150.24
494.79	23187.69
494.96	23344.50
495.14	23190.03
495.32	23592.60
495.49	23377.27
495.67	23889.85
495.85	23798.57
496.02	24081.77
496.20	24144.97
496.38	24482.00
496.55	24416.47
496.73	24910.32
496.91	24343.91
497.09	24690.31
497.26	24931.39
497.44	24592.01
497.62	24999.26
497.79	25355.02
497.97	25172.46
498.14	25291.83
498.32	25869.94
498.50	25563.33
498.67	25666.31
498.85	25909.73
499.03	26305.28
499.20	25982.29
499.38	26277.19
499.56	26176.55
499.73	26398.90
499.91	26324.01
500.08	26171.87
500.26	26249.11
500.44	26712.53
500.61	26504.23
500.79	26434.01
500.97	26565.08
501.14	27143.19
501.32	27271.92
501.49	27082.34
501.67	26991.06
501.84	27037.87
502.02	27257.88
502.20	27379.59
502.37	27522.36
502.55	27412.35
502.72	27929.61
502.90	27889.82
503.07	28072.39
503.25	27943.66
503.43	27770.46
503.60	28177.71
503.78	27927.27
503.95	28463.25
504.13	28222.18
504.30	28968.81
504.48	28226.86
504.65	28631.77
504.83	28973.49
505.01	29118.60
505.18	28933.70
505.36	29483.73
505.53	29233.29
505.71	29383.09
505.88	29694.38
506.06	29160.73
506.23	29401.81
506.41	29343.30
506.58	29500.11
506.76	29649.91
506.93	29855.87
507.11	29376.06
507.28	29844.17
507.46	29769.27
507.63	29759.91
507.81	30354.41
507.98	29848.85
508.16	30403.56
508.33	30401.22
508.50	30831.88
508.68	30820.17
508.85	31019.12
509.03	31075.29
509.20	31058.91
509.38	31421.69
509.55	31468.50
509.73	31016.78
509.90	31388.92
510.08	31264.88
510.25	31690.85
510.42	31454.46
510.60	31484.89
510.77	31480.21
510.95	32039.59
511.12	31571.49
511.30	31796.18
511.47	32416.42
511.64	32116.83
511.82	31969.38
511.99	31955.33
512.17	32194.07
512.34	32549.83
512.51	32514.72
512.69	32744.09
512.86	32826.01
513.04	32914.95
513.21	32636.43
513.38	32790.91
513.56	32790.91
513.73	32673.88
513.90	32730.05
514.08	32678.56
514.25	33034.32
514.43	33120.92
514.60	33085.81
514.77	33120.92
514.95	33324.55
515.12	33158.37
515.29	33350.29
515.47	33928.41
515.64	34068.84
515.81	33649.88
515.99	33600.73
516.16	33736.48
516.33	33659.24
516.51	33830.10
516.68	33434.55
516.85	33516.47
517.03	33713.08
517.20	33865.21
517.37	34068.84
517.54	34396.51
517.72	34115.65
517.89	33972.88
518.06	34340.34
518.24	34183.52
518.41	34270.12
518.58	34206.93
518.75	34597.80
518.93	34918.45
519.10	34515.88
519.27	34899.73
519.45	34930.16
519.62	35653.38
519.79	34967.60
519.96	35503.59
520.14	35428.69
520.31	34778.02
520.48	35763.39
520.65	35227.40
520.83	35880.41
521.00	36308.73
521.17	35831.26
521.34	35941.27
521.52	36304.05
521.69	36294.69
521.86	36011.48
522.03	36175.32
522.20	36362.56
522.38	36282.98
522.55	36549.81
522.72	35887.43
522.89	36196.38
523.07	36622.36
523.24	36538.10
523.41	36737.05
523.58	36346.18
523.75	37221.54
523.92	37017.91
524.10	37446.23
524.27	37106.85
524.44	37387.72
524.61	37551.56
524.78	37380.70
524.96	37570.28
525.13	37270.69
525.30	37596.03
525.47	37759.86
525.64	38024.34
525.81	37324.52
525.98	37710.71
526.16	37200.47
526.33	37326.86
526.50	37511.77
526.67	37364.31
526.84	37579.64
527.01	37523.47
527.18	37511.77
527.36	38359.04
527.53	38333.29
527.70	38321.59
527.87	38384.79
528.04	38286.48
528.21	38216.27
528.38	38761.61
528.55	38801.40
528.72	38494.79
528.89	38574.37
529.07	38644.59
529.24	38696.08
529.41	38665.65
529.58	38995.67
529.75	38787.36
529.92	38859.91
530.09	39229.72
530.26	39115.03
530.43	39555.05
530.60	39033.11
530.77	39084.61
530.94	39442.71
531.11	39292.91
531.28	39489.52
531.46	39180.57
531.63	39625.27
531.80	39571.44
531.97	39721.23
532.14	39445.05
532.31	39428.66
532.48	39966.99
532.65	39510.58
532.82	39613.57
532.99	39761.02
533.16	39728.25
533.33	39950.60
533.50	40154.23
533.67	40437.44
533.84	39941.24
534.01	40067.63
534.18	39950.60
534.35	40514.67
534.52	40470.20
534.69	40835.33
534.86	40598.93
535.03	40250.19
535.20	40734.68
535.37	40627.02
535.54	40947.67
535.71	40364.88
535.88	40935.97
536.05	40734.68
536.22	41422.80
536.38	40844.69
536.55	40732.34
536.72	40526.38
536.89	40594.25
537.06	40891.50
537.23	41436.84
537.40	40879.80
537.57	40978.10
537.74	41102.15
537.91	41378.33
538.08	41401.74
538.25	41354.93
538.42	41191.09
538.59	40975.76
538.75	41209.81
538.92	41467.27
539.09	41567.91
539.26	41734.09
539.43	41661.54
539.60	41265.99
539.77	41378.33
539.94	41691.96
540.11	41453.23
540.28	41195.77
540.44	41532.81
540.61	41977.51
540.78	41581.96
540.95	41816.01
541.12	41237.90
541.29	41581.96
541.46	41823.03
541.62	42246.67
541.79	41764.52
541.96	41666.22
542.13	41890.91
542.30	41930.70
542.47	41607.70
542.63	41930.70
542.80	42710.10
542.97	42403.49
543.14	42532.22
543.31	42452.64
543.48	42625.84
543.64	43051.81
543.81	43093.94
543.98	42885.64
544.15	42550.94
544.32	42726.48
544.48	43241.40
544.65	42759.25
544.82	42972.24
544.99	42391.78
545.16	42562.64
545.32	43250.76
545.49	43328.00
545.66	43239.06
545.83	43379.49
546.00	43063.52
546.16	43068.20
546.33	43225.01
546.50	42979.26
546.67	43646.31
546.83	43021.39
547.00	43468.43
547.17	43480.13
547.34	43203.95
547.50	43711.84
547.67	43274.16
547.84	43658.01
548.00	43777.38
548.17	43793.76
548.34	43414.60
548.51	43662.69
548.67	44055.90
548.84	44208.04
549.01	44191.65
549.18	43744.61
549.34	43686.10
549.51	43894.41
549.68	43777.38
549.84	44027.82
550.01	43737.59
550.18	43894.41
550.34	43880.36
550.51	44179.95
550.68	44282.94
550.84	43730.57
551.01	44210.38
551.18	44030.16
551.34	44161.23
551.51	44491.24
551.68	44355.49
551.84	44390.60
552.01	43861.64
552.18	44514.65
552.34	44362.51
552.51	44610.61
552.68	44327.41
552.84	44933.60
553.01	44568.48
553.18	44732.32
553.34	44608.27
553.51	44196.34
553.67	44875.09
553.84	45254.26
554.01	44924.24
554.17	44722.96
554.34	44720.62
554.51	44933.60
554.67	44964.03
554.84	44933.60
555.00	44919.56
555.17	45139.57
555.33	44652.74
555.50	44964.03
555.67	45333.84
555.83	44575.50
556.00	45226.17
556.16	45427.46
556.33	45081.06
556.50	44868.07
556.66	45584.27
556.83	44786.15
556.99	45165.32
557.16	45720.02
557.32	44914.88
557.49	45102.12
557.65	44725.30
557.82	44868.07
557.98	44879.77
558.15	45291.71
558.32	45326.81
558.48	45120.85
558.65	45567.89
558.81	45237.87
558.98	45305.75
559.14	45118.51
559.31	45048.29
559.47	44971.05
559.64	45343.20
559.80	45570.23
559.97	45408.73
560.13	45202.77
560.30	45434.48
560.46	45308.09
560.63	45715.34
560.79	45607.68
560.96	45935.35
561.12	45614.70
561.29	45787.90
561.45	45785.56
561.61	45586.61
561.78	45556.19
561.94	45382.99
562.11	45539.80
562.27	45301.07
562.44	45326.81
562.60	45738.75
562.77	45755.13
562.93	46220.90
563.10	46244.30
563.26	45570.23
563.42	45801.94
563.59	45565.55
563.75	45368.94
563.92	46005.57
564.08	45684.92
564.24	45998.55
564.41	45801.94
564.57	45806.62
564.74	45724.71
564.90	45497.67
565.07	45914.29
565.23	45907.27
565.39	45539.80
565.56	45490.65
565.72	45375.97
565.88	45748.11
566.05	45916.63
566.21	45380.65
566.38	45783.22
566.54	45401.71
566.70	46251.33
566.87	46190.47
567.03	46237.28
567.19	46293.46
567.36	46078.13
567.52	46209.20
567.68	46075.79
567.85	45846.41
568.01	46019.61
568.17	45902.59
568.34	46291.12
568.50	45935.35
568.66	45947.06
568.83	46068.76
568.99	45958.76
569.15	46153.02
569.32	45832.37
569.48	45734.07
569.64	46417.50
569.81	46340.27
569.97	46057.06
570.13	46199.83
570.30	45455.54
570.46	45947.06
570.62	45514.06
570.78	45570.23
570.95	46036.00
571.11	46265.37
571.27	45612.36
571.43	46248.99
571.60	46253.67
571.76	46028.98
571.92	46150.68
572.09	46045.36
572.25	46064.08
572.41	45979.82
572.57	46120.26
572.74	46656.24
572.90	46366.01
573.06	45818.33
573.22	46515.81
573.38	46115.58
573.55	46164.73
573.71	46059.40
573.87	45909.61
574.03	45823.01
574.20	46557.94
574.36	46113.23
574.52	46199.83
574.68	46354.31
574.84	46632.83
575.01	46328.56
575.17	46012.59
575.33	45975.14
575.49	46216.22
575.65	46040.68
575.82	46529.85
575.98	46344.95
576.14	46611.77
576.30	46546.23
576.46	46066.42
576.62	46188.13
576.79	46403.46
576.95	45942.38
577.11	46134.30
577.27	46241.96
577.43	46209.20
577.59	46525.17
577.75	46450.27
577.92	45696.62
578.08	45574.91
578.24	45837.05
578.40	46681.98
578.56	46230.26
578.72	46461.97
578.88	46831.78
579.04	46562.62
579.21	46174.09
579.37	46277.07
579.53	46232.60
579.69	46073.45
579.85	46363.67
580.01	46333.24
580.17	46639.86
580.33	46674.96
580.49	46319.20
580.65	46220.90
580.82	46396.44
580.98	46108.55
581.14	46024.29
581.30	46567.30
581.46	46284.09
581.62	46586.02
581.78	46532.19
581.94	46651.56
582.10	46789.65
582.26	46894.97
582.42	46557.94
582.58	46342.61
582.74	46312.18
582.90	46323.88
583.06	46906.68
583.22	46639.86
583.38	46775.61
583.54	46724.11
583.70	46745.18
583.86	46649.22
584.02	46728.80
584.18	46951.15
584.34	46361.33
584.50	46569.64
584.66	46335.59
584.82	46546.23
584.98	46735.82
585.14	46485.38
585.30	46562.62
585.46	46340.27
585.62	46459.63
585.78	46691.35
585.94	45696.62
586.10	46480.70
586.26	46361.33
586.42	46738.16
586.58	46761.56
586.74	46724.11
586.90	46469.00
587.06	46382.40
587.22	46916.04
587.38	46391.76
587.54	46703.05
587.70	46380.06
587.86	46225.58
588.02	46693.69
588.18	46560.28
588.34	46241.96
588.49	46026.63
588.65	45935.35
588.81	45911.95
588.97	46188.13
589.13	45558.53
589.29	46106.21
589.45	46298.14
589.61	46401.12
589.77	46670.28
589.93	46632.83
