SpectraSuite Data File
++++++++++++++++++++++++++++++++++++
Date: Fri Oct 25 10:43:32 EDT 2013
User: price-jones
Dark Spectrum Present: No
Reference Spectrum Present: No
Number of Sampled Component Spectra: 1
Spectrometers: USB2+H05261
Integration Time (usec): 100000 (USB2+H05261)
Spectra Averaged: 1 (USB2+H05261)
Boxcar Smoothing: 0 (USB2+H05261)
Correct for Electrical Dark: No (USB2+H05261)
Strobe/Lamp Enabled: No (USB2+H05261)
Correct for Detector Non-linearity: No (USB2+H05261)
Correct for Stray Light: No (USB2+H05261)
Number of Pixels in Processed Spectrum: 2048
>>>>>Begin Processed Spectral Data<<<<<
365.73	112.35
365.92	112.35
366.12	112.35
366.32	23.41
366.52	0.00
366.72	42.13
366.91	18.72
367.11	16.38
367.31	44.47
367.51	18.72
367.70	0.00
367.90	51.49
368.10	0.00
368.30	23.41
368.49	35.11
368.69	77.24
368.89	39.79
369.09	88.94
369.28	14.04
369.48	28.09
369.68	81.92
369.87	145.11
370.07	53.83
370.27	121.71
370.47	154.48
370.66	388.53
370.86	411.93
371.06	456.40
371.25	477.47
371.45	465.77
371.65	540.66
371.84	428.32
372.04	458.74
372.24	416.62
372.44	477.47
372.63	531.30
372.83	561.73
373.03	564.07
373.22	526.62
373.42	519.60
373.62	540.66
373.81	507.90
374.01	545.34
374.21	517.26
374.40	554.71
374.60	564.07
374.79	533.64
374.99	568.75
375.19	557.05
375.38	575.77
375.58	620.24
375.78	645.99
375.97	578.11
376.17	624.92
376.37	620.24
376.56	573.43
376.76	603.86
376.95	617.90
377.15	613.22
377.35	557.05
377.54	622.58
377.74	655.35
377.93	709.18
378.13	617.90
378.33	645.99
378.52	622.58
378.72	624.92
378.91	727.91
379.11	620.24
379.31	723.23
379.50	629.60
379.70	702.16
379.89	702.16
380.09	606.20
380.28	704.50
380.48	683.44
380.68	760.67
380.87	683.44
381.07	645.99
381.26	699.82
381.46	697.48
381.65	777.06
381.85	699.82
382.04	676.41
382.24	760.67
382.43	711.52
382.63	678.76
382.83	706.84
383.02	727.91
383.22	830.89
383.41	770.04
383.61	744.29
383.80	891.74
384.00	800.46
384.19	732.59
384.39	800.46
384.58	821.53
384.78	802.80
384.97	849.61
385.17	791.10
385.36	807.48
385.56	816.85
385.75	781.74
385.95	784.08
386.14	840.25
386.34	772.38
386.53	863.66
386.72	882.38
386.92	866.00
387.11	964.30
387.31	840.25
387.50	849.61
387.70	873.02
387.89	873.02
388.09	870.68
388.28	858.98
388.48	908.13
388.67	954.94
388.86	905.79
389.06	973.66
389.25	1043.88
389.45	1001.75
389.64	971.32
389.84	943.24
390.03	943.24
390.22	1064.94
390.42	992.39
390.61	954.94
390.81	987.71
391.00	1046.22
391.19	1055.58
391.39	1022.81
391.58	1076.65
391.78	997.07
391.97	1008.77
392.16	997.07
392.36	1067.28
392.55	1008.77
392.75	1015.79
392.94	1015.79
393.13	929.19
393.33	1043.88
393.52	1011.11
393.71	1191.33
393.91	1146.86
394.10	1090.69
394.29	1186.65
394.49	1071.97
394.68	1203.04
394.88	1221.76
395.07	1238.14
395.26	1179.63
395.46	1219.42
395.65	1263.89
395.84	1188.99
396.04	1186.65
396.23	1224.10
396.42	1188.99
396.62	1156.22
396.81	1238.14
397.00	1142.18
397.19	1266.23
397.39	1284.95
397.58	1359.85
397.77	1364.53
397.97	1397.30
398.16	1397.30
398.35	1479.22
398.55	1504.96
398.74	1507.30
398.93	1504.96
399.12	1500.28
399.32	1453.47
399.51	1586.88
399.70	1486.24
399.90	1659.44
400.09	1530.71
400.28	1490.92
400.47	1554.12
400.67	1579.86
400.86	1570.50
401.05	1687.53
401.24	1638.38
401.44	1666.46
401.63	1631.35
401.82	1671.14
402.01	1631.35
402.21	1736.68
402.40	1825.62
402.59	1734.34
402.78	1743.70
402.97	1778.81
403.17	1771.79
403.36	1722.63
403.55	1877.11
403.74	1870.09
403.93	1898.17
404.13	1842.00
404.32	1746.04
404.51	1935.62
404.70	2031.58
404.89	1928.60
405.09	2019.88
405.28	1963.71
405.47	1849.02
405.66	1973.07
405.85	1996.48
406.05	1989.46
406.24	1989.46
406.43	1954.35
406.62	2012.86
406.81	2012.86
407.00	2097.12
407.20	2040.95
407.39	2092.44
407.58	2211.81
407.77	2265.64
407.96	2260.96
408.15	2106.48
408.34	2275.00
408.54	2293.72
408.73	2246.91
408.92	2284.36
409.11	2312.45
409.30	2291.38
409.49	2279.68
409.68	2155.63
409.87	2143.93
410.07	2326.49
410.26	2335.85
410.45	2246.91
410.64	2485.65
410.83	2403.73
411.02	2492.67
411.21	2626.08
411.40	2450.54
411.59	2513.74
411.78	2679.91
411.98	2579.27
412.17	2658.85
412.36	2675.23
412.55	2661.19
412.74	2757.15
412.93	2745.45
413.12	2682.25
413.31	2958.44
413.50	2738.43
413.69	2813.32
413.88	2958.44
414.07	2995.89
414.26	2956.10
414.45	3000.57
414.64	2963.12
414.83	2974.82
415.02	3122.27
415.22	3016.95
415.41	3016.95
415.60	2984.18
415.79	3098.87
415.98	3180.79
416.17	3281.43
416.36	3229.94
416.55	3255.69
416.74	3166.74
416.93	3143.34
417.12	3286.11
417.31	3318.88
417.50	3286.11
417.69	3414.84
417.88	3459.31
418.07	3389.10
418.26	3419.52
418.45	3527.19
418.64	3679.32
418.83	3609.11
419.02	3571.66
419.21	3550.59
419.39	3602.08
419.58	3658.26
419.77	3515.48
419.96	3681.66
420.15	3709.75
420.34	3672.30
420.53	3847.84
420.72	3772.94
420.91	3756.56
421.10	3847.84
421.29	3833.80
421.48	3805.71
421.67	3796.35
421.86	3887.63
422.05	3735.50
422.24	3794.01
422.43	3866.56
422.61	3941.46
422.80	3955.51
422.99	3904.01
423.18	3920.40
423.37	4147.43
423.56	3932.10
423.75	3885.29
423.94	3831.46
424.13	3595.06
424.32	3784.65
424.50	3896.99
424.69	4093.60
424.88	3847.84
425.07	3913.38
425.26	3906.35
425.45	3840.82
425.64	3868.91
425.83	4007.00
426.01	4046.79
426.20	3985.93
426.39	3936.78
426.58	3988.27
426.77	3927.42
426.96	3899.33
427.15	4014.02
427.33	4168.49
427.52	3932.10
427.71	3983.59
427.90	4126.36
428.09	4060.83
428.28	4070.19
428.46	4159.13
428.65	4294.88
428.84	4292.54
429.03	4145.09
429.22	4016.36
429.40	4201.26
429.59	4067.85
429.78	3999.98
429.97	3962.53
430.16	4081.89
430.34	4098.28
430.53	4250.41
430.72	4175.52
430.91	4332.33
431.10	4308.93
431.28	4550.00
431.47	4589.79
431.66	4643.62
431.85	4582.77
432.03	4648.30
432.22	4561.70
432.41	4526.60
432.60	4685.75
432.79	4681.07
432.97	4727.88
433.16	4748.95
433.35	4685.75
433.54	4676.39
433.72	4498.51
433.91	4664.69
434.10	4760.65
434.28	4877.68
434.47	4760.65
434.66	4748.95
434.85	4861.29
435.03	4819.16
435.22	4889.38
435.41	5191.31
435.59	5018.11
435.78	5146.84
435.97	5050.88
436.16	5064.92
436.34	5226.42
436.53	5069.60
436.72	5228.76
436.90	5036.83
437.09	5179.61
437.28	5205.35
437.46	5217.05
437.65	5074.28
437.84	5242.80
438.02	5177.26
438.21	5195.99
438.40	5100.03
438.58	5315.36
438.77	5366.85
438.96	5434.72
439.14	5591.54
439.33	5610.26
439.52	5654.73
439.70	5596.22
439.89	5666.44
440.08	5603.24
440.26	5596.22
440.45	5603.24
440.63	5881.77
440.82	6043.26
441.01	5795.17
441.19	5954.32
441.38	6136.88
441.57	6174.33
441.75	6150.93
441.94	6253.91
442.12	6277.32
442.31	6347.53
442.50	6382.64
442.68	6270.30
442.87	6141.57
443.05	6303.06
443.24	6434.13
443.43	6406.05
443.61	6384.98
443.80	6693.93
443.98	6392.00
444.17	6279.66
444.35	6693.93
444.54	6438.81
444.73	6434.13
444.91	6457.54
445.10	6478.60
445.28	6469.24
445.47	6417.75
445.65	6340.51
445.84	6497.33
446.02	6469.24
446.21	6445.84
446.39	6448.18
446.58	6537.12
446.77	6614.35
446.95	6705.63
447.14	6715.00
447.32	6794.58
447.51	6607.33
447.69	6560.52
447.88	6586.27
448.06	6651.80
448.25	6651.80
448.43	6787.55
448.62	6707.98
448.80	6656.48
448.99	6679.89
449.17	6817.98
449.36	6757.13
449.54	6920.96
449.73	6930.33
449.91	6932.67
450.10	7138.63
450.28	7103.53
450.46	7068.42
450.65	7166.72
450.83	7103.53
451.02	6981.82
451.20	7094.16
451.39	7194.81
451.57	7307.15
451.76	7290.77
451.94	7269.70
452.13	7314.17
452.31	7152.68
452.49	7112.89
452.68	7197.15
452.86	7157.36
453.05	7234.60
453.23	7398.43
453.42	7255.66
453.60	7424.18
453.78	7351.62
453.97	7557.59
454.15	7372.69
454.34	7267.36
454.52	7478.01
454.70	7473.33
454.89	7510.78
455.07	7393.75
455.26	7585.68
455.44	7779.94
455.62	7463.97
455.81	7798.66
455.99	7623.12
456.17	7871.22
456.36	7733.13
456.54	7906.33
456.73	8049.10
456.91	8056.12
457.09	8035.06
457.28	8056.12
457.46	7981.23
457.64	8215.28
457.83	8154.43
458.01	7847.82
458.19	8013.99
458.38	8032.72
458.56	8222.30
458.74	8173.15
458.93	7948.46
459.11	8306.56
459.29	8243.37
459.48	8428.27
459.66	8236.35
459.84	8154.43
460.03	8557.00
460.21	8379.12
460.39	8388.48
460.57	8386.14
460.76	8650.62
460.94	8617.85
461.12	8645.94
461.31	8510.19
461.49	8727.86
461.67	8564.02
461.85	8659.98
462.04	8809.78
462.22	9245.12
462.40	8922.12
462.59	8741.90
462.77	8615.51
462.95	8830.84
463.13	8912.76
463.32	8931.48
463.50	8833.18
463.68	8950.21
463.86	8884.67
464.05	8926.80
464.23	8856.59
464.41	8938.51
464.59	8793.39
464.78	9263.84
464.96	9043.83
465.14	8982.98
465.32	9069.58
465.50	9266.18
465.69	9284.91
465.87	9235.75
466.05	9195.96
466.23	9263.84
466.41	9064.89
466.60	9205.33
466.78	9104.68
466.96	9268.52
467.14	9128.09
467.32	9350.44
467.51	9544.70
467.69	9198.31
467.87	9593.86
468.05	9437.04
468.23	9645.35
468.41	9481.51
468.60	9462.79
468.78	9610.24
468.96	9589.17
469.14	9731.95
469.32	9783.44
469.50	9357.46
469.69	9518.96
469.87	9874.72
470.05	9713.22
470.23	9872.38
470.41	9701.52
470.59	9984.73
470.77	9799.82
470.95	9947.28
471.14	10136.86
471.32	9961.32
471.50	10080.69
471.68	10291.34
471.86	10434.11
472.04	10406.02
472.22	10471.56
472.40	10214.10
472.58	10183.67
472.77	10331.12
472.95	10452.83
473.13	10850.72
473.31	10588.58
473.49	10361.55
473.67	10637.73
473.85	10724.33
474.03	10902.22
474.21	10827.32
474.39	11297.77
474.57	10871.79
474.75	10848.38
474.93	11007.54
475.12	11026.26
475.30	10991.16
475.48	11250.96
475.66	11211.17
475.84	11246.27
476.02	11318.83
476.20	11286.06
476.38	11618.42
476.56	11815.02
476.74	11587.99
476.92	11812.68
477.10	11800.98
477.28	12037.38
477.46	12058.44
477.64	11978.86
477.82	12414.20
478.00	12828.48
478.18	12458.67
478.36	12491.44
478.54	12439.95
478.72	12685.70
478.90	12666.98
479.08	13001.68
479.26	12926.78
479.44	13064.87
479.62	13263.82
479.80	13221.69
479.98	13387.86
480.16	13530.64
480.34	13537.66
480.52	13827.88
480.70	13886.40
480.88	13521.27
481.06	13802.14
481.24	13935.55
481.41	14083.00
481.59	14408.34
481.77	14118.11
481.95	14401.32
482.13	14305.35
482.31	14169.60
482.49	14759.42
482.67	14778.14
482.85	14913.89
483.03	15007.52
483.21	15054.33
483.39	15227.53
483.57	15335.19
483.74	15721.38
483.92	15786.91
484.10	15520.09
484.28	15602.01
484.46	15861.81
484.64	16334.60
484.82	16229.27
485.00	16032.67
485.18	16137.99
485.35	16517.16
485.53	15913.30
485.71	16393.11
485.89	16093.52
486.07	16402.47
486.25	16549.93
486.43	16549.93
486.61	17111.66
486.78	16678.66
486.96	17111.66
487.14	17369.12
487.32	17394.86
487.50	17984.68
487.68	17907.44
487.85	18160.22
488.03	18321.71
488.21	18471.51
488.39	18417.68
488.57	18478.53
488.75	18375.55
488.92	18836.63
489.10	19150.26
489.28	19307.08
489.46	19665.18
489.64	19517.73
489.81	19887.53
489.99	20034.99
490.17	20201.16
490.35	20482.03
490.53	20034.99
490.70	20353.30
490.88	20269.04
491.06	20259.68
491.24	20779.28
491.41	20566.29
491.59	20709.06
491.77	20783.96
491.95	21139.72
492.13	21078.86
492.30	21142.06
492.48	21558.67
492.66	21521.23
492.84	21729.53
493.01	22066.57
493.19	21867.63
493.37	22033.80
493.54	22132.11
493.72	22345.09
493.90	22375.52
494.08	22726.60
494.25	22705.54
494.43	23126.83
494.61	22965.34
494.79	23590.26
494.96	23091.73
495.14	23342.16
495.32	23257.90
495.49	23342.16
495.67	23580.90
495.85	23859.42
496.02	24521.79
496.20	24037.30
496.38	24271.36
496.55	24421.15
496.73	25202.89
496.91	24133.26
497.09	24718.40
497.26	24573.28
497.44	24800.32
497.62	25064.80
497.79	24905.64
497.97	24945.43
498.14	25003.94
498.32	25530.56
498.50	25446.30
498.67	26279.54
498.85	25610.14
499.03	25881.64
499.20	26141.44
499.38	26176.55
499.56	25834.83
499.73	26321.66
499.91	26326.35
500.08	26625.93
500.26	26347.41
500.44	26338.05
500.61	26717.22
500.79	26394.22
500.97	26785.09
501.14	26845.94
501.32	26890.41
501.49	26902.12
501.67	26810.84
501.84	27288.31
502.02	27424.06
502.20	27583.21
502.37	27843.01
502.55	27351.50
502.72	27585.55
502.90	27885.14
503.07	27683.86
503.25	27896.85
503.43	27950.68
503.60	28006.85
503.78	27983.44
503.95	28187.07
504.13	27868.76
504.30	28690.29
504.48	28308.78
504.65	28891.57
504.83	28802.63
505.01	28980.51
505.18	28978.17
505.36	29448.62
505.53	28809.65
505.71	29617.14
505.88	29408.83
506.06	29352.66
506.23	29324.57
506.41	29647.57
506.58	29703.74
506.76	29961.20
506.93	29832.47
507.11	30008.01
507.28	29792.68
507.46	29738.85
507.63	29729.48
507.81	30012.69
507.98	29905.02
508.16	29972.90
508.33	30237.38
508.50	30719.53
508.68	30424.62
508.85	31246.15
509.03	30717.19
509.20	31019.12
509.38	30714.85
509.55	31269.56
509.73	31157.21
509.90	31314.03
510.08	30995.71
510.25	31255.51
510.42	31428.71
510.60	31267.22
510.77	31613.62
510.95	31896.82
511.12	32034.91
511.30	31826.60
511.47	32016.19
511.64	31960.02
511.82	31889.80
511.99	32077.04
512.17	32247.90
512.34	32142.58
512.51	32514.72
512.69	32421.10
512.86	32758.14
513.04	32905.59
513.21	32353.23
513.38	32666.86
513.56	32580.26
513.73	32575.58
513.90	32776.86
514.08	32884.53
514.25	32847.08
514.43	32957.08
514.60	33347.95
514.77	32882.19
514.95	33610.09
515.12	32957.08
515.29	33436.89
515.47	33329.23
515.64	33787.97
515.81	33785.63
515.99	33546.90
516.16	33441.57
516.33	33242.63
516.51	33251.99
516.68	33118.58
516.85	33205.18
517.03	33521.15
517.20	33787.97
517.37	33668.61
517.54	33888.62
517.72	33926.07
517.89	33757.55
518.06	34010.32
518.24	33802.02
518.41	34031.39
518.58	34113.31
518.75	34132.03
518.93	34583.76
519.10	34677.38
519.27	34986.33
519.45	34815.47
519.62	35452.09
519.79	35426.35
519.96	35033.14
520.14	35159.53
520.31	35194.64
520.48	35007.39
520.65	35222.72
520.83	35489.54
521.00	35655.72
521.17	35534.01
521.34	35555.08
521.52	35723.60
521.69	35747.00
521.86	36313.41
522.03	36149.57
522.20	35985.74
522.38	36161.28
522.55	36357.88
522.72	36027.87
522.89	35959.99
523.07	36613.00
523.24	35971.69
523.41	36711.30
523.58	36629.38
523.75	37146.64
523.92	36767.48
524.10	36762.79
524.27	37364.31
524.44	36858.76
524.61	37027.28
524.78	37158.34
524.96	37523.47
525.13	37493.04
525.30	37518.79
525.47	37483.68
525.64	37495.38
525.81	37354.95
525.98	37186.43
526.16	37481.34
526.33	37020.25
526.50	37088.13
526.67	37024.93
526.84	37525.81
527.01	37053.02
527.18	37530.49
527.36	38139.03
527.53	38110.94
527.70	38237.33
527.87	37958.81
528.04	38101.58
528.21	38258.40
528.38	38368.40
528.55	38539.26
528.72	38286.48
528.89	38658.63
529.07	38588.41
529.24	38366.06
529.41	38642.24
529.58	38029.02
529.75	38403.51
529.92	38639.90
530.09	38710.12
530.26	39342.06
530.43	39229.72
530.60	39196.95
530.77	38726.50
530.94	39037.80
531.11	39040.14
531.28	39491.86
531.46	39559.73
531.63	39016.73
531.80	39065.88
531.97	39056.52
532.14	39349.09
532.31	38614.16
532.48	39264.83
532.65	39402.92
532.82	39255.46
532.99	39468.45
533.16	39311.64
533.33	39651.02
533.50	39721.23
533.67	39723.57
533.84	39550.37
534.01	39709.53
534.18	40032.52
534.35	40229.13
534.52	39550.37
534.69	40158.91
534.86	40299.34
535.03	40016.14
535.20	40512.33
535.37	40999.16
535.54	40615.32
535.71	40381.26
535.88	40245.51
536.05	40603.61
536.22	40285.30
536.38	40739.36
536.55	40112.10
536.72	39985.71
536.89	40098.06
537.06	40381.26
537.23	41055.34
537.40	41083.42
537.57	40842.35
537.74	40898.52
537.91	41060.02
538.08	41069.38
538.25	40671.49
538.42	40926.61
538.59	40816.60
538.75	40584.89
538.92	41144.28
539.09	41448.55
539.26	41010.87
539.43	41226.20
539.60	40945.33
539.77	41069.38
539.94	40631.70
540.11	41102.15
540.28	41078.74
540.44	41368.97
540.61	41322.16
540.78	41137.26
540.95	40982.78
541.12	41537.49
541.29	41345.56
541.46	41783.24
541.62	41546.85
541.79	42073.47
541.96	41268.33
542.13	41621.75
542.30	41869.84
542.47	41701.32
542.63	42036.02
542.80	41944.74
542.97	42108.58
543.14	42279.44
543.31	42359.02
543.48	42314.55
543.64	42555.62
543.81	42478.38
543.98	43091.60
544.15	42506.47
544.32	42880.95
544.48	43454.39
544.65	42487.74
544.82	42651.58
544.99	42742.86
545.16	42485.40
545.32	42480.72
545.49	42880.95
545.66	43217.99
545.83	42698.39
546.00	42476.04
546.16	42763.93
546.33	42857.55
546.50	42447.96
546.67	42897.34
546.83	42440.93
547.00	42878.61
547.17	43178.20
547.34	42483.06
547.50	43051.81
547.67	42916.06
547.84	43072.88
548.00	43033.09
548.17	43463.75
548.34	43562.05
548.51	43690.78
548.67	44107.40
548.84	43564.39
549.01	43482.47
549.18	43264.80
549.34	43505.88
549.51	43344.38
549.68	43854.62
549.84	43695.46
550.01	43590.14
550.18	43721.21
550.34	43393.53
550.51	43306.93
550.68	43328.00
550.84	43192.25
551.01	43700.14
551.18	43765.68
551.34	43608.86
551.51	44217.40
551.68	44051.22
551.84	43798.44
552.01	43800.79
552.18	43714.19
552.34	44037.18
552.51	44051.22
552.68	43299.91
552.84	44102.71
553.01	44184.63
553.18	44107.40
553.34	44041.86
553.51	43945.90
553.67	44201.02
553.84	44128.46
554.01	44315.70
554.17	44519.33
554.34	44486.56
554.51	44669.12
554.67	44154.21
554.84	44989.78
555.00	44322.72
555.17	44671.46
555.33	44739.34
555.50	44397.62
555.67	44425.71
555.83	44477.20
556.00	44697.21
556.16	44722.96
556.33	44973.39
556.50	44388.26
556.66	44664.44
556.83	44641.04
556.99	44575.50
557.16	45158.30
557.32	44596.57
557.49	44680.83
557.65	44179.95
557.82	45067.02
557.98	44912.54
558.15	44512.31
558.32	44891.48
558.48	44989.78
558.65	44488.90
558.81	44678.49
558.98	44896.16
559.14	45076.38
559.31	44645.72
559.47	44804.88
559.64	45408.73
559.80	45001.48
559.97	44985.10
560.13	44418.69
560.30	44994.46
560.46	45202.77
560.63	45078.72
560.79	45146.59
560.96	45099.78
561.12	44987.44
561.29	45605.34
561.45	45001.48
561.61	45120.85
561.78	45209.79
561.94	44832.96
562.11	44577.84
562.27	45319.79
562.44	45090.42
562.60	45453.20
562.77	45249.58
562.93	45092.76
563.10	45282.34
563.26	44999.14
563.42	45275.32
563.59	45102.12
563.75	45289.37
563.92	45212.13
564.08	45865.14
564.24	45729.39
564.41	45441.50
564.57	45088.08
564.74	45050.63
564.90	45193.40
565.07	45198.09
565.23	45382.99
565.39	45155.96
565.56	45275.32
565.72	45151.27
565.88	45455.54
566.05	45144.25
566.21	45141.91
566.38	44891.48
566.54	45478.95
566.70	45778.54
566.87	45586.61
567.03	45666.19
567.19	46036.00
567.36	45607.68
567.52	45614.70
567.68	45743.43
567.85	45268.30
568.01	45752.79
568.17	45815.99
568.34	45361.92
568.50	45612.36
568.66	45340.86
568.83	45235.53
568.99	45265.96
569.15	45701.30
569.32	45268.30
569.48	45404.05
569.64	45858.12
569.81	45619.38
569.97	45631.08
570.13	45544.48
570.30	44957.01
570.46	45191.06
570.62	45088.08
570.78	44884.45
570.95	45305.75
571.11	45427.46
571.27	45696.62
571.43	45502.35
571.60	45834.71
571.76	45528.10
571.92	45347.88
572.09	45659.17
572.25	45928.33
572.41	45572.57
572.57	45820.67
572.74	46043.02
572.90	45532.78
573.06	45804.28
573.22	45558.53
573.38	45818.33
573.55	45507.04
573.71	45705.98
573.87	46057.06
574.03	45745.77
574.20	45675.55
574.36	45853.44
574.52	45792.58
574.68	45720.02
574.84	45748.11
575.01	45876.84
575.17	45574.91
575.33	45219.15
575.49	45614.70
575.65	45670.87
575.82	46110.89
575.98	45565.55
576.14	45930.67
576.30	46122.60
576.46	46000.89
576.62	45738.75
576.79	45698.96
576.95	45474.27
577.11	46131.96
577.27	45947.06
577.43	45640.45
577.59	45385.33
577.75	45724.71
577.92	45511.72
578.08	45205.11
578.24	45748.11
578.40	45680.24
578.56	45881.52
578.72	45720.02
578.88	45808.96
579.04	46007.91
579.21	45333.84
579.37	45427.46
579.53	45844.07
579.69	45586.61
579.85	45792.58
580.01	46031.32
580.17	45612.36
580.33	45975.14
580.49	45970.46
580.65	45923.65
580.82	46124.94
580.98	45769.18
581.14	45567.89
581.30	45757.47
581.46	45766.84
581.62	45528.10
581.78	45785.56
581.94	46389.42
582.10	45930.67
582.26	46347.29
582.42	45972.80
582.58	45940.04
582.74	45759.81
582.90	45837.05
583.06	45762.15
583.22	46124.94
583.38	46176.43
583.54	45661.51
583.70	45944.72
583.86	45710.66
584.02	45687.26
584.18	45977.48
584.34	45684.92
584.50	45680.24
584.66	45979.82
584.82	45649.81
584.98	46120.26
585.14	46005.57
585.30	45942.38
585.46	45757.47
585.62	45804.28
585.78	45848.75
585.94	45963.44
586.10	45647.47
586.26	45462.57
586.42	46223.24
586.58	46108.55
586.74	45717.68
586.90	45792.58
587.06	45911.95
587.22	45986.85
587.38	45677.90
587.54	46003.23
587.70	45876.84
587.86	45982.16
588.02	46087.49
588.18	46342.61
588.34	45600.66
588.49	45247.24
588.65	45345.54
588.81	45490.65
588.97	45427.46
589.13	45488.31
589.29	45762.15
589.45	45258.94
589.61	45605.34
589.77	45895.56
589.93	46286.43
