SpectraSuite Data File
++++++++++++++++++++++++++++++++++++
Date: Fri Oct 25 10:48:07 EDT 2013
User: price-jones
Dark Spectrum Present: No
Reference Spectrum Present: No
Number of Sampled Component Spectra: 1
Spectrometers: USB2+H05261
Integration Time (usec): 100000 (USB2+H05261)
Spectra Averaged: 1 (USB2+H05261)
Boxcar Smoothing: 0 (USB2+H05261)
Correct for Electrical Dark: No (USB2+H05261)
Strobe/Lamp Enabled: No (USB2+H05261)
Correct for Detector Non-linearity: No (USB2+H05261)
Correct for Stray Light: No (USB2+H05261)
Number of Pixels in Processed Spectrum: 2048
>>>>>Begin Processed Spectral Data<<<<<
365.73	156.82
365.92	156.82
366.12	156.82
366.32	77.24
366.52	46.81
366.72	67.88
366.91	0.00
367.11	0.00
367.31	60.85
367.51	63.19
367.70	58.51
367.90	21.06
368.10	65.54
368.30	30.43
368.49	0.00
368.69	53.83
368.89	23.41
369.09	67.88
369.28	77.24
369.48	67.88
369.68	138.09
369.87	229.37
370.07	100.64
370.27	131.07
370.47	184.90
370.66	442.36
370.86	489.17
371.06	451.72
371.25	507.90
371.45	397.89
371.65	433.00
371.84	435.34
372.04	409.59
372.24	484.49
372.44	433.00
372.63	470.45
372.83	503.22
373.03	507.90
373.22	535.98
373.42	545.34
373.62	477.47
373.81	510.24
374.01	533.64
374.21	543.00
374.40	543.00
374.60	554.71
374.79	545.34
374.99	524.28
375.19	571.09
375.38	606.20
375.58	589.82
375.78	524.28
375.97	606.20
376.17	585.13
376.37	573.43
376.56	585.13
376.76	585.13
376.95	601.52
377.15	596.84
377.35	601.52
377.54	517.26
377.74	641.31
377.93	603.86
378.13	608.54
378.33	606.20
378.52	650.67
378.72	688.12
378.91	606.20
379.11	669.39
379.31	615.56
379.50	641.31
379.70	580.45
379.89	655.35
380.09	676.41
380.28	690.46
380.48	638.97
380.68	594.50
380.87	667.05
381.07	615.56
381.26	685.78
381.46	695.14
381.65	660.03
381.85	662.37
382.04	662.37
382.24	755.99
382.43	662.37
382.63	645.99
382.83	671.73
383.02	718.54
383.22	709.18
383.41	624.92
383.61	716.20
383.80	690.46
384.00	685.78
384.19	653.01
384.39	692.80
384.58	774.72
384.78	830.89
384.97	814.51
385.17	709.18
385.36	763.01
385.56	725.57
385.75	676.41
385.95	753.65
386.14	770.04
386.34	891.74
386.53	875.36
386.72	812.17
386.92	748.97
387.11	772.38
387.31	849.61
387.50	753.65
387.70	809.83
387.89	854.30
388.09	894.08
388.28	833.23
388.48	739.61
388.67	940.90
388.86	847.27
389.06	889.40
389.25	835.57
389.45	922.17
389.64	849.61
389.84	908.13
390.03	919.83
390.22	903.45
390.42	903.45
390.61	933.87
390.81	842.59
391.00	954.94
391.19	976.00
391.39	1029.84
391.58	973.66
391.78	1111.75
391.97	959.62
392.16	898.77
392.36	1050.90
392.55	976.00
392.75	931.53
392.94	884.72
393.13	978.34
393.33	1071.97
393.52	980.68
393.71	1034.52
393.91	1083.67
394.10	1015.79
394.29	1069.62
394.49	1093.03
394.68	1043.88
394.88	1125.80
395.07	1086.01
395.26	1149.20
395.46	1086.01
395.65	1130.48
395.84	1172.61
396.04	1252.19
396.23	1107.07
396.42	1053.24
396.62	1137.50
396.81	1114.10
397.00	1172.61
397.19	1193.67
397.39	1137.50
397.58	1217.08
397.77	1273.25
397.97	1317.72
398.16	1188.99
398.35	1226.44
398.55	1240.48
398.74	1275.59
398.93	1338.79
399.12	1313.04
399.32	1345.81
399.51	1373.89
399.70	1380.92
399.90	1327.08
400.09	1455.81
400.28	1355.17
400.47	1336.45
400.67	1401.98
400.86	1425.39
401.05	1509.65
401.24	1547.09
401.44	1455.81
401.63	1526.03
401.82	1479.22
402.01	1479.22
402.21	1507.30
402.40	1570.50
402.59	1502.62
402.78	1394.96
402.97	1423.05
403.17	1542.41
403.36	1535.39
403.55	1624.33
403.74	1614.97
403.93	1626.67
404.13	1540.07
404.32	1551.78
404.51	1631.35
404.70	1692.21
404.89	1600.93
405.09	1696.89
405.28	1678.16
405.47	1755.40
405.66	1727.32
405.85	1715.61
406.05	1743.70
406.24	1680.50
406.43	1802.21
406.62	1792.85
406.81	1769.44
407.00	1902.86
407.20	1675.82
407.39	1802.21
407.58	1902.86
407.77	1865.41
407.96	1912.22
408.15	1919.24
408.34	1818.60
408.54	2040.95
408.73	1947.33
408.92	2040.95
409.11	1970.73
409.30	1942.64
409.49	1984.77
409.68	1942.64
409.87	1980.09
410.07	2099.46
410.26	2054.99
410.45	2099.46
410.64	2113.50
410.83	2064.35
411.02	2090.10
411.21	2186.06
411.40	2087.76
411.59	2258.62
411.78	2162.66
411.98	2246.91
412.17	2232.87
412.36	2373.30
412.55	2314.79
412.74	2392.03
412.93	2445.86
413.12	2375.64
413.31	2406.07
413.50	2434.16
413.69	2445.86
413.88	2637.78
414.07	2450.54
414.26	2572.25
414.45	2635.44
414.64	2665.87
414.83	2658.85
415.02	2626.08
415.22	2715.02
415.41	2733.75
415.60	2616.72
415.79	2745.45
415.98	2841.41
416.17	2855.45
416.36	2813.32
416.55	2878.86
416.74	2867.16
416.93	2867.16
417.12	2906.95
417.31	2904.60
417.50	2986.52
417.69	3105.89
417.88	3087.17
418.07	2967.80
418.26	3084.83
418.45	3150.36
418.64	3070.78
418.83	3082.49
419.02	3152.70
419.21	3040.36
419.39	3159.72
419.58	3197.17
419.77	3089.51
419.96	3286.11
420.15	3253.34
420.34	3159.72
420.53	3246.32
420.72	3190.15
420.91	3323.56
421.10	3403.14
421.29	3274.41
421.48	3218.24
421.67	3283.77
421.86	3178.45
422.05	3396.12
422.24	3365.69
422.43	3304.84
422.61	3438.25
422.80	3588.04
422.99	3543.57
423.18	3410.16
423.37	3513.14
423.56	3342.28
423.75	3471.01
423.94	3349.31
424.13	3225.26
424.32	3297.81
424.50	3566.98
424.69	3442.93
424.88	3428.88
425.07	3520.17
425.26	3541.23
425.45	3346.97
425.64	3513.14
425.83	3576.34
426.01	3566.98
426.20	3564.64
426.39	3503.78
426.58	3454.63
426.77	3555.27
426.96	3426.54
427.15	3452.29
427.33	3613.79
427.52	3536.55
427.71	3557.61
427.90	3653.58
428.09	3611.45
428.28	3620.81
428.46	3803.37
428.65	3721.45
428.84	3915.72
429.03	3801.03
429.22	3719.11
429.40	3779.97
429.59	3700.39
429.78	3655.92
429.97	3653.58
430.16	3698.05
430.34	3726.13
430.53	3896.99
430.72	3798.69
430.91	3845.50
431.10	3894.65
431.28	4023.38
431.47	4046.79
431.66	4109.98
431.85	4049.13
432.03	4219.99
432.22	4355.74
432.41	4053.81
432.60	4142.75
432.79	4018.70
432.97	4072.53
433.16	4107.64
433.35	4124.02
433.54	4198.92
433.72	4271.48
433.91	4215.30
434.10	4217.65
434.28	4290.20
434.47	4383.82
434.66	4341.69
434.85	4299.56
435.03	4400.21
435.22	4327.65
435.41	4461.06
435.59	4311.27
435.78	4554.68
435.97	4510.21
436.16	4540.64
436.34	4557.02
436.53	4528.94
436.72	4489.15
436.90	4601.49
437.09	4524.26
437.28	4421.27
437.46	4566.39
437.65	4512.55
437.84	4674.05
438.02	4603.83
438.21	4622.56
438.40	4603.83
438.58	4770.01
438.77	4751.29
438.96	4601.49
439.14	4912.78
439.33	4943.21
439.52	4936.19
439.70	4947.89
439.89	4945.55
440.08	5081.30
440.26	5181.95
440.45	5034.49
440.63	5107.05
440.82	5102.37
441.01	5128.11
441.19	5392.59
441.38	5359.83
441.57	5441.75
441.75	5472.17
441.94	5636.01
442.12	5359.83
442.31	5586.86
442.50	5380.89
442.68	5509.62
442.87	5441.75
443.05	5675.80
443.24	5757.72
443.43	5582.18
443.61	5717.93
443.80	5839.64
443.98	5540.05
444.17	5378.55
444.35	5654.73
444.54	5652.39
444.73	5818.57
444.91	5678.14
445.10	5785.80
445.28	5834.96
445.47	5547.07
445.65	5720.27
445.84	5767.08
446.02	5867.72
446.21	5799.85
446.39	5731.97
446.58	5886.45
446.77	5914.53
446.95	5636.01
447.14	5912.19
447.32	6031.56
447.51	5907.51
447.69	5755.38
447.88	5797.51
448.06	5923.90
448.25	6071.35
448.43	5944.96
448.62	5809.21
448.80	5907.51
448.99	6148.59
449.17	5959.00
449.36	5954.32
449.54	5916.87
449.73	6118.16
449.91	6314.77
450.10	6136.88
450.28	6328.81
450.46	6050.28
450.65	6345.19
450.83	6326.47
451.02	6242.21
451.20	6417.75
451.39	6338.17
451.57	6211.78
451.76	6258.59
451.94	6424.77
452.13	6438.81
452.31	6193.06
452.49	6267.95
452.68	6338.17
452.86	6483.28
453.05	6548.82
453.23	6593.29
453.42	6497.33
453.60	6370.94
453.78	6567.54
453.97	6562.86
454.15	6492.65
454.34	6462.22
454.52	6782.87
454.70	6698.61
454.89	6703.29
455.07	6726.70
455.26	6822.66
455.44	6825.00
455.62	6642.44
455.81	6778.19
455.99	6970.12
456.17	6736.06
456.36	6946.71
456.54	7000.54
456.73	6979.48
456.91	7066.08
457.09	7101.19
457.28	7286.09
457.46	7037.99
457.64	7192.47
457.83	7185.44
458.01	7143.32
458.19	7199.49
458.38	7267.36
458.56	7342.26
458.74	7201.83
458.93	7344.60
459.11	7456.95
459.29	7463.97
459.48	7258.00
459.66	7375.03
459.84	7325.88
460.03	7461.63
460.21	7463.97
460.39	7515.46
460.57	7573.97
460.76	7431.20
460.94	7557.59
461.12	7662.91
461.31	7573.97
461.49	7679.30
461.67	7534.18
461.85	7873.56
462.04	7606.74
462.22	8280.82
462.40	8002.29
462.59	7932.08
462.77	7840.79
462.95	7936.76
463.13	7894.63
463.32	7864.20
463.50	7953.14
463.68	7859.52
463.86	8065.49
464.05	7845.48
464.23	8175.49
464.41	7981.23
464.59	7786.96
464.78	8046.76
464.96	8116.98
465.14	8021.02
465.32	8084.21
465.50	8196.56
465.69	8152.09
465.87	8114.64
466.05	8276.13
466.23	8241.03
466.41	8121.66
466.60	8437.63
466.78	8133.36
466.96	8245.71
467.14	8285.50
467.32	8304.22
467.51	8379.12
467.69	8290.18
467.87	8294.86
468.05	8297.20
468.23	8444.65
468.41	8271.45
468.60	8299.54
468.78	8451.67
468.96	8617.85
469.14	8437.63
469.32	8809.78
469.50	8306.56
469.69	8608.49
469.87	8847.22
470.05	8784.03
470.23	8856.59
470.41	8863.61
470.59	8821.48
470.77	8779.35
470.95	8945.53
471.14	9011.06
471.32	8849.57
471.50	9217.03
471.68	9167.88
471.86	9043.83
472.04	8950.21
472.22	9507.26
472.40	9252.14
472.58	9249.80
472.77	9488.53
472.95	9296.61
473.13	9687.48
473.31	9516.62
473.49	9378.53
473.67	9516.62
473.85	9525.98
474.03	9776.42
474.21	9863.02
474.39	9788.12
474.57	9685.14
474.75	9989.41
474.93	9966.00
475.12	9809.19
475.30	9975.36
475.48	9973.02
475.66	10026.86
475.84	10122.82
476.02	10396.66
476.20	10321.76
476.38	10565.18
476.56	10555.82
476.74	10534.75
476.92	10422.41
477.10	10604.97
477.28	10860.09
477.46	10757.10
477.64	11103.50
477.82	11159.67
478.00	11384.37
478.18	11297.77
478.36	11169.04
478.54	11405.43
478.72	11283.72
478.90	11606.72
479.08	11536.50
479.26	11658.21
479.44	11751.83
479.62	11772.89
479.80	11845.45
479.98	11852.47
480.16	12105.25
480.34	12037.38
480.52	12271.43
480.70	12313.56
480.88	12074.82
481.06	12395.48
481.24	12327.60
481.41	12622.51
481.59	13074.23
481.77	12760.60
481.95	12954.87
482.13	12975.93
482.31	13041.46
482.49	12957.21
482.67	13195.94
482.85	13462.76
483.03	13528.30
483.21	13809.16
483.39	13774.05
483.57	13858.31
483.74	13886.40
483.92	14052.58
484.10	13933.21
484.28	14342.80
484.46	14525.36
484.64	14600.26
484.82	14410.68
485.00	14675.16
485.18	14834.32
485.35	14941.98
485.53	14799.21
485.71	14876.44
485.89	15220.50
486.07	15389.02
486.25	15161.99
486.43	15279.02
486.61	15365.62
486.78	15810.32
486.96	16091.18
487.14	16109.91
487.32	16159.06
487.50	16358.00
487.68	16266.72
487.85	16594.40
488.03	16695.04
488.21	16758.24
488.39	16563.97
488.57	16748.87
488.75	17308.26
488.92	17535.29
489.10	17673.39
489.28	17600.83
489.46	17530.61
489.64	17638.28
489.81	18115.75
489.99	18160.22
490.17	18373.21
490.35	18466.83
490.53	18368.52
490.70	18654.07
490.88	18614.28
491.06	19077.71
491.24	18855.36
491.41	18939.62
491.59	18913.87
491.77	19194.73
491.95	19309.42
492.13	19023.87
492.30	19346.87
492.48	19765.82
492.66	19625.39
492.84	19517.73
493.01	19843.06
493.19	19859.45
493.37	20107.54
493.54	20137.97
493.72	20409.47
493.90	20528.84
494.08	20666.93
494.25	20809.70
494.43	20732.47
494.61	21120.99
494.79	21081.21
494.96	21046.10
495.14	21305.90
495.32	21603.14
495.49	21525.91
495.67	21699.11
495.85	21844.22
496.02	21839.54
496.20	22052.53
496.38	22068.91
496.55	22141.47
496.73	22291.26
496.91	22672.77
497.09	22782.77
497.26	22668.09
497.44	22647.02
497.62	23119.81
497.79	23192.37
497.97	23030.87
498.14	23077.68
498.32	23311.74
498.50	23405.36
498.67	23550.47
498.85	23632.39
499.03	23843.04
499.20	23702.61
499.38	23726.01
499.56	23957.72
499.73	24098.16
499.91	24362.64
500.08	24292.42
500.26	24044.32
500.44	24357.96
500.61	24552.22
500.79	24320.51
500.97	24704.35
501.14	24964.15
501.32	25270.76
501.49	24964.15
501.67	24744.14
501.84	24938.41
502.02	25039.05
502.20	25287.15
502.37	25560.99
502.55	25392.47
502.72	25429.92
502.90	25614.82
503.07	25401.83
503.25	25621.84
503.43	25701.42
503.60	25802.07
503.78	25610.14
503.95	25869.94
504.13	25977.61
504.30	26274.85
504.48	26052.50
504.65	26565.08
504.83	26630.62
505.01	26675.09
505.18	26794.45
505.36	26859.99
505.53	26766.37
505.71	26698.49
505.88	27112.77
506.06	27044.89
506.23	27225.11
506.41	27180.64
506.58	27386.61
506.76	27606.62
506.93	27288.31
507.11	27288.31
507.28	27494.27
507.46	27529.38
507.63	27807.90
507.81	27578.53
507.98	27337.46
508.16	27934.29
508.33	27880.46
508.50	28147.28
508.68	28011.53
508.85	28102.81
509.03	28381.34
509.20	28830.72
509.38	28919.66
509.55	28659.86
509.73	29109.24
509.90	28673.90
510.08	28739.44
510.25	28552.20
510.42	29181.80
510.60	29188.82
510.77	29291.80
510.95	29488.41
511.12	29085.84
511.30	29661.61
511.47	29741.19
511.64	29495.43
511.82	29788.00
511.99	29223.93
512.17	29907.37
512.34	29729.48
512.51	30110.99
512.69	30071.20
512.86	29898.00
513.04	30518.25
513.21	30183.55
513.38	30155.46
513.56	30232.70
513.73	30452.71
513.90	30747.62
514.08	30277.17
514.25	31072.95
514.43	30569.74
514.60	30927.84
514.77	30508.88
514.95	30866.98
515.12	31262.54
515.29	30892.73
515.47	31283.60
515.64	31262.54
515.81	31026.14
515.99	31152.53
516.16	31417.01
516.33	31325.73
516.51	31398.29
516.68	31222.75
516.85	31283.60
517.03	31398.29
517.20	31868.73
517.37	31796.18
517.54	32023.21
517.72	32500.68
517.89	31899.16
518.06	32236.20
518.24	31578.51
518.41	31817.24
518.58	32039.59
518.75	32119.17
518.93	32500.68
519.10	32505.36
519.27	32643.45
519.45	32519.40
519.62	32491.32
519.79	32692.60
519.96	32772.18
520.14	33289.44
520.31	32692.60
520.48	33132.62
520.65	33141.99
520.83	33390.08
521.00	33420.51
521.17	33249.65
521.34	33282.42
521.52	33694.35
521.69	33289.44
521.86	33649.88
522.03	33879.25
522.20	33745.84
522.38	34052.45
522.55	33933.09
522.72	33687.33
522.89	33977.56
523.07	33912.02
523.24	33741.16
523.41	34057.14
523.58	34110.97
523.75	34408.22
523.92	34485.45
524.10	34700.78
524.27	35016.75
524.44	34724.19
524.61	34501.84
524.78	34763.98
524.96	34934.84
525.13	34838.87
525.30	34934.84
525.47	35110.38
525.64	35129.10
525.81	34995.69
525.98	34855.26
526.16	35117.40
526.33	35278.89
526.50	35456.78
526.67	35262.51
526.84	35028.46
527.01	35299.96
527.18	35793.81
527.36	35185.27
527.53	35875.73
527.70	35885.09
527.87	35927.22
528.04	35899.14
528.21	36053.61
528.38	35894.46
528.55	35969.35
528.72	35854.67
528.89	36116.81
529.07	36210.43
529.24	36058.29
529.41	36655.13
529.58	35995.10
529.75	35597.21
529.92	36175.32
530.09	36608.32
530.26	36821.31
530.43	36334.48
530.60	36531.08
530.77	36458.52
530.94	36802.58
531.11	36580.23
531.28	36655.13
531.46	36938.33
531.63	37116.22
531.80	36924.29
531.97	36821.31
532.14	37034.30
532.31	36856.42
532.48	37273.03
532.65	37303.46
532.82	37097.49
532.99	37359.63
533.16	37141.96
533.33	37397.08
533.50	37525.81
533.67	37551.56
533.84	37200.47
534.01	37610.07
534.18	37776.25
534.35	38010.30
534.52	37366.65
534.69	37926.04
534.86	37998.60
535.03	37340.91
535.20	38146.05
535.37	37935.40
535.54	38291.16
535.71	37743.48
535.88	38195.20
536.05	38092.22
536.22	38253.72
536.38	38349.68
536.55	38597.77
536.72	38298.19
536.89	38174.14
537.06	38197.54
537.23	38267.76
537.40	38349.68
537.57	38553.30
537.74	38759.27
537.91	38745.23
538.08	38300.53
538.25	38286.48
538.42	38604.80
538.59	38883.32
538.75	38841.19
538.92	38986.30
539.09	38586.07
539.26	38885.66
539.43	38953.54
539.60	38976.94
539.77	38902.04
539.94	38965.24
540.11	39103.33
540.28	39529.31
540.44	39108.01
540.61	39098.65
540.78	38878.64
540.95	39241.42
541.12	38986.30
541.29	39311.64
541.46	39222.70
541.62	39393.56
541.79	39749.32
541.96	39473.13
542.13	39313.98
542.30	39152.48
542.47	39894.43
542.63	39634.63
542.80	39962.31
542.97	39856.98
543.14	40369.56
543.31	40325.09
543.48	40201.04
543.64	40823.62
543.81	40266.58
543.98	40224.45
544.15	40163.59
544.32	40463.18
544.48	40631.70
544.65	40191.68
544.82	40620.00
544.99	39959.97
545.16	40334.45
545.32	40446.80
545.49	40720.64
545.66	40912.56
545.83	40568.51
546.00	40980.44
546.16	40730.00
546.33	40851.71
546.50	40641.06
546.67	40690.21
546.83	40402.33
547.00	40893.84
547.17	40697.24
547.34	40664.47
547.50	40842.35
547.67	41034.27
547.84	41127.89
548.00	41303.43
548.17	41296.41
548.34	40912.56
548.51	41102.15
548.67	41469.61
548.84	41808.99
549.01	41263.64
549.18	41626.43
549.34	41553.87
549.51	41392.37
549.68	41581.96
549.84	41661.54
550.01	41221.52
550.18	41434.50
550.34	41584.30
550.51	41876.86
550.68	41581.96
550.84	41556.21
551.01	42129.64
551.18	41816.01
551.34	41827.71
551.51	41708.35
551.68	41841.76
551.84	42000.91
552.01	42031.34
552.18	41596.00
552.34	41965.81
552.51	42234.97
552.68	42094.53
552.84	42260.71
553.01	42258.37
553.18	42459.66
553.34	42155.39
553.51	42438.59
553.67	42265.39
553.84	42721.80
554.01	42412.85
554.17	42279.44
554.34	42520.51
554.51	42410.51
554.67	41989.21
554.84	42167.09
555.00	42131.98
555.17	42515.83
555.33	42490.09
555.50	42270.08
555.67	42279.44
555.83	42983.94
556.00	42555.62
556.16	43042.45
556.33	42515.83
556.50	42869.25
556.66	42768.61
556.83	42543.92
556.99	43232.04
557.16	43110.33
557.32	42567.32
557.49	42976.92
557.65	42293.48
557.82	42913.72
557.98	42958.19
558.15	43166.50
558.32	42588.39
558.48	43047.13
558.65	42969.90
558.81	42887.98
558.98	42986.28
559.14	43136.07
559.31	42981.60
559.47	42981.60
559.64	43047.13
559.80	43344.38
559.97	42916.06
560.13	42564.98
560.30	42824.78
560.46	43082.24
560.63	43222.67
560.79	43234.38
560.96	43110.33
561.12	43515.24
561.29	43313.95
561.45	43269.48
561.61	42974.58
561.78	43117.35
561.94	42899.68
562.11	43576.09
562.27	43246.08
562.44	43351.40
562.60	43903.77
562.77	43650.99
562.93	43452.05
563.10	43386.51
563.26	43452.05
563.42	43295.23
563.59	43306.93
563.75	43718.87
563.92	43800.79
564.08	44142.50
564.24	43770.36
564.41	43515.24
564.57	43246.08
564.74	43789.08
564.90	43856.96
565.07	43667.37
565.23	43711.84
565.39	43761.00
565.56	44100.37
565.72	43798.44
565.88	44046.54
566.05	43648.65
566.21	44301.66
566.38	43405.23
566.54	43318.64
566.70	43997.39
566.87	44098.03
567.03	43732.91
567.19	44245.49
567.36	44067.61
567.52	43894.41
567.68	43667.37
567.85	44076.97
568.01	43962.28
568.17	43646.31
568.34	43938.88
568.50	43920.15
568.66	43866.32
568.83	43889.73
568.99	43737.59
569.15	43927.17
569.32	44268.89
569.48	43697.80
569.64	44287.62
569.81	44226.76
569.97	44107.40
570.13	43665.03
570.30	43786.74
570.46	43863.98
570.62	43648.65
570.78	43796.10
570.95	43955.26
571.11	44189.31
571.27	44282.94
571.43	43966.96
571.60	43973.98
571.76	44147.18
571.92	44231.44
572.09	43969.30
572.25	44081.65
572.41	43976.33
572.57	43859.30
572.74	44659.76
572.90	44549.76
573.06	44072.29
573.22	44514.65
573.38	44046.54
573.55	44217.40
573.71	44318.04
573.87	44484.22
574.03	43936.54
574.20	44140.16
574.36	44240.81
574.52	44285.28
574.68	44304.00
574.84	44289.96
575.01	44313.36
575.17	44507.63
575.33	44154.21
575.49	44179.95
575.65	44329.75
575.82	45024.89
575.98	44392.94
576.14	44786.15
576.30	44477.20
576.46	43922.49
576.62	44158.89
576.79	44346.13
576.95	44149.53
577.11	43955.26
577.27	44671.46
577.43	44367.20
577.59	44446.77
577.75	43882.70
577.92	44076.97
578.08	43849.94
578.24	43515.24
578.40	44458.48
578.56	44538.05
578.72	44634.02
578.88	44313.36
579.04	44442.09
579.21	44009.09
579.37	44332.09
579.53	44355.49
579.69	44236.12
579.85	44039.52
580.01	44526.35
580.17	44631.68
580.33	44744.02
580.49	44329.75
580.65	44484.22
580.82	44584.86
580.98	44261.87
581.14	44034.84
581.30	44594.23
581.46	44708.91
581.62	44706.57
581.78	44531.03
581.94	44793.17
582.10	44421.03
582.26	44800.19
582.42	44542.74
582.58	44552.10
582.74	44472.52
582.90	44619.97
583.06	44524.01
583.22	44746.36
583.38	44371.88
583.54	44072.29
583.70	44069.95
583.86	44435.07
584.02	44519.33
584.18	44322.72
584.34	44519.33
584.50	44411.67
584.66	44156.55
584.82	44629.34
584.98	44521.67
585.14	44458.48
585.30	44505.29
585.46	44488.90
585.62	44062.93
585.78	44662.10
585.94	44041.86
586.10	44531.03
586.26	44451.45
586.42	44823.60
586.58	44648.06
586.74	44521.67
586.90	44357.83
587.06	44179.95
587.22	44364.85
587.38	44245.49
587.54	44842.32
587.70	44577.84
587.86	44727.64
588.02	44849.35
588.18	44619.97
588.34	44680.83
588.49	44425.71
588.65	44109.74
588.81	44215.06
588.97	44161.23
589.13	44357.83
589.29	44659.76
589.45	44432.73
589.61	44741.68
589.77	45022.54
589.93	44713.59
590.08	44755.72
590.24	44718.28
