SpectraSuite Data File
++++++++++++++++++++++++++++++++++++
Date: Fri Oct 25 11:26:06 EDT 2013
User: price-jones
Dark Spectrum Present: No
Reference Spectrum Present: No
Number of Sampled Component Spectra: 1
Spectrometers: USB2+H05261
Integration Time (usec): 100000 (USB2+H05261)
Spectra Averaged: 1 (USB2+H05261)
Boxcar Smoothing: 0 (USB2+H05261)
Correct for Electrical Dark: No (USB2+H05261)
Strobe/Lamp Enabled: No (USB2+H05261)
Correct for Detector Non-linearity: No (USB2+H05261)
Correct for Stray Light: No (USB2+H05261)
Number of Pixels in Processed Spectrum: 2048
>>>>>Begin Processed Spectral Data<<<<<
365.73	278.52
365.92	278.52
366.12	278.52
366.32	49.15
366.52	81.92
366.72	159.16
366.91	105.32
367.11	102.98
367.31	124.05
367.51	163.84
367.70	187.24
367.90	100.64
368.10	74.90
368.30	217.67
368.49	74.90
368.69	175.54
368.89	180.22
369.09	175.54
369.28	168.52
369.48	203.63
369.68	154.48
369.87	175.54
370.07	257.46
370.27	285.55
370.47	297.25
370.66	629.60
370.86	636.63
371.06	669.39
371.25	739.61
371.45	641.31
371.65	777.06
371.84	660.03
372.04	650.67
372.24	683.44
372.44	688.12
372.63	720.88
372.83	734.93
373.03	807.48
373.22	788.76
373.42	678.76
373.62	798.12
373.81	844.93
374.01	704.50
374.21	835.57
374.40	844.93
374.60	767.70
374.79	798.12
374.99	802.80
375.19	777.06
375.38	856.64
375.58	837.91
375.78	842.59
375.97	807.48
376.17	936.21
376.37	854.30
376.56	882.38
376.76	847.27
376.95	889.40
377.15	835.57
377.35	833.23
377.54	898.77
377.74	903.45
377.93	891.74
378.13	884.72
378.33	1015.79
378.52	917.49
378.72	997.07
378.91	929.19
379.11	997.07
379.31	905.79
379.50	1008.77
379.70	987.71
379.89	971.32
380.09	954.94
380.28	1025.15
380.48	1034.52
380.68	1015.79
380.87	954.94
381.07	1001.75
381.26	908.13
381.46	976.00
381.65	1015.79
381.85	1060.26
382.04	1008.77
382.24	1142.18
382.43	1090.69
382.63	1025.15
382.83	1032.18
383.02	1083.67
383.22	1128.14
383.41	992.39
383.61	1071.97
383.80	1114.10
384.00	1086.01
384.19	1090.69
384.39	1163.25
384.58	1142.18
384.78	1188.99
384.97	1212.40
385.17	1128.14
385.36	1130.48
385.56	1233.46
385.75	1114.10
385.95	1231.12
386.14	1205.38
386.34	1221.76
386.53	1249.85
386.72	1233.46
386.92	1179.63
387.11	1188.99
387.31	1249.85
387.50	1242.82
387.70	1249.85
387.89	1306.02
388.09	1299.00
388.28	1334.11
388.48	1282.61
388.67	1345.81
388.86	1343.47
389.06	1378.58
389.25	1294.32
389.45	1352.83
389.64	1226.44
389.84	1357.51
390.03	1455.81
390.22	1383.26
390.42	1401.98
390.61	1399.64
390.81	1343.47
391.00	1423.05
391.19	1483.90
391.39	1404.32
391.58	1467.52
391.78	1416.02
391.97	1493.26
392.16	1420.71
392.36	1561.14
392.55	1565.82
392.75	1488.58
392.94	1378.58
393.13	1570.50
393.33	1537.73
393.52	1629.01
393.71	1549.43
393.91	1650.08
394.10	1486.24
394.29	1715.61
394.49	1624.33
394.68	1708.59
394.88	1614.97
395.07	1619.65
395.26	1577.52
395.46	1636.03
395.65	1692.21
395.84	1753.06
396.04	1776.47
396.23	1678.16
396.42	1827.96
396.62	1762.42
396.81	1771.79
397.00	1687.53
397.19	1813.92
397.39	1863.07
397.58	1825.62
397.77	1844.34
397.97	1902.86
398.16	1748.38
398.35	1916.90
398.55	1774.13
398.74	1849.02
398.93	1949.67
399.12	1870.09
399.32	1907.54
399.51	1980.09
399.70	2019.88
399.90	2071.37
400.09	2005.84
400.28	2057.33
400.47	1966.05
400.67	2066.69
400.86	2181.38
401.05	2010.52
401.24	2069.03
401.44	2188.40
401.63	2073.71
401.82	2157.97
402.01	2209.47
402.21	2148.61
402.40	2193.08
402.59	2139.25
402.78	2249.25
402.97	2162.66
403.17	2136.91
403.36	2249.25
403.55	2298.41
403.74	2392.03
403.93	2249.25
404.13	2296.07
404.32	2377.98
404.51	2272.66
404.70	2389.69
404.89	2356.92
405.09	2394.37
405.28	2534.80
405.47	2413.09
405.66	2509.05
405.85	2523.10
406.05	2530.12
406.24	2509.05
406.43	2546.50
406.62	2576.93
406.81	2635.44
407.00	2581.61
407.20	2429.48
407.39	2633.10
407.58	2644.81
407.77	2731.41
407.96	2689.28
408.15	2698.64
408.34	2717.36
408.54	2857.79
408.73	2754.81
408.92	2775.88
409.11	2874.18
409.30	2895.24
409.49	2829.71
409.68	2906.95
409.87	2939.71
410.07	2977.16
410.26	2939.71
410.45	2923.33
410.64	3070.78
410.83	3040.36
411.02	3112.91
411.21	3131.64
411.40	3117.59
411.59	3286.11
411.78	3171.43
411.98	3192.49
412.17	3300.16
412.36	3206.53
412.55	3363.35
412.74	3318.88
412.93	3379.73
413.12	3442.93
413.31	3569.32
413.50	3377.39
413.69	3384.41
413.88	3517.83
414.07	3513.14
414.26	3632.51
414.45	3733.15
414.64	3630.17
414.83	3859.54
415.02	3775.28
415.22	3777.62
415.41	3908.69
415.60	4018.70
415.79	3920.40
415.98	3857.20
416.17	3934.44
416.36	4039.76
416.55	3962.53
416.74	4032.74
416.93	4021.04
417.12	4124.02
417.31	4304.25
417.50	4133.39
417.69	4327.65
417.88	4301.90
418.07	4276.16
418.26	4278.50
418.45	4212.96
418.64	4402.55
418.83	4390.84
419.02	4360.42
419.21	4512.55
419.39	4578.09
419.58	4517.23
419.77	4393.19
419.96	4535.96
420.15	4589.79
420.34	4519.57
420.53	4629.58
420.72	4655.33
420.91	4622.56
421.10	4788.74
421.29	4863.63
421.48	4674.05
421.67	4751.29
421.86	4805.12
422.05	4779.37
422.24	4741.93
422.43	4851.93
422.61	4975.98
422.80	4999.38
422.99	4910.44
423.18	5013.43
423.37	4936.19
423.56	5032.15
423.75	4835.55
423.94	4865.97
424.13	4711.50
424.32	4770.01
424.50	4917.47
424.69	5081.30
424.88	4964.28
425.07	4957.25
425.26	4837.89
425.45	4964.28
425.64	4849.59
425.83	4910.44
426.01	5095.35
426.20	5158.54
426.39	5174.92
426.58	5025.13
426.77	4929.17
426.96	5156.20
427.15	5128.11
427.33	5240.46
427.52	5069.60
427.71	5221.74
427.90	5158.54
428.09	5266.21
428.28	5528.35
428.46	5320.04
428.65	5369.19
428.84	5425.36
429.03	5282.59
429.22	5179.61
429.40	5437.06
429.59	5434.72
429.78	5282.59
429.97	5296.63
430.16	5444.09
430.34	5572.82
430.53	5586.86
430.72	5760.06
430.91	5694.52
431.10	5645.37
431.28	5666.44
431.47	5767.08
431.66	5769.42
431.85	5694.52
432.03	5884.11
432.22	6069.01
432.41	5797.51
432.60	5935.60
432.79	5928.58
432.97	5776.44
433.16	5872.40
433.35	5886.45
433.54	6111.14
433.72	5989.43
433.91	5926.24
434.10	6120.50
434.28	6258.59
434.47	6183.70
434.66	6242.21
434.85	6232.85
435.03	6298.38
435.22	6359.24
435.41	6352.21
435.59	6370.94
435.78	6511.37
435.97	6513.71
436.16	6307.74
436.34	6342.85
436.53	6520.73
436.72	6710.32
436.90	6345.19
437.09	6443.49
437.28	6478.60
437.46	6607.33
437.65	6555.84
437.84	6780.53
438.02	6672.87
438.21	6649.46
438.40	6729.04
438.58	6864.79
438.77	7019.27
438.96	6956.07
439.14	7236.94
439.33	6984.16
439.52	7138.63
439.70	7143.32
439.89	7372.69
440.08	7328.22
440.26	7351.62
440.45	7265.02
440.63	7520.14
440.82	7646.53
441.01	7405.46
441.19	7688.66
441.38	7658.23
441.57	7527.16
441.75	7777.60
441.94	8011.65
442.12	7882.92
442.31	8131.02
442.50	7852.50
442.68	7831.43
442.87	8142.72
443.05	7911.01
443.24	8194.22
443.43	8184.85
443.61	8339.33
443.80	8421.25
443.98	8102.93
444.17	7705.04
444.35	8353.37
444.54	8278.47
444.73	8217.62
444.91	8126.34
445.10	8322.94
445.28	8351.03
445.47	8159.11
445.65	8320.60
445.84	8416.57
446.02	8131.02
446.21	8437.63
446.39	8421.25
446.58	8542.96
446.77	8287.84
446.95	8212.94
447.14	8496.14
447.32	8641.26
447.51	8479.76
447.69	8369.76
447.88	8624.87
448.06	8512.53
448.25	8477.42
448.43	8599.13
448.62	8697.43
448.80	8585.08
448.99	8573.38
449.17	8798.07
449.36	8594.45
449.54	8741.90
449.73	8798.07
449.91	9109.36
450.10	8992.34
450.28	8887.01
450.46	9095.32
450.65	8891.70
450.83	8844.88
451.02	8959.57
451.20	9167.88
451.39	9165.54
451.57	8943.19
451.76	9050.85
451.94	9060.21
452.13	9336.40
452.31	9275.54
452.49	9235.75
452.68	9458.10
452.86	9179.58
453.05	9329.38
453.23	9610.24
453.42	9343.42
453.60	9511.94
453.78	9376.19
453.97	9331.72
454.15	9488.53
454.34	9376.19
454.52	9682.80
454.70	9703.86
454.89	9685.14
455.07	9743.65
455.26	9865.36
455.44	9900.47
455.62	9909.83
455.81	9694.50
455.99	9947.28
456.17	9909.83
456.36	10036.22
456.54	10024.51
456.73	10443.47
456.91	10462.19
457.09	10513.69
457.28	10668.16
457.46	10375.59
457.64	10417.72
457.83	10359.21
458.01	10148.56
458.19	10466.88
458.38	10595.61
458.56	10778.17
458.74	10611.99
458.93	10857.75
459.11	10565.18
459.29	10752.42
459.48	10780.51
459.66	10593.26
459.84	10942.00
460.03	10977.11
460.21	10920.94
460.39	10930.30
460.57	11073.07
460.76	11080.10
460.94	11274.36
461.12	11330.53
461.31	11115.20
461.49	11197.12
461.67	11164.36
461.85	11403.09
462.04	11335.21
462.22	11833.75
462.40	11625.44
462.59	11447.56
462.77	11435.86
462.95	11599.70
463.13	11683.95
463.32	11433.52
463.50	11700.34
463.68	11936.73
463.86	11716.72
464.05	11885.24
464.23	11655.87
464.41	11910.99
464.59	11477.99
464.78	11992.90
464.96	11747.15
465.14	11918.01
465.32	11910.99
465.50	11969.50
465.69	12119.29
465.87	12250.36
466.05	12187.17
466.23	12035.03
466.41	12222.28
466.60	12236.32
466.78	12131.00
466.96	12334.62
467.14	12531.23
467.32	12362.71
467.51	12648.26
467.69	12269.09
467.87	12343.99
468.05	12688.04
468.23	12318.24
468.41	12390.80
468.60	12620.17
468.78	12669.32
468.96	12486.76
469.14	12844.86
469.32	13060.19
469.50	12510.16
469.69	13039.12
469.87	13029.76
470.05	13071.89
470.23	13062.53
470.41	12985.29
470.59	13064.87
470.77	13128.06
470.95	13270.84
471.14	13486.17
471.32	13034.44
471.50	13722.56
471.68	13554.04
471.86	13710.86
472.04	13764.69
472.22	13984.70
472.40	13612.56
472.58	13626.60
472.77	13816.18
472.95	14162.58
473.13	14478.55
473.31	14071.30
473.49	14270.25
473.67	14015.13
473.85	14239.82
474.03	14647.07
474.21	14401.32
474.39	14616.65
474.57	14506.64
474.75	15023.90
474.93	15035.60
475.12	14988.79
475.30	15276.68
475.48	15302.42
475.66	15073.05
475.84	14810.91
476.02	15211.14
476.20	15421.79
476.38	15829.04
476.56	15880.53
476.74	15786.91
476.92	15695.63
477.10	15810.32
477.28	16065.44
477.46	16313.53
477.64	16339.28
477.82	16652.91
478.00	16826.11
478.18	16816.75
478.36	16966.54
478.54	17013.35
478.72	17092.93
478.90	17439.33
479.08	17338.69
479.26	17336.35
479.44	17647.64
479.62	18171.92
479.80	18073.62
479.98	18160.22
480.16	18586.19
480.34	18279.58
480.52	18436.40
480.70	18462.15
480.88	18200.01
481.06	18679.82
481.24	18677.48
481.41	19194.73
481.59	19452.19
481.77	19379.64
481.95	19711.99
482.13	19506.02
482.31	19676.88
482.49	19983.49
482.67	19894.55
482.85	20107.54
483.03	20465.64
483.21	20765.23
483.39	20922.05
483.57	21099.93
483.74	20856.51
483.92	21387.82
484.10	21319.94
484.28	21656.98
484.46	21935.50
484.64	22567.45
484.82	21933.16
485.00	22043.17
485.18	22881.08
485.35	22768.73
485.53	22623.62
485.71	22909.16
485.89	23318.76
486.07	23548.13
486.25	23234.50
486.43	23538.77
486.61	24041.98
486.78	23805.59
486.96	24161.35
487.14	24421.15
487.32	24418.81
487.50	24823.72
487.68	24694.99
487.85	25111.61
488.03	25514.18
488.21	25940.16
488.39	25589.08
488.57	26312.30
488.75	25977.61
488.92	26190.59
489.10	26639.98
489.28	26927.86
489.46	26962.97
489.64	26859.99
489.81	27674.49
489.99	27669.81
490.17	27573.85
490.35	28182.39
490.53	27878.12
490.70	27906.21
490.88	28147.28
491.06	28641.14
491.24	28851.78
491.41	28882.21
491.59	29259.04
491.77	29312.87
491.95	29179.46
492.13	29649.91
492.30	29769.27
492.48	30066.52
492.66	29879.28
492.84	29947.15
493.01	30527.61
493.19	30543.99
493.37	30764.00
493.54	31040.18
493.72	31630.00
493.90	31234.45
494.08	31543.40
494.25	32252.58
494.43	31676.81
494.61	32278.33
494.79	32058.32
494.96	32570.90
495.14	32790.91
495.32	33081.13
495.49	33202.84
495.67	32994.53
495.85	33235.61
496.02	33640.52
496.20	33743.50
496.38	34017.35
496.55	34448.00
496.73	34560.35
496.91	34515.88
497.09	34981.65
497.26	34834.19
497.44	34820.15
497.62	34855.26
497.79	35859.35
497.97	35543.38
498.14	36135.53
498.32	35861.69
498.50	36135.53
498.67	36465.55
498.85	36484.27
499.03	36392.99
499.20	36884.50
499.38	36943.02
499.56	37429.85
499.73	36889.18
499.91	37329.20
500.08	37336.23
500.26	37060.04
500.44	37574.96
500.61	37642.84
500.79	37432.19
500.97	37778.59
501.14	38457.34
501.32	38471.39
501.49	38412.87
501.67	38476.07
501.84	38302.87
502.02	38710.12
502.20	39093.97
502.37	38899.70
502.55	39295.25
502.72	39311.64
502.90	39199.29
503.07	39632.29
503.25	39648.68
503.43	39718.89
503.60	39782.09
503.78	40194.02
503.95	40425.73
504.13	40182.32
504.30	40830.65
504.48	40587.23
504.65	40549.78
504.83	40701.92
505.01	41050.66
505.18	40973.42
505.36	41635.79
505.53	40938.31
505.71	41317.48
505.88	41586.64
506.06	41326.84
506.23	41855.80
506.41	41493.02
506.58	41968.15
506.76	41888.57
506.93	42206.88
507.11	42136.66
507.28	43002.66
507.46	42611.79
507.63	42660.94
507.81	43414.60
507.98	42843.51
508.16	42951.17
508.33	43278.85
508.50	43360.76
508.68	43449.70
508.85	43927.17
509.03	43512.90
509.20	43920.15
509.38	44673.81
509.55	44186.97
509.73	44732.32
509.90	44392.94
510.08	44390.60
510.25	44444.43
510.42	45064.67
510.60	44905.52
510.77	44931.26
510.95	45322.13
511.12	45275.32
511.30	45045.95
511.47	45511.72
511.64	45675.55
511.82	45633.42
511.99	45638.11
512.17	45720.02
512.34	46040.68
512.51	46504.10
512.69	46576.66
512.86	46134.30
513.04	46527.51
513.21	46314.52
513.38	46141.32
513.56	46522.83
513.73	46557.94
513.90	47093.92
514.08	46438.57
514.25	46995.62
514.43	47253.08
514.60	47145.41
514.77	47044.77
514.95	47604.16
515.12	47543.30
515.29	47580.75
515.47	47463.72
515.64	47913.11
515.81	47627.56
515.99	48271.21
516.16	48116.73
516.33	48282.91
516.51	48451.43
516.68	48072.26
516.85	48278.23
517.03	48769.74
517.20	48877.41
517.37	48715.91
517.54	48736.98
517.72	48795.49
517.89	48884.43
518.06	48882.09
518.24	49085.72
518.41	49020.18
518.58	49188.70
518.75	48837.62
518.93	49375.94
519.10	49298.70
519.27	49712.98
519.45	49851.07
519.62	50010.23
519.79	50234.92
519.96	49649.78
520.14	50192.79
520.31	50024.27
520.48	50220.87
520.65	49991.50
520.83	50550.89
521.00	50630.47
521.17	50703.03
521.34	50801.33
521.52	50625.79
521.69	51000.27
521.86	50941.76
522.03	50913.67
522.20	51068.15
522.38	51152.41
522.55	51370.08
522.72	51016.66
522.89	51215.60
523.07	51601.79
523.24	51571.36
523.41	51938.83
523.58	51250.71
523.75	51812.44
523.92	51360.72
524.10	51664.99
524.27	52074.58
524.44	51971.60
524.61	52329.70
524.78	52018.41
524.96	52179.90
525.13	52184.58
525.30	52465.45
525.47	52591.84
525.64	52280.55
525.81	52547.37
525.98	52722.91
526.16	52341.40
526.33	52610.56
526.50	52734.61
526.67	52488.85
526.84	52846.96
527.01	53066.97
527.18	52662.05
527.36	52795.46
527.53	52999.09
527.70	53132.50
527.87	53127.82
528.04	53425.07
528.21	53495.28
528.38	53532.73
528.55	53029.52
528.72	53289.32
528.89	53368.90
529.07	53476.56
529.24	53214.42
529.41	53661.46
529.58	53680.19
529.75	53670.82
529.92	53609.97
530.09	53773.81
530.26	54052.33
530.43	53801.89
530.60	53528.05
530.77	53694.23
530.94	54024.25
531.11	54014.88
531.28	53989.14
531.46	54167.02
531.63	54494.69
531.80	54080.42
531.97	54251.28
532.14	54391.71
532.31	54277.02
532.48	54471.29
532.65	54534.48
532.82	54494.69
532.99	54700.66
533.16	54363.62
533.33	54380.01
533.50	54770.88
533.67	54522.78
533.84	54466.61
534.01	54958.12
534.18	54607.04
534.35	55051.74
534.52	54951.10
534.69	55164.09
534.86	55400.48
535.03	54976.84
535.20	54997.91
535.37	55049.40
535.54	55510.49
535.71	55402.82
535.88	55531.55
536.05	55384.10
536.22	55564.32
536.38	55512.83
536.55	55367.71
536.72	55412.18
536.89	55267.07
537.06	55540.91
537.23	55686.03
537.40	55625.17
537.57	55639.22
537.74	55693.05
537.91	55941.14
538.08	55826.46
538.25	55634.53
538.42	55863.91
538.59	55938.80
538.75	55978.59
538.92	55840.50
539.09	55987.95
539.26	55863.91
539.43	55931.78
539.60	56151.79
539.77	56177.54
539.94	56420.95
540.11	56341.38
540.28	56355.42
540.44	56376.48
540.61	56236.05
540.78	56442.02
540.95	56392.87
541.12	56231.37
541.29	56680.75
541.46	56442.02
541.62	56683.09
541.79	56416.27
541.96	56561.39
542.13	56339.04
542.30	56467.76
542.47	56811.82
542.63	56896.08
542.80	56839.91
542.97	57123.11
543.14	57183.97
543.31	57095.03
543.48	57059.92
543.64	57464.83
543.81	57361.85
543.98	57111.41
544.15	57261.21
544.32	57436.75
544.48	57600.58
544.65	57223.76
544.82	57298.65
544.99	57069.28
545.16	57453.13
545.32	57174.61
545.49	57598.24
545.66	57635.69
545.83	57483.56
546.00	57708.25
546.16	57670.80
546.33	57490.58
546.50	57523.35
546.67	57539.73
546.83	57422.70
547.00	57411.00
547.17	57532.71
547.34	57726.97
547.50	57989.11
547.67	57836.98
547.84	57848.68
548.00	57923.58
548.17	58117.84
548.34	57958.69
548.51	58181.04
548.67	58162.31
548.84	58042.95
549.01	58190.40
549.18	58134.23
549.34	58227.85
549.51	58106.14
549.68	58230.19
549.84	58302.74
550.01	58295.72
550.18	58052.31
550.34	58365.94
550.51	58438.50
550.68	58227.85
550.84	58073.37
551.01	58335.51
551.18	58403.39
551.34	58447.86
551.51	58602.33
551.68	58489.99
551.84	58541.48
552.01	58199.76
552.18	58749.79
552.34	58515.73
552.51	58719.36
552.68	58436.16
552.84	58525.10
553.01	58834.05
553.18	58653.82
553.34	58653.82
553.51	58728.72
553.67	58700.64
553.84	59032.99
554.01	59009.59
554.17	58932.35
554.34	58873.84
554.51	58993.20
554.67	58836.39
554.84	58908.94
555.00	58784.90
555.17	59042.35
555.33	58976.82
555.50	58904.26
555.67	58894.90
555.83	58932.35
556.00	59002.56
556.16	59231.94
556.33	59117.25
556.50	59047.04
556.66	59489.40
556.83	59082.14
556.99	59407.48
557.16	59449.61
557.32	59348.96
557.49	59487.06
557.65	59093.85
557.82	59325.56
557.98	59290.45
558.15	59430.88
558.32	59442.59
558.48	59260.02
558.65	59524.50
558.81	59496.42
558.98	59508.12
559.14	59473.01
559.31	59510.46
559.47	59718.77
559.64	59547.91
559.80	59941.12
559.97	59852.18
560.13	59547.91
560.30	59709.41
560.46	59536.21
560.63	59646.21
560.79	59657.91
560.96	59681.32
561.12	59854.52
561.29	59929.42
561.45	59667.28
561.61	59838.14
561.78	59882.61
561.94	59568.97
562.11	59707.07
562.27	59758.56
562.44	59753.88
562.60	60168.15
562.77	59831.11
562.93	59868.56
563.10	60191.56
563.26	59779.62
563.42	59903.67
563.59	59805.37
563.75	59854.52
563.92	60009.00
564.08	59964.52
564.24	59992.61
564.41	60086.23
564.57	60081.55
564.74	60051.12
564.90	60086.23
565.07	59987.93
565.23	60254.75
565.39	60058.15
565.56	60027.72
565.72	60034.74
565.88	60053.47
566.05	59971.55
566.21	60149.43
566.38	60154.11
566.54	60025.38
566.70	60355.39
566.87	60303.90
567.03	60076.87
567.19	60179.85
567.36	60353.05
567.52	60416.25
567.68	60397.52
567.85	60364.76
568.01	60259.43
568.17	60207.94
568.34	60240.71
568.50	60221.98
568.66	60437.31
568.83	60523.91
568.99	60247.73
569.15	60184.54
569.32	60378.80
569.48	60156.45
569.64	60341.35
569.81	60467.74
569.97	60423.27
570.13	60423.27
570.30	60210.28
570.46	60362.42
570.62	60383.48
570.78	60346.03
570.95	60317.95
571.11	60582.43
571.27	60474.76
571.43	60374.12
571.60	60570.72
571.76	60547.32
571.92	60570.72
572.09	60554.34
572.25	60456.04
572.41	60519.23
572.57	60390.50
572.74	60743.92
572.90	60453.70
573.06	60598.81
573.22	60594.13
573.38	60692.43
573.55	60711.16
573.71	60725.20
573.87	60622.22
574.03	60509.87
574.20	60715.84
574.36	60392.84
574.52	60858.61
574.68	60683.07
574.84	60856.27
575.01	60757.97
575.17	60514.55
575.33	60603.49
575.49	60643.28
575.65	60530.93
575.82	60762.65
575.98	60512.21
576.14	60612.85
576.30	60816.48
576.46	60554.34
576.62	60643.28
576.79	60736.90
576.95	60463.06
577.11	60652.64
577.27	60858.61
577.43	60687.75
577.59	60666.69
577.75	60760.31
577.92	60589.45
578.08	60722.86
578.24	60832.86
578.40	60743.92
578.56	60975.64
578.72	60605.83
578.88	60877.33
579.04	60884.36
579.21	60708.82
579.37	60893.72
579.53	60987.34
579.69	60842.23
579.85	60732.22
580.01	60753.29
580.17	60835.20
580.33	60701.79
580.49	60886.70
580.65	60715.84
580.82	60797.76
580.98	60683.07
581.14	60580.09
581.30	60830.52
581.46	60802.44
581.62	60687.75
581.78	60772.01
581.94	60811.80
582.10	60907.76
582.26	60629.24
582.42	60772.01
582.58	60673.71
582.74	60701.79
582.90	60977.98
583.06	60877.33
583.22	60528.59
583.38	60919.46
583.54	60879.67
583.70	60992.02
583.86	60917.12
584.02	60802.44
584.18	61172.24
584.34	60989.68
584.50	61109.05
584.66	61013.08
584.82	60828.18
584.98	61298.63
585.14	60907.76
585.30	60718.18
585.46	60942.87
585.62	60952.23
585.78	61059.90
585.94	60741.58
586.10	60982.66
586.26	60800.10
586.42	61038.83
586.58	61111.39
586.74	61001.38
586.90	60795.42
587.06	60985.00
587.22	60860.95
587.38	61036.49
587.54	60837.54
587.70	61249.48
587.86	61048.19
588.02	60966.27
588.18	61048.19
588.34	61024.79
588.49	60917.12
