SpectraSuite Data File
++++++++++++++++++++++++++++++++++++
Date: Fri Oct 25 11:26:05 EDT 2013
User: price-jones
Dark Spectrum Present: No
Reference Spectrum Present: No
Number of Sampled Component Spectra: 1
Spectrometers: USB2+H05261
Integration Time (usec): 100000 (USB2+H05261)
Spectra Averaged: 1 (USB2+H05261)
Boxcar Smoothing: 0 (USB2+H05261)
Correct for Electrical Dark: No (USB2+H05261)
Strobe/Lamp Enabled: No (USB2+H05261)
Correct for Detector Non-linearity: No (USB2+H05261)
Correct for Stray Light: No (USB2+H05261)
Number of Pixels in Processed Spectrum: 2048
>>>>>Begin Processed Spectral Data<<<<<
365.73	271.50
365.92	271.50
366.12	271.50
366.32	175.54
366.52	159.16
366.72	184.90
366.91	189.58
367.11	166.18
367.31	102.98
367.51	124.05
367.70	133.41
367.90	88.94
368.10	79.58
368.30	91.28
368.49	117.03
368.69	166.18
368.89	201.29
369.09	220.01
369.28	154.48
369.48	154.48
369.68	210.65
369.87	229.37
370.07	189.58
370.27	334.70
370.47	318.31
370.66	521.94
370.86	580.45
371.06	685.78
371.25	713.86
371.45	690.46
371.65	809.83
371.84	641.31
372.04	716.20
372.24	718.54
372.44	671.73
372.63	720.88
372.83	828.55
373.03	641.31
373.22	713.86
373.42	788.76
373.62	732.59
373.81	760.67
374.01	896.43
374.21	858.98
374.40	758.33
374.60	819.19
374.79	858.98
374.99	854.30
375.19	837.91
375.38	837.91
375.58	875.36
375.78	851.96
375.97	882.38
376.17	805.14
376.37	882.38
376.56	894.08
376.76	887.06
376.95	821.53
377.15	915.15
377.35	905.79
377.54	901.11
377.74	929.19
377.93	933.87
378.13	1001.75
378.33	952.60
378.52	933.87
378.72	957.28
378.91	929.19
379.11	961.96
379.31	945.58
379.50	966.64
379.70	1043.88
379.89	959.62
380.09	1039.20
380.28	936.21
380.48	978.34
380.68	1001.75
380.87	997.07
381.07	1048.56
381.26	1006.43
381.46	1069.62
381.65	1123.46
381.85	1071.97
382.04	1055.58
382.24	1015.79
382.43	1104.73
382.63	999.41
382.83	1008.77
383.02	1088.35
383.22	1111.75
383.41	1100.05
383.61	1121.12
383.80	1142.18
384.00	1188.99
384.19	1118.78
384.39	1104.73
384.58	1142.18
384.78	1174.95
384.97	1160.91
385.17	1109.41
385.36	1219.42
385.56	1207.72
385.75	1179.63
385.95	1086.01
386.14	1165.59
386.34	1203.04
386.53	1233.46
386.72	1181.97
386.92	1210.06
387.11	1233.46
387.31	1284.95
387.50	1282.61
387.70	1167.93
387.89	1217.08
388.09	1226.44
388.28	1238.14
388.48	1275.59
388.67	1242.82
388.86	1350.49
389.06	1329.42
389.25	1458.15
389.45	1416.02
389.64	1362.19
389.84	1432.41
390.03	1392.62
390.22	1327.08
390.42	1317.72
390.61	1446.45
390.81	1310.70
391.00	1460.49
391.19	1453.47
391.39	1373.89
391.58	1392.62
391.78	1544.75
391.97	1441.77
392.16	1418.36
392.36	1626.67
392.55	1455.81
392.75	1589.22
392.94	1572.84
393.13	1556.46
393.33	1483.90
393.52	1558.80
393.71	1469.86
393.91	1643.06
394.10	1544.75
394.29	1626.67
394.49	1600.93
394.68	1598.59
394.88	1589.22
395.07	1739.02
395.26	1734.34
395.46	1619.65
395.65	1647.74
395.84	1739.02
396.04	1762.42
396.23	1715.61
396.42	1820.94
396.62	1734.34
396.81	1727.32
397.00	1764.76
397.19	1717.95
397.39	1757.74
397.58	1788.17
397.77	1825.62
397.97	1788.17
398.16	1891.15
398.35	1954.35
398.55	1816.26
398.74	1818.60
398.93	1930.94
399.12	1858.39
399.32	1893.49
399.51	1851.36
399.70	1937.96
399.90	1867.75
400.09	2012.86
400.28	2071.37
400.47	1973.07
400.67	1980.09
400.86	2059.67
401.05	2066.69
401.24	2024.56
401.44	2129.89
401.63	2263.30
401.82	2157.97
402.01	2097.12
402.21	2179.04
402.40	2078.40
402.59	2193.08
402.78	2174.36
402.97	2190.74
403.17	2340.54
403.36	2197.76
403.55	2246.91
403.74	2263.30
403.93	2352.24
404.13	2363.94
404.32	2401.39
404.51	2289.04
404.70	2396.71
404.89	2464.58
405.09	2541.82
405.28	2502.03
405.47	2525.44
405.66	2485.65
405.85	2558.21
406.05	2466.92
406.24	2525.44
406.43	2555.86
406.62	2633.10
406.81	2705.66
407.00	2579.27
407.20	2600.34
407.39	2476.29
407.58	2633.10
407.77	2661.19
407.96	2792.26
408.15	2738.43
408.34	2644.81
408.54	2724.38
408.73	2658.85
408.92	2686.94
409.11	2818.00
409.30	2890.56
409.49	2904.60
409.68	3049.72
409.87	2771.19
410.07	3026.31
410.26	3019.29
410.45	3016.95
410.64	2913.97
410.83	3145.68
411.02	3131.64
411.21	3234.62
411.40	3103.55
411.59	3330.58
411.78	3225.26
411.98	3169.09
412.17	3286.11
412.36	3246.32
412.55	3356.33
412.74	3325.90
412.93	3342.28
413.12	3309.52
413.31	3606.77
413.50	3480.38
413.69	3480.38
413.88	3597.40
414.07	3637.19
414.26	3627.83
414.45	3602.08
414.64	3691.02
414.83	3702.73
415.02	3765.92
415.22	3831.46
415.41	3777.62
415.60	3866.56
415.79	3978.91
415.98	3922.74
416.17	4021.04
416.36	3969.55
416.55	4058.49
416.74	3999.98
416.93	4002.32
417.12	4124.02
417.31	4088.92
417.50	4152.11
417.69	4266.80
417.88	4257.43
418.07	4318.29
418.26	4262.12
418.45	4299.56
418.64	4535.96
418.83	4533.62
419.02	4390.84
419.21	4510.21
419.39	4617.88
419.58	4454.04
419.77	4365.10
419.96	4643.62
420.15	4470.42
420.34	4528.94
420.53	4557.02
420.72	4692.77
420.91	4589.79
421.10	4629.58
421.29	4770.01
421.48	4655.33
421.67	4702.14
421.86	4823.84
422.05	4636.60
422.24	4685.75
422.43	4809.80
422.61	4894.06
422.80	4959.60
422.99	4922.15
423.18	4947.89
423.37	5039.17
423.56	4947.89
423.75	4828.53
423.94	4744.27
424.13	4557.02
424.32	4830.87
424.50	4758.31
424.69	5029.81
424.88	5032.15
425.07	4961.94
425.26	4851.93
425.45	4975.98
425.64	4968.96
425.83	4938.53
426.01	5032.15
426.20	4968.96
426.39	5121.09
426.58	5034.49
426.77	4947.89
426.96	5064.92
427.15	5020.45
427.33	5022.79
427.52	5158.54
427.71	5247.48
427.90	5291.95
428.09	5277.91
428.28	5289.61
428.46	5373.87
428.65	5254.50
428.84	5561.11
429.03	5448.77
429.22	5350.46
429.40	5334.08
429.59	5528.35
429.78	5345.78
429.97	5233.44
430.16	5554.09
430.34	5692.18
430.53	5643.03
430.72	5547.07
430.91	5521.32
431.10	5362.17
431.28	5657.07
431.47	5746.02
431.66	5736.65
431.85	5746.02
432.03	5898.15
432.22	5963.68
432.41	5923.90
432.60	5877.09
432.79	5811.55
432.97	6029.22
433.16	6099.44
433.35	6050.28
433.54	6071.35
433.72	6045.60
433.91	6057.31
434.10	6050.28
434.28	6043.26
434.47	6132.20
434.66	6216.46
434.85	6183.70
435.03	6300.72
435.22	6193.06
435.41	6333.49
435.59	6368.60
435.78	6518.39
435.97	6377.96
436.16	6520.73
436.34	6394.34
436.53	6642.44
436.72	6541.80
436.90	6443.49
437.09	6574.56
437.28	6387.32
437.46	6642.44
437.65	6604.99
437.84	6820.32
438.02	6757.13
438.21	6729.04
438.40	6686.91
438.58	6991.18
438.77	6913.94
438.96	6906.92
439.14	6883.52
439.33	7063.74
439.52	7215.87
439.70	7272.04
439.89	7339.92
440.08	7227.57
440.26	7405.46
440.45	7267.36
440.63	7492.05
440.82	7440.56
441.01	7513.12
441.19	7368.01
441.38	7623.12
441.57	7665.25
441.75	7733.13
441.94	7889.95
442.12	8063.15
442.31	7960.16
442.50	7948.46
442.68	7829.09
442.87	7997.61
443.05	7990.59
443.24	7978.89
443.43	7971.86
443.61	8170.81
443.80	8280.82
443.98	8159.11
444.17	7611.42
444.35	8276.13
444.54	8222.30
444.73	8285.50
444.91	8250.39
445.10	8294.86
445.28	8526.57
445.47	8203.58
445.65	8182.51
445.84	8346.35
446.02	8456.36
446.21	8327.63
446.39	8402.52
446.58	8372.10
446.77	8496.14
446.95	8226.98
447.14	8238.69
447.32	8465.72
447.51	8374.44
447.69	8521.89
447.88	8439.97
448.06	8493.80
448.25	8456.36
448.43	8709.13
448.62	8505.51
448.80	8519.55
448.99	8636.58
449.17	8751.26
449.36	8610.83
449.54	8903.40
449.73	8919.78
449.91	9008.72
450.10	8833.18
450.28	9092.98
450.46	9104.68
450.65	9001.70
450.83	9210.01
451.02	8975.95
451.20	9144.47
451.39	9097.66
451.57	9268.52
451.76	8929.14
451.94	9111.71
452.13	9242.78
452.31	9104.68
452.49	9195.96
452.68	9397.25
452.86	9249.80
453.05	9376.19
453.23	9362.14
453.42	9217.03
453.60	9186.60
453.78	9369.16
453.97	9355.12
454.15	9509.60
454.34	9563.43
454.52	9575.13
454.70	9724.93
454.89	9820.89
455.07	9748.33
455.26	9935.57
455.44	9820.89
455.62	9699.18
455.81	9877.06
455.99	9881.74
456.17	10005.79
456.36	10078.35
456.54	10052.60
456.73	10193.03
456.91	10319.42
457.09	10284.31
457.28	10265.59
457.46	10244.52
457.64	10658.80
457.83	10485.60
458.01	10431.77
458.19	10637.73
458.38	10600.29
458.56	10733.70
458.74	10640.08
458.93	10485.60
459.11	10630.71
459.29	10862.43
459.48	10506.66
459.66	10602.63
459.84	10942.00
460.03	11033.29
460.21	10902.22
460.39	11049.67
460.57	10953.71
460.76	11115.20
460.94	11026.26
461.12	11016.90
461.31	11227.55
461.49	11126.91
461.67	11140.95
461.85	11375.00
462.04	11159.67
462.22	11662.89
462.40	11403.09
462.59	11393.73
462.77	11735.45
462.95	11576.29
463.13	11548.20
463.32	11651.19
463.50	11634.80
463.68	11604.38
463.86	11810.34
464.05	11716.72
464.23	11695.66
464.41	11978.86
464.59	11681.61
464.78	11967.16
464.96	12013.97
465.14	11885.24
465.32	12138.02
465.50	12093.55
465.69	12201.21
465.87	11967.16
466.05	12128.66
466.23	12011.63
466.41	12269.09
466.60	12479.74
466.78	11983.54
466.96	12079.50
467.14	12173.13
467.32	12346.33
467.51	12601.44
467.69	12269.09
467.87	12395.48
468.05	12336.96
468.23	12315.90
468.41	12407.18
468.60	12795.71
468.78	12594.42
468.96	12542.93
469.14	12751.24
469.32	12755.92
469.50	12528.89
469.69	12716.13
469.87	12950.18
470.05	13027.42
470.23	13195.94
470.41	12947.84
470.59	13144.45
470.77	13104.66
470.95	13453.40
471.14	13486.17
471.32	13137.43
471.50	13394.89
471.68	13521.27
471.86	13661.71
472.04	13336.37
472.22	14251.52
472.40	13741.29
472.58	13678.09
472.77	13713.20
472.95	14099.39
473.13	14427.06
473.31	14097.05
473.49	13914.48
473.67	13914.48
473.85	13898.10
474.03	14537.07
474.21	14590.90
474.39	14764.10
474.57	14520.68
474.75	14644.73
474.93	14829.63
475.12	14675.16
475.30	14909.21
475.48	14757.08
475.66	14965.39
475.84	15075.39
476.02	15311.78
476.20	15328.17
476.38	15555.20
476.56	15901.60
476.74	15543.50
476.92	15861.81
477.10	15810.32
477.28	15992.88
477.46	16203.53
477.64	16156.72
477.82	16472.69
478.00	16849.52
478.18	16753.55
478.36	16783.98
478.54	17181.87
478.72	16842.50
478.90	17289.54
479.08	17364.43
479.26	17479.12
479.44	17687.43
479.62	18019.78
479.80	18066.60
479.98	18090.00
480.16	18459.81
480.34	18574.49
480.52	18525.34
480.70	18808.54
480.88	18464.49
481.06	18616.62
481.24	18869.40
481.41	18930.25
481.59	19318.78
481.77	19342.19
481.95	19538.79
482.13	19742.42
482.31	19276.65
482.49	20072.43
482.67	19969.45
482.85	20238.61
483.03	20437.56
483.21	20638.84
483.39	20987.58
483.57	20858.85
483.74	21120.99
483.92	21535.27
484.10	21036.74
484.28	21298.88
484.46	21743.58
484.64	22061.89
484.82	21553.99
485.00	22164.87
485.18	22590.85
485.35	22831.93
485.53	22675.11
485.71	22595.53
485.89	22930.23
486.07	23405.36
486.25	23042.57
486.43	23412.38
486.61	23913.25
486.78	23686.22
486.96	24247.95
487.14	24360.30
487.32	24540.52
487.50	24589.67
487.68	24783.93
487.85	25228.63
488.03	25289.49
488.21	25736.53
488.39	25605.46
488.57	25926.11
488.75	26012.71
488.92	26513.59
489.10	26387.20
489.28	26396.56
489.46	27068.30
489.64	26852.97
489.81	27342.14
489.99	27852.38
490.17	27590.24
490.35	27779.82
490.53	28020.89
490.70	28437.51
490.88	27903.87
491.06	28657.52
491.24	28428.15
491.41	29003.92
491.59	28858.81
491.77	28814.34
491.95	29432.24
492.13	29584.37
492.30	29408.83
492.48	29668.63
492.66	30120.35
492.84	30579.10
493.01	30455.05
493.19	30218.66
493.37	30988.69
493.54	31035.50
493.72	31070.61
493.90	31197.00
494.08	31740.00
494.25	31735.32
494.43	31878.10
494.61	32198.75
494.79	32376.63
494.96	32369.61
495.14	32177.68
495.32	33001.55
495.49	32861.12
495.67	33181.77
495.85	33172.41
496.02	33802.02
496.20	33940.11
496.38	33539.88
496.55	33802.02
496.73	34541.63
496.91	34340.34
497.09	34632.91
497.26	34602.48
497.44	34845.90
497.62	35196.98
497.79	35742.32
497.97	35349.11
498.14	35894.46
498.32	35864.03
498.50	35882.75
498.67	36378.95
498.85	36201.07
499.03	36542.78
499.20	36563.85
499.38	36755.77
499.56	36767.48
499.73	37418.14
499.91	36999.19
500.08	37619.43
500.26	37048.34
500.44	37408.78
500.61	37628.79
500.79	37446.23
500.97	37722.41
501.14	38298.19
501.32	38810.76
501.49	38251.38
501.67	38288.82
501.84	38707.78
502.02	38873.96
502.20	38815.44
502.37	38906.73
502.55	39007.37
502.72	39213.34
502.90	39281.21
503.07	39470.79
503.25	39407.60
503.43	39578.46
503.60	39213.34
503.78	40130.83
503.95	39782.09
504.13	40744.05
504.30	40786.18
504.48	40758.09
504.65	40631.70
504.83	40767.45
505.01	40851.71
505.18	40982.78
505.36	41645.15
505.53	41158.32
505.71	41055.34
505.88	41469.61
506.06	41144.28
506.23	42007.94
506.41	41729.41
506.58	41930.70
506.76	42150.71
506.93	42288.80
507.11	42160.07
507.28	42405.83
507.46	42768.61
507.63	42370.72
507.81	43145.44
507.98	42380.08
508.16	42766.27
508.33	43456.73
508.50	43320.98
508.68	43620.56
508.85	43835.89
509.03	44032.50
509.20	43505.88
509.38	43964.62
509.55	44226.76
509.73	44540.39
509.90	44395.28
510.08	44652.74
510.25	44334.43
510.42	44746.36
510.60	44669.12
510.77	44907.86
510.95	45368.94
511.12	44886.79
511.30	45221.49
511.47	44996.80
511.64	44938.29
511.82	45069.36
511.99	45350.22
512.17	45808.96
512.34	45553.85
512.51	46209.20
512.69	46181.11
512.86	46115.58
513.04	46335.59
513.21	46515.81
513.38	46433.89
513.56	46894.97
513.73	46836.46
513.90	46791.99
514.08	46532.19
514.25	46902.00
514.43	47075.19
514.60	47501.17
514.77	47189.88
514.95	47653.31
515.12	47058.81
515.29	47482.45
515.47	47468.40
515.64	47875.66
515.81	47573.73
515.99	47973.96
516.16	48374.19
516.33	48252.48
516.51	48474.84
516.68	48547.39
516.85	48163.54
517.03	48898.47
517.20	48748.68
517.37	48650.38
517.54	48619.95
517.72	48465.47
517.89	49092.74
518.06	48886.77
518.24	48973.37
518.41	48966.35
518.58	48903.15
518.75	48905.49
518.93	49509.35
519.10	48961.67
519.27	49333.81
519.45	49787.88
519.62	49846.39
519.79	49673.19
519.96	50085.12
520.14	49855.75
520.31	49883.84
520.48	49860.43
520.65	50195.13
520.83	50314.50
521.00	50403.44
521.17	50007.89
521.34	50520.46
521.52	50454.93
521.69	50429.18
521.86	50780.26
522.03	51061.13
522.20	51217.94
522.38	51505.83
522.55	51154.75
522.72	51447.32
522.89	51049.42
523.07	51456.68
523.24	51604.13
523.41	51559.66
523.58	51480.08
523.75	51653.28
523.92	51826.48
524.10	51714.14
524.27	51746.90
524.44	52011.38
524.61	51873.29
524.78	51948.19
524.96	52343.74
525.13	51934.15
525.30	52259.48
525.47	52554.39
525.64	52219.69
525.81	52577.79
525.98	52552.05
526.16	52383.53
526.33	52643.33
526.50	52898.45
526.67	52720.57
526.84	52961.64
527.01	52430.34
527.18	52617.58
527.36	52926.53
527.53	52664.39
527.70	53141.86
527.87	53226.12
528.04	53205.06
528.21	53188.67
528.38	53036.54
528.55	53176.97
528.72	53242.51
528.89	53151.23
529.07	53382.94
529.24	53097.39
529.41	53572.52
529.58	53701.25
529.75	53649.76
529.92	53584.22
530.09	53518.69
530.26	53703.59
530.43	53998.50
530.60	53584.22
530.77	53631.04
530.94	53853.39
531.11	54010.20
531.28	54049.99
531.46	53982.12
531.63	54096.80
531.80	54038.29
531.97	54028.93
532.14	54457.24
532.31	54443.20
532.48	54394.05
532.65	54422.14
532.82	54602.36
532.99	54445.54
533.16	54295.75
533.33	54604.70
533.50	55136.00
533.67	54824.71
533.84	54562.57
534.01	54593.00
534.18	54607.04
534.35	55171.11
534.52	54965.14
534.69	55056.42
534.86	55243.66
535.03	54838.75
535.20	55117.28
535.37	55253.03
535.54	55405.16
535.71	55217.92
535.88	55501.12
536.05	55533.89
536.22	55454.31
536.38	55185.15
536.55	55484.74
536.72	55503.46
536.89	55421.55
537.06	55510.49
537.23	55641.56
537.40	55674.32
537.57	55297.50
537.74	55639.22
537.91	55913.06
538.08	55863.91
538.25	55765.60
538.42	55852.20
538.59	55948.17
538.75	55730.50
538.92	55753.90
539.09	55962.21
539.26	55952.85
539.43	55959.87
539.60	56289.88
539.77	56287.54
539.94	56168.18
540.11	56481.81
540.28	56273.50
540.44	56409.25
540.61	56245.41
540.78	56229.03
540.95	56165.84
541.12	56420.95
541.29	56320.31
541.46	56435.00
541.62	56491.17
541.79	56631.60
541.96	56376.48
542.13	56369.46
542.30	56678.41
542.47	56573.09
542.63	56772.03
542.80	56907.79
542.97	56760.33
543.14	56954.60
543.31	57052.90
543.48	57073.96
543.64	57104.39
543.81	57125.46
543.98	57153.54
544.15	57282.27
544.32	57415.68
544.48	57425.04
544.65	57085.67
544.82	57399.30
544.99	57214.40
545.16	57214.40
545.32	56975.66
545.49	57563.14
545.66	57516.32
545.83	57502.28
546.00	57712.93
546.16	57041.20
546.33	57265.89
546.50	57289.29
546.67	57593.56
546.83	57289.29
547.00	57614.63
547.17	57497.60
547.34	57612.29
547.50	57654.42
547.67	57949.32
547.84	58014.86
548.00	58335.51
548.17	58061.67
548.34	57804.21
548.51	58080.39
548.67	57989.11
548.84	57771.44
549.01	57925.92
549.18	57900.17
549.34	58010.18
549.51	58291.04
549.68	58330.83
549.84	58064.01
550.01	58417.43
550.18	58026.56
550.34	58188.06
550.51	58405.73
550.68	58230.19
550.84	58061.67
551.01	58349.56
551.18	58106.14
551.34	58356.58
551.51	58543.82
551.68	58555.52
551.84	58557.86
552.01	58506.37
552.18	58564.88
552.34	58492.33
552.51	58508.71
552.68	58576.59
552.84	58555.52
553.01	58628.08
553.18	58731.06
553.34	58838.73
553.51	58590.63
553.67	58478.28
553.84	58597.65
554.01	58742.77
554.17	59000.22
554.34	58890.22
554.51	58878.52
554.67	58993.20
554.84	58918.31
555.00	58876.18
555.17	58897.24
555.33	59030.65
555.50	58958.09
555.67	58773.19
555.83	58951.07
556.00	59044.69
556.16	59150.02
556.33	59143.00
556.50	59014.27
556.66	59250.66
556.83	58749.79
556.99	59128.95
557.16	59407.48
557.32	59283.43
557.49	59494.08
557.65	59159.38
557.82	59203.85
557.98	59084.48
558.15	59299.81
558.32	59393.43
558.48	59290.45
558.65	59442.59
558.81	59480.03
558.98	59437.90
559.14	59414.50
559.31	59484.72
559.47	59629.83
559.64	59510.46
559.80	59496.42
559.97	59561.95
560.13	59482.37
560.30	59540.89
560.46	59639.19
560.63	59639.19
560.79	59597.06
560.96	59854.52
561.12	59611.10
561.29	59870.90
561.45	59587.70
561.61	59674.30
561.78	59732.81
561.94	59512.80
562.11	59674.30
562.27	59688.34
562.44	59831.11
562.60	59854.52
562.77	59873.24
562.93	59676.64
563.10	59917.71
563.26	59718.77
563.42	59973.89
563.59	59744.51
563.75	59838.14
563.92	59906.01
564.08	59758.56
564.24	60247.73
564.41	59994.95
564.57	59978.57
564.74	60107.30
564.90	60219.64
565.07	60144.75
565.23	60037.08
565.39	60011.34
565.56	60100.28
565.72	59875.58
565.88	60336.67
566.05	59990.27
566.21	60069.85
566.38	60168.15
566.54	60135.38
566.70	60212.62
566.87	60238.37
567.03	60039.42
567.19	60252.41
567.36	60088.57
567.52	59976.23
567.68	60257.09
567.85	60374.12
568.01	60289.86
568.17	59910.69
568.34	60402.21
568.50	60170.49
568.66	60175.17
568.83	60142.41
568.99	60229.01
569.15	60275.82
569.32	60229.01
569.48	60016.02
569.64	60540.30
569.81	60406.89
569.97	60268.79
570.13	60399.86
570.30	60446.68
570.46	60383.48
570.62	60397.52
570.78	60453.70
570.95	60317.95
571.11	60264.11
571.27	60425.61
571.43	60275.82
571.60	60341.35
571.76	60383.48
571.92	60449.02
572.09	60470.08
572.25	60432.63
572.41	60477.10
572.57	60498.17
572.74	60870.31
572.90	60528.59
573.06	60498.17
573.22	60355.39
573.38	60514.55
573.55	60458.38
573.71	60598.81
573.87	60608.17
574.03	60603.49
574.20	60460.72
574.36	60451.36
574.52	60441.99
574.68	60687.75
574.84	60605.83
575.01	60486.46
575.17	60561.36
575.33	60612.85
575.49	60680.73
575.65	60673.71
575.82	60584.77
575.98	60722.86
576.14	60769.67
576.30	60559.02
576.46	60540.30
576.62	60481.78
576.79	60650.30
576.95	60336.67
577.11	60617.53
577.27	60584.77
577.43	60776.69
577.59	60718.18
577.75	60732.22
577.92	60622.22
578.08	60570.72
578.24	60486.46
578.40	60877.33
578.56	60783.71
578.72	60680.73
578.88	60872.65
579.04	60870.31
579.21	60509.87
579.37	60900.74
579.53	60790.73
579.69	60715.84
579.85	60678.39
580.01	60870.31
580.17	60666.69
580.33	60849.25
580.49	60942.87
580.65	60741.58
580.82	60708.82
580.98	60671.37
581.14	60568.38
581.30	60877.33
581.46	60788.39
581.62	60818.82
581.78	60619.88
581.94	60671.37
582.10	60687.75
582.26	60748.60
582.42	60715.84
582.58	60905.42
582.74	60807.12
582.90	60800.10
583.06	60711.16
583.22	60699.45
583.38	60807.12
583.54	60776.69
583.70	60889.04
583.86	61031.81
584.02	60762.65
584.18	61022.45
584.34	60973.30
584.50	60931.17
584.66	60893.72
584.82	60486.46
584.98	61043.51
585.14	60903.08
585.30	60856.27
585.46	61006.06
585.62	60701.79
585.78	60987.34
585.94	60713.50
586.10	60874.99
586.26	60821.16
586.42	60743.92
586.58	61087.98
586.74	61059.90
586.90	60800.10
587.06	60797.76
587.22	61020.11
587.38	61048.19
587.54	61010.74
587.70	61195.65
587.86	60863.29
588.02	60692.43
588.18	61073.94
588.34	60842.23
588.49	61038.83
