SpectraSuite Data File
++++++++++++++++++++++++++++++++++++
Date: Fri Oct 25 10:44:53 EDT 2013
User: price-jones
Dark Spectrum Present: No
Reference Spectrum Present: No
Number of Sampled Component Spectra: 1
Spectrometers: USB2+H05261
Integration Time (usec): 100000 (USB2+H05261)
Spectra Averaged: 1 (USB2+H05261)
Boxcar Smoothing: 0 (USB2+H05261)
Correct for Electrical Dark: No (USB2+H05261)
Strobe/Lamp Enabled: No (USB2+H05261)
Correct for Detector Non-linearity: No (USB2+H05261)
Correct for Stray Light: No (USB2+H05261)
Number of Pixels in Processed Spectrum: 2048
>>>>>Begin Processed Spectral Data<<<<<
365.73	67.88
365.92	67.88
366.12	67.88
366.32	110.01
366.52	74.90
366.72	72.56
366.91	4.68
367.11	70.22
367.31	0.00
367.51	0.00
367.70	39.79
367.90	88.94
368.10	16.38
368.30	0.00
368.49	0.00
368.69	58.51
368.89	63.19
369.09	44.47
369.28	60.85
369.48	25.75
369.68	95.96
369.87	58.51
370.07	102.98
370.27	189.58
370.47	196.60
370.66	411.93
370.86	418.96
371.06	468.11
371.25	470.45
371.45	465.77
371.65	393.21
371.84	451.72
372.04	423.64
372.24	493.85
372.44	461.09
372.63	514.92
372.83	505.56
373.03	477.47
373.22	484.49
373.42	475.13
373.62	454.06
373.81	454.06
374.01	535.98
374.21	538.32
374.40	486.83
374.60	552.37
374.79	514.92
374.99	538.32
375.19	510.24
375.38	510.24
375.58	533.64
375.78	704.50
375.97	557.05
376.17	585.13
376.37	512.58
376.56	617.90
376.76	507.90
376.95	615.56
377.15	524.28
377.35	608.54
377.54	578.11
377.74	608.54
377.93	557.05
378.13	578.11
378.33	617.90
378.52	557.05
378.72	601.52
378.91	678.76
379.11	585.13
379.31	587.47
379.50	620.24
379.70	643.65
379.89	683.44
380.09	648.33
380.28	648.33
380.48	655.35
380.68	617.90
380.87	629.60
381.07	660.03
381.26	669.39
381.46	734.93
381.65	718.54
381.85	634.29
382.04	636.63
382.24	695.14
382.43	699.82
382.63	662.37
382.83	746.63
383.02	758.33
383.22	674.07
383.41	655.35
383.61	697.48
383.80	734.93
384.00	610.88
384.19	751.31
384.39	763.01
384.58	681.10
384.78	755.99
384.97	720.88
385.17	716.20
385.36	744.29
385.56	833.23
385.75	702.16
385.95	779.40
386.14	767.70
386.34	779.40
386.53	802.80
386.72	777.06
386.92	711.52
387.11	844.93
387.31	849.61
387.50	791.10
387.70	816.85
387.89	814.51
388.09	858.98
388.28	858.98
388.48	774.72
388.67	842.59
388.86	844.93
389.06	901.11
389.25	891.74
389.45	814.51
389.64	856.64
389.84	866.00
390.03	959.62
390.22	976.00
390.42	926.85
390.61	858.98
390.81	896.43
391.00	938.55
391.19	1011.11
391.39	978.34
391.58	938.55
391.78	908.13
391.97	908.13
392.16	875.36
392.36	966.64
392.55	1001.75
392.75	961.96
392.94	940.90
393.13	985.37
393.33	919.83
393.52	924.51
393.71	1029.84
393.91	1064.94
394.10	1064.94
394.29	1107.07
394.49	1149.20
394.68	1104.73
394.88	1109.41
395.07	1165.59
395.26	1107.07
395.46	1125.80
395.65	1121.12
395.84	1043.88
396.04	1139.84
396.23	1146.86
396.42	1104.73
396.62	1095.37
396.81	1245.16
397.00	1076.65
397.19	1130.48
397.39	1144.52
397.58	1177.29
397.77	1259.21
397.97	1184.31
398.16	1210.06
398.35	1224.10
398.55	1320.06
398.74	1348.15
398.93	1418.36
399.12	1306.02
399.32	1334.11
399.51	1399.64
399.70	1439.43
399.90	1380.92
400.09	1406.66
400.28	1427.73
400.47	1437.09
400.67	1451.13
400.86	1458.15
401.05	1401.98
401.24	1509.65
401.44	1509.65
401.63	1411.34
401.82	1504.96
402.01	1427.73
402.21	1488.58
402.40	1535.39
402.59	1565.82
402.78	1476.88
402.97	1497.94
403.17	1577.52
403.36	1640.72
403.55	1584.54
403.74	1668.80
403.93	1568.16
404.13	1713.27
404.32	1659.44
404.51	1689.87
404.70	1675.82
404.89	1710.93
405.09	1790.51
405.28	1778.81
405.47	1680.50
405.66	1816.26
405.85	1790.51
406.05	1703.91
406.24	1865.41
406.43	1818.60
406.62	1865.41
406.81	1870.09
407.00	1930.94
407.20	1877.11
407.39	1888.81
407.58	1860.73
407.77	1930.94
407.96	2024.56
408.15	2043.29
408.34	2015.20
408.54	2047.97
408.73	1839.66
408.92	1970.73
409.11	2108.82
409.30	2057.33
409.49	2083.08
409.68	2087.76
409.87	2134.57
410.07	2118.18
410.26	2108.82
410.45	2186.06
410.64	2172.02
410.83	2188.40
411.02	2270.32
411.21	2188.40
411.40	2370.96
411.59	2349.90
411.78	2377.98
411.98	2326.49
412.17	2260.96
412.36	2267.98
412.55	2434.16
412.74	2509.05
412.93	2438.84
413.12	2363.94
413.31	2637.78
413.50	2328.83
413.69	2534.80
413.88	2619.06
414.07	2605.02
414.26	2586.29
414.45	2696.30
414.64	2661.19
414.83	2743.11
415.02	2686.94
415.22	2679.91
415.41	2827.37
415.60	2775.88
415.79	2820.35
415.98	2986.52
416.17	2796.94
416.36	2822.69
416.55	2956.10
416.74	2949.08
416.93	2932.69
417.12	2916.31
417.31	3045.04
417.50	3115.25
417.69	3225.26
417.88	3091.85
418.07	3173.77
418.26	2991.20
418.45	3016.95
418.64	3251.00
418.83	3026.31
419.02	3232.28
419.21	3110.57
419.39	3255.69
419.58	3239.30
419.77	3199.51
419.96	3293.13
420.15	3281.43
420.34	3393.78
420.53	3375.05
420.72	3475.70
420.91	3215.90
421.10	3295.47
421.29	3396.12
421.48	3304.84
421.67	3463.99
421.86	3417.18
422.05	3356.33
422.24	3393.78
422.43	3405.48
422.61	3550.59
422.80	3492.08
422.99	3417.18
423.18	3536.55
423.37	3508.46
423.56	3648.90
423.75	3576.34
423.94	3433.57
424.13	3318.88
424.32	3386.76
424.50	3719.11
424.69	3599.74
424.88	3536.55
425.07	3569.32
425.26	3454.63
425.45	3557.61
425.64	3616.13
425.83	3543.57
426.01	3588.04
426.20	3681.66
426.39	3557.61
426.58	3616.13
426.77	3831.46
426.96	3644.21
427.15	3632.51
427.33	3712.09
427.52	3716.77
427.71	3740.18
427.90	3728.47
428.09	3712.09
428.28	3716.77
428.46	3864.22
428.65	3779.97
428.84	3882.95
429.03	3815.07
429.22	3646.55
429.40	3932.10
429.59	3880.61
429.78	3662.94
429.97	3714.43
430.16	3829.12
430.34	3782.31
430.53	3850.18
430.72	3988.27
430.91	3936.78
431.10	3847.84
431.28	4091.26
431.47	4131.05
431.66	4231.69
431.85	4088.92
432.03	4224.67
432.22	4203.60
432.41	4138.07
432.60	4187.22
432.79	4203.60
432.97	4297.22
433.16	4212.96
433.35	4182.54
433.54	4238.71
433.72	4227.01
433.91	4329.99
434.10	4294.88
434.28	4376.80
434.47	4320.63
434.66	4430.63
434.85	4409.57
435.03	4479.79
435.22	4524.26
435.41	4582.77
435.59	4603.83
435.78	4622.56
435.97	4627.24
436.16	4566.39
436.34	4650.64
436.53	4669.37
436.72	4718.52
436.90	4582.77
437.09	4770.01
437.28	4519.57
437.46	4627.24
437.65	4758.31
437.84	4631.92
438.02	4683.41
438.21	4812.14
438.40	4496.17
438.58	4994.70
438.77	4959.60
438.96	4816.82
439.14	4929.17
439.33	5078.96
439.52	5137.48
439.70	5114.07
439.89	5156.20
440.08	5102.37
440.26	5240.46
440.45	5254.50
440.63	5273.23
440.82	5430.04
441.01	5444.09
441.19	5334.08
441.38	5554.09
441.57	5493.24
441.75	5448.77
441.94	5488.56
442.12	5647.71
442.31	5874.74
442.50	5846.66
442.68	5666.44
442.87	5533.03
443.05	5771.76
443.24	5959.00
443.43	5823.25
443.61	5935.60
443.80	5926.24
443.98	5689.84
444.17	5537.71
444.35	5949.64
444.54	6005.81
444.73	5980.07
444.91	5839.64
445.10	5860.70
445.28	5893.47
445.47	5966.03
445.65	5799.85
445.84	5818.57
446.02	5888.79
446.21	5736.65
446.39	5891.13
446.58	5856.02
446.77	6040.92
446.95	5942.62
447.14	5921.56
447.32	6050.28
447.51	6099.44
447.69	5923.90
447.88	6139.23
448.06	6069.01
448.25	6094.76
448.43	5977.73
448.62	5980.07
448.80	6031.56
448.99	6132.20
449.17	6200.08
449.36	6160.29
449.54	6260.93
449.73	6218.80
449.91	6436.47
450.10	6361.58
450.28	6485.62
450.46	6633.08
450.65	6265.61
450.83	6569.88
451.02	6576.91
451.20	6466.90
451.39	6707.98
451.57	6473.92
451.76	6389.66
451.94	6441.15
452.13	6569.88
452.31	6494.99
452.49	6431.79
452.68	6703.29
452.86	6665.85
453.05	6691.59
453.23	6612.01
453.42	6485.62
453.60	6539.46
453.78	6597.97
453.97	6525.41
454.15	6553.50
454.34	6764.15
454.52	6817.98
454.70	6829.68
454.89	6932.67
455.07	6825.00
455.26	6925.65
455.44	7131.61
455.62	6935.01
455.81	6960.75
455.99	6963.09
456.17	7133.95
456.36	7059.06
456.54	7180.76
456.73	7248.64
456.91	7332.90
457.09	7377.37
457.28	7428.86
457.46	7150.34
457.64	7421.84
457.83	7431.20
458.01	7379.71
458.19	7391.41
458.38	7461.63
458.56	7431.20
458.74	7438.22
458.93	7648.87
459.11	7365.67
459.29	7534.18
459.48	7461.63
459.66	7581.00
459.84	7639.51
460.03	7723.77
460.21	7756.54
460.39	7742.49
460.57	7754.19
460.76	7667.60
460.94	7911.01
461.12	7768.24
461.31	7772.92
461.49	7672.28
461.67	7770.58
461.85	8084.21
462.04	7964.84
462.22	8142.72
462.40	8032.72
462.59	8091.23
462.77	8072.51
462.95	8262.09
463.13	8065.49
463.32	8049.10
463.50	8205.92
463.68	8152.09
463.86	8224.64
464.05	8336.99
464.23	8273.79
464.41	8231.66
464.59	8154.43
464.78	8238.69
464.96	8308.90
465.14	8013.99
465.32	8594.45
465.50	8259.75
465.69	8446.99
465.87	8327.63
466.05	8243.37
466.23	8503.17
466.41	8147.40
466.60	8622.53
466.78	8386.14
466.96	8093.57
467.14	8442.31
467.32	8493.80
467.51	8662.32
467.69	8294.86
467.87	8739.56
468.05	8580.40
468.23	8688.07
468.41	8465.72
468.60	8695.09
468.78	8788.71
468.96	8662.32
469.14	8863.61
469.32	8943.19
469.50	8695.09
469.69	9020.42
469.87	8814.46
470.05	9123.41
470.23	8954.89
470.41	9067.24
470.59	9369.16
470.77	8990.00
470.95	8994.68
471.14	9383.21
471.32	8917.44
471.50	9472.15
471.68	9233.41
471.86	9359.80
472.04	9320.01
472.22	9689.82
472.40	9397.25
472.58	9195.96
472.77	9448.74
472.95	9479.17
473.13	9942.60
473.31	9514.28
473.49	9673.43
473.67	9769.40
473.85	9762.37
474.03	9963.66
474.21	9975.36
474.39	9956.64
474.57	10050.26
474.75	10036.22
474.93	10150.90
475.12	10064.30
475.30	10272.61
475.48	10033.88
475.66	10382.62
475.84	10061.96
476.02	10267.93
476.20	10384.96
476.38	10729.02
476.56	10558.16
476.74	10640.08
476.92	10775.83
477.10	10988.82
477.28	11096.48
477.46	11089.46
477.64	11140.95
477.82	11473.31
478.00	11377.34
478.18	11356.28
478.36	11475.65
478.54	11854.81
478.72	11658.21
478.90	11688.64
479.08	11747.15
479.26	12044.40
479.44	12018.65
479.62	12114.61
479.80	12166.10
479.98	12194.19
480.16	12517.18
480.34	12327.60
480.52	12674.00
480.70	12414.20
480.88	12421.22
481.06	12833.16
481.24	12758.26
481.41	13184.24
481.59	13015.72
481.77	13041.46
481.95	13027.42
482.13	13322.33
482.31	13373.82
482.49	13420.63
482.67	13628.94
482.85	13469.78
483.03	13865.33
483.21	13888.74
483.39	14068.96
483.57	13958.96
483.74	14317.06
483.92	14106.41
484.10	14333.44
484.28	14501.96
484.46	14714.95
484.64	14902.19
484.82	14581.54
485.00	14911.55
485.18	15183.06
485.35	15115.18
485.53	15082.41
485.71	15030.92
485.89	15234.55
486.07	15349.23
486.25	15459.24
486.43	15920.32
486.61	15962.45
486.78	15864.15
486.96	16201.19
487.14	16374.39
487.32	16219.91
487.50	16594.40
487.68	16512.48
487.85	16877.60
488.03	16971.22
488.21	17006.33
488.39	17221.66
488.57	17422.95
488.75	17434.65
488.92	17448.69
489.10	17792.75
489.28	17785.73
489.46	18111.07
489.64	18171.92
489.81	18515.98
489.99	18438.74
490.17	18398.95
490.35	18853.02
490.53	18675.13
490.70	18885.78
490.88	18710.24
491.06	18998.13
491.24	19391.34
491.41	19278.99
491.59	19225.16
491.77	19398.36
491.95	19550.49
492.13	19805.61
492.30	19927.32
492.48	20156.69
492.66	20320.53
492.84	20255.00
493.01	20634.16
493.19	20147.33
493.37	20556.93
493.54	20751.19
493.72	20842.47
493.90	20561.61
494.08	20957.16
494.25	21333.98
494.43	21336.32
494.61	21486.12
494.79	21635.91
494.96	21717.83
495.14	21582.08
495.32	21947.20
495.49	21755.28
495.67	21816.13
495.85	22001.04
496.02	22422.33
496.20	22733.62
496.38	22719.58
496.55	22473.82
496.73	23204.07
496.91	22979.38
497.09	22899.80
497.26	23129.17
497.44	23307.05
497.62	23510.68
497.79	23426.42
497.97	23541.11
498.14	23496.64
498.32	23845.38
498.50	23735.37
498.67	23707.29
498.85	24355.61
499.03	24315.83
499.20	24367.32
499.38	24261.99
499.56	24250.29
499.73	24662.22
499.91	24341.57
500.08	24603.71
500.26	24442.21
500.44	24594.35
500.61	25074.16
500.79	24542.86
500.97	24783.93
501.14	25348.00
501.32	25324.60
501.49	25245.02
501.67	25214.59
501.84	25673.34
502.02	25516.52
502.20	25968.24
502.37	25947.18
502.55	26087.61
502.72	26005.69
502.90	25993.99
503.07	25986.97
503.25	26132.08
503.43	25912.07
503.60	26153.15
503.78	26497.20
503.95	26422.31
504.13	26728.92
504.30	26567.42
504.48	26457.42
504.65	26684.45
504.83	27562.15
505.01	27332.78
505.18	27037.87
505.36	27108.08
505.53	26951.27
505.71	27508.32
505.88	28091.11
506.06	27639.39
506.23	27742.37
506.41	27166.60
506.58	27592.58
506.76	27845.35
506.93	28397.72
507.11	27803.22
507.28	28056.00
507.46	28039.62
507.63	27931.95
507.81	28503.04
507.98	28027.92
508.16	28151.96
508.33	28276.01
508.50	28589.64
508.68	28570.92
508.85	29092.86
509.03	28762.84
509.20	28877.53
509.38	29172.44
509.55	29039.03
509.73	29230.95
509.90	29443.94
510.08	29242.65
510.25	29214.57
510.42	29455.64
510.60	29408.83
510.77	29914.39
510.95	29900.34
511.12	29694.38
511.30	29867.58
511.47	30302.92
511.64	29972.90
511.82	30380.15
511.99	30328.66
512.17	29993.97
512.34	30019.71
512.51	30223.34
512.69	30876.35
512.86	30565.06
513.04	30995.71
513.21	30642.29
513.38	30698.47
513.56	30787.41
513.73	30522.93
513.90	30698.47
514.08	30700.81
514.25	30864.64
514.43	31040.18
514.60	31124.44
514.77	31014.44
514.95	31644.04
515.12	31711.92
515.29	31377.22
515.47	31878.10
515.64	31910.86
515.81	31569.15
515.99	32353.23
516.16	31772.77
516.33	31552.76
516.51	32173.00
516.68	31817.24
516.85	31494.25
517.03	31845.33
517.20	32077.04
517.37	32102.79
517.54	32486.64
517.72	32208.11
517.89	31943.63
518.06	32350.88
518.24	32308.76
518.41	32807.29
518.58	32699.62
518.75	32603.66
518.93	32807.29
519.10	32528.77
519.27	32622.39
519.45	32760.48
519.62	33251.99
519.79	33013.26
519.96	33242.63
520.14	33354.97
520.31	33170.07
520.48	33132.62
520.65	33312.84
520.83	34022.03
521.00	33827.76
521.17	33916.70
521.34	33865.21
521.52	33890.96
521.69	34040.75
521.86	33771.59
522.03	34110.97
522.20	34260.76
522.38	34167.14
522.55	34213.95
522.72	34801.43
522.89	34040.75
523.07	34534.60
523.24	34361.40
523.41	35051.86
523.58	34756.96
523.75	35063.57
523.92	34719.51
524.10	35058.88
524.27	34948.88
524.44	35386.56
524.61	35159.53
524.78	35604.23
524.96	35728.28
525.13	35501.25
525.30	34944.20
525.47	35718.92
525.64	35562.10
525.81	35395.92
525.98	35409.96
526.16	35639.34
526.33	34923.13
526.50	35470.82
526.67	35278.89
526.84	35374.86
527.01	35255.49
527.18	35721.26
527.36	36229.15
527.53	36140.21
527.70	36727.69
527.87	35887.43
528.04	36067.66
528.21	36088.72
528.38	36687.90
528.55	36598.96
528.72	36605.98
528.89	36737.05
529.07	36488.95
529.24	36498.31
529.41	36711.30
529.58	36559.17
529.75	36767.48
529.92	37184.09
530.09	37230.90
530.26	36935.99
530.43	37076.43
530.60	37001.53
530.77	36926.63
530.94	37392.40
531.11	37544.53
531.28	36898.55
531.46	37347.93
531.63	37057.70
531.80	37347.93
531.97	37158.34
532.14	37432.19
532.31	37127.92
532.48	37411.12
532.65	37865.19
532.82	37081.11
532.99	37647.52
533.16	37614.75
533.33	37904.98
533.50	37612.41
533.67	37930.72
533.84	38080.52
534.01	37764.54
534.18	38082.86
534.35	37914.34
534.52	37991.58
534.69	38625.86
534.86	38321.59
535.03	38183.50
535.20	38686.71
535.37	38492.45
535.54	38321.59
535.71	38291.16
535.88	38382.45
536.05	38909.07
536.22	38794.38
536.38	38895.02
536.55	38614.16
536.72	38871.62
536.89	38555.64
537.06	38452.66
537.23	38803.74
537.40	38808.42
537.57	38770.97
537.74	39063.54
537.91	39161.84
538.08	39131.42
538.25	38733.53
538.42	39035.45
538.59	39442.71
538.75	38986.30
538.92	39082.27
539.09	39386.54
539.26	39332.70
539.43	39524.63
539.60	39269.51
539.77	39351.43
539.94	39744.64
540.11	38820.13
540.28	39627.61
540.44	39391.22
540.61	39264.83
540.78	39636.97
540.95	39379.51
541.12	39571.44
541.29	39744.64
541.46	39431.01
541.62	39819.53
541.79	40018.48
541.96	39604.20
542.13	39651.02
542.30	39952.94
542.47	40297.00
542.63	39725.91
542.80	40231.47
542.97	40329.77
543.14	41148.96
543.31	40666.81
543.48	40570.85
543.64	41270.67
543.81	40765.11
543.98	40755.75
544.15	40538.08
544.32	40697.24
544.48	41116.19
544.65	40624.68
544.82	40755.75
544.99	40418.71
545.16	40844.69
545.32	40917.25
545.49	41420.46
545.66	41200.45
545.83	41179.39
546.00	41474.29
546.16	41343.22
546.33	41261.30
546.50	41020.23
546.67	41621.75
546.83	41055.34
547.00	41081.08
547.17	41254.28
547.34	41621.75
547.50	41584.30
547.67	41523.44
547.84	41586.64
548.00	41708.35
548.17	41682.60
548.34	41368.97
548.51	41893.25
548.67	41876.86
548.84	41691.96
549.01	41837.08
549.18	41516.42
549.34	41588.98
549.51	42024.32
549.68	42024.32
549.84	41378.33
550.01	42094.53
550.18	41797.29
550.34	41762.18
550.51	41862.82
550.68	42073.47
550.84	41909.63
551.01	42356.67
551.18	42230.29
551.34	42246.67
551.51	42213.90
551.68	42019.64
551.84	42380.08
552.01	42225.60
552.18	42586.05
552.34	42085.17
552.51	42515.83
552.68	42440.93
552.84	42391.78
553.01	42857.55
553.18	42564.98
553.34	42492.43
553.51	42300.50
553.67	42918.40
553.84	42792.01
554.01	42630.52
554.17	42696.05
554.34	43100.97
554.51	42679.67
554.67	43009.68
554.84	42689.03
555.00	42717.12
555.17	42955.85
555.33	42728.82
555.50	42635.20
555.67	42789.67
555.83	42960.53
556.00	43028.41
556.16	43234.38
556.33	42752.23
556.50	42703.07
556.66	42930.11
556.83	42677.33
556.99	43384.17
557.16	43335.02
557.32	43342.04
557.49	43618.22
557.65	43175.86
557.82	43093.94
557.98	42967.55
558.15	43082.24
558.32	43407.58
558.48	43199.27
558.65	43232.04
558.81	42539.24
558.98	43007.34
559.14	43531.62
559.31	43552.69
559.47	43620.56
559.64	43435.66
559.80	43470.77
559.97	43620.56
560.13	43196.93
560.30	43384.17
560.46	43538.65
560.63	43632.27
560.79	43650.99
560.96	43470.77
561.12	43826.53
561.29	43620.56
561.45	43576.09
561.61	43739.93
561.78	43615.88
561.94	43800.79
562.11	43707.16
562.27	43206.29
562.44	43662.69
562.60	43985.69
562.77	43627.59
562.93	43629.93
563.10	43812.49
563.26	43358.42
563.42	43903.77
563.59	43510.56
563.75	43688.44
563.92	44123.78
564.08	43859.30
564.24	43831.21
564.41	44006.75
564.57	43866.32
564.74	43831.21
564.90	44147.18
565.07	44147.18
565.23	43789.08
565.39	43643.97
565.56	44083.99
565.72	43564.39
565.88	44250.17
566.05	44025.48
566.21	44083.99
566.38	43805.47
566.54	44154.21
566.70	43955.26
566.87	44659.76
567.03	44528.69
567.19	44603.59
567.36	44406.98
567.52	44341.45
567.68	44353.15
567.85	44350.81
568.01	44088.67
568.17	44032.50
568.34	44456.14
568.50	44257.19
568.66	44194.00
568.83	44238.47
568.99	44034.84
569.15	44556.78
569.32	44247.83
569.48	43997.39
569.64	44289.96
569.81	44273.57
569.97	44041.86
570.13	44236.12
570.30	43742.27
570.46	44435.07
570.62	44041.86
570.78	44233.78
570.95	44020.80
571.11	44320.38
571.27	44119.10
571.43	44245.49
571.60	44158.89
571.76	44376.56
571.92	44172.93
572.09	44430.39
572.25	44692.53
572.41	44568.48
572.57	44645.72
572.74	45382.99
572.90	44549.76
573.06	44559.12
573.22	44308.68
573.38	44463.16
573.55	44165.91
573.71	44371.88
573.87	44423.37
574.03	44526.35
574.20	44217.40
574.36	44371.88
574.52	44388.26
574.68	44304.00
574.84	44512.31
575.01	44355.49
575.17	44315.70
575.33	44177.61
575.49	44556.78
575.65	44626.99
575.82	44488.90
575.98	44315.70
576.14	44669.12
576.30	44332.09
576.46	44666.78
576.62	44666.78
576.79	44238.47
576.95	44273.57
577.11	44568.48
577.27	44362.51
577.43	44823.60
577.59	44524.01
577.75	44664.44
577.92	43950.58
578.08	44409.32
578.24	44240.81
578.40	44446.77
578.56	44406.98
578.72	44287.62
578.88	44584.86
579.04	44786.15
579.21	44453.79
579.37	44619.97
579.53	44346.13
579.69	44671.46
579.85	44261.87
580.01	44741.68
580.17	44495.92
580.33	44608.27
580.49	44774.45
580.65	44985.10
580.82	45043.61
580.98	44500.61
581.14	44903.18
581.30	45198.09
581.46	44552.10
581.62	44563.80
581.78	44463.16
581.94	45120.85
582.10	44711.25
582.26	44952.33
582.42	44364.85
582.58	45052.97
582.74	44378.90
582.90	45104.46
583.06	44545.08
583.22	45036.59
583.38	44626.99
583.54	44526.35
583.70	44437.41
583.86	44479.54
584.02	44252.51
584.18	45020.20
584.34	44739.34
584.50	44296.98
584.66	44428.05
584.82	44594.23
584.98	44856.37
585.14	44385.92
585.30	44734.66
585.46	44776.79
585.62	45116.17
585.78	44821.26
585.94	44165.91
586.10	44664.44
586.26	44753.38
586.42	44634.02
586.58	44980.42
586.74	44722.96
586.90	44575.50
587.06	44467.84
587.22	44641.04
587.38	44196.34
587.54	44809.56
587.70	44718.28
587.86	44856.37
588.02	45214.47
588.18	44617.63
588.34	44999.14
588.49	44961.69
588.65	43971.64
588.81	44488.90
588.97	44432.73
589.13	44528.69
589.29	44409.32
589.45	44516.99
589.61	44535.71
589.77	45247.24
589.93	44847.00
590.08	45027.23
590.24	45085.74
590.40	45195.74
