SpectraSuite Data File
++++++++++++++++++++++++++++++++++++
Date: Fri Oct 25 11:26:06 EDT 2013
User: price-jones
Dark Spectrum Present: No
Reference Spectrum Present: No
Number of Sampled Component Spectra: 1
Spectrometers: USB2+H05261
Integration Time (usec): 100000 (USB2+H05261)
Spectra Averaged: 1 (USB2+H05261)
Boxcar Smoothing: 0 (USB2+H05261)
Correct for Electrical Dark: No (USB2+H05261)
Strobe/Lamp Enabled: No (USB2+H05261)
Correct for Detector Non-linearity: No (USB2+H05261)
Correct for Stray Light: No (USB2+H05261)
Number of Pixels in Processed Spectrum: 2048
>>>>>Begin Processed Spectral Data<<<<<
365.73	248.10
365.92	248.10
366.12	248.10
366.32	145.11
366.52	227.03
366.72	203.63
366.91	105.32
367.11	156.82
367.31	112.35
367.51	81.92
367.70	163.84
367.90	133.41
368.10	194.26
368.30	156.82
368.49	152.13
368.69	182.56
368.89	65.54
369.09	112.35
369.28	159.16
369.48	182.56
369.68	255.12
369.87	184.90
370.07	152.13
370.27	203.63
370.47	299.59
370.66	547.69
370.86	608.54
371.06	671.73
371.25	706.84
371.45	648.33
371.65	739.61
371.84	676.41
372.04	732.59
372.24	702.16
372.44	753.65
372.63	702.16
372.83	734.93
373.03	821.53
373.22	802.80
373.42	709.18
373.62	809.83
373.81	851.96
374.01	748.97
374.21	802.80
374.40	840.25
374.60	781.74
374.79	849.61
374.99	924.51
375.19	830.89
375.38	863.66
375.58	777.06
375.78	842.59
375.97	812.17
376.17	835.57
376.37	802.80
376.56	866.00
376.76	922.17
376.95	922.17
377.15	940.90
377.35	851.96
377.54	936.21
377.74	905.79
377.93	919.83
378.13	840.25
378.33	903.45
378.52	877.70
378.72	992.39
378.91	915.15
379.11	999.41
379.31	922.17
379.50	1006.43
379.70	968.98
379.89	844.93
380.09	1004.09
380.28	983.02
380.48	990.05
380.68	1041.54
380.87	898.77
381.07	968.98
381.26	1057.92
381.46	999.41
381.65	1008.77
381.85	1053.24
382.04	1036.86
382.24	983.02
382.43	1039.20
382.63	1107.07
382.83	1022.81
383.02	1018.13
383.22	1177.29
383.41	1048.56
383.61	1123.46
383.80	1193.67
384.00	1104.73
384.19	1064.94
384.39	1109.41
384.58	1109.41
384.78	1123.46
384.97	1165.59
385.17	1116.44
385.36	1118.78
385.56	1181.97
385.75	1179.63
385.95	1174.95
386.14	1095.37
386.34	1259.21
386.53	1212.40
386.72	1221.76
386.92	1210.06
387.11	1259.21
387.31	1151.54
387.50	1235.80
387.70	1224.10
387.89	1306.02
388.09	1294.32
388.28	1355.17
388.48	1254.53
388.67	1254.53
388.86	1345.81
389.06	1217.08
389.25	1315.38
389.45	1373.89
389.64	1320.06
389.84	1409.00
390.03	1409.00
390.22	1371.55
390.42	1308.36
390.61	1387.94
390.81	1423.05
391.00	1411.34
391.19	1476.88
391.39	1458.15
391.58	1497.94
391.78	1495.60
391.97	1530.71
392.16	1481.56
392.36	1530.71
392.55	1488.58
392.75	1495.60
392.94	1554.12
393.13	1610.29
393.33	1544.75
393.52	1535.39
393.71	1570.50
393.91	1481.56
394.10	1664.12
394.29	1565.82
394.49	1603.27
394.68	1593.90
394.88	1584.54
395.07	1720.29
395.26	1774.13
395.46	1668.80
395.65	1736.68
395.84	1739.02
396.04	1806.89
396.23	1846.68
396.42	1720.29
396.62	1717.95
396.81	1783.49
397.00	1743.70
397.19	1750.72
397.39	1842.00
397.58	1760.08
397.77	1846.68
397.97	1893.49
398.16	1816.26
398.35	2017.54
398.55	1818.60
398.74	1832.64
398.93	1923.92
399.12	1935.62
399.32	1853.70
399.51	1877.11
399.70	2076.06
399.90	1933.28
400.09	2045.63
400.28	2059.67
400.47	2106.48
400.67	2043.29
400.86	1994.14
401.05	1921.58
401.24	2167.34
401.44	2179.04
401.63	2122.87
401.82	2216.49
402.01	2029.24
402.21	2181.38
402.40	2120.53
402.59	2141.59
402.78	2160.31
402.97	2167.34
403.17	2176.70
403.36	2279.68
403.55	2293.72
403.74	2394.37
403.93	2338.20
404.13	2333.51
404.32	2366.28
404.51	2415.43
404.70	2359.26
404.89	2345.22
405.09	2455.22
405.28	2373.30
405.47	2537.14
405.66	2523.10
405.85	2527.78
406.05	2410.75
406.24	2490.33
406.43	2555.86
406.62	2579.27
406.81	2663.53
407.00	2626.08
407.20	2553.52
407.39	2586.29
407.58	2724.38
407.77	2745.45
407.96	2794.60
408.15	2726.72
408.34	2778.22
408.54	2724.38
408.73	2794.60
408.92	2775.88
409.11	2883.54
409.30	2906.95
409.49	2939.71
409.68	2834.39
409.87	2855.45
410.07	2874.18
410.26	3054.40
410.45	3021.63
410.64	3026.31
410.83	3173.77
411.02	3094.19
411.21	3194.83
411.40	3176.11
411.59	3197.17
411.78	3157.38
411.98	3232.28
412.17	3150.36
412.36	3255.69
412.55	3316.54
412.74	3332.92
412.93	3421.86
413.12	3346.97
413.31	3602.08
413.50	3403.14
413.69	3398.46
413.88	3599.74
414.07	3452.29
414.26	3461.65
414.45	3660.60
414.64	3648.90
414.83	3744.86
415.02	3749.54
415.22	3887.63
415.41	3754.22
415.60	3911.04
415.79	3962.53
415.98	4037.42
416.17	4117.00
416.36	3992.95
416.55	3962.53
416.74	4182.54
416.93	4084.23
417.12	4191.90
417.31	4217.65
417.50	4191.90
417.69	4344.03
417.88	4313.61
418.07	4266.80
418.26	4301.90
418.45	4306.59
418.64	4465.74
418.83	4414.25
419.02	4414.25
419.21	4416.59
419.39	4440.00
419.58	4367.44
419.77	4414.25
419.96	4690.43
420.15	4545.32
420.34	4662.35
420.53	4662.35
420.72	4667.03
420.91	4631.92
421.10	4678.73
421.29	4660.01
421.48	4568.73
421.67	4774.69
421.86	4793.42
422.05	4751.29
422.24	4739.58
422.43	4753.63
422.61	5018.11
422.80	4957.25
422.99	4933.85
423.18	5095.35
423.37	5013.43
423.56	4849.59
423.75	4861.29
423.94	4828.53
424.13	4545.32
424.32	4812.14
424.50	4891.72
424.69	5060.24
424.88	5067.26
425.07	4865.97
425.26	4863.63
425.45	5083.64
425.64	5057.90
425.83	4952.57
426.01	5069.60
426.20	4990.02
426.39	5057.90
426.58	5011.09
426.77	5022.79
426.96	5032.15
427.15	4947.89
427.33	5233.44
427.52	5198.33
427.71	5336.42
427.90	5266.21
428.09	5240.46
428.28	5362.17
428.46	5305.99
428.65	5350.46
428.84	5582.18
429.03	5453.45
429.22	5357.49
429.40	5479.19
429.59	5392.59
429.78	5282.59
429.97	5282.59
430.16	5551.75
430.34	5664.10
430.53	5570.48
430.72	5706.23
430.91	5638.35
431.10	5500.26
431.28	5806.87
431.47	5799.85
431.66	5825.59
431.85	5652.39
432.03	6024.54
432.22	6054.97
432.41	5996.45
432.60	5844.32
432.79	5863.04
432.97	5984.75
433.16	5898.15
433.35	5856.02
433.54	6083.05
433.72	6087.73
433.91	6057.31
434.10	6183.70
434.28	6047.94
434.47	6174.33
434.66	6176.67
434.85	6356.90
435.03	6291.36
435.22	6174.33
435.41	6310.08
435.59	6406.05
435.78	6368.60
435.97	6417.75
436.16	6448.18
436.34	6431.79
436.53	6593.29
436.72	6593.29
436.90	6590.95
437.09	6675.21
437.28	6455.20
437.46	6630.74
437.65	6630.74
437.84	6647.12
438.02	6656.48
438.21	6630.74
438.40	6775.85
438.58	6787.55
438.77	6916.28
438.96	6899.90
439.14	7211.19
439.33	7059.06
439.52	7194.81
439.70	7094.16
439.89	7258.00
440.08	7272.04
440.26	7234.60
440.45	7356.30
440.63	7466.31
440.82	7733.13
441.01	7515.46
441.19	7637.17
441.38	7707.38
441.57	7770.58
441.75	7735.47
441.94	7948.46
442.12	7941.44
442.31	7932.08
442.50	7967.18
442.68	8056.12
442.87	8046.76
443.05	8119.32
443.24	8215.28
443.43	8102.93
443.61	8142.72
443.80	8521.89
443.98	8135.70
444.17	7852.50
444.35	8156.77
444.54	8418.91
444.73	8344.01
444.91	8428.27
445.10	8180.17
445.28	8234.00
445.47	8081.87
445.65	8278.47
445.84	8327.63
446.02	8416.57
446.21	8374.44
446.39	8196.56
446.58	8531.25
446.77	8472.74
446.95	8177.83
447.14	8390.82
447.32	8606.15
447.51	8442.31
447.69	8489.12
447.88	8578.06
448.06	8599.13
448.25	8655.30
448.43	8538.27
448.62	8421.25
448.80	8521.89
448.99	8573.38
449.17	8812.12
449.36	8557.00
449.54	8734.88
449.73	8922.12
449.91	9137.45
450.10	8868.29
450.28	9055.53
450.46	9109.36
450.65	9114.05
450.83	8982.98
451.02	8849.57
451.20	9095.32
451.39	9128.09
451.57	9198.31
451.76	9083.62
451.94	9284.91
452.13	9320.01
452.31	9448.74
452.49	9198.31
452.68	9357.46
452.86	9341.08
453.05	9366.82
453.23	9495.55
453.42	9364.48
453.60	9139.79
453.78	9432.36
453.97	9493.21
454.15	9542.36
454.34	9359.80
454.52	9664.07
454.70	9603.22
454.89	9820.89
455.07	9645.35
455.26	9825.57
455.44	9783.44
455.62	9666.41
455.81	9839.61
455.99	10129.84
456.17	9980.04
456.36	9879.40
456.54	10284.31
456.73	10178.99
456.91	10289.00
457.09	10331.12
457.28	10595.61
457.46	10310.06
457.64	10422.41
457.83	10394.32
458.01	10441.13
458.19	10691.57
458.38	10485.60
458.56	10677.52
458.74	10717.31
458.93	10513.69
459.11	10663.48
459.29	10506.66
459.48	10745.40
459.66	10628.37
459.84	10724.33
460.03	11054.35
460.21	10974.77
460.39	10855.40
460.57	10956.05
460.76	11005.20
460.94	11239.25
461.12	11269.68
461.31	11140.95
461.49	11164.36
461.67	11054.35
461.85	11445.22
462.04	11108.18
462.22	11723.74
462.40	11653.53
462.59	11517.78
462.77	11166.70
462.95	11485.01
463.13	11508.41
463.32	11604.38
463.50	11669.91
463.68	11681.61
463.86	11964.82
464.05	11555.22
464.23	11784.60
464.41	11793.96
464.59	11733.11
464.78	12049.08
464.96	11866.52
465.14	11716.72
465.32	11936.73
465.50	11920.35
465.69	12156.74
465.87	11976.52
466.05	12133.34
466.23	12177.81
466.41	12276.11
466.60	12404.84
466.78	12219.94
466.96	12102.91
467.14	12037.38
467.32	12198.87
467.51	12666.98
467.69	12255.04
467.87	12212.92
468.05	12451.65
468.23	12458.67
468.41	12198.87
468.60	12355.69
468.78	12781.67
468.96	12599.10
469.14	12837.84
469.32	12779.32
469.50	12713.79
469.69	12870.61
469.87	12891.67
470.05	13053.17
470.23	13097.64
470.41	13261.48
470.59	13202.96
470.77	13163.17
470.95	13188.92
471.14	13465.10
471.32	13025.08
471.50	13626.60
471.68	13451.06
471.86	13699.16
472.04	13633.62
472.22	13844.27
472.40	13750.65
472.58	13771.71
472.77	13846.61
472.95	14052.58
473.13	14307.69
473.31	13921.51
473.49	14073.64
473.67	14178.97
473.85	14085.34
474.03	14750.06
474.21	14597.92
474.39	14726.65
474.57	14595.58
474.75	14574.52
474.93	14874.10
475.12	14745.38
475.30	15070.71
475.48	15131.56
475.66	15068.37
475.84	15044.96
476.02	15059.01
476.20	15171.35
476.38	15576.27
476.56	15824.36
476.74	16035.01
476.92	15793.94
477.10	15676.91
477.28	16016.29
477.46	16142.67
477.64	16177.78
477.82	16542.91
478.00	16940.80
478.18	16718.45
478.36	16886.97
478.54	16828.45
478.72	16772.28
478.90	17542.32
479.08	17455.72
479.26	17556.36
479.44	17666.36
479.62	17795.09
479.80	17792.75
479.98	18068.94
480.16	18623.64
480.34	17869.99
480.52	18452.78
480.70	18452.78
480.88	18244.48
481.06	18618.96
481.24	18551.09
481.41	18953.66
481.59	19363.25
481.77	19557.52
481.95	19424.11
482.13	19653.48
482.31	19737.74
482.49	20072.43
482.67	19969.45
482.85	20514.80
483.03	20563.95
483.21	20748.85
483.39	20444.58
483.57	20945.45
483.74	20858.85
483.92	21317.60
484.10	21102.27
484.28	21687.40
484.46	21823.16
484.64	22319.35
484.82	21902.73
485.00	22101.68
485.18	22410.63
485.35	23014.49
485.53	22651.70
485.71	22941.93
485.89	23543.45
486.07	23290.67
486.25	23384.29
486.43	23248.54
486.61	23761.12
486.78	23873.46
486.96	24210.50
487.14	24372.00
487.32	24278.38
487.50	24409.45
487.68	25017.99
487.85	25319.92
488.03	25345.66
488.21	25619.50
488.39	25507.16
488.57	26106.34
488.75	26047.82
488.92	26513.59
489.10	26394.22
489.28	26466.78
489.46	26941.91
489.64	26630.62
489.81	27707.26
489.99	27538.74
490.17	27562.15
490.35	27995.15
490.53	27824.29
490.70	28339.21
490.88	28144.94
491.06	28453.89
491.24	28474.96
491.41	28886.89
491.59	29132.65
491.77	29256.70
491.95	29345.64
492.13	29497.77
492.30	30089.93
492.48	29895.66
492.66	29846.51
492.84	30206.95
493.01	30195.25
493.19	30433.99
493.37	30717.19
493.54	30920.82
493.72	31463.82
493.90	31519.99
494.08	31384.24
494.25	31531.70
494.43	31934.27
494.61	32418.76
494.79	32313.44
494.96	32058.32
495.14	32521.74
495.32	32917.29
495.49	32919.63
495.67	33195.82
495.85	33268.37
496.02	33387.74
496.20	33495.41
496.38	33771.59
496.55	33729.46
496.73	34815.47
496.91	33970.54
497.09	34227.99
497.26	34693.76
497.44	34487.79
497.62	35622.95
497.79	35388.90
497.97	35068.25
498.14	36098.08
498.32	35653.38
498.50	36016.16
498.67	36554.49
498.85	36308.73
499.03	36526.40
499.20	36589.59
499.38	36818.97
499.56	36655.13
499.73	37146.64
499.91	37270.69
500.08	37462.61
500.26	37223.88
500.44	37455.59
500.61	37483.68
500.79	37376.01
500.97	37930.72
501.14	38417.55
501.32	38223.29
501.49	38689.06
501.67	38630.54
501.84	38829.49
502.02	38536.92
502.20	38899.70
502.37	39005.03
502.55	39388.88
502.72	39501.22
502.90	39255.46
503.07	39246.10
503.25	39473.13
503.43	39653.36
503.60	39271.85
503.78	39789.11
503.95	39938.90
504.13	40238.49
504.30	40367.22
504.48	40446.80
504.65	40706.60
504.83	41036.61
505.01	40891.50
505.18	41261.30
505.36	41345.56
505.53	41102.15
505.71	41467.27
505.88	41397.06
506.06	41013.21
506.23	41841.76
506.41	41844.10
506.58	42162.41
506.76	41874.52
506.93	42375.40
507.11	42101.56
507.28	42480.72
507.46	42382.42
507.63	42696.05
507.81	42773.29
507.98	42684.35
508.16	43328.00
508.33	43515.24
508.50	43093.94
508.68	43323.32
508.85	43674.40
509.03	43826.53
509.20	43880.36
509.38	44240.81
509.55	44219.74
509.73	44292.30
509.90	44563.80
510.08	44879.77
510.25	44409.32
510.42	44502.95
510.60	44423.37
510.77	45148.93
510.95	45375.97
511.12	44971.05
511.30	44858.71
511.47	44973.39
511.64	45432.14
511.82	45951.74
511.99	45263.62
512.17	45298.73
512.34	45420.44
512.51	45993.87
512.69	46192.81
512.86	46164.73
513.04	46602.41
513.21	46351.97
513.38	46637.51
513.56	46913.70
513.73	46752.20
513.90	46698.37
514.08	46579.00
514.25	46787.31
514.43	47330.31
514.60	47372.44
514.77	47264.78
514.95	47515.22
515.12	47646.29
515.29	47409.89
515.47	47730.54
515.64	48231.42
515.81	47885.02
515.99	48264.19
516.16	48074.60
516.33	48004.39
516.51	48619.95
516.68	48151.84
516.85	48048.86
517.03	48725.27
517.20	48699.53
517.37	48362.49
517.54	49008.48
517.72	48893.79
517.89	48713.57
518.06	48849.32
518.24	48919.54
518.41	48905.49
518.58	49212.10
518.75	49235.51
518.93	49258.91
519.10	49631.06
519.27	49535.10
519.45	49750.43
519.62	49879.16
519.79	49612.34
519.96	49610.00
520.14	49916.61
520.31	49996.18
520.48	49900.22
520.65	50209.17
520.83	50230.24
521.00	50593.02
521.17	50394.07
521.34	50534.51
521.52	50871.54
521.69	50588.34
521.86	50843.46
522.03	51019.00
522.20	51164.11
522.38	51262.41
522.55	51215.60
522.72	51138.36
522.89	50871.54
523.07	51143.05
523.24	51386.46
523.41	51426.25
523.58	51311.56
523.75	51386.46
523.92	51442.63
524.10	51763.29
524.27	52020.75
524.44	51913.08
524.61	51599.45
524.78	51718.82
524.96	52090.96
525.13	52203.31
525.30	52250.12
525.47	52561.41
525.64	52346.08
525.81	52610.56
525.98	52346.08
526.16	52643.33
526.33	52633.97
526.50	52673.76
526.67	52629.29
526.84	52720.57
527.01	52559.07
527.18	52868.02
527.36	52900.79
527.53	53102.07
527.70	53031.86
527.87	53226.12
528.04	52931.22
528.21	53698.91
528.38	53186.33
528.55	53631.04
528.72	53198.04
528.89	53333.79
529.07	53085.69
529.24	53308.04
529.41	53563.16
529.58	53495.28
529.75	53474.22
529.92	53701.25
530.09	53584.22
530.26	53886.15
530.43	53925.94
530.60	53661.46
530.77	53703.59
530.94	53755.08
531.11	54066.38
531.28	53771.47
531.46	54042.97
531.63	54143.61
531.80	54300.43
531.97	54120.21
532.14	54113.19
532.31	54464.27
532.48	54323.83
532.65	54642.15
532.82	54145.95
532.99	54677.25
533.16	54628.10
533.33	55035.36
533.50	54848.11
533.67	54504.06
533.84	54354.26
534.01	54808.32
534.18	54710.02
534.35	55124.30
534.52	54824.71
534.69	54930.03
534.86	55119.62
535.03	54934.71
535.20	55171.11
535.37	55250.69
535.54	55414.52
535.71	55220.26
535.88	55379.42
536.05	55388.78
536.22	55374.73
536.38	55358.35
536.55	55330.26
536.72	55498.78
536.89	55325.58
537.06	55344.31
537.23	55538.57
537.40	55475.38
537.57	55646.24
537.74	55620.49
537.91	55714.11
538.08	55669.64
538.25	55657.94
538.42	55833.48
538.59	55959.87
538.75	55671.98
538.92	55957.53
539.09	56161.15
539.26	56025.40
539.43	56039.45
539.60	56292.22
539.77	56151.79
539.94	56360.10
540.11	56324.99
540.28	56435.00
540.44	56369.46
540.61	56156.47
540.78	56327.33
540.95	56252.44
541.12	56378.82
541.29	56467.76
541.46	56264.14
541.62	56341.38
541.79	56329.67
541.96	56156.47
542.13	56521.60
542.30	56247.75
542.47	56687.78
542.63	56704.16
542.80	56811.82
542.97	56919.49
543.14	57392.28
543.31	57022.47
543.48	57212.06
543.64	57298.65
543.81	57347.81
543.98	57221.42
544.15	57190.99
544.32	57478.88
544.48	57333.76
544.65	57340.78
544.82	57439.09
544.99	57006.09
545.16	57279.93
545.32	57270.57
545.49	57476.54
545.66	57532.71
545.83	57591.22
546.00	57733.99
546.16	57619.31
546.33	57429.72
546.50	57425.04
546.67	57626.33
546.83	57411.00
547.00	57652.08
547.17	57581.86
547.34	57478.88
547.50	57902.51
547.67	57808.89
547.84	57792.51
548.00	58148.27
548.17	58094.44
548.34	57813.57
548.51	58216.14
548.67	58145.93
548.84	58017.20
549.01	57958.69
549.18	57984.43
549.34	57932.94
549.51	58152.95
549.68	58370.62
549.84	58244.23
550.01	58335.51
550.18	57925.92
550.34	58195.08
550.51	58298.06
550.68	58354.24
550.84	58394.03
551.01	58424.45
551.18	58358.92
551.34	58230.19
551.51	58539.14
551.68	58604.67
551.84	58525.10
552.01	58461.90
552.18	58466.58
552.34	58515.73
552.51	58588.29
552.68	58454.88
552.84	58679.57
553.01	58834.05
553.18	58707.66
553.34	58667.87
553.51	58857.45
553.67	58670.21
553.84	58700.64
554.01	58934.69
554.17	58972.14
554.34	59054.06
554.51	59000.22
554.67	58913.62
554.84	58974.48
555.00	59009.59
555.17	58915.96
555.33	58803.62
555.50	58787.24
555.67	58960.44
555.83	59231.94
556.00	59032.99
556.16	59168.74
556.33	59089.16
556.50	59000.22
556.66	59227.26
556.83	59023.63
556.99	59253.00
557.16	59351.30
557.32	59442.59
557.49	59566.63
557.65	59178.10
557.82	59234.28
557.98	59295.13
558.15	59447.27
558.32	59451.95
558.48	59391.09
558.65	59400.46
558.81	59238.96
558.98	59353.65
559.14	59292.79
559.31	59686.00
559.47	59440.24
559.64	59737.49
559.80	59423.86
559.97	59711.75
560.13	59650.89
560.30	59379.39
560.46	59702.38
560.63	59786.64
560.79	59657.91
560.96	59798.35
561.12	59688.34
561.29	59777.28
561.45	59997.29
561.61	59547.91
561.78	59732.81
561.94	59686.00
562.11	59763.24
562.27	59882.61
562.44	59751.54
562.60	59856.86
562.77	59835.80
562.93	59648.55
563.10	59793.67
563.26	59751.54
563.42	60055.81
563.59	59964.52
563.75	60020.70
563.92	59847.50
564.08	59922.40
564.24	60037.08
564.41	60264.11
564.57	60088.57
564.74	59842.82
564.90	60130.70
565.07	59784.30
565.23	60116.66
565.39	59906.01
565.56	60088.57
565.72	60018.36
565.88	60060.49
566.05	59952.82
566.21	60090.91
566.38	60313.26
566.54	60250.07
566.70	60280.50
566.87	60271.14
567.03	60088.57
567.19	60231.35
567.36	60320.29
567.52	60156.45
567.68	60427.95
567.85	60308.58
568.01	60266.45
568.17	60165.81
568.34	60350.71
568.50	60348.37
568.66	60266.45
568.83	60292.20
568.99	60114.32
569.15	60268.79
569.32	60205.60
569.48	60210.28
569.64	60495.83
569.81	60432.63
569.97	60453.70
570.13	60350.71
570.30	60217.30
570.46	60282.84
570.62	60362.42
570.78	60259.43
570.95	60425.61
571.11	60472.42
571.27	60289.86
571.43	60374.12
571.60	60533.28
571.76	60458.38
571.92	60523.91
572.09	60568.38
572.25	60479.44
572.41	60404.55
572.57	60484.12
572.74	60598.81
572.90	60413.91
573.06	60610.51
573.22	60441.99
573.38	60404.55
573.55	60608.17
573.71	60694.77
573.87	60680.73
574.03	60582.43
574.20	60800.10
574.36	60516.89
574.52	60708.82
574.68	60638.60
574.84	60725.20
575.01	60505.19
575.17	60650.30
575.33	60378.80
575.49	60500.51
575.65	60437.31
575.82	60706.47
575.98	60432.63
576.14	60837.54
576.30	60715.84
576.46	60624.56
576.62	60757.97
576.79	60647.96
576.95	60570.72
577.11	60568.38
577.27	60683.07
577.43	60624.56
577.59	60732.22
577.75	60727.54
577.92	60587.11
578.08	60734.56
578.24	60556.68
578.40	60694.77
578.56	60882.02
578.72	60659.66
578.88	60912.44
579.04	60856.27
579.21	60626.90
579.37	60769.67
579.53	60898.40
579.69	60666.69
579.85	60774.35
580.01	60587.11
580.17	60530.93
580.33	61031.81
580.49	60926.49
580.65	60821.16
580.82	60601.15
580.98	60647.96
581.14	60781.37
581.30	60844.57
581.46	60753.29
581.62	60746.26
581.78	60748.60
581.94	60818.82
582.10	60860.95
582.26	60839.89
582.42	60903.08
582.58	60853.93
582.74	60594.13
582.90	60860.95
583.06	60708.82
583.22	60669.03
583.38	60963.93
583.54	60657.32
583.70	60889.04
583.86	60741.58
584.02	60800.10
584.18	60966.27
584.34	60662.00
584.50	60839.89
584.66	60945.21
584.82	60783.71
584.98	61106.71
585.14	61036.49
585.30	60788.39
585.46	60928.83
585.62	60814.14
585.78	61066.92
585.94	60807.12
586.10	60783.71
586.26	60973.30
586.42	60769.67
586.58	60830.52
586.74	60853.93
586.90	60741.58
587.06	60839.89
587.22	61148.84
587.38	60828.18
587.54	61109.05
587.70	61247.14
587.86	60889.04
588.02	61080.96
588.18	61064.58
588.34	60912.44
588.49	60940.53
