SpectraSuite Data File
++++++++++++++++++++++++++++++++++++
Date: Fri Oct 25 11:25:34 EDT 2013
User: price-jones
Dark Spectrum Present: No
Reference Spectrum Present: No
Number of Sampled Component Spectra: 1
Spectrometers: USB2+H05261
Integration Time (usec): 100000 (USB2+H05261)
Spectra Averaged: 1 (USB2+H05261)
Boxcar Smoothing: 0 (USB2+H05261)
Correct for Electrical Dark: No (USB2+H05261)
Strobe/Lamp Enabled: No (USB2+H05261)
Correct for Detector Non-linearity: No (USB2+H05261)
Correct for Stray Light: No (USB2+H05261)
Number of Pixels in Processed Spectrum: 2048
>>>>>Begin Processed Spectral Data<<<<<
365.73	248.10
365.92	248.10
366.12	248.10
366.32	259.80
366.52	72.56
366.72	145.11
366.91	117.03
367.11	112.35
367.31	145.11
367.51	149.79
367.70	138.09
367.90	119.37
368.10	191.92
368.30	119.37
368.49	112.35
368.69	168.52
368.89	180.22
369.09	154.48
369.28	245.76
369.48	208.31
369.68	210.65
369.87	234.05
370.07	187.24
370.27	266.82
370.47	327.68
370.66	610.88
370.86	650.67
371.06	725.57
371.25	702.16
371.45	634.29
371.65	709.18
371.84	650.67
372.04	692.80
372.24	697.48
372.44	702.16
372.63	840.25
372.83	798.12
373.03	758.33
373.22	746.63
373.42	716.20
373.62	730.25
373.81	751.31
374.01	821.53
374.21	798.12
374.40	800.46
374.60	793.44
374.79	812.17
374.99	788.76
375.19	866.00
375.38	877.70
375.58	856.64
375.78	894.08
375.97	807.48
376.17	866.00
376.37	898.77
376.56	833.23
376.76	917.49
376.95	919.83
377.15	936.21
377.35	931.53
377.54	816.85
377.74	854.30
377.93	929.19
378.13	896.43
378.33	919.83
378.52	971.32
378.72	952.60
378.91	1018.13
379.11	985.37
379.31	931.53
379.50	978.34
379.70	957.28
379.89	922.17
380.09	938.55
380.28	945.58
380.48	1036.86
380.68	943.24
380.87	945.58
381.07	905.79
381.26	950.26
381.46	1004.09
381.65	1025.15
381.85	1001.75
382.04	1034.52
382.24	1137.50
382.43	1027.50
382.63	1027.50
382.83	1095.37
383.02	1188.99
383.22	1149.20
383.41	1083.67
383.61	1067.28
383.80	1142.18
384.00	1165.59
384.19	1135.16
384.39	1132.82
384.58	1107.07
384.78	1179.63
384.97	1186.65
385.17	1153.88
385.36	1196.01
385.56	1167.93
385.75	1142.18
385.95	1172.61
386.14	1160.91
386.34	1219.42
386.53	1144.52
386.72	1254.53
386.92	1263.89
387.11	1128.14
387.31	1284.95
387.50	1200.69
387.70	1275.59
387.89	1226.44
388.09	1203.04
388.28	1310.70
388.48	1261.55
388.67	1416.02
388.86	1371.55
389.06	1366.87
389.25	1425.39
389.45	1362.19
389.64	1345.81
389.84	1366.87
390.03	1387.94
390.22	1376.24
390.42	1373.89
390.61	1359.85
390.81	1479.22
391.00	1430.07
391.19	1390.28
391.39	1500.28
391.58	1437.09
391.78	1380.92
391.97	1542.41
392.16	1439.43
392.36	1502.62
392.55	1455.81
392.75	1586.88
392.94	1549.43
393.13	1434.75
393.33	1451.13
393.52	1549.43
393.71	1605.61
393.91	1526.03
394.10	1563.48
394.29	1558.80
394.49	1516.67
394.68	1598.59
394.88	1556.46
395.07	1732.00
395.26	1678.16
395.46	1682.85
395.65	1654.76
395.84	1645.40
396.04	1858.39
396.23	1762.42
396.42	1827.96
396.62	1813.92
396.81	1720.29
397.00	1867.75
397.19	1872.43
397.39	1668.80
397.58	1874.77
397.77	1767.10
397.97	1844.34
398.16	1905.20
398.35	1881.79
398.55	1893.49
398.74	1825.62
398.93	1895.83
399.12	1989.46
399.32	1949.67
399.51	1912.22
399.70	1947.33
399.90	1827.96
400.09	1954.35
400.28	2017.54
400.47	1977.75
400.67	2120.53
400.86	2033.93
401.05	2003.50
401.24	2073.71
401.44	2132.23
401.63	2071.37
401.82	2134.57
402.01	2136.91
402.21	2188.40
402.40	2197.76
402.59	2134.57
402.78	2218.83
402.97	2167.34
403.17	2148.61
403.36	2277.34
403.55	2326.49
403.74	2359.26
403.93	2417.77
404.13	2275.00
404.32	2380.32
404.51	2424.80
404.70	2448.20
404.89	2387.35
405.09	2490.33
405.28	2471.61
405.47	2429.48
405.66	2443.52
405.85	2492.67
406.05	2530.12
406.24	2452.88
406.43	2572.25
406.62	2621.40
406.81	2619.06
407.00	2546.50
407.20	2583.95
407.39	2696.30
407.58	2597.99
407.77	2757.15
407.96	2623.74
408.15	2766.51
408.34	2672.89
408.54	2698.64
408.73	2785.24
408.92	2703.32
409.11	2764.17
409.30	2885.88
409.49	3000.57
409.68	2998.23
409.87	2874.18
410.07	3038.02
410.26	2979.50
410.45	3030.99
410.64	3052.06
410.83	3068.44
411.02	3084.83
411.21	3110.57
411.40	3122.27
411.59	3267.39
411.78	3094.19
411.98	3236.96
412.17	3297.81
412.36	3234.62
412.55	3412.50
412.74	3499.10
412.93	3370.37
413.12	3426.54
413.31	3489.74
413.50	3538.89
413.69	3489.74
413.88	3569.32
414.07	3606.77
414.26	3651.24
414.45	3515.48
414.64	3681.66
414.83	3805.71
415.02	3791.67
415.22	3791.67
415.41	3866.56
415.60	3840.82
415.79	3854.86
415.98	3929.76
416.17	3878.27
416.36	3894.65
416.55	3929.76
416.74	4070.19
416.93	4060.83
417.12	4147.43
417.31	4091.26
417.50	4084.23
417.69	4290.20
417.88	4248.07
418.07	4273.82
418.26	4304.25
418.45	4542.98
418.64	4498.51
418.83	4437.66
419.02	4341.69
419.21	4440.00
419.39	4557.02
419.58	4456.38
419.77	4507.87
419.96	4306.59
420.15	4521.92
420.34	4425.95
420.53	4514.89
420.72	4519.57
420.91	4695.11
421.10	4741.93
421.29	4814.48
421.48	4695.11
421.67	4741.93
421.86	4760.65
422.05	4837.89
422.24	4875.34
422.43	4940.87
422.61	5053.22
422.80	4861.29
422.99	4919.81
423.18	5050.88
423.37	4844.91
423.56	4851.93
423.75	4952.57
423.94	4873.00
424.13	4599.15
424.32	4762.99
424.50	4968.96
424.69	5071.94
424.88	5034.49
425.07	4954.91
425.26	4842.57
425.45	4971.30
425.64	4851.93
425.83	4814.48
426.01	5020.45
426.20	4990.02
426.39	5043.85
426.58	4950.23
426.77	4891.72
426.96	5221.74
427.15	5210.03
427.33	5195.99
427.52	5153.86
427.71	5256.84
427.90	5247.48
428.09	5193.65
428.28	5401.96
428.46	5376.21
428.65	5329.40
428.84	5341.10
429.03	5458.13
429.22	5310.68
429.40	5561.11
429.59	5483.88
429.78	5158.54
429.97	5320.04
430.16	5476.85
430.34	5540.05
430.53	5427.70
430.72	5472.17
430.91	5441.75
431.10	5551.75
431.28	5558.77
431.47	5816.23
431.66	5788.14
431.85	5633.67
432.03	5827.93
432.22	5851.34
432.41	5872.40
432.60	5877.09
432.79	6017.52
432.97	6031.56
433.16	6083.05
433.35	5764.74
433.54	6022.20
433.72	6092.41
433.91	5954.32
434.10	5959.00
434.28	6080.71
434.47	6211.78
434.66	6150.93
434.85	6274.98
435.03	6289.02
435.22	6242.21
435.41	6392.00
435.59	6349.87
435.78	6483.28
435.97	6494.99
436.16	6490.31
436.34	6384.98
436.53	6401.37
436.72	6616.69
436.90	6356.90
437.09	6574.56
437.28	6466.90
437.46	6546.48
437.65	6581.59
437.84	6803.94
438.02	6649.46
438.21	6803.94
438.40	6544.14
438.58	6825.00
438.77	7005.22
438.96	6932.67
439.14	7091.82
439.33	6963.09
439.52	7082.46
439.70	7248.64
439.89	7274.38
440.08	7454.61
440.26	7417.16
440.45	7424.18
440.63	7353.96
440.82	7552.91
441.01	7187.79
441.19	7620.78
441.38	7632.49
441.57	7625.47
441.75	7751.85
441.94	7967.18
442.12	7758.88
442.31	7941.44
442.50	7864.20
442.68	7913.35
442.87	7882.92
443.05	7808.03
443.24	8109.96
443.43	8006.97
443.61	8088.89
443.80	8486.78
443.98	8004.63
444.17	7913.35
444.35	8072.51
444.54	8372.10
444.73	8269.11
444.91	8016.33
445.10	8329.97
445.28	8231.66
445.47	8329.97
445.65	8374.44
445.84	8362.73
446.02	8372.10
446.21	8262.09
446.39	8257.41
446.58	8430.61
446.77	8566.36
446.95	8402.52
447.14	8367.42
447.32	8388.48
447.51	8463.38
447.69	8496.14
447.88	8383.80
448.06	8463.38
448.25	8411.89
448.43	8549.98
448.62	8662.32
448.80	8463.38
448.99	8514.87
449.17	8716.16
449.36	8620.19
449.54	8648.28
449.73	8865.95
449.91	9064.89
450.10	8978.30
450.28	9289.59
450.46	8772.33
450.65	9132.77
450.83	8966.59
451.02	8985.32
451.20	9174.90
451.39	9043.83
451.57	8961.91
451.76	9107.02
451.94	9193.62
452.13	9336.40
452.31	9219.37
452.49	9240.44
452.68	9214.69
452.86	9329.38
453.05	9465.13
453.23	9415.98
453.42	9408.95
453.60	9345.76
453.78	9486.19
453.97	9338.74
454.15	9425.34
454.34	9441.72
454.52	9596.20
454.70	9554.07
454.89	9621.94
455.07	9731.95
455.26	9823.23
455.44	9666.41
455.62	9989.41
455.81	9975.36
455.99	9905.15
456.17	9961.32
456.36	9987.07
456.54	10097.07
456.73	10256.23
456.91	10225.80
457.09	10436.45
457.28	10555.82
457.46	10153.24
457.64	10375.59
457.83	10553.48
458.01	10267.93
458.19	10719.65
458.38	10675.18
458.56	10724.33
458.74	10696.25
458.93	10490.28
459.11	10628.37
459.29	10452.83
459.48	10630.71
459.66	10586.24
459.84	10834.34
460.03	10815.62
460.21	10810.93
460.39	10970.09
460.57	10944.34
460.76	11073.07
460.94	11286.06
461.12	11131.59
461.31	11000.52
461.49	10979.45
461.67	11147.97
461.85	11501.39
462.04	11262.66
462.22	11676.93
462.40	11576.29
462.59	11260.32
462.77	11375.00
462.95	11456.92
463.13	11503.73
463.32	11611.40
463.50	11707.36
463.68	11653.53
463.86	11609.06
464.05	11573.95
464.23	11578.63
464.41	11995.25
464.59	11637.14
464.78	12294.83
464.96	11901.62
465.14	11477.99
465.32	11580.97
465.50	11866.52
465.69	11859.49
465.87	12226.96
466.05	11929.71
466.23	11967.16
466.41	12138.02
466.60	12538.25
466.78	12159.08
466.96	12091.21
467.14	12088.87
467.32	12276.11
467.51	12479.74
467.69	12030.35
467.87	12194.19
468.05	12526.55
468.23	12362.71
468.41	12428.24
468.60	12578.04
468.78	12688.04
468.96	12484.42
469.14	12664.64
469.32	12943.16
469.50	12468.03
469.69	12732.51
469.87	12856.56
470.05	12798.05
470.23	12980.61
470.41	12987.63
470.59	13502.55
470.77	13111.68
470.95	13167.85
471.14	13692.13
471.32	13104.66
471.50	13488.51
471.68	13816.18
471.86	13537.66
472.04	13687.45
472.22	13902.78
472.40	13816.18
472.58	13848.95
472.77	13867.67
472.95	13975.34
473.13	14368.55
473.31	13898.10
473.49	14125.13
473.67	14040.87
473.85	14101.73
474.03	14609.62
474.21	14403.66
474.39	14649.41
474.57	14368.55
474.75	14817.93
474.93	14785.16
475.12	14871.76
475.30	15229.87
475.48	14986.45
475.66	15007.52
475.84	15103.48
476.02	15227.53
476.20	15201.78
476.38	15391.36
476.56	15892.24
476.74	15875.85
476.92	15765.85
477.10	15440.51
477.28	16002.24
477.46	15934.37
477.64	16205.87
477.82	16369.71
478.00	17067.19
478.18	16840.15
478.36	16823.77
478.54	16924.41
478.72	17116.34
478.90	17359.75
479.08	17436.99
479.26	17549.34
479.44	17411.25
479.62	17841.90
479.80	17905.10
479.98	17968.29
480.16	18209.37
480.34	17916.80
480.52	18448.10
480.70	18515.98
480.88	18279.58
481.06	18494.91
481.24	18939.62
481.41	19330.48
481.59	19180.69
481.77	19566.88
481.95	19353.89
482.13	19632.41
482.31	19527.09
482.49	19822.00
482.67	20056.05
482.85	19962.43
483.03	20503.09
483.21	20662.25
483.39	20849.49
483.57	20865.88
483.74	20802.68
483.92	21259.09
484.10	21165.46
484.28	21392.50
484.46	21717.83
484.64	21902.73
484.82	21701.45
485.00	22108.70
485.18	22944.27
485.35	22768.73
485.53	22925.55
485.71	22930.23
485.89	23271.95
486.07	23119.81
486.25	23283.65
486.43	23573.88
486.61	23594.94
486.78	24079.43
486.96	23964.75
487.14	24489.03
487.32	24631.80
487.50	24889.26
487.68	24704.35
487.85	24662.22
488.03	25287.15
488.21	25579.71
488.39	25715.47
488.57	25860.58
488.75	25986.97
488.92	26190.59
489.10	26450.39
489.28	26497.20
489.46	27014.46
489.64	27197.02
489.81	27466.19
489.99	27765.78
490.17	27782.16
490.35	28219.84
490.53	27915.57
490.70	28177.71
490.88	27901.53
491.06	28350.91
491.24	28854.12
491.41	28776.89
491.59	29127.97
491.77	29170.10
491.95	29195.84
492.13	29448.62
492.30	29462.66
492.48	29530.54
492.66	29998.65
492.84	30047.80
493.01	30689.10
493.19	30457.39
493.37	30740.60
493.54	30771.02
493.72	31393.61
493.90	31260.20
494.08	31681.49
494.25	31873.42
494.43	32060.66
494.61	32226.84
494.79	31910.86
494.96	32360.25
495.14	32163.64
495.32	32601.32
495.49	32882.19
495.67	33048.36
495.85	33186.46
496.02	33181.77
496.20	33666.27
496.38	33940.11
496.55	33715.42
496.73	34686.74
496.91	34064.16
497.09	34677.38
497.26	34623.54
497.44	34848.24
497.62	35185.27
497.79	35805.52
497.97	35136.12
498.14	35569.12
498.32	35990.42
498.50	35831.26
498.67	36257.24
498.85	36182.34
499.03	36376.61
499.20	36671.51
499.38	36662.15
499.56	36900.89
499.73	37352.61
499.91	36893.86
500.08	37371.33
500.26	37221.54
500.44	37233.24
500.61	37848.80
500.79	37156.00
500.97	37832.42
501.14	38597.77
501.32	38452.66
501.49	38150.73
501.67	38548.62
501.84	38684.37
502.02	38672.67
502.20	38768.63
502.37	38920.77
502.55	38658.63
502.72	39447.39
502.90	39342.06
503.07	39578.46
503.25	39222.70
503.43	39571.44
503.60	39906.13
503.78	39988.05
503.95	40367.22
504.13	40339.13
504.30	40444.46
504.48	40322.75
504.65	40334.45
504.83	41069.38
505.01	41118.53
505.18	41001.50
505.36	41366.63
505.53	41003.85
505.71	41333.86
505.88	41600.68
506.06	41375.99
506.23	41764.52
506.41	41495.36
506.58	41631.11
506.76	42148.37
506.93	42717.12
507.11	42080.49
507.28	41801.97
507.46	42485.40
507.63	42794.36
507.81	43173.52
507.98	42817.76
508.16	42808.40
508.33	43232.04
508.50	43037.77
508.68	43133.73
508.85	43887.39
509.03	43292.89
509.20	43920.15
509.38	43903.77
509.55	43835.89
509.73	44203.36
509.90	44392.94
510.08	44350.81
510.25	44631.68
510.42	44411.67
510.60	44739.34
510.77	44783.81
510.95	45256.60
511.12	44868.07
511.30	45057.65
511.47	44973.39
511.64	45500.01
511.82	45808.96
511.99	45333.84
512.17	45825.35
512.34	45415.76
512.51	45876.84
512.69	45738.75
512.86	46178.77
513.04	46440.91
513.21	46469.00
513.38	46469.00
513.56	46852.84
513.73	46604.75
513.90	46735.82
514.08	46412.82
514.25	46969.87
514.43	47026.04
514.60	47086.90
514.77	47014.34
514.95	47442.66
515.12	47239.03
515.29	46841.14
515.47	47772.67
515.64	47803.10
515.81	47767.99
515.99	47667.35
516.16	48334.40
516.33	47976.30
516.51	48783.79
516.68	48329.72
516.85	48399.94
517.03	48374.19
517.20	48692.50
517.37	48374.19
517.54	48474.84
517.72	48758.04
517.89	49205.08
518.06	48987.41
518.24	48832.94
518.41	48978.05
518.58	48765.06
518.75	48816.55
518.93	49322.11
519.10	49397.01
519.27	50000.86
519.45	49347.86
519.62	49628.72
519.79	49549.14
519.96	49708.30
520.14	49804.26
520.31	49932.99
520.48	50106.19
520.65	50153.00
520.83	50412.80
521.00	50426.84
521.17	50251.30
521.34	50522.80
521.52	50794.31
521.69	50529.83
521.86	51000.27
522.03	51035.38
522.20	50946.44
522.38	51220.28
522.55	50908.99
522.72	50974.53
522.89	51030.70
523.07	51679.03
523.24	51494.13
523.41	51468.38
523.58	51737.54
523.75	51667.33
523.92	51562.00
524.10	51576.04
524.27	51894.36
524.44	52020.75
524.61	52088.62
524.78	52245.44
524.96	52133.09
525.13	51955.21
525.30	52074.58
525.47	52317.99
525.64	52121.39
525.81	52339.06
525.98	52369.49
526.16	52629.29
526.33	52310.97
526.50	53027.18
526.67	52655.03
526.84	52589.50
527.01	52870.36
527.18	52514.60
527.36	52444.38
527.53	53057.60
527.70	53130.16
527.87	53193.36
528.04	53411.02
528.21	53155.91
528.38	53071.65
528.55	53364.21
528.72	53427.41
528.89	53275.27
529.07	53333.79
529.24	53420.39
529.41	53446.13
529.58	53497.62
529.75	53439.11
529.92	53563.16
530.09	53752.74
530.26	53806.58
530.43	53818.28
530.60	53542.10
530.77	53607.63
530.94	53862.75
531.11	53759.76
531.28	54014.88
531.46	53794.87
531.63	53998.50
531.80	53961.05
531.97	53961.05
532.14	54258.30
532.31	54213.83
532.48	54447.88
532.65	54150.63
532.82	54468.95
532.99	54791.94
533.16	54490.01
533.33	54695.98
533.50	54747.47
533.67	54646.83
533.84	54412.77
534.01	54707.68
534.18	54822.37
534.35	54836.41
534.52	54820.03
534.69	54986.21
534.86	55356.01
535.03	54719.38
535.20	55107.91
535.37	55189.83
535.54	55196.85
535.71	54901.95
535.88	55173.45
536.05	55409.84
536.22	55477.72
536.38	55264.73
536.55	55131.32
536.72	55529.21
536.89	55264.73
537.06	55391.12
537.23	55676.66
537.40	55444.95
537.57	55501.12
537.74	55676.66
537.91	55765.60
538.08	55711.77
538.25	55524.53
538.42	55725.81
538.59	55798.37
538.75	55669.64
538.92	56020.72
539.09	55983.27
539.26	55859.23
539.43	55936.46
539.60	56259.46
539.77	56025.40
539.94	56317.97
540.11	56109.66
540.28	56364.78
540.44	56453.72
540.61	56320.31
540.78	56360.10
540.95	56420.95
541.12	56081.58
541.29	56217.33
541.46	56264.14
541.62	56545.00
541.79	56523.94
541.96	56343.72
542.13	56308.61
542.30	56528.62
542.47	56673.73
542.63	56781.40
542.80	56853.95
542.97	56793.10
543.14	57200.35
543.31	57151.20
543.48	57031.83
543.64	57289.29
543.81	57109.07
543.98	57258.87
544.15	56982.68
544.32	57413.34
544.48	57403.98
544.65	57429.72
544.82	57244.82
544.99	57226.10
545.16	57516.32
545.32	57420.36
545.49	57504.62
545.66	57579.52
545.83	57359.51
546.00	57497.60
546.16	57670.80
546.33	57457.81
546.50	57528.03
546.67	57640.37
546.83	57467.17
547.00	57457.81
547.17	57347.81
547.34	57731.65
547.50	57705.91
547.67	57769.10
547.84	57792.51
548.00	57982.09
548.17	58078.05
548.34	57911.88
548.51	58164.65
548.67	57979.75
548.84	57925.92
549.01	57961.03
549.18	58054.65
549.34	58010.18
549.51	58347.21
549.68	58223.17
549.84	58171.67
550.01	58372.96
550.18	58220.83
550.34	58314.45
550.51	58473.60
550.68	58394.03
550.84	57991.45
551.01	58335.51
551.18	58513.39
551.34	58415.09
551.51	58489.99
551.68	58408.07
551.84	58464.24
552.01	58375.30
552.18	58487.65
552.34	58468.92
552.51	58726.38
552.68	58429.13
552.84	58471.26
553.01	58738.08
553.18	58382.32
553.34	58653.82
553.51	58700.64
553.67	58618.72
553.84	58824.68
554.01	58974.48
554.17	58915.96
554.34	58913.62
554.51	58941.71
554.67	58953.41
554.84	58848.09
555.00	58852.77
555.17	58677.23
555.33	58960.44
555.50	58705.32
555.67	58843.41
555.83	58965.12
556.00	58927.67
556.16	59030.65
556.33	59241.30
556.50	59133.63
556.66	59360.67
556.83	59030.65
556.99	59423.86
557.16	59241.30
557.32	59264.70
557.49	59456.63
557.65	59133.63
557.82	59166.40
557.98	59037.67
558.15	59374.71
558.32	59442.59
558.48	59159.38
558.65	59433.22
558.81	59400.46
558.98	59515.14
559.14	59568.97
559.31	59461.31
559.47	59473.01
559.64	59501.10
559.80	59564.29
559.97	59657.91
560.13	59430.88
560.30	59547.91
560.46	59437.90
560.63	59730.47
560.79	59554.93
560.96	59613.44
561.12	59583.02
561.29	59671.96
561.45	59873.24
561.61	59657.91
561.78	59814.73
561.94	59847.50
562.11	59568.97
562.27	59632.17
562.44	59693.02
562.60	60123.68
562.77	59728.13
562.93	59573.66
563.10	60011.34
563.26	59671.96
563.42	60065.17
563.59	60074.53
563.75	60074.53
563.92	59887.29
564.08	59889.63
564.24	59976.23
564.41	60053.47
564.57	60001.97
564.74	60285.18
564.90	60111.98
565.07	59927.08
565.23	60046.44
565.39	60018.36
565.56	59852.18
565.72	60053.47
565.88	60079.21
566.05	60072.19
566.21	60107.30
566.38	60083.89
566.54	60074.53
566.70	60259.43
566.87	60170.49
567.03	60016.02
567.19	60317.95
567.36	60032.40
567.52	60128.36
567.68	60343.69
567.85	60268.79
568.01	60214.96
568.17	60128.36
568.34	60212.62
568.50	60271.14
568.66	60168.15
568.83	60444.33
568.99	60212.62
569.15	60226.66
569.32	60172.83
569.48	60102.62
569.64	60303.90
569.81	60348.37
569.97	60130.70
570.13	60336.67
570.30	60030.06
570.46	60388.16
570.62	60313.26
570.78	60561.36
570.95	60484.12
571.11	60444.33
571.27	60369.44
571.43	60441.99
571.60	60463.06
571.76	60481.78
571.92	60692.43
572.09	60460.72
572.25	60514.55
572.41	60446.68
572.57	60416.25
572.74	60633.92
572.90	60432.63
573.06	60385.82
573.22	60439.65
573.38	60584.77
573.55	60488.80
573.71	60622.22
573.87	60514.55
574.03	60484.12
574.20	60706.47
574.36	60519.23
574.52	60568.38
574.68	60573.06
574.84	60769.67
575.01	60741.58
575.17	60498.17
575.33	60395.18
575.49	60544.98
575.65	60657.32
575.82	60643.28
575.98	60615.19
576.14	61078.62
576.30	60664.35
576.46	60584.77
576.62	60596.47
576.79	60835.20
576.95	60474.76
577.11	60650.30
577.27	60526.25
577.43	60743.92
577.59	60617.53
577.75	60671.37
577.92	60570.72
578.08	60713.50
578.24	60575.40
578.40	60914.78
578.56	60917.12
578.72	60669.03
578.88	60886.70
579.04	60905.42
579.21	60825.84
579.37	60706.47
579.53	60605.83
579.69	60540.30
579.85	60573.06
580.01	60479.44
580.17	60720.52
580.33	60786.05
580.49	60863.29
580.65	60889.04
580.82	60774.35
580.98	60619.88
581.14	60741.58
581.30	60764.99
581.46	60783.71
581.62	60797.76
581.78	60575.40
581.94	60816.48
582.10	60867.97
582.26	60853.93
582.42	60441.99
582.58	60917.12
582.74	60729.88
582.90	60928.83
583.06	60764.99
583.22	60680.73
583.38	60673.71
583.54	60832.86
583.70	60891.38
583.86	60764.99
584.02	60818.82
584.18	60804.78
584.34	60982.66
584.50	60743.92
584.66	60973.30
584.82	60692.43
584.98	61041.17
585.14	60846.91
585.30	60816.48
585.46	61050.53
585.62	60865.63
585.78	60994.36
585.94	60727.54
586.10	60807.12
586.26	60921.80
586.42	60949.89
586.58	61029.47
586.74	60898.40
586.90	61045.85
587.06	61003.72
587.22	61087.98
587.38	60750.94
587.54	61162.88
587.70	61109.05
587.86	60760.31
588.02	60999.04
588.18	61008.40
588.34	60926.49
588.49	60935.85
