SpectraSuite Data File
++++++++++++++++++++++++++++++++++++
Date: Fri Oct 25 10:43:23 EDT 2013
User: price-jones
Dark Spectrum Present: No
Reference Spectrum Present: No
Number of Sampled Component Spectra: 1
Spectrometers: USB2+H05261
Integration Time (usec): 100000 (USB2+H05261)
Spectra Averaged: 1 (USB2+H05261)
Boxcar Smoothing: 0 (USB2+H05261)
Correct for Electrical Dark: No (USB2+H05261)
Strobe/Lamp Enabled: No (USB2+H05261)
Correct for Detector Non-linearity: No (USB2+H05261)
Correct for Stray Light: No (USB2+H05261)
Number of Pixels in Processed Spectrum: 2048
>>>>>Begin Processed Spectral Data<<<<<
365.73	74.90
365.92	74.90
366.12	74.90
366.32	30.43
366.52	35.11
366.72	35.11
366.91	51.49
367.11	46.81
367.31	0.00
367.51	7.02
367.70	7.02
367.90	37.45
368.10	63.19
368.30	39.79
368.49	9.36
368.69	42.13
368.89	18.72
369.09	65.54
369.28	14.04
369.48	86.60
369.68	60.85
369.87	77.24
370.07	98.30
370.27	161.50
370.47	283.20
370.66	374.49
370.86	395.55
371.06	416.62
371.25	479.81
371.45	397.89
371.65	486.83
371.84	550.03
372.04	468.11
372.24	475.13
372.44	503.22
372.63	463.43
372.83	557.05
373.03	482.15
373.22	531.30
373.42	566.41
373.62	561.73
373.81	524.28
374.01	521.94
374.21	566.41
374.40	575.77
374.60	482.15
374.79	538.32
374.99	638.97
375.19	526.62
375.38	543.00
375.58	514.92
375.78	634.29
375.97	610.88
376.17	592.16
376.37	596.84
376.56	664.71
376.76	608.54
376.95	592.16
377.15	561.73
377.35	631.94
377.54	741.95
377.74	713.86
377.93	615.56
378.13	622.58
378.33	592.16
378.52	650.67
378.72	716.20
378.91	585.13
379.11	643.65
379.31	636.63
379.50	629.60
379.70	702.16
379.89	634.29
380.09	678.76
380.28	629.60
380.48	744.29
380.68	669.39
380.87	690.46
381.07	706.84
381.26	746.63
381.46	748.97
381.65	662.37
381.85	662.37
382.04	706.84
382.24	695.14
382.43	706.84
382.63	657.69
382.83	720.88
383.02	760.67
383.22	755.99
383.41	711.52
383.61	655.35
383.80	828.55
384.00	718.54
384.19	697.48
384.39	828.55
384.58	826.21
384.78	840.25
384.97	774.72
385.17	798.12
385.36	809.83
385.56	826.21
385.75	800.46
385.95	781.74
386.14	854.30
386.34	835.57
386.53	880.04
386.72	910.47
386.92	835.57
387.11	868.34
387.31	856.64
387.50	837.91
387.70	889.40
387.89	819.19
388.09	863.66
388.28	884.72
388.48	912.81
388.67	922.17
388.86	873.02
389.06	896.43
389.25	931.53
389.45	961.96
389.64	973.66
389.84	985.37
390.03	968.98
390.22	1050.90
390.42	964.30
390.61	933.87
390.81	945.58
391.00	1041.54
391.19	1069.62
391.39	1107.07
391.58	1078.99
391.78	1076.65
391.97	1135.16
392.16	997.07
392.36	1020.47
392.55	1048.56
392.75	987.71
392.94	933.87
393.13	1093.03
393.33	999.41
393.52	1081.33
393.71	1086.01
393.91	1116.44
394.10	1062.60
394.29	1057.92
394.49	1041.54
394.68	1203.04
394.88	1277.93
395.07	1263.89
395.26	1320.06
395.46	1135.16
395.65	1212.40
395.84	1219.42
396.04	1205.38
396.23	1163.25
396.42	1123.46
396.62	1160.91
396.81	1284.95
397.00	1203.04
397.19	1282.61
397.39	1219.42
397.58	1366.87
397.77	1291.98
397.97	1453.47
398.16	1444.11
398.35	1430.07
398.55	1458.15
398.74	1453.47
398.93	1502.62
399.12	1509.65
399.32	1488.58
399.51	1519.01
399.70	1507.30
399.90	1554.12
400.09	1500.28
400.28	1666.46
400.47	1577.52
400.67	1769.44
400.86	1717.95
401.05	1645.40
401.24	1687.53
401.44	1741.36
401.63	1708.59
401.82	1720.29
402.01	1678.16
402.21	1797.53
402.40	1694.55
402.59	1706.25
402.78	1842.00
402.97	1785.83
403.17	1750.72
403.36	1757.74
403.55	1846.68
403.74	1785.83
403.93	1743.70
404.13	1923.92
404.32	1830.30
404.51	1874.77
404.70	1818.60
404.89	1919.24
405.09	1912.22
405.28	1919.24
405.47	1881.79
405.66	1996.48
405.85	1947.33
406.05	1914.56
406.24	2085.42
406.43	2097.12
406.62	2033.93
406.81	2106.48
407.00	2097.12
407.20	2064.35
407.39	2073.71
407.58	2132.23
407.77	2169.68
407.96	2277.34
408.15	2223.51
408.34	2174.36
408.54	2300.75
408.73	2370.96
408.92	2249.25
409.11	2408.41
409.30	2265.64
409.49	2225.85
409.68	2251.60
409.87	2197.76
410.07	2375.64
410.26	2424.80
410.45	2417.77
410.64	2443.52
410.83	2576.93
411.02	2555.86
411.21	2602.68
411.40	2586.29
411.59	2700.98
411.78	2567.57
411.98	2637.78
412.17	2623.74
412.36	2590.97
412.55	2724.38
412.74	2750.13
412.93	2761.83
413.12	2605.02
413.31	2846.09
413.50	2715.02
413.69	2923.33
413.88	2963.12
414.07	2944.39
414.26	2963.12
414.45	2993.55
414.64	2899.92
414.83	2991.20
415.02	2984.18
415.22	3021.63
415.41	3126.96
415.60	3136.32
415.79	3201.85
415.98	3276.75
416.17	3279.09
416.36	3229.94
416.55	3236.96
416.74	3178.45
416.93	3332.92
417.12	3222.92
417.31	3384.41
417.50	3403.14
417.69	3370.37
417.88	3377.39
418.07	3339.94
418.26	3461.65
418.45	3494.42
418.64	3578.68
418.83	3571.66
419.02	3541.23
419.21	3501.44
419.39	3566.98
419.58	3466.33
419.77	3492.08
419.96	3590.38
420.15	3662.94
420.34	3740.18
420.53	3737.84
420.72	3796.35
420.91	3925.08
421.10	3772.94
421.29	3810.39
421.48	3723.79
421.67	3798.69
421.86	3707.41
422.05	3824.44
422.24	3747.20
422.43	3772.94
422.61	3978.91
422.80	4009.34
422.99	3868.91
423.18	3843.16
423.37	3946.14
423.56	3922.74
423.75	3934.44
423.94	3819.75
424.13	3616.13
424.32	3637.19
424.50	4011.68
424.69	3941.46
424.88	3955.51
425.07	3829.12
425.26	3833.80
425.45	3782.31
425.64	4002.32
425.83	3889.97
426.01	3981.25
426.20	3929.76
426.39	4100.62
426.58	3885.29
426.77	3861.88
426.96	4009.34
427.15	4004.66
427.33	4023.38
427.52	3969.55
427.71	4018.70
427.90	4072.53
428.09	4182.54
428.28	4086.58
428.46	4131.05
428.65	4042.11
428.84	4124.02
429.03	4154.45
429.22	4105.30
429.40	4140.41
429.59	4140.41
429.78	3974.23
429.97	3962.53
430.16	4084.23
430.34	4081.89
430.53	4035.08
430.72	4219.99
430.91	4133.39
431.10	4283.18
431.28	4606.17
431.47	4512.55
431.66	4629.58
431.85	4383.82
432.03	4557.02
432.22	4809.80
432.41	4594.47
432.60	4765.33
432.79	4777.03
432.97	4734.90
433.16	4674.05
433.35	4608.51
433.54	4683.41
433.72	4753.63
433.91	4573.41
434.10	4765.33
434.28	4826.18
434.47	4800.44
434.66	4959.60
434.85	4908.10
435.03	4922.15
435.22	4903.42
435.41	4945.55
435.59	4975.98
435.78	5048.54
435.97	4999.38
436.16	5184.29
436.34	5151.52
436.53	5130.45
436.72	5156.20
436.90	5177.26
437.09	5118.75
437.28	5032.15
437.46	5032.15
437.65	5212.37
437.84	5219.39
438.02	4990.02
438.21	5291.95
438.40	5085.98
438.58	5366.85
438.77	5439.40
438.96	5411.32
439.14	5678.14
439.33	5708.57
439.52	5570.48
439.70	5455.79
439.89	5619.63
440.08	5584.52
440.26	5809.21
440.45	5701.54
440.63	5816.23
440.82	5914.53
441.01	5820.91
441.19	5823.25
441.38	6113.48
441.57	6099.44
441.75	6061.99
441.94	6249.23
442.12	6218.80
442.31	6422.43
442.50	6284.34
442.68	6193.06
442.87	6434.13
443.05	6190.72
443.24	6581.59
443.43	6438.81
443.61	6485.62
443.80	6663.51
443.98	6401.37
444.17	6223.48
444.35	6464.56
444.54	6644.78
444.73	6703.29
444.91	6293.70
445.10	6516.05
445.28	6476.26
445.47	6483.28
445.65	6340.51
445.84	6518.39
446.02	6644.78
446.21	6487.96
446.39	6574.56
446.58	6567.54
446.77	6562.86
446.95	6633.08
447.14	6775.85
447.32	6766.49
447.51	6651.80
447.69	6441.15
447.88	6668.19
448.06	6857.77
448.25	6574.56
448.43	6745.42
448.62	6576.91
448.80	6724.36
448.99	6789.89
449.17	6820.32
449.36	6815.64
449.54	7026.29
449.73	7016.93
449.91	7311.83
450.10	7103.53
450.28	7187.79
450.46	7208.85
450.65	7316.51
450.83	7070.76
451.02	7009.90
451.20	7084.80
451.39	7267.36
451.57	7108.21
451.76	7096.50
451.94	7136.29
452.13	7246.30
452.31	7171.40
452.49	7218.21
452.68	7236.94
452.86	7220.55
453.05	7133.95
453.23	7267.36
453.42	7131.61
453.60	7103.53
453.78	7386.73
453.97	7449.93
454.15	7300.13
454.34	7466.31
454.52	7513.12
454.70	7442.90
454.89	7403.11
455.07	7672.28
455.26	7407.80
455.44	7639.51
455.62	7571.63
455.81	7665.25
455.99	7639.51
456.17	7786.96
456.36	7772.92
456.54	7908.67
456.73	7770.58
456.91	8278.47
457.09	8098.25
457.28	8154.43
457.46	8025.70
457.64	7960.16
457.83	8116.98
458.01	7941.44
458.19	8273.79
458.38	8283.16
458.56	8175.49
458.74	8147.40
458.93	8208.26
459.11	8173.15
459.29	8156.77
459.48	8519.55
459.66	8138.04
459.84	8409.54
460.03	8706.79
460.21	8336.99
460.39	8402.52
460.57	8332.31
460.76	8737.22
460.94	8535.93
461.12	8388.48
461.31	8498.49
461.49	8685.73
461.67	8669.34
461.85	8814.46
462.04	8589.77
462.22	9156.18
462.40	8847.22
462.59	8917.44
462.77	8879.99
462.95	8891.70
463.13	8816.80
463.32	8716.16
463.50	9069.58
463.68	8884.67
463.86	9008.72
464.05	8809.78
464.23	8931.48
464.41	9027.45
464.59	8922.12
464.78	9305.97
464.96	9186.60
465.14	9214.69
465.32	9114.05
465.50	9125.75
465.69	9324.69
465.87	9221.71
466.05	9219.37
466.23	9195.96
466.41	9214.69
466.60	9437.04
466.78	9053.19
466.96	9235.75
467.14	9394.91
467.32	9266.18
467.51	9509.60
467.69	9111.71
467.87	9589.17
468.05	9563.43
468.23	9432.36
468.41	9359.80
468.60	9343.42
468.78	9614.92
468.96	9444.06
469.14	9720.24
469.32	9764.72
469.50	9446.40
469.69	9680.46
469.87	9652.37
470.05	9771.74
470.23	9823.23
470.41	9659.39
470.59	10059.62
470.77	9804.50
470.95	10010.47
471.14	10031.54
471.32	9734.29
471.50	10265.59
471.68	10097.07
471.86	10429.43
472.04	10310.06
472.22	10504.32
472.40	10122.82
472.58	10373.25
472.77	10438.79
472.95	10679.86
473.13	10864.77
473.31	10326.44
473.49	10555.82
473.67	10548.79
473.85	10682.20
474.03	10988.82
474.21	10829.66
474.39	11012.22
474.57	10984.13
474.75	11192.44
474.93	11201.80
475.12	10876.47
475.30	11283.72
475.48	11138.61
475.66	11414.79
475.84	11281.38
476.02	11290.74
476.20	11190.10
476.38	11496.71
476.56	11662.89
476.74	11885.24
476.92	11831.41
477.10	11805.66
477.28	11889.92
477.46	12011.63
477.64	12147.38
477.82	12208.23
478.00	12416.54
478.18	12496.12
478.36	12409.52
478.54	12528.89
478.72	12329.94
478.90	12706.77
479.08	12999.34
479.26	13069.55
479.44	13078.91
479.62	13362.12
479.80	13214.66
479.98	13202.96
480.16	13362.12
480.34	13472.12
480.52	13731.92
480.70	13591.49
480.88	13535.32
481.06	13902.78
481.24	13893.42
481.41	14445.79
481.59	14750.06
481.77	14225.78
481.95	14518.34
482.13	14623.67
482.31	14581.54
482.49	14483.24
482.67	14485.58
482.85	15084.75
483.03	15073.05
483.21	15262.63
483.39	15414.77
483.57	15204.12
483.74	15562.22
483.92	15407.75
484.10	15559.88
484.28	15840.75
484.46	15845.43
484.64	16051.39
484.82	15875.85
485.00	16208.21
485.18	16170.76
485.35	16402.47
485.53	16154.38
485.71	16039.69
485.89	16409.50
486.07	16025.65
486.25	16514.82
486.43	16842.50
486.61	16978.25
486.78	17481.46
486.96	17301.24
487.14	17500.19
487.32	17334.01
487.50	17926.16
487.68	18244.48
487.85	18097.02
488.03	18155.54
488.21	18693.86
488.39	18239.79
488.57	18537.04
488.75	18679.82
488.92	18937.27
489.10	19421.77
489.28	19351.55
489.46	19625.39
489.64	19445.17
489.81	19934.34
489.99	20152.01
490.17	19917.96
490.35	20388.41
490.53	20088.82
490.70	20271.38
490.88	20435.22
491.06	20575.65
491.24	20886.94
491.41	20449.26
491.59	20739.49
491.77	20840.13
491.95	20821.41
492.13	21373.77
492.30	21633.57
492.48	21341.00
492.66	21474.42
492.84	21769.32
493.01	21923.80
493.19	21989.33
493.37	22284.24
493.54	22064.23
493.72	22504.25
493.90	22398.93
494.08	22852.99
494.25	23363.23
494.43	22993.42
494.61	23386.63
494.79	23417.06
494.96	23255.56
495.14	23393.65
495.32	23295.35
495.49	23672.18
495.67	23985.81
495.85	23821.97
496.02	24133.26
496.20	24189.44
496.38	24247.95
496.55	24467.96
496.73	24870.53
496.91	24814.36
497.09	25352.68
497.26	25003.94
497.44	24900.96
497.62	25254.38
497.79	25219.27
497.97	24795.64
498.14	25486.09
498.32	25436.94
498.50	25750.57
498.67	25935.48
498.85	25741.21
499.03	25818.45
499.20	25940.16
499.38	26359.11
499.56	25919.09
499.73	26410.60
499.91	26419.97
500.08	26469.12
500.26	26192.94
500.44	26438.69
500.61	26717.22
500.79	26384.86
500.97	26649.34
501.14	27063.61
501.32	27042.55
501.49	27061.27
501.67	27126.81
501.84	27419.38
502.02	27215.75
502.20	27604.28
502.37	28027.92
502.55	27662.79
502.72	27854.72
502.90	27775.14
503.07	27967.06
503.25	28044.30
503.43	27615.98
503.60	28278.35
503.78	27831.31
503.95	28264.31
504.13	28074.73
504.30	28987.53
504.48	28219.84
504.65	28540.49
504.83	28624.75
505.01	29146.69
505.18	29113.92
505.36	29677.99
505.53	29362.02
505.71	29364.36
505.88	29212.23
506.06	29298.83
506.23	29738.85
506.41	29376.06
506.58	29420.53
506.76	29776.30
506.93	30078.22
507.11	29820.77
507.28	29951.84
507.46	30008.01
507.63	29685.01
507.81	30012.69
507.98	29675.65
508.16	29996.31
508.33	30380.15
508.50	30368.45
508.68	30459.73
508.85	30838.90
509.03	30979.33
509.20	31150.19
509.38	30717.19
509.55	31082.31
509.73	31185.30
509.90	31438.08
510.08	30817.83
510.25	31234.45
510.42	31571.49
510.60	31587.87
510.77	31419.35
510.95	32353.23
511.12	31718.94
511.30	31889.80
511.47	31686.17
511.64	31948.31
511.82	32205.77
511.99	31906.18
512.17	32606.00
512.34	32245.56
512.51	32224.50
512.69	32304.07
512.86	32390.67
513.04	32584.94
513.21	32826.01
513.38	32496.00
513.56	32479.61
513.73	32638.77
513.90	32720.69
514.08	32912.61
514.25	33177.09
514.43	32982.83
514.60	33085.81
514.77	32950.06
514.95	33406.47
515.12	33502.43
515.29	33195.82
515.47	33759.89
515.64	33993.94
515.81	33425.19
515.99	33572.64
516.16	33682.65
516.33	33418.17
516.51	33488.38
516.68	32706.65
516.85	33041.34
517.03	33352.63
517.20	33942.45
517.37	34197.57
517.54	34265.44
517.72	33766.91
517.89	34272.46
518.06	34000.96
518.24	33799.68
518.41	34139.05
518.58	34235.02
518.75	34380.13
518.93	34646.95
519.10	34536.94
519.27	34494.82
519.45	34733.55
519.62	35159.53
519.79	35152.51
519.96	35452.09
520.14	35140.80
520.31	35147.82
520.48	34883.34
520.65	35386.56
520.83	35601.89
521.00	35342.09
521.17	35931.90
521.34	35892.12
521.52	35697.85
521.69	36004.46
521.86	35964.67
522.03	36367.24
522.20	36418.74
522.38	36079.36
522.55	36194.04
522.72	36133.19
522.89	36364.90
523.07	36830.67
523.24	36231.49
523.41	36598.96
523.58	36842.37
523.75	37163.03
523.92	36809.61
524.10	36907.91
524.27	37186.43
524.44	37034.30
524.61	37060.04
524.78	37511.77
524.96	37446.23
525.13	37294.10
525.30	37453.25
525.47	37361.97
525.64	37127.92
525.81	37380.70
525.98	36865.78
526.16	37263.67
526.33	36854.08
526.50	37331.54
526.67	37067.06
526.84	36825.99
527.01	37415.80
527.18	37457.93
527.36	38007.96
527.53	37949.45
527.70	38253.72
527.87	37998.60
528.04	38480.75
528.21	38246.69
528.38	38316.91
528.55	38782.68
528.72	38967.58
528.89	38981.62
529.07	38824.81
529.24	38422.23
529.41	38452.66
529.58	38438.62
529.75	38555.64
529.92	38923.11
530.09	38946.51
530.26	38574.37
530.43	39206.31
530.60	38651.61
530.77	39079.92
530.94	39517.60
531.11	38955.88
531.28	39180.57
531.46	39433.35
531.63	39182.91
531.80	38869.28
531.97	39124.40
532.14	38871.62
532.31	39435.69
532.48	39363.13
532.65	39159.50
532.82	39232.06
532.99	39468.45
533.16	39267.17
533.33	39798.47
533.50	39627.61
533.67	39859.32
533.84	39704.85
534.01	39971.67
534.18	39875.71
534.35	40692.55
534.52	40280.62
534.69	39812.51
534.86	40308.71
535.03	40346.15
535.20	40397.65
535.37	40748.73
535.54	40463.18
535.71	40147.21
535.88	40683.19
536.05	40364.88
536.22	40512.33
536.38	40484.25
536.55	40549.78
536.72	40676.17
536.89	40144.87
537.06	40367.22
537.23	41233.22
537.40	40950.01
537.57	40840.01
537.74	40444.46
537.91	41401.74
538.08	41289.39
538.25	40470.20
538.42	41193.43
538.59	41006.19
538.75	41163.00
538.92	41443.87
539.09	41216.83
539.26	41022.57
539.43	41338.54
539.60	41083.42
539.77	40903.20
539.94	41263.64
540.11	40975.76
540.28	41198.11
540.44	41294.07
540.61	41710.69
540.78	41226.20
540.95	41422.80
541.12	41020.23
541.29	41514.08
541.46	41771.54
541.62	41736.43
541.79	41729.41
541.96	41673.24
542.13	41689.62
542.30	41507.06
542.47	41696.64
542.63	41745.80
542.80	41928.36
542.97	42094.53
543.14	42595.41
543.31	41876.86
543.48	42387.10
543.64	42518.17
543.81	42705.41
543.98	42787.33
544.15	42403.49
544.32	42969.90
544.48	42953.51
544.65	42356.67
544.82	42677.33
544.99	42064.11
545.16	42869.25
545.32	42740.52
545.49	43318.64
545.66	43377.15
545.83	42817.76
546.00	42990.96
546.16	42951.17
546.33	42546.26
546.50	42497.11
546.67	42967.55
546.83	42616.47
547.00	42574.34
547.17	42895.00
547.34	42808.40
547.50	43262.46
547.67	43056.50
547.84	43047.13
548.00	43487.15
548.17	43618.22
548.34	43318.64
548.51	43885.04
548.67	43665.03
548.84	43842.92
549.01	43360.76
549.18	43222.67
549.34	43194.59
549.51	43838.23
549.68	43796.10
549.84	43697.80
550.01	43323.32
550.18	43782.06
550.34	43749.29
550.51	43735.25
550.68	43992.71
550.84	43328.00
551.01	43650.99
551.18	43913.13
551.34	43643.97
551.51	44158.89
551.68	44058.24
551.84	43831.21
552.01	43913.13
552.18	44282.94
552.34	43768.02
552.51	43950.58
552.68	43931.86
552.84	44158.89
553.01	44301.66
553.18	44217.40
553.34	44163.57
553.51	44446.77
553.67	43847.60
553.84	44528.69
554.01	44512.31
554.17	44406.98
554.34	44311.02
554.51	44339.11
554.67	44456.14
554.84	44287.62
555.00	44715.93
555.17	44769.77
555.33	44479.54
555.50	44378.90
555.67	44898.50
555.83	44493.58
556.00	44694.87
556.16	45188.72
556.33	44528.69
556.50	45029.57
556.66	44524.01
556.83	44406.98
556.99	44832.96
557.16	44509.97
557.32	44729.98
557.49	44685.51
557.65	44760.40
557.82	44538.05
557.98	45067.02
558.15	45050.63
558.32	44673.81
558.48	44453.79
558.65	44701.89
558.81	44744.02
558.98	44414.01
559.14	44875.09
559.31	44856.37
559.47	45017.86
559.64	45088.08
559.80	44959.35
559.97	45223.83
560.13	44671.46
560.30	44858.71
560.46	45155.96
560.63	45162.98
560.79	45256.60
560.96	45801.94
561.12	44809.56
561.29	45090.42
561.45	45230.85
561.61	44891.48
561.78	44624.65
561.94	44957.01
562.11	44957.01
562.27	45162.98
562.44	45322.13
562.60	45160.64
562.77	44987.44
562.93	45230.85
563.10	45294.05
563.26	44949.99
563.42	45357.24
563.59	44935.95
563.75	45366.60
563.92	45354.90
564.08	45249.58
564.24	45544.48
564.41	45471.93
564.57	45677.90
564.74	45441.50
564.90	45595.98
565.07	45530.44
565.23	45504.70
565.39	45319.79
565.56	45364.26
565.72	45404.05
565.88	45492.99
566.05	45408.73
566.21	45174.68
566.38	44898.50
566.54	45392.35
566.70	45928.33
566.87	45975.14
567.03	45474.27
567.19	46148.34
567.36	45904.93
567.52	45603.00
567.68	45837.05
567.85	45460.23
568.01	45705.98
568.17	45378.31
568.34	45652.15
568.50	46000.89
568.66	45333.84
568.83	45645.13
568.99	45357.24
569.15	45570.23
569.32	45560.87
569.48	45717.68
569.64	45757.47
569.81	45876.84
569.97	45645.13
570.13	45399.37
570.30	45397.03
570.46	45361.92
570.62	45429.80
570.78	45132.55
570.95	45336.18
571.11	45773.86
571.27	45350.22
571.43	45078.72
571.60	45928.33
571.76	45649.81
571.92	45212.13
572.09	45764.49
572.25	46422.19
572.41	46066.42
572.57	45911.95
572.74	45970.46
572.90	45776.20
573.06	46073.45
573.22	45996.21
573.38	45621.72
573.55	45734.07
573.71	46127.28
573.87	45825.35
574.03	45673.21
574.20	45696.62
574.36	45422.78
574.52	45893.22
574.68	45525.76
574.84	45640.45
575.01	45778.54
575.17	45752.79
575.33	45385.33
575.49	45663.85
575.65	46146.00
575.82	45811.31
575.98	45902.59
576.14	45780.88
576.30	45904.93
576.46	45724.71
576.62	45588.95
576.79	45497.67
576.95	45731.73
577.11	45755.13
577.27	45808.96
577.43	45481.29
577.59	45640.45
577.75	45792.58
577.92	45401.71
578.08	45794.92
578.24	45668.53
578.40	45654.49
578.56	45823.01
578.72	45794.92
578.88	45780.88
579.04	46286.43
579.21	45612.36
579.37	45811.31
579.53	46185.79
579.69	45249.58
579.85	45429.80
580.01	45710.66
580.17	45675.55
580.33	45603.00
580.49	45415.76
580.65	45584.27
580.82	45703.64
580.98	45858.12
581.14	45624.06
581.30	45949.40
581.46	45762.15
581.62	45460.23
581.78	46089.83
581.94	46059.40
582.10	45991.53
582.26	45963.44
582.42	45989.19
582.58	45804.28
582.74	45600.66
582.90	46000.89
583.06	45911.95
583.22	46143.66
583.38	46127.28
583.54	46169.41
583.70	46164.73
583.86	45750.45
584.02	45715.34
584.18	46199.83
584.34	45951.74
584.50	45914.29
584.66	45855.78
584.82	45483.63
584.98	46080.47
585.14	45876.84
585.30	45780.88
585.46	45490.65
585.62	45371.28
585.78	45687.26
585.94	45731.73
586.10	45584.27
586.26	45944.72
586.42	45844.07
586.58	45975.14
586.74	45830.03
586.90	45874.50
587.06	45516.40
587.22	45923.65
587.38	45558.53
587.54	45776.20
587.70	46019.61
587.86	45844.07
588.02	46040.68
588.18	45720.02
588.34	45647.47
588.49	45420.44
588.65	45523.42
588.81	45588.95
588.97	45275.32
589.13	45104.46
589.29	45766.84
589.45	45837.05
589.61	45652.15
589.77	46103.87
589.93	46066.42
590.08	46555.60
