SpectraSuite Data File
++++++++++++++++++++++++++++++++++++
Date: Fri Oct 25 11:26:04 EDT 2013
User: price-jones
Dark Spectrum Present: No
Reference Spectrum Present: No
Number of Sampled Component Spectra: 1
Spectrometers: USB2+H05261
Integration Time (usec): 100000 (USB2+H05261)
Spectra Averaged: 1 (USB2+H05261)
Boxcar Smoothing: 0 (USB2+H05261)
Correct for Electrical Dark: No (USB2+H05261)
Strobe/Lamp Enabled: No (USB2+H05261)
Correct for Detector Non-linearity: No (USB2+H05261)
Correct for Stray Light: No (USB2+H05261)
Number of Pixels in Processed Spectrum: 2048
>>>>>Begin Processed Spectral Data<<<<<
365.73	271.50
365.92	271.50
366.12	271.50
366.32	163.84
366.52	147.45
366.72	182.56
366.91	133.41
367.11	159.16
367.31	126.39
367.51	131.07
367.70	135.75
367.90	243.42
368.10	126.39
368.30	187.24
368.49	163.84
368.69	163.84
368.89	152.13
369.09	161.50
369.28	208.31
369.48	133.41
369.68	201.29
369.87	191.92
370.07	210.65
370.27	273.84
370.47	341.72
370.66	589.82
370.86	606.20
371.06	650.67
371.25	732.59
371.45	676.41
371.65	709.18
371.84	739.61
372.04	667.05
372.24	746.63
372.44	683.44
372.63	727.91
372.83	709.18
373.03	718.54
373.22	774.72
373.42	767.70
373.62	793.44
373.81	849.61
374.01	800.46
374.21	823.87
374.40	723.23
374.60	828.55
374.79	816.85
374.99	784.08
375.19	866.00
375.38	828.55
375.58	870.68
375.78	887.06
375.97	861.32
376.17	940.90
376.37	938.55
376.56	905.79
376.76	891.74
376.95	851.96
377.15	936.21
377.35	866.00
377.54	894.08
377.74	952.60
377.93	847.27
378.13	837.91
378.33	954.94
378.52	908.13
378.72	952.60
378.91	990.05
379.11	922.17
379.31	1027.50
379.50	971.32
379.70	987.71
379.89	1015.79
380.09	1039.20
380.28	915.15
380.48	1006.43
380.68	983.02
380.87	987.71
381.07	964.30
381.26	1067.28
381.46	983.02
381.65	1029.84
381.85	1053.24
382.04	1043.88
382.24	1022.81
382.43	1064.94
382.63	997.07
382.83	1029.84
383.02	1118.78
383.22	1146.86
383.41	1055.58
383.61	1081.33
383.80	1188.99
384.00	1245.16
384.19	1151.54
384.39	1139.84
384.58	1135.16
384.78	1193.67
384.97	1130.48
385.17	1083.67
385.36	1179.63
385.56	1100.05
385.75	1170.27
385.95	1146.86
386.14	1135.16
386.34	1210.06
386.53	1207.72
386.72	1224.10
386.92	1317.72
387.11	1261.55
387.31	1273.25
387.50	1203.04
387.70	1231.12
387.89	1214.74
388.09	1284.95
388.28	1240.48
388.48	1338.79
388.67	1327.08
388.86	1284.95
389.06	1306.02
389.25	1376.24
389.45	1299.00
389.64	1341.13
389.84	1430.07
390.03	1338.79
390.22	1371.55
390.42	1324.74
390.61	1383.26
390.81	1329.42
391.00	1399.64
391.19	1458.15
391.39	1462.83
391.58	1416.02
391.78	1334.11
391.97	1537.73
392.16	1495.60
392.36	1563.48
392.55	1488.58
392.75	1540.07
392.94	1366.87
393.13	1614.97
393.33	1430.07
393.52	1636.03
393.71	1547.09
393.91	1607.95
394.10	1647.74
394.29	1708.59
394.49	1544.75
394.68	1547.09
394.88	1565.82
395.07	1746.04
395.26	1736.68
395.46	1652.42
395.65	1717.95
395.84	1659.44
396.04	1799.87
396.23	1785.83
396.42	1689.87
396.62	1675.82
396.81	1776.47
397.00	1727.32
397.19	1776.47
397.39	1867.75
397.58	1804.55
397.77	1816.26
397.97	1895.83
398.16	1909.88
398.35	1963.71
398.55	1921.58
398.74	1888.81
398.93	2038.61
399.12	1853.70
399.32	1851.36
399.51	1895.83
399.70	1998.82
399.90	1961.37
400.09	1991.80
400.28	2092.44
400.47	2031.58
400.67	2101.80
400.86	2150.95
401.05	2076.06
401.24	2043.29
401.44	2136.91
401.63	2008.18
401.82	2087.76
402.01	2076.06
402.21	2141.59
402.40	2172.02
402.59	2134.57
402.78	2230.53
402.97	2188.40
403.17	2195.42
403.36	2188.40
403.55	2282.02
403.74	2333.51
403.93	2385.01
404.13	2289.04
404.32	2333.51
404.51	2356.92
404.70	2399.05
404.89	2464.58
405.09	2490.33
405.28	2431.82
405.47	2588.63
405.66	2586.29
405.85	2476.29
406.05	2480.97
406.24	2576.93
406.43	2581.61
406.62	2605.02
406.81	2668.21
407.00	2612.04
407.20	2583.95
407.39	2710.34
407.58	2663.53
407.77	2700.98
407.96	2684.59
408.15	2794.60
408.34	2691.62
408.54	2803.96
408.73	2787.58
408.92	2862.48
409.11	2902.26
409.30	2754.81
409.49	2932.69
409.68	2895.24
409.87	2892.90
410.07	2958.44
410.26	3084.83
410.45	3000.57
410.64	3040.36
410.83	3138.66
411.02	3063.76
411.21	3164.40
411.40	3056.74
411.59	3136.32
411.78	3192.49
411.98	3103.55
412.17	3286.11
412.36	3201.85
412.55	3389.10
412.74	3398.46
412.93	3332.92
413.12	3330.58
413.31	3501.44
413.50	3424.20
413.69	3475.70
413.88	3538.89
414.07	3590.38
414.26	3527.19
414.45	3648.90
414.64	3719.11
414.83	3840.82
415.02	3761.24
415.22	3882.95
415.41	3688.68
415.60	3812.73
415.79	3864.22
415.98	3934.44
416.17	3868.91
416.36	3974.23
416.55	3873.59
416.74	4140.41
416.93	4081.89
417.12	4142.75
417.31	4196.58
417.50	4138.07
417.69	4311.27
417.88	4170.83
418.07	4093.60
418.26	4208.28
418.45	4416.59
418.64	4510.21
418.83	4615.54
419.02	4397.87
419.21	4489.15
419.39	4542.98
419.58	4449.36
419.77	4414.25
419.96	4601.49
420.15	4594.47
420.34	4545.32
420.53	4613.20
420.72	4734.90
420.91	4533.62
421.10	4655.33
421.29	4748.95
421.48	4664.69
421.67	4793.42
421.86	4781.71
422.05	4945.55
422.24	4758.31
422.43	4936.19
422.61	4854.27
422.80	4943.21
422.99	4912.78
423.18	4936.19
423.37	5181.95
423.56	4751.29
423.75	4816.82
423.94	4723.20
424.13	4606.17
424.32	4788.74
424.50	4887.04
424.69	5107.05
424.88	5029.81
425.07	4917.47
425.26	4983.00
425.45	4931.51
425.64	5022.79
425.83	5036.83
426.01	5104.71
426.20	5013.43
426.39	5015.77
426.58	4912.78
426.77	4999.38
426.96	5142.16
427.15	5057.90
427.33	5160.88
427.52	5210.03
427.71	5291.95
427.90	5158.54
428.09	5416.00
428.28	5296.63
428.46	5188.97
428.65	5291.95
428.84	5540.05
429.03	5472.17
429.22	5359.83
429.40	5451.11
429.59	5666.44
429.78	5273.23
429.97	5481.53
430.16	5530.69
430.34	5596.22
430.53	5614.95
430.72	5685.16
430.91	5598.56
431.10	5561.11
431.28	5837.30
431.47	5715.59
431.66	5975.39
431.85	5626.65
432.03	5853.68
432.22	6005.81
432.41	6001.13
432.60	5956.66
432.79	5909.85
432.97	5928.58
433.16	5987.09
433.35	6071.35
433.54	6134.54
433.72	6122.84
433.91	6036.24
434.10	6012.84
434.28	6122.84
434.47	6211.78
434.66	6263.27
434.85	6317.11
435.03	6434.13
435.22	6347.53
435.41	6539.46
435.59	6462.22
435.78	6502.01
435.97	6427.11
436.16	6469.24
436.34	6303.06
436.53	6459.88
436.72	6576.91
436.90	6422.43
437.09	6693.93
437.28	6565.20
437.46	6480.94
437.65	6544.14
437.84	6754.79
438.02	6700.95
438.21	6759.47
438.40	6665.85
438.58	6890.54
438.77	7047.35
438.96	6810.96
439.14	6963.09
439.33	7152.68
439.52	7136.29
439.70	7323.54
439.89	7400.77
440.08	7368.01
440.26	7412.48
440.45	7297.79
440.63	7606.74
440.82	7719.09
441.01	7571.63
441.19	7611.42
441.38	7887.61
441.57	7793.98
441.75	7702.70
441.94	7943.78
442.12	7737.81
442.31	7808.03
442.50	8023.36
442.68	7971.86
442.87	7885.26
443.05	8004.63
443.24	8065.49
443.43	8105.28
443.61	8170.81
443.80	8519.55
443.98	7957.82
444.17	7894.63
444.35	8107.62
444.54	8255.07
444.73	8177.83
444.91	8154.43
445.10	8327.63
445.28	8255.07
445.47	8257.41
445.65	8320.60
445.84	8510.19
446.02	8414.23
446.21	8432.95
446.39	8383.80
446.58	8503.17
446.77	8603.81
446.95	8280.82
447.14	8461.04
447.32	8533.59
447.51	8564.02
447.69	8341.67
447.88	8489.12
448.06	8432.95
448.25	8554.66
448.43	8531.25
448.62	8503.17
448.80	8547.64
448.99	8580.40
449.17	8655.30
449.36	8779.35
449.54	8950.21
449.73	8854.25
449.91	9020.42
450.10	8947.87
450.28	8884.67
450.46	8954.89
450.65	8751.26
450.83	8954.89
451.02	9111.71
451.20	9160.86
451.39	9177.24
451.57	9114.05
451.76	9214.69
451.94	9121.07
452.13	9195.96
452.31	9408.95
452.49	9184.26
452.68	9348.10
452.86	9392.57
453.05	9659.39
453.23	9558.75
453.42	9460.45
453.60	9228.73
453.78	9460.45
453.97	9212.35
454.15	9465.13
454.34	9525.98
454.52	9659.39
454.70	9563.43
454.89	9640.67
455.07	9767.06
455.26	9781.10
455.44	9783.44
455.62	9860.68
455.81	9996.43
455.99	10148.56
456.17	10160.27
456.36	10054.94
456.54	9968.34
456.73	10260.91
456.91	10541.77
457.09	10293.68
457.28	10401.34
457.46	10115.80
457.64	10597.95
457.83	10441.13
458.01	10352.19
458.19	10693.91
458.38	10750.08
458.56	10565.18
458.74	10607.31
458.93	10492.62
459.11	10611.99
459.29	10670.50
459.48	10906.90
459.66	10668.16
459.84	10857.75
460.03	10995.84
460.21	10925.62
460.39	10864.77
460.57	10874.13
460.76	11030.94
460.94	11171.38
461.12	11049.67
461.31	11183.08
461.49	11084.78
461.67	11023.92
461.85	11239.25
462.04	11332.87
462.22	11698.00
462.40	11658.21
462.59	11449.90
462.77	11555.22
462.95	11531.82
463.13	11543.52
463.32	11346.92
463.50	11693.32
463.68	11847.79
463.86	11859.49
464.05	11632.46
464.23	11714.38
464.41	11964.82
464.59	11765.87
464.78	12397.82
464.96	11988.22
465.14	11700.34
465.32	12152.06
465.50	12128.66
465.69	12198.87
465.87	12264.41
466.05	12191.85
466.23	12241.00
466.41	12238.66
466.60	12346.33
466.78	12126.32
466.96	12264.41
467.14	12334.62
467.32	12540.59
467.51	12580.38
467.69	12133.34
467.87	12444.63
468.05	12718.47
468.23	12402.50
468.41	12353.35
468.60	12695.07
468.78	12739.54
468.96	12514.84
469.14	12573.36
469.32	13032.10
469.50	12568.68
469.69	13015.72
469.87	12975.93
470.05	13071.89
470.23	13034.44
470.41	12982.95
470.59	13392.55
470.77	13193.60
470.95	13359.78
471.14	13633.62
471.32	13179.56
471.50	13605.53
471.68	13692.13
471.86	13668.73
472.04	13734.26
472.22	13640.64
472.40	13455.74
472.58	13750.65
472.77	13942.57
472.95	14202.37
473.13	14516.00
473.31	13879.38
473.49	14043.21
473.67	14260.88
473.85	14225.78
474.03	14501.96
474.21	14527.71
474.39	14876.44
474.57	14808.57
474.75	14855.38
474.93	14946.66
475.12	14864.74
475.30	14923.26
475.48	15035.60
475.66	15129.22
475.84	15075.39
476.02	15374.98
476.20	15482.64
476.38	15637.12
476.56	16093.52
476.74	15953.09
476.92	15704.99
477.10	15712.02
477.28	16006.92
477.46	15936.71
477.64	16198.85
477.82	16821.43
478.00	16634.19
478.18	16945.48
478.36	17200.60
478.54	16973.56
478.72	16943.14
478.90	17308.26
479.08	17528.27
479.26	17776.37
479.44	17888.71
479.62	17771.69
479.80	17858.29
479.98	18082.98
480.16	18909.19
480.34	18265.54
480.52	18380.23
480.70	18537.04
480.88	18527.68
481.06	18841.31
481.24	18759.39
481.41	19185.37
481.59	19297.72
481.77	19346.87
481.95	19590.28
482.13	19646.46
482.31	19302.40
482.49	20367.34
482.67	20400.11
482.85	20451.60
483.03	20875.24
483.21	20620.12
483.39	20861.19
483.57	20805.02
483.74	21158.44
483.92	21376.11
484.10	21144.40
484.28	21649.96
484.46	21876.99
484.64	22473.82
484.82	22066.57
485.00	22108.70
485.18	22574.47
485.35	22794.48
485.53	22885.76
485.71	23080.02
485.89	23503.66
486.07	23353.87
486.25	23480.25
486.43	23580.90
486.61	23875.80
486.78	23992.83
486.96	24247.95
487.14	24325.19
487.32	24748.82
487.50	24821.38
487.68	24549.88
487.85	25319.92
488.03	25523.54
488.21	25708.44
488.39	25656.95
488.57	25734.19
488.75	26246.77
488.92	26291.24
489.10	26717.22
489.28	26405.92
489.46	26827.22
489.64	26820.20
489.81	27625.34
489.99	27538.74
490.17	27395.97
490.35	28048.98
490.53	28346.23
490.70	28498.36
490.88	28507.72
491.06	28912.64
491.24	28603.69
491.41	28863.49
491.59	29062.43
491.77	29240.31
491.95	29525.86
492.13	29645.23
492.30	29776.30
492.48	29837.15
492.66	29638.20
492.84	30209.29
493.01	30710.17
493.19	30331.00
493.37	30951.24
493.54	31152.53
493.72	31847.67
493.90	31096.36
494.08	31515.31
494.25	31814.90
494.43	31686.17
494.61	32004.49
494.79	32484.30
494.96	32479.61
495.14	32514.72
495.32	32706.65
495.49	33282.42
495.67	33329.23
495.85	33366.68
496.02	33893.30
496.20	34153.10
496.38	33912.02
496.55	33631.16
496.73	34595.46
496.91	34422.26
497.09	34630.57
497.26	34780.36
497.44	34962.92
497.62	35302.30
497.79	35683.81
497.97	35665.08
498.14	35861.69
498.32	36081.70
498.50	35894.46
498.67	36191.70
498.85	36341.50
499.03	36758.11
499.20	36510.02
499.38	36741.73
499.56	36978.12
499.73	37130.26
499.91	37163.03
500.08	37738.80
500.26	37310.48
500.44	37312.82
500.61	37762.20
500.79	37947.11
500.97	37893.27
501.14	38337.98
501.32	38132.01
501.49	38398.83
501.67	38820.13
501.84	39040.14
502.02	38939.49
502.20	38827.15
502.37	39040.14
502.55	39030.77
502.72	39576.12
502.90	39178.23
503.07	39395.90
503.25	39632.29
503.43	39454.41
503.60	40016.14
503.78	39761.02
503.95	40088.70
504.13	40079.33
504.30	40481.91
504.48	40488.93
504.65	40973.42
504.83	40954.69
505.01	41579.62
505.18	40725.32
505.36	41462.59
505.53	41273.01
505.71	41911.97
505.88	41720.05
506.06	41450.89
506.23	41797.29
506.41	41804.31
506.58	42199.86
506.76	42237.31
506.93	42162.41
507.11	41834.74
507.28	42738.18
507.46	42534.56
507.63	43103.31
507.81	42995.64
507.98	42567.32
508.16	42852.87
508.33	43274.16
508.50	43463.75
508.68	43873.34
508.85	44037.18
509.03	43388.85
509.20	43819.51
509.38	44247.83
509.55	43936.54
509.73	44105.06
509.90	44720.62
510.08	44240.81
510.25	44439.75
510.42	44704.23
510.60	45081.06
510.77	45106.80
510.95	45502.35
511.12	45195.74
511.30	44985.10
511.47	45382.99
511.64	45095.10
511.82	45729.39
511.99	45287.03
512.17	45570.23
512.34	45572.57
512.51	46361.33
512.69	46490.06
512.86	46272.39
513.04	46366.01
513.21	46501.76
513.38	46801.35
513.56	46951.15
513.73	46698.37
513.90	46820.08
514.08	46831.78
514.25	47093.92
514.43	47035.41
514.60	47154.77
514.77	47320.95
514.95	47426.28
515.12	47196.90
515.29	47213.29
515.47	47597.13
515.64	47957.58
515.81	48135.46
515.99	48357.81
516.16	48521.65
516.33	47882.68
516.51	48172.91
516.68	48697.19
516.85	48837.62
517.03	48898.47
517.20	48910.17
517.37	48608.25
517.54	48554.41
517.72	48832.94
517.89	48956.99
518.06	49207.42
518.24	48828.26
518.41	49249.55
518.58	49251.89
518.75	49282.32
518.93	49303.38
519.10	49352.54
519.27	49345.51
519.45	49298.70
519.62	49794.90
519.79	49825.32
519.96	50005.55
520.14	49886.18
520.31	50220.87
520.48	50408.12
520.65	50436.20
520.83	50518.12
521.00	50583.66
521.17	50660.90
521.34	50368.33
521.52	50569.61
521.69	50808.35
521.86	50796.65
522.03	51016.66
522.20	51070.49
522.38	51133.68
522.55	51414.55
522.72	51236.67
522.89	50958.14
523.07	51592.43
523.24	51402.85
523.41	51412.21
523.58	51210.92
523.75	51730.52
523.92	51580.73
524.10	51908.40
524.27	51711.80
524.44	52205.65
524.61	51950.53
524.78	52250.12
524.96	51910.74
525.13	52126.07
525.30	52062.88
525.47	52486.51
525.64	52374.17
525.81	52313.31
525.98	52353.10
526.16	52526.30
526.33	52718.23
526.50	52896.11
526.67	52507.58
526.84	52926.53
527.01	52968.66
527.18	52891.43
527.36	53078.67
527.53	53139.52
527.70	53254.21
527.87	53485.92
528.04	53024.84
528.21	53017.82
528.38	53556.14
528.55	53205.06
528.72	53013.13
528.89	53230.80
529.07	53188.67
529.24	53485.92
529.41	53907.22
529.58	53354.85
529.75	53691.89
529.92	53549.12
530.09	53900.20
530.26	53900.20
530.43	53907.22
530.60	53511.67
530.77	53614.65
530.94	53808.92
531.11	53727.00
531.28	54270.00
531.46	54026.59
531.63	54380.01
531.80	54115.53
531.97	54380.01
532.14	54237.23
532.31	54412.77
532.48	54602.36
532.65	54422.14
532.82	54473.63
532.99	54288.73
533.16	54450.22
533.33	54820.03
533.50	54979.18
533.67	54822.37
533.84	54468.95
534.01	54988.55
534.18	54639.81
534.35	55105.57
534.52	55098.55
534.69	55327.92
534.86	55430.91
535.03	54838.75
535.20	54997.91
535.37	55040.04
535.54	55583.04
535.71	55295.16
535.88	55381.76
536.05	55477.72
536.22	55480.06
536.38	55363.03
536.55	55398.14
536.72	55377.08
536.89	55267.07
537.06	55496.44
537.23	55533.89
537.40	55526.87
537.57	55632.19
537.74	55632.19
537.91	55690.71
538.08	55674.32
538.25	55667.30
538.42	55884.97
538.59	55913.06
538.75	55655.60
538.92	56130.73
539.09	56217.33
539.26	56039.45
539.43	56013.70
539.60	56179.88
539.77	56130.73
539.94	56416.27
540.11	56210.31
540.28	56229.03
540.44	56371.80
540.61	56460.74
540.78	56320.31
540.95	56296.91
541.12	56348.40
541.29	56427.98
541.46	56533.30
541.62	56647.99
541.79	56500.53
541.96	56282.86
542.13	56458.40
542.30	56765.01
542.47	56741.61
542.63	56851.61
542.80	56879.70
542.97	56978.00
543.14	56992.04
543.31	57162.90
543.48	57221.42
543.64	57368.87
543.81	57326.74
543.98	57326.74
544.15	57357.17
544.32	57336.10
544.48	57495.26
544.65	57265.89
544.82	57256.53
544.99	57176.95
545.16	57352.49
545.32	57092.69
545.49	57581.86
545.66	57499.94
545.83	57422.70
546.00	57577.18
546.16	57659.10
546.33	57474.20
546.50	57298.65
546.67	57907.19
546.83	57446.11
547.00	57532.71
547.17	57542.07
547.34	57621.65
547.50	58042.95
547.67	58064.01
547.84	58024.22
548.00	58148.27
548.17	57986.77
548.34	57961.03
548.51	58169.33
548.67	58056.99
548.84	57984.43
549.01	57874.43
549.18	58038.26
549.34	58155.29
549.51	58305.09
549.68	58258.27
549.84	58225.51
550.01	58405.73
550.18	58040.60
550.34	58396.37
550.51	58389.34
550.68	58424.45
550.84	58049.97
551.01	58485.31
551.18	58150.61
551.34	58466.58
551.51	58553.18
551.68	58611.70
551.84	58417.43
552.01	58389.34
552.18	58679.57
552.34	58632.76
552.51	58752.13
552.68	58326.15
552.84	58365.94
553.01	58590.63
553.18	58796.60
553.34	58787.24
553.51	58794.26
553.67	58714.68
553.84	59000.22
554.01	58955.75
554.17	58862.13
554.34	58927.67
554.51	58859.79
554.67	59119.59
554.84	58939.37
555.00	58922.99
555.17	58857.45
555.33	59007.25
555.50	58848.09
555.67	58967.46
555.83	58789.58
556.00	58918.31
556.16	59344.28
556.33	59112.57
556.50	59250.66
556.66	59105.55
556.83	59105.55
556.99	59370.03
557.16	59606.42
557.32	59351.30
557.49	59501.10
557.65	59234.28
557.82	59222.58
557.98	59260.02
558.15	59456.63
558.32	59353.65
558.48	59274.07
558.65	59437.90
558.81	59260.02
558.98	59393.43
559.14	59606.42
559.31	59552.59
559.47	59643.87
559.64	59641.53
559.80	59756.22
559.97	59695.36
560.13	59531.53
560.30	59618.13
560.46	59760.90
560.63	59805.37
560.79	59725.79
560.96	59863.88
561.12	59730.47
561.29	59884.95
561.45	59690.68
561.61	59690.68
561.78	59695.36
561.94	59884.95
562.11	59728.13
562.27	59910.69
562.44	60011.34
562.60	59767.92
562.77	59884.95
562.93	59847.50
563.10	60088.57
563.26	59746.86
563.42	60151.77
563.59	59894.31
563.75	59924.74
563.92	59845.16
564.08	59859.20
564.24	60130.70
564.41	60020.70
564.57	60121.34
564.74	60079.21
564.90	60051.12
565.07	59901.33
565.23	60074.53
565.39	59945.80
565.56	60296.88
565.72	60182.19
565.88	59983.25
566.05	60111.98
566.21	60095.60
566.38	60168.15
566.54	60240.71
566.70	60121.34
566.87	60315.61
567.03	60004.31
567.19	60446.68
567.36	60353.05
567.52	60205.60
567.68	60378.80
567.85	60336.67
568.01	60488.80
568.17	60151.77
568.34	60362.42
568.50	60133.04
568.66	60303.90
568.83	60207.94
568.99	60186.88
569.15	60140.07
569.32	60533.28
569.48	60374.12
569.64	60444.33
569.81	60205.60
569.97	60285.18
570.13	60451.36
570.30	60273.48
570.46	60568.38
570.62	60406.89
570.78	60416.25
570.95	60594.13
571.11	60458.38
571.27	60268.79
571.43	60406.89
571.60	60671.37
571.76	60437.31
571.92	60549.66
572.09	60659.66
572.25	60587.11
572.41	60301.56
572.57	60404.55
572.74	60764.99
572.90	60608.17
573.06	60617.53
573.22	60399.86
573.38	60526.25
573.55	60615.19
573.71	60783.71
573.87	60706.47
574.03	60460.72
574.20	60664.35
574.36	60484.12
574.52	60708.82
574.68	60673.71
574.84	60685.41
575.01	60690.09
575.17	60601.15
575.33	60453.70
575.49	60507.53
575.65	60647.96
575.82	60711.16
575.98	60767.33
576.14	60830.52
576.30	60676.05
576.46	60645.62
576.62	60547.32
576.79	60893.72
576.95	60640.94
577.11	60704.13
577.27	60582.43
577.43	60795.42
577.59	60708.82
577.75	60697.11
577.92	60683.07
578.08	60732.22
578.24	60802.44
578.40	60863.29
578.56	60926.49
578.72	60610.51
578.88	60722.86
579.04	61043.51
579.21	60858.61
579.37	60701.79
579.53	60729.88
579.69	60711.16
579.85	60413.91
580.01	60734.56
580.17	60652.64
580.33	60809.46
580.49	60910.10
580.65	60898.40
580.82	60626.90
580.98	60664.35
581.14	60776.69
581.30	61139.47
581.46	60882.02
581.62	60846.91
581.78	60783.71
581.94	60938.19
582.10	60935.85
582.26	60917.12
582.42	60729.88
582.58	60818.82
582.74	60804.78
582.90	60776.69
583.06	60858.61
583.22	60563.70
583.38	60914.78
583.54	60769.67
583.70	60919.46
583.86	60835.20
584.02	60774.35
584.18	60954.57
584.34	61120.75
584.50	60837.54
584.66	60884.36
584.82	60802.44
584.98	60821.16
585.14	61069.26
585.30	60910.10
585.46	61134.79
585.62	60884.36
585.78	61151.18
585.94	60853.93
586.10	60818.82
586.26	60821.16
586.42	60928.83
586.58	61099.68
586.74	60996.70
586.90	60928.83
587.06	60882.02
587.22	60938.19
587.38	60956.91
587.54	61008.40
587.70	61043.51
587.86	61043.51
588.02	60900.74
588.18	61076.28
588.34	61097.34
588.49	60942.87
