SpectraSuite Data File
++++++++++++++++++++++++++++++++++++
Date: Fri Oct 25 10:43:28 EDT 2013
User: price-jones
Dark Spectrum Present: No
Reference Spectrum Present: No
Number of Sampled Component Spectra: 1
Spectrometers: USB2+H05261
Integration Time (usec): 100000 (USB2+H05261)
Spectra Averaged: 1 (USB2+H05261)
Boxcar Smoothing: 0 (USB2+H05261)
Correct for Electrical Dark: No (USB2+H05261)
Strobe/Lamp Enabled: No (USB2+H05261)
Correct for Detector Non-linearity: No (USB2+H05261)
Correct for Stray Light: No (USB2+H05261)
Number of Pixels in Processed Spectrum: 2048
>>>>>Begin Processed Spectral Data<<<<<
365.73	114.69
365.92	114.69
366.12	114.69
366.32	58.51
366.52	7.02
366.72	51.49
366.91	77.24
367.11	4.68
367.31	0.00
367.51	0.00
367.70	51.49
367.90	0.00
368.10	0.00
368.30	11.70
368.49	39.79
368.69	72.56
368.89	25.75
369.09	21.06
369.28	56.17
369.48	91.28
369.68	81.92
369.87	65.54
370.07	124.05
370.27	117.03
370.47	231.71
370.66	383.85
370.86	374.49
371.06	468.11
371.25	531.30
371.45	404.91
371.65	486.83
371.84	447.04
372.04	503.22
372.24	418.96
372.44	512.58
372.63	451.72
372.83	524.28
373.03	498.53
373.22	482.15
373.42	571.09
373.62	430.66
373.81	552.37
374.01	547.69
374.21	465.77
374.40	521.94
374.60	627.26
374.79	599.18
374.99	545.34
375.19	538.32
375.38	578.11
375.58	613.22
375.78	622.58
375.97	561.73
376.17	615.56
376.37	594.50
376.56	638.97
376.76	512.58
376.95	582.79
377.15	603.86
377.35	615.56
377.54	631.94
377.74	575.77
377.93	631.94
378.13	704.50
378.33	711.52
378.52	657.69
378.72	681.10
378.91	645.99
379.11	671.73
379.31	662.37
379.50	671.73
379.70	758.33
379.89	748.97
380.09	582.79
380.28	683.44
380.48	596.84
380.68	638.97
380.87	683.44
381.07	748.97
381.26	709.18
381.46	685.78
381.65	732.59
381.85	664.71
382.04	662.37
382.24	643.65
382.43	730.25
382.63	657.69
382.83	767.70
383.02	702.16
383.22	800.46
383.41	662.37
383.61	744.29
383.80	795.78
384.00	688.12
384.19	814.51
384.39	795.78
384.58	739.61
384.78	840.25
384.97	779.40
385.17	861.32
385.36	901.11
385.56	805.14
385.75	840.25
385.95	858.98
386.14	898.77
386.34	849.61
386.53	873.02
386.72	828.55
386.92	819.19
387.11	905.79
387.31	863.66
387.50	844.93
387.70	791.10
387.89	905.79
388.09	922.17
388.28	844.93
388.48	807.48
388.67	966.64
388.86	957.28
389.06	987.71
389.25	903.45
389.45	919.83
389.64	980.68
389.84	936.21
390.03	1001.75
390.22	1081.33
390.42	1071.97
390.61	999.41
390.81	999.41
391.00	968.98
391.19	1025.15
391.39	1032.18
391.58	1022.81
391.78	985.37
391.97	1015.79
392.16	917.49
392.36	1090.69
392.55	1041.54
392.75	957.28
392.94	957.28
393.13	985.37
393.33	1039.20
393.52	947.92
393.71	1088.35
393.91	1107.07
394.10	1107.07
394.29	1093.03
394.49	1196.01
394.68	1188.99
394.88	1109.41
395.07	1177.29
395.26	1146.86
395.46	1146.86
395.65	1261.55
395.84	1242.82
396.04	1254.53
396.23	1097.71
396.42	1158.57
396.62	1219.42
396.81	1135.16
397.00	1193.67
397.19	1165.59
397.39	1310.70
397.58	1455.81
397.77	1289.64
397.97	1380.92
398.16	1355.17
398.35	1364.53
398.55	1348.15
398.74	1479.22
398.93	1441.77
399.12	1446.45
399.32	1427.73
399.51	1467.52
399.70	1514.33
399.90	1561.14
400.09	1495.60
400.28	1619.65
400.47	1647.74
400.67	1631.35
400.86	1521.35
401.05	1675.82
401.24	1689.87
401.44	1713.27
401.63	1790.51
401.82	1678.16
402.01	1671.14
402.21	1746.04
402.40	1685.19
402.59	1673.48
402.78	1605.61
402.97	1708.59
403.17	1717.95
403.36	1748.38
403.55	1781.15
403.74	1928.60
403.93	1816.26
404.13	1825.62
404.32	1823.28
404.51	1907.54
404.70	1839.66
404.89	1863.07
405.09	1870.09
405.28	1970.73
405.47	1940.30
405.66	1858.39
405.85	1935.62
406.05	1954.35
406.24	1860.73
406.43	2059.67
406.62	2045.63
406.81	2059.67
407.00	1944.99
407.20	2066.69
407.39	1970.73
407.58	2080.74
407.77	2122.87
407.96	2193.08
408.15	2174.36
408.34	2167.34
408.54	2160.31
408.73	2326.49
408.92	2218.83
409.11	2291.38
409.30	2300.75
409.49	2246.91
409.68	2303.09
409.87	2366.28
410.07	2396.71
410.26	2385.01
410.45	2413.09
410.64	2354.58
410.83	2408.41
411.02	2546.50
411.21	2523.10
411.40	2487.99
411.59	2560.55
411.78	2679.91
411.98	2548.84
412.17	2597.99
412.36	2619.06
412.55	2663.53
412.74	2799.28
412.93	2661.19
413.12	2658.85
413.31	2839.07
413.50	2768.85
413.69	2841.41
413.88	2792.26
414.07	2785.24
414.26	2918.65
414.45	2855.45
414.64	2808.64
414.83	2956.10
415.02	2972.48
415.22	2972.48
415.41	2998.23
415.60	3112.91
415.79	3194.83
415.98	3229.94
416.17	3150.36
416.36	2993.55
416.55	3162.06
416.74	3150.36
416.93	3293.13
417.12	3269.73
417.31	3215.90
417.50	3225.26
417.69	3386.76
417.88	3344.63
418.07	3396.12
418.26	3403.14
418.45	3396.12
418.64	3513.14
418.83	3562.30
419.02	3508.46
419.21	3480.38
419.39	3466.33
419.58	3468.67
419.77	3466.33
419.96	3555.27
420.15	3590.38
420.34	3604.42
420.53	3616.13
420.72	3779.97
420.91	3686.34
421.10	3728.47
421.29	3765.92
421.48	3754.22
421.67	3796.35
421.86	3623.15
422.05	3786.99
422.24	3684.00
422.43	3794.01
422.61	3843.16
422.80	3943.80
422.99	3953.16
423.18	3894.65
423.37	3962.53
423.56	3861.88
423.75	3925.08
423.94	3772.94
424.13	3566.98
424.32	3751.88
424.50	4004.66
424.69	4046.79
424.88	3918.06
425.07	3840.82
425.26	3838.48
425.45	3880.61
425.64	4046.79
425.83	3922.74
426.01	4065.51
426.20	3964.87
426.39	3957.85
426.58	3882.95
426.77	3833.80
426.96	3955.51
427.15	3943.80
427.33	4028.06
427.52	3995.29
427.71	4105.30
427.90	4135.73
428.09	4191.90
428.28	4051.47
428.46	4074.87
428.65	4173.18
428.84	4189.56
429.03	4297.22
429.22	4079.55
429.40	4198.92
429.59	4072.53
429.78	3833.80
429.97	3896.99
430.16	3932.10
430.34	3908.69
430.53	4018.70
430.72	3978.91
430.91	4161.47
431.10	4234.03
431.28	4498.51
431.47	4575.75
431.66	4594.47
431.85	4456.38
432.03	4568.73
432.22	4521.92
432.41	4564.04
432.60	4758.31
432.79	4697.46
432.97	4734.90
433.16	4709.16
433.35	4486.81
433.54	4472.76
433.72	4624.90
433.91	4566.39
434.10	4643.62
434.28	4767.67
434.47	4774.69
434.66	4774.69
434.85	4919.81
435.03	4809.80
435.22	4819.16
435.41	4901.08
435.59	4947.89
435.78	4957.25
435.97	4985.34
436.16	4924.49
436.34	5088.32
436.53	5107.05
436.72	5249.82
436.90	5104.71
437.09	5144.50
437.28	5114.07
437.46	5139.82
437.65	5074.28
437.84	5238.12
438.02	5004.07
438.21	5144.50
438.40	5025.13
438.58	5497.92
438.77	5390.25
438.96	5303.65
439.14	5483.88
439.33	5500.26
439.52	5713.25
439.70	5472.17
439.89	5736.65
440.08	5619.63
440.26	5671.12
440.45	5565.79
440.63	5633.67
440.82	5951.98
441.01	5818.57
441.19	6019.86
441.38	5980.07
441.57	6012.84
441.75	6111.14
441.94	6326.47
442.12	6085.39
442.31	6209.44
442.50	6066.67
442.68	6143.91
442.87	6331.15
443.05	6420.09
443.24	6387.32
443.43	6413.07
443.61	6370.94
443.80	6555.84
443.98	6272.64
444.17	6263.27
444.35	6399.02
444.54	6436.47
444.73	6361.58
444.91	6511.37
445.10	6483.28
445.28	6431.79
445.47	6314.77
445.65	6289.02
445.84	6527.75
446.02	6525.41
446.21	6310.08
446.39	6504.35
446.58	6539.46
446.77	6387.32
446.95	6494.99
447.14	6628.40
447.32	6689.25
447.51	6511.37
447.69	6677.55
447.88	6494.99
448.06	6494.99
448.25	6567.54
448.43	6518.39
448.62	6658.82
448.80	6736.06
448.99	6518.39
449.17	6504.35
449.36	6628.40
449.54	6998.20
449.73	6923.30
449.91	7152.68
450.10	7019.27
450.28	7096.50
450.46	7096.50
450.65	7126.93
450.83	7309.49
451.02	7042.67
451.20	7197.15
451.39	7108.21
451.57	7096.50
451.76	7049.69
451.94	7075.44
452.13	6972.46
452.31	7012.24
452.49	7080.12
452.68	7166.72
452.86	7140.97
453.05	7152.68
453.23	7300.13
453.42	7157.36
453.60	7035.65
453.78	7300.13
453.97	7351.62
454.15	7293.11
454.34	7283.75
454.52	7384.39
454.70	7089.48
454.89	7473.33
455.07	7644.19
455.26	7517.80
455.44	7648.87
455.62	7573.97
455.81	7655.89
455.99	7801.01
456.17	7826.75
456.36	7789.30
456.54	7857.18
456.73	7922.71
456.91	7908.67
457.09	8025.70
457.28	8180.17
457.46	7653.55
457.64	7873.56
457.83	8056.12
458.01	8028.04
458.19	8266.77
458.38	7983.57
458.56	8131.02
458.74	8018.68
458.93	8138.04
459.11	8112.30
459.29	8250.39
459.48	8262.09
459.66	8102.93
459.84	8339.33
460.03	8503.17
460.21	8397.84
460.39	8496.14
460.57	8241.03
460.76	8631.90
460.94	8367.42
461.12	8575.72
461.31	8425.93
461.49	8407.20
461.67	8589.77
461.85	8585.08
462.04	8542.96
462.22	9174.90
462.40	8681.05
462.59	8704.45
462.77	8788.71
462.95	8877.65
463.13	8809.78
463.32	8791.05
463.50	8917.44
463.68	8777.01
463.86	8699.77
464.05	8823.82
464.23	8802.75
464.41	9116.39
464.59	8732.54
464.78	9195.96
464.96	9025.11
465.14	9029.79
465.32	8875.31
465.50	9069.58
465.69	9167.88
465.87	9214.69
466.05	9055.53
466.23	8997.02
466.41	8936.17
466.60	9214.69
466.78	9057.87
466.96	9071.92
467.14	9053.19
467.32	9151.49
467.51	9355.12
467.69	9205.33
467.87	9226.39
468.05	9151.49
468.23	9312.99
468.41	9252.14
468.60	9446.40
468.78	9572.79
468.96	9474.49
469.14	9486.19
469.32	9591.52
469.50	9469.81
469.69	9558.75
469.87	9563.43
470.05	9694.50
470.23	9582.15
470.41	9757.69
470.59	9886.42
470.77	9621.94
470.95	9715.56
471.14	9961.32
471.32	9837.27
471.50	10211.76
471.68	10230.48
471.86	10071.33
472.04	10256.23
472.22	10403.68
472.40	10097.07
472.58	10286.65
472.77	10504.32
472.95	10509.01
473.13	10583.90
473.31	10525.39
473.49	10239.84
473.67	10300.70
473.85	10408.36
474.03	10817.96
474.21	10883.49
474.39	10913.92
474.57	10789.87
474.75	10787.53
474.93	11098.82
475.12	10874.13
475.30	11094.14
475.48	11009.88
475.66	11049.67
475.84	11115.20
476.02	11227.55
476.20	11190.10
476.38	11400.75
476.56	11630.12
476.74	11606.72
476.92	11466.28
477.10	11873.54
477.28	11946.09
477.46	11812.68
477.64	12006.95
477.82	12114.61
478.00	12526.55
478.18	12243.34
478.36	12259.73
478.54	12603.78
478.72	12596.76
478.90	12755.92
479.08	12800.39
479.26	12931.46
479.44	12966.57
479.62	13111.68
479.80	13062.53
479.98	13277.86
480.16	13607.87
480.34	13448.72
480.52	13640.64
480.70	13736.60
480.88	13502.55
481.06	13551.70
481.24	13678.09
481.41	13855.97
481.59	14162.58
481.77	14061.94
481.95	14092.37
482.13	14335.78
482.31	14324.08
482.49	14693.88
482.67	14724.31
482.85	14822.61
483.03	14895.17
483.21	15080.07
483.39	15084.75
483.57	15147.95
483.74	14958.36
483.92	15564.56
484.10	15243.91
484.28	15580.95
484.46	15726.06
484.64	16081.82
484.82	15913.30
485.00	16011.60
485.18	16025.65
485.35	16189.49
485.53	15913.30
485.71	15695.63
485.89	16468.01
486.07	16229.27
486.25	16327.58
486.43	16472.69
486.61	16774.62
486.78	17092.93
486.96	17296.56
487.14	17357.41
487.32	17462.74
487.50	17994.04
487.68	18139.15
487.85	18202.35
488.03	18204.69
488.21	18230.43
488.39	18139.15
488.57	18441.08
488.75	18305.33
488.92	18759.39
489.10	19248.57
489.28	19108.13
489.46	19328.14
489.64	19386.66
489.81	19812.63
489.99	20023.28
490.17	19681.56
490.35	20226.91
490.53	19711.99
490.70	20189.46
490.88	20037.33
491.06	20599.05
491.24	20570.97
491.41	20093.50
491.59	20535.86
491.77	20411.81
491.95	20751.19
492.13	20788.64
492.30	21312.92
492.48	21151.42
492.66	21223.98
492.84	21469.73
493.01	21734.21
493.19	21919.12
493.37	21975.29
493.54	21769.32
493.72	22410.63
493.90	22569.79
494.08	22415.31
494.25	22897.46
494.43	23021.51
494.61	23082.36
494.79	23400.68
494.96	23077.68
495.14	23152.58
495.32	23346.84
495.49	23227.48
495.67	23498.98
495.85	23906.23
496.02	23971.77
496.20	24044.32
496.38	23819.63
496.55	23957.72
496.73	24676.27
496.91	24491.37
497.09	24566.26
497.26	24929.05
497.44	24641.16
497.62	24713.72
497.79	25223.95
497.97	24772.23
498.14	25177.14
498.32	25572.69
498.50	25158.42
498.67	25663.97
498.85	25511.84
499.03	26216.34
499.20	25893.35
499.38	25865.26
499.56	26005.69
499.73	26230.38
499.91	26153.15
500.08	26284.22
500.26	26188.25
500.44	26251.45
500.61	26211.66
500.79	26120.38
500.97	26312.30
501.14	27014.46
501.32	26487.84
501.49	26656.36
501.67	26642.32
501.84	27122.13
502.02	27065.96
502.20	27353.84
502.37	27419.38
502.55	27178.30
502.72	27777.48
502.90	27934.29
503.07	27419.38
503.25	27634.71
503.43	27503.64
503.60	28123.88
503.78	27131.49
503.95	27711.94
504.13	27990.47
504.30	28505.38
504.48	28299.42
504.65	28311.12
504.83	28535.81
505.01	28491.34
505.18	28727.74
505.36	28863.49
505.53	29137.33
505.71	29088.18
505.88	29212.23
506.06	28783.91
506.23	29680.33
506.41	28781.57
506.58	29673.31
506.76	29607.78
506.93	29397.13
507.11	29628.84
507.28	29500.11
507.46	29425.22
507.63	29699.06
507.81	29364.36
507.98	29474.37
508.16	29869.92
508.33	30003.33
508.50	30525.27
508.68	30654.00
508.85	30370.79
509.03	30436.33
509.20	30803.79
509.38	30771.02
509.55	31105.72
509.73	30848.26
509.90	31232.11
510.08	30813.15
510.25	31077.63
510.42	30841.24
510.60	31115.08
510.77	31353.82
510.95	31721.28
511.12	31702.56
511.30	31562.12
511.47	31885.12
511.64	31901.50
511.82	32119.17
511.99	31821.92
512.17	32025.55
512.34	32165.98
512.51	32357.91
512.69	32481.95
512.86	32311.10
513.04	32711.33
513.21	32414.08
513.38	32231.52
513.56	32538.13
513.73	32098.11
513.90	32322.80
514.08	32690.26
514.25	32713.67
514.43	32868.14
514.60	32734.73
514.77	32718.35
514.95	33455.62
515.12	33188.80
515.29	33116.24
515.47	33305.82
515.64	33453.28
515.81	33219.22
515.99	33057.73
516.16	33359.66
516.33	33263.69
516.51	33034.32
516.68	33291.78
516.85	32891.55
517.03	33479.02
517.20	33518.81
517.37	33474.34
517.54	33841.81
517.72	33696.69
517.89	33436.89
518.06	33689.67
518.24	33551.58
518.41	33823.08
518.58	34068.84
518.75	33776.27
518.93	34445.66
519.10	34244.38
519.27	34536.94
519.45	34485.45
519.62	34749.93
519.79	35047.18
519.96	34824.83
520.14	34976.97
520.31	34962.92
520.48	34319.28
520.65	34920.79
520.83	35367.84
521.00	35405.28
521.17	35365.49
521.34	35438.05
521.52	35552.74
521.69	35641.68
521.86	35374.86
522.03	35824.24
522.20	35952.97
522.38	35524.65
522.55	35924.88
522.72	35742.32
522.89	35845.30
523.07	36271.28
523.24	36449.16
523.41	36407.03
523.58	36638.75
523.75	36411.71
523.92	36725.35
524.10	36849.39
524.27	36549.81
524.44	36964.08
524.61	37109.19
524.78	37067.06
524.96	36926.63
525.13	36950.04
525.30	37205.16
525.47	36868.12
525.64	37219.20
525.81	37074.09
525.98	36793.22
526.16	36510.02
526.33	36769.82
526.50	37046.00
526.67	36624.70
526.84	37097.49
527.01	37303.46
527.18	37263.67
527.36	37261.33
527.53	37450.91
527.70	38485.43
527.87	37713.05
528.04	37411.12
528.21	38307.55
528.38	37839.44
528.55	38167.12
528.72	37790.29
528.89	38529.90
529.07	38220.95
529.24	37825.40
529.41	38361.38
529.58	38375.42
529.75	38417.55
529.92	38483.09
530.09	38721.82
530.26	38656.29
530.43	38862.26
530.60	38326.27
530.77	38951.20
530.94	39012.05
531.11	38611.82
531.28	39103.33
531.46	39456.75
531.63	38759.27
531.80	38986.30
531.97	38780.34
532.14	38707.78
532.31	38604.80
532.48	38864.60
532.65	39194.61
532.82	39330.36
532.99	39536.33
533.16	39522.29
533.33	39138.44
533.50	39182.91
533.67	39482.50
533.84	39475.48
534.01	39662.72
534.18	39545.69
534.35	39969.33
534.52	39552.71
534.69	39728.25
534.86	39908.47
535.03	40011.46
535.20	40222.11
535.37	40718.30
535.54	40910.22
535.71	39817.19
535.88	40304.02
536.05	39990.39
536.22	40519.35
536.38	40311.05
536.55	40327.43
536.72	39824.22
536.89	40280.62
537.06	40168.27
537.23	40868.09
537.40	40842.35
537.57	40526.38
537.74	40491.27
537.91	41163.00
538.08	41050.66
538.25	40465.52
538.42	40701.92
538.59	40945.33
538.75	40266.58
538.92	40891.50
539.09	41085.76
539.26	40978.10
539.43	40858.73
539.60	40732.34
539.77	40877.46
539.94	40774.47
540.11	40683.19
540.28	41123.21
540.44	41053.00
540.61	40952.35
540.78	40631.70
540.95	40856.39
541.12	41085.76
541.29	41282.37
541.46	41659.20
541.62	41649.83
541.79	41268.33
541.96	41420.46
542.13	41350.24
542.30	41359.61
542.47	41352.58
542.63	41544.51
542.80	41366.63
542.97	41897.93
543.14	42007.94
543.31	41855.80
543.48	41895.59
543.64	42674.99
543.81	42323.91
543.98	42677.33
544.15	42178.79
544.32	42223.26
544.48	42588.39
544.65	42550.94
544.82	41963.46
544.99	42174.11
545.16	42305.18
545.32	42347.31
545.49	42513.49
545.66	42941.81
545.83	42539.24
546.00	42602.43
546.16	42476.04
546.33	42644.56
546.50	42462.00
546.67	43068.20
546.83	42284.12
547.00	42586.05
547.17	42866.91
547.34	42223.26
547.50	42581.37
547.67	43199.27
547.84	42939.47
548.00	42925.42
548.17	43435.66
548.34	42857.55
548.51	43054.15
548.67	43152.46
548.84	43129.05
549.01	43519.92
549.18	43159.48
549.34	43470.77
549.51	43463.75
549.68	43580.78
549.84	43405.23
550.01	43320.98
550.18	43330.34
550.34	43470.77
550.51	43548.01
550.68	43489.49
550.84	42787.33
551.01	43372.47
551.18	43292.89
551.34	43452.05
551.51	43784.40
551.68	43639.29
551.84	43421.62
552.01	43789.08
552.18	43941.22
552.34	43480.13
552.51	43976.33
552.68	43838.23
552.84	43693.12
553.01	44055.90
553.18	44142.50
553.34	44025.48
553.51	43695.46
553.67	44030.16
553.84	44147.18
554.01	44495.92
554.17	44673.81
554.34	43922.49
554.51	44680.83
554.67	43704.82
554.84	44154.21
555.00	43922.49
555.17	44177.61
555.33	44376.56
555.50	44083.99
555.67	44601.25
555.83	44051.22
556.00	44046.54
556.16	44690.19
556.33	44299.32
556.50	44486.56
556.66	44240.81
556.83	43957.60
556.99	44306.34
557.16	44432.73
557.32	44208.04
557.49	44282.94
557.65	44196.34
557.82	44346.13
557.98	44357.83
558.15	44605.93
558.32	44865.73
558.48	44236.12
558.65	44928.92
558.81	44516.99
558.98	44566.14
559.14	44671.46
559.31	44470.18
559.47	44570.82
559.64	44718.28
559.80	44917.22
559.97	44669.12
560.13	44186.97
560.30	44671.46
560.46	44631.68
560.63	44786.15
560.79	45069.36
560.96	45029.57
561.12	44959.35
561.29	44610.61
561.45	44453.79
561.61	44729.98
561.78	44648.06
561.94	45177.02
562.11	44959.35
562.27	44832.96
562.44	45088.08
562.60	44811.90
562.77	45076.38
562.93	45247.24
563.10	44802.53
563.26	44676.15
563.42	45184.04
563.59	44737.00
563.75	44861.05
563.92	45478.95
564.08	44889.13
564.24	45724.71
564.41	45270.64
564.57	45333.84
564.74	45235.53
564.90	44964.03
565.07	45043.61
565.23	45099.78
565.39	44739.34
565.56	44987.44
565.72	45198.09
565.88	45078.72
566.05	44804.88
566.21	45010.84
566.38	44837.64
566.54	45654.49
566.70	45944.72
566.87	45427.46
567.03	44966.37
567.19	45771.52
567.36	45839.39
567.52	44931.26
567.68	45488.31
567.85	44992.12
568.01	45521.08
568.17	45333.84
568.34	45343.20
568.50	45076.38
568.66	45404.05
568.83	45258.94
568.99	45137.23
569.15	45270.64
569.32	44626.99
569.48	45305.75
569.64	45528.10
569.81	45298.73
569.97	45354.90
570.13	45387.67
570.30	45125.53
570.46	44931.26
570.62	45181.70
570.78	45153.62
570.95	44856.37
571.11	45329.16
571.27	45221.49
571.43	45514.06
571.60	45280.00
571.76	45118.51
571.92	45394.69
572.09	45614.70
572.25	45071.70
572.41	45600.66
572.57	45626.40
572.74	45977.48
572.90	45743.43
573.06	45890.88
573.22	45509.38
573.38	46052.38
573.55	45343.20
573.71	45722.37
573.87	45507.04
574.03	45230.85
574.20	45799.60
574.36	45764.49
574.52	45230.85
574.68	45195.74
574.84	45507.04
575.01	45500.01
575.17	45179.36
575.33	45050.63
575.49	45434.48
575.65	45708.32
575.82	45610.02
575.98	45329.16
576.14	46085.15
576.30	45507.04
576.46	45682.58
576.62	45523.42
576.79	45532.78
576.95	45158.30
577.11	45387.67
577.27	45680.24
577.43	45787.90
577.59	45174.68
577.75	45626.40
577.92	45366.60
578.08	45336.18
578.24	45048.29
578.40	45219.15
578.56	45303.41
578.72	45570.23
578.88	46110.89
579.04	45930.67
579.21	45207.45
579.37	45390.01
579.53	45516.40
579.69	45331.50
579.85	45621.72
580.01	45757.47
580.17	45902.59
580.33	45247.24
580.49	45633.42
580.65	45500.01
580.82	45612.36
580.98	45860.46
581.14	45638.11
581.30	45577.25
581.46	45593.64
581.62	45755.13
581.78	45492.99
581.94	45944.72
582.10	45361.92
582.26	45947.06
582.42	46024.29
582.58	45935.35
582.74	45446.18
582.90	45984.51
583.06	45940.04
583.22	45492.99
583.38	46028.98
583.54	45794.92
583.70	45631.08
583.86	46064.08
584.02	45537.46
584.18	45375.97
584.34	45668.53
584.50	45715.34
584.66	45474.27
584.82	45673.21
584.98	45808.96
585.14	45270.64
585.30	45542.14
585.46	45794.92
585.62	45469.59
585.78	45364.26
585.94	44910.20
586.10	45514.06
586.26	45656.83
586.42	45858.12
586.58	45567.89
586.74	45865.14
586.90	45769.18
587.06	45724.71
587.22	45970.46
587.38	45888.54
587.54	45886.20
587.70	45345.54
587.86	45642.79
588.02	45492.99
588.18	45654.49
588.34	45125.53
588.49	45038.93
588.65	45071.70
588.81	45432.14
588.97	45535.12
589.13	45162.98
589.29	45064.67
589.45	45347.88
589.61	45614.70
589.77	45968.12
589.93	45734.07
590.08	45748.11
