SpectraSuite Data File
++++++++++++++++++++++++++++++++++++
Date: Fri Oct 25 11:34:04 EDT 2013
User: price-jones
Dark Spectrum Present: No
Reference Spectrum Present: No
Number of Sampled Component Spectra: 1
Spectrometers: USB2+H05261
Integration Time (usec): 100000 (USB2+H05261)
Spectra Averaged: 1 (USB2+H05261)
Boxcar Smoothing: 0 (USB2+H05261)
Correct for Electrical Dark: No (USB2+H05261)
Strobe/Lamp Enabled: No (USB2+H05261)
Correct for Detector Non-linearity: No (USB2+H05261)
Correct for Stray Light: No (USB2+H05261)
Number of Pixels in Processed Spectrum: 2048
>>>>>Begin Processed Spectral Data<<<<<
365.73	285.55
365.92	285.55
366.12	285.55
366.32	189.58
366.52	184.90
366.72	159.16
366.91	198.95
367.11	184.90
367.31	124.05
367.51	177.88
367.70	198.95
367.90	177.88
368.10	170.86
368.30	187.24
368.49	168.52
368.69	182.56
368.89	212.99
369.09	250.44
369.28	182.56
369.48	231.71
369.68	234.05
369.87	245.76
370.07	196.60
370.27	269.16
370.47	383.85
370.66	489.17
370.86	571.09
371.06	596.84
371.25	573.43
371.45	543.00
371.65	568.75
371.84	582.79
372.04	540.66
372.24	491.51
372.44	550.03
372.63	589.82
372.83	592.16
373.03	585.13
373.22	535.98
373.42	547.69
373.62	702.16
373.81	615.56
374.01	617.90
374.21	636.63
374.40	669.39
374.60	664.71
374.79	592.16
374.99	627.26
375.19	697.48
375.38	655.35
375.58	650.67
375.78	627.26
375.97	699.82
376.17	692.80
376.37	648.33
376.56	681.10
376.76	641.31
376.95	711.52
377.15	688.12
377.35	770.04
377.54	767.70
377.74	692.80
377.93	641.31
378.13	638.97
378.33	709.18
378.52	676.41
378.72	718.54
378.91	758.33
379.11	664.71
379.31	688.12
379.50	716.20
379.70	751.31
379.89	800.46
380.09	657.69
380.28	737.27
380.48	725.57
380.68	667.05
380.87	688.12
381.07	716.20
381.26	720.88
381.46	788.76
381.65	741.95
381.85	758.33
382.04	755.99
382.24	767.70
382.43	774.72
382.63	779.40
382.83	793.44
383.02	821.53
383.22	765.36
383.41	777.06
383.61	812.17
383.80	763.01
384.00	711.52
384.19	760.67
384.39	812.17
384.58	837.91
384.78	870.68
384.97	854.30
385.17	805.14
385.36	828.55
385.56	882.38
385.75	884.72
385.95	889.40
386.14	884.72
386.34	781.74
386.53	842.59
386.72	849.61
386.92	929.19
387.11	884.72
387.31	880.04
387.50	926.85
387.70	882.38
387.89	873.02
388.09	844.93
388.28	880.04
388.48	882.38
388.67	950.26
388.86	929.19
389.06	816.85
389.25	971.32
389.45	945.58
389.64	983.02
389.84	999.41
390.03	971.32
390.22	894.08
390.42	947.92
390.61	908.13
390.81	919.83
391.00	976.00
391.19	1090.69
391.39	1046.22
391.58	971.32
391.78	971.32
391.97	1055.58
392.16	947.92
392.36	994.73
392.55	954.94
392.75	1006.43
392.94	1022.81
393.13	1041.54
393.33	936.21
393.52	1029.84
393.71	1151.54
393.91	997.07
394.10	943.24
394.29	1062.60
394.49	1095.37
394.68	1032.18
394.88	1174.95
395.07	1081.33
395.26	1149.20
395.46	1142.18
395.65	1153.88
395.84	1142.18
396.04	1135.16
396.23	1193.67
396.42	1118.78
396.62	1123.46
396.81	1261.55
397.00	1256.87
397.19	1247.51
397.39	1109.41
397.58	1118.78
397.77	1221.76
397.97	1256.87
398.16	1205.38
398.35	1376.24
398.55	1275.59
398.74	1299.00
398.93	1259.21
399.12	1228.78
399.32	1308.36
399.51	1336.45
399.70	1371.55
399.90	1270.91
400.09	1322.40
400.28	1420.71
400.47	1399.64
400.67	1509.65
400.86	1409.00
401.05	1324.74
401.24	1453.47
401.44	1371.55
401.63	1483.90
401.82	1401.98
402.01	1469.86
402.21	1397.30
402.40	1427.73
402.59	1409.00
402.78	1451.13
402.97	1472.20
403.17	1575.18
403.36	1507.30
403.55	1533.05
403.74	1474.54
403.93	1533.05
404.13	1577.52
404.32	1579.86
404.51	1598.59
404.70	1678.16
404.89	1591.56
405.09	1643.06
405.28	1673.48
405.47	1701.57
405.66	1643.06
405.85	1692.21
406.05	1605.61
406.24	1776.47
406.43	1764.76
406.62	1678.16
406.81	1816.26
407.00	1748.38
407.20	1746.04
407.39	1727.32
407.58	1771.79
407.77	1748.38
407.96	1839.66
408.15	1930.94
408.34	1907.54
408.54	1860.73
408.73	1842.00
408.92	1881.79
409.11	1919.24
409.30	1853.70
409.49	1944.99
409.68	1968.39
409.87	1984.77
410.07	1998.82
410.26	1898.17
410.45	2090.10
410.64	1973.07
410.83	2033.93
411.02	2052.65
411.21	2054.99
411.40	2104.14
411.59	2211.81
411.78	2026.90
411.98	2038.61
412.17	2260.96
412.36	2211.81
412.55	2221.17
412.74	2251.60
412.93	2256.28
413.12	2277.34
413.31	2373.30
413.50	2263.30
413.69	2328.83
413.88	2368.62
414.07	2359.26
414.26	2408.41
414.45	2427.14
414.64	2548.84
414.83	2469.27
415.02	2581.61
415.22	2583.95
415.41	2612.04
415.60	2518.42
415.79	2588.63
415.98	2644.81
416.17	2679.91
416.36	2843.75
416.55	2672.89
416.74	2677.57
416.93	2761.83
417.12	2747.79
417.31	2796.94
417.50	2813.32
417.69	2913.97
417.88	2869.50
418.07	2846.09
418.26	2839.07
418.45	2925.67
418.64	3124.62
418.83	3173.77
419.02	3026.31
419.21	3000.57
419.39	3042.70
419.58	2904.60
419.77	3021.63
419.96	3101.21
420.15	3068.44
420.34	3091.85
420.53	3157.38
420.72	3222.92
420.91	3157.38
421.10	3197.17
421.29	3246.32
421.48	3155.04
421.67	3119.93
421.86	3255.69
422.05	3243.98
422.24	3138.66
422.43	3279.09
422.61	3251.00
422.80	3393.78
422.99	3262.71
423.18	3375.05
423.37	3445.27
423.56	3403.14
423.75	3272.07
423.94	3234.62
424.13	3141.00
424.32	3180.79
424.50	3531.87
424.69	3412.50
424.88	3386.76
425.07	3412.50
425.26	3368.03
425.45	3384.41
425.64	3349.31
425.83	3353.99
426.01	3445.27
426.20	3281.43
426.39	3403.14
426.58	3389.10
426.77	3529.53
426.96	3449.95
427.15	3400.80
427.33	3478.04
427.52	3419.52
427.71	3702.73
427.90	3555.27
428.09	3569.32
428.28	3655.92
428.46	3646.55
428.65	3552.93
428.84	3733.15
429.03	3749.54
429.22	3627.83
429.40	3707.41
429.59	3733.15
429.78	3480.38
429.97	3471.01
430.16	3702.73
430.34	3810.39
430.53	3836.14
430.72	3791.67
430.91	3667.62
431.10	3798.69
431.28	3850.18
431.47	3997.64
431.66	4035.08
431.85	3911.04
432.03	3918.06
432.22	3948.48
432.41	3971.89
432.60	3960.19
432.79	3950.82
432.97	4030.40
433.16	3946.14
433.35	4030.40
433.54	3960.19
433.72	4156.79
433.91	4140.41
434.10	3941.46
434.28	4147.43
434.47	4168.49
434.66	4156.79
434.85	4346.37
435.03	4117.00
435.22	4168.49
435.41	4248.07
435.59	4346.37
435.78	4278.50
435.97	4301.90
436.16	4196.58
436.34	4337.01
436.53	4346.37
436.72	4360.42
436.90	4381.48
437.09	4479.79
437.28	4325.31
437.46	4461.06
437.65	4428.29
437.84	4463.40
438.02	4418.93
438.21	4407.23
438.40	4341.69
438.58	4657.67
438.77	4552.34
438.96	4608.51
439.14	4830.87
439.33	4690.43
439.52	4884.70
439.70	4805.12
439.89	4997.04
440.08	4868.31
440.26	4905.76
440.45	4903.42
440.63	5149.18
440.82	5104.71
441.01	5008.75
441.19	5095.35
441.38	5207.69
441.57	5128.11
441.75	5181.95
441.94	5329.40
442.12	5366.85
442.31	5280.25
442.50	5376.21
442.68	5214.71
442.87	5298.97
443.05	5390.25
443.24	5394.93
443.43	5362.17
443.61	5376.21
443.80	5572.82
443.98	5472.17
444.17	5254.50
444.35	5441.75
444.54	5603.24
444.73	5397.28
444.91	5600.90
445.10	5383.23
445.28	5638.35
445.47	5530.69
445.65	5533.03
445.84	5448.77
446.02	5682.82
446.21	5518.98
446.39	5591.54
446.58	5650.05
446.77	5575.16
446.95	5430.04
447.14	5607.92
447.32	5671.12
447.51	5509.62
447.69	5652.39
447.88	5577.50
448.06	5547.07
448.25	5638.35
448.43	5783.46
448.62	5769.42
448.80	5823.25
448.99	5781.12
449.17	5764.74
449.36	5647.71
449.54	5923.90
449.73	5991.77
449.91	5991.77
450.10	5865.38
450.28	5998.79
450.46	6061.99
450.65	5884.11
450.83	6012.84
451.02	6139.23
451.20	6132.20
451.39	5916.87
451.57	5977.73
451.76	6106.46
451.94	6003.47
452.13	6031.56
452.31	6223.48
452.49	6113.48
452.68	6176.67
452.86	6186.04
453.05	6150.93
453.23	6228.17
453.42	6188.38
453.60	6176.67
453.78	6265.61
453.97	6270.30
454.15	6303.06
454.34	6164.97
454.52	6258.59
454.70	6431.79
454.89	6520.73
455.07	6473.92
455.26	6401.37
455.44	6670.53
455.62	6703.29
455.81	6579.25
455.99	6626.06
456.17	6621.38
456.36	6663.51
456.54	6815.64
456.73	6787.55
456.91	6817.98
457.09	6736.06
457.28	6932.67
457.46	6705.63
457.64	6986.50
457.83	6810.96
458.01	6979.48
458.19	7082.46
458.38	6918.62
458.56	7089.48
458.74	7126.93
458.93	7049.69
459.11	7105.87
459.29	7082.46
459.48	7173.74
459.66	7253.32
459.84	7208.85
460.03	7276.73
460.21	7215.87
460.39	7143.32
460.57	7260.34
460.76	7384.39
460.94	7255.66
461.12	7199.49
461.31	7588.02
461.49	7276.73
461.67	7300.13
461.85	7632.49
462.04	7414.82
462.22	7838.45
462.40	7569.29
462.59	7595.04
462.77	7449.93
462.95	7634.83
463.13	7531.84
463.32	7712.07
463.50	7660.57
463.68	7763.56
463.86	7822.07
464.05	7831.43
464.23	7637.17
464.41	7770.58
464.59	7559.93
464.78	8004.63
464.96	7798.66
465.14	7655.89
465.32	7978.89
465.50	7957.82
465.69	7997.61
465.87	7779.94
466.05	7964.84
466.23	8088.89
466.41	8180.17
466.60	8175.49
466.78	8028.04
466.96	8004.63
467.14	7957.82
467.32	8060.80
467.51	8224.64
467.69	7995.27
467.87	8243.37
468.05	8250.39
468.23	7992.93
468.41	7962.50
468.60	8243.37
468.78	8231.66
468.96	8407.20
469.14	8533.59
469.32	8676.37
469.50	8152.09
469.69	8439.97
469.87	8517.21
470.05	8468.06
470.23	8603.81
470.41	8554.66
470.59	8772.33
470.77	8545.30
470.95	8613.17
471.14	8898.72
471.32	8702.11
471.50	9027.45
471.68	8968.93
471.86	8842.54
472.04	8884.67
472.22	9076.60
472.40	8879.99
472.58	9050.85
472.77	9130.43
472.95	9144.47
473.13	9408.95
473.31	9273.20
473.49	9294.27
473.67	9322.35
473.85	9465.13
474.03	9614.92
474.21	9614.92
474.39	9703.86
474.57	9657.05
474.75	9720.24
474.93	9886.42
475.12	9790.46
475.30	9888.76
475.48	9762.37
475.66	9909.83
475.84	9605.56
476.02	10029.20
476.20	9802.16
476.38	9970.68
476.56	10434.11
476.74	10399.00
476.92	10195.37
477.10	10366.23
477.28	10520.71
477.46	10593.26
477.64	10640.08
477.82	10881.15
478.00	10967.75
478.18	10909.24
478.36	10890.51
478.54	10977.11
478.72	11023.92
478.90	11147.97
479.08	11646.51
479.26	11363.30
479.44	11375.00
479.62	11674.59
479.80	11623.10
479.98	11644.17
480.16	12109.93
480.34	11852.47
480.52	11908.65
480.70	12058.44
480.88	11838.43
481.06	12311.22
481.24	12294.83
481.41	12154.40
481.59	12610.81
481.77	12561.66
481.95	12545.27
482.13	12868.27
482.31	12613.15
482.49	13238.07
482.67	12924.44
482.85	13008.70
483.03	13373.82
483.21	13390.20
483.39	13678.09
483.57	13497.87
483.74	13598.51
483.92	13809.16
484.10	13830.23
484.28	13956.61
484.46	14052.58
484.64	14494.94
484.82	14197.69
485.00	14211.73
485.18	14728.99
485.35	14843.68
485.53	14693.88
485.71	15014.54
485.89	14785.16
486.07	14761.76
486.25	15089.43
486.43	15283.70
486.61	15449.88
486.78	15644.14
486.96	15620.74
487.14	15882.88
487.32	15737.76
487.50	15889.90
487.68	16133.31
487.85	16498.44
488.03	16538.23
488.21	16669.30
488.39	16692.70
488.57	16816.75
488.75	17048.46
488.92	17158.47
489.10	17095.27
489.28	17319.96
489.46	17151.45
489.64	17128.04
489.81	17734.24
489.99	18115.75
490.17	17668.70
490.35	18108.72
490.53	18122.77
490.70	18274.90
490.88	18347.46
491.06	18448.10
491.24	18731.31
491.41	18831.95
491.59	18778.12
491.77	18892.80
491.95	18934.93
492.13	19442.83
492.30	19337.51
492.48	19513.05
492.66	19454.53
492.84	19592.62
493.01	19814.98
493.19	20025.62
493.37	20084.14
493.54	20081.80
493.72	20046.69
493.90	20086.48
494.08	20662.25
494.25	20236.27
494.43	20421.17
494.61	20842.47
494.79	21153.76
494.96	20688.00
495.14	20926.73
495.32	21483.78
495.49	21352.71
495.67	21142.06
495.85	21462.71
496.02	21816.13
496.20	21928.48
496.38	22003.38
496.55	21851.24
496.73	22459.78
496.91	22129.77
497.09	22471.48
497.26	22417.65
497.44	22256.15
497.62	22726.60
497.79	23056.62
497.97	22778.09
498.14	22913.84
498.32	23110.45
498.50	23091.73
498.67	23274.29
498.85	23365.57
499.03	23793.89
499.20	23349.18
499.38	23906.23
499.56	23740.05
499.73	23744.73
499.91	24037.30
500.08	24180.07
500.26	23777.50
500.44	24472.64
500.61	24247.95
500.79	24072.41
500.97	24301.78
501.14	24739.46
501.32	24779.25
501.49	24652.86
501.67	25055.43
501.84	24973.52
502.02	24961.81
502.20	25083.52
502.37	25247.36
502.55	25151.40
502.72	25329.28
502.90	25619.50
503.07	25420.56
503.25	25675.68
503.43	25516.52
503.60	25799.73
503.78	25944.84
503.95	25816.11
504.13	26096.97
504.30	26361.45
504.48	26370.82
504.65	26443.37
504.83	26405.92
505.01	26441.03
505.18	26441.03
505.36	26930.20
505.53	26515.93
505.71	26979.36
505.88	26843.60
506.06	26335.71
506.23	27182.98
506.41	26883.39
506.58	26731.26
506.76	27587.89
506.93	27517.68
507.11	27564.49
507.28	27346.82
507.46	27613.64
507.63	27681.52
507.81	27737.69
507.98	27850.03
508.16	27728.33
508.33	28009.19
508.50	28271.33
508.68	28397.72
508.85	28524.11
509.03	27978.76
509.20	28652.84
509.38	28645.82
509.55	28952.43
509.73	28690.29
509.90	28797.95
510.08	28697.31
510.25	29085.84
510.42	28994.56
510.60	29076.48
510.77	29165.42
510.95	29469.69
511.12	29193.50
511.30	29404.15
511.47	29198.18
511.64	29357.34
511.82	29954.18
511.99	29846.51
512.17	29727.14
512.34	29933.11
512.51	30092.27
512.69	30363.77
512.86	30206.95
513.04	30417.60
513.21	30391.86
513.38	30590.80
513.56	30766.34
513.73	30969.97
513.90	30895.07
514.08	30333.34
514.25	31072.95
514.43	30965.29
514.60	30960.61
514.77	30827.20
514.95	30801.45
515.12	31229.77
515.29	31084.65
515.47	31185.30
515.64	31562.12
515.81	31512.97
515.99	31292.96
516.16	31723.62
516.33	31601.91
516.51	31786.82
516.68	31440.42
516.85	31952.99
517.03	31625.32
517.20	32032.57
517.37	32055.98
517.54	32236.20
517.72	32449.19
517.89	32318.12
518.06	32161.30
518.24	32402.38
518.41	32224.50
518.58	32510.04
518.75	32477.27
518.93	32877.51
519.10	32559.19
519.27	32615.37
519.45	32477.27
519.62	33027.30
519.79	32921.98
519.96	33268.37
520.14	32900.91
520.31	32921.98
520.48	33174.75
520.65	33486.04
520.83	33762.23
521.00	33862.87
521.17	33582.01
521.34	33851.17
521.52	33703.71
521.69	34169.48
521.86	33982.24
522.03	34277.15
522.20	34010.32
522.38	34445.66
522.55	34117.99
522.72	34546.31
522.89	34417.58
523.07	34747.59
523.24	34146.08
523.41	34492.47
523.58	34352.04
523.75	35051.86
523.92	34852.92
524.10	35021.44
524.27	34408.22
524.44	34920.79
524.61	35026.12
524.78	34995.69
524.96	35283.58
525.13	35503.59
525.30	35358.47
525.47	35288.26
525.64	35182.93
525.81	36320.43
525.98	35739.98
526.16	35257.83
526.33	35379.54
526.50	35974.03
526.67	35833.60
526.84	35674.45
527.01	35566.78
527.18	35798.49
527.36	36114.47
527.53	36114.47
527.70	36535.76
527.87	36357.88
528.04	36364.90
528.21	36219.79
528.38	36456.18
528.55	36357.88
528.72	36601.30
528.89	36084.04
529.07	36175.32
529.24	36341.50
529.41	37048.34
529.58	36662.15
529.75	36589.59
529.92	37074.09
530.09	36781.52
530.26	37081.11
530.43	37062.38
530.60	36886.84
530.77	36882.16
530.94	37251.97
531.11	37113.87
531.28	37151.32
531.46	37275.37
531.63	37771.57
531.80	37584.32
531.97	37589.00
532.14	37654.54
532.31	37532.83
532.48	37490.70
532.65	37736.46
532.82	38052.43
532.99	37596.03
533.16	37741.14
533.33	37675.60
533.50	38227.97
533.67	38150.73
533.84	38115.62
534.01	38443.30
534.18	37841.78
534.35	38408.19
534.52	38272.44
534.69	38740.55
534.86	38574.37
535.03	38337.98
535.20	38775.66
535.37	38593.09
535.54	38801.40
535.71	38836.51
535.88	39023.75
536.05	39129.08
536.22	38923.11
536.38	38848.21
536.55	38548.62
536.72	38644.59
536.89	38981.62
537.06	38785.02
537.23	39482.50
537.40	38628.20
537.57	38724.16
537.74	39108.01
537.91	39105.67
538.08	39091.63
538.25	38902.04
538.42	39660.38
538.59	39723.57
538.75	39557.39
538.92	39665.06
539.09	39718.89
539.26	39402.92
539.43	39665.06
539.60	39213.34
539.77	39665.06
539.94	40194.02
540.11	39833.58
540.28	39721.23
540.44	39725.91
540.61	40392.97
540.78	40069.97
540.95	39995.07
541.12	39819.53
541.29	40067.63
541.46	40247.85
541.62	40268.92
541.79	40500.63
541.96	39983.37
542.13	40140.19
542.30	40126.14
542.47	40650.42
542.63	40156.57
542.80	41062.36
542.97	40725.32
543.14	41345.56
543.31	40720.64
543.48	41177.04
543.64	41282.37
543.81	41345.56
543.98	41649.83
544.15	41511.74
544.32	41151.30
544.48	41324.50
544.65	41401.74
544.82	41698.98
544.99	41425.14
545.16	41490.68
545.32	41642.81
545.49	41450.89
545.66	41610.04
545.83	41588.98
546.00	41729.41
546.16	41652.17
546.33	41308.11
546.50	41329.18
546.67	42279.44
546.83	41265.99
547.00	41947.08
547.17	41914.31
547.34	42000.91
547.50	42026.66
547.67	42557.96
547.84	42003.25
548.00	42181.13
548.17	42789.67
548.34	42616.47
548.51	42230.29
548.67	42150.71
548.84	42265.39
549.01	42639.88
549.18	42291.14
549.34	42508.81
549.51	42513.49
549.68	42564.98
549.84	42436.25
550.01	42773.29
550.18	42375.40
550.34	42855.21
550.51	42871.59
550.68	42747.54
550.84	42080.49
551.01	43164.16
551.18	43037.77
551.34	42415.19
551.51	43145.44
551.68	42916.06
551.84	42864.57
552.01	42574.34
552.18	42775.63
552.34	43068.20
552.51	43199.27
552.68	42813.08
552.84	42794.36
553.01	43325.66
553.18	43005.00
553.34	43171.18
553.51	43306.93
553.67	43328.00
553.84	43679.08
554.01	43746.95
554.17	43636.95
554.34	43679.08
554.51	43555.03
554.67	44088.67
554.84	43580.78
555.00	43768.02
555.17	43501.20
555.33	43814.83
555.50	43601.84
555.67	44179.95
555.83	43510.56
556.00	44102.71
556.16	44451.45
556.33	43679.08
556.50	44163.57
556.66	43999.73
556.83	43667.37
556.99	44261.87
557.16	44215.06
557.32	44264.21
557.49	44516.99
557.65	43973.98
557.82	44264.21
557.98	44325.07
558.15	43732.91
558.32	44402.30
558.48	44112.08
558.65	44381.24
558.81	44477.20
558.98	44098.03
559.14	44243.15
559.31	44512.31
559.47	44463.16
559.64	44584.86
559.80	44395.28
559.97	44708.91
560.13	44439.75
560.30	44170.59
560.46	44678.49
560.63	44795.51
560.79	44744.02
560.96	44814.24
561.12	44603.59
561.29	45013.18
561.45	44832.96
561.61	44767.43
561.78	44861.05
561.94	44596.57
562.11	44830.62
562.27	44414.01
562.44	44783.81
562.60	45022.54
562.77	45181.70
562.93	44701.89
563.10	44861.05
563.26	45003.82
563.42	45324.47
563.59	45043.61
563.75	44790.83
563.92	45500.01
564.08	44952.33
564.24	45268.30
564.41	45106.80
564.57	45074.04
564.74	44971.05
564.90	45132.55
565.07	45008.50
565.23	45329.16
565.39	45013.18
565.56	45390.01
565.72	45415.76
565.88	45361.92
566.05	45106.80
566.21	45338.52
566.38	45361.92
566.54	45595.98
566.70	45359.58
566.87	45448.52
567.03	45221.49
567.19	45645.13
567.36	45399.37
567.52	45694.28
567.68	45687.26
567.85	45764.49
568.01	45680.24
568.17	45336.18
568.34	45443.84
568.50	45574.91
568.66	45284.68
568.83	45542.14
568.99	45368.94
569.15	45202.77
569.32	45471.93
569.48	45322.13
569.64	45972.80
569.81	45640.45
569.97	45284.68
570.13	45787.90
570.30	45095.10
570.46	46021.95
570.62	45713.00
570.78	45588.95
570.95	46026.63
571.11	45848.75
571.27	45837.05
571.43	45853.44
571.60	45771.52
571.76	45446.18
571.92	46040.68
572.09	45661.51
572.25	46026.63
572.41	46129.62
572.57	45918.97
572.74	45869.82
572.90	45961.10
573.06	45841.73
573.22	45727.05
573.38	46380.06
573.55	46265.37
573.71	45979.82
573.87	46366.01
574.03	45624.06
574.20	46417.50
574.36	46085.15
574.52	45963.44
574.68	46155.36
574.84	46377.72
575.01	46087.49
575.17	46232.60
575.33	45986.85
575.49	45933.01
575.65	46323.88
575.82	46333.24
575.98	45937.69
576.14	46461.97
576.30	46068.76
576.46	46415.16
576.62	46117.92
576.79	46312.18
576.95	45382.99
577.11	45813.65
577.27	45996.21
577.43	46251.33
577.59	45734.07
577.75	46117.92
577.92	45701.30
578.08	46129.62
578.24	46314.52
578.40	46696.03
578.56	46314.52
578.72	46401.12
578.88	45998.55
579.04	45909.61
579.21	46454.95
579.37	46176.43
579.53	46564.96
579.69	45989.19
579.85	46286.43
580.01	46263.03
580.17	46075.79
580.33	46508.79
580.49	46429.21
580.65	46487.72
580.82	46171.75
580.98	45869.82
581.14	45729.39
581.30	46717.09
581.46	46312.18
581.62	46309.84
581.78	46169.41
581.94	46164.73
582.10	46270.05
582.26	46674.96
582.42	46464.32
582.58	46445.59
582.74	46543.89
582.90	46347.29
583.06	46246.65
583.22	46026.63
583.38	46581.34
583.54	46469.00
583.70	46728.80
583.86	46583.68
584.02	45876.84
584.18	46600.07
584.34	46768.58
584.50	46761.56
584.66	46728.80
584.82	46476.02
584.98	46670.28
585.14	46487.72
585.30	46361.33
585.46	46513.47
585.62	46609.43
585.78	46632.83
585.94	46600.07
586.10	46337.93
586.26	46571.98
586.42	46237.28
586.58	46817.74
586.74	46127.28
586.90	46164.73
587.06	46794.33
587.22	46356.65
587.38	45998.55
587.54	46600.07
587.70	46763.90
587.86	46883.27
588.02	46452.61
588.18	46628.15
588.34	46667.94
588.49	46691.35
588.65	46700.71
588.81	47044.77
588.97	46960.51
589.13	46876.25
589.29	46700.71
589.45	47136.05
589.61	46330.90
589.77	47056.47
589.93	46838.80
590.08	46939.44
