SpectraSuite Data File
++++++++++++++++++++++++++++++++++++
Date: Fri Oct 25 10:44:21 EDT 2013
User: price-jones
Dark Spectrum Present: No
Reference Spectrum Present: No
Number of Sampled Component Spectra: 1
Spectrometers: USB2+H05261
Integration Time (usec): 100000 (USB2+H05261)
Spectra Averaged: 1 (USB2+H05261)
Boxcar Smoothing: 0 (USB2+H05261)
Correct for Electrical Dark: No (USB2+H05261)
Strobe/Lamp Enabled: No (USB2+H05261)
Correct for Detector Non-linearity: No (USB2+H05261)
Correct for Stray Light: No (USB2+H05261)
Number of Pixels in Processed Spectrum: 2048
>>>>>Begin Processed Spectral Data<<<<<
365.73	163.84
365.92	163.84
366.12	163.84
366.32	107.66
366.52	65.54
366.72	0.00
366.91	0.00
367.11	28.09
367.31	0.00
367.51	25.75
367.70	0.00
367.90	4.68
368.10	0.00
368.30	25.75
368.49	0.00
368.69	51.49
368.89	135.75
369.09	86.60
369.28	60.85
369.48	28.09
369.68	72.56
369.87	70.22
370.07	107.66
370.27	63.19
370.47	227.03
370.66	491.51
370.86	418.96
371.06	418.96
371.25	510.24
371.45	407.25
371.65	465.77
371.84	456.40
372.04	484.49
372.24	507.90
372.44	475.13
372.63	554.71
372.83	451.72
373.03	507.90
373.22	491.51
373.42	500.87
373.62	538.32
373.81	559.39
374.01	582.79
374.21	641.31
374.40	559.39
374.60	564.07
374.79	603.86
374.99	615.56
375.19	564.07
375.38	627.26
375.58	662.37
375.78	557.05
375.97	578.11
376.17	678.76
376.37	617.90
376.56	645.99
376.76	613.22
376.95	580.45
377.15	660.03
377.35	624.92
377.54	631.94
377.74	653.01
377.93	634.29
378.13	709.18
378.33	648.33
378.52	669.39
378.72	676.41
378.91	676.41
379.11	648.33
379.31	606.20
379.50	603.86
379.70	683.44
379.89	744.29
380.09	706.84
380.28	748.97
380.48	748.97
380.68	664.71
380.87	669.39
381.07	727.91
381.26	702.16
381.46	716.20
381.65	681.10
381.85	674.07
382.04	683.44
382.24	777.06
382.43	748.97
382.63	704.50
382.83	727.91
383.02	763.01
383.22	748.97
383.41	676.41
383.61	739.61
383.80	830.89
384.00	784.08
384.19	779.40
384.39	727.91
384.58	793.44
384.78	866.00
384.97	884.72
385.17	802.80
385.36	866.00
385.56	795.78
385.75	800.46
385.95	772.38
386.14	854.30
386.34	807.48
386.53	901.11
386.72	882.38
386.92	931.53
387.11	903.45
387.31	983.02
387.50	910.47
387.70	936.21
387.89	870.68
388.09	882.38
388.28	844.93
388.48	814.51
388.67	954.94
388.86	938.55
389.06	1032.18
389.25	978.34
389.45	905.79
389.64	987.71
389.84	1083.67
390.03	1043.88
390.22	1109.41
390.42	1078.99
390.61	1076.65
390.81	1114.10
391.00	1053.24
391.19	1083.67
391.39	1036.86
391.58	1053.24
391.78	1109.41
391.97	1139.84
392.16	1050.90
392.36	1043.88
392.55	1060.26
392.75	994.73
392.94	1020.47
393.13	1029.84
393.33	957.28
393.52	1083.67
393.71	1123.46
393.91	1123.46
394.10	1167.93
394.29	1160.91
394.49	1203.04
394.68	1238.14
394.88	1306.02
395.07	1282.61
395.26	1338.79
395.46	1233.46
395.65	1315.38
395.84	1296.66
396.04	1322.40
396.23	1200.69
396.42	1109.41
396.62	1226.44
396.81	1221.76
397.00	1238.14
397.19	1343.47
397.39	1460.49
397.58	1458.15
397.77	1411.34
397.97	1425.39
398.16	1481.56
398.35	1577.52
398.55	1554.12
398.74	1540.07
398.93	1650.08
399.12	1511.99
399.32	1598.59
399.51	1638.38
399.70	1659.44
399.90	1607.95
400.09	1619.65
400.28	1680.50
400.47	1593.90
400.67	1776.47
400.86	1675.82
401.05	1636.03
401.24	1799.87
401.44	1795.19
401.63	1764.76
401.82	1771.79
402.01	1734.34
402.21	1781.15
402.40	1802.21
402.59	1820.94
402.78	1874.77
402.97	1933.28
403.17	1846.68
403.36	1879.45
403.55	1956.69
403.74	1884.13
403.93	1977.75
404.13	1982.43
404.32	2008.18
404.51	1909.88
404.70	2033.93
404.89	1970.73
405.09	2010.52
405.28	2054.99
405.47	2012.86
405.66	1937.96
405.85	2097.12
406.05	2125.21
406.24	2097.12
406.43	2162.66
406.62	2022.22
406.81	2162.66
407.00	2160.31
407.20	2139.25
407.39	2265.64
407.58	2272.66
407.77	2282.02
407.96	2324.15
408.15	2338.20
408.34	2370.96
408.54	2324.15
408.73	2399.05
408.92	2466.92
409.11	2480.97
409.30	2209.47
409.49	2354.58
409.68	2251.60
409.87	2347.56
410.07	2363.94
410.26	2431.82
410.45	2420.11
410.64	2520.76
410.83	2583.95
411.02	2698.64
411.21	2757.15
411.40	2600.34
411.59	2768.85
411.78	2782.90
411.98	2785.24
412.17	2911.63
412.36	2895.24
412.55	2843.75
412.74	2715.02
412.93	2923.33
413.12	2850.77
413.31	2970.14
413.50	2913.97
413.69	2981.84
413.88	2974.82
414.07	2949.08
414.26	2913.97
414.45	3112.91
414.64	3145.68
414.83	3066.10
415.02	3138.66
415.22	3243.98
415.41	3361.01
415.60	3143.34
415.79	3342.28
415.98	3405.48
416.17	3417.18
416.36	3342.28
416.55	3386.76
416.74	3379.73
416.93	3304.84
417.12	3365.69
417.31	3445.27
417.50	3405.48
417.69	3503.78
417.88	3506.12
418.07	3576.34
418.26	3503.78
418.45	3590.38
418.64	3609.11
418.83	3625.49
419.02	3667.62
419.21	3777.62
419.39	3803.37
419.58	3714.43
419.77	3744.86
419.96	3803.37
420.15	3833.80
420.34	3981.25
420.53	3899.33
420.72	4086.58
420.91	3985.93
421.10	3894.65
421.29	3999.98
421.48	4058.49
421.67	3992.95
421.86	3990.61
422.05	3964.87
422.24	3847.84
422.43	3974.23
422.61	3927.42
422.80	4088.92
422.99	3976.57
423.18	4196.58
423.37	3990.61
423.56	4131.05
423.75	4065.51
423.94	3983.59
424.13	3840.82
424.32	3955.51
424.50	4142.75
424.69	4215.30
424.88	4182.54
425.07	4046.79
425.26	3955.51
425.45	4074.87
425.64	4161.47
425.83	4124.02
426.01	4231.69
426.20	4248.07
426.39	4053.81
426.58	4184.88
426.77	4077.21
426.96	4072.53
427.15	4117.00
427.33	4196.58
427.52	4152.11
427.71	4112.32
427.90	4243.39
428.09	4400.21
428.28	4475.10
428.46	4306.59
428.65	4325.31
428.84	4456.38
429.03	4432.97
429.22	4224.67
429.40	4269.14
429.59	4238.71
429.78	4227.01
429.97	4051.47
430.16	4187.22
430.34	4236.37
430.53	4320.63
430.72	4243.39
430.91	4344.03
431.10	4322.97
431.28	4674.05
431.47	4816.82
431.66	4772.35
431.85	4664.69
432.03	4767.67
432.22	4950.23
432.41	4784.06
432.60	4805.12
432.79	4828.53
432.97	4940.87
433.16	4990.02
433.35	4884.70
433.54	4863.63
433.72	4823.84
433.91	4770.01
434.10	4793.42
434.28	4873.00
434.47	4931.51
434.66	5039.17
434.85	5060.24
435.03	4889.38
435.22	5102.37
435.41	5418.34
435.59	5203.01
435.78	5238.12
435.97	5245.14
436.16	5320.04
436.34	5383.23
436.53	5547.07
436.72	5392.59
436.90	5191.31
437.09	5521.32
437.28	5387.91
437.46	5369.19
437.65	5390.25
437.84	5406.64
438.02	5448.77
438.21	5334.08
438.40	5509.62
438.58	5472.17
438.77	5673.46
438.96	5589.20
439.14	5731.97
439.33	5841.98
439.52	5774.10
439.70	5781.12
439.89	5839.64
440.08	5795.17
440.26	5846.66
440.45	5860.70
440.63	6085.39
440.82	6146.25
441.01	6127.52
441.19	6204.76
441.38	6305.40
441.57	6443.49
441.75	6469.24
441.94	6464.56
442.12	6518.39
442.31	6569.88
442.50	6555.84
442.68	6696.27
442.87	6516.05
443.05	6523.07
443.24	6654.14
443.43	6715.00
443.61	6654.14
443.80	6897.56
443.98	6473.92
444.17	6471.58
444.35	6782.87
444.54	6899.90
444.73	6757.13
444.91	6705.63
445.10	6853.09
445.28	6691.59
445.47	6609.67
445.65	6518.39
445.84	6738.40
446.02	7012.24
446.21	6780.53
446.39	6927.99
446.58	6927.99
446.77	7000.54
446.95	6689.25
447.14	6843.73
447.32	7225.23
447.51	6883.52
447.69	6949.05
447.88	6965.43
448.06	7012.24
448.25	7096.50
448.43	7026.29
448.62	6904.58
448.80	6815.64
448.99	7016.93
449.17	7129.27
449.36	7108.21
449.54	7377.37
449.73	7403.11
449.91	7393.75
450.10	7555.25
450.28	7470.99
450.46	7517.80
450.65	7449.93
450.83	7480.35
451.02	7438.22
451.20	7691.00
451.39	7569.29
451.57	7403.11
451.76	7475.67
451.94	7620.78
452.13	7616.10
452.31	7482.69
452.49	7260.34
452.68	7466.31
452.86	7449.93
453.05	7480.35
453.23	7756.54
453.42	7538.87
453.60	7613.76
453.78	7850.16
453.97	7761.22
454.15	7674.62
454.34	7770.58
454.52	7962.50
454.70	7791.64
454.89	7520.14
455.07	7716.75
455.26	7868.88
455.44	7936.76
455.62	8056.12
455.81	8060.80
455.99	8065.49
456.17	8313.58
456.36	8278.47
456.54	8215.28
456.73	8145.06
456.91	8594.45
457.09	8358.05
457.28	8496.14
457.46	8566.36
457.64	8617.85
457.83	8229.32
458.01	8292.52
458.19	8594.45
458.38	8430.61
458.56	8636.58
458.74	8542.96
458.93	8451.67
459.11	8409.54
459.29	8641.26
459.48	8545.30
459.66	8629.56
459.84	8805.10
460.03	8844.88
460.21	8828.50
460.39	9001.70
460.57	8641.26
460.76	8912.76
460.94	9015.74
461.12	8990.00
461.31	8987.66
461.49	8982.98
461.67	9008.72
461.85	9048.51
462.04	9217.03
462.22	9437.04
462.40	9282.56
462.59	9212.35
462.77	9259.16
462.95	9228.73
463.13	9245.12
463.32	9317.67
463.50	9338.74
463.68	9376.19
463.86	9355.12
464.05	9310.65
464.23	9259.16
464.41	9451.08
464.59	9273.20
464.78	9413.63
464.96	9359.80
465.14	9214.69
465.32	9525.98
465.50	9556.41
465.69	9731.95
465.87	9535.34
466.05	9542.36
466.23	9420.66
466.41	9577.47
466.60	9621.94
466.78	9530.66
466.96	9593.86
467.14	9540.02
467.32	9806.84
467.51	9727.27
467.69	9706.20
467.87	9750.67
468.05	9860.68
468.23	9750.67
468.41	9884.08
468.60	9886.42
468.78	9916.85
468.96	10031.54
469.14	10090.05
469.32	10244.52
469.50	9694.50
469.69	9973.02
469.87	10230.48
470.05	9984.73
470.23	10377.94
470.41	10054.94
470.59	10345.17
470.77	10106.43
470.95	10230.48
471.14	10326.44
471.32	10272.61
471.50	10920.94
471.68	10480.92
471.86	10611.99
472.04	10934.98
472.22	11028.60
472.40	10595.61
472.58	10869.45
472.77	10637.73
472.95	10960.73
473.13	11274.36
473.31	11089.46
473.49	11073.07
473.67	10703.27
473.85	11052.01
474.03	11651.19
474.21	11363.30
474.39	11536.50
474.57	11466.28
474.75	11587.99
474.93	11592.67
475.12	11400.75
475.30	11693.32
475.48	11492.03
475.66	11880.56
475.84	11639.48
476.02	11791.62
476.20	11602.04
476.38	12004.61
476.56	12229.30
476.74	12163.76
476.92	12196.53
477.10	12313.56
477.28	12617.83
477.46	12533.57
477.64	12760.60
477.82	12856.56
478.00	12882.31
478.18	12908.05
478.36	12863.58
478.54	12879.97
478.72	12837.84
478.90	13334.03
479.08	13441.70
479.26	13851.29
479.44	13528.30
479.62	13914.48
479.80	13806.82
479.98	13692.13
480.16	14462.17
480.34	14195.35
480.52	14209.39
480.70	14101.73
480.88	14118.11
481.06	14459.83
481.24	14295.99
481.41	14654.09
481.59	14757.08
481.77	15019.22
481.95	14883.47
482.13	14988.79
482.31	15164.33
482.49	15403.07
482.67	15379.66
482.85	15442.85
483.03	15861.81
483.21	15822.02
483.39	15793.94
483.57	16016.29
483.74	16079.48
483.92	16315.87
484.10	16145.02
484.28	16547.59
484.46	16489.07
484.64	17193.58
484.82	16512.48
485.00	16840.15
485.18	16891.65
485.35	17043.78
485.53	16910.37
485.71	16407.16
485.89	17055.48
486.07	16561.63
486.25	17170.17
486.43	17249.75
486.61	17460.40
486.78	17727.22
486.96	17996.38
487.14	17975.31
487.32	18361.50
487.50	18562.79
487.68	18679.82
487.85	18977.06
488.03	19124.52
488.21	19176.01
488.39	19105.79
488.57	19044.94
488.75	19484.96
488.92	19822.00
489.10	19967.11
489.28	20133.29
489.46	20657.57
489.64	20355.64
489.81	20386.07
489.99	20809.70
490.17	21041.42
490.35	21048.44
490.53	20706.72
490.70	20896.30
490.88	21317.60
491.06	21553.99
491.24	21404.20
491.41	21205.25
491.59	21270.79
491.77	21474.42
491.95	21907.41
492.13	21809.11
492.30	22160.19
492.48	22396.59
492.66	22651.70
492.84	22546.38
493.01	22955.97
493.19	22810.86
493.37	22775.75
493.54	23152.58
493.72	23110.45
493.90	23307.05
494.08	23770.48
494.25	23922.62
494.43	23995.17
494.61	24147.31
494.79	24116.88
494.96	24215.18
495.14	23894.53
495.32	24301.78
495.49	24379.02
495.67	24528.81
495.85	24580.31
496.02	24800.32
496.20	25268.42
496.38	25081.18
496.55	25439.28
496.73	25844.20
496.91	25586.74
497.09	25649.93
497.26	25699.08
497.44	25919.09
497.62	25912.07
497.79	26373.16
497.97	25748.23
498.14	26279.54
498.32	26345.07
498.50	26284.22
498.67	27187.66
498.85	26859.99
499.03	27222.77
499.20	27166.60
499.38	27241.50
499.56	27089.36
499.73	27302.35
499.91	27452.14
500.08	27398.31
500.26	27445.12
500.44	27573.85
500.61	27445.12
500.79	27363.20
500.97	27988.13
501.14	27737.69
501.32	28048.98
501.49	27971.74
501.67	27824.29
501.84	28379.00
502.02	28144.94
502.20	28271.33
502.37	28636.45
502.55	28694.97
502.72	28945.41
502.90	28687.95
503.07	28912.64
503.25	29085.84
503.43	29060.09
503.60	29074.13
503.78	28652.84
503.95	28994.56
504.13	29301.17
504.30	29420.53
504.48	29652.25
504.65	29558.63
504.83	29942.47
505.01	29928.43
505.18	29832.47
505.36	30134.40
505.53	30068.86
505.71	30541.65
505.88	30740.60
506.06	30211.64
506.23	30354.41
506.41	30183.55
506.58	30888.05
506.76	30955.93
506.93	30859.96
507.11	30703.15
507.28	31084.65
507.46	30686.76
507.63	30998.06
507.81	31239.13
507.98	30855.28
508.16	31168.91
508.33	31342.11
508.50	31931.93
508.68	31761.07
508.85	31934.27
509.03	32027.89
509.20	31847.67
509.38	31908.52
509.55	32091.09
509.73	32142.58
509.90	32215.13
510.08	32048.96
510.25	32311.10
510.42	32505.36
510.60	32713.67
510.77	32556.85
510.95	32912.61
511.12	32933.68
511.30	33167.73
511.47	33612.43
511.64	33251.99
511.82	33406.47
511.99	32783.88
512.17	33340.93
512.34	33039.00
512.51	33673.29
512.69	33479.02
512.86	33694.35
513.04	33640.52
513.21	33659.24
513.38	33582.01
513.56	33851.17
513.73	33448.60
513.90	33935.43
514.08	33923.72
514.25	34122.67
514.43	34059.48
514.60	34480.77
514.77	34536.94
514.95	34485.45
515.12	34621.20
515.29	34382.47
515.47	34948.88
515.64	34946.54
515.81	34747.59
515.99	34934.84
516.16	35012.07
516.33	33785.63
516.51	34429.28
516.68	33661.58
516.85	33972.88
517.03	34073.52
517.20	34892.71
517.37	35136.12
517.54	35299.96
517.72	34717.17
517.89	34862.28
518.06	34319.28
518.24	34719.51
518.41	35077.61
518.58	35168.89
518.75	35529.33
518.93	35737.64
519.10	35587.85
519.27	35896.80
519.45	36048.93
519.62	36060.63
519.79	36065.31
519.96	36250.22
520.14	36615.34
520.31	36025.53
520.48	36584.91
520.65	36299.37
520.83	36711.30
521.00	37083.45
521.17	37153.66
521.34	37090.47
521.52	37081.11
521.69	36907.91
521.86	37504.74
522.03	37287.07
522.20	37352.61
522.38	37441.55
522.55	37123.24
522.72	37263.67
522.89	36980.46
523.07	37111.53
523.24	37237.92
523.41	37954.13
523.58	37933.06
523.75	38464.36
523.92	38345.00
524.10	38277.12
524.27	38642.24
524.44	38424.57
524.61	38415.21
524.78	38314.57
524.96	38541.60
525.13	38490.11
525.30	38506.49
525.47	39201.63
525.64	38548.62
525.81	38897.36
525.98	38623.52
526.16	38862.26
526.33	37914.34
526.50	38368.40
526.67	37926.04
526.84	37972.85
527.01	38447.98
527.18	38707.78
527.36	39047.16
527.53	39482.50
527.70	39477.82
527.87	39505.90
528.04	39391.22
528.21	39749.32
528.38	39580.80
528.55	39871.03
528.72	39674.42
528.89	40205.72
529.07	39576.12
529.24	39548.03
529.41	39917.84
529.58	39920.18
529.75	39552.71
529.92	39641.65
530.09	39737.62
530.26	40074.65
530.43	40112.10
530.60	40392.97
530.77	40098.06
530.94	40477.22
531.11	40294.66
531.28	40814.26
531.46	40325.09
531.63	40711.28
531.80	40556.80
531.97	40685.53
532.14	40231.47
532.31	39861.66
532.48	40631.70
532.65	40500.63
532.82	40685.53
532.99	40952.35
533.16	40786.18
533.33	40701.92
533.50	41078.74
533.67	41109.17
533.84	41212.15
534.01	41078.74
534.18	40788.52
534.35	41261.30
534.52	41045.97
534.69	41572.60
534.86	41397.06
535.03	41862.82
535.20	41869.84
535.37	41736.43
535.54	41944.74
535.71	41734.09
535.88	41858.14
536.05	41745.80
536.22	41853.46
536.38	41825.37
536.55	41656.85
536.72	41710.69
536.89	41490.68
537.06	41954.10
537.23	42286.46
537.40	41942.40
537.57	42080.49
537.74	42190.50
537.91	42775.63
538.08	42171.77
538.25	41851.12
538.42	42326.25
538.59	42473.70
538.75	41808.99
538.92	42253.69
539.09	42586.05
539.26	42162.41
539.43	42646.90
539.60	42113.26
539.77	42101.56
539.94	42031.34
540.11	42366.04
540.28	42337.95
540.44	42370.72
540.61	42452.64
540.78	42270.08
540.95	42721.80
541.12	42328.59
541.29	42433.91
541.46	42728.82
541.62	43002.66
541.79	42508.81
541.96	42880.95
542.13	42677.33
542.30	43058.84
542.47	42880.95
542.63	43152.46
542.80	43103.31
542.97	43679.08
543.14	43702.48
543.31	43468.43
543.48	43765.68
543.64	44306.34
543.81	44264.21
543.98	43805.47
544.15	43440.34
544.32	44437.41
544.48	44273.57
544.65	43901.43
544.82	44243.15
544.99	44163.57
545.16	43693.12
545.32	44346.13
545.49	44048.88
545.66	44355.49
545.83	44144.84
546.00	44423.37
546.16	43643.97
546.33	44016.11
546.50	43981.01
546.67	43875.68
546.83	43997.39
547.00	44271.23
547.17	43922.49
547.34	44296.98
547.50	44301.66
547.67	44219.74
547.84	44500.61
548.00	44797.85
548.17	45088.08
548.34	44732.32
548.51	44758.06
548.67	44804.88
548.84	45050.63
549.01	44783.81
549.18	44858.71
549.34	45071.70
549.51	45312.77
549.68	44842.32
549.84	44954.67
550.01	45099.78
550.18	44802.53
550.34	44889.13
550.51	45081.06
550.68	45078.72
550.84	44500.61
551.01	45013.18
551.18	45153.62
551.34	44961.69
551.51	45191.06
551.68	45504.70
551.84	45146.59
552.01	45223.83
552.18	45312.77
552.34	45052.97
552.51	45198.09
552.68	45481.29
552.84	45287.03
553.01	45738.75
553.18	45490.65
553.34	45022.54
553.51	45406.39
553.67	45453.20
553.84	45986.85
554.01	45605.34
554.17	45839.39
554.34	45839.39
554.51	45738.75
554.67	45933.01
554.84	45907.27
555.00	45221.49
555.17	45525.76
555.33	45918.97
555.50	45420.44
555.67	45659.17
555.83	46157.70
556.00	45832.37
556.16	46218.56
556.33	45867.48
556.50	45881.52
556.66	45467.25
556.83	45380.65
556.99	45823.01
557.16	46103.87
557.32	45830.03
557.49	46272.39
557.65	46073.45
557.82	45907.27
557.98	46036.00
558.15	46078.13
558.32	45947.06
558.48	45710.66
558.65	46153.02
558.81	46026.63
558.98	45724.71
559.14	46363.67
559.31	45764.49
559.47	46031.32
559.64	46174.09
559.80	46358.99
559.97	46520.49
560.13	46080.47
560.30	45914.29
560.46	46328.56
560.63	46820.08
560.79	46454.95
560.96	46763.90
561.12	46438.57
561.29	45984.51
561.45	46284.09
561.61	45881.52
561.78	46138.98
561.94	46277.07
562.11	45853.44
562.27	46323.88
562.44	46433.89
562.60	46789.65
562.77	46548.57
562.93	46548.57
563.10	46827.10
563.26	46223.24
563.42	46419.84
563.59	45940.04
563.75	46080.47
563.92	46820.08
564.08	46733.48
564.24	46628.15
564.41	46887.95
564.57	46300.48
564.74	46232.60
564.90	46391.76
565.07	46520.49
565.23	46883.27
565.39	46314.52
565.56	46803.69
565.72	46443.25
565.88	46529.85
566.05	46328.56
566.21	46389.42
566.38	46902.00
566.54	46649.22
566.70	46536.87
566.87	47145.41
567.03	46571.98
567.19	47222.65
567.36	46508.79
567.52	46389.42
567.68	46838.80
567.85	46993.28
568.01	46543.89
568.17	46740.50
568.34	46480.70
568.50	46574.32
568.66	46665.60
568.83	46560.28
568.99	46569.64
569.15	46382.40
569.32	46321.54
569.48	46571.98
569.64	46958.17
569.81	46953.49
569.97	46506.44
570.13	46567.30
570.30	46632.83
570.46	46387.08
570.62	46473.68
570.78	46085.15
570.95	46646.88
571.11	46639.86
571.27	46770.93
571.43	46541.55
571.60	46871.57
571.76	46808.37
571.92	46543.89
572.09	46459.63
572.25	46773.27
572.41	46759.22
572.57	46927.74
572.74	47124.35
572.90	47077.54
573.06	46876.25
573.22	46883.27
573.38	46986.25
573.55	46721.77
573.71	46829.44
573.87	47040.09
574.03	46681.98
574.20	46916.04
574.36	46930.08
574.52	47274.14
574.68	46857.52
574.84	46979.23
575.01	47105.62
575.17	46948.81
575.33	46569.64
575.49	46630.49
575.65	47133.71
575.82	46939.44
575.98	46883.27
576.14	47185.20
576.30	46766.24
576.46	47082.22
576.62	46766.24
576.79	47002.64
576.95	46614.11
577.11	47089.24
577.27	47494.15
577.43	47194.56
577.59	46770.93
577.75	46775.61
577.92	46799.01
578.08	46501.76
578.24	46433.89
578.40	47147.75
578.56	46689.01
578.72	46625.81
578.88	47063.49
579.04	46934.76
579.21	46773.27
579.37	46995.62
579.53	46866.89
579.69	46742.84
579.85	46965.19
580.01	47021.36
580.17	47072.85
580.33	46988.60
580.49	47246.05
580.65	47203.92
580.82	47000.30
580.98	46677.30
581.14	46576.66
581.30	46913.70
581.46	46906.68
581.62	46965.19
581.78	46995.62
581.94	47391.17
582.10	46869.23
582.26	47171.16
582.42	47004.98
582.58	47370.10
582.74	47075.19
582.90	47388.83
583.06	47281.16
583.22	47306.91
583.38	47065.83
583.54	47543.30
583.70	47489.47
583.86	47082.22
584.02	46483.04
584.18	47316.27
584.34	47058.81
584.50	46820.08
584.66	46660.92
584.82	46871.57
584.98	47236.69
585.14	46892.63
585.30	47267.12
585.46	46787.31
585.62	46834.12
585.78	46660.92
585.94	46408.14
586.10	46794.33
586.26	46817.74
586.42	46976.89
586.58	47433.30
586.74	47143.07
586.90	46904.34
587.06	47201.58
587.22	46944.12
587.38	46740.50
587.54	46796.67
587.70	46967.53
587.86	47140.73
588.02	47096.26
588.18	47103.28
588.34	46770.93
588.49	46466.66
588.65	46375.37
588.81	46377.72
588.97	46581.34
589.13	46265.37
589.29	46731.14
589.45	46670.28
589.61	46422.19
589.77	47086.90
589.93	47262.44
