SpectraSuite Data File
++++++++++++++++++++++++++++++++++++
Date: Fri Oct 25 10:44:29 EDT 2013
User: price-jones
Dark Spectrum Present: No
Reference Spectrum Present: No
Number of Sampled Component Spectra: 1
Spectrometers: USB2+H05261
Integration Time (usec): 100000 (USB2+H05261)
Spectra Averaged: 1 (USB2+H05261)
Boxcar Smoothing: 0 (USB2+H05261)
Correct for Electrical Dark: No (USB2+H05261)
Strobe/Lamp Enabled: No (USB2+H05261)
Correct for Detector Non-linearity: No (USB2+H05261)
Correct for Stray Light: No (USB2+H05261)
Number of Pixels in Processed Spectrum: 2048
>>>>>Begin Processed Spectral Data<<<<<
365.73	110.01
365.92	110.01
366.12	110.01
366.32	7.02
366.52	56.17
366.72	67.88
366.91	16.38
367.11	77.24
367.31	35.11
367.51	93.62
367.70	4.68
367.90	28.09
368.10	11.70
368.30	35.11
368.49	86.60
368.69	53.83
368.89	84.26
369.09	88.94
369.28	93.62
369.48	93.62
369.68	70.22
369.87	65.54
370.07	98.30
370.27	105.32
370.47	245.76
370.66	423.64
370.86	397.89
371.06	489.17
371.25	447.04
371.45	353.42
371.65	379.17
371.84	477.47
372.04	440.02
372.24	552.37
372.44	526.62
372.63	486.83
372.83	526.62
373.03	493.85
373.22	447.04
373.42	500.87
373.62	552.37
373.81	533.64
374.01	517.26
374.21	550.03
374.40	543.00
374.60	587.47
374.79	512.58
374.99	575.77
375.19	578.11
375.38	601.52
375.58	514.92
375.78	620.24
375.97	638.97
376.17	662.37
376.37	596.84
376.56	653.01
376.76	517.26
376.95	594.50
377.15	587.47
377.35	653.01
377.54	641.31
377.74	664.71
377.93	631.94
378.13	629.60
378.33	695.14
378.52	615.56
378.72	685.78
378.91	636.63
379.11	575.77
379.31	580.45
379.50	638.97
379.70	664.71
379.89	676.41
380.09	634.29
380.28	669.39
380.48	688.12
380.68	545.34
380.87	702.16
381.07	753.65
381.26	648.33
381.46	725.57
381.65	650.67
381.85	744.29
382.04	711.52
382.24	744.29
382.43	622.58
382.63	753.65
382.83	695.14
383.02	739.61
383.22	774.72
383.41	734.93
383.61	737.27
383.80	823.87
384.00	734.93
384.19	844.93
384.39	798.12
384.58	777.06
384.78	725.57
384.97	800.46
385.17	805.14
385.36	772.38
385.56	826.21
385.75	774.72
385.95	793.44
386.14	816.85
386.34	861.32
386.53	842.59
386.72	819.19
386.92	826.21
387.11	748.97
387.31	870.68
387.50	772.38
387.70	809.83
387.89	908.13
388.09	905.79
388.28	854.30
388.48	891.74
388.67	978.34
388.86	884.72
389.06	926.85
389.25	919.83
389.45	983.02
389.64	1090.69
389.84	992.39
390.03	1022.81
390.22	1020.47
390.42	933.87
390.61	1020.47
390.81	1020.47
391.00	1057.92
391.19	1036.86
391.39	1090.69
391.58	1025.15
391.78	1057.92
391.97	1041.54
392.16	1025.15
392.36	1078.99
392.55	931.53
392.75	976.00
392.94	964.30
393.13	915.15
393.33	1029.84
393.52	1001.75
393.71	1118.78
393.91	1123.46
394.10	1036.86
394.29	1097.71
394.49	1036.86
394.68	1186.65
394.88	1193.67
395.07	1156.22
395.26	1224.10
395.46	1196.01
395.65	1165.59
395.84	1193.67
396.04	1247.51
396.23	1130.48
396.42	1233.46
396.62	1193.67
396.81	1071.97
397.00	1109.41
397.19	1186.65
397.39	1163.25
397.58	1327.08
397.77	1280.27
397.97	1371.55
398.16	1397.30
398.35	1336.45
398.55	1380.92
398.74	1488.58
398.93	1495.60
399.12	1488.58
399.32	1455.81
399.51	1411.34
399.70	1472.20
399.90	1533.05
400.09	1516.67
400.28	1563.48
400.47	1631.35
400.67	1633.69
400.86	1591.56
401.05	1629.01
401.24	1624.33
401.44	1542.41
401.63	1645.40
401.82	1629.01
402.01	1589.22
402.21	1659.44
402.40	1722.63
402.59	1624.33
402.78	1593.90
402.97	1713.27
403.17	1734.34
403.36	1638.38
403.55	1722.63
403.74	1884.13
403.93	1675.82
404.13	1762.42
404.32	1795.19
404.51	1785.83
404.70	1949.67
404.89	1795.19
405.09	1877.11
405.28	1872.43
405.47	1954.35
405.66	1973.07
405.85	1954.35
406.05	1949.67
406.24	1907.54
406.43	1984.77
406.62	2043.29
406.81	1984.77
407.00	2083.08
407.20	1937.96
407.39	1959.03
407.58	2153.29
407.77	2024.56
407.96	2059.67
408.15	2251.60
408.34	2094.78
408.54	2235.21
408.73	2218.83
408.92	2150.95
409.11	2181.38
409.30	2312.45
409.49	2176.70
409.68	2190.74
409.87	2216.49
410.07	2275.00
410.26	2335.85
410.45	2303.09
410.64	2356.92
410.83	2396.71
411.02	2396.71
411.21	2576.93
411.40	2466.92
411.59	2506.71
411.78	2424.80
411.98	2473.95
412.17	2490.33
412.36	2539.48
412.55	2609.70
412.74	2679.91
412.93	2682.25
413.12	2665.87
413.31	2696.30
413.50	2682.25
413.69	2801.62
413.88	2871.84
414.07	2848.43
414.26	2782.90
414.45	2862.48
414.64	2967.80
414.83	2977.16
415.02	2991.20
415.22	2981.84
415.41	2923.33
415.60	3068.44
415.79	3038.02
415.98	3115.25
416.17	3122.27
416.36	3019.29
416.55	3073.12
416.74	3267.39
416.93	3030.99
417.12	3265.05
417.31	3038.02
417.50	3199.51
417.69	3365.69
417.88	3452.29
418.07	3438.25
418.26	3246.32
418.45	3438.25
418.64	3590.38
418.83	3524.85
419.02	3351.65
419.21	3478.04
419.39	3449.95
419.58	3435.91
419.77	3482.72
419.96	3552.93
420.15	3588.04
420.34	3494.42
420.53	3585.70
420.72	3758.90
420.91	3648.90
421.10	3758.90
421.29	3822.09
421.48	3758.90
421.67	3744.86
421.86	3641.87
422.05	3737.84
422.24	3747.20
422.43	3758.90
422.61	3726.13
422.80	3794.01
422.99	3922.74
423.18	3857.20
423.37	3826.78
423.56	3911.04
423.75	3768.26
423.94	3845.50
424.13	3606.77
424.32	3494.42
424.50	3871.25
424.69	3992.95
424.88	3946.14
425.07	3744.86
425.26	3707.41
425.45	3667.62
425.64	3740.18
425.83	3871.25
426.01	3943.80
426.20	3782.31
426.39	3796.35
426.58	3906.35
426.77	3934.44
426.96	3836.14
427.15	3908.69
427.33	3833.80
427.52	3932.10
427.71	3880.61
427.90	4074.87
428.09	4053.81
428.28	4119.34
428.46	4201.26
428.65	4053.81
428.84	4105.30
429.03	4168.49
429.22	3925.08
429.40	4042.11
429.59	4056.15
429.78	3845.50
429.97	3911.04
430.16	3843.16
430.34	3983.59
430.53	4187.22
430.72	4159.13
430.91	4058.49
431.10	4238.71
431.28	4400.21
431.47	4456.38
431.66	4514.89
431.85	4514.89
432.03	4444.68
432.22	4428.29
432.41	4449.36
432.60	4493.83
432.79	4465.74
432.97	4645.96
433.16	4739.58
433.35	4575.75
433.54	4538.30
433.72	4650.64
433.91	4512.55
434.10	4802.78
434.28	4622.56
434.47	4678.73
434.66	4748.95
434.85	4809.80
435.03	4777.03
435.22	4690.43
435.41	4887.04
435.59	4983.00
435.78	5001.72
435.97	4865.97
436.16	4959.60
436.34	4945.55
436.53	5081.30
436.72	5027.47
436.90	4961.94
437.09	5011.09
437.28	4936.19
437.46	5055.56
437.65	5032.15
437.84	5172.58
438.02	4978.32
438.21	5015.77
438.40	5081.30
438.58	5247.48
438.77	5266.21
438.96	5254.50
439.14	5270.89
439.33	5322.38
439.52	5406.64
439.70	5380.89
439.89	5589.20
440.08	5509.62
440.26	5500.26
440.45	5530.69
440.63	5631.33
440.82	5701.54
441.01	5778.78
441.19	5830.27
441.38	5944.96
441.57	5909.85
441.75	6026.88
441.94	6047.94
442.12	6092.41
442.31	6113.48
442.50	6099.44
442.68	6157.95
442.87	5975.39
443.05	6207.10
443.24	6366.26
443.43	6097.10
443.61	6277.32
443.80	6602.65
443.98	6225.82
444.17	6080.71
444.35	6230.51
444.54	6558.18
444.73	6267.95
444.91	6354.55
445.10	6305.40
445.28	6338.17
445.47	6270.30
445.65	6244.55
445.84	6338.17
446.02	6504.35
446.21	6604.99
446.39	6399.02
446.58	6377.96
446.77	6363.92
446.95	6420.09
447.14	6466.90
447.32	6595.63
447.51	6455.20
447.69	6431.79
447.88	6483.28
448.06	6422.43
448.25	6558.18
448.43	6541.80
448.62	6642.44
448.80	6478.60
448.99	6537.12
449.17	6565.20
449.36	6480.94
449.54	6710.32
449.73	6869.47
449.91	6897.56
450.10	6998.20
450.28	6911.60
450.46	6988.84
450.65	6974.80
450.83	6951.39
451.02	6986.50
451.20	6892.88
451.39	6988.84
451.57	6967.77
451.76	7089.48
451.94	6979.48
452.13	7204.17
452.31	6993.52
452.49	6939.69
452.68	6939.69
452.86	6998.20
453.05	7059.06
453.23	7152.68
453.42	7126.93
453.60	7082.46
453.78	7302.47
453.97	7140.97
454.15	7169.06
454.34	7162.04
454.52	7274.38
454.70	7375.03
454.89	7403.11
455.07	7321.20
455.26	7265.02
455.44	7510.78
455.62	7426.52
455.81	7452.27
455.99	7557.59
456.17	7569.29
456.36	7620.78
456.54	7648.87
456.73	7744.83
456.91	8049.10
457.09	7843.14
457.28	7976.55
457.46	7686.32
457.64	7763.56
457.83	7758.88
458.01	7948.46
458.19	7934.42
458.38	8042.08
458.56	7985.91
458.74	7941.44
458.93	7880.58
459.11	8032.72
459.29	7983.57
459.48	8224.64
459.66	7943.78
459.84	8114.64
460.03	8306.56
460.21	8205.92
460.39	8262.09
460.57	8428.27
460.76	8388.48
460.94	8245.71
461.12	8308.90
461.31	8521.89
461.49	8381.46
461.67	8304.22
461.85	8573.38
462.04	8594.45
462.22	8606.15
462.40	8711.47
462.59	8650.62
462.77	8741.90
462.95	8753.60
463.13	8512.53
463.32	8709.13
463.50	8936.17
463.68	8865.95
463.86	8695.09
464.05	8741.90
464.23	8772.33
464.41	8629.56
464.59	8627.21
464.78	8898.72
464.96	9034.47
465.14	8592.11
465.32	9081.28
465.50	9088.30
465.69	9188.94
465.87	8985.32
466.05	8870.63
466.23	8875.31
466.41	9069.58
466.60	9165.54
466.78	8891.70
466.96	9018.08
467.14	9074.26
467.32	8957.23
467.51	9200.65
467.69	8788.71
467.87	9114.05
468.05	9123.41
468.23	9109.36
468.41	9268.52
468.60	9366.82
468.78	9455.76
468.96	9331.72
469.14	9689.82
469.32	9717.90
469.50	9254.48
469.69	9423.00
469.87	9554.07
470.05	9425.34
470.23	9586.83
470.41	9675.77
470.59	9813.87
470.77	9626.62
470.95	9736.63
471.14	9699.18
471.32	9710.88
471.50	10083.03
471.68	10015.15
471.86	10146.22
472.04	10150.90
472.22	10291.34
472.40	10143.88
472.58	10157.92
472.77	10211.76
472.95	10368.57
473.13	10609.65
473.31	10054.94
473.49	10265.59
473.67	10139.20
473.85	10258.57
474.03	10808.59
474.21	10579.22
474.39	11000.52
474.57	10876.47
474.75	10740.72
474.93	10963.07
475.12	10754.76
475.30	11288.40
475.48	11014.56
475.66	10876.47
475.84	10981.79
476.02	11033.29
476.20	11035.63
476.38	11323.51
476.56	11470.97
476.74	11564.59
476.92	11592.67
477.10	11559.91
477.28	11662.89
477.46	11803.32
477.64	11747.15
477.82	12271.43
478.00	12210.57
478.18	12098.23
478.36	12222.28
478.54	12465.69
478.72	12369.73
478.90	12636.55
479.08	12634.21
479.26	12922.10
479.44	12886.99
479.62	12800.39
479.80	13209.98
479.98	13256.79
480.16	13640.64
480.34	13411.27
480.52	13390.20
480.70	13619.58
480.88	13364.46
481.06	13441.70
481.24	13661.71
481.41	13884.06
481.59	13958.96
481.77	14127.47
481.95	14061.94
482.13	14010.45
482.31	14293.65
482.49	14504.30
482.67	14595.58
482.85	14761.76
483.03	14626.01
483.21	14752.40
483.39	15089.43
483.57	15056.67
483.74	14956.02
483.92	15335.19
484.10	15101.14
484.28	15386.68
484.46	15894.58
484.64	16056.08
484.82	15559.88
485.00	15873.51
485.18	15791.59
485.35	16266.72
485.53	15913.30
485.71	15812.66
485.89	16407.16
486.07	16023.31
486.25	16135.65
486.43	16507.80
486.61	16627.17
486.78	16931.44
486.96	17191.23
487.14	17240.39
487.32	17247.41
487.50	17769.35
487.68	17558.70
487.85	17832.54
488.03	17944.89
488.21	18195.32
488.39	18279.58
488.57	18335.76
488.75	18174.26
488.92	18525.34
489.10	18843.65
489.28	18937.27
489.46	19044.94
489.64	19204.10
489.81	19653.48
489.99	19468.58
490.17	19742.42
490.35	19637.09
490.53	19932.00
490.70	20079.46
490.88	20027.96
491.06	20418.83
491.24	20460.96
491.41	20259.68
491.59	20128.61
491.77	20039.67
491.95	20439.90
492.13	20706.72
492.30	21263.77
492.48	21050.78
492.66	21270.79
492.84	21188.87
493.01	21343.35
493.19	21465.05
493.37	21640.59
493.54	21703.79
493.72	22108.70
493.90	21848.90
494.08	22256.15
494.25	22881.08
494.43	22698.52
494.61	22778.09
494.79	23110.45
494.96	22934.91
495.14	23253.22
495.32	23091.73
495.49	23197.05
495.67	23337.48
495.85	23688.56
496.02	23821.97
496.20	23985.81
496.38	24180.07
496.55	23885.17
496.73	24430.51
496.91	24044.32
497.09	24149.65
497.26	24584.99
497.44	24313.48
497.62	24655.20
497.79	24704.35
497.97	24744.14
498.14	24751.17
498.32	25338.64
498.50	25113.95
498.67	25298.85
498.85	25340.98
499.03	25516.52
499.20	26047.82
499.38	25713.13
499.56	25530.56
499.73	25883.98
499.91	25914.41
500.08	26167.19
500.26	25855.90
500.44	26230.38
500.61	26197.62
500.79	26139.10
500.97	26590.83
501.14	26644.66
501.32	26567.42
501.49	26302.94
501.67	26808.50
501.84	26944.25
502.02	27007.44
502.20	27103.40
502.37	27353.84
502.55	27211.07
502.72	27454.48
502.90	27470.87
503.07	27716.62
503.25	27899.19
503.43	27545.76
503.60	27637.05
503.78	27555.13
503.95	27592.58
504.13	27917.91
504.30	27924.93
504.48	28353.25
504.65	28210.48
504.83	28547.51
505.01	28591.98
505.18	28594.32
505.36	28882.21
505.53	29078.82
505.71	29422.87
505.88	29244.99
506.06	28905.62
506.23	28861.15
506.41	29205.20
506.58	29174.78
506.76	28947.75
506.93	29596.07
507.11	29521.18
507.28	29397.13
507.46	29404.15
507.63	29558.63
507.81	30199.93
507.98	29600.76
508.16	29823.11
508.33	29942.47
508.50	30450.37
508.68	30370.79
508.85	30668.04
509.03	30396.54
509.20	30183.55
509.38	30714.85
509.55	30675.06
509.73	30614.21
509.90	30630.59
510.08	30817.83
510.25	30494.84
510.42	30974.65
510.60	31262.54
510.77	31236.79
510.95	31246.15
511.12	31164.23
511.30	31704.90
511.47	31690.85
511.64	32060.66
511.82	31803.20
511.99	31555.10
512.17	31732.98
512.34	31842.99
512.51	31871.07
512.69	32194.07
512.86	32009.17
513.04	32425.78
513.21	32194.07
513.38	31929.59
513.56	32165.98
513.73	31978.74
513.90	32643.45
514.08	31992.78
514.25	32584.94
514.43	32582.60
514.60	32383.65
514.77	32561.53
514.95	33237.95
515.12	32924.32
515.29	32882.19
515.47	33230.93
515.64	33666.27
515.81	32875.16
515.99	33352.63
516.16	33415.83
516.33	33090.49
516.51	33221.56
516.68	32643.45
516.85	32755.80
517.03	33450.94
517.20	33556.26
517.37	33673.29
517.54	33612.43
517.72	33881.60
517.89	33254.33
518.06	33448.60
518.24	33628.82
518.41	33921.38
518.58	33734.14
518.75	33827.76
518.93	34494.82
519.10	34373.11
519.27	34609.50
519.45	34085.22
519.62	35002.71
519.79	34693.76
519.96	34724.19
520.14	35049.52
520.31	34448.00
520.48	35079.95
520.65	35089.31
520.83	35409.96
521.00	35342.09
521.17	35601.89
521.34	35791.47
521.52	35232.08
521.69	35419.33
521.86	35545.72
522.03	35908.50
522.20	36091.06
522.38	35840.62
522.55	35971.69
522.72	35852.33
522.89	35974.03
523.07	36044.25
523.24	35934.24
523.41	36339.16
523.58	36273.62
523.75	37017.91
523.92	36622.36
524.10	36933.65
524.27	37153.66
524.44	36781.52
524.61	36460.87
524.78	36343.84
524.96	36877.48
525.13	37263.67
525.30	37280.05
525.47	37469.64
525.64	37139.62
525.81	36943.02
525.98	36809.61
526.16	36828.33
526.33	36629.38
526.50	36928.97
526.67	36680.88
526.84	37216.86
527.01	36800.24
527.18	37102.17
527.36	37687.31
527.53	37858.17
527.70	37762.20
527.87	37937.74
528.04	37935.40
528.21	37670.92
528.38	37858.17
528.55	38286.48
528.72	38447.98
528.89	38181.16
529.07	38178.82
529.24	37827.74
529.41	37965.83
529.58	38071.15
529.75	38202.22
529.92	38827.15
530.09	38497.13
530.26	38904.38
530.43	38684.37
530.60	38574.37
530.77	38841.19
530.94	38888.00
531.11	38838.85
531.28	38873.96
531.46	38693.74
531.63	38735.87
531.80	39049.50
531.97	38890.34
532.14	39269.51
532.31	38731.18
532.48	39049.50
532.65	39093.97
532.82	39463.77
532.99	39098.65
533.16	39002.69
533.33	39267.17
533.50	39681.44
533.67	39636.97
533.84	39578.46
534.01	39772.72
534.18	39126.74
534.35	39648.68
534.52	39683.78
534.69	39648.68
534.86	39800.81
535.03	39798.47
535.20	40009.12
535.37	40088.70
535.54	40112.10
535.71	39978.69
535.88	40332.11
536.05	39772.72
536.22	40032.52
536.38	40116.78
536.55	40294.66
536.72	40332.11
536.89	39910.82
537.06	39985.71
537.23	40320.41
537.40	40287.64
537.57	40484.25
537.74	40479.57
537.91	40687.87
538.08	40701.92
538.25	40610.64
538.42	40563.82
538.59	40978.10
538.75	40189.34
538.92	40718.30
539.09	40788.52
539.26	40636.38
539.43	40713.62
539.60	40769.79
539.77	41078.74
539.94	41017.89
540.11	40758.09
540.28	41024.91
540.44	41179.39
540.61	41008.53
540.78	40886.82
540.95	41202.79
541.12	41205.13
541.29	40952.35
541.46	41060.02
541.62	41038.95
541.79	41610.04
541.96	41352.58
542.13	40889.16
542.30	41280.03
542.47	41191.09
542.63	41493.02
542.80	41565.57
542.97	41734.09
543.14	41776.22
543.31	42136.66
543.48	42391.78
543.64	42412.85
543.81	42890.32
543.98	42412.85
544.15	42452.64
544.32	42410.51
544.48	42742.86
544.65	42754.57
544.82	42953.51
544.99	42033.68
545.16	42600.09
545.32	42663.28
545.49	42525.19
545.66	42618.81
545.83	42981.60
546.00	42969.90
546.16	42862.23
546.33	42328.59
546.50	42473.70
546.67	42307.52
546.83	42557.96
547.00	42934.79
547.17	42375.40
547.34	42990.96
547.50	43292.89
547.67	43203.95
547.84	43016.71
548.00	43047.13
548.17	43372.47
548.34	43093.94
548.51	42899.68
548.67	43016.71
548.84	43295.23
549.01	42962.87
549.18	43379.49
549.34	43320.98
549.51	43775.04
549.68	43714.19
549.84	43653.33
550.01	43498.86
550.18	43480.13
550.34	43529.28
550.51	43335.02
550.68	43639.29
550.84	43112.67
551.01	44119.10
551.18	43538.65
551.34	43859.30
551.51	43496.52
551.68	43945.90
551.84	43908.45
552.01	43166.50
552.18	43880.36
552.34	43728.23
552.51	43304.59
552.68	43690.78
552.84	44016.11
553.01	44069.95
553.18	44268.89
553.34	43934.20
553.51	43613.54
553.67	43758.66
553.84	44629.34
554.01	44671.46
554.17	44327.41
554.34	44446.77
554.51	44619.97
554.67	44631.68
554.84	44196.34
555.00	44095.69
555.17	44313.36
555.33	44308.68
555.50	44123.78
555.67	44208.04
555.83	44346.13
556.00	44315.70
556.16	44905.52
556.33	44629.34
556.50	44385.92
556.66	44617.63
556.83	44360.17
556.99	44708.91
557.16	44837.64
557.32	44711.25
557.49	44612.95
557.65	44048.88
557.82	44605.93
557.98	44708.91
558.15	44673.81
558.32	44535.71
558.48	45076.38
558.65	44781.47
558.81	44886.79
558.98	44390.60
559.14	44360.17
559.31	44320.38
559.47	44734.66
559.64	44905.52
559.80	44959.35
559.97	44821.26
560.13	45036.59
560.30	45048.29
560.46	45015.52
560.63	45031.91
560.79	45237.87
560.96	45434.48
561.12	44793.17
561.29	44835.30
561.45	44903.18
561.61	45139.57
561.78	44952.33
561.94	45228.51
562.11	45167.66
562.27	45207.45
562.44	44795.51
562.60	45268.30
562.77	45261.28
562.93	45427.46
563.10	45184.04
563.26	44844.66
563.42	45291.71
563.59	44825.94
563.75	44830.62
563.92	45408.73
564.08	44964.03
564.24	45270.64
564.41	45401.71
564.57	45263.62
564.74	45298.73
564.90	45146.59
565.07	45319.79
565.23	45654.49
565.39	45153.62
565.56	45074.04
565.72	45214.47
565.88	45324.47
566.05	45181.70
566.21	45455.54
566.38	45614.70
566.54	45481.29
566.70	45567.89
566.87	45666.19
567.03	45553.85
567.19	45785.56
567.36	45572.57
567.52	45408.73
567.68	45720.02
567.85	45375.97
568.01	45408.73
568.17	45518.74
568.34	45567.89
568.50	45546.82
568.66	45382.99
568.83	45535.12
568.99	45429.80
569.15	45343.20
569.32	45268.30
569.48	45411.07
569.64	45752.79
569.81	45441.50
569.97	45577.25
570.13	45581.93
570.30	45249.58
570.46	45457.88
570.62	45144.25
570.78	45024.89
570.95	45481.29
571.11	45670.87
571.27	45570.23
571.43	45045.95
571.60	45476.61
571.76	45240.21
571.92	44872.75
572.09	45371.28
572.25	45734.07
572.41	45261.28
572.57	46038.34
572.74	46183.45
572.90	45603.00
573.06	45453.20
573.22	45855.78
573.38	45485.97
573.55	45881.52
573.71	46108.55
573.87	46017.27
574.03	45404.05
574.20	46050.04
574.36	46057.06
574.52	45727.05
574.68	45771.52
574.84	45729.39
575.01	45448.52
575.17	45832.37
575.33	45500.01
575.49	45172.34
575.65	45734.07
575.82	46148.34
575.98	45705.98
576.14	46010.25
576.30	45996.21
576.46	45162.98
576.62	45551.51
576.79	45783.22
576.95	45488.31
577.11	45954.08
577.27	45584.27
577.43	45968.12
577.59	45729.39
577.75	45993.87
577.92	45373.63
578.08	45177.02
578.24	45497.67
578.40	45373.63
578.56	45698.96
578.72	45771.52
578.88	46045.36
579.04	45666.19
579.21	45689.60
579.37	45727.05
579.53	45762.15
579.69	45619.38
579.85	45930.67
580.01	45998.55
580.17	45556.19
580.33	46239.62
580.49	45635.77
580.65	46167.07
580.82	45975.14
580.98	45638.11
581.14	45776.20
581.30	46089.83
581.46	45635.77
581.62	46047.70
581.78	45727.05
581.94	45900.25
582.10	45462.57
582.26	46078.13
582.42	45890.88
582.58	45720.02
582.74	45666.19
582.90	45998.55
583.06	46099.19
583.22	46031.32
583.38	46127.28
583.54	45933.01
583.70	45921.31
583.86	45806.62
584.02	45497.67
584.18	45649.81
584.34	45879.18
584.50	45663.85
584.66	45570.23
584.82	45200.43
584.98	45921.31
585.14	46043.02
585.30	45743.43
585.46	45851.09
585.62	45893.22
585.78	46059.40
585.94	45551.51
586.10	45670.87
586.26	45556.19
586.42	45895.56
586.58	46148.34
586.74	45853.44
586.90	45432.14
587.06	45647.47
587.22	45841.73
587.38	45507.04
587.54	45837.05
587.70	46415.16
587.86	46206.86
588.02	46000.89
588.18	46057.06
588.34	45984.51
588.49	45574.91
588.65	45324.47
588.81	45478.95
588.97	45631.08
589.13	45359.58
589.29	45563.21
589.45	45528.10
589.61	45841.73
589.77	45848.75
589.93	46068.76
