SpectraSuite Data File
++++++++++++++++++++++++++++++++++++
Date: Fri Oct 25 11:25:43 EDT 2013
User: price-jones
Dark Spectrum Present: No
Reference Spectrum Present: No
Number of Sampled Component Spectra: 1
Spectrometers: USB2+H05261
Integration Time (usec): 100000 (USB2+H05261)
Spectra Averaged: 1 (USB2+H05261)
Boxcar Smoothing: 0 (USB2+H05261)
Correct for Electrical Dark: No (USB2+H05261)
Strobe/Lamp Enabled: No (USB2+H05261)
Correct for Detector Non-linearity: No (USB2+H05261)
Correct for Stray Light: No (USB2+H05261)
Number of Pixels in Processed Spectrum: 2048
>>>>>Begin Processed Spectral Data<<<<<
365.73	229.37
365.92	229.37
366.12	229.37
366.32	175.54
366.52	159.16
366.72	107.66
366.91	35.11
367.11	128.73
367.31	131.07
367.51	121.71
367.70	112.35
367.90	135.75
368.10	84.26
368.30	152.13
368.49	77.24
368.69	201.29
368.89	168.52
369.09	128.73
369.28	177.88
369.48	222.35
369.68	163.84
369.87	273.84
370.07	245.76
370.27	255.12
370.47	301.93
370.66	601.52
370.86	557.05
371.06	603.86
371.25	617.90
371.45	706.84
371.65	711.52
371.84	645.99
372.04	734.93
372.24	718.54
372.44	645.99
372.63	720.88
372.83	620.24
373.03	699.82
373.22	702.16
373.42	777.06
373.62	744.29
373.81	826.21
374.01	741.95
374.21	755.99
374.40	772.38
374.60	828.55
374.79	840.25
374.99	833.23
375.19	809.83
375.38	830.89
375.58	809.83
375.78	994.73
375.97	833.23
376.17	905.79
376.37	875.36
376.56	866.00
376.76	793.44
376.95	847.27
377.15	971.32
377.35	957.28
377.54	870.68
377.74	933.87
377.93	917.49
378.13	936.21
378.33	994.73
378.52	922.17
378.72	994.73
378.91	999.41
379.11	938.55
379.31	987.71
379.50	933.87
379.70	947.92
379.89	964.30
380.09	990.05
380.28	947.92
380.48	873.02
380.68	940.90
380.87	968.98
381.07	1043.88
381.26	1071.97
381.46	1027.50
381.65	1071.97
381.85	976.00
382.04	1034.52
382.24	1097.71
382.43	1060.26
382.63	999.41
382.83	1074.31
383.02	1160.91
383.22	1149.20
383.41	1043.88
383.61	1123.46
383.80	1174.95
384.00	1055.58
384.19	1132.82
384.39	1107.07
384.58	980.68
384.78	1160.91
384.97	1196.01
385.17	1100.05
385.36	1102.39
385.56	1231.12
385.75	1233.46
385.95	1200.69
386.14	1184.31
386.34	1135.16
386.53	1214.74
386.72	1179.63
386.92	1254.53
387.11	1235.80
387.31	1224.10
387.50	1268.57
387.70	1259.21
387.89	1303.68
388.09	1219.42
388.28	1254.53
388.48	1399.64
388.67	1366.87
388.86	1308.36
389.06	1369.21
389.25	1364.53
389.45	1383.26
389.64	1397.30
389.84	1350.49
390.03	1394.96
390.22	1418.36
390.42	1322.40
390.61	1357.51
390.81	1387.94
391.00	1413.68
391.19	1385.60
391.39	1430.07
391.58	1462.83
391.78	1409.00
391.97	1511.99
392.16	1537.73
392.36	1542.41
392.55	1530.71
392.75	1486.24
392.94	1579.86
393.13	1500.28
393.33	1523.69
393.52	1664.12
393.71	1640.72
393.91	1607.95
394.10	1547.09
394.29	1561.14
394.49	1483.90
394.68	1612.63
394.88	1614.97
395.07	1619.65
395.26	1729.66
395.46	1671.14
395.65	1699.23
395.84	1713.27
396.04	1750.72
396.23	1764.76
396.42	1809.23
396.62	1842.00
396.81	1724.97
397.00	1739.02
397.19	1827.96
397.39	1757.74
397.58	1813.92
397.77	1724.97
397.97	1834.98
398.16	1741.36
398.35	1837.32
398.55	1827.96
398.74	1912.22
398.93	1975.41
399.12	1959.03
399.32	1977.75
399.51	1884.13
399.70	2010.52
399.90	2017.54
400.09	1963.71
400.28	2024.56
400.47	2008.18
400.67	1977.75
400.86	2069.03
401.05	2120.53
401.24	2069.03
401.44	2111.16
401.63	2141.59
401.82	2148.61
402.01	2146.27
402.21	2111.16
402.40	2172.02
402.59	2246.91
402.78	2305.43
402.97	2176.70
403.17	2300.75
403.36	2195.42
403.55	2380.32
403.74	2382.67
403.93	2312.45
404.13	2331.17
404.32	2354.58
404.51	2359.26
404.70	2429.48
404.89	2399.05
405.09	2401.39
405.28	2520.76
405.47	2452.88
405.66	2399.05
405.85	2420.11
406.05	2464.58
406.24	2471.61
406.43	2520.76
406.62	2654.17
406.81	2640.12
407.00	2586.29
407.20	2595.65
407.39	2448.20
407.58	2782.90
407.77	2654.17
407.96	2764.17
408.15	2698.64
408.34	2780.56
408.54	2740.77
408.73	2740.77
408.92	2920.99
409.11	2860.13
409.30	2792.26
409.49	2932.69
409.68	2949.08
409.87	2998.23
410.07	3033.33
410.26	2939.71
410.45	3115.25
410.64	2998.23
410.83	3091.85
411.02	3026.31
411.21	3084.83
411.40	3185.47
411.59	3232.28
411.78	3080.14
411.98	3164.40
412.17	3215.90
412.36	3255.69
412.55	3353.99
412.74	3396.12
412.93	3442.93
413.12	3262.71
413.31	3534.21
413.50	3510.80
413.69	3349.31
413.88	3566.98
414.07	3695.71
414.26	3487.40
414.45	3684.00
414.64	3723.79
414.83	3705.07
415.02	3606.77
415.22	3817.41
415.41	3735.50
415.60	3770.60
415.79	3920.40
415.98	3969.55
416.17	4002.32
416.36	3838.48
416.55	3939.12
416.74	4081.89
416.93	3894.65
417.12	4133.39
417.31	4257.43
417.50	4243.39
417.69	4327.65
417.88	4210.62
418.07	4327.65
418.26	4170.83
418.45	4374.46
418.64	4629.58
418.83	4470.42
419.02	4447.02
419.21	4491.49
419.39	4362.76
419.58	4496.17
419.77	4470.42
419.96	4507.87
420.15	4489.15
420.34	4650.64
420.53	4561.70
420.72	4631.92
420.91	4671.71
421.10	4704.48
421.29	4697.46
421.48	4606.17
421.67	4800.44
421.86	4873.00
422.05	4957.25
422.24	4791.08
422.43	4737.24
422.61	4856.61
422.80	4851.93
422.99	4908.10
423.18	4908.10
423.37	5020.45
423.56	4809.80
423.75	4922.15
423.94	4784.06
424.13	4535.96
424.32	4685.75
424.50	5027.47
424.69	5085.98
424.88	5198.33
425.07	4856.61
425.26	4887.04
425.45	4912.78
425.64	4973.64
425.83	4908.10
426.01	5088.32
426.20	5071.94
426.39	5067.26
426.58	4945.55
426.77	4975.98
426.96	5057.90
427.15	5053.22
427.33	5088.32
427.52	5036.83
427.71	5270.89
427.90	5273.23
428.09	5338.76
428.28	5254.50
428.46	5430.04
428.65	5383.23
428.84	5497.92
429.03	5387.91
429.22	5320.04
429.40	5345.78
429.59	5636.01
429.78	5305.99
429.97	5275.57
430.16	5528.35
430.34	5490.90
430.53	5628.99
430.72	5504.94
430.91	5577.50
431.10	5582.18
431.28	5636.01
431.47	5760.06
431.66	5870.06
431.85	5687.50
432.03	5809.21
432.22	6057.31
432.41	5879.43
432.60	5785.80
432.79	5853.68
432.97	5923.90
433.16	6059.65
433.35	5991.77
433.54	6033.90
433.72	5966.03
433.91	6043.26
434.10	6101.78
434.28	6038.58
434.47	6277.32
434.66	6197.74
434.85	6164.97
435.03	6108.80
435.22	6200.08
435.41	6532.44
435.59	6429.45
435.78	6274.98
435.97	6511.37
436.16	6487.96
436.34	6157.95
436.53	6466.90
436.72	6623.72
436.90	6480.94
437.09	6537.12
437.28	6377.96
437.46	6541.80
437.65	6731.38
437.84	6736.06
438.02	6703.29
438.21	6740.74
438.40	6710.32
438.58	7035.65
438.77	7023.95
438.96	6935.01
439.14	7101.19
439.33	7183.10
439.52	7059.06
439.70	7220.55
439.89	7288.43
440.08	7337.58
440.26	7346.94
440.45	7056.72
440.63	7375.03
440.82	7541.21
441.01	7396.09
441.19	7578.65
441.38	7651.21
441.57	7716.75
441.75	7801.01
441.94	8072.51
442.12	7831.43
442.31	8077.19
442.50	8006.97
442.68	7906.33
442.87	7896.97
443.05	8168.47
443.24	8032.72
443.43	8072.51
443.61	8149.75
443.80	8210.60
443.98	7920.37
444.17	7833.77
444.35	8147.40
444.54	8355.71
444.73	8196.56
444.91	8095.91
445.10	8404.86
445.28	8194.22
445.47	8180.17
445.65	8238.69
445.84	8411.89
446.02	8390.82
446.21	8465.72
446.39	8383.80
446.58	8479.76
446.77	8582.74
446.95	8142.72
447.14	8465.72
447.32	8439.97
447.51	8465.72
447.69	8458.70
447.88	8290.18
448.06	8444.65
448.25	8308.90
448.43	8526.57
448.62	8510.19
448.80	8531.25
448.99	8580.40
449.17	8786.37
449.36	8739.56
449.54	8931.48
449.73	8945.53
449.91	8973.61
450.10	8842.54
450.28	9123.41
450.46	9130.43
450.65	9132.77
450.83	8950.21
451.02	8964.25
451.20	9305.97
451.39	9083.62
451.57	9128.09
451.76	8938.51
451.94	9081.28
452.13	9322.35
452.31	9135.11
452.49	9006.38
452.68	9231.07
452.86	9057.87
453.05	9387.89
453.23	9537.68
453.42	9202.99
453.60	9364.48
453.78	9570.45
453.97	9343.42
454.15	9488.53
454.34	9308.31
454.52	9486.19
454.70	9867.70
454.89	9666.41
455.07	9734.29
455.26	9844.29
455.44	9970.68
455.62	9762.37
455.81	9902.81
455.99	9853.66
456.17	10134.52
456.36	10015.15
456.54	9980.04
456.73	10068.98
456.91	10396.66
457.09	10424.75
457.28	10487.94
457.46	10214.10
457.64	10604.97
457.83	10317.08
458.01	10452.83
458.19	10623.69
458.38	10583.90
458.56	10785.19
458.74	10754.76
458.93	10527.73
459.11	10775.83
459.29	10579.22
459.48	10658.80
459.66	10869.45
459.84	10663.48
460.03	10707.95
460.21	10953.71
460.39	10820.30
460.57	10881.15
460.76	11002.86
460.94	11000.52
461.12	11077.76
461.31	11103.50
461.49	11054.35
461.67	11225.21
461.85	11412.45
462.04	11183.08
462.22	11721.40
462.40	11798.64
462.59	11524.80
462.77	11548.20
462.95	11548.20
463.13	11501.39
463.32	11517.78
463.50	11758.85
463.68	11742.47
463.86	11688.64
464.05	11653.53
464.23	11391.39
464.41	11857.15
464.59	11620.76
464.78	12051.42
464.96	11866.52
465.14	11679.27
465.32	11960.14
465.50	12135.68
465.69	11913.33
465.87	12126.32
466.05	12004.61
466.23	12030.35
466.41	12079.50
466.60	12690.38
466.78	11981.20
466.96	12131.00
467.14	12297.17
467.32	12226.96
467.51	12229.30
467.69	11927.37
467.87	12271.43
468.05	12617.83
468.23	12475.06
468.41	12381.43
468.60	12615.49
468.78	12561.66
468.96	12437.61
469.14	12858.90
469.32	12776.98
469.50	12423.56
469.69	12959.55
469.87	13097.64
470.05	13109.34
470.23	13111.68
470.41	13036.78
470.59	13179.56
470.77	13062.53
470.95	13167.85
471.14	13713.20
471.32	13151.47
471.50	13437.02
471.68	13528.30
471.86	13589.15
472.04	13451.06
472.22	14040.87
472.40	13689.79
472.58	13664.05
472.77	14005.77
472.95	14195.35
473.13	14546.43
473.31	13991.72
473.49	13862.99
473.67	14270.25
473.85	14422.38
474.03	14375.57
474.21	14651.75
474.39	14593.24
474.57	14649.41
474.75	14633.03
474.93	15140.93
475.12	14953.68
475.30	14967.73
475.48	14946.66
475.66	15049.64
475.84	15005.17
476.02	15367.96
476.20	15161.99
476.38	15651.16
476.56	15906.28
476.74	15733.08
476.92	15847.77
477.10	15831.38
477.28	16086.50
477.46	16100.55
477.64	16203.53
477.82	16350.98
478.00	16769.94
478.18	16664.61
478.36	16685.68
478.54	17020.38
478.72	17083.57
478.90	17324.65
479.08	17642.96
479.26	17762.33
479.44	17631.26
479.62	17937.87
479.80	17811.48
479.98	18085.32
480.16	18342.78
480.34	18141.49
480.52	18642.37
480.70	18518.32
480.88	18211.71
481.06	18733.65
481.24	18703.22
481.41	18745.35
481.59	19344.53
481.77	19264.95
481.95	19442.83
482.13	19716.67
482.31	19625.39
482.49	20187.12
482.67	20002.22
482.85	20030.30
483.03	20603.74
483.21	20819.07
483.39	21053.12
483.57	20919.71
483.74	21109.29
483.92	20943.11
484.10	20835.45
484.28	21256.75
484.46	21577.40
484.64	22309.99
484.82	21891.03
485.00	22321.69
485.18	22852.99
485.35	22567.45
485.53	22485.53
485.71	22930.23
485.89	23414.72
486.07	23089.38
486.25	23227.48
486.43	23433.44
486.61	23688.56
486.78	23906.23
486.96	24016.24
487.14	24634.14
487.32	24482.00
487.50	24847.13
487.68	24606.05
487.85	25144.38
488.03	25305.87
488.21	25783.34
488.39	25617.16
488.57	26277.19
488.75	26005.69
488.92	26382.52
489.10	26555.72
489.28	26511.25
489.46	26745.30
489.64	26780.41
489.81	27456.82
489.99	27658.11
490.17	27417.04
490.35	27779.82
490.53	28067.70
490.70	28416.44
490.88	27761.09
491.06	28732.42
491.24	28732.42
491.41	28809.65
491.59	29081.16
491.77	29432.24
491.95	29425.22
492.13	29205.20
492.30	29926.09
492.48	29532.88
492.66	29893.32
492.84	29909.71
493.01	30527.61
493.19	30286.53
493.37	30881.03
493.54	30864.64
493.72	31143.17
493.90	31255.51
494.08	31381.90
494.25	32058.32
494.43	31981.08
494.61	31751.71
494.79	32481.95
494.96	32385.99
495.14	32505.36
495.32	32884.53
495.49	32992.19
495.67	33270.72
495.85	33799.68
496.02	33392.42
496.20	33766.91
496.38	33546.90
496.55	33942.45
496.73	35086.97
496.91	34354.38
497.09	34146.08
497.26	34810.79
497.44	34686.74
497.62	35103.35
497.79	35552.74
497.97	34829.51
498.14	35505.93
498.32	36105.10
498.50	35896.80
498.67	36512.36
498.85	36453.84
499.03	36315.75
499.20	36498.31
499.38	36828.33
499.56	36615.34
499.73	36802.58
499.91	37048.34
500.08	37359.63
500.26	36907.91
500.44	37619.43
500.61	37359.63
500.79	37745.82
500.97	37722.41
501.14	38377.76
501.32	38424.57
501.49	38340.32
501.67	38232.65
501.84	38885.66
502.02	38785.02
502.20	38721.82
502.37	38700.76
502.55	38815.44
502.72	39459.09
502.90	39615.91
503.07	39035.45
503.25	39646.33
503.43	39700.17
503.60	39864.00
503.78	39597.18
503.95	40133.17
504.13	40535.74
504.30	40428.07
504.48	39920.18
504.65	40942.99
504.83	40299.34
505.01	40367.22
505.18	41193.43
505.36	41001.50
505.53	40903.20
505.71	41146.62
505.88	41645.15
506.06	41120.87
506.23	41584.30
506.41	41738.77
506.58	42026.66
506.76	41972.83
506.93	42391.78
507.11	41951.76
507.28	42038.36
507.46	42607.11
507.63	42773.29
507.81	43047.13
507.98	43023.73
508.16	43054.15
508.33	42983.94
508.50	43063.52
508.68	43386.51
508.85	43845.26
509.03	43473.11
509.20	43643.97
509.38	44362.51
509.55	44229.10
509.73	44444.43
509.90	43922.49
510.08	44467.84
510.25	44268.89
510.42	44863.39
510.60	44666.78
510.77	44985.10
510.95	45488.31
511.12	44624.65
511.30	44854.03
511.47	45361.92
511.64	45226.17
511.82	45675.55
511.99	45652.15
512.17	46246.65
512.34	45488.31
512.51	46174.09
512.69	46237.28
512.86	46028.98
513.04	46499.42
513.21	46387.08
513.38	46525.17
513.56	46527.51
513.73	46256.01
513.90	46574.32
514.08	46532.19
514.25	46862.21
514.43	47192.22
514.60	47283.50
514.77	47377.12
514.95	47639.26
515.12	46993.28
515.29	47688.42
515.47	47870.98
515.64	48217.38
515.81	47695.44
515.99	48025.45
516.16	48161.20
516.33	47906.08
516.51	48479.52
516.68	48105.03
516.85	48659.74
517.03	48444.41
517.20	48538.03
517.37	48397.60
517.54	48460.79
517.72	48776.76
517.89	48715.91
518.06	49116.14
518.24	48971.03
518.41	49200.40
518.58	48907.83
518.75	48790.81
518.93	49127.84
519.10	49284.66
519.27	49373.60
519.45	49003.80
519.62	49839.37
519.79	49483.61
519.96	49698.94
520.14	49902.56
520.31	49860.43
520.48	50302.79
520.65	49792.56
520.83	50307.47
521.00	50103.85
521.17	50101.51
521.34	50674.94
521.52	50571.96
521.69	50555.57
521.86	50604.72
522.03	51084.53
522.20	51000.27
522.38	50948.78
522.55	50951.12
522.72	51121.98
522.89	51014.32
523.07	51597.11
523.24	51234.33
523.41	51971.60
523.58	51306.88
523.75	51547.96
523.92	51414.55
524.10	51672.01
524.27	51763.29
524.44	52032.45
524.61	52193.95
524.78	52095.64
524.96	52317.99
525.13	51838.18
525.30	52072.24
525.47	52605.88
525.64	52233.74
525.81	52566.09
525.98	52350.76
526.16	52570.77
526.33	52575.45
526.50	52711.20
526.67	52505.24
526.84	52657.37
527.01	52671.42
527.18	52722.91
527.36	52821.21
527.53	52720.57
527.70	52875.04
527.87	53132.50
528.04	53118.46
528.21	53277.61
528.38	52884.40
528.55	53207.40
528.72	53436.77
528.89	53406.34
529.07	53226.12
529.24	53237.83
529.41	53401.66
529.58	53462.52
529.75	53294.00
529.92	53453.15
530.09	53357.19
530.26	53719.98
530.43	53869.77
530.60	53413.37
530.77	53570.18
530.94	53984.46
531.11	53621.67
531.28	53984.46
531.46	54110.85
531.63	53958.71
531.80	54213.83
531.97	54291.07
532.14	54230.21
532.31	54302.77
532.48	54319.15
532.65	54323.83
532.82	54412.77
532.99	54726.41
533.16	54211.49
533.33	54567.25
533.50	54667.89
533.67	54480.65
533.84	54548.53
534.01	54831.73
534.18	54831.73
534.35	55072.81
534.52	54897.27
534.69	55072.81
534.86	55091.53
535.03	54843.43
535.20	55187.49
535.37	55196.85
535.54	55147.70
535.71	55011.95
535.88	55077.49
536.05	55330.26
536.22	55257.71
536.38	55412.18
536.55	55360.69
536.72	55377.08
536.89	55552.62
537.06	55543.25
537.23	55599.43
537.40	55398.14
537.57	55496.44
537.74	55714.11
537.91	55784.33
538.08	55695.39
538.25	55669.64
538.42	55798.37
538.59	56088.60
538.75	55854.54
538.92	55814.76
539.09	56179.88
539.26	55896.67
539.43	55917.74
539.60	56170.52
539.77	56191.58
539.94	56425.64
540.11	56308.61
540.28	56067.53
540.44	56114.34
540.61	56013.70
540.78	56170.52
540.95	56137.75
541.12	56081.58
541.29	56156.47
541.46	56214.99
541.62	56516.92
541.79	56521.60
541.96	56041.79
542.13	56514.58
542.30	56442.02
542.47	56729.90
542.63	56800.12
542.80	56500.53
542.97	56973.32
543.14	57254.18
543.31	56905.44
543.48	57059.92
543.64	57186.31
543.81	57443.77
543.98	57228.44
544.15	57055.24
544.32	57230.78
544.48	57212.06
544.65	57118.43
544.82	57125.46
544.99	57338.44
545.16	57340.78
545.32	57221.42
545.49	57829.96
545.66	57401.64
545.83	57425.04
546.00	57499.94
546.16	57483.56
546.33	57275.25
546.50	57111.41
546.67	57654.42
546.83	57560.79
547.00	57616.97
547.17	57509.30
547.34	57598.24
547.50	57677.82
547.67	57986.77
547.84	57989.11
548.00	57930.60
548.17	58075.71
548.34	57677.82
548.51	58035.92
548.67	58188.06
548.84	58038.26
549.01	57822.93
549.18	57909.53
549.34	58211.46
549.51	58279.34
549.68	58066.35
549.84	58230.19
550.01	58281.68
550.18	58101.46
550.34	58216.14
550.51	58461.90
550.68	58564.88
550.84	57825.28
551.01	58480.63
551.18	58361.26
551.34	58295.72
551.51	58539.14
551.68	58464.24
551.84	58632.76
552.01	58387.00
552.18	58365.94
552.34	58396.37
552.51	58752.13
552.68	58394.03
552.84	58504.03
553.01	58796.60
553.18	58417.43
553.34	58906.60
553.51	58707.66
553.67	58499.35
553.84	58756.81
554.01	58693.61
554.17	58995.54
554.34	58876.18
554.51	58829.37
554.67	58988.52
554.84	58803.62
555.00	58880.86
555.17	58850.43
555.33	58733.40
555.50	58951.07
555.67	59032.99
555.83	58731.06
556.00	58885.54
556.16	59030.65
556.33	59077.46
556.50	59164.06
556.66	59178.10
556.83	59128.95
556.99	59068.10
557.16	59409.82
557.32	59414.50
557.49	59393.43
557.65	59107.89
557.82	59159.38
557.98	59192.15
558.15	59241.30
558.32	59332.58
558.48	59264.70
558.65	59248.32
558.81	59260.02
558.98	59447.27
559.14	59316.20
559.31	59554.93
559.47	59442.59
559.64	59657.91
559.80	59498.76
559.97	59564.29
560.13	59765.58
560.30	59683.66
560.46	59648.55
560.63	59784.30
560.79	59786.64
560.96	59735.15
561.12	59566.63
561.29	59709.41
561.45	59831.11
561.61	59784.30
561.78	59847.50
561.94	59676.64
562.11	59800.69
562.27	59751.54
562.44	59971.55
562.60	59987.93
562.77	59917.71
562.93	59597.06
563.10	59678.98
563.26	59817.07
563.42	60116.66
563.59	59774.94
563.75	59870.90
563.92	59859.20
564.08	59744.51
564.24	60090.91
564.41	59931.76
564.57	59994.95
564.74	60079.21
564.90	59884.95
565.07	59922.40
565.23	60111.98
565.39	59957.50
565.56	60161.13
565.72	59952.82
565.88	60006.65
566.05	59962.18
566.21	60259.43
566.38	60231.35
566.54	60177.51
566.70	60460.72
566.87	60114.32
567.03	59856.86
567.19	60378.80
567.36	60172.83
567.52	60037.08
567.68	60456.04
567.85	60346.03
568.01	60294.54
568.17	60079.21
568.34	60271.14
568.50	60097.94
568.66	60191.56
568.83	60261.77
568.99	60217.30
569.15	60123.68
569.32	60308.58
569.48	60346.03
569.64	60360.08
569.81	60296.88
569.97	60233.69
570.13	60390.50
570.30	60189.22
570.46	60369.44
570.62	60320.29
570.78	60196.24
570.95	60313.26
571.11	60535.62
571.27	60402.21
571.43	60463.06
571.60	60357.74
571.76	60404.55
571.92	60460.72
572.09	60339.01
572.25	60221.98
572.41	60493.49
572.57	60509.87
572.74	60535.62
572.90	60418.59
573.06	60575.40
573.22	60308.58
573.38	60385.82
573.55	60423.27
573.71	60671.37
573.87	60676.05
574.03	60406.89
574.20	60495.83
574.36	60362.42
574.52	60486.46
574.68	60397.52
574.84	60603.49
575.01	60673.71
575.17	60385.82
575.33	60544.98
575.49	60484.12
575.65	60673.71
575.82	60622.22
575.98	60741.58
576.14	61083.30
576.30	60746.26
576.46	60556.68
576.62	60666.69
576.79	60650.30
576.95	60507.53
577.11	60739.24
577.27	60715.84
577.43	60505.19
577.59	60760.31
577.75	60694.77
577.92	60589.45
578.08	60725.20
578.24	60704.13
578.40	60975.64
578.56	60755.63
578.72	60729.88
578.88	60926.49
579.04	60924.14
579.21	60722.86
579.37	60750.94
579.53	61015.43
579.69	60638.60
579.85	60748.60
580.01	60624.56
580.17	60629.24
580.33	60800.10
580.49	60666.69
580.65	60739.24
580.82	60664.35
580.98	60767.33
581.14	60629.24
581.30	60844.57
581.46	60669.03
581.62	60746.26
581.78	60814.14
581.94	60690.09
582.10	60835.20
582.26	60865.63
582.42	60643.28
582.58	60619.88
582.74	60781.37
582.90	60889.04
583.06	60743.92
583.22	60591.79
583.38	60757.97
583.54	60772.01
583.70	60753.29
583.86	60851.59
584.02	60729.88
584.18	60863.29
584.34	60853.93
584.50	60914.78
584.66	60694.77
584.82	60776.69
584.98	61087.98
585.14	61001.38
585.30	60928.83
585.46	60856.27
585.62	60823.50
585.78	60884.36
585.94	60774.35
586.10	60886.70
586.26	60837.54
586.42	60910.10
586.58	60987.34
586.74	61020.11
586.90	60879.67
587.06	60956.91
587.22	60959.25
587.38	60975.64
587.54	61127.77
587.70	61195.65
587.86	60935.85
588.02	60917.12
588.18	60994.36
588.34	60989.68
588.49	60872.65
