SpectraSuite Data File
++++++++++++++++++++++++++++++++++++
Date: Fri Oct 25 11:26:20 EDT 2013
User: price-jones
Dark Spectrum Present: No
Reference Spectrum Present: No
Number of Sampled Component Spectra: 1
Spectrometers: USB2+H05261
Integration Time (usec): 100000 (USB2+H05261)
Spectra Averaged: 1 (USB2+H05261)
Boxcar Smoothing: 0 (USB2+H05261)
Correct for Electrical Dark: No (USB2+H05261)
Strobe/Lamp Enabled: No (USB2+H05261)
Correct for Detector Non-linearity: No (USB2+H05261)
Correct for Stray Light: No (USB2+H05261)
Number of Pixels in Processed Spectrum: 2048
>>>>>Begin Processed Spectral Data<<<<<
365.73	271.50
365.92	271.50
366.12	271.50
366.32	112.35
366.52	107.66
366.72	194.26
366.91	124.05
367.11	140.43
367.31	117.03
367.51	145.11
367.70	168.52
367.90	138.09
368.10	74.90
368.30	128.73
368.49	126.39
368.69	212.99
368.89	107.66
369.09	170.86
369.28	201.29
369.48	236.39
369.68	180.22
369.87	180.22
370.07	154.48
370.27	238.73
370.47	325.33
370.66	575.77
370.86	645.99
371.06	664.71
371.25	755.99
371.45	648.33
371.65	669.39
371.84	695.14
372.04	706.84
372.24	699.82
372.44	755.99
372.63	763.01
372.83	826.21
373.03	695.14
373.22	711.52
373.42	851.96
373.62	765.36
373.81	739.61
374.01	828.55
374.21	753.65
374.40	873.02
374.60	851.96
374.79	880.04
374.99	905.79
375.19	809.83
375.38	798.12
375.58	894.08
375.78	875.36
375.97	856.64
376.17	866.00
376.37	894.08
376.56	884.72
376.76	823.87
376.95	903.45
377.15	889.40
377.35	889.40
377.54	912.81
377.74	877.70
377.93	936.21
378.13	950.26
378.33	938.55
378.52	884.72
378.72	1006.43
378.91	959.62
379.11	1015.79
379.31	990.05
379.50	887.06
379.70	943.24
379.89	947.92
380.09	880.04
380.28	1020.47
380.48	1034.52
380.68	987.71
380.87	1048.56
381.07	966.64
381.26	1050.90
381.46	1074.31
381.65	987.71
381.85	992.39
382.04	1104.73
382.24	1074.31
382.43	1067.28
382.63	1125.80
382.83	1071.97
383.02	1062.60
383.22	1036.86
383.41	1111.75
383.61	1107.07
383.80	1081.33
384.00	1076.65
384.19	1123.46
384.39	1069.62
384.58	1165.59
384.78	1093.03
384.97	1142.18
385.17	1118.78
385.36	1179.63
385.56	1132.82
385.75	1121.12
385.95	1158.57
386.14	1153.88
386.34	1151.54
386.53	1219.42
386.72	1247.51
386.92	1128.14
387.11	1177.29
387.31	1284.95
387.50	1233.46
387.70	1228.78
387.89	1214.74
388.09	1294.32
388.28	1270.91
388.48	1240.48
388.67	1299.00
388.86	1355.17
389.06	1306.02
389.25	1245.16
389.45	1289.64
389.64	1352.83
389.84	1373.89
390.03	1306.02
390.22	1291.98
390.42	1404.32
390.61	1423.05
390.81	1373.89
391.00	1401.98
391.19	1406.66
391.39	1409.00
391.58	1535.39
391.78	1453.47
391.97	1521.35
392.16	1479.22
392.36	1514.33
392.55	1486.24
392.75	1533.05
392.94	1652.42
393.13	1563.48
393.33	1551.78
393.52	1462.83
393.71	1612.63
393.91	1610.29
394.10	1659.44
394.29	1654.76
394.49	1593.90
394.68	1568.16
394.88	1626.67
395.07	1692.21
395.26	1554.12
395.46	1727.32
395.65	1778.81
395.84	1650.08
396.04	1806.89
396.23	1781.15
396.42	1694.55
396.62	1732.00
396.81	1792.85
397.00	1813.92
397.19	1778.81
397.39	1764.76
397.58	1813.92
397.77	1666.46
397.97	1783.49
398.16	1849.02
398.35	1886.47
398.55	1851.36
398.74	1818.60
398.93	1998.82
399.12	1944.99
399.32	1930.94
399.51	1865.41
399.70	2024.56
399.90	1909.88
400.09	1987.11
400.28	2141.59
400.47	1940.30
400.67	2005.84
400.86	2001.16
401.05	2129.89
401.24	2113.50
401.44	2064.35
401.63	2136.91
401.82	2059.67
402.01	2064.35
402.21	2139.25
402.40	2190.74
402.59	2150.95
402.78	2165.00
402.97	2296.07
403.17	2239.89
403.36	2256.28
403.55	2394.37
403.74	2455.22
403.93	2420.11
404.13	2300.75
404.32	2422.45
404.51	2314.79
404.70	2352.24
404.89	2394.37
405.09	2487.99
405.28	2530.12
405.47	2352.24
405.66	2527.78
405.85	2630.76
406.05	2546.50
406.24	2373.30
406.43	2548.84
406.62	2668.21
406.81	2602.68
407.00	2541.82
407.20	2576.93
407.39	2628.42
407.58	2731.41
407.77	2686.94
407.96	2745.45
408.15	2649.49
408.34	2665.87
408.54	2722.04
408.73	2773.53
408.92	2825.03
409.11	2792.26
409.30	2818.00
409.49	2925.67
409.68	2932.69
409.87	2888.22
410.07	3117.59
410.26	2895.24
410.45	2899.92
410.64	3070.78
410.83	3089.51
411.02	3049.72
411.21	3103.55
411.40	3101.21
411.59	3199.51
411.78	3192.49
411.98	3225.26
412.17	3274.41
412.36	3281.43
412.55	3403.14
412.74	3332.92
412.93	3358.67
413.12	3339.94
413.31	3435.91
413.50	3531.87
413.69	3531.87
413.88	3623.15
414.07	3445.27
414.26	3686.34
414.45	3768.26
414.64	3761.24
414.83	3702.73
415.02	3611.45
415.22	3943.80
415.41	3817.41
415.60	3866.56
415.79	3882.95
415.98	3854.86
416.17	4039.76
416.36	3840.82
416.55	4100.62
416.74	4044.45
416.93	3999.98
417.12	4091.26
417.31	4086.58
417.50	4117.00
417.69	4219.99
417.88	4210.62
418.07	4131.05
418.26	4306.59
418.45	4287.86
418.64	4381.48
418.83	4430.63
419.02	4348.72
419.21	4486.81
419.39	4610.86
419.58	4432.97
419.77	4634.26
419.96	4713.84
420.15	4657.67
420.34	4695.11
420.53	4613.20
420.72	4547.66
420.91	4730.22
421.10	4767.67
421.29	4678.73
421.48	4660.01
421.67	4716.18
421.86	4587.45
422.05	4765.33
422.24	4648.30
422.43	4875.34
422.61	4884.70
422.80	4931.51
422.99	4938.53
423.18	4851.93
423.37	5095.35
423.56	5008.75
423.75	4987.68
423.94	4924.49
424.13	4676.39
424.32	4669.37
424.50	4957.25
424.69	4966.62
424.88	5078.96
425.07	4908.10
425.26	4837.89
425.45	4847.25
425.64	4903.42
425.83	5006.41
426.01	4952.57
426.20	4992.36
426.39	4933.85
426.58	5027.47
426.77	5067.26
426.96	5212.37
427.15	5093.01
427.33	5008.75
427.52	5074.28
427.71	5289.61
427.90	5156.20
428.09	5247.48
428.28	5392.59
428.46	5504.94
428.65	5348.12
428.84	5614.95
429.03	5458.13
429.22	5254.50
429.40	5507.28
429.59	5355.15
429.78	5242.80
429.97	5170.24
430.16	5502.60
430.34	5589.20
430.53	5689.84
430.72	5582.18
430.91	5462.81
431.10	5617.29
431.28	5692.18
431.47	5902.83
431.66	5748.36
431.85	5699.20
432.03	5877.09
432.22	5837.30
432.41	5947.30
432.60	5860.70
432.79	6076.03
432.97	5888.79
433.16	5783.46
433.35	5944.96
433.54	6066.67
433.72	6008.16
433.91	6129.86
434.10	5977.73
434.28	6162.63
434.47	6162.63
434.66	6146.25
434.85	6317.11
435.03	6181.35
435.22	6333.49
435.41	6471.58
435.59	6282.00
435.78	6342.85
435.97	6317.11
436.16	6370.94
436.34	6361.58
436.53	6492.65
436.72	6422.43
436.90	6448.18
437.09	6588.61
437.28	6307.74
437.46	6464.56
437.65	6619.04
437.84	6661.16
438.02	6747.76
438.21	6710.32
438.40	6492.65
438.58	6876.49
438.77	6923.30
438.96	6733.72
439.14	7129.27
439.33	6958.41
439.52	7080.12
439.70	7185.44
439.89	7478.01
440.08	7279.07
440.26	7274.38
440.45	7370.35
440.63	7426.52
440.82	7391.41
441.01	7403.11
441.19	7611.42
441.38	7627.81
441.57	7569.29
441.75	7707.38
441.94	7857.18
442.12	7903.99
442.31	8156.77
442.50	8166.13
442.68	8046.76
442.87	7932.08
443.05	8004.63
443.24	8234.00
443.43	8058.46
443.61	8131.02
443.80	8486.78
443.98	8093.57
444.17	7786.96
444.35	8196.56
444.54	8332.31
444.73	8205.92
444.91	8397.84
445.10	8367.42
445.28	8252.73
445.47	8234.00
445.65	8383.80
445.84	8496.14
446.02	8538.27
446.21	8461.04
446.39	8149.75
446.58	8498.49
446.77	8404.86
446.95	8182.51
447.14	8393.16
447.32	8659.98
447.51	8416.57
447.69	8456.36
447.88	8533.59
448.06	8507.85
448.25	8470.40
448.43	8397.84
448.62	8475.08
448.80	8407.20
448.99	8517.21
449.17	8678.71
449.36	8397.84
449.54	8578.06
449.73	8891.70
449.91	9142.13
450.10	8856.59
450.28	9076.60
450.46	9004.04
450.65	9020.42
450.83	8975.95
451.02	9043.83
451.20	9327.03
451.39	9228.73
451.57	9067.24
451.76	8952.55
451.94	9090.64
452.13	9275.54
452.31	9191.28
452.49	9008.72
452.68	9228.73
452.86	9322.35
453.05	9572.79
453.23	9418.32
453.42	9427.68
453.60	9415.98
453.78	9467.47
453.97	9500.23
454.15	9511.94
454.34	9465.13
454.52	9633.64
454.70	9600.88
454.89	9858.34
455.07	9542.36
455.26	9797.48
455.44	9839.61
455.62	9738.97
455.81	9692.16
455.99	9947.28
456.17	9902.81
456.36	10010.47
456.54	10136.86
456.73	10207.08
456.91	10104.09
457.09	10504.32
457.28	10284.31
457.46	10153.24
457.64	10401.34
457.83	10216.44
458.01	10134.52
458.19	10860.09
458.38	10551.14
458.56	10686.89
458.74	10937.32
458.93	10450.49
459.11	10565.18
459.29	10775.83
459.48	10764.12
459.66	10630.71
459.84	10883.49
460.03	11262.66
460.21	10881.15
460.39	10974.77
460.57	10906.90
460.76	11136.27
460.94	11164.36
461.12	11159.67
461.31	11260.32
461.49	11253.30
461.67	11143.29
461.85	11363.30
462.04	11117.54
462.22	11754.17
462.40	11508.41
462.59	11265.00
462.77	11562.25
462.95	11646.51
463.13	11534.16
463.32	11302.45
463.50	11824.39
463.68	11662.89
463.86	11679.27
464.05	11365.64
464.23	11728.42
464.41	11707.36
464.59	11679.27
464.78	12025.67
464.96	11915.67
465.14	11571.61
465.32	11960.14
465.50	12116.95
465.69	12231.64
465.87	11962.48
466.05	12140.36
466.23	12189.51
466.41	11992.90
466.60	12402.50
466.78	12236.32
466.96	12241.00
467.14	12168.45
467.32	12425.90
467.51	12461.01
467.69	12259.73
467.87	12212.92
468.05	12425.90
468.23	12229.30
468.41	12390.80
468.60	12542.93
468.78	12580.38
468.96	12432.93
469.14	12739.54
469.32	13015.72
469.50	12624.85
469.69	12919.76
469.87	13067.21
470.05	13057.85
470.23	13050.83
470.41	13053.17
470.59	13249.77
470.77	12870.61
470.95	13308.29
471.14	13453.40
471.32	12910.40
471.50	13444.04
471.68	13460.42
471.86	13570.43
472.04	13579.79
472.22	13989.38
472.40	13680.43
472.58	13500.21
472.77	13781.07
472.95	13984.70
473.13	14373.23
473.31	14174.28
473.49	13991.72
473.67	14251.52
473.85	14204.71
474.03	14359.19
474.21	14787.50
474.39	14733.67
474.57	14565.15
474.75	14878.79
474.93	15030.92
475.12	14810.91
475.30	15159.65
475.48	14750.06
475.66	15077.73
475.84	15094.11
476.02	15126.88
476.20	15222.84
476.38	15782.23
476.56	15777.55
476.74	15817.34
476.92	15728.40
477.10	15910.96
477.28	16091.18
477.46	16346.30
477.64	15950.75
477.82	16528.86
478.00	16879.94
478.18	16826.11
478.36	16795.68
478.54	16779.30
478.72	17092.93
478.90	17184.21
479.08	17554.02
479.26	17486.14
479.44	17898.08
479.62	17579.76
479.80	17914.46
479.98	18054.89
480.16	18537.04
480.34	18452.78
480.52	18324.05
480.70	18544.06
480.88	18331.08
481.06	18808.54
481.24	18918.55
481.41	18747.69
481.59	19278.99
481.77	19232.18
481.95	19145.58
482.13	19676.88
482.31	19569.22
482.49	20140.31
482.67	20219.89
482.85	20262.02
483.03	20318.19
483.21	20580.33
483.39	20496.07
483.57	20908.01
483.74	20739.49
483.92	21287.17
484.10	21404.20
484.28	21495.48
484.46	21790.39
484.64	22136.79
484.82	21834.86
485.00	22375.52
485.18	22551.06
485.35	23101.09
485.53	22614.26
485.71	22860.01
485.89	23264.92
486.07	23122.15
486.25	23171.30
486.43	23388.97
486.61	23779.84
486.78	23910.91
486.96	24397.74
487.14	24594.35
487.32	24290.08
487.50	24776.91
487.68	24725.42
487.85	25273.10
488.03	25507.16
488.21	25472.05
488.39	25582.06
488.57	25834.83
488.75	25879.30
488.92	26670.40
489.10	26836.58
489.28	26867.01
489.46	27199.37
489.64	26967.65
489.81	27555.13
489.99	27463.85
490.17	27857.06
490.35	28102.81
490.53	28030.26
490.70	27955.36
490.88	27941.32
491.06	28395.38
491.24	28814.34
491.41	28856.46
491.59	28959.45
491.77	29252.02
491.95	29113.92
492.13	29809.06
492.30	29802.04
492.48	29790.34
492.66	29876.94
492.84	29752.89
493.01	30164.82
493.19	30017.37
493.37	31007.42
493.54	30920.82
493.72	31414.67
493.90	31419.35
494.08	31697.88
494.25	31646.38
494.43	31613.62
494.61	32039.59
494.79	32285.35
494.96	32205.77
495.14	32208.11
495.32	32755.80
495.49	32938.36
495.67	32907.93
495.85	33188.80
496.02	33420.51
496.20	34000.96
496.38	33851.17
496.55	33759.89
496.73	34471.41
496.91	34476.09
497.09	34590.78
497.26	34609.50
497.44	34864.62
497.62	34866.96
497.79	35835.94
497.97	34913.77
498.14	35859.35
498.32	35772.75
498.50	36205.75
498.67	36048.93
498.85	36488.95
499.03	36285.33
499.20	36540.44
499.38	36814.29
499.56	37078.77
499.73	36608.32
499.91	36765.14
500.08	37661.56
500.26	37139.62
500.44	37476.66
500.61	37673.26
500.79	37652.20
500.97	38089.88
501.14	38349.68
501.32	38642.24
501.49	38010.30
501.67	37984.55
501.84	38918.43
502.02	38981.62
502.20	38770.97
502.37	39196.95
502.55	38869.28
502.72	39196.95
502.90	39122.05
503.07	39402.92
503.25	39681.44
503.43	39660.38
503.60	39754.00
503.78	40137.85
503.95	40037.20
504.13	40088.70
504.30	40711.28
504.48	40287.64
504.65	40315.73
504.83	40683.19
505.01	41104.49
505.18	41153.64
505.36	41195.77
505.53	40996.82
505.71	40994.48
505.88	41486.00
506.06	41170.02
506.23	42115.60
506.41	41514.08
506.58	42066.45
506.76	41890.91
506.93	42457.32
507.11	42321.57
507.28	42422.21
507.46	42106.24
507.63	42976.92
507.81	42887.98
507.98	42483.06
508.16	43339.70
508.33	43269.48
508.50	43292.89
508.68	43042.45
508.85	43555.03
509.03	43264.80
509.20	43501.20
509.38	43545.67
509.55	44505.29
509.73	43761.00
509.90	44285.28
510.08	44121.44
510.25	44418.69
510.42	44327.41
510.60	44884.45
510.77	45324.47
510.95	44931.26
511.12	44854.03
511.30	44917.22
511.47	45038.93
511.64	45226.17
511.82	45633.42
511.99	45535.12
512.17	45626.40
512.34	45797.26
512.51	46443.25
512.69	46438.57
512.86	45907.27
513.04	46431.55
513.21	46298.14
513.38	46426.87
513.56	46791.99
513.73	46644.54
513.90	46337.93
514.08	46803.69
514.25	47255.42
514.43	47224.99
514.60	47334.99
514.77	47035.41
514.95	47693.10
515.12	47360.74
515.29	47433.30
515.47	47681.39
515.64	47758.63
515.81	47856.93
515.99	48130.78
516.16	48226.74
516.33	48189.29
516.51	48549.73
516.68	48098.01
516.85	48289.93
517.03	48381.21
517.20	48811.87
517.37	48687.82
517.54	48589.52
517.72	48542.71
517.89	48746.34
518.06	49083.37
518.24	49223.81
518.41	49111.46
518.58	48971.03
518.75	49317.43
518.93	49364.24
519.10	49104.44
519.27	49579.57
519.45	49553.82
519.62	49797.24
519.79	49691.91
519.96	49844.05
520.14	50040.65
520.31	49720.00
520.48	50429.18
520.65	50094.49
520.83	50515.78
521.00	50459.61
521.17	50267.69
521.34	50358.97
521.52	50326.20
521.69	50600.04
521.86	50681.96
522.03	50894.95
522.20	51004.95
522.38	51334.97
522.55	51154.75
522.72	51079.85
522.89	51339.65
523.07	51391.14
523.24	51077.51
523.41	51253.05
523.58	51250.71
523.75	51730.52
523.92	51393.48
524.10	51648.60
524.27	51664.99
524.44	51955.21
524.61	51718.82
524.78	51997.34
524.96	51751.59
525.13	52121.39
525.30	52058.20
525.47	52523.96
525.64	52222.03
525.81	52395.23
525.98	52598.86
526.16	52519.28
526.33	52725.25
526.50	52800.15
526.67	52519.28
526.84	52589.50
527.01	52561.41
527.18	52449.06
527.36	52999.09
527.53	52959.30
527.70	53146.54
527.87	53176.97
528.04	52879.72
528.21	53102.07
528.38	53148.88
528.55	53474.22
528.72	53684.87
528.89	53155.91
529.07	53345.49
529.24	53029.52
529.41	53600.61
529.58	53422.73
529.75	53619.33
529.92	53588.91
530.09	53750.40
530.26	53715.29
530.43	53759.76
530.60	53560.82
530.77	53743.38
530.94	53860.41
531.11	53968.07
531.28	53921.26
531.46	53951.69
531.63	54155.32
531.80	54213.83
531.97	54270.00
532.14	53993.82
532.31	54253.62
532.48	54295.75
532.65	54337.88
532.82	54454.90
532.99	54679.60
533.16	54279.36
533.33	54518.10
533.50	54941.74
533.67	54684.28
533.84	54513.42
534.01	54618.74
534.18	54644.49
534.35	55145.36
534.52	54901.95
534.69	54906.63
534.86	55042.38
535.03	54773.22
535.20	54883.22
535.37	55320.90
535.54	55269.41
535.71	55241.32
535.88	55430.91
536.05	55426.23
536.22	55632.19
536.38	55458.99
536.55	55363.03
536.72	55533.89
536.89	55341.97
537.06	55203.88
537.23	55489.42
537.40	55484.74
537.57	55639.22
537.74	55608.79
537.91	55660.28
538.08	55824.12
538.25	55683.69
538.42	55615.81
538.59	55978.59
538.75	55721.13
538.92	55969.23
539.09	55969.23
539.26	56062.85
539.43	55927.10
539.60	56018.38
539.77	56172.86
539.94	56140.09
540.11	56198.60
540.28	56203.28
540.44	56140.09
540.61	56266.48
540.78	56339.04
540.95	56507.55
541.12	56301.59
541.29	56282.86
541.46	56301.59
541.62	56498.19
541.79	56542.66
541.96	56175.20
542.13	56512.23
542.30	56727.56
542.47	56694.80
542.63	56673.73
542.80	56722.88
542.97	56851.61
543.14	57148.86
543.31	57083.33
543.48	57083.33
543.64	57333.76
543.81	57181.63
543.98	57396.96
544.15	57277.59
544.32	57158.22
544.48	57338.44
544.65	57144.18
544.82	57237.80
544.99	56996.73
545.16	57387.60
545.32	57382.91
545.49	57558.45
545.66	57535.05
545.83	57598.24
546.00	57778.46
546.16	57539.73
546.33	57513.98
546.50	57336.10
546.67	57724.63
546.83	57158.22
547.00	57422.70
547.17	57549.09
547.34	57579.52
547.50	57771.44
547.67	57822.93
547.84	57907.19
548.00	58101.46
548.17	57932.94
548.34	57949.32
548.51	58073.37
548.67	58082.73
548.84	57820.59
549.01	57914.22
549.18	58019.54
549.34	58108.48
549.51	57935.28
549.68	58195.08
549.84	58227.85
550.01	58138.91
550.18	58127.20
550.34	58555.52
550.51	58293.38
550.68	58335.51
550.84	58061.67
551.01	58511.05
551.18	58347.21
551.34	58351.90
551.51	58468.92
551.68	58307.43
551.84	58525.10
552.01	58272.32
552.18	58440.84
552.34	58368.28
552.51	58740.42
552.68	58489.99
552.84	58756.81
553.01	58773.19
553.18	58777.87
553.34	58667.87
553.51	58653.82
553.67	58637.44
553.84	58808.30
554.01	58740.42
554.17	58745.11
554.34	58726.38
554.51	58948.73
554.67	58941.71
554.84	58775.53
555.00	58749.79
555.17	58812.98
555.33	58815.32
555.50	58850.43
555.67	58756.81
555.83	58962.78
556.00	58773.19
556.16	59021.29
556.33	58927.67
556.50	59175.76
556.66	59271.73
556.83	59054.06
556.99	59255.34
557.16	59470.67
557.32	59332.58
557.49	59465.99
557.65	59283.43
557.82	59253.00
557.98	59164.06
558.15	59393.43
558.32	59283.43
558.48	59608.76
558.65	59344.28
558.81	59330.24
558.98	59568.97
559.14	59606.42
559.31	59388.75
559.47	59423.86
559.64	59587.70
559.80	59590.04
559.97	59519.82
560.13	59330.24
560.30	59428.54
560.46	59756.22
560.63	59667.28
560.79	59786.64
560.96	59664.94
561.12	59538.55
561.29	59669.62
561.45	59494.08
561.61	59585.36
561.78	59533.87
561.94	59721.11
562.11	59760.90
562.27	59664.94
562.44	60044.10
562.60	59980.91
562.77	59678.98
562.93	59639.19
563.10	59901.33
563.26	59781.96
563.42	60149.43
563.59	60039.42
563.75	59648.55
563.92	60001.97
564.08	59955.16
564.24	59999.63
564.41	60013.68
564.57	60023.04
564.74	60030.06
564.90	60165.81
565.07	59854.52
565.23	59987.93
565.39	59927.08
565.56	60100.28
565.72	60170.49
565.88	60046.44
566.05	60074.53
566.21	59999.63
566.38	60137.72
566.54	60058.15
566.70	60329.65
566.87	60151.77
567.03	59966.87
567.19	60273.48
567.36	60149.43
567.52	60069.85
567.68	60420.93
567.85	60177.51
568.01	60250.07
568.17	60016.02
568.34	60327.31
568.50	60158.79
568.66	60207.94
568.83	60331.99
568.99	60331.99
569.15	60147.09
569.32	60250.07
569.48	60327.31
569.64	60505.19
569.81	60182.19
569.97	60214.96
570.13	60313.26
570.30	60331.99
570.46	60441.99
570.62	60254.75
570.78	60282.84
570.95	60346.03
571.11	60474.76
571.27	60437.31
571.43	60158.79
571.60	60493.49
571.76	60392.84
571.92	60584.77
572.09	60271.14
572.25	60299.22
572.41	60390.50
572.57	60463.06
572.74	60463.06
572.90	60278.16
573.06	60542.64
573.22	60446.68
573.38	60381.14
573.55	60444.33
573.71	60680.73
573.87	60673.71
574.03	60563.70
574.20	60542.64
574.36	60533.28
574.52	60601.15
574.68	60547.32
574.84	60727.54
575.01	60692.43
575.17	60488.80
575.33	60526.25
575.49	60505.19
575.65	60383.48
575.82	60612.85
575.98	60437.31
576.14	60821.16
576.30	60954.57
576.46	60617.53
576.62	60570.72
576.79	60423.27
576.95	60537.96
577.11	60669.03
577.27	60739.24
577.43	60757.97
577.59	60509.87
577.75	60486.46
577.92	60633.92
578.08	60519.23
578.24	60643.28
578.40	60786.05
578.56	61006.06
578.72	60870.31
578.88	61013.08
579.04	60800.10
579.21	60715.84
579.37	60879.67
579.53	60706.47
579.69	60491.15
579.85	60638.60
580.01	60676.05
580.17	60537.96
580.33	60837.54
580.49	60739.24
580.65	61001.38
580.82	60853.93
580.98	60664.35
581.14	60804.78
581.30	60977.98
581.46	60732.22
581.62	60809.46
581.78	60753.29
581.94	60846.91
582.10	60629.24
582.26	60685.41
582.42	60451.36
582.58	60736.90
582.74	60774.35
582.90	60940.53
583.06	60779.03
583.22	60907.76
583.38	60825.84
583.54	60776.69
583.70	60797.76
583.86	60940.53
584.02	60566.04
584.18	60839.89
584.34	60821.16
584.50	60762.65
584.66	60985.00
584.82	60774.35
584.98	60893.72
585.14	60830.52
585.30	60804.78
585.46	60973.30
585.62	60959.25
585.78	61059.90
585.94	60776.69
586.10	60809.46
586.26	61080.96
586.42	60809.46
586.58	60924.14
586.74	60898.40
586.90	60816.48
587.06	61036.49
587.22	61052.87
587.38	60938.19
587.54	61010.74
587.70	60982.66
587.86	60931.17
588.02	60966.27
588.18	61043.51
588.34	60802.44
588.49	60940.53
