SpectraSuite Data File
++++++++++++++++++++++++++++++++++++
Date: Fri Oct 25 11:25:01 EDT 2013
User: price-jones
Dark Spectrum Present: No
Reference Spectrum Present: No
Number of Sampled Component Spectra: 1
Spectrometers: USB2+H05261
Integration Time (usec): 100000 (USB2+H05261)
Spectra Averaged: 1 (USB2+H05261)
Boxcar Smoothing: 0 (USB2+H05261)
Correct for Electrical Dark: No (USB2+H05261)
Strobe/Lamp Enabled: No (USB2+H05261)
Correct for Detector Non-linearity: No (USB2+H05261)
Correct for Stray Light: No (USB2+H05261)
Number of Pixels in Processed Spectrum: 2048
>>>>>Begin Processed Spectral Data<<<<<
365.73	236.39
365.92	236.39
366.12	236.39
366.32	163.84
366.52	142.77
366.72	149.79
366.91	133.41
367.11	112.35
367.31	119.37
367.51	163.84
367.70	86.60
367.90	168.52
368.10	159.16
368.30	156.82
368.49	182.56
368.69	152.13
368.89	121.71
369.09	187.24
369.28	140.43
369.48	152.13
369.68	266.82
369.87	180.22
370.07	133.41
370.27	170.86
370.47	311.29
370.66	566.41
370.86	624.92
371.06	660.03
371.25	718.54
371.45	645.99
371.65	655.35
371.84	723.23
372.04	727.91
372.24	702.16
372.44	788.76
372.63	821.53
372.83	732.59
373.03	744.29
373.22	709.18
373.42	784.08
373.62	823.87
373.81	821.53
374.01	812.17
374.21	765.36
374.40	751.31
374.60	870.68
374.79	823.87
374.99	880.04
375.19	863.66
375.38	793.44
375.58	830.89
375.78	861.32
375.97	844.93
376.17	905.79
376.37	887.06
376.56	863.66
376.76	812.17
376.95	854.30
377.15	940.90
377.35	844.93
377.54	891.74
377.74	873.02
377.93	994.73
378.13	952.60
378.33	980.68
378.52	1018.13
378.72	990.05
378.91	990.05
379.11	933.87
379.31	873.02
379.50	884.72
379.70	1032.18
379.89	1064.94
380.09	851.96
380.28	926.85
380.48	936.21
380.68	999.41
380.87	971.32
381.07	954.94
381.26	908.13
381.46	1046.22
381.65	980.68
381.85	1039.20
382.04	973.66
382.24	1032.18
382.43	1015.79
382.63	1039.20
382.83	1050.90
383.02	1025.15
383.22	1060.26
383.41	1078.99
383.61	1041.54
383.80	1083.67
384.00	1048.56
384.19	1179.63
384.39	1179.63
384.58	1198.35
384.78	1149.20
384.97	1090.69
385.17	1172.61
385.36	1142.18
385.56	1142.18
385.75	1104.73
385.95	1193.67
386.14	1247.51
386.34	1224.10
386.53	1254.53
386.72	1123.46
386.92	1149.20
387.11	1238.14
387.31	1186.65
387.50	1228.78
387.70	1210.06
387.89	1231.12
388.09	1228.78
388.28	1245.16
388.48	1287.29
388.67	1273.25
388.86	1261.55
389.06	1254.53
389.25	1369.21
389.45	1359.85
389.64	1352.83
389.84	1334.11
390.03	1329.42
390.22	1383.26
390.42	1359.85
390.61	1369.21
390.81	1364.53
391.00	1324.74
391.19	1479.22
391.39	1476.88
391.58	1399.64
391.78	1343.47
391.97	1371.55
392.16	1387.94
392.36	1488.58
392.55	1575.18
392.75	1554.12
392.94	1570.50
393.13	1516.67
393.33	1533.05
393.52	1472.20
393.71	1533.05
393.91	1570.50
394.10	1586.88
394.29	1502.62
394.49	1607.95
394.68	1586.88
394.88	1636.03
395.07	1696.89
395.26	1717.95
395.46	1589.22
395.65	1792.85
395.84	1905.20
396.04	1771.79
396.23	1762.42
396.42	1811.57
396.62	1722.63
396.81	1825.62
397.00	1823.28
397.19	1781.15
397.39	1806.89
397.58	1757.74
397.77	1771.79
397.97	1881.79
398.16	1830.30
398.35	1912.22
398.55	1767.10
398.74	1811.57
398.93	1989.46
399.12	1947.33
399.32	1863.07
399.51	2012.86
399.70	1970.73
399.90	1933.28
400.09	1994.14
400.28	2092.44
400.47	1987.11
400.67	2043.29
400.86	1942.64
401.05	2062.01
401.24	2092.44
401.44	2174.36
401.63	2214.15
401.82	2050.31
402.01	2092.44
402.21	2019.88
402.40	2221.17
402.59	2122.87
402.78	2113.50
402.97	2214.15
403.17	2298.41
403.36	2246.91
403.55	2272.66
403.74	2387.35
403.93	2392.03
404.13	2293.72
404.32	2291.38
404.51	2333.51
404.70	2422.45
404.89	2394.37
405.09	2434.16
405.28	2401.39
405.47	2370.96
405.66	2506.71
405.85	2506.71
406.05	2495.01
406.24	2614.38
406.43	2553.52
406.62	2551.18
406.81	2623.74
407.00	2558.21
407.20	2590.97
407.39	2640.12
407.58	2778.22
407.77	2686.94
407.96	2710.34
408.15	2764.17
408.34	2710.34
408.54	2719.70
408.73	2752.47
408.92	2822.69
409.11	2904.60
409.30	2897.58
409.49	2951.42
409.68	2904.60
409.87	2970.14
410.07	3035.67
410.26	3066.10
410.45	2920.99
410.64	3159.72
410.83	3045.04
411.02	3155.04
411.21	3211.22
411.40	3091.85
411.59	3204.19
411.78	3185.47
411.98	3159.72
412.17	3178.45
412.36	3412.50
412.55	3342.28
412.74	3541.23
412.93	3417.18
413.12	3410.16
413.31	3506.12
413.50	3442.93
413.69	3426.54
413.88	3508.46
414.07	3571.66
414.26	3679.32
414.45	3705.07
414.64	3686.34
414.83	3864.22
415.02	3789.33
415.22	3978.91
415.41	3789.33
415.60	3920.40
415.79	3992.95
415.98	3995.29
416.17	3988.27
416.36	4086.58
416.55	4016.36
416.74	4168.49
416.93	4007.00
417.12	4070.19
417.31	4184.88
417.50	4145.09
417.69	4266.80
417.88	4376.80
418.07	4210.62
418.26	4292.54
418.45	4280.84
418.64	4423.61
418.83	4351.06
419.02	4224.67
419.21	4592.13
419.39	4610.86
419.58	4353.40
419.77	4365.10
419.96	4547.66
420.15	4517.23
420.34	4545.32
420.53	4624.90
420.72	4753.63
420.91	4674.05
421.10	4667.03
421.29	4730.22
421.48	4638.94
421.67	4636.60
421.86	4809.80
422.05	4835.55
422.24	4657.67
422.43	4826.18
422.61	4945.55
422.80	5060.24
422.99	4940.87
423.18	4858.95
423.37	4973.64
423.56	4919.81
423.75	4786.40
423.94	4837.89
424.13	4645.96
424.32	4594.47
424.50	4791.08
424.69	4971.30
424.88	5135.14
425.07	5053.22
425.26	4812.14
425.45	4875.34
425.64	4851.93
425.83	4987.68
426.01	5153.86
426.20	5107.05
426.39	5130.45
426.58	5097.69
426.77	4987.68
426.96	5114.07
427.15	5160.88
427.33	5013.43
427.52	5149.18
427.71	5203.01
427.90	5144.50
428.09	5305.99
428.28	5315.36
428.46	5275.57
428.65	5430.04
428.84	5413.66
429.03	5528.35
429.22	5343.44
429.40	5416.00
429.59	5249.82
429.78	5371.53
429.97	5226.42
430.16	5659.42
430.34	5694.52
430.53	5584.52
430.72	5612.60
430.91	5612.60
431.10	5645.37
431.28	5898.15
431.47	5818.57
431.66	5797.51
431.85	5980.07
432.03	5977.73
432.22	6052.63
432.41	5900.49
432.60	5980.07
432.79	5959.00
432.97	6052.63
433.16	5994.11
433.35	6029.22
433.54	6232.85
433.72	6270.30
433.91	6125.18
434.10	6045.60
434.28	5933.26
434.47	6113.48
434.66	6113.48
434.85	6221.14
435.03	6319.45
435.22	6260.93
435.41	6494.99
435.59	6562.86
435.78	6443.49
435.97	6438.81
436.16	6286.68
436.34	6370.94
436.53	6562.86
436.72	6729.04
436.90	6492.65
437.09	6579.25
437.28	6464.56
437.46	6579.25
437.65	6665.85
437.84	6832.02
438.02	6705.63
438.21	6789.89
438.40	6534.78
438.58	6937.35
438.77	7140.97
438.96	6960.75
439.14	7171.40
439.33	7131.61
439.52	7155.02
439.70	7215.87
439.89	7503.76
440.08	7461.63
440.26	7365.67
440.45	7218.21
440.63	7323.54
440.82	7634.83
441.01	7550.57
441.19	7564.61
441.38	7632.49
441.57	7726.11
441.75	7875.90
441.94	7854.84
442.12	7943.78
442.31	8084.21
442.50	7948.46
442.68	8154.43
442.87	8058.46
443.05	8194.22
443.24	8196.56
443.43	8081.87
443.61	8194.22
443.80	8362.73
443.98	8107.62
444.17	7777.60
444.35	8198.90
444.54	8549.98
444.73	8208.26
444.91	8353.37
445.10	8318.26
445.28	8236.35
445.47	8250.39
445.65	8322.94
445.84	8468.06
446.02	8372.10
446.21	8346.35
446.39	8276.13
446.58	8379.12
446.77	8472.74
446.95	8250.39
447.14	8435.29
447.32	8699.77
447.51	8517.21
447.69	8489.12
447.88	8669.34
448.06	8393.16
448.25	8531.25
448.43	8587.43
448.62	8482.10
448.80	8575.72
448.99	8657.64
449.17	8748.92
449.36	8582.74
449.54	8945.53
449.73	8999.36
449.91	9076.60
450.10	8814.46
450.28	9102.34
450.46	9067.24
450.65	9123.41
450.83	9081.28
451.02	9004.04
451.20	9167.88
451.39	8933.82
451.57	9181.92
451.76	9004.04
451.94	9224.05
452.13	9233.41
452.31	9221.71
452.49	9109.36
452.68	9282.56
452.86	9341.08
453.05	9315.33
453.23	9371.50
453.42	9219.37
453.60	9369.16
453.78	9607.90
453.97	9352.78
454.15	9537.68
454.34	9444.06
454.52	9729.61
454.70	9568.11
454.89	9692.16
455.07	9769.40
455.26	9820.89
455.44	9851.31
455.62	10106.43
455.81	9996.43
455.99	9914.51
456.17	10064.30
456.36	9898.13
456.54	10281.97
456.73	10427.09
456.91	10183.67
457.09	10427.09
457.28	10611.99
457.46	10139.20
457.64	10340.49
457.83	10417.72
458.01	10677.52
458.19	10703.27
458.38	10548.79
458.56	10628.37
458.74	10862.43
458.93	10850.72
459.11	10710.29
459.29	10862.43
459.48	10710.29
459.66	10731.36
459.84	10656.46
460.03	11286.06
460.21	11063.71
460.39	10911.58
460.57	11140.95
460.76	11304.79
460.94	11124.57
461.12	11300.11
461.31	11243.93
461.49	11232.23
461.67	11272.02
461.85	11410.11
462.04	11119.89
462.22	11786.94
462.40	11585.65
462.59	11417.13
462.77	11494.37
462.95	11836.09
463.13	11683.95
463.32	11653.53
463.50	11770.55
463.68	11630.12
463.86	11810.34
464.05	11789.28
464.23	11606.72
464.41	11936.73
464.59	11709.70
464.78	12116.95
464.96	12065.46
465.14	11763.53
465.32	11957.80
465.50	12056.10
465.69	12241.00
465.87	12266.75
466.05	12168.45
466.23	12105.25
466.41	12123.98
466.60	12517.18
466.78	12187.17
466.96	12205.89
467.14	12451.65
467.32	12538.25
467.51	12556.97
467.69	12341.64
467.87	12554.63
468.05	12620.17
468.23	12287.81
468.41	12573.36
468.60	12865.92
468.78	12816.77
468.96	12526.55
469.14	12624.85
469.32	12830.82
469.50	12851.88
469.69	12931.46
469.87	12973.59
470.05	12919.76
470.23	13390.20
470.41	13102.32
470.59	13422.97
470.77	13088.28
470.95	13432.33
471.14	13554.04
471.32	13172.54
471.50	13762.35
471.68	13682.77
471.86	13841.93
472.04	13820.86
472.22	13940.23
472.40	13750.65
472.58	14036.19
472.77	13706.18
472.95	14174.28
473.13	14579.20
473.31	14026.83
473.49	14164.92
473.67	14092.37
473.85	14157.90
474.03	14492.60
474.21	14693.88
474.39	14766.44
474.57	14759.42
474.75	14911.55
474.93	14867.08
475.12	14684.52
475.30	15082.41
475.48	14965.39
475.66	15300.08
475.84	15087.09
476.02	15384.34
476.20	15372.64
476.38	15742.44
476.56	15868.83
476.74	15894.58
476.92	15690.95
477.10	15955.43
477.28	15992.88
477.46	15768.19
477.64	16142.67
477.82	16386.09
478.00	16795.68
478.18	16926.75
478.36	16655.25
478.54	17060.16
478.72	17207.62
478.90	17511.89
479.08	17640.62
479.26	17558.70
479.44	17750.62
479.62	17928.50
479.80	18356.82
479.98	17895.74
480.16	18508.96
480.34	18115.75
480.52	18817.91
480.70	18457.46
480.88	18431.72
481.06	18607.26
481.24	18602.58
481.41	19253.25
481.59	19421.77
481.77	19440.49
481.95	19730.72
482.13	19616.03
482.31	19639.44
482.49	20517.14
482.67	20201.16
482.85	20453.94
483.03	20255.00
483.21	20886.94
483.39	21069.50
483.57	20929.07
483.74	21071.84
483.92	21544.63
484.10	21451.01
484.28	21781.03
484.46	21888.69
484.64	22473.82
484.82	22134.45
485.00	22185.94
485.18	22649.36
485.35	22822.56
485.53	22719.58
485.71	22890.44
485.89	23328.12
486.07	23131.51
486.25	23285.99
486.43	23665.16
486.61	24182.42
486.78	23896.87
486.96	24018.58
487.14	24479.66
487.32	24357.96
487.50	24718.40
487.68	24994.58
487.85	24851.81
488.03	25881.64
488.21	25834.83
488.39	25666.31
488.57	26096.97
488.75	26359.11
488.92	26632.96
489.10	26754.66
489.28	26639.98
489.46	27246.18
489.64	26962.97
489.81	27775.14
489.99	27852.38
490.17	27859.40
490.35	28013.87
490.53	28210.48
490.70	28386.02
490.88	28505.38
491.06	28690.29
491.24	28947.75
491.41	29039.03
491.59	28931.36
491.77	29266.06
491.95	29575.01
492.13	29827.79
492.30	29963.54
492.48	30246.74
492.66	30110.99
492.84	30389.52
493.01	30412.92
493.19	30604.84
493.37	30878.69
493.54	30742.94
493.72	31302.32
493.90	31370.20
494.08	31931.93
494.25	31625.32
494.43	32009.17
494.61	32393.01
494.79	32313.44
494.96	32840.06
495.14	32833.04
495.32	32823.67
495.49	33230.93
495.67	32938.36
495.85	33392.42
496.02	33832.44
496.20	34164.80
496.38	34319.28
496.55	34043.09
496.73	35002.71
496.91	34546.31
497.09	34799.08
497.26	34796.74
497.44	35133.78
497.62	34909.09
497.79	35571.46
497.97	35225.06
498.14	35744.66
498.32	36114.47
498.50	36407.03
498.67	36439.80
498.85	36334.48
499.03	36350.86
499.20	36442.14
499.38	36971.10
499.56	36666.83
499.73	37137.28
499.91	36900.89
500.08	37738.80
500.26	37406.44
500.44	38293.50
500.61	37638.15
500.79	37460.27
500.97	38155.41
501.14	38506.49
501.32	39161.84
501.49	38663.31
501.67	39150.14
501.84	38958.22
502.02	38618.84
502.20	39112.69
502.37	39126.74
502.55	39358.45
502.72	39367.81
502.90	39571.44
503.07	39180.57
503.25	39716.55
503.43	39988.05
503.60	40081.67
503.78	40264.24
503.95	40046.57
504.13	40268.92
504.30	40664.47
504.48	40612.98
504.65	40449.14
504.83	40959.38
505.01	41347.90
505.18	41617.07
505.36	41345.56
505.53	41326.84
505.71	41612.38
505.88	41947.08
506.06	41427.48
506.23	42272.42
506.41	41687.28
506.58	42319.23
506.76	42267.73
506.93	42234.97
507.11	42443.27
507.28	42398.80
507.46	42710.10
507.63	42997.98
507.81	43545.67
507.98	42646.90
508.16	43227.35
508.33	43246.08
508.50	43393.53
508.68	43831.21
508.85	43763.34
509.03	43941.22
509.20	43887.39
509.38	43950.58
509.55	44409.32
509.73	44676.15
509.90	44596.57
510.08	44559.12
510.25	44844.66
510.42	44802.53
510.60	44451.45
510.77	45502.35
510.95	45633.42
511.12	45158.30
511.30	45284.68
511.47	45324.47
511.64	46026.63
511.82	45656.83
511.99	45832.37
512.17	45958.76
512.34	45694.28
512.51	46344.95
512.69	46527.51
512.86	46553.26
513.04	46380.06
513.21	46843.48
513.38	46604.75
513.56	46700.71
513.73	47014.34
513.90	47065.83
514.08	46831.78
514.25	47433.30
514.43	47089.24
514.60	47257.76
514.77	47365.42
514.95	47892.04
515.12	47136.05
515.29	47648.63
515.47	47873.32
515.64	48318.02
515.81	47597.13
515.99	48428.02
516.16	48378.87
516.33	48498.24
516.51	48570.80
516.68	48369.51
516.85	48416.32
517.03	49090.40
517.20	49062.31
517.37	48861.02
517.54	48409.30
517.72	49038.90
517.89	49301.04
518.06	49015.50
518.24	49174.66
518.41	48917.20
518.58	49495.31
518.75	49289.34
518.93	49401.69
519.10	49614.68
519.27	49930.65
519.45	49525.74
519.62	49869.79
519.79	50059.38
519.96	50064.06
520.14	49797.24
520.31	50267.69
520.48	50234.92
520.65	50195.13
520.83	50305.13
521.00	50763.88
521.17	50478.33
521.34	50553.23
521.52	50852.82
521.69	50806.01
521.86	50986.23
522.03	51063.47
522.20	51239.01
522.38	51508.17
522.55	51262.41
522.72	51320.93
522.89	51140.71
523.07	51669.67
523.24	51243.69
523.41	51426.25
523.58	51531.57
523.75	51716.48
523.92	52090.96
524.10	51913.08
524.27	52025.43
524.44	52112.03
524.61	52072.24
524.78	52072.24
524.96	51885.00
525.13	52219.69
525.30	52322.68
525.47	52144.80
525.64	52322.68
525.81	52802.49
525.98	52708.86
526.16	52526.30
526.33	52884.40
526.50	52580.13
526.67	52776.74
526.84	52884.40
527.01	52949.94
527.18	52949.94
527.36	52823.55
527.53	53057.60
527.70	53411.02
527.87	53523.37
528.04	52603.54
528.21	53176.97
528.38	53191.01
528.55	53722.32
528.72	53221.44
528.89	53174.63
529.07	53055.26
529.24	53492.94
529.41	53581.88
529.58	53621.67
529.75	53670.82
529.92	53829.98
530.09	54026.59
530.26	53996.16
530.43	54337.88
530.60	53764.45
530.77	53649.76
530.94	53801.89
531.11	53951.69
531.28	53914.24
531.46	54372.99
531.63	54293.41
531.80	54391.71
531.97	54370.64
532.14	54328.52
532.31	54487.67
532.48	54684.28
532.65	54494.69
532.82	54541.50
532.99	54534.48
533.16	54452.56
533.33	54887.90
533.50	54698.32
533.67	55047.06
533.84	54705.34
534.01	54651.51
534.18	54918.33
534.35	55320.90
534.52	55164.09
534.69	55171.11
534.86	55253.03
535.03	54878.54
535.20	55128.98
535.37	55613.47
535.54	55152.38
535.71	55093.87
535.88	55561.98
536.05	55468.36
536.22	55667.30
536.38	55604.11
536.55	55423.89
536.72	55508.14
536.89	55618.15
537.06	55634.53
537.23	55615.81
537.40	55512.83
537.57	55690.71
537.74	55643.90
537.91	55861.57
538.08	55735.18
538.25	55693.05
538.42	56140.09
538.59	56217.33
538.75	55863.91
538.92	56018.38
539.09	55962.21
539.26	55983.27
539.43	55945.83
539.60	56140.09
539.77	56158.81
539.94	56629.26
540.11	56388.19
540.28	56364.78
540.44	56327.33
540.61	56580.11
540.78	56341.38
540.95	56275.84
541.12	56420.95
541.29	56406.91
541.46	56495.85
541.62	56554.36
541.79	56474.79
541.96	56341.38
542.13	56491.17
542.30	56734.59
542.47	57038.86
542.63	56940.55
542.80	56807.14
542.97	56975.66
543.14	57127.80
543.31	57233.12
543.48	57130.14
543.64	57532.71
543.81	57123.11
543.98	57219.08
544.15	57249.50
544.32	57392.28
544.48	57619.31
544.65	57308.02
544.82	57326.74
544.99	57333.76
545.16	57399.30
545.32	57198.01
545.49	57668.46
545.66	57415.68
545.83	57698.89
546.00	57612.29
546.16	57715.27
546.33	57623.99
546.50	57476.54
546.67	57827.62
546.83	57434.41
547.00	57741.02
547.17	57719.95
547.34	57696.55
547.50	57853.36
547.67	58150.61
547.84	58113.16
548.00	58113.16
548.17	58101.46
548.34	57956.35
548.51	58333.17
548.67	58389.34
548.84	58127.20
549.01	58012.52
549.18	58166.99
549.34	58372.96
549.51	58248.91
549.68	58529.78
549.84	58372.96
550.01	58464.24
550.18	58152.95
550.34	58330.83
550.51	58466.58
550.68	58588.29
550.84	58461.90
551.01	58396.37
551.18	58314.45
551.34	58417.43
551.51	58614.04
551.68	58302.74
551.84	58632.76
552.01	58419.77
552.18	58562.54
552.34	58347.21
552.51	58721.70
552.68	58576.59
552.84	58712.34
553.01	58791.92
553.18	58674.89
553.34	58880.86
553.51	58719.36
553.67	58796.60
553.84	58784.90
554.01	58965.12
554.17	58997.88
554.34	59082.14
554.51	58946.39
554.67	59089.16
554.84	58990.86
555.00	59093.85
555.17	58953.41
555.33	58941.71
555.50	59009.59
555.67	58784.90
555.83	59004.91
556.00	59381.73
556.16	59421.52
556.33	59334.92
556.50	59262.36
556.66	59194.49
556.83	59166.40
556.99	59325.56
557.16	59583.02
557.32	59529.19
557.49	59636.85
557.65	59365.35
557.82	59285.77
557.98	59290.45
558.15	59379.39
558.32	59561.95
558.48	59292.79
558.65	59634.51
558.81	59557.27
558.98	59601.74
559.14	59756.22
559.31	59707.07
559.47	59697.70
559.64	59667.28
559.80	59636.85
559.97	59660.26
560.13	59526.84
560.30	59781.96
560.46	59606.42
560.63	59697.70
560.79	59760.90
560.96	59887.29
561.12	59920.05
561.29	60023.04
561.45	59650.89
561.61	59873.24
561.78	59739.83
561.94	59674.30
562.11	59880.27
562.27	59863.88
562.44	60027.72
562.60	59957.50
562.77	59943.46
562.93	59688.34
563.10	59969.21
563.26	59779.62
563.42	60123.68
563.59	60079.21
563.75	59891.97
563.92	59980.91
564.08	59861.54
564.24	59924.74
564.41	60189.22
564.57	60301.56
564.74	60196.24
564.90	59868.56
565.07	60179.85
565.23	60214.96
565.39	60259.43
565.56	60140.07
565.72	60130.70
565.88	60271.14
566.05	60135.38
566.21	60189.22
566.38	60020.70
566.54	60210.28
566.70	60231.35
566.87	60481.78
567.03	60172.83
567.19	60533.28
567.36	60268.79
567.52	60395.18
567.68	60488.80
567.85	60353.05
568.01	60413.91
568.17	60385.82
568.34	60390.50
568.50	60402.21
568.66	60247.73
568.83	60350.71
568.99	60170.49
569.15	60395.18
569.32	60540.30
569.48	60369.44
569.64	60601.15
569.81	60472.42
569.97	60488.80
570.13	60561.36
570.30	60371.78
570.46	60481.78
570.62	60465.40
570.78	60418.59
570.95	60582.43
571.11	60741.58
571.27	60544.98
571.43	60732.22
571.60	60533.28
571.76	60577.75
571.92	60673.71
572.09	60713.50
572.25	60507.53
572.41	60472.42
572.57	60514.55
572.74	60647.96
572.90	60547.32
573.06	60802.44
573.22	60552.00
573.38	60528.59
573.55	60662.00
573.71	60645.62
573.87	60837.54
574.03	60495.83
574.20	60743.92
574.36	60638.60
574.52	60741.58
574.68	60874.99
574.84	60772.01
575.01	60846.91
575.17	60659.66
575.33	60666.69
575.49	60659.66
575.65	60893.72
575.82	60865.63
575.98	60755.63
576.14	60907.76
576.30	60968.61
576.46	60622.22
576.62	60718.18
576.79	60465.40
576.95	60662.00
577.11	60783.71
577.27	60835.20
577.43	60872.65
577.59	61020.11
577.75	60570.72
577.92	60755.63
578.08	60802.44
578.24	60877.33
578.40	60940.53
578.56	60870.31
578.72	60919.46
578.88	60996.70
579.04	61031.81
579.21	60818.82
579.37	61216.71
579.53	60858.61
579.69	60746.26
579.85	60872.65
580.01	60898.40
580.17	60577.75
580.33	60987.34
580.49	60783.71
580.65	60893.72
580.82	60734.56
580.98	60907.76
581.14	60821.16
581.30	60933.51
581.46	61010.74
581.62	60898.40
581.78	60980.32
581.94	61162.88
582.10	60924.14
582.26	60846.91
582.42	60755.63
582.58	60907.76
582.74	60828.18
582.90	60994.36
583.06	60839.89
583.22	60753.29
583.38	61041.17
583.54	61041.17
583.70	60905.42
583.86	60987.34
584.02	60736.90
584.18	61066.92
584.34	61064.58
584.50	60879.67
584.66	61041.17
584.82	60764.99
584.98	60917.12
585.14	60898.40
585.30	60926.49
585.46	61010.74
585.62	60994.36
585.78	61193.31
585.94	60683.07
586.10	61137.13
586.26	60917.12
586.42	60985.00
586.58	61097.34
586.74	61109.05
586.90	60963.93
587.06	61076.28
587.22	61312.67
587.38	61017.77
587.54	61045.85
587.70	61319.70
587.86	61183.94
588.02	60863.29
588.18	61024.79
588.34	60996.70
588.49	61132.45
