SpectraSuite Data File
++++++++++++++++++++++++++++++++++++
Date: Fri Oct 25 11:33:17 EDT 2013
User: price-jones
Dark Spectrum Present: No
Reference Spectrum Present: No
Number of Sampled Component Spectra: 1
Spectrometers: USB2+H05261
Integration Time (usec): 100000 (USB2+H05261)
Spectra Averaged: 1 (USB2+H05261)
Boxcar Smoothing: 0 (USB2+H05261)
Correct for Electrical Dark: No (USB2+H05261)
Strobe/Lamp Enabled: No (USB2+H05261)
Correct for Detector Non-linearity: No (USB2+H05261)
Correct for Stray Light: No (USB2+H05261)
Number of Pixels in Processed Spectrum: 2048
>>>>>Begin Processed Spectral Data<<<<<
365.73	280.86
365.92	280.86
366.12	280.86
366.32	152.13
366.52	184.90
366.72	170.86
366.91	191.92
367.11	198.95
367.31	166.18
367.51	180.22
367.70	173.20
367.90	182.56
368.10	135.75
368.30	163.84
368.49	156.82
368.69	210.65
368.89	166.18
369.09	135.75
369.28	182.56
369.48	177.88
369.68	227.03
369.87	124.05
370.07	238.73
370.27	241.08
370.47	320.65
370.66	440.02
370.86	610.88
371.06	524.28
371.25	535.98
371.45	521.94
371.65	554.71
371.84	519.60
372.04	512.58
372.24	589.82
372.44	543.00
372.63	528.96
372.83	599.18
373.03	578.11
373.22	601.52
373.42	613.22
373.62	641.31
373.81	627.26
374.01	620.24
374.21	688.12
374.40	636.63
374.60	594.50
374.79	627.26
374.99	655.35
375.19	603.86
375.38	697.48
375.58	622.58
375.78	674.07
375.97	720.88
376.17	676.41
376.37	638.97
376.56	678.76
376.76	674.07
376.95	699.82
377.15	751.31
377.35	657.69
377.54	690.46
377.74	695.14
377.93	695.14
378.13	755.99
378.33	723.23
378.52	676.41
378.72	690.46
378.91	713.86
379.11	683.44
379.31	697.48
379.50	788.76
379.70	681.10
379.89	774.72
380.09	758.33
380.28	746.63
380.48	774.72
380.68	610.88
380.87	755.99
381.07	746.63
381.26	772.38
381.46	779.40
381.65	800.46
381.85	821.53
382.04	791.10
382.24	718.54
382.43	807.48
382.63	786.42
382.83	809.83
383.02	833.23
383.22	791.10
383.41	781.74
383.61	795.78
383.80	737.27
384.00	777.06
384.19	828.55
384.39	770.04
384.58	856.64
384.78	788.76
384.97	777.06
385.17	844.93
385.36	884.72
385.56	830.89
385.75	779.40
385.95	807.48
386.14	863.66
386.34	793.44
386.53	858.98
386.72	823.87
386.92	896.43
387.11	905.79
387.31	943.24
387.50	896.43
387.70	856.64
387.89	868.34
388.09	880.04
388.28	840.25
388.48	889.40
388.67	896.43
388.86	973.66
389.06	947.92
389.25	954.94
389.45	919.83
389.64	999.41
389.84	968.98
390.03	947.92
390.22	1060.26
390.42	924.51
390.61	990.05
390.81	1036.86
391.00	985.37
391.19	952.60
391.39	938.55
391.58	1034.52
391.78	1001.75
391.97	1001.75
392.16	966.64
392.36	1088.35
392.55	1076.65
392.75	1057.92
392.94	1027.50
393.13	1160.91
393.33	997.07
393.52	1036.86
393.71	1188.99
393.91	1100.05
394.10	1116.44
394.29	1135.16
394.49	1104.73
394.68	1165.59
394.88	1121.12
395.07	1064.94
395.26	1186.65
395.46	1156.22
395.65	1188.99
395.84	1196.01
396.04	1210.06
396.23	1181.97
396.42	1205.38
396.62	1270.91
396.81	1160.91
397.00	1167.93
397.19	1299.00
397.39	1177.29
397.58	1245.16
397.77	1221.76
397.97	1310.70
398.16	1308.36
398.35	1315.38
398.55	1348.15
398.74	1338.79
398.93	1313.04
399.12	1226.44
399.32	1296.66
399.51	1348.15
399.70	1345.81
399.90	1345.81
400.09	1322.40
400.28	1458.15
400.47	1345.81
400.67	1416.02
400.86	1462.83
401.05	1427.73
401.24	1418.36
401.44	1565.82
401.63	1404.32
401.82	1371.55
402.01	1502.62
402.21	1516.67
402.40	1476.88
402.59	1568.16
402.78	1418.36
402.97	1488.58
403.17	1526.03
403.36	1570.50
403.55	1570.50
403.74	1540.07
403.93	1558.80
404.13	1610.29
404.32	1579.86
404.51	1629.01
404.70	1603.27
404.89	1678.16
405.09	1767.10
405.28	1708.59
405.47	1689.87
405.66	1678.16
405.85	1748.38
406.05	1710.93
406.24	1746.04
406.43	1727.32
406.62	1755.40
406.81	1778.81
407.00	1846.68
407.20	1797.53
407.39	1874.77
407.58	1863.07
407.77	1865.41
407.96	1881.79
408.15	1994.14
408.34	1970.73
408.54	1916.90
408.73	1818.60
408.92	1886.47
409.11	2069.03
409.30	1973.07
409.49	1937.96
409.68	2057.33
409.87	1998.82
410.07	1982.43
410.26	2132.23
410.45	2101.80
410.64	1989.46
410.83	2106.48
411.02	2083.08
411.21	2197.76
411.40	2188.40
411.59	2319.47
411.78	2223.51
411.98	2314.79
412.17	2267.98
412.36	2195.42
412.55	2251.60
412.74	2422.45
412.93	2424.80
413.12	2289.04
413.31	2410.75
413.50	2399.05
413.69	2476.29
413.88	2441.18
414.07	2399.05
414.26	2581.61
414.45	2497.35
414.64	2471.61
414.83	2614.38
415.02	2644.81
415.22	2703.32
415.41	2745.45
415.60	2684.59
415.79	2703.32
415.98	2733.75
416.17	2656.51
416.36	2815.66
416.55	2740.77
416.74	2764.17
416.93	2843.75
417.12	2822.69
417.31	2857.79
417.50	2925.67
417.69	2942.05
417.88	2944.39
418.07	2913.97
418.26	3026.31
418.45	2991.20
418.64	3105.89
418.83	3133.98
419.02	3012.27
419.21	3077.80
419.39	3075.46
419.58	3208.87
419.77	3108.23
419.96	3215.90
420.15	3073.12
420.34	3190.15
420.53	3173.77
420.72	3332.92
420.91	3236.96
421.10	3339.94
421.29	3234.62
421.48	3241.64
421.67	3337.60
421.86	3361.01
422.05	3346.97
422.24	3372.71
422.43	3382.07
422.61	3201.85
422.80	3517.83
422.99	3449.95
423.18	3342.28
423.37	3435.91
423.56	3400.80
423.75	3513.14
423.94	3396.12
424.13	3255.69
424.32	3281.43
424.50	3407.82
424.69	3471.01
424.88	3660.60
425.07	3372.71
425.26	3379.73
425.45	3358.67
425.64	3459.31
425.83	3527.19
426.01	3421.86
426.20	3522.51
426.39	3524.85
426.58	3468.67
426.77	3365.69
426.96	3548.25
427.15	3597.40
427.33	3543.57
427.52	3473.36
427.71	3630.17
427.90	3534.21
428.09	3637.19
428.28	3721.45
428.46	3686.34
428.65	3808.05
428.84	3763.58
429.03	3845.50
429.22	3674.64
429.40	3878.27
429.59	3850.18
429.78	3817.41
429.97	3562.30
430.16	3953.16
430.34	3918.06
430.53	3953.16
430.72	3794.01
430.91	3878.27
431.10	3871.25
431.28	4063.17
431.47	3896.99
431.66	3911.04
431.85	3922.74
432.03	3990.61
432.22	4182.54
432.41	4077.21
432.60	4074.87
432.79	4100.62
432.97	4119.34
433.16	4147.43
433.35	4039.76
433.54	4189.56
433.72	4177.86
433.91	4182.54
434.10	4203.60
434.28	4166.15
434.47	4238.71
434.66	4227.01
434.85	4308.93
435.03	4273.82
435.22	4287.86
435.41	4435.32
435.59	4404.89
435.78	4329.99
435.97	4465.74
436.16	4554.68
436.34	4596.81
436.53	4395.53
436.72	4664.69
436.90	4468.08
437.09	4580.43
437.28	4318.29
437.46	4688.09
437.65	4699.80
437.84	4624.90
438.02	4554.68
438.21	4573.41
438.40	4521.92
438.58	4849.59
438.77	4903.42
438.96	4823.84
439.14	4940.87
439.33	4819.16
439.52	4943.21
439.70	4865.97
439.89	5008.75
440.08	4947.89
440.26	4990.02
440.45	5022.79
440.63	5107.05
440.82	5013.43
441.01	5174.92
441.19	5217.05
441.38	5270.89
441.57	5200.67
441.75	5231.10
441.94	5469.83
442.12	5313.02
442.31	5493.24
442.50	5413.66
442.68	5406.64
442.87	5359.83
443.05	5626.65
443.24	5687.50
443.43	5369.19
443.61	5661.76
443.80	5654.73
443.98	5376.21
444.17	5350.46
444.35	5549.41
444.54	5666.44
444.73	5750.70
444.91	5809.21
445.10	5778.78
445.28	5706.23
445.47	5638.35
445.65	5633.67
445.84	5654.73
446.02	5764.74
446.21	5731.97
446.39	5591.54
446.58	5710.91
446.77	5809.21
446.95	5624.31
447.14	5703.89
447.32	5727.29
447.51	5928.58
447.69	5788.14
447.88	5788.14
448.06	5776.44
448.25	5713.25
448.43	5921.56
448.62	5720.27
448.80	5919.21
448.99	5966.03
449.17	5841.98
449.36	5856.02
449.54	6108.80
449.73	6146.25
449.91	6132.20
450.10	6118.16
450.28	6069.01
450.46	5987.09
450.65	6008.16
450.83	6129.86
451.02	6101.78
451.20	6218.80
451.39	6277.32
451.57	6113.48
451.76	6169.65
451.94	6214.12
452.13	6415.41
452.31	6310.08
452.49	6214.12
452.68	6356.90
452.86	6527.75
453.05	6537.12
453.23	6377.96
453.42	6455.20
453.60	6497.33
453.78	6539.46
453.97	6319.45
454.15	6443.49
454.34	6471.58
454.52	6691.59
454.70	6628.40
454.89	6590.95
455.07	6558.18
455.26	6707.98
455.44	6764.15
455.62	6740.74
455.81	6780.53
455.99	6595.63
456.17	6991.18
456.36	6869.47
456.54	6951.39
456.73	6771.17
456.91	7073.10
457.09	7049.69
457.28	7227.57
457.46	7012.24
457.64	6986.50
457.83	7124.59
458.01	7021.61
458.19	7321.20
458.38	7208.85
458.56	7487.37
458.74	7143.32
458.93	7260.34
459.11	7295.45
459.29	7192.47
459.48	7265.02
459.66	7382.05
459.84	7524.82
460.03	7391.41
460.21	7379.71
460.39	7510.78
460.57	7398.43
460.76	7541.21
460.94	7634.83
461.12	7494.40
461.31	7487.37
461.49	7463.97
461.67	7658.23
461.85	7826.75
462.04	7789.30
462.22	8259.75
462.40	7955.48
462.59	7726.11
462.77	7609.08
462.95	7878.24
463.13	8011.65
463.32	7819.73
463.50	7927.39
463.68	7943.78
463.86	8109.96
464.05	7915.69
464.23	8072.51
464.41	8060.80
464.59	7960.16
464.78	8128.68
464.96	7999.95
465.14	8053.78
465.32	8168.47
465.50	8194.22
465.69	8259.75
465.87	8196.56
466.05	8182.51
466.23	8032.72
466.41	8285.50
466.60	8535.93
466.78	8245.71
466.96	8353.37
467.14	8152.09
467.32	8320.60
467.51	8248.05
467.69	8114.64
467.87	8360.39
468.05	8535.93
468.23	8468.06
468.41	8589.77
468.60	8273.79
468.78	8566.36
468.96	8547.64
469.14	8540.61
469.32	8634.24
469.50	8381.46
469.69	8472.74
469.87	8844.88
470.05	8755.94
470.23	8800.41
470.41	8720.84
470.59	8990.00
470.77	8879.99
470.95	8980.64
471.14	9135.11
471.32	8858.93
471.50	9153.84
471.68	9212.35
471.86	9025.11
472.04	9078.94
472.22	9427.68
472.40	9266.18
472.58	9266.18
472.77	9425.34
472.95	9556.41
473.13	9757.69
473.31	9366.82
473.49	9563.43
473.67	9460.45
473.85	9888.76
474.03	9729.61
474.21	9778.76
474.39	9837.27
474.57	9846.63
474.75	10012.81
474.93	10127.50
475.12	10150.90
475.30	10321.76
475.48	10164.95
475.66	10246.87
475.84	10207.08
476.02	10289.00
476.20	10317.08
476.38	10396.66
476.56	10663.48
476.74	10675.18
476.92	10621.35
477.10	10628.37
477.28	10703.27
477.46	10682.20
477.64	10939.66
477.82	10998.18
478.00	11337.56
478.18	11023.92
478.36	11309.47
478.54	11262.66
478.72	11403.09
478.90	11784.60
479.08	11805.66
479.26	11889.92
479.44	12016.31
479.62	11747.15
479.80	11913.33
479.98	11859.49
480.16	12224.62
480.34	12102.91
480.52	12322.92
480.70	12149.72
480.88	12311.22
481.06	12461.01
481.24	12547.61
481.41	12641.23
481.59	12959.55
481.77	13020.40
481.95	13085.94
482.13	12989.97
482.31	12840.18
482.49	13317.65
482.67	13523.62
482.85	13460.42
483.03	13708.52
483.21	13724.90
483.39	13774.05
483.57	13853.63
483.74	14162.58
483.92	14169.60
484.10	14139.18
484.28	14464.51
484.46	14450.47
484.64	14768.78
484.82	14595.58
485.00	14867.08
485.18	14941.98
485.35	15105.82
485.53	15295.40
485.71	15534.14
485.89	15484.98
486.07	15484.98
486.25	15445.20
486.43	15777.55
486.61	15735.42
486.78	15964.79
486.96	15882.88
487.14	16402.47
487.32	16023.31
487.50	16346.30
487.68	16568.65
487.85	16601.42
488.03	16828.45
488.21	17184.21
488.39	17249.75
488.57	17322.30
488.75	17549.34
488.92	17331.67
489.10	17879.35
489.28	17584.44
489.46	17970.63
489.64	17961.27
489.81	18441.08
489.99	18415.34
490.17	18050.21
490.35	18640.03
490.53	18651.73
490.70	18611.94
490.88	18979.40
491.06	18979.40
491.24	19412.40
491.41	19173.67
491.59	19073.03
491.77	19597.31
491.95	19344.53
492.13	19665.18
492.30	19946.05
492.48	19852.42
492.66	20077.12
492.84	20233.93
493.01	20070.09
493.19	20442.24
493.37	20315.85
493.54	20496.07
493.72	20650.55
493.90	20540.54
494.08	20863.54
494.25	21067.16
494.43	21289.51
494.61	21324.62
494.79	21479.10
494.96	21441.65
495.14	21603.14
495.32	21926.14
495.49	21858.26
495.67	21975.29
495.85	22244.45
496.02	22080.61
496.20	22703.20
496.38	22370.84
496.55	22345.09
496.73	22953.63
496.91	22647.02
497.09	22984.06
497.26	23105.77
497.44	22944.27
497.62	23473.23
497.79	24032.62
497.97	23599.62
498.14	23803.25
498.32	23700.26
498.50	23737.71
498.67	24100.50
498.85	24079.43
499.03	24418.81
499.20	24222.20
499.38	24790.95
499.56	24507.75
499.73	24617.75
499.91	24844.79
500.08	25050.75
500.26	24404.77
500.44	25106.93
500.61	25259.06
500.79	24982.88
500.97	25233.32
501.14	25240.34
501.32	25434.60
501.49	25582.06
501.67	25621.84
501.84	25888.67
502.02	25731.85
502.20	26029.10
502.37	25666.31
502.55	25923.77
502.72	25972.92
502.90	26071.23
503.07	26075.91
503.25	26195.28
503.43	26211.66
503.60	26888.07
503.78	26679.77
503.95	26621.25
504.13	26658.70
504.30	27105.74
504.48	26689.13
504.65	26965.31
504.83	27372.57
505.01	27447.46
505.18	27332.78
505.36	27744.71
505.53	27384.27
505.71	27641.73
505.88	27728.33
506.06	27908.55
506.23	27910.89
506.41	27744.71
506.58	28137.92
506.76	27955.36
506.93	28151.96
507.11	28367.29
507.28	28542.83
507.46	28491.34
507.63	28449.21
507.81	28423.47
507.98	28716.03
508.16	28779.23
508.33	28549.85
508.50	28861.15
508.68	29039.03
508.85	28891.57
509.03	28840.08
509.20	29268.40
509.38	29610.12
509.55	29635.86
509.73	29610.12
509.90	29975.24
510.08	30008.01
510.25	29860.55
510.42	30206.95
510.60	30213.98
510.77	29865.24
510.95	30387.18
511.12	29806.72
511.30	30211.64
511.47	30579.10
511.64	30281.85
511.82	30745.28
511.99	30698.47
512.17	30433.99
512.34	30712.51
512.51	30801.45
512.69	30773.36
512.86	30934.86
513.04	31498.93
513.21	30948.90
513.38	31543.40
513.56	31229.77
513.73	31089.34
513.90	31466.16
514.08	31227.43
514.25	31782.13
514.43	32065.34
514.60	31833.63
514.77	31676.81
514.95	32025.55
515.12	32275.99
515.29	31967.04
515.47	31992.78
515.64	32177.68
515.81	32088.74
515.99	32322.80
516.16	32746.44
516.33	32617.71
516.51	32772.18
516.68	32884.53
516.85	32629.41
517.03	33200.50
517.20	32996.87
517.37	33251.99
517.54	33340.93
517.72	33259.01
517.89	33111.56
518.06	33291.78
518.24	32919.63
518.41	33514.13
518.58	33158.37
518.75	33102.20
518.93	33570.30
519.10	33549.24
519.27	33694.35
519.45	34073.52
519.62	33809.04
519.79	33905.00
519.96	33879.25
520.14	34162.46
520.31	34239.70
520.48	34401.19
520.65	34185.86
520.83	34682.06
521.00	34579.07
521.17	34480.77
521.34	34455.03
521.52	34845.90
521.69	35208.68
521.86	35063.57
522.03	34888.03
522.20	35028.46
522.38	35356.13
522.55	35124.42
522.72	35103.35
522.89	34850.58
523.07	35915.52
523.24	35625.29
523.41	35992.76
523.58	35271.87
523.75	35625.29
523.92	35938.93
524.10	35725.94
524.27	36062.97
524.44	35573.80
524.61	36280.64
524.78	35983.40
524.96	36353.20
525.13	36224.47
525.30	36947.70
525.47	36683.22
525.64	36491.29
525.81	36453.84
525.98	36961.74
526.16	36297.03
526.33	36868.12
526.50	36800.24
526.67	36388.31
526.84	36596.62
527.01	36959.40
527.18	36971.10
527.36	36961.74
527.53	37209.84
527.70	37530.49
527.87	37624.11
528.04	37385.38
528.21	37626.45
528.38	37179.41
528.55	37235.58
528.72	37359.63
528.89	37296.44
529.07	37460.27
529.24	37333.89
529.41	37677.94
529.58	37603.05
529.75	37841.78
529.92	38033.71
530.09	37682.62
530.26	38012.64
530.43	37888.59
530.60	37350.27
530.77	38003.28
530.94	38333.29
531.11	38555.64
531.28	38103.92
531.46	38415.21
531.63	38309.89
531.80	38309.89
531.97	38646.93
532.14	38403.51
532.31	38728.84
532.48	39026.09
532.65	38412.87
532.82	38766.29
532.99	38785.02
533.16	38927.79
533.33	39253.12
533.50	39248.44
533.67	39009.71
533.84	38740.55
534.01	39330.36
534.18	39014.39
534.35	39456.75
534.52	39257.81
534.69	39477.82
534.86	39718.89
535.03	39344.41
535.20	39852.30
535.37	39824.22
535.54	39784.43
535.71	39613.57
535.88	39906.13
536.05	39386.54
536.22	40208.06
536.38	39606.55
536.55	40095.72
536.72	39974.01
536.89	39791.45
537.06	40093.38
537.23	40542.76
537.40	39964.65
537.57	40130.83
537.74	40126.14
537.91	40566.16
538.08	39849.96
538.25	40421.05
538.42	40179.98
538.59	40905.54
538.75	40273.60
538.92	40706.60
539.09	40790.86
539.26	40638.72
539.43	40470.20
539.60	40641.06
539.77	40940.65
539.94	41333.86
540.11	40889.16
540.28	41186.41
540.44	41268.33
540.61	41193.43
540.78	41113.85
540.95	40935.97
541.12	41125.55
541.29	40957.03
541.46	41350.24
541.62	41392.37
541.79	42068.79
541.96	40730.00
542.13	41251.94
542.30	41357.27
542.47	41537.49
542.63	41949.42
542.80	41979.85
542.97	42014.96
543.14	42230.29
543.31	41710.69
543.48	41926.02
543.64	42569.66
543.81	42452.64
543.98	42408.17
544.15	42487.74
544.32	41970.49
544.48	42707.76
544.65	42897.34
544.82	42387.10
544.99	42600.09
545.16	42522.85
545.32	42494.77
545.49	42761.59
545.66	43372.47
545.83	43168.84
546.00	42834.14
546.16	42988.62
546.33	42665.63
546.50	42731.16
546.67	43119.69
546.83	42309.86
547.00	43337.36
547.17	42862.23
547.34	43079.90
547.50	43215.65
547.67	43758.66
547.84	43086.92
548.00	43618.22
548.17	43639.29
548.34	43636.95
548.51	43641.63
548.67	43306.93
548.84	43718.87
549.01	43426.30
549.18	43580.78
549.34	43557.37
549.51	43969.30
549.68	44062.93
549.84	43349.06
550.01	44231.44
550.18	44205.70
550.34	43700.14
550.51	44030.16
550.68	44184.63
550.84	43674.40
551.01	44435.07
551.18	44093.35
551.34	43966.96
551.51	44765.09
551.68	44194.00
551.84	44264.21
552.01	44367.20
552.18	43906.11
552.34	44086.33
552.51	44512.31
552.68	44505.29
552.84	44591.89
553.01	44449.11
553.18	44624.65
553.34	44531.03
553.51	44978.07
553.67	44786.15
553.84	44699.55
554.01	44931.26
554.17	44641.04
554.34	44538.05
554.51	44666.78
554.67	44957.01
554.84	45078.72
555.00	44802.53
555.17	44781.47
555.33	45240.21
555.50	45441.50
555.67	44746.36
555.83	45071.70
556.00	45471.93
556.16	45476.61
556.33	45382.99
556.50	45078.72
556.66	45008.50
556.83	45050.63
556.99	45743.43
557.16	45647.47
557.32	45106.80
557.49	45537.46
557.65	45439.16
557.82	44802.53
557.98	45418.10
558.15	45684.92
558.32	45446.18
558.48	45514.06
558.65	45563.21
558.81	45710.66
558.98	45401.71
559.14	45682.58
559.31	45467.25
559.47	45605.34
559.64	45591.30
559.80	45560.87
559.97	46007.91
560.13	45544.48
560.30	46021.95
560.46	45813.65
560.63	45900.25
560.79	45844.07
560.96	45764.49
561.12	46387.08
561.29	46014.93
561.45	46176.43
561.61	46073.45
561.78	45673.21
561.94	46047.70
562.11	46082.81
562.27	45982.16
562.44	45656.83
562.60	46323.88
562.77	46459.63
562.93	45567.89
563.10	46181.11
563.26	46061.74
563.42	46408.14
563.59	46326.22
563.75	46160.05
563.92	46061.74
564.08	46497.08
564.24	46581.34
564.41	46007.91
564.57	46403.46
564.74	46440.91
564.90	46803.69
565.07	46623.47
565.23	46176.43
565.39	46452.61
565.56	46471.34
565.72	46316.86
565.88	46171.75
566.05	46731.14
566.21	46696.03
566.38	46557.94
566.54	46277.07
566.70	46782.63
566.87	46930.08
567.03	46602.41
567.19	46841.14
567.36	46911.36
567.52	46885.61
567.68	46763.90
567.85	46836.46
568.01	46864.55
568.17	46883.27
568.34	47187.54
568.50	46740.50
568.66	46447.93
568.83	46679.64
568.99	46859.87
569.15	46419.84
569.32	46588.36
569.48	46717.09
569.64	47171.16
569.81	46836.46
569.97	46892.63
570.13	47136.05
570.30	46525.17
570.46	46855.18
570.62	46930.08
570.78	46579.00
570.95	46581.34
571.11	47402.87
571.27	46646.88
571.43	46719.43
571.60	47222.65
571.76	47147.75
571.92	47433.30
572.09	47192.22
572.25	46904.34
572.41	46951.15
572.57	46775.61
572.74	47456.70
572.90	47084.56
573.06	47187.54
573.22	47213.29
573.38	47611.18
573.55	47433.30
573.71	47587.77
573.87	47072.85
574.03	47089.24
574.20	47356.06
574.36	47281.16
574.52	47370.10
574.68	47346.70
574.84	47702.46
575.01	47166.48
575.17	47012.00
575.33	47072.85
575.49	47070.51
575.65	47255.42
575.82	47662.67
575.98	47426.28
576.14	47529.26
576.30	47707.14
576.46	47320.95
576.62	47044.77
576.79	47302.23
576.95	47082.22
577.11	47161.79
577.27	47299.89
577.43	47360.74
577.59	47283.50
577.75	47405.21
577.92	47309.25
578.08	46944.12
578.24	47122.01
578.40	47604.16
578.56	47688.42
578.72	47278.82
578.88	47449.68
579.04	47374.78
579.21	47175.84
579.37	47346.70
579.53	47283.50
579.69	47526.92
579.85	47498.83
580.01	47611.18
580.17	47599.47
580.33	47782.04
580.49	47232.01
580.65	47281.16
580.82	47585.43
580.98	47552.66
581.14	47302.23
581.30	47583.09
581.46	47430.96
581.62	47363.08
581.78	47367.76
581.94	47725.86
582.10	47496.49
582.26	47576.07
582.42	47400.53
582.58	47674.37
582.74	47494.15
582.90	47491.81
583.06	47632.24
583.22	47856.93
583.38	47648.63
583.54	47592.45
583.70	47978.64
583.86	47707.14
584.02	47466.06
584.18	47821.83
584.34	47618.20
584.50	48285.25
584.66	47728.20
584.82	47704.80
584.98	47908.43
585.14	48119.07
585.30	47012.00
585.46	47246.05
585.62	47636.92
585.78	47517.56
585.94	47835.87
586.10	47718.84
586.26	47250.74
586.42	47639.26
586.58	47758.63
586.74	47845.23
586.90	47496.49
587.06	47709.48
587.22	47908.43
587.38	47547.98
587.54	47889.70
587.70	47910.77
587.86	48062.90
588.02	47627.56
588.18	47915.45
588.34	47395.85
588.49	47908.43
588.65	47662.67
588.81	47749.27
588.97	47863.96
589.13	47983.32
589.29	48083.97
589.45	48069.92
589.61	47964.60
589.77	48264.19
589.93	47833.53
