SpectraSuite Data File
++++++++++++++++++++++++++++++++++++
Date: Fri Oct 25 10:46:59 EDT 2013
User: price-jones
Dark Spectrum Present: No
Reference Spectrum Present: No
Number of Sampled Component Spectra: 1
Spectrometers: USB2+H05261
Integration Time (usec): 100000 (USB2+H05261)
Spectra Averaged: 1 (USB2+H05261)
Boxcar Smoothing: 0 (USB2+H05261)
Correct for Electrical Dark: No (USB2+H05261)
Strobe/Lamp Enabled: No (USB2+H05261)
Correct for Detector Non-linearity: No (USB2+H05261)
Correct for Stray Light: No (USB2+H05261)
Number of Pixels in Processed Spectrum: 2048
>>>>>Begin Processed Spectral Data<<<<<
365.73	63.19
365.92	63.19
366.12	63.19
366.32	100.64
366.52	56.17
366.72	88.94
366.91	9.36
367.11	58.51
367.31	0.00
367.51	128.73
367.70	79.58
367.90	21.06
368.10	37.45
368.30	65.54
368.49	16.38
368.69	65.54
368.89	46.81
369.09	79.58
369.28	56.17
369.48	16.38
369.68	128.73
369.87	102.98
370.07	35.11
370.27	145.11
370.47	166.18
370.66	365.12
370.86	421.30
371.06	449.38
371.25	447.04
371.45	456.40
371.65	430.66
371.84	416.62
372.04	461.09
372.24	442.36
372.44	479.81
372.63	547.69
372.83	535.98
373.03	552.37
373.22	547.69
373.42	547.69
373.62	510.24
373.81	468.11
374.01	524.28
374.21	573.43
374.40	599.18
374.60	571.09
374.79	580.45
374.99	575.77
375.19	589.82
375.38	573.43
375.58	624.92
375.78	547.69
375.97	627.26
376.17	582.79
376.37	554.71
376.56	540.66
376.76	582.79
376.95	554.71
377.15	510.24
377.35	655.35
377.54	641.31
377.74	596.84
377.93	631.94
378.13	641.31
378.33	568.75
378.52	622.58
378.72	634.29
378.91	636.63
379.11	580.45
379.31	641.31
379.50	582.79
379.70	753.65
379.89	699.82
380.09	620.24
380.28	674.07
380.48	657.69
380.68	650.67
380.87	664.71
381.07	695.14
381.26	720.88
381.46	727.91
381.65	706.84
381.85	746.63
382.04	667.05
382.24	716.20
382.43	674.07
382.63	657.69
382.83	746.63
383.02	802.80
383.22	739.61
383.41	575.77
383.61	690.46
383.80	716.20
384.00	805.14
384.19	802.80
384.39	793.44
384.58	765.36
384.78	748.97
384.97	784.08
385.17	849.61
385.36	833.23
385.56	779.40
385.75	800.46
385.95	788.76
386.14	784.08
386.34	809.83
386.53	861.32
386.72	816.85
386.92	873.02
387.11	795.78
387.31	917.49
387.50	856.64
387.70	812.17
387.89	800.46
388.09	835.57
388.28	866.00
388.48	837.91
388.67	863.66
388.86	917.49
389.06	931.53
389.25	868.34
389.45	1001.75
389.64	870.68
389.84	947.92
390.03	976.00
390.22	976.00
390.42	966.64
390.61	971.32
390.81	990.05
391.00	1039.20
391.19	978.34
391.39	1025.15
391.58	1102.39
391.78	1004.09
391.97	987.71
392.16	978.34
392.36	1032.18
392.55	980.68
392.75	1109.41
392.94	931.53
393.13	922.17
393.33	954.94
393.52	1022.81
393.71	1088.35
393.91	1156.22
394.10	1034.52
394.29	1156.22
394.49	1188.99
394.68	1100.05
394.88	1172.61
395.07	1172.61
395.26	1125.80
395.46	1114.10
395.65	1238.14
395.84	1212.40
396.04	1226.44
396.23	1128.14
396.42	1165.59
396.62	1184.31
396.81	1153.88
397.00	1135.16
397.19	1219.42
397.39	1284.95
397.58	1226.44
397.77	1291.98
397.97	1364.53
398.16	1270.91
398.35	1392.62
398.55	1350.49
398.74	1296.66
398.93	1348.15
399.12	1315.38
399.32	1317.72
399.51	1432.41
399.70	1476.88
399.90	1497.94
400.09	1390.28
400.28	1572.84
400.47	1481.56
400.67	1511.99
400.86	1558.80
401.05	1465.18
401.24	1565.82
401.44	1605.61
401.63	1596.25
401.82	1486.24
402.01	1577.52
402.21	1544.75
402.40	1526.03
402.59	1596.25
402.78	1621.99
402.97	1636.03
403.17	1767.10
403.36	1732.00
403.55	1750.72
403.74	1710.93
403.93	1703.91
404.13	1827.96
404.32	1713.27
404.51	1727.32
404.70	1764.76
404.89	1806.89
405.09	1739.02
405.28	1795.19
405.47	1865.41
405.66	1846.68
405.85	1926.26
406.05	1851.36
406.24	1944.99
406.43	2008.18
406.62	1989.46
406.81	2022.22
407.00	1898.17
407.20	1895.83
407.39	2040.95
407.58	1970.73
407.77	2008.18
407.96	2040.95
408.15	2057.33
408.34	1902.86
408.54	2057.33
408.73	2153.29
408.92	2195.42
409.11	2195.42
409.30	2155.63
409.49	2104.14
409.68	2148.61
409.87	2176.70
410.07	2143.93
410.26	2235.21
410.45	2029.24
410.64	2267.98
410.83	2251.60
411.02	2459.90
411.21	2277.34
411.40	2373.30
411.59	2387.35
411.78	2502.03
411.98	2511.39
412.17	2471.61
412.36	2370.96
412.55	2471.61
412.74	2560.55
412.93	2544.16
413.12	2532.46
413.31	2761.83
413.50	2569.91
413.69	2574.59
413.88	2705.66
414.07	2782.90
414.26	2747.79
414.45	2710.34
414.64	2846.09
414.83	2794.60
415.02	2909.29
415.22	2820.35
415.41	2827.37
415.60	2949.08
415.79	2923.33
415.98	3094.19
416.17	2946.73
416.36	3033.33
416.55	3096.53
416.74	3028.65
416.93	3122.27
417.12	3173.77
417.31	3150.36
417.50	3087.17
417.69	3187.81
417.88	3162.06
418.07	3225.26
418.26	3323.56
418.45	3243.98
418.64	3447.61
418.83	3337.60
419.02	3236.96
419.21	3318.88
419.39	3445.27
419.58	3332.92
419.77	3372.71
419.96	3452.29
420.15	3295.47
420.34	3562.30
420.53	3475.70
420.72	3478.04
420.91	3482.72
421.10	3461.65
421.29	3667.62
421.48	3475.70
421.67	3578.68
421.86	3534.21
422.05	3606.77
422.24	3555.27
422.43	3473.36
422.61	3634.85
422.80	3796.35
422.99	3571.66
423.18	3709.75
423.37	3737.84
423.56	3595.06
423.75	3599.74
423.94	3660.60
424.13	3517.83
424.32	3489.74
424.50	3747.20
424.69	3815.07
424.88	3850.18
425.07	3726.13
425.26	3576.34
425.45	3698.05
425.64	3595.06
425.83	3641.87
426.01	3698.05
426.20	3714.43
426.39	3765.92
426.58	3824.44
426.77	3672.30
426.96	3716.77
427.15	3838.48
427.33	3744.86
427.52	3796.35
427.71	3899.33
427.90	3934.44
428.09	3925.08
428.28	3990.61
428.46	3939.12
428.65	4072.53
428.84	4091.26
429.03	4077.21
429.22	3974.23
429.40	3871.25
429.59	3955.51
429.78	3824.44
429.97	3763.58
430.16	3782.31
430.34	3918.06
430.53	3878.27
430.72	3971.89
430.91	4081.89
431.10	4072.53
431.28	4287.86
431.47	4259.78
431.66	4379.14
431.85	4353.40
432.03	4407.23
432.22	4430.63
432.41	4257.43
432.60	4477.44
432.79	4463.40
432.97	4362.76
433.16	4451.70
433.35	4437.66
433.54	4341.69
433.72	4390.84
433.91	4386.16
434.10	4393.19
434.28	4538.30
434.47	4533.62
434.66	4561.70
434.85	4498.51
435.03	4779.37
435.22	4575.75
435.41	4774.69
435.59	4784.06
435.78	4772.35
435.97	4777.03
436.16	4695.11
436.34	4793.42
436.53	4915.12
436.72	4973.64
436.90	4770.01
437.09	4917.47
437.28	4737.24
437.46	4716.18
437.65	4938.53
437.84	4950.23
438.02	5029.81
438.21	4868.31
438.40	4938.53
438.58	5057.90
438.77	5046.20
438.96	5100.03
439.14	5200.67
439.33	5228.76
439.52	5291.95
439.70	5448.77
439.89	5334.08
440.08	5336.42
440.26	5493.24
440.45	5371.53
440.63	5579.84
440.82	5729.63
441.01	5486.22
441.19	5652.39
441.38	5619.63
441.57	5633.67
441.75	5912.19
441.94	5963.68
442.12	5916.87
442.31	5975.39
442.50	6111.14
442.68	5895.81
442.87	5795.17
443.05	6085.39
443.24	6108.80
443.43	5919.21
443.61	6083.05
443.80	6258.59
443.98	6010.50
444.17	5792.83
444.35	6129.86
444.54	6043.26
444.73	5935.60
444.91	6033.90
445.10	6122.84
445.28	6017.52
445.47	6216.46
445.65	6097.10
445.84	6207.10
446.02	6237.53
446.21	6104.12
446.39	6223.48
446.58	6235.19
446.77	6230.51
446.95	6036.24
447.14	6272.64
447.32	6176.67
447.51	6080.71
447.69	6258.59
447.88	6289.02
448.06	6314.77
448.25	6284.34
448.43	6242.21
448.62	6211.78
448.80	6303.06
448.99	6319.45
449.17	6375.62
449.36	6534.78
449.54	6349.87
449.73	6665.85
449.91	6693.93
450.10	6703.29
450.28	6860.11
450.46	6780.53
450.65	6548.82
450.83	6743.08
451.02	6595.63
451.20	6803.94
451.39	6684.57
451.57	6635.42
451.76	6757.13
451.94	6686.91
452.13	6817.98
452.31	6857.77
452.49	6628.40
452.68	6799.26
452.86	6867.13
453.05	6815.64
453.23	6846.07
453.42	6729.04
453.60	7056.72
453.78	7073.10
453.97	6925.65
454.15	6796.92
454.34	6876.49
454.52	6991.18
454.70	6944.37
454.89	7140.97
455.07	7077.78
455.26	7330.56
455.44	7281.41
455.62	7288.43
455.81	7222.89
455.99	7288.43
456.17	7255.66
456.36	7143.32
456.54	7442.90
456.73	7672.28
456.91	7892.29
457.09	7693.34
457.28	7786.96
457.46	7414.82
457.64	7709.72
457.83	7449.93
458.01	7609.08
458.19	7882.92
458.38	7632.49
458.56	7648.87
458.74	7845.48
458.93	7709.72
459.11	7934.42
459.29	7775.26
459.48	7950.80
459.66	7822.07
459.84	7967.18
460.03	7782.28
460.21	7922.71
460.39	8112.30
460.57	8189.53
460.76	7927.39
460.94	8095.91
461.12	7960.16
461.31	8044.42
461.49	8304.22
461.67	8102.93
461.85	8320.60
462.04	8182.51
462.22	8781.69
462.40	8255.07
462.59	8126.34
462.77	8437.63
462.95	8592.11
463.13	8355.71
463.32	8514.87
463.50	8519.55
463.68	8500.83
463.86	8414.23
464.05	8432.95
464.23	8332.31
464.41	8538.27
464.59	8381.46
464.78	8816.80
464.96	8692.75
465.14	8664.66
465.32	8617.85
465.50	8690.41
465.69	8690.41
465.87	8685.73
466.05	8802.75
466.23	8723.18
466.41	8732.54
466.60	8779.35
466.78	8650.62
466.96	8816.80
467.14	8795.73
467.32	8915.10
467.51	9088.30
467.69	8912.76
467.87	8840.20
468.05	8980.64
468.23	8671.68
468.41	8879.99
468.60	8926.80
468.78	9013.40
468.96	8966.59
469.14	9067.24
469.32	9418.32
469.50	9252.14
469.69	9334.06
469.87	9245.12
470.05	9280.22
470.23	9233.41
470.41	9294.27
470.59	9373.85
470.77	9444.06
470.95	9486.19
471.14	9645.35
471.32	9383.21
471.50	9844.29
471.68	9710.88
471.86	9886.42
472.04	9741.31
472.22	10026.86
472.40	9699.18
472.58	9895.78
472.77	9783.44
472.95	10090.05
473.13	10363.89
473.31	9867.70
473.49	9820.89
473.67	9870.04
473.85	10087.71
474.03	10171.97
474.21	10228.14
474.39	10380.28
474.57	10399.00
474.75	10527.73
474.93	10684.55
475.12	10546.45
475.30	10623.69
475.48	10663.48
475.66	10693.91
475.84	10623.69
476.02	10787.53
476.20	10897.53
476.38	10930.30
476.56	11105.84
476.74	11243.93
476.92	11183.08
477.10	10967.75
477.28	11295.43
477.46	11279.04
477.64	11538.84
477.82	11494.37
478.00	11901.62
478.18	11817.36
478.36	11978.86
478.54	11988.22
478.72	12046.74
478.90	12414.20
479.08	12512.50
479.26	12493.78
479.44	12229.30
479.62	12510.16
479.80	12479.74
479.98	12699.75
480.16	13011.04
480.34	12669.32
480.52	12975.93
480.70	13172.54
480.88	12994.65
481.06	13217.01
481.24	13252.11
481.41	13420.63
481.59	13750.65
481.77	13619.58
481.95	13776.39
482.13	13743.63
482.31	13855.97
482.49	14026.83
482.67	14298.33
482.85	14417.70
483.03	14576.86
483.21	14689.20
483.39	14555.79
483.57	14658.78
483.74	14551.11
483.92	14703.25
484.10	14775.80
484.28	14995.81
484.46	15255.61
484.64	15454.56
484.82	15190.08
485.00	15253.27
485.18	15578.61
485.35	15831.38
485.53	15438.17
485.71	15489.67
485.89	15955.43
486.07	15854.79
486.25	16159.06
486.43	16308.85
486.61	16229.27
486.78	16493.76
486.96	16617.80
487.14	16828.45
487.32	16774.62
487.50	16936.12
487.68	17355.07
487.85	17429.97
488.03	17659.34
488.21	17689.77
488.39	17614.87
488.57	17727.22
488.75	17900.42
488.92	18167.24
489.10	18251.50
489.28	18361.50
489.46	18551.09
489.64	19171.33
489.81	19183.03
489.99	19133.88
490.17	19080.05
490.35	19545.81
490.53	19328.14
490.70	19311.76
490.88	19484.96
491.06	19873.49
491.24	19477.94
491.41	20123.93
491.59	20039.67
491.77	19772.85
491.95	19990.52
492.13	20203.50
492.30	20486.71
492.48	20472.67
492.66	20781.62
492.84	20561.61
493.01	21053.12
493.19	21078.86
493.37	21326.96
493.54	21355.05
493.72	21462.71
493.90	21907.41
494.08	21703.79
494.25	22064.23
494.43	21912.10
494.61	22366.16
494.79	22286.58
494.96	22230.41
495.14	22253.81
495.32	22672.77
495.49	22572.13
495.67	22731.28
495.85	23159.60
496.02	22890.44
496.20	23082.36
496.38	23173.64
496.55	23510.68
496.73	23960.06
496.91	23625.37
497.09	23592.60
497.26	23990.49
497.44	23953.04
497.62	23915.59
497.79	24009.22
497.97	24540.52
498.14	24060.71
498.32	24493.71
498.50	24702.01
498.67	24900.96
498.85	24875.21
499.03	25022.67
499.20	24954.79
499.38	25088.20
499.56	25446.30
499.73	25144.38
499.91	25738.87
500.08	25373.75
500.26	25230.98
500.44	25612.48
500.61	25699.08
500.79	25710.78
500.97	25895.69
501.14	26167.19
501.32	25781.00
501.49	26008.03
501.67	26431.67
501.84	26150.81
502.02	26274.85
502.20	26480.82
502.37	26661.04
502.55	26497.20
502.72	26710.19
502.90	26757.00
503.07	26658.70
503.25	26958.29
503.43	26719.56
503.60	27302.35
503.78	27068.30
503.95	27058.93
504.13	27307.03
504.30	27391.29
504.48	27351.50
504.65	27323.41
504.83	27634.71
505.01	27756.41
505.18	27974.08
505.36	27857.06
505.53	28393.04
505.71	28123.88
505.88	28629.43
506.06	28236.22
506.23	28173.03
506.41	28460.91
506.58	28584.96
506.76	28701.99
506.93	29006.26
507.11	28425.81
507.28	28650.50
507.46	29003.92
507.63	28856.46
507.81	29120.95
507.98	29046.05
508.16	29301.17
508.33	29371.38
508.50	29404.15
508.68	30052.48
508.85	29986.94
509.03	29577.35
509.20	29888.64
509.38	29586.71
509.55	30043.12
509.73	29986.94
509.90	30464.41
510.08	29846.51
510.25	29935.45
510.42	30675.06
510.60	30202.27
510.77	30534.63
510.95	30658.68
511.12	30508.88
511.30	30953.58
511.47	31534.04
511.64	31229.77
511.82	31304.67
511.99	30895.07
512.17	31372.54
512.34	31192.32
512.51	31517.65
512.69	31697.88
512.86	31470.84
513.04	31721.28
513.21	31747.03
513.38	31447.44
513.56	31548.08
513.73	31421.69
513.90	31917.89
514.08	31660.43
514.25	31833.63
514.43	32002.14
514.60	32603.66
514.77	32451.53
514.95	32556.85
515.12	32020.87
515.29	32458.55
515.47	32921.98
515.64	32844.74
515.81	32645.79
515.99	32627.07
516.16	32788.56
516.33	32540.47
516.51	32694.94
516.68	32903.25
516.85	32374.29
517.03	32882.19
517.20	33041.34
517.37	32996.87
517.54	33022.62
517.72	33013.26
517.89	33102.20
518.06	33127.94
518.24	32945.38
518.41	33282.42
518.58	33408.81
518.75	33390.08
518.93	33628.82
519.10	33696.69
519.27	33811.38
519.45	34209.27
519.62	34426.94
519.79	34403.53
519.96	34094.58
520.14	34586.10
520.31	34251.40
520.48	34471.41
520.65	34419.92
520.83	34558.01
521.00	34457.37
521.17	34487.79
521.34	34768.66
521.52	35185.27
521.69	34927.81
521.86	35019.10
522.03	34859.94
522.20	35072.93
522.38	34845.90
522.55	35086.97
522.72	35143.14
522.89	35115.06
523.07	35225.06
523.24	35346.77
523.41	35442.73
523.58	35161.87
523.75	36364.90
523.92	35761.05
524.10	35931.90
524.27	36170.64
524.44	35999.78
524.61	36294.69
524.78	36027.87
524.96	36229.15
525.13	36547.47
525.30	36407.03
525.47	36835.35
525.64	36814.29
525.81	36533.42
525.98	36418.74
526.16	36257.24
526.33	36676.19
526.50	36671.51
526.67	36360.22
526.84	36388.31
527.01	35941.27
527.18	36980.46
527.36	36467.89
527.53	36917.27
527.70	37448.57
527.87	37329.20
528.04	36954.72
528.21	37816.04
528.38	37200.47
528.55	37720.07
528.72	37244.94
528.89	37453.25
529.07	37289.42
529.24	37127.92
529.41	37565.60
529.58	37399.42
529.75	37500.06
529.92	37748.16
530.09	37488.36
530.26	38003.28
530.43	38045.41
530.60	38361.38
530.77	37991.58
530.94	38218.61
531.11	38377.76
531.28	38211.59
531.46	38326.27
531.63	38588.41
531.80	38148.39
531.97	38178.82
532.14	38443.30
532.31	38169.46
532.48	38565.01
532.65	38663.31
532.82	38618.84
532.99	38855.23
533.16	37862.85
533.33	38778.00
533.50	38923.11
533.67	38899.70
533.84	38810.76
534.01	38927.79
534.18	39084.61
534.35	39358.45
534.52	39463.77
534.69	39159.50
534.86	39288.23
535.03	39234.40
535.20	39503.56
535.37	39634.63
535.54	39409.94
535.71	39323.34
535.88	39236.74
536.05	39557.39
536.22	39910.82
536.38	39646.33
536.55	39583.14
536.72	39803.15
536.89	39290.57
537.06	39426.32
537.23	39983.37
537.40	39828.90
537.57	40084.01
537.74	39686.12
537.91	40112.10
538.08	40086.36
538.25	39964.65
538.42	39990.39
538.59	40484.25
538.75	39988.05
538.92	40332.11
539.09	40142.53
539.26	40772.13
539.43	40030.18
539.60	40238.49
539.77	40140.19
539.94	40126.14
540.11	40669.15
540.28	40634.04
540.44	40479.57
540.61	40196.36
540.78	40793.20
540.95	40594.25
541.12	40289.98
541.29	40465.52
541.46	40641.06
541.62	41202.79
541.79	40725.32
541.96	40512.33
542.13	40608.29
542.30	41031.93
542.47	41127.89
542.63	41280.03
542.80	40722.98
542.97	41425.14
543.14	41366.63
543.31	41439.18
543.48	41523.44
543.64	42192.84
543.81	41771.54
543.98	41853.46
544.15	41628.77
544.32	42017.30
544.48	41909.63
544.65	41680.26
544.82	41867.50
544.99	41511.74
545.16	41476.63
545.32	41476.63
545.49	42239.65
545.66	41958.78
545.83	42000.91
546.00	42033.68
546.16	42033.68
546.33	42143.69
546.50	41502.38
546.67	42148.37
546.83	41837.08
547.00	42241.99
547.17	41890.91
547.34	42225.60
547.50	42195.18
547.67	42604.77
547.84	42377.74
548.00	42932.45
548.17	42543.92
548.34	42635.20
548.51	42866.91
548.67	43171.18
548.84	42672.65
549.01	42527.53
549.18	42976.92
549.34	42576.69
549.51	43061.18
549.68	43229.69
549.84	43005.00
550.01	42649.24
550.18	43086.92
550.34	42817.76
550.51	42960.53
550.68	42469.02
550.84	42347.31
551.01	43316.29
551.18	42784.99
551.34	43220.33
551.51	42939.47
551.68	43349.06
551.84	42911.38
552.01	42937.13
552.18	43075.22
552.34	43105.65
552.51	43517.58
552.68	43157.14
552.84	43423.96
553.01	43658.01
553.18	43625.25
553.34	43428.64
553.51	43573.75
553.67	43344.38
553.84	43421.62
554.01	43997.39
554.17	44212.72
554.34	43707.16
554.51	43824.19
554.67	43728.23
554.84	43971.64
555.00	43592.48
555.17	43538.65
555.33	43990.37
555.50	43878.02
555.67	43590.14
555.83	43557.37
556.00	44135.48
556.16	44322.72
556.33	44226.76
556.50	43679.08
556.66	44264.21
556.83	43543.33
556.99	44432.73
557.16	44191.65
557.32	44243.15
557.49	44119.10
557.65	43847.60
557.82	43995.05
557.98	44086.33
558.15	44032.50
558.32	44669.12
558.48	43943.56
558.65	44165.91
558.81	43973.98
558.98	44481.88
559.14	44268.89
559.31	44739.34
559.47	44369.54
559.64	44839.98
559.80	44163.57
559.97	44924.24
560.13	43889.73
560.30	44219.74
560.46	44598.91
560.63	44477.20
560.79	44694.87
560.96	44905.52
561.12	44704.23
561.29	44568.48
561.45	44313.36
561.61	44861.05
561.78	44697.21
561.94	44196.34
562.11	44456.14
562.27	44776.79
562.44	44844.66
562.60	44488.90
562.77	44912.54
562.93	44495.92
563.10	45043.61
563.26	44334.43
563.42	44772.11
563.59	44673.81
563.75	44802.53
563.92	45141.91
564.08	44910.20
564.24	45195.74
564.41	44971.05
564.57	44942.97
564.74	44889.13
564.90	44648.06
565.07	44823.60
565.23	44715.93
565.39	44825.94
565.56	45373.63
565.72	45139.57
565.88	44582.52
566.05	45083.40
566.21	44877.43
566.38	44734.66
566.54	44659.76
566.70	45148.93
566.87	45462.57
567.03	44964.03
567.19	45638.11
567.36	45067.02
567.52	44966.37
567.68	45209.79
567.85	44708.91
568.01	44964.03
568.17	44926.58
568.34	45226.17
568.50	45081.06
568.66	44690.19
568.83	45205.11
568.99	45034.25
569.15	45287.03
569.32	45015.52
569.48	44961.69
569.64	45476.61
569.81	45106.80
569.97	45022.54
570.13	45134.89
570.30	44992.12
570.46	45003.82
570.62	45116.17
570.78	45006.16
570.95	45151.27
571.11	45460.23
571.27	45478.95
571.43	45001.48
571.60	45399.37
571.76	45394.69
571.92	45106.80
572.09	45244.90
572.25	45081.06
572.41	45258.94
572.57	45544.48
572.74	45727.05
572.90	45436.82
573.06	45357.24
573.22	45172.34
573.38	45413.41
573.55	45268.30
573.71	45743.43
573.87	45027.23
574.03	45212.13
574.20	45244.90
574.36	45322.13
574.52	45420.44
574.68	45301.07
574.84	45514.06
575.01	45404.05
575.17	45359.58
575.33	45038.93
575.49	45291.71
575.65	45696.62
575.82	45453.20
575.98	45097.44
576.14	45617.04
576.30	45682.58
576.46	44877.43
576.62	45436.82
576.79	45228.51
576.95	45120.85
577.11	45677.90
577.27	45680.24
577.43	45361.92
577.59	45738.75
577.75	45628.74
577.92	45207.45
578.08	45153.62
578.24	45076.38
578.40	45492.99
578.56	45359.58
578.72	45111.49
578.88	45806.62
579.04	45406.39
579.21	45184.04
579.37	45397.03
579.53	45308.09
579.69	45130.21
579.85	45581.93
580.01	45755.13
580.17	45551.51
580.33	45881.52
580.49	46199.83
580.65	45745.77
580.82	45846.41
580.98	45598.32
581.14	45553.85
581.30	45521.08
581.46	45226.17
581.62	45734.07
581.78	45265.96
581.94	45820.67
582.10	45373.63
582.26	45965.78
582.42	45565.55
582.58	45492.99
582.74	45172.34
582.90	45450.86
583.06	45846.41
583.22	45464.91
583.38	45705.98
583.54	45605.34
583.70	45717.68
583.86	45209.79
584.02	45457.88
584.18	45598.32
584.34	45640.45
584.50	45652.15
584.66	45621.72
584.82	45043.61
584.98	45600.66
585.14	45497.67
585.30	45352.56
585.46	45418.10
585.62	45748.11
585.78	45710.66
585.94	45457.88
586.10	45497.67
586.26	45698.96
586.42	45628.74
586.58	45865.14
586.74	45890.88
586.90	45429.80
587.06	45209.79
587.22	45715.34
587.38	45579.59
587.54	45525.76
587.70	45911.95
587.86	45502.35
588.02	45429.80
588.18	46103.87
588.34	45729.39
588.49	45441.50
588.65	44839.98
588.81	45390.01
588.97	45038.93
589.13	45338.52
589.29	45155.96
589.45	45689.60
589.61	45333.84
589.77	45923.65
589.93	45553.85
590.08	46213.88
