SpectraSuite Data File
++++++++++++++++++++++++++++++++++++
Date: Fri Oct 25 11:25:59 EDT 2013
User: price-jones
Dark Spectrum Present: No
Reference Spectrum Present: No
Number of Sampled Component Spectra: 1
Spectrometers: USB2+H05261
Integration Time (usec): 100000 (USB2+H05261)
Spectra Averaged: 1 (USB2+H05261)
Boxcar Smoothing: 0 (USB2+H05261)
Correct for Electrical Dark: No (USB2+H05261)
Strobe/Lamp Enabled: No (USB2+H05261)
Correct for Detector Non-linearity: No (USB2+H05261)
Correct for Stray Light: No (USB2+H05261)
Number of Pixels in Processed Spectrum: 2048
>>>>>Begin Processed Spectral Data<<<<<
365.73	273.84
365.92	273.84
366.12	273.84
366.32	184.90
366.52	166.18
366.72	117.03
366.91	70.22
367.11	77.24
367.31	105.32
367.51	154.48
367.70	177.88
367.90	198.95
368.10	145.11
368.30	105.32
368.49	140.43
368.69	135.75
368.89	131.07
369.09	175.54
369.28	133.41
369.48	152.13
369.68	243.42
369.87	147.45
370.07	241.08
370.27	262.14
370.47	320.65
370.66	641.31
370.86	617.90
371.06	690.46
371.25	620.24
371.45	664.71
371.65	631.94
371.84	678.76
372.04	732.59
372.24	671.73
372.44	723.23
372.63	784.08
372.83	727.91
373.03	713.86
373.22	732.59
373.42	683.44
373.62	800.46
373.81	849.61
374.01	791.10
374.21	844.93
374.40	835.57
374.60	964.30
374.79	765.36
374.99	894.08
375.19	882.38
375.38	849.61
375.58	814.51
375.78	823.87
375.97	861.32
376.17	901.11
376.37	870.68
376.56	870.68
376.76	903.45
376.95	793.44
377.15	917.49
377.35	966.64
377.54	933.87
377.74	901.11
377.93	866.00
378.13	901.11
378.33	863.66
378.52	875.36
378.72	950.26
378.91	966.64
379.11	887.06
379.31	926.85
379.50	882.38
379.70	959.62
379.89	1027.50
380.09	997.07
380.28	919.83
380.48	1032.18
380.68	1074.31
380.87	933.87
381.07	1074.31
381.26	1083.67
381.46	1020.47
381.65	997.07
381.85	1034.52
382.04	973.66
382.24	1086.01
382.43	990.05
382.63	1015.79
382.83	1069.62
383.02	1078.99
383.22	1057.92
383.41	1039.20
383.61	1226.44
383.80	1177.29
384.00	1198.35
384.19	1177.29
384.39	1158.57
384.58	1151.54
384.78	1064.94
384.97	1170.27
385.17	1247.51
385.36	1160.91
385.56	1123.46
385.75	1214.74
385.95	1107.07
386.14	1172.61
386.34	1188.99
386.53	1196.01
386.72	1186.65
386.92	1212.40
387.11	1172.61
387.31	1252.19
387.50	1235.80
387.70	1252.19
387.89	1306.02
388.09	1205.38
388.28	1240.48
388.48	1261.55
388.67	1322.40
388.86	1327.08
389.06	1390.28
389.25	1373.89
389.45	1401.98
389.64	1336.45
389.84	1444.11
390.03	1418.36
390.22	1409.00
390.42	1392.62
390.61	1362.19
390.81	1366.87
391.00	1467.52
391.19	1397.30
391.39	1441.77
391.58	1516.67
391.78	1453.47
391.97	1397.30
392.16	1476.88
392.36	1493.26
392.55	1458.15
392.75	1437.09
392.94	1530.71
393.13	1631.35
393.33	1556.46
393.52	1638.38
393.71	1549.43
393.91	1528.37
394.10	1568.16
394.29	1591.56
394.49	1568.16
394.68	1612.63
394.88	1675.82
395.07	1671.14
395.26	1612.63
395.46	1724.97
395.65	1785.83
395.84	1767.10
396.04	1809.23
396.23	1825.62
396.42	1727.32
396.62	1837.32
396.81	1809.23
397.00	1760.08
397.19	1797.53
397.39	1724.97
397.58	1799.87
397.77	1863.07
397.97	1788.17
398.16	1879.45
398.35	1851.36
398.55	1874.77
398.74	1806.89
398.93	1952.01
399.12	1851.36
399.32	1856.04
399.51	2008.18
399.70	2050.31
399.90	2043.29
400.09	2106.48
400.28	2036.27
400.47	1989.46
400.67	2038.61
400.86	2115.84
401.05	2101.80
401.24	2083.08
401.44	2186.06
401.63	2183.72
401.82	2190.74
402.01	2022.22
402.21	2153.29
402.40	2181.38
402.59	2195.42
402.78	2183.72
402.97	2223.51
403.17	2256.28
403.36	2296.07
403.55	2363.94
403.74	2415.43
403.93	2347.56
404.13	2359.26
404.32	2319.47
404.51	2394.37
404.70	2415.43
404.89	2380.32
405.09	2518.42
405.28	2497.35
405.47	2525.44
405.66	2406.07
405.85	2483.31
406.05	2455.22
406.24	2658.85
406.43	2499.69
406.62	2691.62
406.81	2647.15
407.00	2576.93
407.20	2511.39
407.39	2562.89
407.58	2651.83
407.77	2743.11
407.96	2799.28
408.15	2785.24
408.34	2766.51
408.54	2686.94
408.73	2766.51
408.92	2729.06
409.11	2787.58
409.30	2792.26
409.49	2902.26
409.68	3009.93
409.87	2857.79
410.07	2981.84
410.26	3045.04
410.45	3098.87
410.64	3094.19
410.83	3150.36
411.02	3033.33
411.21	3220.58
411.40	3084.83
411.59	3227.60
411.78	3295.47
411.98	3124.62
412.17	3246.32
412.36	3173.77
412.55	3417.18
412.74	3517.83
412.93	3283.77
413.12	3300.16
413.31	3599.74
413.50	3379.73
413.69	3510.80
413.88	3541.23
414.07	3559.95
414.26	3510.80
414.45	3660.60
414.64	3665.28
414.83	3768.26
415.02	3700.39
415.22	3929.76
415.41	3817.41
415.60	3854.86
415.79	3868.91
415.98	3934.44
416.17	3955.51
416.36	3948.48
416.55	4072.53
416.74	4032.74
416.93	4086.58
417.12	4058.49
417.31	4198.92
417.50	4177.86
417.69	4180.20
417.88	4198.92
418.07	4264.46
418.26	4322.97
418.45	4131.05
418.64	4528.94
418.83	4465.74
419.02	4409.57
419.21	4468.08
419.39	4489.15
419.58	4540.64
419.77	4402.55
419.96	4582.77
420.15	4648.30
420.34	4547.66
420.53	4568.73
420.72	4737.24
420.91	4723.20
421.10	4748.95
421.29	4695.11
421.48	4681.07
421.67	4730.22
421.86	4837.89
422.05	4676.39
422.24	4814.48
422.43	4898.74
422.61	4908.10
422.80	4961.94
422.99	4903.42
423.18	4826.18
423.37	4999.38
423.56	4910.44
423.75	4875.34
423.94	4863.63
424.13	4603.83
424.32	4692.77
424.50	4940.87
424.69	5198.33
424.88	4999.38
425.07	4924.49
425.26	4908.10
425.45	5060.24
425.64	4980.66
425.83	4954.91
426.01	4987.68
426.20	5172.58
426.39	4929.17
426.58	4873.00
426.77	5004.07
426.96	5032.15
427.15	5015.77
427.33	5231.10
427.52	5118.75
427.71	5334.08
427.90	5334.08
428.09	5221.74
428.28	5224.08
428.46	5280.25
428.65	5315.36
428.84	5392.59
429.03	5399.62
429.22	5313.02
429.40	5469.83
429.59	5441.75
429.78	5212.37
429.97	5378.55
430.16	5411.32
430.34	5661.76
430.53	5717.93
430.72	5593.88
430.91	5610.26
431.10	5659.42
431.28	5762.40
431.47	5834.96
431.66	5996.45
431.85	5755.38
432.03	5968.37
432.22	5874.74
432.41	5949.64
432.60	5937.94
432.79	5839.64
432.97	5909.85
433.16	5998.79
433.35	6094.76
433.54	6118.16
433.72	6118.16
433.91	6181.35
434.10	6204.76
434.28	5987.09
434.47	6071.35
434.66	6179.01
434.85	6377.96
435.03	6354.55
435.22	6258.59
435.41	6406.05
435.59	6537.12
435.78	6366.26
435.97	6656.48
436.16	6340.51
436.34	6401.37
436.53	6539.46
436.72	6572.22
436.90	6314.77
437.09	6548.82
437.28	6443.49
437.46	6518.39
437.65	6766.49
437.84	6626.06
438.02	6878.83
438.21	6836.70
438.40	6759.47
438.58	7112.89
438.77	7084.80
438.96	6822.66
439.14	6888.20
439.33	6981.82
439.52	7105.87
439.70	7197.15
439.89	7356.30
440.08	7351.62
440.26	7428.86
440.45	7328.22
440.63	7480.35
440.82	7620.78
441.01	7435.88
441.19	7639.51
441.38	7634.83
441.57	7688.66
441.75	7805.69
441.94	7943.78
442.12	7976.55
442.31	7845.48
442.50	8028.04
442.68	8140.38
442.87	8145.06
443.05	8086.55
443.24	8173.15
443.43	8142.72
443.61	8156.77
443.80	8491.46
443.98	8011.65
444.17	7908.67
444.35	8060.80
444.54	8308.90
444.73	8229.32
444.91	8425.93
445.10	8196.56
445.28	8320.60
445.47	8159.11
445.65	8358.05
445.84	8491.46
446.02	8451.67
446.21	8372.10
446.39	8397.84
446.58	8418.91
446.77	8486.78
446.95	8355.71
447.14	8589.77
447.32	8638.92
447.51	8461.04
447.69	8437.63
447.88	8446.99
448.06	8538.27
448.25	8215.28
448.43	8531.25
448.62	8435.29
448.80	8498.49
448.99	8688.07
449.17	8791.05
449.36	8681.05
449.54	8863.61
449.73	9013.40
449.91	9100.00
450.10	8828.50
450.28	8950.21
450.46	9135.11
450.65	8936.17
450.83	9273.20
451.02	9043.83
451.20	9242.78
451.39	9179.58
451.57	9060.21
451.76	8966.59
451.94	9060.21
452.13	9472.15
452.31	9245.12
452.49	9207.67
452.68	9373.85
452.86	9282.56
453.05	9586.83
453.23	9488.53
453.42	9324.69
453.60	9137.45
453.78	9612.58
453.97	9394.91
454.15	9427.68
454.34	9488.53
454.52	9741.31
454.70	9437.04
454.89	9582.15
455.07	9841.95
455.26	10066.64
455.44	9973.02
455.62	9905.15
455.81	10127.50
455.99	9898.13
456.17	10045.58
456.36	10115.80
456.54	10129.84
456.73	10408.36
456.91	10534.75
457.09	10232.82
457.28	10541.77
457.46	10197.71
457.64	10633.05
457.83	10431.77
458.01	10562.84
458.19	10546.45
458.38	10593.26
458.56	10761.78
458.74	10714.97
458.93	10534.75
459.11	10759.44
459.29	10611.99
459.48	10808.59
459.66	10782.85
459.84	10949.03
460.03	10981.79
460.21	10906.90
460.39	10686.89
460.57	11101.16
460.76	11335.21
460.94	11227.55
461.12	11183.08
461.31	11154.99
461.49	11133.93
461.67	11084.78
461.85	11583.31
462.04	11180.74
462.22	11955.46
462.40	11485.01
462.59	11485.01
462.77	11328.19
462.95	11370.32
463.13	11712.04
463.32	11557.57
463.50	11655.87
463.68	11576.29
463.86	12011.63
464.05	11943.75
464.23	11723.74
464.41	11648.85
464.59	11726.08
464.78	12105.25
464.96	11871.20
465.14	12009.29
465.32	12217.60
465.50	12224.62
465.69	12336.96
465.87	12273.77
466.05	12285.47
466.23	12266.75
466.41	12194.19
466.60	12575.70
466.78	12140.36
466.96	12180.15
467.14	12203.55
467.32	12411.86
467.51	12592.08
467.69	12304.20
467.87	12470.37
468.05	12409.52
468.23	12470.37
468.41	12292.49
468.60	12732.51
468.78	12699.75
468.96	12587.40
469.14	12826.14
469.32	13036.78
469.50	12788.69
469.69	13062.53
469.87	13092.96
470.05	13067.21
470.23	13195.94
470.41	13015.72
470.59	13362.12
470.77	13315.31
470.95	13144.45
471.14	13682.77
471.32	13212.32
471.50	13816.18
471.68	13427.65
471.86	13820.86
472.04	13678.09
472.22	14003.43
472.40	13682.77
472.58	13951.93
472.77	13991.72
472.95	14157.90
473.13	14422.38
473.31	14286.63
473.49	14349.82
473.67	14288.97
473.85	14396.64
474.03	14565.15
474.21	14494.94
474.39	14759.42
474.57	14380.25
474.75	14843.68
474.93	14911.55
475.12	15035.60
475.30	15077.73
475.48	14986.45
475.66	15176.03
475.84	15236.89
476.02	15534.14
476.20	15487.32
476.38	15541.16
476.56	15995.22
476.74	15833.72
476.92	16004.58
477.10	15981.18
477.28	16072.46
477.46	16142.67
477.64	16376.73
477.82	16512.48
478.00	16772.28
478.18	16472.69
478.36	16996.97
478.54	16978.25
478.72	17114.00
478.90	17245.07
479.08	17532.95
479.26	17537.63
479.44	17383.16
479.62	17598.49
479.80	17991.70
479.98	18307.67
480.16	18499.59
480.34	18401.29
480.52	18616.62
480.70	18434.06
480.88	18523.00
481.06	18647.05
481.24	18871.74
481.41	19152.60
481.59	19396.02
481.77	19410.06
481.95	19527.09
482.13	19814.98
482.31	19449.85
482.49	20475.01
482.67	20018.60
482.85	20280.74
483.03	20451.60
483.21	20783.96
483.39	20809.70
483.57	21142.06
483.74	21207.59
483.92	21436.97
484.10	20713.74
484.28	21678.04
484.46	22118.06
484.64	22230.41
484.82	21989.33
485.00	22319.35
485.18	22625.96
485.35	22918.53
485.53	22548.72
485.71	22991.08
485.89	23358.55
486.07	23246.20
486.25	23358.55
486.43	23566.85
486.61	23639.41
486.78	24013.90
486.96	24308.80
487.14	24458.60
487.32	24498.39
487.50	25085.86
487.68	24872.87
487.85	25156.08
488.03	25490.77
488.21	25898.03
488.39	25671.00
488.57	26066.55
488.75	26094.63
488.92	26146.12
489.10	26555.72
489.28	26604.87
489.46	26796.79
489.64	27234.47
489.81	27718.96
489.99	27175.96
490.17	27330.44
490.35	28329.84
490.53	28079.41
490.70	28093.45
490.88	28456.23
491.06	28629.43
491.24	28826.04
491.41	28856.46
491.59	29064.77
491.77	29064.77
491.95	29277.76
492.13	29706.08
492.30	29872.26
492.48	29869.92
492.66	30263.13
492.84	30094.61
493.01	30682.08
493.19	30752.30
493.37	30754.64
493.54	31117.42
493.72	31351.48
493.90	31438.08
494.08	31697.88
494.25	31941.29
494.43	32149.60
494.61	32039.59
494.79	32477.27
494.96	32587.28
495.14	32746.44
495.32	33266.03
495.49	33251.99
495.67	33163.05
495.85	33645.20
496.02	33635.84
496.20	33823.08
496.38	34120.33
496.55	34054.79
496.73	34728.87
496.91	34078.20
497.09	34558.01
497.26	34759.30
497.44	34670.36
497.62	34738.23
497.79	35627.63
497.97	35765.73
498.14	35962.33
498.32	36133.19
498.50	36465.55
498.67	36753.43
498.85	36210.43
499.03	36690.24
499.20	36645.77
499.38	36500.65
499.56	36847.05
499.73	36858.76
499.91	37305.80
500.08	37186.43
500.26	37521.13
500.44	37373.67
500.61	37640.50
500.79	37731.78
500.97	38307.55
501.14	38539.26
501.32	38572.03
501.49	38513.52
501.67	38831.83
501.84	39182.91
502.02	38796.72
502.20	38993.32
502.37	39161.84
502.55	39203.97
502.72	39536.33
502.90	39503.56
503.07	39143.12
503.25	39339.72
503.43	39597.18
503.60	39838.26
503.78	40208.06
503.95	40093.38
504.13	40561.48
504.30	40505.31
504.48	40744.05
504.65	40549.78
504.83	41048.32
505.01	41177.04
505.18	41235.56
505.36	41476.63
505.53	41022.57
505.71	41415.78
505.88	41752.82
506.06	41273.01
506.23	41830.05
506.41	41727.07
506.58	41923.68
506.76	41928.36
506.93	42164.75
507.11	42094.53
507.28	42595.41
507.46	42787.33
507.63	43042.45
507.81	43346.72
507.98	42792.01
508.16	42909.04
508.33	43342.04
508.50	43536.30
508.68	43557.37
508.85	43611.20
509.03	43739.93
509.20	43903.77
509.38	44364.85
509.55	44114.42
509.73	44416.35
509.90	44285.28
510.08	44545.08
510.25	44746.36
510.42	44961.69
510.60	45141.91
510.77	44928.92
510.95	45270.64
511.12	45158.30
511.30	45198.09
511.47	45188.72
511.64	45338.52
511.82	45265.96
511.99	45586.61
512.17	45394.69
512.34	45886.20
512.51	46080.47
512.69	46202.18
512.86	46274.73
513.04	46473.68
513.21	46447.93
513.38	46539.21
513.56	46754.54
513.73	46241.96
513.90	47246.05
514.08	46782.63
514.25	47519.90
514.43	47269.46
514.60	47232.01
514.77	47325.63
514.95	47894.38
515.12	47667.35
515.29	47601.82
515.47	47980.98
515.64	48016.09
515.81	47878.00
515.99	47873.32
516.16	48105.03
516.33	48456.11
516.51	48561.44
516.68	48264.19
516.85	48491.22
517.03	48566.12
517.20	48568.46
517.37	48765.06
517.54	48664.42
517.72	48629.31
517.89	48924.22
518.06	48975.71
518.24	49104.44
518.41	48748.68
518.58	49230.83
518.75	49010.82
518.93	49518.71
519.10	49338.49
519.27	49521.05
519.45	49516.37
519.62	49663.83
519.79	49958.73
519.96	49839.37
520.14	50157.68
520.31	50197.47
520.48	50073.42
520.65	50398.76
520.83	50602.38
521.00	50813.03
521.17	50464.29
521.34	50717.07
521.52	51047.08
521.69	50761.54
521.86	50801.33
522.03	51339.65
522.20	51215.60
522.38	51405.19
522.55	51224.96
522.72	51159.43
522.89	51381.78
523.07	51533.92
523.24	51278.80
523.41	51409.87
523.58	51594.77
523.75	52053.51
523.92	51920.10
524.10	51870.95
524.27	52055.85
524.44	52222.03
524.61	52048.83
524.78	52079.26
524.96	52245.44
525.13	52528.64
525.30	52355.44
525.47	52512.26
525.64	52390.55
525.81	52566.09
525.98	52626.95
526.16	52512.26
526.33	52626.95
526.50	53027.18
526.67	52523.96
526.84	52870.36
527.01	52875.04
527.18	52788.44
527.36	53148.88
527.53	52994.41
527.70	53272.93
527.87	53439.11
528.04	53179.31
528.21	53237.83
528.38	53137.18
528.55	53284.64
528.72	53371.24
528.89	53506.99
529.07	53382.94
529.24	53492.94
529.41	53537.41
529.58	53741.04
529.75	53422.73
529.92	53677.85
530.09	53654.44
530.26	53928.28
530.43	54059.35
530.60	53932.96
530.77	53689.55
530.94	54021.90
531.11	54057.01
531.28	54035.95
531.46	54160.00
531.63	54181.06
531.80	54234.89
531.97	54429.16
532.14	54375.33
532.31	54277.02
532.48	54639.81
532.65	54658.53
532.82	54501.71
532.99	54698.32
533.16	54644.49
533.33	54475.97
533.50	54887.90
533.67	55044.72
533.84	54440.86
534.01	54798.96
534.18	55011.95
534.35	55145.36
534.52	54925.35
534.69	55283.45
534.86	55407.50
535.03	55178.13
535.20	55150.04
535.37	55437.93
535.54	55058.76
535.71	55133.66
535.88	55531.55
536.05	55547.93
536.22	55505.80
536.38	55664.96
536.55	55332.60
536.72	55473.04
536.89	55461.33
537.06	55220.26
537.23	55870.93
537.40	55561.98
537.57	55669.64
537.74	55877.95
537.91	55969.23
538.08	55828.80
538.25	55650.92
538.42	55868.59
538.59	56191.58
538.75	55819.44
538.92	55891.99
539.09	56261.80
539.26	56163.50
539.43	56018.38
539.60	56294.56
539.77	56413.93
539.94	56320.31
540.11	56090.94
540.28	56598.83
540.44	56577.77
540.61	56257.12
540.78	56559.05
540.95	56577.77
541.12	56432.66
541.29	56460.74
541.46	56528.62
541.62	56367.12
541.79	56573.09
541.96	56357.76
542.13	56493.51
542.30	56559.05
542.47	56835.23
542.63	56748.63
542.80	56743.95
542.97	57144.18
543.14	56989.70
543.31	57176.95
543.48	57113.75
543.64	57525.69
543.81	57373.55
543.98	57202.69
544.15	57279.93
544.32	57340.78
544.48	57577.18
544.65	57258.87
544.82	57413.34
544.99	57216.74
545.16	57167.58
545.32	57169.93
545.49	57546.75
545.66	57883.79
545.83	57607.61
546.00	57724.63
546.16	57499.94
546.33	57411.00
546.50	57364.19
546.67	57635.69
546.83	57598.24
547.00	57726.97
547.17	57839.32
547.34	57778.46
547.50	57977.41
547.67	58017.20
547.84	57991.45
548.00	58117.84
548.17	58080.39
548.34	58122.52
548.51	58136.57
548.67	58293.38
548.84	57986.77
549.01	58033.58
549.18	58152.95
549.34	58284.02
549.51	58497.01
549.68	58342.53
549.84	58349.56
550.01	58525.10
550.18	58181.04
550.34	58344.87
550.51	58314.45
550.68	58328.49
550.84	58227.85
551.01	58567.23
551.18	58319.13
551.34	58459.56
551.51	58534.46
551.68	58513.39
551.84	58562.54
552.01	58609.35
552.18	58588.29
552.34	58468.92
552.51	58473.60
552.68	58642.12
552.84	58522.76
553.01	58951.07
553.18	58733.40
553.34	58899.58
553.51	58646.80
553.67	58876.18
553.84	58773.19
554.01	59014.27
554.17	59058.74
554.34	58958.09
554.51	58962.78
554.67	58892.56
554.84	58974.48
555.00	58763.83
555.17	58953.41
555.33	59159.38
555.50	59150.02
555.67	59063.42
555.83	58981.50
556.00	58969.80
556.16	59391.09
556.33	59407.48
556.50	59358.33
556.66	59458.97
556.83	59030.65
556.99	59480.03
557.16	59622.81
557.32	59384.07
557.49	59568.97
557.65	59206.19
557.82	59271.73
557.98	59430.88
558.15	59461.31
558.32	59576.00
558.48	59365.35
558.65	59473.01
558.81	59442.59
558.98	59491.74
559.14	59587.70
559.31	59723.45
559.47	59737.49
559.64	59856.86
559.80	59648.55
559.97	59648.55
560.13	59590.04
560.30	59613.44
560.46	59739.83
560.63	59770.26
560.79	59763.24
560.96	59805.37
561.12	59688.34
561.29	59573.66
561.45	59812.39
561.61	59796.01
561.78	59835.80
561.94	59676.64
562.11	59828.77
562.27	59964.52
562.44	59882.61
562.60	59838.14
562.77	60009.00
562.93	59641.53
563.10	60119.00
563.26	59980.91
563.42	60151.77
563.59	60095.60
563.75	59807.71
563.92	60013.68
564.08	60067.51
564.24	60327.31
564.41	60039.42
564.57	60177.51
564.74	60119.00
564.90	60102.62
565.07	60102.62
565.23	60041.76
565.39	60177.51
565.56	60212.62
565.72	60093.25
565.88	60100.28
566.05	60156.45
566.21	60243.05
566.38	60121.34
566.54	60137.72
566.70	60287.52
566.87	60172.83
567.03	60086.23
567.19	60507.53
567.36	60224.32
567.52	60374.12
567.68	60481.78
567.85	60264.11
568.01	60427.95
568.17	60142.41
568.34	60088.57
568.50	60336.67
568.66	60198.58
568.83	60456.04
568.99	60252.41
569.15	60390.50
569.32	60172.83
569.48	60257.09
569.64	60549.66
569.81	60458.38
569.97	60273.48
570.13	60669.03
570.30	60221.98
570.46	60350.71
570.62	60449.02
570.78	60458.38
570.95	60355.39
571.11	60566.04
571.27	60507.53
571.43	60355.39
571.60	60619.88
571.76	60540.30
571.92	60470.08
572.09	60690.09
572.25	60591.79
572.41	60451.36
572.57	60310.92
572.74	60563.70
572.90	60584.77
573.06	60617.53
573.22	60664.35
573.38	60722.86
573.55	60552.00
573.71	60837.54
573.87	60739.24
574.03	60439.65
574.20	60757.97
574.36	60582.43
574.52	60608.17
574.68	60577.75
574.84	60818.82
575.01	60764.99
575.17	60610.51
575.33	60549.66
575.49	60715.84
575.65	60643.28
575.82	60687.75
575.98	60643.28
576.14	61013.08
576.30	60863.29
576.46	60650.30
576.62	60584.77
576.79	60828.18
576.95	60561.36
577.11	60863.29
577.27	60795.42
577.43	60828.18
577.59	60622.22
577.75	60872.65
577.92	60865.63
578.08	60762.65
578.24	60994.36
578.40	61066.92
578.56	61099.68
578.72	60638.60
578.88	61109.05
579.04	60942.87
579.21	60755.63
579.37	60989.68
579.53	60966.27
579.69	60596.47
579.85	60690.09
580.01	60704.13
580.17	60591.79
580.33	60837.54
580.49	60924.14
580.65	60802.44
580.82	60830.52
580.98	60718.18
581.14	60654.98
581.30	60980.32
581.46	60823.50
581.62	60907.76
581.78	60903.08
581.94	60931.17
582.10	60886.70
582.26	60891.38
582.42	60774.35
582.58	60977.98
582.74	60739.24
582.90	60910.10
583.06	60942.87
583.22	60823.50
583.38	60952.23
583.54	60858.61
583.70	60846.91
583.86	61118.41
584.02	60811.80
584.18	60935.85
584.34	61041.17
584.50	61066.92
584.66	61010.74
584.82	60694.77
584.98	61031.81
585.14	60987.34
585.30	60879.67
585.46	61057.56
585.62	61085.64
585.78	60968.61
585.94	60762.65
586.10	60865.63
586.26	60938.19
586.42	61052.87
586.58	61073.94
586.74	60970.96
586.90	60856.27
587.06	61155.86
587.22	61202.67
587.38	60844.57
587.54	61146.50
587.70	61190.97
587.86	61116.07
588.02	61043.51
588.18	61165.22
588.34	60903.08
588.49	60933.51
