SpectraSuite Data File
++++++++++++++++++++++++++++++++++++
Date: Fri Oct 25 11:24:09 EDT 2013
User: price-jones
Dark Spectrum Present: No
Reference Spectrum Present: No
Number of Sampled Component Spectra: 1
Spectrometers: USB2+H05261
Integration Time (usec): 100000 (USB2+H05261)
Spectra Averaged: 1 (USB2+H05261)
Boxcar Smoothing: 0 (USB2+H05261)
Correct for Electrical Dark: No (USB2+H05261)
Strobe/Lamp Enabled: No (USB2+H05261)
Correct for Detector Non-linearity: No (USB2+H05261)
Correct for Stray Light: No (USB2+H05261)
Number of Pixels in Processed Spectrum: 2048
>>>>>Begin Processed Spectral Data<<<<<
365.73	259.80
365.92	259.80
366.12	259.80
366.32	102.98
366.52	175.54
366.72	177.88
366.91	63.19
367.11	117.03
367.31	93.62
367.51	131.07
367.70	149.79
367.90	72.56
368.10	86.60
368.30	100.64
368.49	152.13
368.69	77.24
368.89	135.75
369.09	107.66
369.28	168.52
369.48	131.07
369.68	163.84
369.87	229.37
370.07	173.20
370.27	234.05
370.47	320.65
370.66	582.79
370.86	669.39
371.06	629.60
371.25	718.54
371.45	734.93
371.65	697.48
371.84	582.79
372.04	638.97
372.24	704.50
372.44	807.48
372.63	678.76
372.83	695.14
373.03	805.14
373.22	786.42
373.42	854.30
373.62	793.44
373.81	805.14
374.01	718.54
374.21	809.83
374.40	828.55
374.60	835.57
374.79	844.93
374.99	809.83
375.19	858.98
375.38	950.26
375.58	887.06
375.78	833.23
375.97	966.64
376.17	847.27
376.37	866.00
376.56	784.08
376.76	884.72
376.95	800.46
377.15	933.87
377.35	856.64
377.54	880.04
377.74	896.43
377.93	1008.77
378.13	873.02
378.33	940.90
378.52	936.21
378.72	987.71
378.91	978.34
379.11	1018.13
379.31	924.51
379.50	936.21
379.70	973.66
379.89	1093.03
380.09	1004.09
380.28	1004.09
380.48	1011.11
380.68	976.00
380.87	983.02
381.07	1071.97
381.26	1013.45
381.46	1086.01
381.65	1025.15
381.85	1057.92
382.04	1046.22
382.24	987.71
382.43	1053.24
382.63	1153.88
382.83	1121.12
383.02	1151.54
383.22	1071.97
383.41	1083.67
383.61	1064.94
383.80	1170.27
384.00	1146.86
384.19	1167.93
384.39	1104.73
384.58	1125.80
384.78	1109.41
384.97	1090.69
385.17	1172.61
385.36	1181.97
385.56	1144.52
385.75	1231.12
385.95	1198.35
386.14	1207.72
386.34	1160.91
386.53	1100.05
386.72	1259.21
386.92	1284.95
387.11	1324.74
387.31	1233.46
387.50	1238.14
387.70	1242.82
387.89	1303.68
388.09	1219.42
388.28	1228.78
388.48	1273.25
388.67	1277.93
388.86	1345.81
389.06	1329.42
389.25	1268.57
389.45	1284.95
389.64	1460.49
389.84	1327.08
390.03	1380.92
390.22	1343.47
390.42	1434.75
390.61	1336.45
390.81	1359.85
391.00	1453.47
391.19	1392.62
391.39	1418.36
391.58	1490.92
391.78	1516.67
391.97	1469.86
392.16	1425.39
392.36	1549.43
392.55	1490.92
392.75	1547.09
392.94	1577.52
393.13	1540.07
393.33	1516.67
393.52	1647.74
393.71	1617.31
393.91	1624.33
394.10	1519.01
394.29	1556.46
394.49	1645.40
394.68	1703.91
394.88	1743.70
395.07	1659.44
395.26	1692.21
395.46	1696.89
395.65	1776.47
395.84	1671.14
396.04	1818.60
396.23	1753.06
396.42	1739.02
396.62	1790.51
396.81	1771.79
397.00	1790.51
397.19	1778.81
397.39	1823.28
397.58	1799.87
397.77	1741.36
397.97	1771.79
398.16	1954.35
398.35	1926.26
398.55	1849.02
398.74	1877.11
398.93	1966.05
399.12	1933.28
399.32	1933.28
399.51	1926.26
399.70	2010.52
399.90	2031.58
400.09	2113.50
400.28	2043.29
400.47	1980.09
400.67	2127.55
400.86	2111.16
401.05	2160.31
401.24	2108.82
401.44	2127.55
401.63	2202.44
401.82	2047.97
402.01	2223.51
402.21	2244.57
402.40	2062.01
402.59	2230.53
402.78	2300.75
402.97	2342.88
403.17	2389.69
403.36	2298.41
403.55	2312.45
403.74	2275.00
403.93	2370.96
404.13	2392.03
404.32	2511.39
404.51	2387.35
404.70	2436.50
404.89	2389.69
405.09	2392.03
405.28	2431.82
405.47	2459.90
405.66	2525.44
405.85	2539.48
406.05	2539.48
406.24	2635.44
406.43	2495.01
406.62	2644.81
406.81	2731.41
407.00	2546.50
407.20	2626.08
407.39	2612.04
407.58	2689.28
407.77	2693.96
407.96	2883.54
408.15	2747.79
408.34	2806.30
408.54	2867.16
408.73	2789.92
408.92	2803.96
409.11	2888.22
409.30	2937.37
409.49	2787.58
409.68	2892.90
409.87	3016.95
410.07	2902.26
410.26	2981.84
410.45	3019.29
410.64	3110.57
410.83	3119.93
411.02	3089.51
411.21	3255.69
411.40	3122.27
411.59	3225.26
411.78	3169.09
411.98	3344.63
412.17	3283.77
412.36	3262.71
412.55	3323.56
412.74	3353.99
412.93	3478.04
413.12	3482.72
413.31	3543.57
413.50	3688.68
413.69	3534.21
413.88	3679.32
414.07	3644.21
414.26	3700.39
414.45	3611.45
414.64	3574.00
414.83	3681.66
415.02	3859.54
415.22	3861.88
415.41	3871.25
415.60	3922.74
415.79	3934.44
415.98	3934.44
416.17	4009.34
416.36	3925.08
416.55	3992.95
416.74	4182.54
416.93	4079.55
417.12	4084.23
417.31	4236.37
417.50	4227.01
417.69	4301.90
417.88	4252.75
418.07	4248.07
418.26	4311.27
418.45	4425.95
418.64	4606.17
418.83	4475.10
419.02	4341.69
419.21	4510.21
419.39	4470.42
419.58	4440.00
419.77	4664.69
419.96	4617.88
420.15	4758.31
420.34	4582.77
420.53	4617.88
420.72	4746.61
420.91	4854.27
421.10	4725.54
421.29	4779.37
421.48	4746.61
421.67	4826.18
421.86	4931.51
422.05	4873.00
422.24	4746.61
422.43	4940.87
422.61	4865.97
422.80	4950.23
422.99	5015.77
423.18	4910.44
423.37	4940.87
423.56	5055.56
423.75	5006.41
423.94	4936.19
424.13	4645.96
424.32	4648.30
424.50	5029.81
424.69	5149.18
424.88	5102.37
425.07	5022.79
425.26	4896.40
425.45	5064.92
425.64	4926.83
425.83	4891.72
426.01	5144.50
426.20	5076.62
426.39	5022.79
426.58	4954.91
426.77	5116.41
426.96	5181.95
427.15	5226.42
427.33	5123.43
427.52	5179.61
427.71	5310.68
427.90	5172.58
428.09	5401.96
428.28	5387.91
428.46	5423.02
428.65	5446.43
428.84	5551.75
429.03	5582.18
429.22	5296.63
429.40	5518.98
429.59	5444.09
429.78	5275.57
429.97	5397.28
430.16	5540.05
430.34	5668.78
430.53	5673.46
430.72	5811.55
430.91	5654.73
431.10	5673.46
431.28	5774.10
431.47	5987.09
431.66	6024.54
431.85	5785.80
432.03	6083.05
432.22	6108.80
432.41	5975.39
432.60	5909.85
432.79	5926.24
432.97	6129.86
433.16	6090.07
433.35	6043.26
433.54	6197.74
433.72	6162.63
433.91	6209.44
434.10	6204.76
434.28	6090.07
434.47	6160.29
434.66	6188.38
434.85	6494.99
435.03	6361.58
435.22	6303.06
435.41	6574.56
435.59	6298.38
435.78	6595.63
435.97	6520.73
436.16	6457.54
436.34	6502.01
436.53	6679.89
436.72	6794.58
436.90	6520.73
437.09	6656.48
437.28	6525.41
437.46	6764.15
437.65	6658.82
437.84	6740.74
438.02	6715.00
438.21	6944.37
438.40	6803.94
438.58	7162.04
438.77	7101.19
438.96	7012.24
439.14	6981.82
439.33	7314.17
439.52	7260.34
439.70	7248.64
439.89	7382.05
440.08	7644.19
440.26	7377.37
440.45	7358.64
440.63	7555.25
440.82	7826.75
441.01	7517.80
441.19	7683.98
441.38	7845.48
441.57	7866.54
441.75	7868.88
441.94	8039.74
442.12	7925.05
442.31	8173.15
442.50	8168.47
442.68	7918.03
442.87	7997.61
443.05	8327.63
443.24	8173.15
443.43	8245.71
443.61	8376.78
443.80	8629.56
443.98	8126.34
444.17	7932.08
444.35	8241.03
444.54	8320.60
444.73	8439.97
444.91	8341.67
445.10	8191.88
445.28	8414.23
445.47	8320.60
445.65	8358.05
445.84	8458.70
446.02	8526.57
446.21	8482.10
446.39	8615.51
446.58	8498.49
446.77	8463.38
446.95	8290.18
447.14	8517.21
447.32	8685.73
447.51	8388.48
447.69	8582.74
447.88	8702.11
448.06	8655.30
448.25	8428.27
448.43	8540.61
448.62	8655.30
448.80	8596.79
448.99	8634.24
449.17	8697.43
449.36	8650.62
449.54	8908.08
449.73	9039.15
449.91	9020.42
450.10	9036.81
450.28	9158.52
450.46	8966.59
450.65	8931.48
450.83	9118.73
451.02	9121.07
451.20	9301.29
451.39	9385.55
451.57	9198.31
451.76	9163.20
451.94	9394.91
452.13	9462.79
452.31	9392.57
452.49	9350.44
452.68	9312.99
452.86	9453.42
453.05	9640.67
453.23	9547.05
453.42	9289.59
453.60	9511.94
453.78	9521.30
453.97	9530.66
454.15	9502.58
454.34	9591.52
454.52	9879.40
454.70	9753.01
454.89	9848.97
455.07	10040.90
455.26	9867.70
455.44	10122.82
455.62	10038.56
455.81	10064.30
455.99	9982.38
456.17	9877.06
456.36	10211.76
456.54	10258.57
456.73	9970.68
456.91	10752.42
457.09	10569.86
457.28	10452.83
457.46	10518.37
457.64	10593.26
457.83	10635.39
458.01	10464.54
458.19	10778.17
458.38	10501.98
458.56	10920.94
458.74	10785.19
458.93	10766.46
459.11	10656.46
459.29	10663.48
459.48	10874.13
459.66	11087.12
459.84	11049.67
460.03	11379.68
460.21	10913.92
460.39	11248.61
460.57	11033.29
460.76	11304.79
460.94	11269.68
461.12	11304.79
461.31	11117.54
461.49	11229.89
461.67	11080.10
461.85	11433.52
462.04	11323.51
462.22	11962.48
462.40	11571.61
462.59	11726.08
462.77	11735.45
462.95	11700.34
463.13	11740.13
463.32	11566.93
463.50	11873.54
463.68	11798.64
463.86	11819.71
464.05	11538.84
464.23	11875.88
464.41	12074.82
464.59	11749.49
464.78	12414.20
464.96	12028.01
465.14	12123.98
465.32	12264.41
465.50	12294.83
465.69	12264.41
465.87	12283.13
466.05	11976.52
466.23	12442.29
466.41	12355.69
466.60	12421.22
466.78	12327.60
466.96	12248.02
467.14	12236.32
467.32	12456.33
467.51	12638.89
467.69	12212.92
467.87	12674.00
468.05	12807.41
468.23	12535.91
468.41	12690.38
468.60	12664.64
468.78	12681.02
468.96	12641.23
469.14	12882.31
469.32	13078.91
469.50	12556.97
469.69	13011.04
469.87	13359.78
470.05	13434.68
470.23	13303.60
470.41	13142.11
470.59	13099.98
470.77	13209.98
470.95	13406.59
471.14	13652.34
471.32	13252.11
471.50	13745.97
471.68	13619.58
471.86	13509.57
472.04	13806.82
472.22	14050.24
472.40	13820.86
472.58	13886.40
472.77	14057.26
472.95	13961.30
473.13	14658.78
473.31	14321.74
473.49	14242.16
473.67	14064.28
473.85	14525.36
474.03	14642.39
474.21	14785.16
474.39	14778.14
474.57	14750.06
474.75	14855.38
474.93	15108.16
475.12	14883.47
475.30	15080.07
475.48	15171.35
475.66	15442.85
475.84	15243.91
476.02	15492.01
476.20	15484.98
476.38	15674.57
476.56	15882.88
476.74	16095.86
476.92	15875.85
477.10	15955.43
477.28	16301.83
477.46	16306.51
477.64	16404.81
477.82	16767.60
478.00	17193.58
478.18	16940.80
478.36	16760.58
478.54	17273.15
478.72	17064.85
478.90	17547.00
479.08	17708.49
479.26	17727.22
479.44	17909.78
479.62	17767.01
479.80	18279.58
479.98	18235.11
480.16	18628.32
480.34	18464.49
480.52	18668.11
480.70	18796.84
480.88	18679.82
481.06	18981.74
481.24	19168.99
481.41	19187.71
481.59	19459.21
481.77	19927.32
481.95	19850.08
482.13	19920.30
482.31	19941.36
482.49	20386.07
482.67	20395.43
482.85	20489.05
483.03	21109.29
483.21	21238.02
483.39	21270.79
483.57	21032.05
483.74	21006.31
483.92	21734.21
484.10	21458.03
484.28	21731.87
484.46	22490.21
484.64	22225.73
484.82	22314.67
485.00	22574.47
485.18	22824.90
485.35	23358.55
485.53	23026.19
485.71	22960.66
485.89	23714.31
486.07	23452.17
486.25	23740.05
486.43	23777.50
486.61	24112.20
486.78	24205.82
486.96	24467.96
487.14	24582.65
487.32	24692.65
487.50	25135.01
487.68	25104.59
487.85	25500.14
488.03	25771.64
488.21	25802.07
488.39	25965.90
488.57	26113.36
488.75	26508.91
488.92	26506.57
489.10	27042.55
489.28	26953.61
489.46	27611.30
489.64	27410.01
489.81	28018.55
489.99	27859.40
490.17	27763.43
490.35	28479.64
490.53	28439.85
490.70	28608.37
490.88	28519.43
491.06	29027.32
491.24	29071.79
491.41	29221.59
491.59	29528.20
491.77	29844.17
491.95	29972.90
492.13	30143.76
492.30	30057.16
492.48	29958.86
492.66	30321.64
492.84	30567.40
493.01	31023.80
493.19	30960.61
493.37	31161.89
493.54	31494.25
493.72	31938.95
493.90	31908.52
494.08	31920.23
494.25	32268.97
494.43	32275.99
494.61	32360.25
494.79	32856.44
494.96	32617.71
495.14	33202.84
495.32	33563.28
495.49	33202.84
495.67	33881.60
495.85	33502.43
496.02	34078.20
496.20	34244.38
496.38	34075.86
496.55	34347.36
496.73	35239.11
496.91	34707.80
497.09	34913.77
497.26	35325.71
497.44	35590.19
497.62	35178.25
497.79	36362.56
497.97	35414.65
498.14	36584.91
498.32	36254.90
498.50	36210.43
498.67	36945.36
498.85	36723.01
499.03	37050.68
499.20	37046.00
499.38	36966.42
499.56	37123.24
499.73	37413.46
499.91	37930.72
500.08	37649.86
500.26	37762.20
500.44	37790.29
500.61	38007.96
500.79	38286.48
500.97	38007.96
501.14	39030.77
501.32	38778.00
501.49	38920.77
501.67	39269.51
501.84	39360.79
502.02	39321.00
502.20	39311.64
502.37	39555.05
502.55	39468.45
502.72	39592.50
502.90	39812.51
503.07	39941.24
503.25	40266.58
503.43	39964.65
503.60	40566.16
503.78	40528.72
503.95	40299.34
504.13	40720.64
504.30	41078.74
504.48	40748.73
504.65	40950.01
504.83	41317.48
505.01	42089.85
505.18	41647.49
505.36	41514.08
505.53	41727.07
505.71	41883.89
505.88	42302.84
506.06	41200.45
506.23	42520.51
506.41	42478.38
506.58	42199.86
506.76	42600.09
506.93	42897.34
507.11	42574.34
507.28	43110.33
507.46	43260.12
507.63	43468.43
507.81	43665.03
507.98	43571.41
508.16	43583.12
508.33	43325.66
508.50	43732.91
508.68	43934.20
508.85	44271.23
509.03	44229.10
509.20	44626.99
509.38	44374.22
509.55	44971.05
509.73	44439.75
509.90	45071.70
510.08	44615.29
510.25	44893.82
510.42	45305.75
510.60	45544.48
510.77	45626.40
510.95	45275.32
511.12	45661.51
511.30	45324.47
511.47	45989.19
511.64	45780.88
511.82	46274.73
511.99	45766.84
512.17	46188.13
512.34	46036.00
512.51	46689.01
512.69	46670.28
512.86	46855.18
513.04	46705.39
513.21	46941.78
513.38	46923.06
513.56	47262.44
513.73	47194.56
513.90	47402.87
514.08	47503.51
514.25	47372.44
514.43	47454.36
514.60	47545.64
514.77	47552.66
514.95	48491.22
515.12	47908.43
515.29	48102.69
515.47	48011.41
515.64	48334.40
515.81	47948.21
515.99	48856.34
516.16	49092.74
516.33	48456.11
516.51	48870.39
516.68	49057.63
516.85	48886.77
517.03	49081.03
517.20	49226.15
517.37	49148.91
517.54	48783.79
517.72	49134.87
517.89	49181.68
518.06	49275.30
518.24	49457.86
518.41	49602.97
518.58	49909.58
518.75	49378.28
518.93	49574.89
519.10	49483.61
519.27	50220.87
519.45	49902.56
519.62	50129.59
519.79	50265.34
519.96	50298.11
520.14	50396.42
520.31	50284.07
520.48	50555.57
520.65	50813.03
520.83	50782.60
521.00	51049.42
521.17	50733.45
521.34	50789.62
521.52	51056.45
521.69	51077.51
521.86	51299.86
522.03	51489.45
522.20	51444.98
522.38	51835.84
522.55	51985.64
522.72	51779.67
522.89	51639.24
523.07	52088.62
523.24	51611.15
523.41	51976.28
523.58	51744.56
523.75	52053.51
523.92	51959.89
524.10	52123.73
524.27	52217.35
524.44	52383.53
524.61	52222.03
524.78	52514.60
524.96	52554.39
525.13	52477.15
525.30	52568.43
525.47	52839.93
525.64	52678.44
525.81	52956.96
525.98	53188.67
526.16	52631.63
526.33	52914.83
526.50	53097.39
526.67	52669.08
526.84	53235.48
527.01	53155.91
527.18	53258.89
527.36	53139.52
527.53	53305.70
527.70	53663.80
527.87	53619.33
528.04	53474.22
528.21	53663.80
528.38	53628.69
528.55	53827.64
528.72	53460.18
528.89	53776.15
529.07	53584.22
529.24	53675.51
529.41	53764.45
529.58	53829.98
529.75	53890.83
529.92	54234.89
530.09	54155.32
530.26	54471.29
530.43	54227.87
530.60	54117.87
530.77	54073.40
530.94	54321.49
531.11	54216.17
531.28	54183.40
531.46	54473.63
531.63	54567.25
531.80	54356.60
531.97	54546.18
532.14	54761.51
532.31	54698.32
532.48	54873.86
532.65	54887.90
532.82	54850.45
532.99	54925.35
533.16	54834.07
533.33	54923.01
533.50	55054.08
533.67	55063.44
533.84	54967.48
534.01	55128.98
534.18	55068.12
534.35	55281.11
534.52	55374.73
534.69	55533.89
534.86	55547.93
535.03	55412.18
535.20	55430.91
535.37	55519.85
535.54	55215.58
535.71	55147.70
535.88	55693.05
536.05	55777.31
536.22	55723.47
536.38	55880.29
536.55	55606.45
536.72	55683.69
536.89	55798.37
537.06	55894.33
537.23	55915.40
537.40	55920.08
537.57	55999.66
537.74	56002.00
537.91	56011.36
538.08	56039.45
538.25	56023.06
538.42	55931.78
538.59	56381.16
538.75	56219.67
538.92	56371.80
539.09	56322.65
539.26	56198.60
539.43	56505.21
539.60	56444.36
539.77	56612.88
539.94	56605.86
540.11	56612.88
540.28	56633.94
540.44	56746.29
540.61	56617.56
540.78	56509.89
540.95	56633.94
541.12	56343.72
541.29	56701.82
541.46	56851.61
541.62	56928.85
541.79	56987.36
541.96	56390.53
542.13	56743.95
542.30	56912.47
542.47	57066.94
542.63	57102.05
542.80	57268.23
542.97	57158.22
543.14	57485.90
543.31	57305.68
543.48	57411.00
543.64	57858.04
543.81	57497.60
543.98	57602.92
544.15	57776.12
544.32	57834.64
544.48	57846.34
544.65	57488.24
544.82	57822.93
544.99	57513.98
545.16	57586.54
545.32	57689.52
545.49	57764.42
545.66	57801.87
545.83	57797.19
546.00	57860.38
546.16	58040.60
546.33	57902.51
546.50	57513.98
546.67	57982.09
546.83	57677.82
547.00	57846.34
547.17	58176.36
547.34	57937.62
547.50	58064.01
547.67	57975.07
547.84	58230.19
548.00	58363.60
548.17	58454.88
548.34	58166.99
548.51	58623.40
548.67	58351.90
548.84	58265.30
549.01	58321.47
549.18	58295.72
549.34	58319.13
549.51	58525.10
549.68	58550.84
549.84	58642.12
550.01	58646.80
550.18	58394.03
550.34	58724.04
550.51	58925.33
550.68	58539.14
550.84	58513.39
551.01	58820.00
551.18	58698.30
551.34	58539.14
551.51	58761.49
551.68	58574.25
551.84	58515.73
552.01	58597.65
552.18	58808.30
552.34	58672.55
552.51	58894.90
552.68	58777.87
552.84	58738.08
553.01	59168.74
553.18	58960.44
553.34	59065.76
553.51	59042.35
553.67	59196.83
553.84	59140.66
554.01	59164.06
554.17	59100.87
554.34	59210.87
554.51	59117.25
554.67	59290.45
554.84	59391.09
555.00	59245.98
555.17	59213.21
555.33	59264.70
555.50	59035.33
555.67	59049.38
555.83	59262.36
556.00	59215.55
556.16	59587.70
556.33	59512.80
556.50	59271.73
556.66	59440.24
556.83	59344.28
556.99	59618.13
557.16	59767.92
557.32	59550.25
557.49	59611.10
557.65	59561.95
557.82	59538.55
557.98	59587.70
558.15	59374.71
558.32	59690.68
558.48	59402.80
558.65	59442.59
558.81	59662.60
558.98	59643.87
559.14	59730.47
559.31	59826.43
559.47	59952.82
559.64	59891.97
559.80	59861.54
559.97	59948.14
560.13	59803.03
560.30	59803.03
560.46	59845.16
560.63	59873.24
560.79	60044.10
560.96	60151.77
561.12	60100.28
561.29	60196.24
561.45	60037.08
561.61	60151.77
561.78	60006.65
561.94	60107.30
562.11	60058.15
562.27	60224.32
562.44	60357.74
562.60	60151.77
562.77	60060.49
562.93	59950.48
563.10	60257.09
563.26	60107.30
563.42	60470.08
563.59	60238.37
563.75	60097.94
563.92	60430.29
564.08	60020.70
564.24	60196.24
564.41	60310.92
564.57	60224.32
564.74	60357.74
564.90	60179.85
565.07	60238.37
565.23	60247.73
565.39	60348.37
565.56	60505.19
565.72	60247.73
565.88	60507.53
566.05	60320.29
566.21	60310.92
566.38	60619.88
566.54	60481.78
566.70	60561.36
566.87	60577.75
567.03	60294.54
567.19	60573.06
567.36	60629.24
567.52	60596.47
567.68	60802.44
567.85	60449.02
568.01	60591.79
568.17	60493.49
568.34	60509.87
568.50	60413.91
568.66	60367.10
568.83	60631.58
568.99	60540.30
569.15	60540.30
569.32	60554.34
569.48	60566.04
569.64	60631.58
569.81	60360.08
569.97	60432.63
570.13	60584.77
570.30	60486.46
570.46	60739.24
570.62	60795.42
570.78	60776.69
570.95	60561.36
571.11	60669.03
571.27	60666.69
571.43	60863.29
571.60	60893.72
571.76	60580.09
571.92	60874.99
572.09	60757.97
572.25	60802.44
572.41	60626.90
572.57	60739.24
572.74	60830.52
572.90	60830.52
573.06	60711.16
573.22	60886.70
573.38	60793.07
573.55	60755.63
573.71	60907.76
573.87	60938.19
574.03	60788.39
574.20	60814.14
574.36	60870.31
574.52	60858.61
574.68	60985.00
574.84	60973.30
575.01	60982.66
575.17	60860.95
575.33	60776.69
575.49	60750.94
575.65	60921.80
575.82	60945.21
575.98	61134.79
576.14	61240.12
576.30	60938.19
576.46	60898.40
576.62	60896.06
576.79	60963.93
576.95	60788.39
577.11	61153.52
577.27	61099.68
577.43	61113.73
577.59	60931.17
577.75	60968.61
577.92	60921.80
578.08	60903.08
578.24	61076.28
578.40	61148.84
578.56	61123.09
578.72	61186.28
578.88	61300.97
579.04	61268.20
579.21	61326.72
579.37	61228.41
579.53	61125.43
579.69	61001.38
579.85	61008.40
580.01	61162.88
580.17	60844.57
580.33	61197.99
580.49	61085.64
580.65	61183.94
580.82	61083.30
580.98	60935.85
581.14	61095.00
581.30	61298.63
581.46	60940.53
581.62	61202.67
581.78	61106.71
581.94	61331.40
582.10	60865.63
582.26	61099.68
582.42	61120.75
582.58	61102.03
582.74	61153.52
582.90	61155.86
583.06	61125.43
583.22	60879.67
583.38	61179.26
583.54	61207.35
583.70	61015.43
583.86	60996.70
584.02	61127.77
584.18	61331.40
584.34	60980.32
584.50	61043.51
584.66	61041.17
584.82	60774.35
584.98	61230.75
585.14	61450.77
585.30	60973.30
585.46	61331.40
585.62	61251.82
585.78	61336.08
585.94	61073.94
586.10	60994.36
586.26	61031.81
586.42	61197.99
586.58	61357.14
586.74	61375.87
586.90	61322.04
587.06	61078.62
587.22	61413.32
587.38	61195.65
587.54	61432.04
587.70	61298.63
587.86	61139.47
588.02	61429.70
588.18	61226.07
588.34	61235.44
588.49	61244.80
