SpectraSuite Data File
++++++++++++++++++++++++++++++++++++
Date: Fri Oct 25 11:25:49 EDT 2013
User: price-jones
Dark Spectrum Present: No
Reference Spectrum Present: No
Number of Sampled Component Spectra: 1
Spectrometers: USB2+H05261
Integration Time (usec): 100000 (USB2+H05261)
Spectra Averaged: 1 (USB2+H05261)
Boxcar Smoothing: 0 (USB2+H05261)
Correct for Electrical Dark: No (USB2+H05261)
Strobe/Lamp Enabled: No (USB2+H05261)
Correct for Detector Non-linearity: No (USB2+H05261)
Correct for Stray Light: No (USB2+H05261)
Number of Pixels in Processed Spectrum: 2048
>>>>>Begin Processed Spectral Data<<<<<
365.73	257.46
365.92	257.46
366.12	257.46
366.32	53.83
366.52	121.71
366.72	159.16
366.91	102.98
367.11	187.24
367.31	128.73
367.51	173.20
367.70	161.50
367.90	102.98
368.10	100.64
368.30	187.24
368.49	147.45
368.69	194.26
368.89	147.45
369.09	102.98
369.28	159.16
369.48	117.03
369.68	177.88
369.87	189.58
370.07	149.79
370.27	262.14
370.47	325.33
370.66	545.34
370.86	573.43
371.06	713.86
371.25	688.12
371.45	657.69
371.65	683.44
371.84	641.31
372.04	631.94
372.24	767.70
372.44	650.67
372.63	770.04
372.83	699.82
373.03	688.12
373.22	713.86
373.42	741.95
373.62	758.33
373.81	821.53
374.01	774.72
374.21	842.59
374.40	772.38
374.60	840.25
374.79	866.00
374.99	760.67
375.19	779.40
375.38	821.53
375.58	856.64
375.78	896.43
375.97	896.43
376.17	844.93
376.37	833.23
376.56	800.46
376.76	908.13
376.95	908.13
377.15	851.96
377.35	882.38
377.54	905.79
377.74	945.58
377.93	851.96
378.13	875.36
378.33	931.53
378.52	877.70
378.72	999.41
378.91	952.60
379.11	976.00
379.31	1013.45
379.50	931.53
379.70	961.96
379.89	1020.47
380.09	947.92
380.28	1004.09
380.48	1022.81
380.68	983.02
380.87	952.60
381.07	1018.13
381.26	985.37
381.46	1043.88
381.65	1076.65
381.85	933.87
382.04	1074.31
382.24	1043.88
382.43	1064.94
382.63	912.81
382.83	1025.15
383.02	1034.52
383.22	1151.54
383.41	1104.73
383.61	1130.48
383.80	1170.27
384.00	1132.82
384.19	1064.94
384.39	1165.59
384.58	1128.14
384.78	1090.69
384.97	1160.91
385.17	1109.41
385.36	1041.54
385.56	1139.84
385.75	1200.69
385.95	1132.82
386.14	1212.40
386.34	1198.35
386.53	1277.93
386.72	1231.12
386.92	1226.44
387.11	1256.87
387.31	1238.14
387.50	1355.17
387.70	1252.19
387.89	1100.05
388.09	1303.68
388.28	1259.21
388.48	1320.06
388.67	1313.04
388.86	1294.32
389.06	1324.74
389.25	1303.68
389.45	1331.76
389.64	1341.13
389.84	1409.00
390.03	1345.81
390.22	1430.07
390.42	1373.89
390.61	1352.83
390.81	1266.23
391.00	1434.75
391.19	1441.77
391.39	1458.15
391.58	1378.58
391.78	1493.26
391.97	1509.65
392.16	1474.54
392.36	1427.73
392.55	1453.47
392.75	1577.52
392.94	1537.73
393.13	1523.69
393.33	1490.92
393.52	1495.60
393.71	1544.75
393.91	1640.72
394.10	1570.50
394.29	1636.03
394.49	1509.65
394.68	1689.87
394.88	1547.09
395.07	1636.03
395.26	1640.72
395.46	1748.38
395.65	1771.79
395.84	1715.61
396.04	1811.57
396.23	1762.42
396.42	1743.70
396.62	1736.68
396.81	1788.17
397.00	1778.81
397.19	1774.13
397.39	1748.38
397.58	1767.10
397.77	1734.34
397.97	1746.04
398.16	1898.17
398.35	1947.33
398.55	1769.44
398.74	1858.39
398.93	1902.86
399.12	1846.68
399.32	1898.17
399.51	1923.92
399.70	1980.09
399.90	1982.43
400.09	2017.54
400.28	2008.18
400.47	2012.86
400.67	2064.35
400.86	2094.78
401.05	2097.12
401.24	2153.29
401.44	2064.35
401.63	2125.21
401.82	2118.18
402.01	2033.93
402.21	2120.53
402.40	2099.46
402.59	2260.96
402.78	2214.15
402.97	2148.61
403.17	2260.96
403.36	2193.08
403.55	2319.47
403.74	2452.88
403.93	2289.04
404.13	2399.05
404.32	2368.62
404.51	2326.49
404.70	2420.11
404.89	2277.34
405.09	2424.80
405.28	2450.54
405.47	2525.44
405.66	2562.89
405.85	2558.21
406.05	2487.99
406.24	2560.55
406.43	2541.82
406.62	2649.49
406.81	2705.66
407.00	2544.16
407.20	2502.03
407.39	2544.16
407.58	2775.88
407.77	2616.72
407.96	2761.83
408.15	2794.60
408.34	2649.49
408.54	2839.07
408.73	2719.70
408.92	2771.19
409.11	2869.50
409.30	2752.47
409.49	2949.08
409.68	2967.80
409.87	3028.65
410.07	3030.99
410.26	3056.74
410.45	2939.71
410.64	3042.70
410.83	3133.98
411.02	3159.72
411.21	3115.25
411.40	3197.17
411.59	3213.56
411.78	3164.40
411.98	3262.71
412.17	3339.94
412.36	3187.81
412.55	3335.26
412.74	3361.01
412.93	3288.45
413.12	3398.46
413.31	3529.53
413.50	3520.17
413.69	3344.63
413.88	3466.33
414.07	3552.93
414.26	3735.50
414.45	3571.66
414.64	3702.73
414.83	3681.66
415.02	3815.07
415.22	3810.39
415.41	3810.39
415.60	3653.58
415.79	3866.56
415.98	4056.15
416.17	3960.19
416.36	3999.98
416.55	3871.25
416.74	4079.55
416.93	3995.29
417.12	4107.64
417.31	4124.02
417.50	4252.75
417.69	4304.25
417.88	4306.59
418.07	4325.31
418.26	4219.99
418.45	4428.29
418.64	4517.23
418.83	4435.32
419.02	4236.37
419.21	4491.49
419.39	4428.29
419.58	4393.19
419.77	4552.34
419.96	4458.72
420.15	4601.49
420.34	4587.45
420.53	4617.88
420.72	4723.20
420.91	4643.62
421.10	4676.39
421.29	4854.27
421.48	4706.82
421.67	4741.93
421.86	4660.01
422.05	4758.31
422.24	4791.08
422.43	4875.34
422.61	4971.30
422.80	4945.55
422.99	4975.98
423.18	4959.60
423.37	5015.77
423.56	4929.17
423.75	4870.65
423.94	4791.08
424.13	4496.17
424.32	4744.27
424.50	4992.36
424.69	5071.94
424.88	5081.30
425.07	4957.25
425.26	5015.77
425.45	5036.83
425.64	4858.95
425.83	5008.75
426.01	4983.00
426.20	5043.85
426.39	5020.45
426.58	4975.98
426.77	5139.82
426.96	4992.36
427.15	5156.20
427.33	5146.84
427.52	5095.35
427.71	5277.91
427.90	5282.59
428.09	5296.63
428.28	5203.01
428.46	5441.75
428.65	5291.95
428.84	5509.62
429.03	5481.53
429.22	5235.78
429.40	5455.79
429.59	5472.17
429.78	5291.95
429.97	5130.45
430.16	5380.89
430.34	5488.56
430.53	5621.97
430.72	5561.11
430.91	5633.67
431.10	5614.95
431.28	5708.57
431.47	5727.29
431.66	5856.02
431.85	5778.78
432.03	5914.53
432.22	5912.19
432.41	6022.20
432.60	5984.75
432.79	5902.83
432.97	6045.60
433.16	6005.81
433.35	5851.34
433.54	6097.10
433.72	6195.40
433.91	5947.30
434.10	6239.87
434.28	6111.14
434.47	6169.65
434.66	6214.12
434.85	6375.62
435.03	6382.64
435.22	6150.93
435.41	6469.24
435.59	6291.36
435.78	6326.47
435.97	6307.74
436.16	6455.20
436.34	6359.24
436.53	6532.44
436.72	6635.42
436.90	6375.62
437.09	6649.46
437.28	6452.86
437.46	6635.42
437.65	6588.61
437.84	6635.42
438.02	6633.08
438.21	6626.06
438.40	6532.44
438.58	7023.95
438.77	6930.33
438.96	6981.82
439.14	7164.38
439.33	7115.23
439.52	7169.06
439.70	7283.75
439.89	7330.56
440.08	7234.60
440.26	7342.26
440.45	7297.79
440.63	7489.71
440.82	7618.44
441.01	7454.61
441.19	7613.76
441.38	7803.35
441.57	7665.25
441.75	7686.32
441.94	7939.10
442.12	7929.74
442.31	7962.50
442.50	7934.42
442.68	7889.95
442.87	7946.12
443.05	8105.28
443.24	8252.73
443.43	7941.44
443.61	8145.06
443.80	8461.04
443.98	7999.95
444.17	7873.56
444.35	8065.49
444.54	8290.18
444.73	8344.01
444.91	8318.26
445.10	8224.64
445.28	8446.99
445.47	8128.68
445.65	8180.17
445.84	8346.35
446.02	8344.01
446.21	8418.91
446.39	8344.01
446.58	8346.35
446.77	8411.89
446.95	8271.45
447.14	8437.63
447.32	8418.91
447.51	8407.20
447.69	8514.87
447.88	8386.14
448.06	8514.87
448.25	8538.27
448.43	8629.56
448.62	8594.45
448.80	8507.85
448.99	8517.21
449.17	8592.11
449.36	8475.08
449.54	8734.88
449.73	8919.78
449.91	8872.97
450.10	9100.00
450.28	9071.92
450.46	9289.59
450.65	9022.77
450.83	9062.55
451.02	8758.28
451.20	9137.45
451.39	9085.96
451.57	9212.35
451.76	8917.44
451.94	9191.28
452.13	9235.75
452.31	9334.06
452.49	9039.15
452.68	9174.90
452.86	9111.71
453.05	9369.16
453.23	9305.97
453.42	9308.31
453.60	9301.29
453.78	9563.43
453.97	9341.08
454.15	9490.87
454.34	9392.57
454.52	9696.84
454.70	9462.79
454.89	9584.49
455.07	9488.53
455.26	9614.92
455.44	9825.57
455.62	9860.68
455.81	9748.33
455.99	10120.48
456.17	9930.89
456.36	9944.94
456.54	10218.78
456.73	10251.55
456.91	10200.05
457.09	10436.45
457.28	10651.78
457.46	10167.29
457.64	10602.63
457.83	10361.55
458.01	10436.45
458.19	10736.04
458.38	10469.22
458.56	10551.14
458.74	10724.33
458.93	10525.39
459.11	10789.87
459.29	10839.02
459.48	10862.43
459.66	10780.51
459.84	10925.62
460.03	10958.39
460.21	11103.50
460.39	10909.24
460.57	11110.52
460.76	11068.39
460.94	11197.12
461.12	11309.47
461.31	11042.65
461.49	11080.10
461.67	11002.86
461.85	11449.90
462.04	11218.19
462.22	11609.06
462.40	11384.37
462.59	11562.25
462.77	11225.21
462.95	11513.10
463.13	11550.54
463.32	11393.73
463.50	11716.72
463.68	11686.29
463.86	11810.34
464.05	11751.83
464.23	11435.86
464.41	11796.30
464.59	11719.06
464.78	12063.12
464.96	12123.98
465.14	11822.05
465.32	12009.29
465.50	12292.49
465.69	12098.23
465.87	12123.98
466.05	12039.72
466.23	11978.86
466.41	12109.93
466.60	12257.39
466.78	12088.87
466.96	12435.27
467.14	12231.64
467.32	12187.17
467.51	12404.84
467.69	11985.88
467.87	12435.27
468.05	12519.53
468.23	12325.26
468.41	12264.41
468.60	12496.12
468.78	12615.49
468.96	12353.35
469.14	12697.41
469.32	12957.21
469.50	12432.93
469.69	12936.14
469.87	13085.94
470.05	13104.66
470.23	13312.97
470.41	13188.92
470.59	13158.49
470.77	13074.23
470.95	13245.09
471.14	13441.70
471.32	13123.38
471.50	13605.53
471.68	13540.00
471.86	13837.25
472.04	13530.64
472.22	13783.41
472.40	13497.87
472.58	13635.96
472.77	13926.19
472.95	14043.21
473.13	14303.01
473.31	13982.36
473.49	14202.37
473.67	14111.09
473.85	14059.60
474.03	14686.86
474.21	14328.76
474.39	14345.14
474.57	14490.26
474.75	14726.65
474.93	14920.92
475.12	14974.75
475.30	14949.00
475.48	15082.41
475.66	15318.81
475.84	15054.33
476.02	15492.01
476.20	15300.08
476.38	15538.82
476.56	16018.63
476.74	15688.61
476.92	15960.11
477.10	15754.15
477.28	16196.51
477.46	16196.51
477.64	16248.00
477.82	16224.59
478.00	16809.73
478.18	16561.63
478.36	16570.99
478.54	17167.83
478.72	17394.86
478.90	17294.22
479.08	17802.11
479.26	17654.66
479.44	17720.20
479.62	17710.83
479.80	17919.14
479.98	18001.06
480.16	18263.20
480.34	18071.28
480.52	18429.38
480.70	18647.05
480.88	18469.17
481.06	18511.30
481.24	18644.71
481.41	18988.77
481.59	19138.56
481.77	19236.86
481.95	19454.53
482.13	19470.92
482.31	19499.00
482.49	20004.56
482.67	20025.62
482.85	20414.15
483.03	20500.75
483.21	20617.78
483.39	20697.36
483.57	20650.55
483.74	21146.74
483.92	21436.97
484.10	21179.51
484.28	21528.25
484.46	21720.17
484.64	22199.98
484.82	21631.23
485.00	22438.72
485.18	22909.16
485.35	22965.34
485.53	22771.07
485.71	23070.66
485.89	23463.87
486.07	23236.84
486.25	23234.50
486.43	23388.97
486.61	23913.25
486.78	24269.01
486.96	24056.03
487.14	24269.01
487.32	24830.74
487.50	24797.98
487.68	24896.28
487.85	25401.83
488.03	25692.06
488.21	25975.27
488.39	25825.47
488.57	25928.45
488.75	25729.51
488.92	26253.79
489.10	26576.78
489.28	26443.37
489.46	26649.34
489.64	26881.05
489.81	27358.52
489.99	27517.68
490.17	27779.82
490.35	27730.67
490.53	28519.43
490.70	28184.73
490.88	28460.91
491.06	28577.94
491.24	28559.22
491.41	28898.59
491.59	29200.52
491.77	29221.59
491.95	29666.29
492.13	29689.70
492.30	29848.85
492.48	30246.74
492.66	29982.26
492.84	30113.33
493.01	30511.22
493.19	30574.42
493.37	31171.25
493.54	31030.82
493.72	31255.51
493.90	31456.80
494.08	31332.75
494.25	32109.81
494.43	31847.67
494.61	32226.84
494.79	32421.10
494.96	32161.30
495.14	32486.64
495.32	33090.49
495.49	33127.94
495.67	33167.73
495.85	33247.31
496.02	33663.93
496.20	33649.88
496.38	33773.93
496.55	33900.32
496.73	34426.94
496.91	34202.25
497.09	34113.31
497.26	34944.20
497.44	34518.22
497.62	35075.27
497.79	35641.68
497.97	35377.20
498.14	35543.38
498.32	35906.16
498.50	35983.40
498.67	36383.63
498.85	36304.05
499.03	36268.94
499.20	36638.75
499.38	36985.15
499.56	37127.92
499.73	37106.85
499.91	37069.40
500.08	37352.61
500.26	37483.68
500.44	37338.57
500.61	37818.38
500.79	37467.30
500.97	37930.72
501.14	38345.00
501.32	38391.81
501.49	38258.40
501.67	38195.20
501.84	38670.33
502.02	38962.90
502.20	38684.37
502.37	38892.68
502.55	39262.49
502.72	39318.66
502.90	39108.01
503.07	39346.75
503.25	40121.46
503.43	39433.35
503.60	40154.23
503.78	40191.68
503.95	40531.06
504.13	40584.89
504.30	40711.28
504.48	40095.72
504.65	40570.85
504.83	40767.45
505.01	41001.50
505.18	40886.82
505.36	41296.41
505.53	41099.81
505.71	41146.62
505.88	41666.22
506.06	41060.02
506.23	41823.03
506.41	41698.98
506.58	41715.37
506.76	42024.32
506.93	42347.31
507.11	41970.49
507.28	42281.78
507.46	42447.96
507.63	42923.08
507.81	42986.28
507.98	42960.53
508.16	43138.41
508.33	42962.87
508.50	43215.65
508.68	43615.88
508.85	43922.49
509.03	43658.01
509.20	44086.33
509.38	43929.51
509.55	43892.07
509.73	44556.78
509.90	44526.35
510.08	44254.85
510.25	44648.06
510.42	44751.04
510.60	44678.49
510.77	44814.24
510.95	45406.39
511.12	44947.65
511.30	45172.34
511.47	45610.02
511.64	45579.59
511.82	46061.74
511.99	45610.02
512.17	45619.38
512.34	45839.39
512.51	46197.49
512.69	46300.48
512.86	46021.95
513.04	46635.17
513.21	46305.16
513.38	46536.87
513.56	46787.31
513.73	46473.68
513.90	46885.61
514.08	46653.90
514.25	47224.99
514.43	46958.17
514.60	47274.14
514.77	47100.94
514.95	47224.99
515.12	47512.88
515.29	47629.90
515.47	47833.53
515.64	47622.88
515.81	47578.41
515.99	48423.34
516.16	48086.31
516.33	48088.65
516.51	48662.08
516.68	48540.37
516.85	48327.38
517.03	48734.63
517.20	48772.08
517.37	48851.66
517.54	48507.60
517.72	48608.25
517.89	49200.40
518.06	49029.54
518.24	49052.95
518.41	49059.97
518.58	49256.57
518.75	49153.59
518.93	49378.28
519.10	49294.02
519.27	49436.80
519.45	49509.35
519.62	49799.58
519.79	49837.03
519.96	49642.76
520.14	50059.38
520.31	49750.43
520.48	50230.24
520.65	50216.19
520.83	50342.58
521.00	50520.46
521.17	50459.61
521.34	50590.68
521.52	50429.18
521.69	50571.96
521.86	50822.39
522.03	50841.12
522.20	50866.86
522.38	51304.54
522.55	51138.36
522.72	51505.83
522.89	51061.13
523.07	51114.96
523.24	51311.56
523.41	51346.67
523.58	51222.62
523.75	51526.89
523.92	51370.08
524.10	51639.24
524.27	51831.16
524.44	51824.14
524.61	51873.29
524.78	52381.19
524.96	51971.60
525.13	52418.64
525.30	52097.98
525.47	52549.71
525.64	52554.39
525.81	52568.43
525.98	52884.40
526.16	52254.80
526.33	52395.23
526.50	52886.74
526.67	52528.64
526.84	52743.97
527.01	52636.31
527.18	52741.63
527.36	52940.58
527.53	52772.06
527.70	53312.72
527.87	53167.61
528.04	53003.77
528.21	53560.82
528.38	53485.92
528.55	53354.85
528.72	53560.82
528.89	53317.40
529.07	53361.87
529.24	53441.45
529.41	53331.45
529.58	53682.53
529.75	53516.35
529.92	53710.61
530.09	53420.39
530.26	53874.45
530.43	53907.22
530.60	53717.64
530.77	53773.81
530.94	53701.25
531.11	53961.05
531.28	53923.60
531.46	54049.99
531.63	54185.74
531.80	53991.48
531.97	54286.39
532.14	54136.59
532.31	54370.64
532.48	54164.68
532.65	54473.63
532.82	54300.43
532.99	54508.74
533.16	54314.47
533.33	54475.97
533.50	54611.72
533.67	54581.29
533.84	54600.02
534.01	54733.43
534.18	54649.17
534.35	54946.42
534.52	54878.54
534.69	54988.55
534.86	55161.75
535.03	55077.49
535.20	55210.90
535.37	55119.62
535.54	55180.47
535.71	55171.11
535.88	55377.08
536.05	55388.78
536.22	55566.66
536.38	55451.97
536.55	55524.53
536.72	55491.76
536.89	55426.23
537.06	55412.18
537.23	55529.21
537.40	55725.81
537.57	55559.64
537.74	55805.39
537.91	55772.63
538.08	55962.21
538.25	55449.63
538.42	55590.06
538.59	56109.66
538.75	55950.51
538.92	55796.03
539.09	55828.80
539.26	55992.64
539.43	56226.69
539.60	55920.08
539.77	55915.40
539.94	56179.88
540.11	56104.98
540.28	56364.78
540.44	56362.44
540.61	56236.05
540.78	56198.60
540.95	56411.59
541.12	56315.63
541.29	56346.06
541.46	56713.52
541.62	56231.37
541.79	56647.99
541.96	56186.90
542.13	56568.41
542.30	56638.62
542.47	56825.87
542.63	56603.52
542.80	56825.87
542.97	56877.36
543.14	57013.11
543.31	57167.58
543.48	56985.02
543.64	57312.70
543.81	57279.93
543.98	57319.72
544.15	57153.54
544.32	57354.83
544.48	57200.35
544.65	57228.44
544.82	57298.65
544.99	57144.18
545.16	57375.89
545.32	57460.15
545.49	57675.48
545.66	57572.50
545.83	57471.85
546.00	57750.38
546.16	57347.81
546.33	57408.66
546.50	57235.46
546.67	57488.24
546.83	57436.75
547.00	57631.01
547.17	57506.96
547.34	57558.45
547.50	57848.68
547.67	57872.09
547.84	57855.70
548.00	57911.88
548.17	58230.19
548.34	57759.74
548.51	58005.50
548.67	58370.62
548.84	57968.05
549.01	57982.09
549.18	58049.97
549.34	58131.89
549.51	58323.81
549.68	58223.17
549.84	58258.27
550.01	58337.85
550.18	58148.27
550.34	58422.11
550.51	58403.39
550.68	58443.18
550.84	57965.71
551.01	58356.58
551.18	58391.68
551.34	58330.83
551.51	58508.71
551.68	58321.47
551.84	58363.60
552.01	58251.25
552.18	58457.22
552.34	58309.77
552.51	58754.47
552.68	58403.39
552.84	58431.47
553.01	58768.51
553.18	58588.29
553.34	58801.28
553.51	58702.98
553.67	58789.58
553.84	58908.94
554.01	58913.62
554.17	58871.49
554.34	58969.80
554.51	58775.53
554.67	58820.00
554.84	58857.45
555.00	58972.14
555.17	58852.77
555.33	59049.38
555.50	58913.62
555.67	58899.58
555.83	58656.17
556.00	59267.05
556.16	59103.21
556.33	59089.16
556.50	59011.93
556.66	59367.69
556.83	58990.86
556.99	59182.79
557.16	59473.01
557.32	59435.56
557.49	59299.81
557.65	59238.96
557.82	59330.24
557.98	59009.59
558.15	59297.47
558.32	59360.67
558.48	59313.86
558.65	59370.03
558.81	59412.16
558.98	59346.62
559.14	59458.97
559.31	59655.57
559.47	59533.87
559.64	59690.68
559.80	59636.85
559.97	59700.04
560.13	59524.50
560.30	59522.16
560.46	59697.70
560.63	59735.15
560.79	59639.19
560.96	59671.96
561.12	59697.70
561.29	59728.13
561.45	59674.30
561.61	59803.03
561.78	59540.89
561.94	59793.67
562.11	59725.79
562.27	59826.43
562.44	59763.24
562.60	59990.27
562.77	59880.27
562.93	59601.74
563.10	59985.59
563.26	59812.39
563.42	60121.34
563.59	59854.52
563.75	59756.22
563.92	59765.58
564.08	59898.99
564.24	60147.09
564.41	59934.10
564.57	60069.85
564.74	59866.22
564.90	60083.89
565.07	60051.12
565.23	59915.37
565.39	59938.78
565.56	60060.49
565.72	59922.40
565.88	60409.23
566.05	59831.11
566.21	60100.28
566.38	60072.19
566.54	60055.81
566.70	60200.92
566.87	60329.65
567.03	60058.15
567.19	60268.79
567.36	60158.79
567.52	60240.71
567.68	60406.89
567.85	60292.20
568.01	60317.95
568.17	60308.58
568.34	60425.61
568.50	60196.24
568.66	60224.32
568.83	60229.01
568.99	60247.73
569.15	60310.92
569.32	60346.03
569.48	60324.97
569.64	60432.63
569.81	60458.38
569.97	60009.00
570.13	60367.10
570.30	60399.86
570.46	60177.51
570.62	60594.13
570.78	60509.87
570.95	60210.28
571.11	60547.32
571.27	60282.84
571.43	60317.95
571.60	60727.54
571.76	60516.89
571.92	60509.87
572.09	60601.15
572.25	60521.57
572.41	60500.51
572.57	60514.55
572.74	60631.58
572.90	60441.99
573.06	60573.06
573.22	60608.17
573.38	60699.45
573.55	60612.85
573.71	60858.61
573.87	60547.32
574.03	60437.31
574.20	60865.63
574.36	60601.15
574.52	60577.75
574.68	60617.53
574.84	60701.79
575.01	60544.98
575.17	60479.44
575.33	60573.06
575.49	60552.00
575.65	60638.60
575.82	60767.33
575.98	60720.52
576.14	60715.84
576.30	60767.33
576.46	60575.40
576.62	60690.09
576.79	60680.73
576.95	60568.38
577.11	60587.11
577.27	60678.39
577.43	60793.07
577.59	60659.66
577.75	60715.84
577.92	60481.78
578.08	60727.54
578.24	60718.18
578.40	60860.95
578.56	60856.27
578.72	60821.16
578.88	60942.87
579.04	60966.27
579.21	60795.42
579.37	60914.78
579.53	60921.80
579.69	60779.03
579.85	60704.13
580.01	60863.29
580.17	60662.00
580.33	60598.81
580.49	60889.04
580.65	60837.54
580.82	60814.14
580.98	60764.99
581.14	60720.52
581.30	60975.64
581.46	60800.10
581.62	60931.17
581.78	60711.16
581.94	60882.02
582.10	60772.01
582.26	60809.46
582.42	60860.95
582.58	60713.50
582.74	60882.02
582.90	60762.65
583.06	60762.65
583.22	60893.72
583.38	61022.45
583.54	60685.41
583.70	60956.91
583.86	61148.84
584.02	60762.65
584.18	61059.90
584.34	60945.21
584.50	60992.02
584.66	60772.01
584.82	60853.93
584.98	61055.21
585.14	61139.47
585.30	60872.65
585.46	61132.45
585.62	60860.95
585.78	61062.24
585.94	60652.64
586.10	60690.09
586.26	60879.67
586.42	60975.64
586.58	60884.36
586.74	61050.53
586.90	60856.27
587.06	60809.46
587.22	61001.38
587.38	60774.35
587.54	61001.38
587.70	60954.57
587.86	61024.79
588.02	60842.23
588.18	61010.74
588.34	60999.04
588.49	61125.43
