SpectraSuite Data File
++++++++++++++++++++++++++++++++++++
Date: Fri Oct 25 10:46:56 EDT 2013
User: price-jones
Dark Spectrum Present: No
Reference Spectrum Present: No
Number of Sampled Component Spectra: 1
Spectrometers: USB2+H05261
Integration Time (usec): 100000 (USB2+H05261)
Spectra Averaged: 1 (USB2+H05261)
Boxcar Smoothing: 0 (USB2+H05261)
Correct for Electrical Dark: No (USB2+H05261)
Strobe/Lamp Enabled: No (USB2+H05261)
Correct for Detector Non-linearity: No (USB2+H05261)
Correct for Stray Light: No (USB2+H05261)
Number of Pixels in Processed Spectrum: 2048
>>>>>Begin Processed Spectral Data<<<<<
365.73	88.94
365.92	88.94
366.12	88.94
366.32	16.38
366.52	42.13
366.72	53.83
366.91	0.00
367.11	46.81
367.31	51.49
367.51	25.75
367.70	23.41
367.90	37.45
368.10	32.77
368.30	39.79
368.49	23.41
368.69	37.45
368.89	46.81
369.09	0.00
369.28	23.41
369.48	95.96
369.68	95.96
369.87	72.56
370.07	30.43
370.27	173.20
370.47	140.43
370.66	381.51
370.86	383.85
371.06	360.44
371.25	550.03
371.45	554.71
371.65	482.15
371.84	351.08
372.04	545.34
372.24	430.66
372.44	507.90
372.63	503.22
372.83	554.71
373.03	531.30
373.22	566.41
373.42	500.87
373.62	482.15
373.81	585.13
374.01	599.18
374.21	603.86
374.40	519.60
374.60	587.47
374.79	557.05
374.99	645.99
375.19	571.09
375.38	624.92
375.58	587.47
375.78	603.86
375.97	683.44
376.17	622.58
376.37	538.32
376.56	580.45
376.76	617.90
376.95	578.11
377.15	641.31
377.35	643.65
377.54	657.69
377.74	690.46
377.93	615.56
378.13	674.07
378.33	585.13
378.52	608.54
378.72	638.97
378.91	737.27
379.11	608.54
379.31	653.01
379.50	622.58
379.70	744.29
379.89	809.83
380.09	631.94
380.28	669.39
380.48	706.84
380.68	685.78
380.87	667.05
381.07	681.10
381.26	774.72
381.46	734.93
381.65	727.91
381.85	702.16
382.04	645.99
382.24	706.84
382.43	660.03
382.63	772.38
382.83	688.12
383.02	763.01
383.22	671.73
383.41	802.80
383.61	795.78
383.80	861.32
384.00	830.89
384.19	746.63
384.39	828.55
384.58	688.12
384.78	777.06
384.97	821.53
385.17	763.01
385.36	915.15
385.56	819.19
385.75	788.76
385.95	816.85
386.14	856.64
386.34	863.66
386.53	901.11
386.72	861.32
386.92	924.51
387.11	884.72
387.31	889.40
387.50	835.57
387.70	847.27
387.89	875.36
388.09	950.26
388.28	896.43
388.48	816.85
388.67	887.06
388.86	952.60
389.06	880.04
389.25	1008.77
389.45	966.64
389.64	1001.75
389.84	968.98
390.03	997.07
390.22	936.21
390.42	964.30
390.61	938.55
390.81	1043.88
391.00	1053.24
391.19	1055.58
391.39	1125.80
391.58	1137.50
391.78	1132.82
391.97	1046.22
392.16	1046.22
392.36	1062.60
392.55	940.90
392.75	1015.79
392.94	1022.81
393.13	1034.52
393.33	1062.60
393.52	1078.99
393.71	1090.69
393.91	1137.50
394.10	1198.35
394.29	1149.20
394.49	1233.46
394.68	1219.42
394.88	1238.14
395.07	1186.65
395.26	1165.59
395.46	1142.18
395.65	1327.08
395.84	1151.54
396.04	1228.78
396.23	1228.78
396.42	1102.39
396.62	1207.72
396.81	1275.59
397.00	1341.13
397.19	1221.76
397.39	1268.57
397.58	1329.42
397.77	1348.15
397.97	1444.11
398.16	1437.09
398.35	1467.52
398.55	1418.36
398.74	1460.49
398.93	1390.28
399.12	1425.39
399.32	1533.05
399.51	1472.20
399.70	1474.54
399.90	1425.39
400.09	1561.14
400.28	1593.90
400.47	1511.99
400.67	1619.65
400.86	1612.63
401.05	1680.50
401.24	1724.97
401.44	1682.85
401.63	1724.97
401.82	1689.87
402.01	1753.06
402.21	1706.25
402.40	1741.36
402.59	1673.48
402.78	1710.93
402.97	1680.50
403.17	1743.70
403.36	1830.30
403.55	1776.47
403.74	1778.81
403.93	1788.17
404.13	1834.98
404.32	1872.43
404.51	1853.70
404.70	1900.52
404.89	1863.07
405.09	1973.07
405.28	1921.58
405.47	1970.73
405.66	1907.54
405.85	1923.92
406.05	1954.35
406.24	1830.30
406.43	1952.01
406.62	2026.90
406.81	2047.97
407.00	2092.44
407.20	1973.07
407.39	2094.78
407.58	2122.87
407.77	2134.57
407.96	2108.82
408.15	2270.32
408.34	2092.44
408.54	2153.29
408.73	2286.70
408.92	2209.47
409.11	2132.23
409.30	2303.09
409.49	2284.36
409.68	2298.41
409.87	2342.88
410.07	2263.30
410.26	2331.17
410.45	2387.35
410.64	2342.88
410.83	2305.43
411.02	2410.75
411.21	2551.18
411.40	2534.80
411.59	2590.97
411.78	2513.74
411.98	2530.12
412.17	2630.76
412.36	2602.68
412.55	2691.62
412.74	2703.32
412.93	2731.41
413.12	2649.49
413.31	2794.60
413.50	2717.36
413.69	2778.22
413.88	2878.86
414.07	2876.52
414.26	2928.01
414.45	2827.37
414.64	2867.16
414.83	2843.75
415.02	3035.67
415.22	3061.42
415.41	3080.14
415.60	3129.30
415.79	3059.08
415.98	3211.22
416.17	3009.93
416.36	3066.10
416.55	3129.30
416.74	3218.24
416.93	3187.81
417.12	3094.19
417.31	3267.39
417.50	3276.75
417.69	3370.37
417.88	3300.16
418.07	3290.79
418.26	3323.56
418.45	3445.27
418.64	3510.80
418.83	3463.99
419.02	3494.42
419.21	3449.95
419.39	3456.97
419.58	3463.99
419.77	3583.36
419.96	3583.36
420.15	3761.24
420.34	3611.45
420.53	3684.00
420.72	3552.93
420.91	3756.56
421.10	3613.79
421.29	3714.43
421.48	3672.30
421.67	3808.05
421.86	3838.48
422.05	3679.32
422.24	3709.75
422.43	3782.31
422.61	3836.14
422.80	3700.39
422.99	3707.41
423.18	3730.81
423.37	3971.89
423.56	3978.91
423.75	3805.71
423.94	3772.94
424.13	3574.00
424.32	3765.92
424.50	3920.40
424.69	4095.94
424.88	3985.93
425.07	3782.31
425.26	3847.84
425.45	3901.67
425.64	3857.20
425.83	3880.61
426.01	4007.00
426.20	4035.08
426.39	4023.38
426.58	4044.45
426.77	3854.86
426.96	3964.87
427.15	3871.25
427.33	4032.74
427.52	3962.53
427.71	4016.36
427.90	4023.38
428.09	4056.15
428.28	4215.30
428.46	4217.65
428.65	4084.23
428.84	4320.63
429.03	4198.92
429.22	4002.32
429.40	4147.43
429.59	4049.13
429.78	3934.44
429.97	3920.40
430.16	3941.46
430.34	4058.49
430.53	4180.20
430.72	4117.00
430.91	4194.24
431.10	4383.82
431.28	4411.91
431.47	4468.08
431.66	4416.59
431.85	4299.56
432.03	4451.70
432.22	4559.36
432.41	4610.86
432.60	4542.98
432.79	4786.40
432.97	4676.39
433.16	4596.81
433.35	4542.98
433.54	4664.69
433.72	4652.98
433.91	4645.96
434.10	4713.84
434.28	4765.33
434.47	4692.77
434.66	4748.95
434.85	4826.18
435.03	4851.93
435.22	4999.38
435.41	4849.59
435.59	4870.65
435.78	5130.45
435.97	5083.64
436.16	5144.50
436.34	4990.02
436.53	5039.17
436.72	5242.80
436.90	4966.62
437.09	5062.58
437.28	4898.74
437.46	5198.33
437.65	5116.41
437.84	5118.75
438.02	5064.92
438.21	5060.24
438.40	4983.00
438.58	5184.29
438.77	5392.59
438.96	5313.02
439.14	5441.75
439.33	5533.03
439.52	5516.64
439.70	5357.49
439.89	5453.45
440.08	5516.64
440.26	5420.68
440.45	5600.90
440.63	5788.14
440.82	5959.00
441.01	5863.04
441.19	6083.05
441.38	6026.88
441.57	6174.33
441.75	6059.65
441.94	6069.01
442.12	6141.57
442.31	6176.67
442.50	6176.67
442.68	6228.17
442.87	6258.59
443.05	6314.77
443.24	6237.53
443.43	6328.81
443.61	6284.34
443.80	6604.99
443.98	6286.68
444.17	6094.76
444.35	6403.71
444.54	6471.58
444.73	6441.15
444.91	6230.51
445.10	6408.39
445.28	6279.66
445.47	6188.38
445.65	6312.42
445.84	6436.47
446.02	6469.24
446.21	6420.09
446.39	6382.64
446.58	6633.08
446.77	6546.48
446.95	6523.07
447.14	6621.38
447.32	6656.48
447.51	6640.10
447.69	6576.91
447.88	6619.04
448.06	6705.63
448.25	6394.34
448.43	6541.80
448.62	6502.01
448.80	6691.59
448.99	6558.18
449.17	6733.72
449.36	6583.93
449.54	6848.41
449.73	6827.34
449.91	6927.99
450.10	6888.20
450.28	6911.60
450.46	7183.10
450.65	7035.65
450.83	6956.07
451.02	6857.77
451.20	7222.89
451.39	7052.03
451.57	6895.22
451.76	7089.48
451.94	7096.50
452.13	7234.60
452.31	7145.66
452.49	6895.22
452.68	7045.01
452.86	7178.42
453.05	6970.12
453.23	7255.66
453.42	7056.72
453.60	7145.66
453.78	7414.82
453.97	7122.25
454.15	7208.85
454.34	7183.10
454.52	7349.28
454.70	7445.24
454.89	7332.90
455.07	7258.00
455.26	7468.65
455.44	7609.08
455.62	7520.14
455.81	7585.68
455.99	7728.45
456.17	7749.51
456.36	7616.10
456.54	7789.30
456.73	7957.82
456.91	7957.82
457.09	7903.99
457.28	8042.08
457.46	7992.93
457.64	7976.55
457.83	7826.75
458.01	7754.19
458.19	8016.33
458.38	7999.95
458.56	8142.72
458.74	7953.14
458.93	8163.79
459.11	8156.77
459.29	8140.38
459.48	8257.41
459.66	8135.70
459.84	8210.60
460.03	8278.47
460.21	8238.69
460.39	8215.28
460.57	8271.45
460.76	8458.70
460.94	8582.74
461.12	8339.33
461.31	8554.66
461.49	8568.70
461.67	8358.05
461.85	8699.77
462.04	8676.37
462.22	9186.60
462.40	8681.05
462.59	8821.48
462.77	8678.71
462.95	8931.48
463.13	8671.68
463.32	8690.41
463.50	8931.48
463.68	8741.90
463.86	8744.24
464.05	8793.39
464.23	8676.37
464.41	8870.63
464.59	8676.37
464.78	9034.47
464.96	9032.13
465.14	8858.93
465.32	8940.85
465.50	9217.03
465.69	9123.41
465.87	8929.14
466.05	8847.22
466.23	8922.12
466.41	9195.96
466.60	9296.61
466.78	9114.05
466.96	8954.89
467.14	9034.47
467.32	9238.09
467.51	9376.19
467.69	8990.00
467.87	9270.86
468.05	9247.46
468.23	9280.22
468.41	9214.69
468.60	9310.65
468.78	9392.57
468.96	9392.57
469.14	9331.72
469.32	9528.32
469.50	9458.10
469.69	9668.75
469.87	9720.24
470.05	9666.41
470.23	9554.07
470.41	9717.90
470.59	9870.04
470.77	9731.95
470.95	9806.84
471.14	9975.36
471.32	9788.12
471.50	10073.67
471.68	10012.81
471.86	10094.73
472.04	10164.95
472.22	10237.50
472.40	10115.80
472.58	10223.46
472.77	10326.44
472.95	10441.13
473.13	10527.73
473.31	10417.72
473.49	10382.62
473.67	10326.44
473.85	10698.59
474.03	10792.21
474.21	10785.19
474.39	10796.89
474.57	10841.36
474.75	11000.52
474.93	11190.10
475.12	11059.03
475.30	11162.01
475.48	10897.53
475.66	10981.79
475.84	11206.48
476.02	11337.56
476.20	11304.79
476.38	11360.96
476.56	11620.76
476.74	11721.40
476.92	11405.43
477.10	11475.65
477.28	11922.69
477.46	11665.23
477.64	11946.09
477.82	12053.76
478.00	12355.69
478.18	12283.13
478.36	12437.61
478.54	12320.58
478.72	12674.00
478.90	12762.94
479.08	12699.75
479.26	13102.32
479.44	12788.69
479.62	13013.38
479.80	13165.51
479.98	13067.21
480.16	13343.39
480.34	13247.43
480.52	13385.52
480.70	13614.90
480.88	13331.69
481.06	13579.79
481.24	13837.25
481.41	13790.44
481.59	14406.00
481.77	14394.29
481.95	14293.65
482.13	14314.72
482.31	14518.34
482.49	14551.11
482.67	14544.09
482.85	14661.12
483.03	14963.04
483.21	15140.93
483.39	15044.96
483.57	15374.98
483.74	15232.21
483.92	15686.27
484.10	15578.61
484.28	15470.94
484.46	15866.49
484.64	16336.94
484.82	15995.22
485.00	15950.75
485.18	16180.12
485.35	16339.28
485.53	15889.90
485.71	16095.86
485.89	16578.01
486.07	16201.19
486.25	16521.84
486.43	16388.43
486.61	16702.06
486.78	16926.75
486.96	17266.13
487.14	17558.70
487.32	17703.81
487.50	17589.13
487.68	17898.08
487.85	18134.47
488.03	18298.31
488.21	18576.83
488.39	18272.56
488.57	18307.67
488.75	18373.21
488.92	18724.29
489.10	18995.79
489.28	19236.86
489.46	19655.82
489.64	19527.09
489.81	19412.40
489.99	20144.99
490.17	20109.88
490.35	20091.16
490.53	20058.39
490.70	20236.27
490.88	20292.44
491.06	20498.41
491.24	20601.40
491.41	20374.36
491.59	20762.89
491.77	20622.46
491.95	20910.35
492.13	20685.65
492.30	21247.38
492.48	21303.56
492.66	21675.70
492.84	21713.15
493.01	21514.20
493.19	21692.08
493.37	21874.65
493.54	21839.54
493.72	22434.03
493.90	22132.11
494.08	22838.95
494.25	22977.04
494.43	22930.23
494.61	22930.23
494.79	23026.19
494.96	22850.65
495.14	23063.64
495.32	22927.89
495.49	23190.03
495.67	23716.65
495.85	23564.51
496.02	23997.51
496.20	24112.20
496.38	24360.30
496.55	23878.15
496.73	24687.97
496.91	24601.37
497.09	24837.76
497.26	24793.29
497.44	24748.82
497.62	24809.68
497.79	24989.90
497.97	24744.14
498.14	25509.50
498.32	25420.56
498.50	25553.97
498.67	25577.37
498.85	25535.24
499.03	25570.35
499.20	25671.00
499.38	25790.36
499.56	26101.65
499.73	26132.08
499.91	26068.89
500.08	26242.09
500.26	25867.60
500.44	26239.75
500.61	26328.69
500.79	26148.46
500.97	26293.58
501.14	26986.38
501.32	27068.30
501.49	26675.09
501.67	26862.33
501.84	26902.12
502.02	27260.22
502.20	27569.17
502.37	27599.60
502.55	27426.40
502.72	27964.72
502.90	27634.71
503.07	27770.46
503.25	27819.61
503.43	28016.21
503.60	27927.27
503.78	27683.86
503.95	27821.95
504.13	28371.97
504.30	28629.43
504.48	28210.48
504.65	28788.59
504.83	28774.55
505.01	28563.90
505.18	28439.85
505.36	28938.38
505.53	28905.62
505.71	29191.16
505.88	29500.11
506.06	28797.95
506.23	29362.02
506.41	29069.45
506.58	29642.88
506.76	29392.45
506.93	30106.31
507.11	29886.30
507.28	29818.42
507.46	29926.09
507.63	29369.04
507.81	29844.17
507.98	29998.65
508.16	30213.98
508.33	29874.60
508.50	30520.59
508.68	31012.10
508.85	30761.66
509.03	30740.60
509.20	30682.08
509.38	30951.24
509.55	31091.68
509.73	31005.08
509.90	30953.58
510.08	31096.36
510.25	31318.71
510.42	31585.53
510.60	31079.97
510.77	31604.25
510.95	31681.49
511.12	31505.95
511.30	31943.63
511.47	32187.05
511.64	31796.18
511.82	32149.60
511.99	31758.73
512.17	31913.20
512.34	32231.52
512.51	32290.03
512.69	32297.05
512.86	32364.93
513.04	32486.64
513.21	32659.84
513.38	32706.65
513.56	32594.30
513.73	32458.55
513.90	32849.42
514.08	32781.54
514.25	32556.85
514.43	33198.16
514.60	33071.77
514.77	32650.47
514.95	33338.59
515.12	33230.93
515.29	33298.80
515.47	33738.82
515.64	33890.96
515.81	33785.63
515.99	33738.82
516.16	33336.25
516.33	33392.42
516.51	33464.98
516.68	33312.84
516.85	33186.46
517.03	33151.35
517.20	33570.30
517.37	33956.49
517.54	34054.79
517.72	34213.95
517.89	33689.67
518.06	33546.90
518.24	33900.32
518.41	34143.74
518.58	34597.80
518.75	33743.50
518.93	34738.23
519.10	34618.86
519.27	34604.82
519.45	34934.84
519.62	34911.43
519.79	35225.06
519.96	35023.78
520.14	35314.00
520.31	34838.87
520.48	34974.63
520.65	35215.70
520.83	35793.81
521.00	35742.32
521.17	35597.21
521.34	35353.79
521.52	35683.81
521.69	35704.87
521.86	35985.74
522.03	35945.95
522.20	36107.44
522.38	36046.59
522.55	36137.87
522.72	36360.22
522.89	36545.12
523.07	36308.73
523.24	36477.25
523.41	36720.66
523.58	36870.46
523.75	37228.56
523.92	37109.19
524.10	36935.99
524.27	37127.92
524.44	37092.81
524.61	37240.26
524.78	36954.72
524.96	36739.39
525.13	37177.07
525.30	37670.92
525.47	37486.02
525.64	37212.18
525.81	37322.18
525.98	37198.13
526.16	37233.24
526.33	37050.68
526.50	36950.04
526.67	37170.05
526.84	37607.73
527.01	37326.86
527.18	37710.71
527.36	37895.61
527.53	37799.65
527.70	38265.42
527.87	37904.98
528.04	38321.59
528.21	38141.37
528.38	38405.85
528.55	38319.25
528.72	38321.59
528.89	38789.70
529.07	38658.63
529.24	38728.84
529.41	39187.59
529.58	38843.53
529.75	38667.99
529.92	38642.24
530.09	38586.07
530.26	38948.85
530.43	39243.76
530.60	38667.99
530.77	38803.74
530.94	39622.93
531.11	38976.94
531.28	39281.21
531.46	39470.79
531.63	39414.62
531.80	38937.15
531.97	39716.55
532.14	39084.61
532.31	38932.47
532.48	39269.51
532.65	39573.78
532.82	39093.97
532.99	39761.02
533.16	39271.85
533.33	39601.86
533.50	39917.84
533.67	39922.52
533.84	39594.84
534.01	39924.86
534.18	39906.13
534.35	39854.64
534.52	39896.77
534.69	40205.72
534.86	40217.43
535.03	39969.33
535.20	40442.12
535.37	40748.73
535.54	40760.43
535.71	40549.78
535.88	40767.45
536.05	40746.39
536.22	40294.66
536.38	40559.14
536.55	40350.84
536.72	40346.15
536.89	40184.66
537.06	40737.02
537.23	40708.94
537.40	40671.49
537.57	40575.53
537.74	40725.32
537.91	41469.61
538.08	40914.90
538.25	40488.93
538.42	40950.01
538.59	41104.49
538.75	41205.13
538.92	41357.27
539.09	41319.82
539.26	41179.39
539.43	41380.67
539.60	41106.83
539.77	41408.76
539.94	41233.22
540.11	41460.25
540.28	41390.03
540.44	41322.16
540.61	41399.40
540.78	41354.93
540.95	41734.09
541.12	41284.71
541.29	41947.08
541.46	41993.89
541.62	41731.75
541.79	41956.44
541.96	41720.05
542.13	41401.74
542.30	41722.39
542.47	42103.90
542.63	42171.77
542.80	41996.23
542.97	42160.07
543.14	42314.55
543.31	42632.86
543.48	42890.32
543.64	43531.62
543.81	42623.50
543.98	42796.70
544.15	42572.00
544.32	42679.67
544.48	42979.26
544.65	42925.42
544.82	42850.53
544.99	42745.20
545.16	42880.95
545.32	42717.12
545.49	42927.77
545.66	43112.67
545.83	43086.92
546.00	43124.37
546.16	43136.07
546.33	42895.00
546.50	43122.03
546.67	42958.19
546.83	42817.76
547.00	43290.55
547.17	43215.65
547.34	43339.70
547.50	43199.27
547.67	43728.23
547.84	43316.29
548.00	43660.35
548.17	43672.06
548.34	43433.32
548.51	43765.68
548.67	43459.07
548.84	43749.29
549.01	43669.72
549.18	43737.59
549.34	43227.35
549.51	44062.93
549.68	44002.07
549.84	43863.98
550.01	43957.60
550.18	43962.28
550.34	44065.27
550.51	43852.28
550.68	43564.39
550.84	43533.96
551.01	43966.96
551.18	43765.68
551.34	43749.29
551.51	43838.23
551.68	44203.36
551.84	43899.09
552.01	44329.75
552.18	44222.08
552.34	44006.75
552.51	44381.24
552.68	44250.17
552.84	44463.16
553.01	44229.10
553.18	44488.90
553.34	44659.76
553.51	44177.61
553.67	44229.10
553.84	44505.29
554.01	44332.09
554.17	44666.78
554.34	44765.09
554.51	44678.49
554.67	44584.86
554.84	44481.88
555.00	44671.46
555.17	44603.59
555.33	44612.95
555.50	44704.23
555.67	44697.21
555.83	44744.02
556.00	44870.41
556.16	45425.12
556.33	44919.56
556.50	44676.15
556.66	45371.28
556.83	44524.01
556.99	44617.63
557.16	45329.16
557.32	44842.32
557.49	45113.83
557.65	45008.50
557.82	44912.54
557.98	44697.21
558.15	45015.52
558.32	45170.00
558.48	44971.05
558.65	44952.33
558.81	45249.58
558.98	44980.42
559.14	44978.07
559.31	44992.12
559.47	45481.29
559.64	45436.82
559.80	45755.13
559.97	45198.09
560.13	45535.12
560.30	45305.75
560.46	45181.70
560.63	45574.91
560.79	45146.59
560.96	45815.99
561.12	45696.62
561.29	45502.35
561.45	45668.53
561.61	45057.65
561.78	45673.21
561.94	45244.90
562.11	45069.36
562.27	45418.10
562.44	45354.90
562.60	45717.68
562.77	45727.05
562.93	45794.92
563.10	45624.06
563.26	45584.27
563.42	45223.83
563.59	45397.03
563.75	45422.78
563.92	45310.43
564.08	45485.97
564.24	45514.06
564.41	45752.79
564.57	45792.58
564.74	45710.66
564.90	45904.93
565.07	45918.97
565.23	45539.80
565.39	45242.56
565.56	45869.82
565.72	45806.62
565.88	45773.86
566.05	45408.73
566.21	45380.65
566.38	45825.35
566.54	45902.59
566.70	46066.42
566.87	46284.09
567.03	45759.81
567.19	46195.15
567.36	45904.93
567.52	45937.69
567.68	45720.02
567.85	46148.34
568.01	45972.80
568.17	45598.32
568.34	45834.71
568.50	45694.28
568.66	45886.20
568.83	46096.85
568.99	45961.10
569.15	45612.36
569.32	45794.92
569.48	45507.04
569.64	46124.94
569.81	45984.51
569.97	46012.59
570.13	46134.30
570.30	45778.54
570.46	45888.54
570.62	45858.12
570.78	45844.07
570.95	45577.25
571.11	45656.83
571.27	45759.81
571.43	45858.12
571.60	46089.83
571.76	46248.99
571.92	46129.62
572.09	45801.94
572.25	45881.52
572.41	46248.99
572.57	46349.63
572.74	46351.97
572.90	46190.47
573.06	45977.48
573.22	45933.01
573.38	46068.76
573.55	46000.89
573.71	46234.94
573.87	45823.01
574.03	45764.49
574.20	46192.81
574.36	45621.72
574.52	46377.72
574.68	46356.65
574.84	46050.04
575.01	46087.49
575.17	45837.05
575.33	46548.57
575.49	45645.13
575.65	46469.00
575.82	46171.75
575.98	46195.15
576.14	46373.03
576.30	46232.60
576.46	45729.39
576.62	45731.73
576.79	46260.69
576.95	45928.33
577.11	46171.75
577.27	46270.05
577.43	46590.70
577.59	46124.94
577.75	46167.07
577.92	45675.55
578.08	45745.77
578.24	45979.82
578.40	46043.02
578.56	46183.45
578.72	46120.26
578.88	46368.35
579.04	46391.76
579.21	45911.95
579.37	45986.85
579.53	46099.19
579.69	45989.19
579.85	46279.41
580.01	46335.59
580.17	45996.21
580.33	46377.72
580.49	46073.45
580.65	46370.69
580.82	46401.12
580.98	46223.24
581.14	46174.09
581.30	46300.48
581.46	46438.57
581.62	46436.23
581.78	46326.22
581.94	46567.30
582.10	46211.54
582.26	46515.81
582.42	46185.79
582.58	46368.35
582.74	46127.28
582.90	46256.01
583.06	46366.01
583.22	46401.12
583.38	46799.01
583.54	46433.89
583.70	46209.20
583.86	46766.24
584.02	46162.39
584.18	46155.36
584.34	46321.54
584.50	46649.22
584.66	46195.15
584.82	46286.43
584.98	46305.16
585.14	45989.19
585.30	46162.39
585.46	46148.34
585.62	46120.26
585.78	46155.36
585.94	46033.66
586.10	46174.09
586.26	46291.12
586.42	46696.03
586.58	46167.07
586.74	46550.91
586.90	46246.65
587.06	46101.53
587.22	46469.00
587.38	45771.52
587.54	46483.04
587.70	46230.26
587.86	46532.19
588.02	46380.06
588.18	46361.33
588.34	46122.60
588.49	46164.73
588.65	45972.80
588.81	45684.92
588.97	46164.73
589.13	45748.11
589.29	45762.15
589.45	46344.95
589.61	46553.26
589.77	46937.10
589.93	46284.09
590.08	46330.90
