SpectraSuite Data File
++++++++++++++++++++++++++++++++++++
Date: Fri Oct 25 11:23:49 EDT 2013
User: price-jones
Dark Spectrum Present: No
Reference Spectrum Present: No
Number of Sampled Component Spectra: 1
Spectrometers: USB2+H05261
Integration Time (usec): 100000 (USB2+H05261)
Spectra Averaged: 1 (USB2+H05261)
Boxcar Smoothing: 0 (USB2+H05261)
Correct for Electrical Dark: No (USB2+H05261)
Strobe/Lamp Enabled: No (USB2+H05261)
Correct for Detector Non-linearity: No (USB2+H05261)
Correct for Stray Light: No (USB2+H05261)
Number of Pixels in Processed Spectrum: 2048
>>>>>Begin Processed Spectral Data<<<<<
365.73	194.26
365.92	194.26
366.12	194.26
366.32	128.73
366.52	163.84
366.72	67.88
366.91	100.64
367.11	142.77
367.31	154.48
367.51	105.32
367.70	121.71
367.90	147.45
368.10	95.96
368.30	191.92
368.49	170.86
368.69	156.82
368.89	191.92
369.09	149.79
369.28	175.54
369.48	133.41
369.68	166.18
369.87	189.58
370.07	191.92
370.27	234.05
370.47	365.12
370.66	519.60
370.86	624.92
371.06	599.18
371.25	723.23
371.45	653.01
371.65	720.88
371.84	723.23
372.04	711.52
372.24	660.03
372.44	711.52
372.63	716.20
372.83	791.10
373.03	664.71
373.22	730.25
373.42	765.36
373.62	765.36
373.81	889.40
374.01	760.67
374.21	793.44
374.40	755.99
374.60	777.06
374.79	826.21
374.99	858.98
375.19	868.34
375.38	823.87
375.58	767.70
375.78	866.00
375.97	870.68
376.17	891.74
376.37	870.68
376.56	903.45
376.76	877.70
376.95	791.10
377.15	894.08
377.35	910.47
377.54	917.49
377.74	863.66
377.93	922.17
378.13	959.62
378.33	966.64
378.52	1039.20
378.72	847.27
378.91	978.34
379.11	929.19
379.31	933.87
379.50	1064.94
379.70	966.64
379.89	994.73
380.09	952.60
380.28	966.64
380.48	990.05
380.68	978.34
380.87	1067.28
381.07	973.66
381.26	1020.47
381.46	894.08
381.65	1057.92
381.85	997.07
382.04	1104.73
382.24	1151.54
382.43	1029.84
382.63	1050.90
382.83	994.73
383.02	1046.22
383.22	1100.05
383.41	1067.28
383.61	1081.33
383.80	1100.05
384.00	1097.71
384.19	1071.97
384.39	1135.16
384.58	1078.99
384.78	1170.27
384.97	1132.82
385.17	1198.35
385.36	1191.33
385.56	1163.25
385.75	1095.37
385.95	1235.80
386.14	1174.95
386.34	1167.93
386.53	1235.80
386.72	1163.25
386.92	1205.38
387.11	1308.36
387.31	1242.82
387.50	1268.57
387.70	1242.82
387.89	1188.99
388.09	1217.08
388.28	1172.61
388.48	1334.11
388.67	1373.89
388.86	1369.21
389.06	1259.21
389.25	1301.34
389.45	1317.72
389.64	1268.57
389.84	1352.83
390.03	1369.21
390.22	1371.55
390.42	1404.32
390.61	1334.11
390.81	1387.94
391.00	1380.92
391.19	1362.19
391.39	1350.49
391.58	1474.54
391.78	1533.05
391.97	1570.50
392.16	1579.86
392.36	1516.67
392.55	1619.65
392.75	1526.03
392.94	1439.43
393.13	1640.72
393.33	1483.90
393.52	1547.09
393.71	1607.95
393.91	1612.63
394.10	1603.27
394.29	1591.56
394.49	1636.03
394.68	1603.27
394.88	1582.20
395.07	1713.27
395.26	1708.59
395.46	1643.06
395.65	1629.01
395.84	1673.48
396.04	1743.70
396.23	1591.56
396.42	1750.72
396.62	1834.98
396.81	1762.42
397.00	1722.63
397.19	1799.87
397.39	1832.64
397.58	1818.60
397.77	1842.00
397.97	1732.00
398.16	1954.35
398.35	1830.30
398.55	1907.54
398.74	1970.73
398.93	2059.67
399.12	1914.56
399.32	1923.92
399.51	1968.39
399.70	1956.69
399.90	2069.03
400.09	2059.67
400.28	2214.15
400.47	2040.95
400.67	1940.30
400.86	2118.18
401.05	2113.50
401.24	2127.55
401.44	2148.61
401.63	2150.95
401.82	2160.31
402.01	2083.08
402.21	2064.35
402.40	2136.91
402.59	2286.70
402.78	2216.49
402.97	2204.78
403.17	2291.38
403.36	2275.00
403.55	2286.70
403.74	2258.62
403.93	2385.01
404.13	2485.65
404.32	2394.37
404.51	2370.96
404.70	2370.96
404.89	2342.88
405.09	2424.80
405.28	2310.11
405.47	2413.09
405.66	2581.61
405.85	2476.29
406.05	2544.16
406.24	2583.95
406.43	2555.86
406.62	2609.70
406.81	2597.99
407.00	2670.55
407.20	2602.68
407.39	2729.06
407.58	2668.21
407.77	2820.35
407.96	2729.06
408.15	2747.79
408.34	2841.41
408.54	2843.75
408.73	2829.71
408.92	2860.13
409.11	2825.03
409.30	2949.08
409.49	3023.97
409.68	2984.18
409.87	2860.13
410.07	3009.93
410.26	3098.87
410.45	2972.48
410.64	3052.06
410.83	3157.38
411.02	3080.14
411.21	3094.19
411.40	3082.49
411.59	3133.98
411.78	3164.40
411.98	3251.00
412.17	3253.34
412.36	3384.41
412.55	3365.69
412.74	3323.56
412.93	3337.60
413.12	3412.50
413.31	3585.70
413.50	3372.71
413.69	3501.44
413.88	3630.17
414.07	3506.12
414.26	3585.70
414.45	3768.26
414.64	3562.30
414.83	3730.81
415.02	3784.65
415.22	3896.99
415.41	3918.06
415.60	3864.22
415.79	3941.46
415.98	3997.64
416.17	4109.98
416.36	4049.13
416.55	3978.91
416.74	4196.58
416.93	4093.60
417.12	4098.28
417.31	4184.88
417.50	4079.55
417.69	4329.99
417.88	4262.12
418.07	4236.37
418.26	4285.52
418.45	4306.59
418.64	4507.87
418.83	4425.95
419.02	4491.49
419.21	4507.87
419.39	4662.35
419.58	4456.38
419.77	4454.04
419.96	4596.81
420.15	4695.11
420.34	4655.33
420.53	4575.75
420.72	4695.11
420.91	4657.67
421.10	4835.55
421.29	4868.31
421.48	4697.46
421.67	4664.69
421.86	4730.22
422.05	4795.76
422.24	4908.10
422.43	4828.53
422.61	4978.32
422.80	4873.00
422.99	5020.45
423.18	5020.45
423.37	5212.37
423.56	4830.87
423.75	5041.51
423.94	4922.15
424.13	4648.30
424.32	4884.70
424.50	5022.79
424.69	5263.86
424.88	5125.77
425.07	4880.02
425.26	4765.33
425.45	5004.07
425.64	4959.60
425.83	5039.17
426.01	5153.86
426.20	5116.41
426.39	4971.30
426.58	4922.15
426.77	5116.41
426.96	5158.54
427.15	5226.42
427.33	5294.29
427.52	5160.88
427.71	5275.57
427.90	5266.21
428.09	5430.04
428.28	5357.49
428.46	5331.74
428.65	5411.32
428.84	5359.83
429.03	5481.53
429.22	5448.77
429.40	5556.43
429.59	5479.19
429.78	5537.71
429.97	5146.84
430.16	5427.70
430.34	5720.27
430.53	5713.25
430.72	5760.06
430.91	5636.01
431.10	5586.86
431.28	5762.40
431.47	5785.80
431.66	5860.70
431.85	5853.68
432.03	5851.34
432.22	5991.77
432.41	5947.30
432.60	5996.45
432.79	5746.02
432.97	6024.54
433.16	5914.53
433.35	5863.04
433.54	6317.11
433.72	6073.69
433.91	6127.52
434.10	6120.50
434.28	5968.37
434.47	6153.27
434.66	6363.92
434.85	6237.53
435.03	6328.81
435.22	6244.55
435.41	6504.35
435.59	6384.98
435.78	6483.28
435.97	6548.82
436.16	6438.81
436.34	6576.91
436.53	6384.98
436.72	6492.65
436.90	6434.13
437.09	6679.89
437.28	6459.88
437.46	6698.61
437.65	6815.64
437.84	6705.63
438.02	6815.64
438.21	6883.52
438.40	6829.68
438.58	6963.09
438.77	7056.72
438.96	7023.95
439.14	7173.74
439.33	7145.66
439.52	7213.53
439.70	7496.74
439.89	7438.22
440.08	7403.11
440.26	7377.37
440.45	7258.00
440.63	7508.44
440.82	7779.94
441.01	7447.58
441.19	7588.02
441.38	7730.79
441.57	7784.62
441.75	7845.48
441.94	7908.67
442.12	7997.61
442.31	8049.10
442.50	8126.34
442.68	7831.43
442.87	8042.08
443.05	8250.39
443.24	8086.55
443.43	8147.40
443.61	8313.58
443.80	8325.29
443.98	8002.29
444.17	8168.47
444.35	8063.15
444.54	8381.46
444.73	8386.14
444.91	8234.00
445.10	8383.80
445.28	8355.71
445.47	8360.39
445.65	8360.39
445.84	8547.64
446.02	8500.83
446.21	8475.08
446.39	8496.14
446.58	8638.92
446.77	8526.57
446.95	8196.56
447.14	8512.53
447.32	8531.25
447.51	8606.15
447.69	8540.61
447.88	8681.05
448.06	8622.53
448.25	8659.98
448.43	8606.15
448.62	8638.92
448.80	8751.26
448.99	8442.31
449.17	8814.46
449.36	8695.09
449.54	8711.47
449.73	8858.93
449.91	8933.82
450.10	9020.42
450.28	9228.73
450.46	9118.73
450.65	9172.56
450.83	9233.41
451.02	8889.35
451.20	9247.46
451.39	9245.12
451.57	9308.31
451.76	9100.00
451.94	9217.03
452.13	9479.17
452.31	9338.74
452.49	9287.25
452.68	9289.59
452.86	9448.74
453.05	9556.41
453.23	9474.49
453.42	9338.74
453.60	9533.00
453.78	9769.40
453.97	9291.93
454.15	9554.07
454.34	9423.00
454.52	9790.46
454.70	9877.06
454.89	9673.43
455.07	9818.55
455.26	9823.23
455.44	9947.28
455.62	9954.30
455.81	9937.91
455.99	10026.86
456.17	10132.18
456.36	10188.35
456.54	10148.56
456.73	10303.04
456.91	10469.22
457.09	10384.96
457.28	10661.14
457.46	10209.42
457.64	10406.02
457.83	10600.29
458.01	10537.09
458.19	10794.55
458.38	10740.72
458.56	10937.32
458.74	10719.65
458.93	10787.53
459.11	10677.52
459.29	10775.83
459.48	10841.36
459.66	11007.54
459.84	10862.43
460.03	11225.21
460.21	10949.03
460.39	10988.82
460.57	10991.16
460.76	11112.86
460.94	11323.51
461.12	11414.79
461.31	11178.40
461.49	11173.72
461.67	11325.85
461.85	11536.50
462.04	11590.33
462.22	11419.47
462.40	11662.89
462.59	11681.61
462.77	11660.55
462.95	11817.36
463.13	11641.82
463.32	11438.20
463.50	11714.38
463.68	11721.40
463.86	11899.28
464.05	11744.81
464.23	11646.51
464.41	11920.35
464.59	11548.20
464.78	12175.47
464.96	12255.04
465.14	11859.49
465.32	12095.89
465.50	12128.66
465.69	12215.26
465.87	12112.27
466.05	12114.61
466.23	12327.60
466.41	12311.22
466.60	12421.22
466.78	12074.82
466.96	12140.36
467.14	12353.35
467.32	12503.14
467.51	12645.91
467.69	12484.42
467.87	12615.49
468.05	12477.40
468.23	12423.56
468.41	12566.34
468.60	12659.96
468.78	12758.26
468.96	12594.42
469.14	12587.40
469.32	13181.90
469.50	12882.31
469.69	13078.91
469.87	13249.77
470.05	13228.71
470.23	12933.80
470.41	13146.79
470.59	13324.67
470.77	13025.08
470.95	13266.16
471.14	13647.66
471.32	13193.60
471.50	13778.73
471.68	13429.99
471.86	13500.21
472.04	13872.36
472.22	13970.66
472.40	13715.54
472.58	13940.23
472.77	13977.68
472.95	14143.86
473.13	14560.47
473.31	14033.85
473.49	14417.70
473.67	13916.83
473.85	14558.13
474.03	14693.88
474.21	14525.36
474.39	14831.97
474.57	14878.79
474.75	14792.19
474.93	14951.34
475.12	14913.89
475.30	15173.69
475.48	15140.93
475.66	15370.30
475.84	15082.41
476.02	15300.08
476.20	15644.14
476.38	15775.21
476.56	16287.79
476.74	16147.36
476.92	15843.09
477.10	16098.20
477.28	16133.31
477.46	16442.26
477.64	16350.98
477.82	16634.19
478.00	17018.04
478.18	16889.31
478.36	16840.15
478.54	17172.51
478.72	17249.75
478.90	17764.67
479.08	17544.66
479.26	17982.34
479.44	17563.38
479.62	18029.15
479.80	18178.94
479.98	18148.51
480.16	18537.04
480.34	18427.04
480.52	18993.45
480.70	18663.43
480.88	18328.74
481.06	18787.48
481.24	18986.43
481.41	19089.41
481.59	19386.66
481.77	19321.12
481.95	19679.22
482.13	19983.49
482.31	19875.83
482.49	20374.36
482.67	20299.47
482.85	20421.17
483.03	20475.01
483.21	21036.74
483.39	21174.83
483.57	20833.11
483.74	21448.67
483.92	21434.63
484.10	21125.68
484.28	21584.42
484.46	21926.14
484.64	22609.58
484.82	21886.35
485.00	22452.76
485.18	22923.21
485.35	23012.15
485.53	22817.88
485.71	22838.95
485.89	23627.71
486.07	23803.25
486.25	23489.62
486.43	23777.50
486.61	23758.78
486.78	24250.29
486.96	24276.04
487.14	24702.01
487.32	24790.95
487.50	25046.07
487.68	24996.92
487.85	25319.92
488.03	25661.63
488.21	26071.23
488.39	25661.63
488.57	26136.76
488.75	26443.37
488.92	26459.76
489.10	26717.22
489.28	26960.63
489.46	27393.63
489.64	27131.49
489.81	27800.88
489.99	27695.56
490.17	27793.86
490.35	28013.87
490.53	28283.03
490.70	28606.03
490.88	28531.13
491.06	29181.80
491.24	29120.95
491.41	29422.87
491.59	29275.42
491.77	29275.42
491.95	29600.76
492.13	29860.55
492.30	30441.01
492.48	30183.55
492.66	30401.22
492.84	30321.64
493.01	30773.36
493.19	30717.19
493.37	30663.36
493.54	30855.28
493.72	31625.32
493.90	31653.40
494.08	31985.76
494.25	32048.96
494.43	31882.78
494.61	32486.64
494.79	32591.96
494.96	32659.84
495.14	33083.47
495.32	33795.00
495.49	33354.97
495.67	33156.03
495.85	33872.23
496.02	34108.63
496.20	34150.76
496.38	34380.13
496.55	34525.24
496.73	35047.18
496.91	34639.93
497.09	35234.42
497.26	35433.37
497.44	35028.46
497.62	35124.42
497.79	36095.74
497.97	35716.58
498.14	36074.68
498.32	36505.34
498.50	36093.40
498.67	36683.22
498.85	36950.04
499.03	36470.23
499.20	36973.44
499.38	37102.17
499.56	37167.71
499.73	37579.64
499.91	37464.96
500.08	37612.41
500.26	37722.41
500.44	37794.97
500.61	38071.15
500.79	37893.27
500.97	38398.83
501.14	38492.45
501.32	38904.38
501.49	38672.67
501.67	38660.97
501.84	39002.69
502.02	38916.09
502.20	39398.24
502.37	39679.10
502.55	39395.90
502.72	39910.82
502.90	39665.06
503.07	39765.70
503.25	40067.63
503.43	39920.18
503.60	40133.17
503.78	41001.50
503.95	40381.26
504.13	40397.65
504.30	40765.11
504.48	40814.26
504.65	40591.91
504.83	41399.40
505.01	41460.25
505.18	41586.64
505.36	41949.42
505.53	41331.52
505.71	41956.44
505.88	42096.88
506.06	41766.86
506.23	42419.87
506.41	41722.39
506.58	42614.13
506.76	42410.51
506.93	42490.09
507.11	42562.64
507.28	42993.30
507.46	42895.00
507.63	43093.94
507.81	43192.25
507.98	42593.07
508.16	43360.76
508.33	43597.16
508.50	43615.88
508.68	43807.81
508.85	44161.23
509.03	44182.29
509.20	44002.07
509.38	44701.89
509.55	44722.96
509.73	44367.20
509.90	44652.74
510.08	44783.81
510.25	44626.99
510.42	44802.53
510.60	44996.80
510.77	45603.00
510.95	45701.30
511.12	45485.97
511.30	45193.40
511.47	45675.55
511.64	45242.56
511.82	46117.92
511.99	45942.38
512.17	46153.02
512.34	46153.02
512.51	46583.68
512.69	46642.20
512.86	46487.72
513.04	46813.05
513.21	46932.42
513.38	47320.95
513.56	47180.52
513.73	47019.02
513.90	47283.50
514.08	47344.36
514.25	47550.32
514.43	47311.59
514.60	47714.16
514.77	47257.76
514.95	48013.75
515.12	47669.69
515.29	47749.27
515.47	47962.26
515.64	48554.41
515.81	48018.43
515.99	48399.94
516.16	48884.43
516.33	48889.11
516.51	48872.73
516.68	48250.14
516.85	48708.89
517.03	49062.31
517.20	49165.29
517.37	48753.36
517.54	48519.31
517.72	49165.29
517.89	49024.86
518.06	49392.33
518.24	49434.45
518.41	49659.15
518.58	49406.37
518.75	49287.00
518.93	49881.50
519.10	49914.26
519.27	49848.73
519.45	49818.30
519.62	50059.38
519.79	50267.69
519.96	50316.84
520.14	50167.04
520.31	50174.06
520.48	50791.97
520.65	50707.71
520.83	50724.09
521.00	50824.73
521.17	50534.51
521.34	50806.01
521.52	51124.32
521.69	50794.31
521.86	51206.24
522.03	51482.42
522.20	51311.56
522.38	51604.13
522.55	51536.26
522.72	51824.14
522.89	51297.52
523.07	51777.33
523.24	51583.07
523.41	51894.36
523.58	51753.93
523.75	52210.33
523.92	51866.27
524.10	52062.88
524.27	52264.16
524.44	52186.92
524.61	52229.05
524.78	52435.02
524.96	52289.91
525.13	52736.95
525.30	52706.52
525.47	52708.86
525.64	52617.58
525.81	52861.00
525.98	53006.11
526.16	52638.65
526.33	52648.01
526.50	53155.91
526.67	52762.70
526.84	53001.43
527.01	52978.03
527.18	53284.64
527.36	53375.92
527.53	52830.57
527.70	53308.04
527.87	53380.60
528.04	53326.77
528.21	53591.25
528.38	53593.59
528.55	53572.52
528.72	53567.84
528.89	53703.59
529.07	53483.58
529.24	53396.98
529.41	53560.82
529.58	53616.99
529.75	53858.07
529.92	53886.15
530.09	53947.01
530.26	53820.62
530.43	54319.15
530.60	54129.57
530.77	54188.08
530.94	54253.62
531.11	54300.43
531.28	54361.28
531.46	54358.94
531.63	54419.80
531.80	54372.99
531.97	54522.78
532.14	54635.13
532.31	54927.69
532.48	54546.18
532.65	54831.73
532.82	54623.42
532.99	54939.39
533.16	54693.64
533.33	55091.53
533.50	55042.38
533.67	54955.78
533.84	54890.24
534.01	54866.84
534.18	55089.19
534.35	55414.52
534.52	55107.91
534.69	55070.46
534.86	55152.38
535.03	55220.26
535.20	55370.05
535.37	55604.11
535.54	55543.25
535.71	55234.30
535.88	55566.66
536.05	55393.46
536.22	55725.81
536.38	55611.13
536.55	55566.66
536.72	55643.90
536.89	55667.30
537.06	55765.60
537.23	55901.36
537.40	55723.47
537.57	55976.25
537.74	55847.52
537.91	56163.50
538.08	55987.95
538.25	55831.14
538.42	56165.84
538.59	56322.65
538.75	56214.99
538.92	56362.44
539.09	56126.05
539.26	56224.35
539.43	56245.41
539.60	56427.98
539.77	56327.33
539.94	56397.55
540.11	56458.40
540.28	56612.88
540.44	56837.57
540.61	56683.09
540.78	56383.51
540.95	56580.11
541.12	56577.77
541.29	56659.69
541.46	56835.23
541.62	56750.97
541.79	56877.36
541.96	56596.49
542.13	56671.39
542.30	56804.80
542.47	56910.13
542.63	57029.49
542.80	56940.55
542.97	57233.12
543.14	57272.91
543.31	57270.57
543.48	57373.55
543.64	57425.04
543.81	57537.39
543.98	57502.28
544.15	57354.83
544.32	57551.43
544.48	57654.42
544.65	57408.66
544.82	57670.80
544.99	57439.09
545.16	57684.84
545.32	57715.27
545.49	57743.36
545.66	57982.09
545.83	57956.35
546.00	57790.17
546.16	57986.77
546.33	57605.26
546.50	57193.33
546.67	57932.94
546.83	57661.44
547.00	57874.43
547.17	58007.84
547.34	57986.77
547.50	58136.57
547.67	58134.23
547.84	58192.74
548.00	58234.87
548.17	58309.77
548.34	58309.77
548.51	58410.41
548.67	58213.80
548.84	58372.96
549.01	58117.84
549.18	58169.33
549.34	58213.80
549.51	58546.16
549.68	58578.93
549.84	58698.30
550.01	58602.33
550.18	58609.35
550.34	58820.00
550.51	58677.23
550.68	58560.20
550.84	58312.11
551.01	58616.38
551.18	58724.04
551.34	58614.04
551.51	58714.68
551.68	58752.13
551.84	58693.61
552.01	58628.08
552.18	58951.07
552.34	58726.38
552.51	59004.91
552.68	58787.24
552.84	58707.66
553.01	59002.56
553.18	58885.54
553.34	58922.99
553.51	59093.85
553.67	58897.24
553.84	59089.16
554.01	59171.08
554.17	59267.05
554.34	59199.17
554.51	58988.52
554.67	59203.85
554.84	59096.19
555.00	59407.48
555.17	59135.98
555.33	59042.35
555.50	59201.51
555.67	59114.91
555.83	59297.47
556.00	59243.64
556.16	59470.67
556.33	59480.03
556.50	59241.30
556.66	59465.99
556.83	59456.63
556.99	59419.18
557.16	59669.62
557.32	59594.72
557.49	59721.11
557.65	59454.29
557.82	59566.63
557.98	59451.95
558.15	59557.27
558.32	59730.47
558.48	59543.23
558.65	59543.23
558.81	59786.64
558.98	59561.95
559.14	59770.26
559.31	59786.64
559.47	59707.07
559.64	59791.33
559.80	59831.11
559.97	59934.10
560.13	59613.44
560.30	59866.22
560.46	59791.33
560.63	59875.58
560.79	59884.95
560.96	59929.42
561.12	59927.08
561.29	59945.80
561.45	59788.98
561.61	60102.62
561.78	59990.27
561.94	59976.23
562.11	59877.93
562.27	59931.76
562.44	60154.11
562.60	60245.39
562.77	60095.60
562.93	60023.04
563.10	60032.40
563.26	59875.58
563.42	60259.43
563.59	60013.68
563.75	60238.37
563.92	60191.56
564.08	60163.47
564.24	60287.52
564.41	60168.15
564.57	60329.65
564.74	60264.11
564.90	60275.82
565.07	60271.14
565.23	60137.72
565.39	60355.39
565.56	60303.90
565.72	60339.01
565.88	60420.93
566.05	60273.48
566.21	60294.54
566.38	60271.14
566.54	60205.60
566.70	60549.66
566.87	60523.91
567.03	60259.43
567.19	60556.68
567.36	60446.68
567.52	60444.33
567.68	60580.09
567.85	60446.68
568.01	60729.88
568.17	60456.04
568.34	60739.24
568.50	60542.64
568.66	60376.46
568.83	60446.68
568.99	60463.06
569.15	60631.58
569.32	60444.33
569.48	60500.51
569.64	60687.75
569.81	60753.29
569.97	60432.63
570.13	60727.54
570.30	60453.70
570.46	60589.45
570.62	60615.19
570.78	60725.20
570.95	60605.83
571.11	60924.14
571.27	60690.09
571.43	60914.78
571.60	60823.50
571.76	60650.30
571.92	60734.56
572.09	60720.52
572.25	60626.90
572.41	60701.79
572.57	60779.03
572.74	60907.76
572.90	60821.16
573.06	60706.47
573.22	60706.47
573.38	60832.86
573.55	60884.36
573.71	61015.43
573.87	60837.54
574.03	60629.24
574.20	60774.35
574.36	60832.86
574.52	61071.60
574.68	60985.00
574.84	60970.96
575.01	60643.28
575.17	60701.79
575.33	61015.43
575.49	60762.65
575.65	60846.91
575.82	61022.45
575.98	60793.07
576.14	61017.77
576.30	60996.70
576.46	60704.13
576.62	60811.80
576.79	60853.93
576.95	60807.12
577.11	61050.53
577.27	60966.27
577.43	60898.40
577.59	60764.99
577.75	60720.52
577.92	60755.63
578.08	60994.36
578.24	60992.02
578.40	61083.30
578.56	60921.80
578.72	60945.21
578.88	61146.50
579.04	61155.86
579.21	61017.77
579.37	61190.97
579.53	60860.95
579.69	60610.51
579.85	60687.75
580.01	60903.08
580.17	60835.20
580.33	60900.74
580.49	60952.23
580.65	61153.52
580.82	61036.49
580.98	60839.89
581.14	60795.42
581.30	61062.24
581.46	60863.29
581.62	61134.79
581.78	61055.21
581.94	61069.26
582.10	60966.27
582.26	61183.94
582.42	60985.00
582.58	60926.49
582.74	60952.23
582.90	60992.02
583.06	60966.27
583.22	60968.61
583.38	61125.43
583.54	61116.07
583.70	61090.32
583.86	61125.43
584.02	60928.83
584.18	61118.41
584.34	61001.38
584.50	60977.98
584.66	60795.42
584.82	60898.40
584.98	61193.31
585.14	61235.44
585.30	61132.45
585.46	60959.25
585.62	61221.39
585.78	61382.89
585.94	60802.44
586.10	61113.73
586.26	61064.58
586.42	61244.80
586.58	61095.00
586.74	61219.05
586.90	61087.98
587.06	61092.66
587.22	61249.48
587.38	61242.46
587.54	61102.03
587.70	61279.91
587.86	61127.77
588.02	61322.04
588.18	61331.40
588.34	61240.12
588.49	61165.22
