SpectraSuite Data File
++++++++++++++++++++++++++++++++++++
Date: Fri Oct 25 11:23:52 EDT 2013
User: price-jones
Dark Spectrum Present: No
Reference Spectrum Present: No
Number of Sampled Component Spectra: 1
Spectrometers: USB2+H05261
Integration Time (usec): 100000 (USB2+H05261)
Spectra Averaged: 1 (USB2+H05261)
Boxcar Smoothing: 0 (USB2+H05261)
Correct for Electrical Dark: No (USB2+H05261)
Strobe/Lamp Enabled: No (USB2+H05261)
Correct for Detector Non-linearity: No (USB2+H05261)
Correct for Stray Light: No (USB2+H05261)
Number of Pixels in Processed Spectrum: 2048
>>>>>Begin Processed Spectral Data<<<<<
365.73	252.78
365.92	252.78
366.12	252.78
366.32	170.86
366.52	93.62
366.72	191.92
366.91	98.30
367.11	126.39
367.31	100.64
367.51	154.48
367.70	187.24
367.90	156.82
368.10	180.22
368.30	189.58
368.49	121.71
368.69	154.48
368.89	182.56
369.09	138.09
369.28	177.88
369.48	191.92
369.68	126.39
369.87	198.95
370.07	208.31
370.27	212.99
370.47	313.63
370.66	594.50
370.86	695.14
371.06	718.54
371.25	690.46
371.45	683.44
371.65	678.76
371.84	711.52
372.04	692.80
372.24	753.65
372.44	744.29
372.63	774.72
372.83	723.23
373.03	770.04
373.22	744.29
373.42	718.54
373.62	713.86
373.81	821.53
374.01	816.85
374.21	833.23
374.40	837.91
374.60	901.11
374.79	802.80
374.99	828.55
375.19	781.74
375.38	814.51
375.58	830.89
375.78	823.87
375.97	816.85
376.17	940.90
376.37	770.04
376.56	896.43
376.76	898.77
376.95	877.70
377.15	898.77
377.35	919.83
377.54	938.55
377.74	896.43
377.93	943.24
378.13	905.79
378.33	908.13
378.52	952.60
378.72	905.79
378.91	999.41
379.11	912.81
379.31	924.51
379.50	931.53
379.70	978.34
379.89	971.32
380.09	985.37
380.28	961.96
380.48	1022.81
380.68	983.02
380.87	1013.45
381.07	947.92
381.26	1121.12
381.46	990.05
381.65	1022.81
381.85	1078.99
382.04	1022.81
382.24	985.37
382.43	1043.88
382.63	1011.11
382.83	1095.37
383.02	1095.37
383.22	1109.41
383.41	1048.56
383.61	1074.31
383.80	1205.38
384.00	1179.63
384.19	1097.71
384.39	1078.99
384.58	1116.44
384.78	1146.86
384.97	1165.59
385.17	1121.12
385.36	1203.04
385.56	1228.78
385.75	1198.35
385.95	1177.29
386.14	1158.57
386.34	1200.69
386.53	1291.98
386.72	1188.99
386.92	1324.74
387.11	1249.85
387.31	1207.72
387.50	1165.59
387.70	1217.08
387.89	1327.08
388.09	1324.74
388.28	1280.27
388.48	1228.78
388.67	1320.06
388.86	1299.00
389.06	1331.76
389.25	1366.87
389.45	1331.76
389.64	1317.72
389.84	1359.85
390.03	1387.94
390.22	1392.62
390.42	1399.64
390.61	1394.96
390.81	1359.85
391.00	1441.77
391.19	1352.83
391.39	1467.52
391.58	1409.00
391.78	1460.49
391.97	1502.62
392.16	1514.33
392.36	1554.12
392.55	1514.33
392.75	1577.52
392.94	1577.52
393.13	1511.99
393.33	1504.96
393.52	1572.84
393.71	1652.42
393.91	1509.65
394.10	1610.29
394.29	1657.10
394.49	1582.20
394.68	1640.72
394.88	1563.48
395.07	1617.31
395.26	1701.57
395.46	1643.06
395.65	1764.76
395.84	1668.80
396.04	1710.93
396.23	1823.28
396.42	1755.40
396.62	1703.91
396.81	1834.98
397.00	1844.34
397.19	1746.04
397.39	1870.09
397.58	1804.55
397.77	1788.17
397.97	1778.81
398.16	1802.21
398.35	1863.07
398.55	1909.88
398.74	1886.47
398.93	1961.37
399.12	1886.47
399.32	1870.09
399.51	1937.96
399.70	1994.14
399.90	1959.03
400.09	2008.18
400.28	2022.22
400.47	1982.43
400.67	2094.78
400.86	2120.53
401.05	2026.90
401.24	2104.14
401.44	2132.23
401.63	2083.08
401.82	2157.97
402.01	2146.27
402.21	2141.59
402.40	2160.31
402.59	2239.89
402.78	2190.74
402.97	2225.85
403.17	2143.93
403.36	2342.88
403.55	2368.62
403.74	2289.04
403.93	2382.67
404.13	2413.09
404.32	2345.22
404.51	2422.45
404.70	2478.63
404.89	2399.05
405.09	2478.63
405.28	2382.67
405.47	2565.23
405.66	2518.42
405.85	2537.14
406.05	2654.17
406.24	2492.67
406.43	2605.02
406.62	2576.93
406.81	2527.78
407.00	2679.91
407.20	2635.44
407.39	2530.12
407.58	2684.59
407.77	2715.02
407.96	2672.89
408.15	2841.41
408.34	2668.21
408.54	2808.64
408.73	2792.26
408.92	2876.52
409.11	2937.37
409.30	2874.18
409.49	2839.07
409.68	2986.52
409.87	3014.61
410.07	2995.89
410.26	3016.95
410.45	3040.36
410.64	2998.23
410.83	3038.02
411.02	3145.68
411.21	3112.91
411.40	3190.15
411.59	3307.18
411.78	3183.13
411.98	3183.13
412.17	3316.54
412.36	3328.24
412.55	3316.54
412.74	3375.05
412.93	3410.16
413.12	3281.43
413.31	3508.46
413.50	3365.69
413.69	3428.88
413.88	3590.38
414.07	3623.15
414.26	3566.98
414.45	3747.20
414.64	3632.51
414.83	3824.44
415.02	3808.05
415.22	3878.27
415.41	3936.78
415.60	3936.78
415.79	3796.35
415.98	3840.82
416.17	3946.14
416.36	3936.78
416.55	4011.68
416.74	4039.76
416.93	4011.68
417.12	4163.81
417.31	4117.00
417.50	4152.11
417.69	4222.33
417.88	4262.12
418.07	4184.88
418.26	4400.21
418.45	4367.44
418.64	4477.44
418.83	4344.03
419.02	4346.37
419.21	4645.96
419.39	4575.75
419.58	4484.47
419.77	4526.60
419.96	4615.54
420.15	4643.62
420.34	4751.29
420.53	4592.13
420.72	4774.69
420.91	4634.26
421.10	4823.84
421.29	4809.80
421.48	4695.11
421.67	4898.74
421.86	4814.48
422.05	4997.04
422.24	4723.20
422.43	4814.48
422.61	4929.17
422.80	4926.83
422.99	5025.13
423.18	4999.38
423.37	4919.81
423.56	4767.67
423.75	4947.89
423.94	4908.10
424.13	4781.71
424.32	4720.86
424.50	5053.22
424.69	5146.84
424.88	5167.90
425.07	5116.41
425.26	4917.47
425.45	4863.63
425.64	5078.96
425.83	4961.94
426.01	4940.87
426.20	5011.09
426.39	5093.01
426.58	5100.03
426.77	5032.15
426.96	5128.11
427.15	5107.05
427.33	5275.57
427.52	5076.62
427.71	5277.91
427.90	5228.76
428.09	5310.68
428.28	5301.31
428.46	5682.82
428.65	5369.19
428.84	5542.39
429.03	5621.97
429.22	5530.69
429.40	5383.23
429.59	5607.92
429.78	5308.34
429.97	5397.28
430.16	5380.89
430.34	5668.78
430.53	5654.73
430.72	5764.74
430.91	5654.73
431.10	5607.92
431.28	5750.70
431.47	5813.89
431.66	5926.24
431.85	5734.31
432.03	5879.43
432.22	5982.41
432.41	5991.77
432.60	5895.81
432.79	5959.00
432.97	6094.76
433.16	6064.33
433.35	5928.58
433.54	5959.00
433.72	6106.46
433.91	6047.94
434.10	6270.30
434.28	6008.16
434.47	6146.25
434.66	6216.46
434.85	6392.00
435.03	6211.78
435.22	6396.68
435.41	6490.31
435.59	6389.66
435.78	6347.53
435.97	6492.65
436.16	6574.56
436.34	6581.59
436.53	6511.37
436.72	6614.35
436.90	6604.99
437.09	6600.31
437.28	6494.99
437.46	6651.80
437.65	6654.14
437.84	6799.26
438.02	6796.92
438.21	7108.21
438.40	6717.34
438.58	6995.86
438.77	7075.44
438.96	6899.90
439.14	7187.79
439.33	7183.10
439.52	7293.11
439.70	7241.62
439.89	7391.41
440.08	7517.80
440.26	7454.61
440.45	7152.68
440.63	7279.07
440.82	7817.39
441.01	7691.00
441.19	7644.19
441.38	7644.19
441.57	7599.72
441.75	7995.27
441.94	7999.95
442.12	7913.35
442.31	8025.70
442.50	8065.49
442.68	8067.83
442.87	7887.61
443.05	8109.96
443.24	8318.26
443.43	8079.53
443.61	8161.45
443.80	8355.71
443.98	8070.17
444.17	7955.48
444.35	8245.71
444.54	8266.77
444.73	8472.74
444.91	8376.78
445.10	8643.60
445.28	8336.99
445.47	8212.94
445.65	8241.03
445.84	8456.36
446.02	8521.89
446.21	8285.50
446.39	8425.93
446.58	8376.78
446.77	8479.76
446.95	8252.73
447.14	8533.59
447.32	8559.34
447.51	8741.90
447.69	8465.72
447.88	8533.59
448.06	8381.46
448.25	8620.19
448.43	8608.49
448.62	8603.81
448.80	8652.96
448.99	8718.50
449.17	8748.92
449.36	8734.88
449.54	9074.26
449.73	9078.94
449.91	9188.94
450.10	8809.78
450.28	9320.01
450.46	9067.24
450.65	8952.55
450.83	9142.13
451.02	8992.34
451.20	9167.88
451.39	9062.55
451.57	9217.03
451.76	9053.19
451.94	9202.99
452.13	9245.12
452.31	9259.16
452.49	9350.44
452.68	9383.21
452.86	9343.42
453.05	9638.33
453.23	9551.73
453.42	9348.10
453.60	9301.29
453.78	9645.35
453.97	9320.01
454.15	9488.53
454.34	9460.45
454.52	9783.44
454.70	9483.85
454.89	9886.42
455.07	9963.66
455.26	9783.44
455.44	9966.00
455.62	9891.10
455.81	10017.49
455.99	9980.04
456.17	10008.13
456.36	10139.20
456.54	10038.56
456.73	10424.75
456.91	10424.75
457.09	10633.05
457.28	10640.08
457.46	10422.41
457.64	10647.10
457.83	10544.11
458.01	10424.75
458.19	10740.72
458.38	10534.75
458.56	10710.29
458.74	10736.04
458.93	10808.59
459.11	10738.38
459.29	11009.88
459.48	10874.13
459.66	10853.06
459.84	10899.87
460.03	10977.11
460.21	11286.06
460.39	11112.86
460.57	11033.29
460.76	11243.93
460.94	11265.00
461.12	11208.83
461.31	11098.82
461.49	11166.70
461.67	11297.77
461.85	11672.25
462.04	11367.98
462.22	11585.65
462.40	11672.25
462.59	11517.78
462.77	11487.35
462.95	11772.89
463.13	11557.57
463.32	11662.89
463.50	11698.00
463.68	11868.86
463.86	11990.56
464.05	11693.32
464.23	11346.92
464.41	12013.97
464.59	11726.08
464.78	12177.81
464.96	11967.16
465.14	11878.22
465.32	12088.87
465.50	12133.34
465.69	12128.66
465.87	12126.32
466.05	11946.09
466.23	12283.13
466.41	12264.41
466.60	12355.69
466.78	12252.70
466.96	12280.79
467.14	12318.24
467.32	12414.20
467.51	12575.70
467.69	12231.64
467.87	12500.80
468.05	12720.81
468.23	12395.48
468.41	12505.48
468.60	12856.56
468.78	12896.35
468.96	12636.55
469.14	12905.71
469.32	12915.08
469.50	12627.19
469.69	12975.93
469.87	13252.11
470.05	13123.38
470.23	13289.56
470.41	13165.51
470.59	13418.29
470.77	13315.31
470.95	13270.84
471.14	13523.62
471.32	13298.92
471.50	13633.62
471.68	13591.49
471.86	13570.43
472.04	13804.48
472.22	14136.84
472.40	13778.73
472.58	14090.02
472.77	14083.00
472.95	14111.09
473.13	14780.48
473.31	14251.52
473.49	14539.41
473.67	14413.02
473.85	14272.59
474.03	14609.62
474.21	14579.20
474.39	14785.16
474.57	14747.72
474.75	14977.09
474.93	15087.09
475.12	15007.52
475.30	15042.62
475.48	15110.50
475.66	15206.46
475.84	15279.02
476.02	15250.93
476.20	15386.68
476.38	15957.77
476.56	16102.89
476.74	15978.84
476.92	16114.59
477.10	16042.03
477.28	16205.87
477.46	15981.18
477.64	16409.50
477.82	16613.12
478.00	17039.10
478.18	16730.15
478.36	16936.12
478.54	16943.14
478.72	17149.11
478.90	17364.43
479.08	17458.06
479.26	17867.65
479.44	17954.25
479.62	18150.85
479.80	18036.17
479.98	18410.65
480.16	18794.50
480.34	18422.36
480.52	18829.61
480.70	18733.65
480.88	18422.36
481.06	18951.32
481.24	18878.76
481.41	19098.77
481.59	19222.82
481.77	19634.75
481.95	19384.32
482.13	19676.88
482.31	19655.82
482.49	20140.31
482.67	20219.89
482.85	20559.27
483.03	20767.57
483.21	20709.06
483.39	21238.02
483.57	20896.30
483.74	21090.57
483.92	21703.79
484.10	21298.88
484.28	21462.71
484.46	22003.38
484.64	22518.29
484.82	22085.30
485.00	21998.70
485.18	23126.83
485.35	23047.26
485.53	22923.21
485.71	23016.83
485.89	23398.34
486.07	23260.24
486.25	23597.28
486.43	23328.12
486.61	23704.95
486.78	24210.50
486.96	24430.51
487.14	24589.67
487.32	24973.52
487.50	24718.40
487.68	25240.34
487.85	25319.92
488.03	25762.28
488.21	26047.82
488.39	25717.81
488.57	26242.09
488.75	26377.84
488.92	26916.16
489.10	26794.45
489.28	26768.71
489.46	27087.02
489.64	27000.42
489.81	27934.29
489.99	27620.66
490.17	27936.63
490.35	28222.18
490.53	28425.81
490.70	28491.34
490.88	28503.04
491.06	28730.08
491.24	28828.38
491.41	29172.44
491.59	29357.34
491.77	29411.17
491.95	29930.77
492.13	29745.87
492.30	30066.52
492.48	29851.19
492.66	30321.64
492.84	30586.12
493.01	30625.91
493.19	30469.09
493.37	31016.78
493.54	31138.49
493.72	31768.09
493.90	31262.54
494.08	31847.67
494.25	32173.00
494.43	32123.85
494.61	32629.41
494.79	32374.29
494.96	32847.08
495.14	32692.60
495.32	33404.13
495.49	33565.62
495.67	33350.29
495.85	33951.81
496.02	33820.74
496.20	33860.53
496.38	34110.97
496.55	34106.29
496.73	34948.88
496.91	34866.96
497.09	35040.16
497.26	34724.19
497.44	35395.92
497.62	35218.04
497.79	35747.00
497.97	35421.67
498.14	36229.15
498.32	36505.34
498.50	36294.69
498.67	36657.47
498.85	36608.32
499.03	36680.88
499.20	36587.25
499.38	36807.26
499.56	37235.58
499.73	37392.40
499.91	37474.32
500.08	37982.21
500.26	37577.30
500.44	37743.48
500.61	38064.13
500.79	38279.46
500.97	38022.00
501.14	38913.75
501.32	38553.30
501.49	38689.06
501.67	38930.13
501.84	39023.75
502.02	39236.74
502.20	39026.09
502.37	39313.98
502.55	39543.35
502.72	39693.15
502.90	39941.24
503.07	39510.58
503.25	40016.14
503.43	39990.39
503.60	40121.46
503.78	40168.27
503.95	40409.35
504.13	40818.94
504.30	40596.59
504.48	40680.85
504.65	40627.02
504.83	41081.08
505.01	41254.28
505.18	41240.24
505.36	41757.50
505.53	41411.10
505.71	41928.36
505.88	42066.45
506.06	41766.86
506.23	42431.57
506.41	42089.85
506.58	42277.10
506.76	42462.00
506.93	42527.53
507.11	42501.79
507.28	42494.77
507.46	42583.71
507.63	43175.86
507.81	43138.41
507.98	43505.88
508.16	43122.03
508.33	43683.76
508.50	43622.90
508.68	43370.13
508.85	44212.72
509.03	44053.56
509.20	44158.89
509.38	44481.88
509.55	44680.83
509.73	44669.12
509.90	44980.42
510.08	44746.36
510.25	44512.31
510.42	44816.58
510.60	45104.46
510.77	45223.83
510.95	45933.01
511.12	45394.69
511.30	45710.66
511.47	45944.72
511.64	45659.17
511.82	46082.81
511.99	45675.55
512.17	46183.45
512.34	46103.87
512.51	46501.76
512.69	46309.84
512.86	46314.52
513.04	46632.83
513.21	47173.50
513.38	46754.54
513.56	46768.58
513.73	46923.06
513.90	47234.35
514.08	47086.90
514.25	47505.85
514.43	47395.85
514.60	47484.79
514.77	47407.55
514.95	48212.70
515.12	47674.37
515.29	47812.46
515.47	48032.47
515.64	48327.38
515.81	48250.14
515.99	48039.50
516.16	48758.04
516.33	48259.51
516.51	48685.48
516.68	48570.80
516.85	48713.57
517.03	48809.53
517.20	49104.44
517.37	49081.03
517.54	48666.76
517.72	49134.87
517.89	49024.86
518.06	49095.08
518.24	49219.13
518.41	49464.88
518.58	49614.68
518.75	49879.16
518.93	49820.64
519.10	49308.07
519.27	50213.85
519.45	49902.56
519.62	49977.46
519.79	50206.83
519.96	50026.61
520.14	50251.30
520.31	50316.84
520.48	50810.69
520.65	50639.83
520.83	50696.00
521.00	50686.64
521.17	50539.19
521.34	50871.54
521.52	51016.66
521.69	51072.83
521.86	51079.85
522.03	51447.32
522.20	51370.08
522.38	51700.09
522.55	51547.96
522.72	51613.49
522.89	51533.92
523.07	51650.94
523.24	51573.70
523.41	51707.12
523.58	51484.76
523.75	52247.78
523.92	52193.95
524.10	52313.31
524.27	51894.36
524.44	52388.21
524.61	52207.99
524.78	52341.40
524.96	52460.77
525.13	52348.42
525.30	52605.88
525.47	52650.35
525.64	52502.90
525.81	52601.20
525.98	52736.95
526.16	52882.06
526.33	52706.52
526.50	52795.46
526.67	53020.16
526.84	52938.24
527.01	53179.31
527.18	53191.01
527.36	52900.79
527.53	53244.85
527.70	53455.50
527.87	53556.14
528.04	53392.30
528.21	53322.08
528.38	53668.48
528.55	53621.67
528.72	53563.16
528.89	53701.25
529.07	53701.25
529.24	53499.97
529.41	53951.69
529.58	54073.40
529.75	53741.04
529.92	53759.76
530.09	54115.53
530.26	54033.61
530.43	54087.44
530.60	53895.52
530.77	53874.45
530.94	54246.60
531.11	54284.04
531.28	54408.09
531.46	54478.31
531.63	54394.05
531.80	54501.71
531.97	54281.70
532.14	54436.18
532.31	54518.10
532.48	54763.85
532.65	54810.67
532.82	54426.82
532.99	54974.50
533.16	54831.73
533.33	54724.07
533.50	54927.69
533.67	54976.84
533.84	54871.52
534.01	55014.29
534.18	55229.62
534.35	55210.90
534.52	54976.84
534.69	55119.62
534.86	55451.97
535.03	55297.50
535.20	55344.31
535.37	55456.65
535.54	55676.66
535.71	55182.81
535.88	55592.40
536.05	55615.81
536.22	55538.57
536.38	55611.13
536.55	55648.58
536.72	55962.21
536.89	55552.62
537.06	55739.86
537.23	55952.85
537.40	55711.77
537.57	55901.36
537.74	55896.67
537.91	55884.97
538.08	56079.24
538.25	55922.42
538.42	55934.12
538.59	56243.07
538.75	55910.72
538.92	56158.81
539.09	56259.46
539.26	56130.73
539.43	56163.50
539.60	56116.68
539.77	56343.72
539.94	56339.04
540.11	56404.57
540.28	56622.24
540.44	56884.38
540.61	56397.55
540.78	56425.64
540.95	56694.80
541.12	56528.62
541.29	56612.88
541.46	56456.06
541.62	56404.57
541.79	56839.91
541.96	56647.99
542.13	56528.62
542.30	56938.21
542.47	57013.11
542.63	56884.38
542.80	56842.25
542.97	57008.43
543.14	57324.40
543.31	57411.00
543.48	57553.77
543.64	57265.89
543.81	57406.32
543.98	57670.80
544.15	57240.14
544.32	57432.07
544.48	57490.58
544.65	57621.65
544.82	57584.20
544.99	57598.24
545.16	57633.35
545.32	57387.60
545.49	57738.68
545.66	57733.99
545.83	58024.22
546.00	57886.13
546.16	57705.91
546.33	57839.32
546.50	57743.36
546.67	57726.97
546.83	57577.18
547.00	57743.36
547.17	57862.72
547.34	57921.24
547.50	58260.62
547.67	58260.62
547.84	58248.91
548.00	58145.93
548.17	58429.13
548.34	58234.87
548.51	58415.09
548.67	58337.85
548.84	58185.72
549.01	58279.34
549.18	58328.49
549.34	58504.03
549.51	58401.05
549.68	58351.90
549.84	58529.78
550.01	58684.25
550.18	58272.32
550.34	58550.84
550.51	58534.46
550.68	58611.70
550.84	58358.92
551.01	58695.95
551.18	58721.70
551.34	58585.95
551.51	58791.92
551.68	58583.61
551.84	58719.36
552.01	58623.40
552.18	58644.46
552.34	58700.64
552.51	58763.83
552.68	58712.34
552.84	58857.45
553.01	58880.86
553.18	58749.79
553.34	58986.18
553.51	58976.82
553.67	58941.71
553.84	59096.19
554.01	59147.68
554.17	59248.32
554.34	59121.93
554.51	59271.73
554.67	58894.90
554.84	59061.08
555.00	59309.18
555.17	59105.55
555.33	59040.01
555.50	59255.34
555.67	59105.55
555.83	59098.53
556.00	59128.95
556.16	59465.99
556.33	59381.73
556.50	59337.26
556.66	59592.38
556.83	59049.38
556.99	59522.16
557.16	59517.48
557.32	59571.32
557.49	59767.92
557.65	59250.66
557.82	59442.59
557.98	59496.42
558.15	59592.38
558.32	59559.61
558.48	59426.20
558.65	59606.42
558.81	59681.32
558.98	59758.56
559.14	59966.87
559.31	59561.95
559.47	59803.03
559.64	59772.60
559.80	59873.24
559.97	59831.11
560.13	59632.17
560.30	59494.08
560.46	59709.41
560.63	59931.76
560.79	60001.97
560.96	59728.13
561.12	60037.08
561.29	59866.22
561.45	59845.16
561.61	59877.93
561.78	59884.95
561.94	59756.22
562.11	59936.44
562.27	59915.37
562.44	60137.72
562.60	60200.92
562.77	60037.08
562.93	59880.27
563.10	60217.30
563.26	60044.10
563.42	60214.96
563.59	60121.34
563.75	60034.74
563.92	60039.42
564.08	59966.87
564.24	60172.83
564.41	60266.45
564.57	60271.14
564.74	60172.83
564.90	60233.69
565.07	60205.60
565.23	60224.32
565.39	60310.92
565.56	60434.97
565.72	60409.23
565.88	60430.29
566.05	60331.99
566.21	60336.67
566.38	60182.19
566.54	60434.97
566.70	60608.17
566.87	60509.87
567.03	60165.81
567.19	60446.68
567.36	60449.02
567.52	60493.49
567.68	60706.47
567.85	60437.31
568.01	60594.13
568.17	60327.31
568.34	60514.55
568.50	60500.51
568.66	60458.38
568.83	60573.06
568.99	60343.69
569.15	60554.34
569.32	60474.76
569.48	60463.06
569.64	60664.35
569.81	60626.90
569.97	60434.97
570.13	60587.11
570.30	60477.10
570.46	60615.19
570.62	60708.82
570.78	60589.45
570.95	60418.59
571.11	60706.47
571.27	60603.49
571.43	60622.22
571.60	60800.10
571.76	60699.45
571.92	60666.69
572.09	60502.85
572.25	60563.70
572.41	60619.88
572.57	60683.07
572.74	60954.57
572.90	60727.54
573.06	60750.94
573.22	60727.54
573.38	60739.24
573.55	60757.97
573.71	60896.06
573.87	60940.53
574.03	60729.88
574.20	60713.50
574.36	60647.96
574.52	60804.78
574.68	60643.28
574.84	60853.93
575.01	60823.50
575.17	60650.30
575.33	60795.42
575.49	60746.26
575.65	60697.11
575.82	60893.72
575.98	60956.91
576.14	61078.62
576.30	60907.76
576.46	61006.06
576.62	60715.84
576.79	60853.93
576.95	60846.91
577.11	60935.85
577.27	60874.99
577.43	60874.99
577.59	60809.46
577.75	60793.07
577.92	60690.09
578.08	60659.66
578.24	60830.52
578.40	60898.40
578.56	61169.90
578.72	61158.20
578.88	60999.04
579.04	61261.18
579.21	60898.40
579.37	61146.50
579.53	60905.42
579.69	60680.73
579.85	60872.65
580.01	60877.33
580.17	61071.60
580.33	61106.71
580.49	60828.18
580.65	61050.53
580.82	60809.46
580.98	60891.38
581.14	60959.25
581.30	61235.44
581.46	61048.19
581.62	61045.85
581.78	60807.12
581.94	60844.57
582.10	61006.06
582.26	60886.70
582.42	60994.36
582.58	61020.11
582.74	60989.68
582.90	60896.06
583.06	60977.98
583.22	60816.48
583.38	61141.81
583.54	61326.72
583.70	61062.24
583.86	60982.66
584.02	60968.61
584.18	61247.14
584.34	61343.10
584.50	60900.74
584.66	61069.26
584.82	60851.59
584.98	61123.09
585.14	61169.90
585.30	60879.67
585.46	61106.71
585.62	61153.52
585.78	61380.55
585.94	60949.89
586.10	61146.50
586.26	61205.01
586.42	61095.00
586.58	61069.26
586.74	61027.13
586.90	61193.31
587.06	61165.22
587.22	61254.16
587.38	61188.63
587.54	61345.44
587.70	61418.00
587.86	61284.59
588.02	61183.94
588.18	61214.37
588.34	61169.90
588.49	61041.17
