SpectraSuite Data File
++++++++++++++++++++++++++++++++++++
Date: Fri Oct 25 10:47:41 EDT 2013
User: price-jones
Dark Spectrum Present: No
Reference Spectrum Present: No
Number of Sampled Component Spectra: 1
Spectrometers: USB2+H05261
Integration Time (usec): 100000 (USB2+H05261)
Spectra Averaged: 1 (USB2+H05261)
Boxcar Smoothing: 0 (USB2+H05261)
Correct for Electrical Dark: No (USB2+H05261)
Strobe/Lamp Enabled: No (USB2+H05261)
Correct for Detector Non-linearity: No (USB2+H05261)
Correct for Stray Light: No (USB2+H05261)
Number of Pixels in Processed Spectrum: 2048
>>>>>Begin Processed Spectral Data<<<<<
365.73	98.30
365.92	98.30
366.12	98.30
366.32	84.26
366.52	0.00
366.72	72.56
366.91	0.00
367.11	46.81
367.31	51.49
367.51	65.54
367.70	37.45
367.90	51.49
368.10	49.15
368.30	32.77
368.49	11.70
368.69	58.51
368.89	93.62
369.09	42.13
369.28	98.30
369.48	0.00
369.68	102.98
369.87	131.07
370.07	102.98
370.27	227.03
370.47	236.39
370.66	355.76
370.86	360.44
371.06	444.70
371.25	423.64
371.45	369.80
371.65	472.79
371.84	444.70
372.04	416.62
372.24	411.93
372.44	449.38
372.63	430.66
372.83	587.47
373.03	634.29
373.22	477.47
373.42	540.66
373.62	559.39
373.81	461.09
374.01	582.79
374.21	470.45
374.40	468.11
374.60	592.16
374.79	503.22
374.99	456.40
375.19	547.69
375.38	622.58
375.58	582.79
375.78	641.31
375.97	564.07
376.17	610.88
376.37	554.71
376.56	592.16
376.76	554.71
376.95	624.92
377.15	669.39
377.35	638.97
377.54	559.39
377.74	634.29
377.93	533.64
378.13	627.26
378.33	671.73
378.52	662.37
378.72	645.99
378.91	631.94
379.11	627.26
379.31	690.46
379.50	564.07
379.70	667.05
379.89	685.78
380.09	692.80
380.28	624.92
380.48	716.20
380.68	660.03
380.87	678.76
381.07	624.92
381.26	657.69
381.46	645.99
381.65	692.80
381.85	613.22
382.04	711.52
382.24	688.12
382.43	683.44
382.63	702.16
382.83	554.71
383.02	676.41
383.22	685.78
383.41	702.16
383.61	634.29
383.80	793.44
384.00	767.70
384.19	777.06
384.39	674.07
384.58	786.42
384.78	748.97
384.97	765.36
385.17	774.72
385.36	793.44
385.56	755.99
385.75	870.68
385.95	763.01
386.14	830.89
386.34	730.25
386.53	826.21
386.72	734.93
386.92	854.30
387.11	802.80
387.31	880.04
387.50	812.17
387.70	866.00
387.89	800.46
388.09	830.89
388.28	823.87
388.48	882.38
388.67	887.06
388.86	905.79
389.06	889.40
389.25	903.45
389.45	933.87
389.64	915.15
389.84	903.45
390.03	908.13
390.22	915.15
390.42	1006.43
390.61	889.40
390.81	954.94
391.00	870.68
391.19	912.81
391.39	1008.77
391.58	936.21
391.78	957.28
391.97	1001.75
392.16	1022.81
392.36	1020.47
392.55	868.34
392.75	976.00
392.94	987.71
393.13	999.41
393.33	999.41
393.52	933.87
393.71	1083.67
393.91	971.32
394.10	1060.26
394.29	1081.33
394.49	1074.31
394.68	1158.57
394.88	1188.99
395.07	1121.12
395.26	1039.20
395.46	1149.20
395.65	1128.14
395.84	1104.73
396.04	1069.62
396.23	1123.46
396.42	1135.16
396.62	1139.84
396.81	1132.82
397.00	1172.61
397.19	1146.86
397.39	1256.87
397.58	1233.46
397.77	1245.16
397.97	1273.25
398.16	1345.81
398.35	1270.91
398.55	1338.79
398.74	1392.62
398.93	1434.75
399.12	1261.55
399.32	1317.72
399.51	1385.60
399.70	1364.53
399.90	1359.85
400.09	1416.02
400.28	1467.52
400.47	1366.87
400.67	1497.94
400.86	1486.24
401.05	1462.83
401.24	1441.77
401.44	1413.68
401.63	1462.83
401.82	1500.28
402.01	1486.24
402.21	1542.41
402.40	1572.84
402.59	1488.58
402.78	1495.60
402.97	1603.27
403.17	1643.06
403.36	1603.27
403.55	1624.33
403.74	1696.89
403.93	1710.93
404.13	1746.04
404.32	1612.63
404.51	1720.29
404.70	1757.74
404.89	1671.14
405.09	1722.63
405.28	1631.35
405.47	1753.06
405.66	1785.83
405.85	1832.64
406.05	1895.83
406.24	1837.32
406.43	1834.98
406.62	1776.47
406.81	1886.47
407.00	1858.39
407.20	1872.43
407.39	1783.49
407.58	1909.88
407.77	1998.82
407.96	2054.99
408.15	2001.16
408.34	1940.30
408.54	2059.67
408.73	2001.16
408.92	1937.96
409.11	1961.37
409.30	2012.86
409.49	2012.86
409.68	2033.93
409.87	2040.95
410.07	2054.99
410.26	2183.72
410.45	2104.14
410.64	2162.66
410.83	2153.29
411.02	2230.53
411.21	2267.98
411.40	2324.15
411.59	2363.94
411.78	2375.64
411.98	2300.75
412.17	2298.41
412.36	2370.96
412.55	2349.90
412.74	2377.98
412.93	2448.20
413.12	2434.16
413.31	2532.46
413.50	2359.26
413.69	2600.34
413.88	2644.81
414.07	2525.44
414.26	2628.42
414.45	2616.72
414.64	2649.49
414.83	2738.43
415.02	2757.15
415.22	2799.28
415.41	2899.92
415.60	2789.92
415.79	2792.26
415.98	2747.79
416.17	2810.98
416.36	2813.32
416.55	2864.82
416.74	2911.63
416.93	2923.33
417.12	3012.27
417.31	3087.17
417.50	2937.37
417.69	3042.70
417.88	3028.65
418.07	3033.33
418.26	3094.19
418.45	3026.31
418.64	3119.93
418.83	3122.27
419.02	3274.41
419.21	3351.65
419.39	3162.06
419.58	3084.83
419.77	3138.66
419.96	3304.84
420.15	3300.16
420.34	3344.63
420.53	3382.07
420.72	3372.71
420.91	3433.57
421.10	3410.16
421.29	3375.05
421.48	3290.79
421.67	3433.57
421.86	3274.41
422.05	3412.50
422.24	3454.63
422.43	3471.01
422.61	3480.38
422.80	3527.19
422.99	3466.33
423.18	3557.61
423.37	3520.17
423.56	3459.31
423.75	3454.63
423.94	3576.34
424.13	3328.24
424.32	3361.01
424.50	3595.06
424.69	3660.60
424.88	3602.08
425.07	3550.59
425.26	3487.40
425.45	3433.57
425.64	3445.27
425.83	3536.55
426.01	3557.61
426.20	3597.40
426.39	3688.68
426.58	3648.90
426.77	3632.51
426.96	3716.77
427.15	3744.86
427.33	3754.22
427.52	3679.32
427.71	3794.01
427.90	3880.61
428.09	3660.60
428.28	3798.69
428.46	3796.35
428.65	3644.21
428.84	3936.78
429.03	3735.50
429.22	3833.80
429.40	3648.90
429.59	3684.00
429.78	3595.06
429.97	3634.85
430.16	3712.09
430.34	3866.56
430.53	3789.33
430.72	3852.52
430.91	3985.93
431.10	3939.12
431.28	3948.48
431.47	4131.05
431.66	4145.09
431.85	4135.73
432.03	4217.65
432.22	4243.39
432.41	4194.24
432.60	4119.34
432.79	4320.63
432.97	4367.44
433.16	4257.43
433.35	4248.07
433.54	4269.14
433.72	4369.78
433.91	4259.78
434.10	4423.61
434.28	4344.03
434.47	4255.09
434.66	4526.60
434.85	4524.26
435.03	4442.34
435.22	4435.32
435.41	4566.39
435.59	4514.89
435.78	4660.01
435.97	4596.81
436.16	4676.39
436.34	4685.75
436.53	4753.63
436.72	4746.61
436.90	4671.71
437.09	4655.33
437.28	4699.80
437.46	4821.50
437.65	4755.97
437.84	4755.97
438.02	4737.24
438.21	4826.18
438.40	4741.93
438.58	4973.64
438.77	4851.93
438.96	4837.89
439.14	5081.30
439.33	5109.39
439.52	4964.28
439.70	5090.67
439.89	5135.14
440.08	5172.58
440.26	5273.23
440.45	5163.22
440.63	5247.48
440.82	5423.02
441.01	5362.17
441.19	5511.96
441.38	5633.67
441.57	5612.60
441.75	5390.25
441.94	5619.63
442.12	5694.52
442.31	5612.60
442.50	5563.45
442.68	5703.89
442.87	5678.14
443.05	5823.25
443.24	5729.63
443.43	5584.52
443.61	5844.32
443.80	5846.66
443.98	5706.23
444.17	5621.97
444.35	5816.23
444.54	5898.15
444.73	5921.56
444.91	5792.83
445.10	5818.57
445.28	5867.72
445.47	5610.26
445.65	5795.17
445.84	5923.90
446.02	6059.65
446.21	5984.75
446.39	5940.28
446.58	5942.62
446.77	5991.77
446.95	5916.87
447.14	5991.77
447.32	6087.73
447.51	5996.45
447.69	6043.26
447.88	5935.60
448.06	5984.75
448.25	6129.86
448.43	6026.88
448.62	6033.90
448.80	5937.94
448.99	6061.99
449.17	6167.31
449.36	6150.93
449.54	6195.40
449.73	6370.94
449.91	6359.24
450.10	6483.28
450.28	6544.14
450.46	6541.80
450.65	6502.01
450.83	6665.85
451.02	6413.07
451.20	6492.65
451.39	6403.71
451.57	6293.70
451.76	6459.88
451.94	6548.82
452.13	6520.73
452.31	6544.14
452.49	6420.09
452.68	6558.18
452.86	6377.96
453.05	6558.18
453.23	6759.47
453.42	6471.58
453.60	6686.91
453.78	6700.95
453.97	6635.42
454.15	6689.25
454.34	6710.32
454.52	6766.49
454.70	6499.67
454.89	6729.04
455.07	6944.37
455.26	6836.70
455.44	6766.49
455.62	6832.02
455.81	6864.79
455.99	6944.37
456.17	7164.38
456.36	7030.97
456.54	7148.00
456.73	7171.40
456.91	7323.54
457.09	7346.94
457.28	7459.29
457.46	7297.79
457.64	7325.88
457.83	7208.85
458.01	7192.47
458.19	7545.89
458.38	7337.58
458.56	7489.71
458.74	7468.65
458.93	7447.58
459.11	7461.63
459.29	7414.82
459.48	7522.48
459.66	7398.43
459.84	7620.78
460.03	7564.61
460.21	7686.32
460.39	7723.77
460.57	7691.00
460.76	7782.28
460.94	7882.92
461.12	7737.81
461.31	7641.85
461.49	7625.47
461.67	7889.95
461.85	7943.78
462.04	7798.66
462.22	8355.71
462.40	7969.52
462.59	8025.70
462.77	7925.05
462.95	8114.64
463.13	8067.83
463.32	8198.90
463.50	7939.10
463.68	8306.56
463.86	8035.06
464.05	8109.96
464.23	8140.38
464.41	8100.59
464.59	8257.41
464.78	8299.54
464.96	8217.62
465.14	8107.62
465.32	8379.12
465.50	8395.50
465.69	8461.04
465.87	8484.44
466.05	8482.10
466.23	8182.51
466.41	8475.08
466.60	8650.62
466.78	8311.24
466.96	8320.60
467.14	8559.34
467.32	8627.21
467.51	8571.04
467.69	8510.19
467.87	8664.66
468.05	8674.03
468.23	8549.98
468.41	8526.57
468.60	8564.02
468.78	8423.59
468.96	8596.79
469.14	8837.86
469.32	9013.40
469.50	8533.59
469.69	8865.95
469.87	8856.59
470.05	8966.59
470.23	9043.83
470.41	9114.05
470.59	9298.95
470.77	8990.00
470.95	9085.96
471.14	9231.07
471.32	9107.02
471.50	9462.79
471.68	9596.20
471.86	9371.50
472.04	9226.39
472.22	9465.13
472.40	9331.72
472.58	9673.43
472.77	9516.62
472.95	9617.26
473.13	9942.60
473.31	9444.06
473.49	9804.50
473.67	9458.10
473.85	9879.40
474.03	9919.19
474.21	9958.98
474.39	10122.82
474.57	10228.14
474.75	10197.71
474.93	10083.03
475.12	10176.65
475.30	10267.93
475.48	10148.56
475.66	10422.41
475.84	10394.32
476.02	10497.30
476.20	10509.01
476.38	10726.68
476.56	10626.03
476.74	10871.79
476.92	10878.81
477.10	10813.28
477.28	10839.02
477.46	11136.27
477.64	11082.44
477.82	11246.27
478.00	11398.41
478.18	11494.37
478.36	11492.03
478.54	11501.39
478.72	11442.88
478.90	11569.27
479.08	11819.71
479.26	11868.86
479.44	12149.72
479.62	12063.12
479.80	12084.19
479.98	12372.07
480.16	12376.75
480.34	12030.35
480.52	12575.70
480.70	12456.33
480.88	12332.28
481.06	12641.23
481.24	12744.22
481.41	12844.86
481.59	13186.58
481.77	13104.66
481.95	12985.29
482.13	13324.67
482.31	13322.33
482.49	13614.90
482.67	13408.93
482.85	13554.04
483.03	14080.66
483.21	13937.89
483.39	14068.96
483.57	14494.94
483.74	14125.13
483.92	14490.26
484.10	14340.46
484.28	14548.77
484.46	14689.20
484.64	15161.99
484.82	14930.28
485.00	15056.67
485.18	15030.92
485.35	15241.57
485.53	14843.68
485.71	15021.56
485.89	15133.90
486.07	15440.51
486.25	15452.22
486.43	15573.92
486.61	15927.35
486.78	15763.51
486.96	15864.15
487.14	16343.96
487.32	16482.05
487.50	16566.31
487.68	16922.07
487.85	16842.50
488.03	17195.92
488.21	16936.12
488.39	16940.80
488.57	17205.28
488.75	17497.84
488.92	17860.63
489.10	17642.96
489.28	17455.72
489.46	17951.91
489.64	18120.43
489.81	18480.87
489.99	18403.63
490.17	18354.48
490.35	18726.63
490.53	18661.09
490.70	19028.56
490.88	18845.99
491.06	18977.06
491.24	19506.02
491.41	19262.61
491.59	19295.38
491.77	19372.61
491.95	19840.72
492.13	19398.36
492.30	20170.74
492.48	20140.31
492.66	20006.90
492.84	20081.80
493.01	20428.20
493.19	20430.54
493.37	20769.91
493.54	20779.28
493.72	20786.30
493.90	20746.51
494.08	21303.56
494.25	21465.05
494.43	21418.24
494.61	21631.23
494.79	21734.21
494.96	21390.16
495.14	21633.57
495.32	21759.96
495.49	22019.76
495.67	22043.17
495.85	22008.06
496.02	22324.03
496.20	22635.32
496.38	22511.27
496.55	22288.92
496.73	23021.51
496.91	22836.61
497.09	23136.20
497.26	23080.02
497.44	22963.00
497.62	23482.59
497.79	23653.45
497.97	23197.05
498.14	23424.08
498.32	23859.42
498.50	23894.53
498.67	24093.47
498.85	23768.14
499.03	24217.52
499.20	24409.45
499.38	24411.79
499.56	24364.98
499.73	24517.11
499.91	24893.94
500.08	24968.84
500.26	24797.98
500.44	24779.25
500.61	25003.94
500.79	24907.98
500.97	24978.20
501.14	25359.70
501.32	25546.95
501.49	25214.59
501.67	25418.22
501.84	25593.76
502.02	25537.59
502.20	25755.26
502.37	26106.34
502.55	25493.12
502.72	25989.31
502.90	26178.89
503.07	25851.22
503.25	26160.17
503.43	26216.34
503.60	26375.50
503.78	26209.32
503.95	26118.04
504.13	26141.44
504.30	26808.50
504.48	26731.26
504.65	27033.19
504.83	27070.64
505.01	27204.05
505.18	26995.74
505.36	27150.21
505.53	27321.07
505.71	27672.15
505.88	27686.20
506.06	27358.52
506.23	27391.29
506.41	27353.84
506.58	27672.15
506.76	27620.66
506.93	28065.36
507.11	27854.72
507.28	28158.99
507.46	28208.14
507.63	28084.09
507.81	28175.37
507.98	27840.67
508.16	28451.55
508.33	28631.77
508.50	28603.69
508.68	28779.23
508.85	29081.16
509.03	28758.16
509.20	29118.60
509.38	29486.07
509.55	29249.67
509.73	29364.36
509.90	29366.70
510.08	28903.28
510.25	29769.27
510.42	29277.76
510.60	29408.83
510.77	29942.47
510.95	29479.05
511.12	29462.66
511.30	29743.53
511.47	30368.45
511.64	30096.95
511.82	30375.47
511.99	29888.64
512.17	30169.51
512.34	30471.43
512.51	30307.60
512.69	30408.24
512.86	30775.70
513.04	31049.55
513.21	30731.23
513.38	30696.13
513.56	30979.33
513.73	31026.14
513.90	31016.78
514.08	30658.68
514.25	31281.26
514.43	31178.28
514.60	30939.54
514.77	31199.34
514.95	31559.78
515.12	31367.86
515.29	31517.65
515.47	31859.37
515.64	31812.56
515.81	31288.28
515.99	31913.20
516.16	31960.02
516.33	31988.10
516.51	32236.20
516.68	32006.83
516.85	31557.44
517.03	32009.17
517.20	31702.56
517.37	32512.38
517.54	32285.35
517.72	32194.07
517.89	32423.44
518.06	32233.86
518.24	32304.07
518.41	32416.42
518.58	32411.74
518.75	32643.45
518.93	33001.55
519.10	32868.14
519.27	33013.26
519.45	33069.43
519.62	33675.63
519.79	33214.54
519.96	33163.05
520.14	33507.11
520.31	33450.94
520.48	33703.71
520.65	33598.39
520.83	33834.78
521.00	33680.31
521.17	33649.88
521.34	33731.80
521.52	33893.30
521.69	34125.01
521.86	34338.00
522.03	33785.63
522.20	33844.15
522.38	34424.60
522.55	34029.05
522.72	34422.26
522.89	34256.08
523.07	34693.76
523.24	34387.15
523.41	34775.68
523.58	34440.98
523.75	35196.98
523.92	34902.07
524.10	34838.87
524.27	34829.51
524.44	35079.95
524.61	35285.92
524.78	34883.34
524.96	35276.55
525.13	35185.27
525.30	35644.02
525.47	35859.35
525.64	35501.25
525.81	35763.39
525.98	35601.89
526.16	35786.79
526.33	35515.29
526.50	35894.46
526.67	35608.91
526.84	35749.34
527.01	35473.16
527.18	36048.93
527.36	36158.94
527.53	35983.40
527.70	36566.19
527.87	36126.17
528.04	36156.60
528.21	36257.24
528.38	36334.48
528.55	36943.02
528.72	36538.10
528.89	37277.71
529.07	36187.02
529.24	36545.12
529.41	36692.58
529.58	36641.09
529.75	36594.28
529.92	37151.32
530.09	36690.24
530.26	37083.45
530.43	37315.16
530.60	37347.93
530.77	37160.69
530.94	37254.31
531.11	37099.83
531.28	37001.53
531.46	37610.07
531.63	37298.78
531.80	37523.47
531.97	37397.08
532.14	37427.51
532.31	37420.48
532.48	37359.63
532.65	37841.78
532.82	37507.08
532.99	37787.95
533.16	37642.84
533.33	37324.52
533.50	38132.01
533.67	38024.34
533.84	37825.40
534.01	37715.39
534.18	37968.17
534.35	38155.41
534.52	38742.89
534.69	38621.18
534.86	38679.69
535.03	38309.89
535.20	38405.85
535.37	38675.01
535.54	38726.50
535.71	38443.30
535.88	38370.74
536.05	38897.36
536.22	38480.75
536.38	38663.31
536.55	38700.76
536.72	38885.66
536.89	38506.49
537.06	39112.69
537.23	39168.87
537.40	38862.26
537.57	38754.59
537.74	39131.42
537.91	39030.77
538.08	39445.05
538.25	39126.74
538.42	39442.71
538.59	39491.86
538.75	38983.96
538.92	39337.38
539.09	39445.05
539.26	39161.84
539.43	39562.08
539.60	39477.82
539.77	39557.39
539.94	39627.61
540.11	39328.02
540.28	39622.93
540.44	39526.97
540.61	39772.72
540.78	39421.64
540.95	39512.92
541.12	39608.89
541.29	39828.90
541.46	39761.02
541.62	39789.11
541.79	40336.79
541.96	39929.54
542.13	40006.78
542.30	40105.08
542.47	39950.60
542.63	39917.84
542.80	39917.84
542.97	40685.53
543.14	40872.78
543.31	40364.88
543.48	40484.25
543.64	41514.08
543.81	40666.81
543.98	40849.37
544.15	40720.64
544.32	40692.55
544.48	41064.70
544.65	41013.21
544.82	41401.74
544.99	40573.19
545.16	40926.61
545.32	40898.52
545.49	41537.49
545.66	41521.10
545.83	41467.27
546.00	41097.47
546.16	41593.66
546.33	41514.08
546.50	40797.88
546.67	41425.14
546.83	40989.80
547.00	41488.34
547.17	41081.08
547.34	41273.01
547.50	41474.29
547.67	41471.95
547.84	41804.31
548.00	41911.97
548.17	41811.33
548.34	41457.91
548.51	41851.12
548.67	41942.40
548.84	42295.82
549.01	41820.69
549.18	42010.28
549.34	41675.58
549.51	42106.24
549.68	41514.08
549.84	42080.49
550.01	41722.39
550.18	42185.82
550.34	41933.04
550.51	42029.00
550.68	42157.73
550.84	42014.96
551.01	41860.48
551.18	41839.42
551.34	42094.53
551.51	42459.66
551.68	42349.65
551.84	42508.81
552.01	42487.74
552.18	42068.79
552.34	42389.44
552.51	42270.08
552.68	42693.71
552.84	42726.48
553.01	42550.94
553.18	42827.12
553.34	42557.96
553.51	42347.31
553.67	42838.83
553.84	43110.33
554.01	43105.65
554.17	43143.09
554.34	43264.80
554.51	42883.30
554.67	43290.55
554.84	42990.96
555.00	42862.23
555.17	42518.17
555.33	42834.14
555.50	42674.99
555.67	42953.51
555.83	42782.65
556.00	43206.29
556.16	43903.77
556.33	43217.99
556.50	42794.36
556.66	43496.52
556.83	42911.38
556.99	43475.45
557.16	43278.85
557.32	43363.11
557.49	43129.05
557.65	42974.58
557.82	43173.52
557.98	43159.48
558.15	43264.80
558.32	43707.16
558.48	43166.50
558.65	43089.26
558.81	43423.96
558.98	43732.91
559.14	43199.27
559.31	43793.76
559.47	43063.52
559.64	43723.55
559.80	43817.17
559.97	43962.28
560.13	43459.07
560.30	43335.02
560.46	43789.08
560.63	43931.86
560.79	43945.90
560.96	43782.06
561.12	43470.77
561.29	43672.06
561.45	43653.33
561.61	44093.35
561.78	43622.90
561.94	43959.94
562.11	43679.08
562.27	43782.06
562.44	43990.37
562.60	43906.11
562.77	44189.31
562.93	43835.89
563.10	44341.45
563.26	44013.77
563.42	44032.50
563.59	44149.53
563.75	44128.46
563.92	44011.43
564.08	44062.93
564.24	43873.34
564.41	44116.76
564.57	43948.24
564.74	44266.55
564.90	44107.40
565.07	43957.60
565.23	44179.95
565.39	44292.30
565.56	44170.59
565.72	43922.49
565.88	44435.07
566.05	44020.80
566.21	44133.14
566.38	43983.35
566.54	44051.22
566.70	44102.71
566.87	44704.23
567.03	43999.73
567.19	44690.19
567.36	44521.67
567.52	44142.50
567.68	44636.36
567.85	44271.23
568.01	44486.56
568.17	44280.60
568.34	44547.42
568.50	44273.57
568.66	44268.89
568.83	44809.56
568.99	44282.94
569.15	44294.64
569.32	44177.61
569.48	44205.70
569.64	44687.85
569.81	44931.26
569.97	44493.58
570.13	44727.64
570.30	44566.14
570.46	44016.11
570.62	44339.11
570.78	44306.34
570.95	44549.76
571.11	44697.21
571.27	44257.19
571.43	44559.12
571.60	44648.06
571.76	44294.64
571.92	44655.08
572.09	44589.55
572.25	44079.31
572.41	44708.91
572.57	44463.16
572.74	44954.67
572.90	44900.84
573.06	44699.55
573.22	44596.57
573.38	44357.83
573.55	44676.15
573.71	44858.71
573.87	44596.57
574.03	44292.30
574.20	44069.95
574.36	44851.69
574.52	44624.65
574.68	44629.34
574.84	44655.08
575.01	44760.40
575.17	44945.31
575.33	44554.44
575.49	44278.25
575.65	45284.68
575.82	44837.64
575.98	44912.54
576.14	45036.59
576.30	44612.95
576.46	44582.52
576.62	44467.84
576.79	44465.50
576.95	44329.75
577.11	44540.39
577.27	44442.09
577.43	44739.34
577.59	45198.09
577.75	44395.28
577.92	44509.97
578.08	44313.36
578.24	44481.88
578.40	44767.43
578.56	44863.39
578.72	44744.02
578.88	44767.43
579.04	44797.85
579.21	44629.34
579.37	44678.49
579.53	44346.13
579.69	44416.35
579.85	44559.12
580.01	44797.85
580.17	44795.51
580.33	44851.69
580.49	44905.52
580.65	45221.49
580.82	44641.04
580.98	44432.73
581.14	44931.26
581.30	44636.36
581.46	44830.62
581.62	44643.38
581.78	45024.89
581.94	45191.06
582.10	44580.18
582.26	45324.47
582.42	44818.92
582.58	44755.72
582.74	45013.18
582.90	44856.37
583.06	44966.37
583.22	45226.17
583.38	45085.74
583.54	44825.94
583.70	44835.30
583.86	44790.83
584.02	44449.11
584.18	44425.71
584.34	44802.53
584.50	45041.27
584.66	44430.39
584.82	44502.95
584.98	45038.93
585.14	44708.91
585.30	45088.08
585.46	44835.30
585.62	44343.79
585.78	44568.48
585.94	44645.72
586.10	44484.22
586.26	44823.60
586.42	44999.14
586.58	44849.35
586.74	44884.45
586.90	44694.87
587.06	44612.95
587.22	44975.73
587.38	44847.00
587.54	45207.45
587.70	45064.67
587.86	45106.80
588.02	45111.49
588.18	44952.33
588.34	44790.83
588.49	44748.70
588.65	45001.48
588.81	44299.32
588.97	44472.52
589.13	44222.08
589.29	44837.64
589.45	44861.05
589.61	44823.60
589.77	45226.17
589.93	45160.64
590.08	45195.74
590.24	45207.45
