SpectraSuite Data File
++++++++++++++++++++++++++++++++++++
Date: Fri Oct 25 11:25:21 EDT 2013
User: price-jones
Dark Spectrum Present: No
Reference Spectrum Present: No
Number of Sampled Component Spectra: 1
Spectrometers: USB2+H05261
Integration Time (usec): 100000 (USB2+H05261)
Spectra Averaged: 1 (USB2+H05261)
Boxcar Smoothing: 0 (USB2+H05261)
Correct for Electrical Dark: No (USB2+H05261)
Strobe/Lamp Enabled: No (USB2+H05261)
Correct for Detector Non-linearity: No (USB2+H05261)
Correct for Stray Light: No (USB2+H05261)
Number of Pixels in Processed Spectrum: 2048
>>>>>Begin Processed Spectral Data<<<<<
365.73	257.46
365.92	257.46
366.12	257.46
366.32	140.43
366.52	159.16
366.72	135.75
366.91	128.73
367.11	152.13
367.31	110.01
367.51	131.07
367.70	114.69
367.90	170.86
368.10	128.73
368.30	86.60
368.49	112.35
368.69	196.60
368.89	241.08
369.09	173.20
369.28	196.60
369.48	152.13
369.68	168.52
369.87	175.54
370.07	154.48
370.27	215.33
370.47	311.29
370.66	568.75
370.86	704.50
371.06	629.60
371.25	634.29
371.45	620.24
371.65	681.10
371.84	734.93
372.04	688.12
372.24	748.97
372.44	765.36
372.63	725.57
372.83	720.88
373.03	779.40
373.22	784.08
373.42	746.63
373.62	791.10
373.81	837.91
374.01	755.99
374.21	805.14
374.40	765.36
374.60	800.46
374.79	774.72
374.99	840.25
375.19	875.36
375.38	856.64
375.58	798.12
375.78	933.87
375.97	835.57
376.17	856.64
376.37	896.43
376.56	830.89
376.76	828.55
376.95	835.57
377.15	819.19
377.35	919.83
377.54	863.66
377.74	870.68
377.93	812.17
378.13	919.83
378.33	933.87
378.52	992.39
378.72	912.81
378.91	823.87
379.11	931.53
379.31	954.94
379.50	882.38
379.70	1004.09
379.89	1006.43
380.09	964.30
380.28	922.17
380.48	1064.94
380.68	999.41
380.87	997.07
381.07	1102.39
381.26	1032.18
381.46	1074.31
381.65	1123.46
381.85	1064.94
382.04	1086.01
382.24	1036.86
382.43	1043.88
382.63	1097.71
382.83	1097.71
383.02	1097.71
383.22	1177.29
383.41	1109.41
383.61	1158.57
383.80	1130.48
384.00	1046.22
384.19	1130.48
384.39	1203.04
384.58	1151.54
384.78	1041.54
384.97	1062.60
385.17	1128.14
385.36	1100.05
385.56	1100.05
385.75	1097.71
385.95	1203.04
386.14	1228.78
386.34	1172.61
386.53	1090.69
386.72	1198.35
386.92	1151.54
387.11	1172.61
387.31	1181.97
387.50	1231.12
387.70	1207.72
387.89	1270.91
388.09	1280.27
388.28	1247.51
388.48	1284.95
388.67	1313.04
388.86	1348.15
389.06	1315.38
389.25	1259.21
389.45	1416.02
389.64	1324.74
389.84	1306.02
390.03	1423.05
390.22	1338.79
390.42	1310.70
390.61	1334.11
390.81	1303.68
391.00	1416.02
391.19	1432.41
391.39	1451.13
391.58	1519.01
391.78	1476.88
391.97	1483.90
392.16	1427.73
392.36	1558.80
392.55	1511.99
392.75	1432.41
392.94	1376.24
393.13	1537.73
393.33	1448.79
393.52	1479.22
393.71	1610.29
393.91	1614.97
394.10	1540.07
394.29	1708.59
394.49	1682.85
394.68	1643.06
394.88	1650.08
395.07	1682.85
395.26	1760.08
395.46	1626.67
395.65	1722.63
395.84	1717.95
396.04	1748.38
396.23	1673.48
396.42	1757.74
396.62	1849.02
396.81	1797.53
397.00	1741.36
397.19	1736.68
397.39	1849.02
397.58	1802.21
397.77	1849.02
397.97	1860.73
398.16	1858.39
398.35	1884.13
398.55	1846.68
398.74	1846.68
398.93	1907.54
399.12	2005.84
399.32	1863.07
399.51	1930.94
399.70	1909.88
399.90	1947.33
400.09	2015.20
400.28	2052.65
400.47	1982.43
400.67	2083.08
400.86	1975.41
401.05	2069.03
401.24	2087.76
401.44	2115.84
401.63	2242.23
401.82	2176.70
402.01	2127.55
402.21	2139.25
402.40	2036.27
402.59	2179.04
402.78	2230.53
402.97	2188.40
403.17	2162.66
403.36	2267.98
403.55	2275.00
403.74	2279.68
403.93	2284.36
404.13	2289.04
404.32	2415.43
404.51	2230.53
404.70	2267.98
404.89	2312.45
405.09	2335.85
405.28	2342.88
405.47	2485.65
405.66	2506.71
405.85	2597.99
406.05	2539.48
406.24	2499.69
406.43	2534.80
406.62	2616.72
406.81	2668.21
407.00	2420.11
407.20	2478.63
407.39	2693.96
407.58	2644.81
407.77	2677.57
407.96	2796.94
408.15	2752.47
408.34	2642.46
408.54	2782.90
408.73	2789.92
408.92	2731.41
409.11	2853.11
409.30	2806.30
409.49	2860.13
409.68	2972.48
409.87	2855.45
410.07	2892.90
410.26	3073.12
410.45	2965.46
410.64	3000.57
410.83	3026.31
411.02	3148.02
411.21	3094.19
411.40	3023.97
411.59	3089.51
411.78	3176.11
411.98	3176.11
412.17	3311.86
412.36	3288.45
412.55	3356.33
412.74	3393.78
412.93	3466.33
413.12	3365.69
413.31	3499.10
413.50	3365.69
413.69	3421.86
413.88	3468.67
414.07	3569.32
414.26	3672.30
414.45	3569.32
414.64	3641.87
414.83	3684.00
415.02	3824.44
415.22	3763.58
415.41	3775.28
415.60	3896.99
415.79	3875.93
415.98	3878.27
416.17	3894.65
416.36	3868.91
416.55	3969.55
416.74	4072.53
416.93	4025.72
417.12	4114.66
417.31	4121.68
417.50	4098.28
417.69	4306.59
417.88	4285.52
418.07	4145.09
418.26	4231.69
418.45	4315.95
418.64	4578.09
418.83	4365.10
419.02	4393.19
419.21	4552.34
419.39	4596.81
419.58	4519.57
419.77	4437.66
419.96	4559.36
420.15	4482.13
420.34	4671.71
420.53	4650.64
420.72	4662.35
420.91	4575.75
421.10	4620.22
421.29	4837.89
421.48	4676.39
421.67	4751.29
421.86	4655.33
422.05	4847.25
422.24	4940.87
422.43	4802.78
422.61	4791.08
422.80	4770.01
422.99	4821.50
423.18	4870.65
423.37	4861.29
423.56	4856.61
423.75	4943.21
423.94	4770.01
424.13	4678.73
424.32	4732.56
424.50	5041.51
424.69	5006.41
424.88	5142.16
425.07	4821.50
425.26	4898.74
425.45	4931.51
425.64	4973.64
425.83	4915.12
426.01	4889.38
426.20	4947.89
426.39	5055.56
426.58	5057.90
426.77	4968.96
426.96	4975.98
427.15	5095.35
427.33	5050.88
427.52	5207.69
427.71	5104.71
427.90	5046.20
428.09	5392.59
428.28	5280.25
428.46	5256.84
428.65	5373.87
428.84	5472.17
429.03	5509.62
429.22	5249.82
429.40	5378.55
429.59	5507.28
429.78	5369.19
429.97	5186.63
430.16	5343.44
430.34	5582.18
430.53	5647.71
430.72	5530.69
430.91	5689.84
431.10	5633.67
431.28	5696.86
431.47	5729.63
431.66	5879.43
431.85	5619.63
432.03	5678.14
432.22	5968.37
432.41	5853.68
432.60	5841.98
432.79	5853.68
432.97	5921.56
433.16	6141.57
433.35	5820.91
433.54	6036.24
433.72	6092.41
433.91	6146.25
434.10	5928.58
434.28	6052.63
434.47	6092.41
434.66	6237.53
434.85	6186.04
435.03	6293.70
435.22	6256.25
435.41	6272.64
435.59	6272.64
435.78	6338.17
435.97	6420.09
436.16	6438.81
436.34	6417.75
436.53	6450.52
436.72	6642.44
436.90	6593.29
437.09	6483.28
437.28	6459.88
437.46	6483.28
437.65	6633.08
437.84	6590.95
438.02	6539.46
438.21	6710.32
438.40	6677.55
438.58	6970.12
438.77	6881.18
438.96	7016.93
439.14	6935.01
439.33	7082.46
439.52	7204.17
439.70	7208.85
439.89	7337.58
440.08	7194.81
440.26	7330.56
440.45	7279.07
440.63	7372.69
440.82	7487.37
441.01	7318.86
441.19	7485.03
441.38	7655.89
441.57	7768.24
441.75	7911.01
441.94	7913.35
442.12	7899.31
442.31	7929.74
442.50	8030.38
442.68	7925.05
442.87	7878.24
443.05	7850.16
443.24	8002.29
443.43	8161.45
443.61	7955.48
443.80	8348.69
443.98	8004.63
444.17	7702.70
444.35	8098.25
444.54	8238.69
444.73	8128.68
444.91	8259.75
445.10	8248.05
445.28	8339.33
445.47	8290.18
445.65	8374.44
445.84	8224.64
446.02	8402.52
446.21	8322.94
446.39	8430.61
446.58	8374.44
446.77	8386.14
446.95	8201.24
447.14	8362.73
447.32	8430.61
447.51	8493.80
447.69	8421.25
447.88	8442.31
448.06	8449.33
448.25	8409.54
448.43	8423.59
448.62	8725.52
448.80	8573.38
448.99	8638.92
449.17	8664.66
449.36	8519.55
449.54	8821.48
449.73	8889.35
449.91	9018.08
450.10	8922.12
450.28	9081.28
450.46	9071.92
450.65	9050.85
450.83	9048.51
451.02	9146.81
451.20	8954.89
451.39	8994.68
451.57	9013.40
451.76	9025.11
451.94	9074.26
452.13	9327.03
452.31	9338.74
452.49	9048.51
452.68	9282.56
452.86	9259.16
453.05	9305.97
453.23	9228.73
453.42	9336.40
453.60	9224.05
453.78	9556.41
453.97	9434.70
454.15	9415.98
454.34	9394.91
454.52	9643.01
454.70	9579.81
454.89	9600.88
455.07	9722.59
455.26	9678.12
455.44	9907.49
455.62	9795.14
455.81	9902.81
455.99	10139.20
456.17	9884.08
456.36	9916.85
456.54	10197.71
456.73	10101.75
456.91	10333.47
457.09	10539.43
457.28	10611.99
457.46	10087.71
457.64	10263.25
457.83	10399.00
458.01	10408.36
458.19	10595.61
458.38	10448.15
458.56	10562.84
458.74	10710.29
458.93	10462.19
459.11	10654.12
459.29	10581.56
459.48	10675.18
459.66	10839.02
459.84	10902.22
460.03	10883.49
460.21	10789.87
460.39	10801.57
460.57	10824.98
460.76	11119.89
460.94	11159.67
461.12	11253.30
461.31	10846.04
461.49	10939.66
461.67	11152.65
461.85	11213.51
462.04	11342.24
462.22	11756.51
462.40	11421.81
462.59	11379.68
462.77	11337.56
462.95	11513.10
463.13	11569.27
463.32	11431.18
463.50	11513.10
463.68	11648.85
463.86	11552.88
464.05	11555.22
464.23	11651.19
464.41	11737.79
464.59	11548.20
464.78	12126.32
464.96	11974.18
465.14	11719.06
465.32	12084.19
465.50	12109.93
465.69	12063.12
465.87	11805.66
466.05	11910.99
466.23	11971.84
466.41	12095.89
466.60	12393.14
466.78	12425.90
466.96	12229.30
467.14	11882.90
467.32	12203.55
467.51	12446.97
467.69	12154.40
467.87	12369.73
468.05	12538.25
468.23	12643.57
468.41	12203.55
468.60	12484.42
468.78	12666.98
468.96	12828.48
469.14	12767.62
469.32	13001.68
469.50	12264.41
469.69	12662.30
469.87	13036.78
470.05	12952.52
470.23	13256.79
470.41	13135.09
470.59	13081.25
470.77	12987.63
470.95	13167.85
471.14	13523.62
471.32	12994.65
471.50	13322.33
471.68	13266.16
471.86	13577.45
472.04	13647.66
472.22	13935.55
472.40	13605.53
472.58	13668.73
472.77	13830.23
472.95	13996.40
473.13	14366.21
473.31	13958.96
473.49	13816.18
473.67	14003.43
473.85	14080.66
474.03	14459.83
474.21	14424.72
474.39	14635.37
474.57	14714.95
474.75	14684.52
474.93	14611.96
475.12	14668.14
475.30	15110.50
475.48	15033.26
475.66	15056.67
475.84	15002.83
476.02	15290.72
476.20	15475.62
476.38	15599.67
476.56	15693.29
476.74	15744.78
476.92	15810.32
477.10	15356.25
477.28	16042.03
477.46	15943.73
477.64	16395.45
477.82	16720.79
478.00	16868.24
478.18	16517.16
478.36	16641.21
478.54	17191.23
478.72	16863.56
478.90	17270.81
479.08	17273.15
479.26	17432.31
479.44	17572.74
479.62	17722.54
479.80	17764.67
479.98	18015.10
480.16	18382.57
480.34	18064.25
480.52	18319.37
480.70	18424.70
480.88	18349.80
481.06	18672.79
481.24	18778.12
481.41	18930.25
481.59	19328.14
481.77	19398.36
481.95	19545.81
482.13	19674.54
482.31	19789.23
482.49	20091.16
482.67	19861.79
482.85	20154.35
483.03	20219.89
483.21	20685.65
483.39	20961.84
483.57	20755.87
483.74	21001.63
483.92	20898.64
484.10	20989.92
484.28	21797.41
484.46	21942.52
484.64	21804.43
484.82	21706.13
485.00	22368.50
485.18	22574.47
485.35	22838.95
485.53	22635.32
485.71	22822.56
485.89	23321.10
486.07	23033.21
486.25	23218.11
486.43	23559.83
486.61	23744.73
486.78	24020.92
486.96	23854.74
487.14	24418.81
487.32	24325.19
487.50	24837.76
487.68	24819.04
487.85	25001.60
488.03	25219.27
488.21	25612.48
488.39	25888.67
488.57	25998.67
488.75	25935.48
488.92	26525.29
489.10	26658.70
489.28	26625.93
489.46	26967.65
489.64	26663.38
489.81	27480.23
489.99	27835.99
490.17	27304.69
490.35	28084.09
490.53	27690.88
490.70	28112.17
490.88	27915.57
491.06	28678.58
491.24	28650.50
491.41	28655.18
491.59	29170.10
491.77	29249.67
491.95	29443.94
492.13	29549.26
492.30	29668.63
492.48	29879.28
492.66	29881.62
492.84	30066.52
493.01	30244.40
493.19	30204.61
493.37	30658.68
493.54	30808.47
493.72	31491.91
493.90	31452.12
494.08	31522.34
494.25	31990.44
494.43	31498.93
494.61	31950.65
494.79	32554.51
494.96	32458.55
495.14	32575.58
495.32	32765.16
495.49	32931.34
495.67	32978.15
495.85	33399.44
496.02	33514.13
496.20	33720.10
496.38	33846.49
496.55	33919.04
496.73	34099.26
496.91	34199.91
497.09	34864.62
497.26	34724.19
497.44	34965.26
497.62	34960.58
497.79	35915.52
497.97	34834.19
498.14	35304.64
498.32	35828.92
498.50	36128.51
498.67	36121.49
498.85	36175.32
499.03	36123.83
499.20	36638.75
499.38	36683.22
499.56	36730.03
499.73	36825.99
499.91	37041.32
500.08	36938.33
500.26	37317.50
500.44	37441.55
500.61	37837.10
500.79	37771.57
500.97	37654.54
501.14	38354.36
501.32	38164.78
501.49	38321.59
501.67	38249.03
501.84	38312.23
502.02	38665.65
502.20	38806.08
502.37	39208.65
502.55	39105.67
502.72	39119.71
502.90	39072.90
503.07	39229.72
503.25	39309.30
503.43	39405.26
503.60	39250.78
503.78	40238.49
503.95	39800.81
504.13	39971.67
504.30	40362.54
504.48	40318.07
504.65	40367.22
504.83	40383.60
505.01	41097.47
505.18	41280.03
505.36	41186.41
505.53	40809.58
505.71	40980.44
505.88	41605.36
506.06	41368.97
506.23	41434.50
506.41	41071.72
506.58	41872.18
506.76	42183.48
506.93	42115.60
507.11	42117.94
507.28	42267.73
507.46	42525.19
507.63	42567.32
507.81	42616.47
507.98	42953.51
508.16	43005.00
508.33	42946.49
508.50	43227.35
508.68	43386.51
508.85	43704.82
509.03	43475.45
509.20	43704.82
509.38	43688.44
509.55	43899.09
509.73	44364.85
509.90	44175.27
510.08	43756.32
510.25	44619.97
510.42	44418.69
510.60	44404.64
510.77	45104.46
510.95	45141.91
511.12	44978.07
511.30	44933.60
511.47	45027.23
511.64	45219.15
511.82	45549.17
511.99	45532.78
512.17	45771.52
512.34	45631.08
512.51	45968.12
512.69	46487.72
512.86	46014.93
513.04	46237.28
513.21	46527.51
513.38	46749.86
513.56	46747.52
513.73	46703.05
513.90	46916.04
514.08	46784.97
514.25	46813.05
514.43	47138.39
514.60	47428.62
514.77	47124.35
514.95	47505.85
515.12	47084.56
515.29	47168.82
515.47	47639.26
515.64	48023.11
515.81	48123.75
515.99	48107.37
516.16	48261.85
516.33	48184.61
516.51	48484.20
516.68	48369.51
516.85	48058.22
517.03	48353.13
517.20	48477.18
517.37	48296.95
517.54	48767.40
517.72	48800.17
517.89	48964.01
518.06	48601.22
518.24	48994.43
518.41	49247.21
518.58	48994.43
518.75	48762.72
518.93	49104.44
519.10	49027.20
519.27	49563.18
519.45	49684.89
519.62	49427.43
519.79	49860.43
519.96	49741.06
520.14	49860.43
520.31	49659.15
520.48	49940.01
520.65	50014.91
520.83	50468.97
521.00	50548.55
521.17	50082.78
521.34	50377.69
521.52	50651.53
521.69	50852.82
521.86	50815.37
522.03	51000.27
522.20	51112.62
522.38	51234.33
522.55	50974.53
522.72	50953.46
522.89	51114.96
523.07	51466.04
523.24	50997.93
523.41	51323.27
523.58	51124.32
523.75	51756.27
523.92	51363.06
524.10	51398.16
524.27	52144.80
524.44	51873.29
524.61	51976.28
524.78	51842.87
524.96	51978.62
525.13	52109.69
525.30	52465.45
525.47	52203.31
525.64	52219.69
525.81	52409.28
525.98	52404.59
526.16	52528.64
526.33	52259.48
526.50	52797.80
526.67	52521.62
526.84	52882.06
527.01	52512.26
527.18	52664.39
527.36	52725.25
527.53	52935.90
527.70	53104.41
527.87	52952.28
528.04	52982.71
528.21	53038.88
528.38	53029.52
528.55	53183.99
528.72	52924.19
528.89	53071.65
529.07	53127.82
529.24	53162.93
529.41	53488.26
529.58	53631.04
529.75	53633.38
529.92	53563.16
530.09	53483.58
530.26	53794.87
530.43	53853.39
530.60	53624.01
530.77	53567.84
530.94	54113.19
531.11	53687.21
531.28	54225.53
531.46	54007.86
531.63	54033.61
531.80	54117.87
531.97	53954.03
532.14	54225.53
532.31	54206.81
532.48	54260.64
532.65	54295.75
532.82	54047.65
532.99	54291.07
533.16	54239.57
533.33	54721.72
533.50	54475.97
533.67	54543.84
533.84	54754.49
534.01	54567.25
534.18	54749.81
534.35	55224.94
534.52	54562.57
534.69	55030.68
534.86	55187.49
535.03	54934.71
535.20	55028.34
535.37	55215.58
535.54	55086.85
535.71	55002.59
535.88	55168.77
536.05	55199.19
536.22	55367.71
536.38	55353.67
536.55	55515.17
536.72	55365.37
536.89	55121.96
537.06	55412.18
537.23	55632.19
537.40	55150.04
537.57	55395.80
537.74	55477.72
537.91	55529.21
538.08	55641.56
538.25	55430.91
538.42	55566.66
538.59	55894.33
538.75	55870.93
538.92	56191.58
539.09	55793.69
539.26	55760.92
539.43	55833.48
539.60	56041.79
539.77	56060.51
539.94	56217.33
540.11	56114.34
540.28	56163.50
540.44	56409.25
540.61	56189.24
540.78	56184.56
540.95	56182.22
541.12	56149.45
541.29	56200.94
541.46	56299.25
541.62	56575.43
541.79	56669.05
541.96	56065.19
542.13	56474.79
542.30	56252.44
542.47	56573.09
542.63	56640.96
542.80	56619.90
542.97	56657.35
543.14	57085.67
543.31	57041.20
543.48	57111.41
543.64	57162.90
543.81	57322.06
543.98	57092.69
544.15	57188.65
544.32	57221.42
544.48	57418.02
544.65	57282.27
544.82	57233.12
544.99	57003.75
545.16	57537.39
545.32	57205.03
545.49	57670.80
545.66	57354.83
545.83	57584.20
546.00	57427.38
546.16	57392.28
546.33	57354.83
546.50	57305.68
546.67	57563.14
546.83	57085.67
547.00	57485.90
547.17	57537.39
547.34	57708.25
547.50	57680.16
547.67	57738.68
547.84	57675.48
548.00	58120.18
548.17	58113.16
548.34	57993.79
548.51	57998.48
548.67	58040.60
548.84	57946.98
549.01	58094.44
549.18	58059.33
549.34	57827.62
549.51	58164.65
549.68	58396.37
549.84	58312.11
550.01	58106.14
550.18	58012.52
550.34	58145.93
550.51	58162.31
550.68	58152.95
550.84	57951.66
551.01	58258.27
551.18	58312.11
551.34	58251.25
551.51	58176.36
551.68	58417.43
551.84	58375.30
552.01	58277.00
552.18	58445.52
552.34	58291.04
552.51	58258.27
552.68	58136.57
552.84	58401.05
553.01	58663.19
553.18	58571.91
553.34	58798.94
553.51	58700.64
553.67	58686.59
553.84	58878.52
554.01	58787.24
554.17	58773.19
554.34	58489.99
554.51	58770.85
554.67	58944.05
554.84	58850.43
555.00	58876.18
555.17	58983.84
555.33	58986.18
555.50	58728.72
555.67	59018.95
555.83	58630.42
556.00	59054.06
556.16	59192.15
556.33	59098.53
556.50	59056.40
556.66	59203.85
556.83	58925.33
556.99	59175.76
557.16	59054.06
557.32	59250.66
557.49	59400.46
557.65	59159.38
557.82	59000.22
557.98	59159.38
558.15	59370.03
558.32	59281.09
558.48	59206.19
558.65	59217.89
558.81	59531.53
558.98	59248.32
559.14	59337.26
559.31	59583.02
559.47	59576.00
559.64	59517.48
559.80	59496.42
559.97	59496.42
560.13	59260.02
560.30	59505.78
560.46	59470.67
560.63	59538.55
560.79	59767.92
560.96	59814.73
561.12	59840.48
561.29	59678.98
561.45	59597.06
561.61	59587.70
561.78	59561.95
561.94	59608.76
562.11	59814.73
562.27	59744.51
562.44	59870.90
562.60	59751.54
562.77	59817.07
562.93	59650.89
563.10	59861.54
563.26	59835.80
563.42	60013.68
563.59	59716.43
563.75	59840.48
563.92	59753.88
564.08	59971.55
564.24	59894.31
564.41	60051.12
564.57	60189.22
564.74	59927.08
564.90	60074.53
565.07	59821.75
565.23	59957.50
565.39	60095.60
565.56	60266.45
565.72	59873.24
565.88	59950.48
566.05	59856.86
566.21	59877.93
566.38	60109.64
566.54	60177.51
566.70	60097.94
566.87	60168.15
567.03	59788.98
567.19	60346.03
567.36	60037.08
567.52	60182.19
567.68	60612.85
567.85	59992.61
568.01	60245.39
568.17	60037.08
568.34	60243.05
568.50	60205.60
568.66	60177.51
568.83	60306.24
568.99	60470.08
569.15	60142.41
569.32	60119.00
569.48	60219.64
569.64	60331.99
569.81	60062.83
569.97	60186.88
570.13	60158.79
570.30	60238.37
570.46	60434.97
570.62	60481.78
570.78	60322.63
570.95	60388.16
571.11	60385.82
571.27	60472.42
571.43	60425.61
571.60	60528.59
571.76	60465.40
571.92	60502.85
572.09	60376.46
572.25	60573.06
572.41	60355.39
572.57	60451.36
572.74	60748.60
572.90	60472.42
573.06	60322.63
573.22	60371.78
573.38	60495.83
573.55	60397.52
573.71	60645.62
573.87	60631.58
574.03	60465.40
574.20	60561.36
574.36	60289.86
574.52	60793.07
574.68	60406.89
574.84	60566.04
575.01	60460.72
575.17	60348.37
575.33	60439.65
575.49	60292.20
575.65	60640.94
575.82	60800.10
575.98	60683.07
576.14	60839.89
576.30	60748.60
576.46	60589.45
576.62	60603.49
576.79	60467.74
576.95	60353.05
577.11	60542.64
577.27	60470.08
577.43	60802.44
577.59	60535.62
577.75	60566.04
577.92	60622.22
578.08	60718.18
578.24	60647.96
578.40	60956.91
578.56	60743.92
578.72	60809.46
578.88	60985.00
579.04	60970.96
579.21	60790.73
579.37	60814.14
579.53	60790.73
579.69	60488.80
579.85	60566.04
580.01	60814.14
580.17	60505.19
580.33	60968.61
580.49	60926.49
580.65	60919.46
580.82	60573.06
580.98	60699.45
581.14	60647.96
581.30	60755.63
581.46	60673.71
581.62	60872.65
581.78	60652.64
581.94	60774.35
582.10	60774.35
582.26	60685.41
582.42	60779.03
582.58	60790.73
582.74	60718.18
582.90	60764.99
583.06	60734.56
583.22	60498.17
583.38	60746.26
583.54	60793.07
583.70	60821.16
583.86	60919.46
584.02	60554.34
584.18	60882.02
584.34	60933.51
584.50	60956.91
584.66	60722.86
584.82	60631.58
584.98	60980.32
585.14	60963.93
585.30	60662.00
585.46	61041.17
585.62	60776.69
585.78	60999.04
585.94	60830.52
586.10	60879.67
586.26	60889.04
586.42	60872.65
586.58	61029.47
586.74	60863.29
586.90	60842.23
587.06	60802.44
587.22	60917.12
587.38	60743.92
587.54	61001.38
587.70	61057.56
587.86	60973.30
588.02	60947.55
588.18	60940.53
588.34	60720.52
588.49	61003.72
