SpectraSuite Data File
++++++++++++++++++++++++++++++++++++
Date: Fri Oct 25 10:44:50 EDT 2013
User: price-jones
Dark Spectrum Present: No
Reference Spectrum Present: No
Number of Sampled Component Spectra: 1
Spectrometers: USB2+H05261
Integration Time (usec): 100000 (USB2+H05261)
Spectra Averaged: 1 (USB2+H05261)
Boxcar Smoothing: 0 (USB2+H05261)
Correct for Electrical Dark: No (USB2+H05261)
Strobe/Lamp Enabled: No (USB2+H05261)
Correct for Detector Non-linearity: No (USB2+H05261)
Correct for Stray Light: No (USB2+H05261)
Number of Pixels in Processed Spectrum: 2048
>>>>>Begin Processed Spectral Data<<<<<
365.73	163.84
365.92	163.84
366.12	163.84
366.32	100.64
366.52	0.00
366.72	0.00
366.91	21.06
367.11	2.34
367.31	37.45
367.51	37.45
367.70	0.00
367.90	35.11
368.10	77.24
368.30	42.13
368.49	0.00
368.69	110.01
368.89	53.83
369.09	0.00
369.28	63.19
369.48	53.83
369.68	65.54
369.87	56.17
370.07	117.03
370.27	140.43
370.47	184.90
370.66	362.78
370.86	311.29
371.06	425.98
371.25	442.36
371.45	433.00
371.65	482.15
371.84	376.83
372.04	339.38
372.24	388.53
372.44	482.15
372.63	519.60
372.83	479.81
373.03	552.37
373.22	489.17
373.42	519.60
373.62	463.43
373.81	461.09
374.01	606.20
374.21	587.47
374.40	449.38
374.60	500.87
374.79	491.51
374.99	535.98
375.19	545.34
375.38	538.32
375.58	596.84
375.78	585.13
375.97	505.56
376.17	631.94
376.37	561.73
376.56	608.54
376.76	538.32
376.95	620.24
377.15	671.73
377.35	629.60
377.54	610.88
377.74	627.26
377.93	622.58
378.13	622.58
378.33	678.76
378.52	636.63
378.72	608.54
378.91	610.88
379.11	566.41
379.31	559.39
379.50	664.71
379.70	690.46
379.89	683.44
380.09	599.18
380.28	603.86
380.48	660.03
380.68	662.37
380.87	697.48
381.07	641.31
381.26	690.46
381.46	727.91
381.65	730.25
381.85	671.73
382.04	622.58
382.24	690.46
382.43	699.82
382.63	599.18
382.83	713.86
383.02	692.80
383.22	683.44
383.41	643.65
383.61	683.44
383.80	645.99
384.00	699.82
384.19	730.25
384.39	702.16
384.58	739.61
384.78	671.73
384.97	819.19
385.17	779.40
385.36	678.76
385.56	727.91
385.75	798.12
385.95	753.65
386.14	821.53
386.34	791.10
386.53	784.08
386.72	732.59
386.92	884.72
387.11	816.85
387.31	847.27
387.50	802.80
387.70	751.31
387.89	809.83
388.09	875.36
388.28	770.04
388.48	784.08
388.67	837.91
388.86	854.30
389.06	788.76
389.25	957.28
389.45	814.51
389.64	933.87
389.84	952.60
390.03	908.13
390.22	924.51
390.42	891.74
390.61	905.79
390.81	985.37
391.00	994.73
391.19	1027.50
391.39	933.87
391.58	938.55
391.78	973.66
391.97	961.96
392.16	940.90
392.36	1067.28
392.55	1013.45
392.75	992.39
392.94	915.15
393.13	997.07
393.33	884.72
393.52	997.07
393.71	999.41
393.91	1097.71
394.10	1006.43
394.29	1020.47
394.49	1043.88
394.68	1097.71
394.88	1111.75
395.07	1043.88
395.26	1228.78
395.46	1142.18
395.65	1093.03
395.84	1123.46
396.04	1238.14
396.23	1142.18
396.42	1165.59
396.62	1135.16
396.81	1160.91
397.00	1139.84
397.19	1177.29
397.39	1196.01
397.58	1270.91
397.77	1221.76
397.97	1212.40
398.16	1240.48
398.35	1282.61
398.55	1291.98
398.74	1313.04
398.93	1397.30
399.12	1324.74
399.32	1336.45
399.51	1306.02
399.70	1416.02
399.90	1315.38
400.09	1444.11
400.28	1476.88
400.47	1460.49
400.67	1373.89
400.86	1504.96
401.05	1432.41
401.24	1434.75
401.44	1420.71
401.63	1540.07
401.82	1488.58
402.01	1425.39
402.21	1526.03
402.40	1446.45
402.59	1500.28
402.78	1547.09
402.97	1540.07
403.17	1493.26
403.36	1591.56
403.55	1617.31
403.74	1671.14
403.93	1596.25
404.13	1654.76
404.32	1549.43
404.51	1575.18
404.70	1537.73
404.89	1643.06
405.09	1746.04
405.28	1813.92
405.47	1661.78
405.66	1820.94
405.85	1809.23
406.05	1722.63
406.24	1825.62
406.43	1895.83
406.62	1816.26
406.81	1895.83
407.00	1853.70
407.20	1778.81
407.39	1844.34
407.58	1926.26
407.77	1954.35
407.96	1956.69
408.15	2019.88
408.34	1907.54
408.54	2085.42
408.73	2026.90
408.92	2005.84
409.11	2069.03
409.30	2080.74
409.49	1987.11
409.68	2012.86
409.87	2167.34
410.07	2057.33
410.26	2167.34
410.45	2115.84
410.64	2157.97
410.83	2200.10
411.02	2190.74
411.21	2263.30
411.40	2221.17
411.59	2342.88
411.78	2289.04
411.98	2207.13
412.17	2399.05
412.36	2377.98
412.55	2385.01
412.74	2354.58
412.93	2539.48
413.12	2396.71
413.31	2621.40
413.50	2464.58
413.69	2469.27
413.88	2647.15
414.07	2691.62
414.26	2588.63
414.45	2630.76
414.64	2558.21
414.83	2586.29
415.02	2715.02
415.22	2731.41
415.41	2803.96
415.60	2689.28
415.79	2792.26
415.98	2796.94
416.17	2888.22
416.36	2909.29
416.55	3019.29
416.74	2871.84
416.93	2876.52
417.12	2956.10
417.31	3068.44
417.50	2953.76
417.69	3218.24
417.88	3096.53
418.07	3105.89
418.26	2942.05
418.45	3215.90
418.64	3091.85
418.83	3063.76
419.02	3159.72
419.21	3208.87
419.39	3227.60
419.58	3251.00
419.77	3281.43
419.96	3384.41
420.15	3332.92
420.34	3269.73
420.53	3288.45
420.72	3361.01
420.91	3578.68
421.10	3494.42
421.29	3566.98
421.48	3344.63
421.67	3487.40
421.86	3304.84
422.05	3314.20
422.24	3468.67
422.43	3449.95
422.61	3499.10
422.80	3513.14
422.99	3545.91
423.18	3550.59
423.37	3719.11
423.56	3632.51
423.75	3604.42
423.94	3508.46
424.13	3407.82
424.32	3480.38
424.50	3590.38
424.69	3559.95
424.88	3758.90
425.07	3658.26
425.26	3517.83
425.45	3630.17
425.64	3574.00
425.83	3630.17
426.01	3637.19
426.20	3592.72
426.39	3681.66
426.58	3618.47
426.77	3571.66
426.96	3639.53
427.15	3499.10
427.33	3632.51
427.52	3674.64
427.71	3808.05
427.90	3730.81
428.09	3815.07
428.28	3878.27
428.46	3723.79
428.65	3758.90
428.84	3967.21
429.03	3908.69
429.22	3627.83
429.40	3920.40
429.59	3810.39
429.78	3569.32
429.97	3698.05
430.16	3843.16
430.34	3906.35
430.53	3847.84
430.72	3997.64
430.91	3922.74
431.10	3887.63
431.28	4131.05
431.47	4182.54
431.66	4194.24
431.85	4156.79
432.03	4121.68
432.22	4299.56
432.41	4250.41
432.60	4224.67
432.79	4217.65
432.97	4285.52
433.16	4250.41
433.35	4065.51
433.54	4217.65
433.72	4369.78
433.91	4248.07
434.10	4255.09
434.28	4339.35
434.47	4423.61
434.66	4463.40
434.85	4400.21
435.03	4393.19
435.22	4475.10
435.41	4599.15
435.59	4566.39
435.78	4622.56
435.97	4690.43
436.16	4578.09
436.34	4753.63
436.53	4589.79
436.72	4746.61
436.90	4748.95
437.09	4751.29
437.28	4734.90
437.46	4627.24
437.65	4809.80
437.84	4830.87
438.02	4779.37
438.21	4795.76
438.40	4739.58
438.58	4826.18
438.77	4987.68
438.96	4828.53
439.14	5095.35
439.33	5064.92
439.52	5067.26
439.70	5006.41
439.89	5366.85
440.08	5195.99
440.26	5186.63
440.45	5352.81
440.63	5217.05
440.82	5324.72
441.01	5277.91
441.19	5455.79
441.38	5540.05
441.57	5441.75
441.75	5605.58
441.94	5636.01
442.12	5799.85
442.31	5703.89
442.50	5682.82
442.68	5486.22
442.87	5675.80
443.05	5640.69
443.24	5788.14
443.43	5760.06
443.61	5916.87
443.80	5987.09
443.98	5703.89
444.17	5675.80
444.35	5893.47
444.54	5884.11
444.73	5858.36
444.91	5928.58
445.10	5851.34
445.28	5947.30
445.47	5841.98
445.65	5849.00
445.84	5820.91
446.02	6029.22
446.21	5898.15
446.39	6015.18
446.58	6120.50
446.77	5895.81
446.95	6015.18
447.14	6101.78
447.32	6015.18
447.51	5898.15
447.69	5933.26
447.88	6106.46
448.06	6036.24
448.25	5989.43
448.43	6108.80
448.62	6073.69
448.80	6080.71
448.99	6132.20
449.17	6136.88
449.36	6207.10
449.54	6232.85
449.73	6399.02
449.91	6361.58
450.10	6420.09
450.28	6497.33
450.46	6462.22
450.65	6494.99
450.83	6520.73
451.02	6527.75
451.20	6527.75
451.39	6546.48
451.57	6609.67
451.76	6424.77
451.94	6520.73
452.13	6766.49
452.31	6511.37
452.49	6450.52
452.68	6569.88
452.86	6417.75
453.05	6548.82
453.23	6630.74
453.42	6595.63
453.60	6621.38
453.78	6773.51
453.97	6712.66
454.15	6780.53
454.34	6722.02
454.52	6820.32
454.70	7059.06
454.89	7005.22
455.07	6906.92
455.26	6965.43
455.44	6953.73
455.62	7096.50
455.81	7002.88
455.99	7117.57
456.17	7136.29
456.36	7056.72
456.54	7187.79
456.73	7290.77
456.91	7218.21
457.09	7250.98
457.28	7297.79
457.46	7197.15
457.64	7241.62
457.83	7370.35
458.01	7197.15
458.19	7499.08
458.38	7377.37
458.56	7515.46
458.74	7475.67
458.93	7513.12
459.11	7569.29
459.29	7499.08
459.48	7517.80
459.66	7470.99
459.84	7573.97
460.03	7698.02
460.21	7590.36
460.39	7660.57
460.57	7676.96
460.76	7742.49
460.94	7889.95
461.12	7920.37
461.31	7630.15
461.49	7852.50
461.67	7719.09
461.85	7875.90
462.04	7925.05
462.22	8128.68
462.40	8107.62
462.59	7992.93
462.77	8070.17
462.95	8285.50
463.13	8166.13
463.32	8109.96
463.50	8095.91
463.68	8351.03
463.86	8262.09
464.05	8116.98
464.23	8255.07
464.41	8011.65
464.59	7992.93
464.78	8507.85
464.96	8285.50
465.14	8121.66
465.32	8215.28
465.50	8355.71
465.69	8414.23
465.87	8365.07
466.05	8493.80
466.23	8280.82
466.41	8383.80
466.60	8533.59
466.78	8482.10
466.96	8479.76
467.14	8477.42
467.32	8589.77
467.51	8552.32
467.69	8435.29
467.87	8571.04
468.05	8769.99
468.23	8685.73
468.41	8573.38
468.60	8798.07
468.78	8772.33
468.96	8788.71
469.14	8975.95
469.32	8896.38
469.50	8676.37
469.69	8992.34
469.87	8964.25
470.05	9165.54
470.23	8994.68
470.41	8980.64
470.59	9102.34
470.77	9018.08
470.95	8938.51
471.14	9121.07
471.32	9053.19
471.50	9390.23
471.68	9458.10
471.86	9345.76
472.04	9568.11
472.22	9713.22
472.40	9390.23
472.58	9479.17
472.77	9645.35
472.95	9729.61
473.13	9837.27
473.31	9556.41
473.49	9713.22
473.67	9647.69
473.85	9743.65
474.03	10111.11
474.21	9966.00
474.39	10230.48
474.57	10047.92
474.75	10111.11
474.93	10267.93
475.12	10174.31
475.30	10094.73
475.48	10214.10
475.66	10239.84
475.84	10349.85
476.02	10520.71
476.20	10513.69
476.38	10436.45
476.56	10820.30
476.74	10878.81
476.92	10729.02
477.10	10860.09
477.28	11016.90
477.46	10944.34
477.64	10904.56
477.82	11257.98
478.00	11513.10
478.18	11552.88
478.36	11595.01
478.54	11489.69
478.72	11590.33
478.90	11599.70
479.08	11976.52
479.26	12018.65
479.44	11798.64
479.62	12067.80
479.80	12229.30
479.98	12348.67
480.16	12510.16
480.34	12294.83
480.52	12526.55
480.70	12491.44
480.88	12409.52
481.06	12767.62
481.24	12734.85
481.41	12933.80
481.59	13041.46
481.77	13167.85
481.95	13217.01
482.13	13270.84
482.31	13500.21
482.49	13427.65
482.67	13743.63
482.85	13640.64
483.03	13816.18
483.21	13729.58
483.39	13956.61
483.57	14099.39
483.74	14054.92
483.92	14457.49
484.10	14183.65
484.28	14523.02
484.46	14934.96
484.64	15037.94
484.82	14759.42
485.00	15171.35
485.18	15232.21
485.35	15124.54
485.53	15110.50
485.71	14892.83
485.89	15562.22
486.07	15262.63
486.25	15367.96
486.43	15602.01
486.61	15831.38
486.78	15852.45
486.96	16044.37
487.14	16308.85
487.32	16517.16
487.50	16521.84
487.68	16816.75
487.85	16910.37
488.03	17233.36
488.21	17179.53
488.39	17184.21
488.57	17436.99
488.75	17418.27
488.92	17411.25
489.10	17657.00
489.28	17764.67
489.46	17970.63
489.64	17958.93
489.81	18808.54
489.99	18333.42
490.17	18754.71
490.35	18920.89
490.53	18752.37
490.70	18782.80
490.88	18803.86
491.06	19096.43
491.24	19143.24
491.41	19332.82
491.59	19269.63
491.77	19307.08
491.95	19564.54
492.13	19796.25
492.30	20100.52
492.48	20018.60
492.66	19829.02
492.84	19887.53
493.01	20397.77
493.19	20683.31
493.37	20592.03
493.54	20496.07
493.72	20730.12
493.90	21090.57
494.08	21113.97
494.25	21434.63
494.43	21254.40
494.61	21790.39
494.79	21928.48
494.96	21039.08
495.14	21551.65
495.32	21596.12
495.49	22061.89
495.67	21942.52
495.85	22143.81
496.02	22448.08
496.20	22270.20
496.38	22689.15
496.55	22527.66
496.73	22960.66
496.91	22820.22
497.09	23044.91
497.26	23250.88
497.44	22920.87
497.62	23070.66
497.79	23714.31
497.97	23557.49
498.14	23412.38
498.32	23393.65
498.50	23545.79
498.67	24093.47
498.85	23988.15
499.03	24245.61
499.20	24388.38
499.38	24467.96
499.56	24081.77
499.73	24673.93
499.91	24460.94
500.08	25003.94
500.26	24556.90
500.44	24840.11
500.61	24893.94
500.79	24905.64
500.97	24924.36
501.14	25214.59
501.32	25156.08
501.49	25420.56
501.67	25418.22
501.84	25469.71
502.02	25532.90
502.20	25778.66
502.37	26197.62
502.55	25795.04
502.72	25837.17
502.90	26122.72
503.07	25827.81
503.25	26176.55
503.43	25888.67
503.60	26167.19
503.78	26654.02
503.95	26349.75
504.13	26349.75
504.30	26703.17
504.48	26373.16
504.65	27126.81
504.83	26958.29
505.01	27241.50
505.18	26984.04
505.36	27531.72
505.53	27211.07
505.71	27583.21
505.88	27580.87
506.06	27400.65
506.23	27592.58
506.41	27325.75
506.58	27314.05
506.76	27630.02
506.93	27997.49
507.11	27957.70
507.28	27960.04
507.46	27999.83
507.63	27936.63
507.81	27988.13
507.98	28409.42
508.16	28240.90
508.33	28407.08
508.50	28683.27
508.68	28559.22
508.85	28938.38
509.03	28919.66
509.20	28865.83
509.38	29193.50
509.55	29088.18
509.73	28900.94
509.90	29413.51
510.08	29071.79
510.25	28769.86
510.42	29631.18
510.60	29701.40
510.77	29558.63
510.95	29813.74
511.12	29823.11
511.30	29785.66
511.47	30101.63
511.64	29993.97
511.82	30043.12
511.99	30260.79
512.17	29989.28
512.34	30054.82
512.51	30478.46
512.69	30466.75
512.86	30363.77
513.04	30628.25
513.21	30506.54
513.38	30902.09
513.56	30670.38
513.73	30852.94
513.90	30890.39
514.08	30822.51
514.25	31084.65
514.43	31019.12
514.60	31005.08
514.77	31058.91
514.95	31550.42
515.12	31082.31
515.29	31295.30
515.47	31955.33
515.64	31651.06
515.81	31873.42
515.99	31576.17
516.16	31557.44
516.33	31630.00
516.51	31782.13
516.68	31662.77
516.85	31573.83
517.03	32243.22
517.20	31960.02
517.37	32037.25
517.54	32606.00
517.72	32102.79
517.89	32020.87
518.06	32112.15
518.24	32044.27
518.41	32444.51
518.58	32655.15
518.75	32208.11
518.93	32966.45
519.10	32631.75
519.27	32708.99
519.45	32950.06
519.62	33118.58
519.79	33457.96
519.96	33589.03
520.14	33364.34
520.31	33268.37
520.48	33474.34
520.65	33242.63
520.83	33699.03
521.00	33813.72
521.17	33799.68
521.34	33813.72
521.52	34080.54
521.69	33876.91
521.86	34235.02
522.03	34389.49
522.20	34333.32
522.38	34216.29
522.55	34314.59
522.72	34211.61
522.89	34328.64
523.07	34616.52
523.24	34345.02
523.41	35082.29
523.58	34766.32
523.75	35208.68
523.92	34845.90
524.10	35225.06
524.27	34754.61
524.44	35166.55
524.61	35154.85
524.78	35194.64
524.96	35590.19
525.13	35421.67
525.30	35524.65
525.47	35681.47
525.64	35531.67
525.81	35601.89
525.98	35386.56
526.16	35339.75
526.33	35292.94
526.50	35440.39
526.67	35611.25
526.84	35248.47
527.01	35318.68
527.18	35920.20
527.36	36519.38
527.53	36245.54
527.70	36615.34
527.87	36180.00
528.04	36135.53
528.21	36486.61
528.38	36498.31
528.55	36797.90
528.72	36505.34
528.89	36851.73
529.07	36641.09
529.24	36479.59
529.41	36680.88
529.58	36886.84
529.75	36762.79
529.92	36767.48
530.09	36863.44
530.26	37179.41
530.43	37055.36
530.60	36804.92
530.77	37181.75
530.94	37528.15
531.11	37020.25
531.28	37418.14
531.46	37153.66
531.63	37537.51
531.80	37181.75
531.97	37415.80
532.14	37361.97
532.31	37074.09
532.48	37296.44
532.65	37420.48
532.82	37359.63
532.99	37626.45
533.16	37490.70
533.33	38000.94
533.50	38050.09
533.67	38068.81
533.84	37942.42
534.01	38227.97
534.18	38012.64
534.35	38396.49
534.52	38024.34
534.69	38169.46
534.86	38405.85
535.03	38155.41
535.20	38586.07
535.37	38553.30
535.54	38410.53
535.71	38635.22
535.88	38452.66
536.05	38562.67
536.22	38618.84
536.38	38803.74
536.55	38532.24
536.72	38553.30
536.89	38440.96
537.06	38455.00
537.23	38962.90
537.40	38864.60
537.57	38927.79
537.74	39063.54
537.91	39196.95
538.08	39086.95
538.25	39021.41
538.42	38923.11
538.59	39302.28
538.75	38986.30
538.92	39309.30
539.09	39145.46
539.26	39276.53
539.43	39154.82
539.60	39646.33
539.77	39000.35
539.94	39798.47
540.11	39601.86
540.28	39381.85
540.44	39548.03
540.61	39695.49
540.78	39716.55
540.95	39533.99
541.12	39358.45
541.29	39864.00
541.46	39552.71
541.62	40130.83
541.79	39906.13
541.96	39639.31
542.13	39594.84
542.30	39533.99
542.47	40243.17
542.63	40418.71
542.80	40612.98
542.97	40411.69
543.14	40720.64
543.31	40865.75
543.48	40629.36
543.64	41282.37
543.81	41104.49
543.98	40280.62
544.15	40802.56
544.32	40755.75
544.48	40903.20
544.65	40935.97
544.82	40678.51
544.99	40570.85
545.16	41390.03
545.32	41109.17
545.49	41216.83
545.66	41106.83
545.83	41338.54
546.00	41518.76
546.16	41045.97
546.33	40882.14
546.50	40802.56
546.67	40996.82
546.83	40718.30
547.00	41200.45
547.17	41481.31
547.34	41322.16
547.50	41055.34
547.67	41502.38
547.84	41577.28
548.00	41736.43
548.17	41839.42
548.34	41223.86
548.51	42007.94
548.67	41940.06
548.84	42164.75
549.01	41743.45
549.18	41675.58
549.34	41687.28
549.51	42101.56
549.68	41895.59
549.84	41750.48
550.01	42036.02
550.18	42209.22
550.34	42150.71
550.51	42066.45
550.68	42087.51
550.84	41823.03
551.01	42127.30
551.18	41907.29
551.34	41738.77
551.51	42354.33
551.68	42424.55
551.84	42312.20
552.01	42234.97
552.18	42260.71
552.34	41996.23
552.51	42593.07
552.68	42110.92
552.84	42326.25
553.01	42359.02
553.18	42492.43
553.34	42490.09
553.51	42506.47
553.67	42295.82
553.84	42859.89
554.01	42611.79
554.17	42602.43
554.34	43107.99
554.51	42822.44
554.67	43227.35
554.84	42712.44
555.00	42513.49
555.17	42590.73
555.33	42770.95
555.50	42501.79
555.67	42581.37
555.83	42873.93
556.00	43239.06
556.16	43281.19
556.33	43002.66
556.50	42611.79
556.66	42955.85
556.83	43009.68
556.99	43232.04
557.16	43430.98
557.32	43447.36
557.49	43206.29
557.65	43014.37
557.82	43292.89
557.98	43295.23
558.15	43112.67
558.32	43442.68
558.48	43487.15
558.65	43089.26
558.81	42885.64
558.98	43606.52
559.14	43349.06
559.31	42974.58
559.47	43220.33
559.64	43775.04
559.80	43346.72
559.97	43320.98
560.13	43391.19
560.30	43115.01
560.46	43105.65
560.63	43519.92
560.79	43732.91
560.96	43737.59
561.12	43973.98
561.29	43681.42
561.45	43835.89
561.61	43650.99
561.78	43646.31
561.94	43456.73
562.11	43693.12
562.27	43260.12
562.44	43885.04
562.60	44163.57
562.77	44428.05
562.93	43716.53
563.10	43796.10
563.26	43592.48
563.42	43859.30
563.59	43709.50
563.75	43473.11
563.92	43749.29
564.08	44069.95
564.24	44130.80
564.41	43763.34
564.57	43489.49
564.74	43892.07
564.90	44079.31
565.07	44093.35
565.23	43955.26
565.39	43995.05
565.56	43777.38
565.72	43353.74
565.88	43952.92
566.05	43920.15
566.21	44039.52
566.38	43742.27
566.54	43824.19
566.70	44149.53
566.87	44540.39
567.03	44121.44
567.19	44739.34
567.36	44446.77
567.52	44018.46
567.68	44184.63
567.85	43765.68
568.01	44219.74
568.17	44240.81
568.34	44449.11
568.50	43578.43
568.66	43938.88
568.83	44076.97
568.99	43831.21
569.15	43924.83
569.32	43976.33
569.48	43718.87
569.64	44491.24
569.81	44231.44
569.97	43873.34
570.13	44432.73
570.30	43878.02
570.46	44168.25
570.62	44236.12
570.78	44006.75
570.95	43753.97
571.11	44797.85
571.27	44402.30
571.43	44542.74
571.60	44397.62
571.76	44058.24
571.92	43952.92
572.09	44411.67
572.25	44425.71
572.41	44444.43
572.57	44767.43
572.74	44767.43
572.90	44374.22
573.06	44486.56
573.22	44671.46
573.38	44266.55
573.55	44170.59
573.71	44706.57
573.87	44325.07
574.03	44313.36
574.20	44341.45
574.36	44512.31
574.52	44926.58
574.68	44725.30
574.84	44151.87
575.01	44624.65
575.17	44589.55
575.33	44098.03
575.49	44278.25
575.65	44182.29
575.82	44575.50
575.98	44105.06
576.14	44669.12
576.30	44418.69
576.46	44367.20
576.62	44409.32
576.79	44254.85
576.95	44720.62
577.11	44371.88
577.27	45071.70
577.43	44528.69
577.59	44498.26
577.75	44744.02
577.92	44107.40
578.08	44395.28
578.24	44645.72
578.40	44158.89
578.56	44701.89
578.72	44215.06
578.88	44542.74
579.04	45045.95
579.21	44594.23
579.37	44514.65
579.53	44327.41
579.69	44594.23
579.85	44608.27
580.01	44849.35
580.17	44402.30
580.33	44411.67
580.49	44992.12
580.65	44882.11
580.82	45067.02
580.98	44215.06
581.14	44292.30
581.30	44715.93
581.46	44905.52
581.62	44891.48
581.78	44624.65
581.94	44790.83
582.10	44678.49
582.26	44945.31
582.42	44722.96
582.58	44608.27
582.74	44215.06
582.90	44577.84
583.06	44509.97
583.22	44842.32
583.38	44837.64
583.54	44954.67
583.70	44460.82
583.86	44547.42
584.02	44184.63
584.18	44753.38
584.34	45118.51
584.50	44760.40
584.66	43973.98
584.82	44240.81
584.98	45015.52
585.14	44947.65
585.30	44547.42
585.46	44751.04
585.62	44872.75
585.78	44683.17
585.94	44442.09
586.10	44484.22
586.26	44900.84
586.42	45071.70
586.58	44737.00
586.74	44196.34
586.90	44488.90
587.06	44149.53
587.22	44355.49
587.38	44655.08
587.54	44954.67
587.70	44898.50
587.86	44786.15
588.02	44802.53
588.18	45081.06
588.34	44942.97
588.49	44589.55
588.65	44186.97
588.81	44500.61
588.97	44584.86
589.13	44470.18
589.29	44409.32
589.45	44893.82
589.61	44495.92
589.77	45167.66
589.93	45017.86
590.08	44828.28
590.24	44851.69
