SpectraSuite Data File
++++++++++++++++++++++++++++++++++++
Date: Fri Oct 25 10:44:52 EDT 2013
User: price-jones
Dark Spectrum Present: No
Reference Spectrum Present: No
Number of Sampled Component Spectra: 1
Spectrometers: USB2+H05261
Integration Time (usec): 100000 (USB2+H05261)
Spectra Averaged: 1 (USB2+H05261)
Boxcar Smoothing: 0 (USB2+H05261)
Correct for Electrical Dark: No (USB2+H05261)
Strobe/Lamp Enabled: No (USB2+H05261)
Correct for Detector Non-linearity: No (USB2+H05261)
Correct for Stray Light: No (USB2+H05261)
Number of Pixels in Processed Spectrum: 2048
>>>>>Begin Processed Spectral Data<<<<<
365.73	95.96
365.92	95.96
366.12	95.96
366.32	56.17
366.52	0.00
366.72	16.38
366.91	23.41
367.11	0.00
367.31	32.77
367.51	23.41
367.70	23.41
367.90	74.90
368.10	2.34
368.30	46.81
368.49	11.70
368.69	4.68
368.89	25.75
369.09	21.06
369.28	124.05
369.48	42.13
369.68	39.79
369.87	147.45
370.07	100.64
370.27	170.86
370.47	210.65
370.66	400.23
370.86	362.78
371.06	458.74
371.25	442.36
371.45	334.70
371.65	477.47
371.84	397.89
372.04	428.32
372.24	393.21
372.44	512.58
372.63	454.06
372.83	461.09
373.03	498.53
373.22	440.02
373.42	477.47
373.62	503.22
373.81	585.13
374.01	514.92
374.21	510.24
374.40	526.62
374.60	603.86
374.79	617.90
374.99	589.82
375.19	526.62
375.38	620.24
375.58	564.07
375.78	617.90
375.97	552.37
376.17	617.90
376.37	554.71
376.56	599.18
376.76	543.00
376.95	580.45
377.15	610.88
377.35	603.86
377.54	634.29
377.74	571.09
377.93	514.92
378.13	671.73
378.33	540.66
378.52	624.92
378.72	594.50
378.91	615.56
379.11	552.37
379.31	660.03
379.50	573.43
379.70	737.27
379.89	664.71
380.09	641.31
380.28	685.78
380.48	643.65
380.68	627.26
380.87	615.56
381.07	683.44
381.26	751.31
381.46	606.20
381.65	697.48
381.85	636.63
382.04	627.26
382.24	638.97
382.43	617.90
382.63	695.14
382.83	746.63
383.02	734.93
383.22	737.27
383.41	631.94
383.61	767.70
383.80	763.01
384.00	690.46
384.19	758.33
384.39	716.20
384.58	734.93
384.78	739.61
384.97	725.57
385.17	690.46
385.36	723.23
385.56	723.23
385.75	716.20
385.95	772.38
386.14	816.85
386.34	788.76
386.53	765.36
386.72	793.44
386.92	849.61
387.11	706.84
387.31	821.53
387.50	765.36
387.70	774.72
387.89	880.04
388.09	837.91
388.28	905.79
388.48	826.21
388.67	894.08
388.86	882.38
389.06	851.96
389.25	863.66
389.45	950.26
389.64	894.08
389.84	894.08
390.03	926.85
390.22	912.81
390.42	933.87
390.61	880.04
390.81	880.04
391.00	1027.50
391.19	959.62
391.39	866.00
391.58	1032.18
391.78	971.32
391.97	1008.77
392.16	936.21
392.36	1050.90
392.55	1004.09
392.75	1008.77
392.94	954.94
393.13	954.94
393.33	954.94
393.52	1104.73
393.71	1125.80
393.91	1025.15
394.10	1050.90
394.29	1069.62
394.49	1076.65
394.68	1053.24
394.88	1011.11
395.07	1074.31
395.26	1123.46
395.46	1102.39
395.65	1226.44
395.84	1107.07
396.04	1125.80
396.23	1132.82
396.42	1090.69
396.62	1109.41
396.81	1078.99
397.00	1132.82
397.19	1116.44
397.39	1165.59
397.58	1315.38
397.77	1203.04
397.97	1207.72
398.16	1299.00
398.35	1256.87
398.55	1224.10
398.74	1413.68
398.93	1383.26
399.12	1308.36
399.32	1259.21
399.51	1317.72
399.70	1406.66
399.90	1364.53
400.09	1355.17
400.28	1406.66
400.47	1376.24
400.67	1371.55
400.86	1434.75
401.05	1500.28
401.24	1493.26
401.44	1530.71
401.63	1547.09
401.82	1579.86
402.01	1514.33
402.21	1465.18
402.40	1526.03
402.59	1584.54
402.78	1390.28
402.97	1488.58
403.17	1591.56
403.36	1626.67
403.55	1561.14
403.74	1720.29
403.93	1610.29
404.13	1710.93
404.32	1631.35
404.51	1661.78
404.70	1720.29
404.89	1746.04
405.09	1727.32
405.28	1755.40
405.47	1746.04
405.66	1797.53
405.85	1736.68
406.05	1797.53
406.24	1867.75
406.43	1746.04
406.62	1797.53
406.81	1771.79
407.00	1795.19
407.20	1811.57
407.39	1860.73
407.58	1877.11
407.77	1923.92
407.96	2001.16
408.15	1909.88
408.34	2017.54
408.54	1998.82
408.73	2057.33
408.92	2019.88
409.11	2085.42
409.30	1989.46
409.49	2031.58
409.68	2106.48
409.87	2076.06
410.07	2223.51
410.26	2132.23
410.45	2122.87
410.64	2122.87
410.83	2260.96
411.02	2221.17
411.21	2342.88
411.40	2375.64
411.59	2260.96
411.78	2319.47
411.98	2225.85
412.17	2305.43
412.36	2211.81
412.55	2448.20
412.74	2427.14
412.93	2476.29
413.12	2389.69
413.31	2562.89
413.50	2555.86
413.69	2605.02
413.88	2693.96
414.07	2525.44
414.26	2581.61
414.45	2661.19
414.64	2696.30
414.83	2700.98
415.02	2733.75
415.22	2722.04
415.41	2731.41
415.60	2787.58
415.79	2780.56
415.98	2820.35
416.17	2778.22
416.36	2733.75
416.55	3038.02
416.74	2963.12
416.93	2972.48
417.12	2967.80
417.31	2953.76
417.50	2904.60
417.69	3052.06
417.88	3122.27
418.07	3169.09
418.26	3012.27
418.45	3136.32
418.64	3236.96
418.83	3187.81
419.02	3176.11
419.21	3126.96
419.39	3258.03
419.58	3215.90
419.77	3159.72
419.96	3276.75
420.15	3335.26
420.34	3358.67
420.53	3335.26
420.72	3321.22
420.91	3407.82
421.10	3550.59
421.29	3555.27
421.48	3293.13
421.67	3372.71
421.86	3435.91
422.05	3449.95
422.24	3346.97
422.43	3564.64
422.61	3522.51
422.80	3524.85
422.99	3435.91
423.18	3571.66
423.37	3588.04
423.56	3543.57
423.75	3527.19
423.94	3599.74
424.13	3339.94
424.32	3325.90
424.50	3613.79
424.69	3651.24
424.88	3660.60
425.07	3571.66
425.26	3548.25
425.45	3487.40
425.64	3487.40
425.83	3616.13
426.01	3735.50
426.20	3571.66
426.39	3585.70
426.58	3707.41
426.77	3630.17
426.96	3545.91
427.15	3623.15
427.33	3658.26
427.52	3623.15
427.71	3721.45
427.90	3716.77
428.09	3786.99
428.28	3833.80
428.46	3775.28
428.65	3810.39
428.84	3885.29
429.03	3889.97
429.22	3815.07
429.40	3805.71
429.59	3817.41
429.78	3747.20
429.97	3705.07
430.16	3756.56
430.34	3833.80
430.53	3885.29
430.72	3868.91
430.91	3932.10
431.10	3880.61
431.28	4117.00
431.47	4124.02
431.66	4177.86
431.85	4210.62
432.03	4182.54
432.22	4278.50
432.41	4194.24
432.60	4262.12
432.79	4245.73
432.97	4320.63
433.16	4224.67
433.35	4299.56
433.54	4222.33
433.72	4269.14
433.91	4187.22
434.10	4432.97
434.28	4409.57
434.47	4456.38
434.66	4437.66
434.85	4407.23
435.03	4540.64
435.22	4498.51
435.41	4507.87
435.59	4620.22
435.78	4706.82
435.97	4592.13
436.16	4753.63
436.34	4573.41
436.53	4561.70
436.72	4713.84
436.90	4660.01
437.09	4695.11
437.28	4695.11
437.46	4727.88
437.65	4631.92
437.84	4685.75
438.02	4662.35
438.21	4798.10
438.40	4758.31
438.58	4809.80
438.77	4905.76
438.96	4905.76
439.14	5135.14
439.33	5160.88
439.52	5163.22
439.70	5053.22
439.89	5245.14
440.08	5060.24
440.26	5149.18
440.45	4910.44
440.63	5336.42
440.82	5460.47
441.01	5385.57
441.19	5469.83
441.38	5607.92
441.57	5392.59
441.75	5434.72
441.94	5661.76
442.12	5668.78
442.31	5671.12
442.50	5741.33
442.68	5806.87
442.87	5771.76
443.05	5771.76
443.24	5799.85
443.43	5790.49
443.61	5774.10
443.80	5982.41
443.98	5767.08
444.17	5614.95
444.35	5724.95
444.54	5858.36
444.73	5891.13
444.91	5893.47
445.10	5797.51
445.28	5975.39
445.47	5834.96
445.65	5856.02
445.84	6010.50
446.02	5996.45
446.21	5940.28
446.39	5764.74
446.58	6033.90
446.77	5811.55
446.95	5937.94
447.14	5959.00
447.32	6122.84
447.51	5865.38
447.69	5944.96
447.88	6054.97
448.06	6012.84
448.25	6141.57
448.43	6104.12
448.62	5980.07
448.80	6008.16
448.99	6204.76
449.17	6242.21
449.36	6314.77
449.54	6143.91
449.73	6200.08
449.91	6497.33
450.10	6321.79
450.28	6513.71
450.46	6448.18
450.65	6406.05
450.83	6499.67
451.02	6520.73
451.20	6450.52
451.39	6504.35
451.57	6527.75
451.76	6464.56
451.94	6497.33
452.13	6370.94
452.31	6581.59
452.49	6417.75
452.68	6537.12
452.86	6509.03
453.05	6628.40
453.23	6588.61
453.42	6572.22
453.60	6600.31
453.78	6773.51
453.97	6560.52
454.15	6595.63
454.34	6724.36
454.52	6817.98
454.70	6963.09
454.89	6881.18
455.07	6778.19
455.26	6925.65
455.44	7026.29
455.62	7082.46
455.81	6979.48
455.99	6984.16
456.17	7129.27
456.36	7042.67
456.54	7159.70
456.73	7122.25
456.91	7091.82
457.09	7194.81
457.28	7318.86
457.46	7365.67
457.64	7337.58
457.83	7377.37
458.01	7220.55
458.19	7569.29
458.38	7377.37
458.56	7548.23
458.74	7393.75
458.93	7463.97
459.11	7726.11
459.29	7634.83
459.48	7550.57
459.66	7583.34
459.84	7737.81
460.03	7761.22
460.21	7754.19
460.39	7749.51
460.57	7698.02
460.76	7616.10
460.94	7873.56
461.12	7789.30
461.31	7810.37
461.49	7784.62
461.67	7850.16
461.85	8147.40
462.04	7786.96
462.22	8105.28
462.40	8002.29
462.59	7999.95
462.77	8053.78
462.95	8278.47
463.13	8159.11
463.32	8013.99
463.50	8053.78
463.68	8224.64
463.86	8278.47
464.05	8222.30
464.23	8063.15
464.41	8336.99
464.59	8086.55
464.78	8257.41
464.96	8187.19
465.14	8173.15
465.32	8271.45
465.50	8346.35
465.69	8339.33
465.87	8327.63
466.05	8458.70
466.23	8334.65
466.41	8397.84
466.60	8514.87
466.78	8362.73
466.96	8336.99
467.14	8482.10
467.32	8498.49
467.51	8767.65
467.69	8465.72
467.87	8643.60
468.05	8575.72
468.23	8765.31
468.41	8746.58
468.60	8533.59
468.78	8802.75
468.96	8592.11
469.14	8564.02
469.32	8999.36
469.50	8664.66
469.69	8868.29
469.87	8959.57
470.05	9006.38
470.23	9095.32
470.41	9104.68
470.59	8994.68
470.77	8903.40
470.95	9001.70
471.14	9214.69
471.32	9254.48
471.50	9472.15
471.68	9219.37
471.86	9270.86
472.04	9387.89
472.22	9411.29
472.40	9383.21
472.58	9479.17
472.77	9654.71
472.95	9612.58
473.13	9870.04
473.31	9612.58
473.49	9540.02
473.67	9664.07
473.85	9788.12
474.03	9949.62
474.21	9799.82
474.39	10052.60
474.57	10099.41
474.75	10265.59
474.93	10029.20
475.12	10171.97
475.30	10321.76
475.48	10200.05
475.66	10551.14
475.84	10520.71
476.02	10354.53
476.20	10277.29
476.38	10757.10
476.56	10794.55
476.74	10885.83
476.92	10586.24
477.10	10848.38
477.28	11138.61
477.46	11030.94
477.64	11236.91
477.82	11391.39
478.00	11637.14
478.18	11548.20
478.36	11367.98
478.54	11641.82
478.72	11487.35
478.90	11784.60
479.08	11836.09
479.26	11878.22
479.44	12100.57
479.62	12044.40
479.80	12374.41
479.98	12084.19
480.16	12585.06
480.34	12439.95
480.52	12564.00
480.70	12578.04
480.88	12521.87
481.06	12739.54
481.24	12549.95
481.41	12868.27
481.59	13043.81
481.77	13043.81
481.95	13214.66
482.13	13500.21
482.31	13408.93
482.49	13451.06
482.67	13446.38
482.85	13598.51
483.03	13764.69
483.21	13760.01
483.39	13970.66
483.57	13980.02
483.74	14148.54
483.92	14457.49
484.10	14190.67
484.28	14562.81
484.46	14853.04
484.64	15325.83
484.82	14923.26
485.00	14724.31
485.18	15115.18
485.35	15288.38
485.53	15124.54
485.71	15117.52
485.89	15662.86
486.07	15232.21
486.25	15529.45
486.43	15630.10
486.61	15499.03
486.78	16053.73
486.96	16109.91
487.14	16589.72
487.32	16215.23
487.50	16844.84
487.68	16915.05
487.85	16798.02
488.03	16933.78
488.21	17008.67
488.39	17032.08
488.57	17390.18
488.75	17511.89
488.92	17858.29
489.10	17816.16
489.28	17916.80
489.46	18188.30
489.64	18190.64
489.81	18586.19
489.99	18368.52
490.17	19037.92
490.35	18672.79
490.53	18707.90
490.70	18836.63
490.88	18733.65
491.06	19084.73
491.24	18855.36
491.41	19260.27
491.59	19419.42
491.77	18988.77
491.95	19286.01
492.13	19737.74
492.30	19754.12
492.48	20135.63
492.66	20004.56
492.84	20159.03
493.01	20409.47
493.19	20561.61
493.37	20760.55
493.54	20357.98
493.72	20947.79
493.90	21153.76
494.08	21104.61
494.25	21137.38
494.43	21436.97
494.61	21591.44
494.79	21671.02
494.96	21507.18
495.14	21420.58
495.32	21806.77
495.49	22017.42
495.67	22174.24
495.85	22377.86
496.02	22307.65
496.20	22436.38
496.38	22829.59
496.55	22822.56
496.73	23016.83
496.91	23089.38
497.09	23173.64
497.26	23021.51
497.44	22918.53
497.62	23152.58
497.79	23370.25
497.97	23487.28
498.14	23639.41
498.32	23477.91
498.50	23784.52
498.67	24166.03
498.85	24063.05
499.03	24105.18
499.20	24458.60
499.38	24446.90
499.56	24376.68
499.73	24744.14
499.91	24383.70
500.08	24844.79
500.26	24393.06
500.44	24858.83
500.61	24912.66
500.79	24634.14
500.97	25247.36
501.14	25441.62
501.32	25156.08
501.49	25142.03
501.67	25118.63
501.84	25642.91
502.02	25317.57
502.20	25572.69
502.37	25898.03
502.55	25685.04
502.72	25893.35
502.90	26094.63
503.07	25865.26
503.25	26139.10
503.43	26148.46
503.60	26335.71
503.78	26359.11
503.95	26120.38
504.13	26544.02
504.30	26733.60
504.48	26298.26
504.65	26918.50
504.83	27257.88
505.01	27360.86
505.18	27012.12
505.36	27424.06
505.53	27234.47
505.71	28180.05
505.88	27454.48
506.06	27295.33
506.23	27494.27
506.41	27824.29
506.58	27615.98
506.76	27971.74
506.93	28154.30
507.11	27948.34
507.28	27843.01
507.46	28252.61
507.63	27843.01
507.81	28290.06
507.98	27997.49
508.16	28173.03
508.33	28552.20
508.50	28451.55
508.68	28936.04
508.85	28847.10
509.03	29111.58
509.20	29048.39
509.38	29109.24
509.55	29130.31
509.73	29338.62
509.90	29324.57
510.08	29125.63
510.25	29591.39
510.42	29645.23
510.60	29685.01
510.77	29806.72
510.95	29523.52
511.12	30204.61
511.30	29874.60
511.47	30410.58
511.64	29998.65
511.82	30230.36
511.99	29951.84
512.17	30319.30
512.34	30143.76
512.51	30684.42
512.69	30522.93
512.86	30862.30
513.04	30801.45
513.21	30380.15
513.38	30941.88
513.56	30754.64
513.73	30874.01
513.90	31058.91
514.08	30859.96
514.25	30850.60
514.43	31318.71
514.60	31047.21
514.77	31213.38
514.95	31332.75
515.12	31686.17
515.29	31330.41
515.47	31945.97
515.64	31747.03
515.81	31929.59
515.99	31840.65
516.16	31534.04
516.33	31845.33
516.51	31730.64
516.68	31353.82
516.85	31606.59
517.03	31260.20
517.20	31941.29
517.37	32112.15
517.54	32311.10
517.72	32191.73
517.89	31976.40
518.06	32133.21
518.24	31814.90
518.41	32503.02
518.58	32706.65
518.75	32570.90
518.93	32613.02
519.10	32884.53
519.27	33184.12
519.45	32692.60
519.62	32943.04
519.79	33027.30
519.96	33235.61
520.14	33284.76
520.31	33287.10
520.48	33141.99
520.65	33511.79
520.83	33893.30
521.00	34064.16
521.17	33748.18
521.34	33785.63
521.52	33991.60
521.69	34003.30
521.86	33944.79
522.03	34146.08
522.20	34036.07
522.38	34469.07
522.55	34412.90
522.72	34183.52
522.89	34284.17
523.07	34555.67
523.24	34220.97
523.41	34782.70
523.58	34572.05
523.75	35089.31
523.92	34813.13
524.10	34850.58
524.27	34974.63
524.44	35416.99
524.61	35407.62
524.78	35440.39
524.96	35470.82
525.13	35208.68
525.30	35548.06
525.47	35580.82
525.64	35426.35
525.81	35302.30
525.98	35440.39
526.16	35248.47
526.33	35367.84
526.50	35690.83
526.67	35185.27
526.84	35723.60
527.01	35688.49
527.18	35849.99
527.36	36011.48
527.53	36442.14
527.70	36402.35
527.87	36086.38
528.04	36297.03
528.21	36465.55
528.38	36381.29
528.55	36893.86
528.72	36627.04
528.89	36854.08
529.07	36699.60
529.24	36105.10
529.41	36783.86
529.58	36563.85
529.75	36364.90
529.92	36493.63
530.09	36797.90
530.26	37338.57
530.43	36755.77
530.60	36542.78
530.77	36865.78
530.94	37247.29
531.11	37221.54
531.28	37469.64
531.46	37394.74
531.63	37415.80
531.80	37275.37
531.97	37141.96
532.14	37357.29
532.31	37062.38
532.48	37530.49
532.65	38010.30
532.82	37792.63
532.99	37474.32
533.16	37221.54
533.33	37886.25
533.50	38080.52
533.67	37361.97
533.84	38052.43
534.01	38115.62
534.18	37874.55
534.35	37902.64
534.52	37757.52
534.69	38328.61
534.86	38038.39
535.03	38022.00
535.20	38352.02
535.37	38759.27
535.54	38710.12
535.71	38466.70
535.88	38843.53
536.05	38513.52
536.22	38778.00
536.38	38897.36
536.55	38642.24
536.72	38869.28
536.89	38590.75
537.06	38782.68
537.23	39122.05
537.40	38754.59
537.57	39019.07
537.74	39035.45
537.91	38983.96
538.08	39489.52
538.25	38539.26
538.42	39218.02
538.59	39419.30
538.75	38478.41
538.92	39377.17
539.09	39592.50
539.26	39166.52
539.43	38969.92
539.60	39049.50
539.77	39239.08
539.94	39601.86
540.11	39423.98
540.28	39758.68
540.44	39847.62
540.61	39641.65
540.78	39508.24
540.95	39253.12
541.12	39335.04
541.29	39173.55
541.46	39859.32
541.62	39723.57
541.79	40060.61
541.96	39779.74
542.13	39880.39
542.30	39910.82
542.47	40451.48
542.63	39983.37
542.80	40329.77
542.97	40570.85
543.14	40320.41
543.31	40428.07
543.48	40243.17
543.64	41106.83
543.81	41092.79
543.98	40622.34
544.15	40444.46
544.32	40905.54
544.48	41322.16
544.65	40914.90
544.82	41361.95
544.99	40910.22
545.16	41060.02
545.32	41050.66
545.49	41326.84
545.66	41284.71
545.83	41200.45
546.00	40989.80
546.16	41132.57
546.33	40708.94
546.50	40818.94
546.67	41127.89
546.83	41160.66
547.00	41130.23
547.17	40980.44
547.34	41001.50
547.50	41586.64
547.67	41336.20
547.84	41670.90
548.00	41874.52
548.17	41727.07
548.34	41675.58
548.51	42017.30
548.67	42178.79
548.84	42068.79
549.01	41745.80
549.18	41287.05
549.34	42029.00
549.51	41970.49
549.68	41989.21
549.84	42293.48
550.01	41734.09
550.18	41865.16
550.34	41972.83
550.51	41879.21
550.68	42038.36
550.84	41935.38
551.01	41776.22
551.18	42178.79
551.34	41902.61
551.51	42136.66
551.68	42293.48
551.84	42644.56
552.01	42340.29
552.18	42234.97
552.34	42005.59
552.51	42258.37
552.68	42384.76
552.84	42930.11
553.01	42726.48
553.18	42462.00
553.34	42426.89
553.51	42171.77
553.67	42806.06
553.84	42660.94
554.01	42806.06
554.17	42934.79
554.34	42941.81
554.51	42756.91
554.67	43119.69
554.84	42941.81
555.00	42572.00
555.17	42651.58
555.33	42993.30
555.50	43012.02
555.67	42789.67
555.83	43049.47
556.00	43227.35
556.16	43234.38
556.33	42803.72
556.50	42806.06
556.66	43122.03
556.83	43042.45
556.99	43150.12
557.16	42937.13
557.32	43332.68
557.49	43072.88
557.65	43292.89
557.82	43653.33
557.98	43330.34
558.15	43082.24
558.32	43484.81
558.48	43461.41
558.65	42976.92
558.81	43250.76
558.98	43304.59
559.14	43466.09
559.31	43227.35
559.47	43475.45
559.64	43421.62
559.80	43765.68
559.97	43545.67
560.13	43533.96
560.30	43086.92
560.46	43220.33
560.63	43803.13
560.79	43461.41
560.96	43622.90
561.12	43840.57
561.29	43924.83
561.45	43576.09
561.61	44004.41
561.78	43772.70
561.94	43150.12
562.11	43695.46
562.27	43562.05
562.44	43459.07
562.60	43789.08
562.77	44053.56
562.93	43180.54
563.10	44016.11
563.26	43501.20
563.42	43894.41
563.59	43842.92
563.75	43206.29
563.92	43856.96
564.08	43779.72
564.24	43789.08
564.41	44051.22
564.57	43491.83
564.74	44039.52
564.90	43931.86
565.07	44175.27
565.23	43416.94
565.39	43662.69
565.56	43871.00
565.72	43903.77
565.88	44158.89
566.05	43913.13
566.21	44186.97
566.38	43723.55
566.54	44306.34
566.70	44226.76
566.87	44573.16
567.03	43973.98
567.19	44444.43
567.36	44575.50
567.52	43969.30
567.68	44308.68
567.85	43810.15
568.01	43924.83
568.17	43840.57
568.34	44034.84
568.50	43920.15
568.66	43854.62
568.83	44098.03
568.99	43840.57
569.15	43498.86
569.32	43625.25
569.48	43737.59
569.64	44179.95
569.81	44388.26
569.97	44161.23
570.13	44219.74
570.30	43634.61
570.46	44083.99
570.62	44217.40
570.78	43749.29
570.95	43768.02
571.11	44449.11
571.27	44210.38
571.43	44156.55
571.60	44055.90
571.76	43969.30
571.92	44107.40
572.09	44336.77
572.25	44472.52
572.41	44437.41
572.57	44390.60
572.74	44715.93
572.90	44629.34
573.06	44715.93
573.22	44444.43
573.38	44404.64
573.55	44240.81
573.71	44282.94
573.87	44734.66
574.03	44121.44
574.20	44215.06
574.36	43922.49
574.52	44797.85
574.68	44659.76
574.84	44458.48
575.01	44130.80
575.17	44437.41
575.33	44346.13
575.49	44030.16
575.65	44629.34
575.82	44327.41
575.98	44285.28
576.14	44643.38
576.30	44294.64
576.46	44353.15
576.62	44158.89
576.79	44123.78
576.95	44016.11
577.11	44615.29
577.27	44306.34
577.43	44285.28
577.59	44652.74
577.75	44287.62
577.92	43950.58
578.08	44201.02
578.24	44168.25
578.40	44594.23
578.56	44121.44
578.72	44446.77
578.88	44566.14
579.04	44018.46
579.21	44336.77
579.37	44594.23
579.53	44395.28
579.69	44437.41
579.85	44144.84
580.01	44582.52
580.17	44643.38
580.33	44839.98
580.49	44446.77
580.65	45081.06
580.82	44444.43
580.98	44306.34
581.14	44126.12
581.30	45013.18
581.46	44839.98
581.62	45038.93
581.78	44406.98
581.94	44926.58
582.10	44294.64
582.26	44947.65
582.42	44624.65
582.58	44538.05
582.74	44296.98
582.90	44818.92
583.06	44720.62
583.22	44807.22
583.38	44832.96
583.54	44751.04
583.70	45024.89
583.86	44486.56
584.02	44137.82
584.18	44397.62
584.34	45024.89
584.50	44645.72
584.66	44238.47
584.82	44156.55
584.98	44706.57
585.14	44601.25
585.30	44212.72
585.46	44397.62
585.62	44594.23
585.78	44545.08
585.94	44472.52
586.10	44554.44
586.26	44521.67
586.42	44891.48
586.58	45268.30
586.74	44825.94
586.90	45008.50
587.06	44245.49
587.22	44105.06
587.38	44320.38
587.54	44631.68
587.70	44720.62
587.86	44364.85
588.02	44954.67
588.18	44566.14
588.34	44645.72
588.49	44140.16
588.65	44055.90
588.81	43995.05
588.97	44919.56
589.13	44304.00
589.29	44495.92
589.45	44626.99
589.61	44507.63
589.77	44980.42
589.93	44662.10
590.08	45162.98
590.24	45249.58
