SpectraSuite Data File
++++++++++++++++++++++++++++++++++++
Date: Fri Oct 25 10:47:48 EDT 2013
User: price-jones
Dark Spectrum Present: No
Reference Spectrum Present: No
Number of Sampled Component Spectra: 1
Spectrometers: USB2+H05261
Integration Time (usec): 100000 (USB2+H05261)
Spectra Averaged: 1 (USB2+H05261)
Boxcar Smoothing: 0 (USB2+H05261)
Correct for Electrical Dark: No (USB2+H05261)
Strobe/Lamp Enabled: No (USB2+H05261)
Correct for Detector Non-linearity: No (USB2+H05261)
Correct for Stray Light: No (USB2+H05261)
Number of Pixels in Processed Spectrum: 2048
>>>>>Begin Processed Spectral Data<<<<<
365.73	117.03
365.92	117.03
366.12	117.03
366.32	53.83
366.52	0.00
366.72	110.01
366.91	60.85
367.11	63.19
367.31	30.43
367.51	91.28
367.70	49.15
367.90	84.26
368.10	9.36
368.30	74.90
368.49	53.83
368.69	70.22
368.89	37.45
369.09	14.04
369.28	133.41
369.48	9.36
369.68	67.88
369.87	180.22
370.07	124.05
370.27	98.30
370.47	217.67
370.66	400.23
370.86	360.44
371.06	468.11
371.25	463.43
371.45	418.96
371.65	421.30
371.84	423.64
372.04	365.12
372.24	514.92
372.44	554.71
372.63	505.56
372.83	514.92
373.03	489.17
373.22	496.19
373.42	524.28
373.62	470.45
373.81	482.15
374.01	514.92
374.21	540.66
374.40	571.09
374.60	521.94
374.79	496.19
374.99	500.87
375.19	620.24
375.38	578.11
375.58	573.43
375.78	571.09
375.97	564.07
376.17	711.52
376.37	571.09
376.56	582.79
376.76	617.90
376.95	599.18
377.15	636.63
377.35	603.86
377.54	545.34
377.74	538.32
377.93	615.56
378.13	657.69
378.33	688.12
378.52	690.46
378.72	734.93
378.91	559.39
379.11	589.82
379.31	674.07
379.50	615.56
379.70	685.78
379.89	655.35
380.09	657.69
380.28	624.92
380.48	683.44
380.68	676.41
380.87	638.97
381.07	688.12
381.26	678.76
381.46	620.24
381.65	720.88
381.85	671.73
382.04	702.16
382.24	755.99
382.43	685.78
382.63	622.58
382.83	631.94
383.02	760.67
383.22	697.48
383.41	674.07
383.61	674.07
383.80	723.23
384.00	760.67
384.19	774.72
384.39	657.69
384.58	795.78
384.78	748.97
384.97	819.19
385.17	727.91
385.36	774.72
385.56	772.38
385.75	793.44
385.95	837.91
386.14	816.85
386.34	725.57
386.53	821.53
386.72	809.83
386.92	798.12
387.11	891.74
387.31	877.70
387.50	800.46
387.70	826.21
387.89	863.66
388.09	851.96
388.28	828.55
388.48	823.87
388.67	947.92
388.86	889.40
389.06	896.43
389.25	905.79
389.45	938.55
389.64	861.32
389.84	987.71
390.03	936.21
390.22	910.47
390.42	884.72
390.61	903.45
390.81	992.39
391.00	868.34
391.19	1004.09
391.39	959.62
391.58	1076.65
391.78	887.06
391.97	1029.84
392.16	957.28
392.36	1001.75
392.55	990.05
392.75	971.32
392.94	964.30
393.13	947.92
393.33	884.72
393.52	950.26
393.71	1081.33
393.91	1043.88
394.10	1109.41
394.29	1107.07
394.49	1053.24
394.68	1100.05
394.88	1156.22
395.07	1123.46
395.26	1177.29
395.46	1043.88
395.65	1142.18
395.84	1203.04
396.04	1146.86
396.23	1102.39
396.42	1128.14
396.62	1102.39
396.81	1165.59
397.00	1160.91
397.19	1172.61
397.39	1270.91
397.58	1280.27
397.77	1221.76
397.97	1205.38
398.16	1301.34
398.35	1327.08
398.55	1336.45
398.74	1320.06
398.93	1352.83
399.12	1343.47
399.32	1233.46
399.51	1376.24
399.70	1378.58
399.90	1437.09
400.09	1476.88
400.28	1439.43
400.47	1453.47
400.67	1425.39
400.86	1453.47
401.05	1488.58
401.24	1516.67
401.44	1563.48
401.63	1530.71
401.82	1469.86
402.01	1493.26
402.21	1526.03
402.40	1659.44
402.59	1526.03
402.78	1547.09
402.97	1610.29
403.17	1572.84
403.36	1549.43
403.55	1652.42
403.74	1666.46
403.93	1614.97
404.13	1593.90
404.32	1687.53
404.51	1748.38
404.70	1720.29
404.89	1739.02
405.09	1809.23
405.28	1785.83
405.47	1753.06
405.66	1717.95
405.85	1788.17
406.05	1764.76
406.24	1802.21
406.43	1741.36
406.62	1860.73
406.81	2029.24
407.00	1827.96
407.20	1867.75
407.39	1823.28
407.58	1963.71
407.77	1968.39
407.96	1919.24
408.15	1926.26
408.34	2001.16
408.54	1975.41
408.73	2073.71
408.92	2106.48
409.11	2057.33
409.30	2005.84
409.49	1984.77
409.68	2050.31
409.87	2003.50
410.07	2076.06
410.26	2132.23
410.45	2047.97
410.64	2239.89
410.83	2223.51
411.02	2214.15
411.21	2275.00
411.40	2275.00
411.59	2244.57
411.78	2289.04
411.98	2310.11
412.17	2317.13
412.36	2385.01
412.55	2340.54
412.74	2434.16
412.93	2525.44
413.12	2389.69
413.31	2619.06
413.50	2485.65
413.69	2497.35
413.88	2565.23
414.07	2502.03
414.26	2640.12
414.45	2654.17
414.64	2516.08
414.83	2656.51
415.02	2715.02
415.22	2736.09
415.41	2722.04
415.60	2750.13
415.79	2939.71
415.98	2850.77
416.17	2827.37
416.36	2972.48
416.55	2846.09
416.74	2810.98
416.93	2965.46
417.12	2895.24
417.31	2923.33
417.50	3005.25
417.69	3068.44
417.88	3049.72
418.07	2958.44
418.26	3129.30
418.45	3101.21
418.64	3199.51
418.83	3201.85
419.02	3101.21
419.21	3276.75
419.39	3194.83
419.58	3241.64
419.77	3098.87
419.96	3208.87
420.15	3346.97
420.34	3307.18
420.53	3300.16
420.72	3398.46
420.91	3337.60
421.10	3368.03
421.29	3520.17
421.48	3396.12
421.67	3531.87
421.86	3478.04
422.05	3337.60
422.24	3363.35
422.43	3456.97
422.61	3386.76
422.80	3531.87
422.99	3506.12
423.18	3574.00
423.37	3634.85
423.56	3445.27
423.75	3471.01
423.94	3524.85
424.13	3311.86
424.32	3398.46
424.50	3613.79
424.69	3665.28
424.88	3548.25
425.07	3646.55
425.26	3485.06
425.45	3517.83
425.64	3581.02
425.83	3588.04
426.01	3595.06
426.20	3688.68
426.39	3548.25
426.58	3492.08
426.77	3590.38
426.96	3630.17
427.15	3559.95
427.33	3616.13
427.52	3740.18
427.71	3681.66
427.90	3588.04
428.09	3808.05
428.28	3693.37
428.46	3791.67
428.65	3803.37
428.84	3925.08
429.03	3885.29
429.22	3712.09
429.40	3808.05
429.59	3751.88
429.78	3646.55
429.97	3676.98
430.16	3782.31
430.34	3901.67
430.53	3889.97
430.72	3920.40
430.91	3908.69
431.10	3997.64
431.28	4072.53
431.47	4182.54
431.66	4098.28
431.85	4140.41
432.03	4201.26
432.22	4229.35
432.41	4145.09
432.60	4313.61
432.79	4238.71
432.97	4250.41
433.16	4133.39
433.35	4255.09
433.54	4360.42
433.72	4205.94
433.91	4390.84
434.10	4311.27
434.28	4322.97
434.47	4332.33
434.66	4449.36
434.85	4456.38
435.03	4468.08
435.22	4479.79
435.41	4582.77
435.59	4573.41
435.78	4690.43
435.97	4599.15
436.16	4676.39
436.34	4688.09
436.53	4638.94
436.72	4730.22
436.90	4603.83
437.09	4922.15
437.28	4615.54
437.46	4744.27
437.65	4645.96
437.84	4723.20
438.02	4608.51
438.21	4814.48
438.40	4730.22
438.58	5013.43
438.77	4884.70
438.96	4800.44
439.14	4994.70
439.33	5050.88
439.52	4933.85
439.70	5137.48
439.89	5212.37
440.08	4975.98
440.26	5156.20
440.45	5135.14
440.63	5184.29
440.82	5336.42
441.01	5387.91
441.19	5336.42
441.38	5568.13
441.57	5462.81
441.75	5626.65
441.94	5706.23
442.12	5731.97
442.31	5696.86
442.50	5607.92
442.68	5549.41
442.87	5678.14
443.05	5701.54
443.24	5860.70
443.43	5701.54
443.61	5771.76
443.80	5823.25
443.98	5795.17
444.17	5540.05
444.35	5870.06
444.54	5825.59
444.73	5998.79
444.91	5888.79
445.10	5839.64
445.28	5785.80
445.47	5755.38
445.65	5926.24
445.84	5689.84
446.02	5865.38
446.21	5778.78
446.39	5923.90
446.58	5987.09
446.77	5980.07
446.95	6036.24
447.14	6040.92
447.32	6076.03
447.51	6085.39
447.69	6108.80
447.88	6043.26
448.06	6069.01
448.25	6090.07
448.43	6080.71
448.62	6003.47
448.80	6064.33
448.99	5954.32
449.17	6164.97
449.36	6059.65
449.54	6157.95
449.73	6338.17
449.91	6450.52
450.10	6324.13
450.28	6403.71
450.46	6387.32
450.65	6473.92
450.83	6300.72
451.02	6427.11
451.20	6462.22
451.39	6483.28
451.57	6422.43
451.76	6438.81
451.94	6415.41
452.13	6600.31
452.31	6424.77
452.49	6359.24
452.68	6586.27
452.86	6534.78
453.05	6600.31
453.23	6633.08
453.42	6553.50
453.60	6576.91
453.78	6719.68
453.97	6604.99
454.15	6665.85
454.34	6527.75
454.52	6815.64
454.70	6892.88
454.89	6785.21
455.07	6686.91
455.26	6846.07
455.44	6927.99
455.62	6897.56
455.81	7037.99
455.99	6939.69
456.17	6888.20
456.36	6815.64
456.54	6963.09
456.73	7117.57
456.91	7276.73
457.09	7363.33
457.28	7339.92
457.46	7396.09
457.64	7328.22
457.83	7197.15
458.01	7162.04
458.19	7531.84
458.38	7384.39
458.56	7445.24
458.74	7393.75
458.93	7522.48
459.11	7562.27
459.29	7236.94
459.48	7468.65
459.66	7426.52
459.84	7707.38
460.03	7852.50
460.21	7712.07
460.39	7611.42
460.57	7705.04
460.76	7571.63
460.94	7854.84
461.12	7691.00
461.31	7850.16
461.49	7784.62
461.67	7695.68
461.85	7985.91
462.04	7808.03
462.22	8325.29
462.40	8140.38
462.59	7782.28
462.77	8070.17
462.95	8081.87
463.13	8266.77
463.32	7974.21
463.50	8126.34
463.68	8173.15
463.86	8086.55
464.05	8116.98
464.23	8002.29
464.41	8222.30
464.59	8044.42
464.78	8404.86
464.96	8140.38
465.14	8046.76
465.32	8395.50
465.50	8329.97
465.69	8470.40
465.87	8334.65
466.05	8301.88
466.23	8360.39
466.41	8404.86
466.60	8517.21
466.78	8334.65
466.96	8234.00
467.14	8182.51
467.32	8411.89
467.51	8589.77
467.69	8425.93
467.87	8676.37
468.05	8603.81
468.23	8615.51
468.41	8837.86
468.60	8608.49
468.78	8531.25
468.96	8699.77
469.14	8788.71
469.32	8912.76
469.50	8774.67
469.69	8807.44
469.87	8990.00
470.05	9067.24
470.23	8851.91
470.41	8835.52
470.59	9137.45
470.77	9224.05
470.95	9071.92
471.14	9296.61
471.32	9114.05
471.50	9320.01
471.68	9369.16
471.86	9315.33
472.04	9418.32
472.22	9530.66
472.40	9280.22
472.58	9430.02
472.77	9575.13
472.95	9448.74
473.13	9811.53
473.31	9577.47
473.49	9408.95
473.67	9612.58
473.85	9790.46
474.03	9905.15
474.21	10022.17
474.39	10164.95
474.57	10125.16
474.75	10008.13
474.93	10090.05
475.12	10274.95
475.30	10352.19
475.48	10256.23
475.66	10478.58
475.84	10146.22
476.02	10338.15
476.20	10333.47
476.38	10691.57
476.56	11040.31
476.74	10904.56
476.92	10920.94
477.10	10761.78
477.28	11023.92
477.46	10986.47
477.64	11087.12
477.82	11384.37
478.00	11173.72
478.18	11412.45
478.36	11552.88
478.54	11513.10
478.72	11655.87
478.90	11756.51
479.08	11672.25
479.26	12046.74
479.44	12128.66
479.62	11999.93
479.80	12231.64
479.98	12168.45
480.16	12184.83
480.34	12400.16
480.52	12386.12
480.70	12741.88
480.88	12521.87
481.06	12683.36
481.24	12613.15
481.41	12854.22
481.59	13268.50
481.77	13151.47
481.95	13130.41
482.13	13366.80
482.31	13282.54
482.49	13612.56
482.67	13561.06
482.85	13696.82
483.03	13781.07
483.21	14036.19
483.39	14167.26
483.57	14122.79
483.74	14136.84
483.92	14441.11
484.10	14333.44
484.28	14890.49
484.46	14848.36
484.64	14998.15
484.82	14714.95
485.00	14970.07
485.18	15297.74
485.35	15370.30
485.53	15084.75
485.71	15257.95
485.89	15314.13
486.07	15150.29
486.25	15382.00
486.43	15655.84
486.61	15901.60
486.78	15871.17
486.96	16226.93
487.14	16201.19
487.32	16191.83
487.50	16578.01
487.68	16739.51
487.85	16971.22
488.03	17121.02
488.21	17209.96
488.39	16992.29
488.57	17277.83
488.75	17151.45
488.92	17439.33
489.10	17898.08
489.28	17956.59
489.46	17961.27
489.64	17788.07
489.81	18246.82
489.99	18513.64
490.17	18576.83
490.35	18972.38
490.53	18831.95
490.70	18759.39
490.88	19187.71
491.06	19171.33
491.24	18925.57
491.41	19304.74
491.59	19178.35
491.77	18965.36
491.95	19508.37
492.13	20067.75
492.30	19927.32
492.48	20086.48
492.66	20191.80
492.84	20180.10
493.01	20109.88
493.19	20505.43
493.37	20929.07
493.54	20460.96
493.72	20833.11
493.90	20671.61
494.08	21338.66
494.25	21198.23
494.43	21245.04
494.61	21659.32
494.79	21689.74
494.96	21568.04
495.14	21778.68
495.32	21813.79
495.49	21759.96
495.67	22040.82
495.85	22272.54
496.02	22642.34
496.20	22621.28
496.38	22806.18
496.55	22492.55
496.73	23180.67
496.91	22682.13
497.09	23087.04
497.26	23267.27
497.44	23229.82
497.62	23260.24
497.79	23517.70
497.97	23164.28
498.14	23861.76
498.32	23740.05
498.50	24020.92
498.67	23915.59
498.85	24198.80
499.03	24332.21
499.20	24428.17
499.38	24142.63
499.56	24247.95
499.73	24767.55
499.91	24531.15
500.08	24723.08
500.26	24470.30
500.44	24510.09
500.61	24514.77
500.79	24538.18
500.97	25254.38
501.14	25656.95
501.32	25135.01
501.49	25394.81
501.67	25179.48
501.84	25287.15
502.02	25640.57
502.20	25619.50
502.37	25743.55
502.55	26146.12
502.72	25998.67
502.90	25851.22
503.07	25593.76
503.25	26202.30
503.43	26162.51
503.60	26513.59
503.78	26298.26
503.95	26026.76
504.13	26529.97
504.30	26808.50
504.48	26644.66
504.65	26787.43
504.83	26927.86
505.01	26962.97
505.18	26693.81
505.36	27236.81
505.53	27288.31
505.71	27365.54
505.88	27262.56
506.06	26724.24
506.23	27288.31
506.41	27524.70
506.58	27777.48
506.76	27630.02
506.93	27807.90
507.11	27594.92
507.28	28224.52
507.46	28226.86
507.63	28311.12
507.81	28063.02
507.98	28006.85
508.16	28135.58
508.33	28395.38
508.50	28463.25
508.68	28676.24
508.85	28727.74
509.03	28624.75
509.20	28734.76
509.38	29371.38
509.55	28828.38
509.73	29010.94
509.90	29495.43
510.08	29120.95
510.25	29001.58
510.42	29614.80
510.60	29792.68
510.77	29579.69
510.95	29670.97
511.12	29493.09
511.30	29862.90
511.47	30103.97
511.64	30101.63
511.82	30742.94
511.99	30352.07
512.17	30646.97
512.34	30216.32
512.51	30424.62
512.69	30703.15
512.86	30644.63
513.04	31243.81
513.21	30539.31
513.38	30794.43
513.56	30756.98
513.73	30703.15
513.90	30883.37
514.08	31016.78
514.25	31391.26
514.43	31049.55
514.60	31014.44
514.77	31058.91
514.95	31580.85
515.12	31466.16
515.29	31395.95
515.47	31786.82
515.64	31618.30
515.81	31763.41
515.99	31845.33
516.16	31768.09
516.33	31559.78
516.51	31934.27
516.68	31538.72
516.85	31604.25
517.03	32030.23
517.20	31826.60
517.37	32079.38
517.54	32589.62
517.72	32231.52
517.89	31976.40
518.06	32336.84
518.24	32128.53
518.41	32610.68
518.58	32074.70
518.75	32587.28
518.93	32987.51
519.10	33083.47
519.27	33221.56
519.45	33055.39
519.62	33221.56
519.79	33062.41
519.96	33181.77
520.14	33399.44
520.31	33296.46
520.48	33656.90
520.65	33411.15
520.83	33670.95
521.00	33956.49
521.17	33703.71
521.34	33895.64
521.52	34176.50
521.69	33741.16
521.86	34246.72
522.03	33897.98
522.20	34342.68
522.38	34092.24
522.55	34185.86
522.72	34529.92
522.89	34227.99
523.07	35028.46
523.24	34239.70
523.41	34536.94
523.58	34419.92
523.75	35012.07
523.92	34719.51
524.10	34927.81
524.27	34902.07
524.44	34888.03
524.61	35466.14
524.78	35260.17
524.96	35274.21
525.13	35658.06
525.30	35505.93
525.47	35374.86
525.64	35201.66
525.81	35124.42
525.98	35639.34
526.16	35695.51
526.33	35185.27
526.50	36077.02
526.67	35620.61
526.84	35878.07
527.01	35803.17
527.18	35716.58
527.36	35526.99
527.53	36046.59
527.70	36655.13
527.87	36402.35
528.04	36072.34
528.21	36573.21
528.38	36589.59
528.55	36559.17
528.72	36505.34
528.89	36540.44
529.07	37071.75
529.24	36594.28
529.41	36849.39
529.58	36575.55
529.75	36507.68
529.92	36786.20
530.09	37137.28
530.26	36861.10
530.43	37172.39
530.60	36818.97
530.77	37160.69
530.94	37647.52
531.11	37219.20
531.28	37099.83
531.46	37104.51
531.63	37258.99
531.80	37174.73
531.97	37453.25
532.14	37439.21
532.31	37364.31
532.48	37495.38
532.65	37778.59
532.82	37603.05
532.99	37841.78
533.16	37523.47
533.33	37881.57
533.50	38213.93
533.67	37757.52
533.84	37537.51
534.01	38352.02
534.18	37745.82
534.35	38656.29
534.52	38197.54
534.69	37823.06
534.86	38209.25
535.03	37930.72
535.20	38836.51
535.37	38646.93
535.54	39019.07
535.71	37991.58
535.88	38646.93
536.05	38782.68
536.22	38583.73
536.38	38628.20
536.55	38553.30
536.72	38866.94
536.89	38485.43
537.06	38300.53
537.23	39098.65
537.40	38878.64
537.57	38733.53
537.74	38934.81
537.91	38895.02
538.08	39283.55
538.25	38841.19
538.42	39484.84
538.59	39491.86
538.75	38852.89
538.92	39494.20
539.09	39445.05
539.26	39182.91
539.43	39285.89
539.60	39466.11
539.77	39440.37
539.94	39295.25
540.11	39512.92
540.28	39555.05
540.44	39754.00
540.61	39461.43
540.78	39908.47
540.95	39847.62
541.12	39526.97
541.29	39592.50
541.46	39496.54
541.62	39821.87
541.79	40268.92
541.96	39856.98
542.13	40016.14
542.30	39777.40
542.47	39812.51
542.63	39866.34
542.80	40346.15
542.97	40481.91
543.14	40500.63
543.31	40844.69
543.48	40727.66
543.64	40870.43
543.81	40884.48
543.98	40568.51
544.15	40650.42
544.32	40795.54
544.48	41401.74
544.65	41277.69
544.82	40980.44
544.99	40732.34
545.16	41062.36
545.32	41043.63
545.49	41029.59
545.66	41345.56
545.83	41233.22
546.00	41319.82
546.16	41287.05
546.33	41083.42
546.50	40430.41
546.67	41406.42
546.83	40865.75
547.00	41350.24
547.17	41111.51
547.34	41282.37
547.50	41305.77
547.67	41757.50
547.84	41291.73
548.00	41715.37
548.17	41958.78
548.34	41663.88
548.51	41909.63
548.67	41844.10
548.84	41984.53
549.01	41748.14
549.18	41926.02
549.34	41642.81
549.51	41909.63
549.68	41762.18
549.84	42073.47
550.01	42469.02
550.18	41532.81
550.34	41921.34
550.51	42288.80
550.68	41944.74
550.84	41549.19
551.01	42356.67
551.18	42101.56
551.34	42026.66
551.51	42110.92
551.68	41902.61
551.84	42684.35
552.01	42506.47
552.18	42380.08
552.34	42344.97
552.51	42895.00
552.68	42525.19
552.84	42738.18
553.01	42951.17
553.18	42768.61
553.34	42621.16
553.51	42295.82
553.67	42707.76
553.84	42614.13
554.01	42899.68
554.17	42920.74
554.34	43133.73
554.51	42892.66
554.67	43068.20
554.84	42724.14
555.00	42557.96
555.17	42494.77
555.33	42902.02
555.50	42878.61
555.67	43098.62
555.83	42653.92
556.00	42747.54
556.16	43585.46
556.33	43540.99
556.50	43239.06
556.66	43215.65
556.83	42927.77
556.99	43433.32
557.16	43433.32
557.32	43332.68
557.49	43182.88
557.65	43154.80
557.82	43187.56
557.98	43049.47
558.15	43217.99
558.32	43487.15
558.48	43255.44
558.65	43157.14
558.81	43707.16
558.98	43330.34
559.14	43894.41
559.31	43234.38
559.47	43257.78
559.64	43761.00
559.80	43833.55
559.97	43796.10
560.13	43632.27
560.30	43229.69
560.46	43543.33
560.63	43445.02
560.79	43863.98
560.96	44018.46
561.12	43475.45
561.29	44020.80
561.45	43931.86
561.61	43894.41
561.78	44247.83
561.94	43704.82
562.11	43835.89
562.27	43707.16
562.44	43604.18
562.60	44135.48
562.77	43817.17
562.93	43936.54
563.10	44023.14
563.26	43929.51
563.42	43711.84
563.59	43445.02
563.75	44114.42
563.92	44336.77
564.08	43878.02
564.24	44374.22
564.41	44006.75
564.57	44423.37
564.74	44531.03
564.90	44198.68
565.07	44147.18
565.23	44165.91
565.39	44184.63
565.56	44212.72
565.72	43915.47
565.88	44229.10
566.05	44177.61
566.21	43746.95
566.38	43997.39
566.54	44332.09
566.70	44318.04
566.87	44245.49
567.03	44299.32
567.19	44694.87
567.36	44603.59
567.52	44137.82
567.68	44666.78
567.85	44603.59
568.01	44243.15
568.17	44289.96
568.34	44374.22
568.50	44451.45
568.66	44128.46
568.83	44549.76
568.99	44062.93
569.15	44325.07
569.32	44437.41
569.48	44004.41
569.64	44397.62
569.81	44868.07
569.97	43997.39
570.13	44561.46
570.30	44301.66
570.46	44116.76
570.62	43765.68
570.78	44273.57
570.95	44406.98
571.11	44376.56
571.27	44287.62
571.43	44364.85
571.60	44718.28
571.76	44446.77
571.92	44519.33
572.09	44268.89
572.25	43948.24
572.41	44528.69
572.57	44495.92
572.74	45294.05
572.90	44428.05
573.06	44526.35
573.22	44430.39
573.38	44493.58
573.55	44423.37
573.71	44678.49
573.87	44783.81
574.03	44575.50
574.20	44388.26
574.36	44444.43
574.52	44626.99
574.68	44729.98
574.84	44701.89
575.01	44252.51
575.17	44999.14
575.33	44243.15
575.49	44589.55
575.65	44706.57
575.82	44926.58
575.98	45219.15
576.14	45371.28
576.30	44729.98
576.46	44245.49
576.62	44561.46
576.79	44500.61
576.95	44364.85
577.11	44905.52
577.27	44519.33
577.43	44748.70
577.59	44643.38
577.75	45083.40
577.92	44257.19
578.08	44301.66
578.24	44467.84
578.40	44563.80
578.56	44886.79
578.72	44549.76
578.88	45181.70
579.04	44727.64
579.21	44772.11
579.37	44617.63
579.53	44760.40
579.69	44341.45
579.85	44531.03
580.01	44519.33
580.17	44868.07
580.33	44942.97
580.49	44875.09
580.65	45024.89
580.82	44985.10
580.98	44779.13
581.14	44467.84
581.30	45375.97
581.46	44163.57
581.62	44683.17
581.78	44952.33
581.94	44921.90
582.10	44610.61
582.26	44708.91
582.42	44659.76
582.58	45081.06
582.74	44367.20
582.90	44748.70
583.06	44978.07
583.22	44727.64
583.38	44821.26
583.54	44947.65
583.70	44781.47
583.86	44683.17
584.02	44825.94
584.18	44863.39
584.34	44636.36
584.50	45071.70
584.66	45045.95
584.82	44849.35
584.98	45132.55
585.14	45174.68
585.30	45254.26
585.46	44519.33
585.62	44734.66
585.78	44449.11
585.94	44449.11
586.10	44748.70
586.26	44554.44
586.42	44851.69
586.58	45064.67
586.74	45102.12
586.90	44561.46
587.06	44631.68
587.22	44842.32
587.38	44067.61
587.54	45041.27
587.70	44945.31
587.86	45336.18
588.02	44786.15
588.18	45195.74
588.34	45237.87
588.49	45036.59
588.65	43920.15
588.81	44556.78
588.97	44629.34
589.13	44814.24
589.29	44678.49
589.45	45088.08
589.61	44809.56
589.77	45308.09
589.93	45186.38
590.08	45310.43
590.24	45539.80
