SpectraSuite Data File
++++++++++++++++++++++++++++++++++++
Date: Fri Oct 25 11:34:17 EDT 2013
User: price-jones
Dark Spectrum Present: No
Reference Spectrum Present: No
Number of Sampled Component Spectra: 1
Spectrometers: USB2+H05261
Integration Time (usec): 100000 (USB2+H05261)
Spectra Averaged: 1 (USB2+H05261)
Boxcar Smoothing: 0 (USB2+H05261)
Correct for Electrical Dark: No (USB2+H05261)
Strobe/Lamp Enabled: No (USB2+H05261)
Correct for Detector Non-linearity: No (USB2+H05261)
Correct for Stray Light: No (USB2+H05261)
Number of Pixels in Processed Spectrum: 2048
>>>>>Begin Processed Spectral Data<<<<<
365.73	191.92
365.92	191.92
366.12	191.92
366.32	173.20
366.52	215.33
366.72	187.24
366.91	217.67
367.11	196.60
367.31	196.60
367.51	152.13
367.70	245.76
367.90	131.07
368.10	177.88
368.30	201.29
368.49	133.41
368.69	182.56
368.89	163.84
369.09	208.31
369.28	180.22
369.48	299.59
369.68	173.20
369.87	208.31
370.07	327.68
370.27	266.82
370.47	266.82
370.66	547.69
370.86	498.53
371.06	582.79
371.25	585.13
371.45	510.24
371.65	580.45
371.84	540.66
372.04	624.92
372.24	582.79
372.44	624.92
372.63	540.66
372.83	571.09
373.03	613.22
373.22	573.43
373.42	580.45
373.62	578.11
373.81	585.13
374.01	638.97
374.21	622.58
374.40	573.43
374.60	678.76
374.79	660.03
374.99	589.82
375.19	613.22
375.38	610.88
375.58	580.45
375.78	657.69
375.97	664.71
376.17	699.82
376.37	692.80
376.56	629.60
376.76	638.97
376.95	599.18
377.15	681.10
377.35	657.69
377.54	704.50
377.74	650.67
377.93	606.20
378.13	645.99
378.33	650.67
378.52	718.54
378.72	692.80
378.91	737.27
379.11	699.82
379.31	763.01
379.50	706.84
379.70	690.46
379.89	695.14
380.09	702.16
380.28	725.57
380.48	774.72
380.68	716.20
380.87	821.53
381.07	674.07
381.26	767.70
381.46	767.70
381.65	688.12
381.85	795.78
382.04	755.99
382.24	784.08
382.43	737.27
382.63	746.63
382.83	723.23
383.02	805.14
383.22	779.40
383.41	800.46
383.61	889.40
383.80	814.51
384.00	734.93
384.19	685.78
384.39	777.06
384.58	770.04
384.78	840.25
384.97	765.36
385.17	812.17
385.36	805.14
385.56	877.70
385.75	880.04
385.95	835.57
386.14	826.21
386.34	840.25
386.53	905.79
386.72	835.57
386.92	891.74
387.11	915.15
387.31	800.46
387.50	856.64
387.70	877.70
387.89	856.64
388.09	901.11
388.28	866.00
388.48	807.48
388.67	917.49
388.86	929.19
389.06	873.02
389.25	901.11
389.45	910.47
389.64	945.58
389.84	840.25
390.03	1020.47
390.22	959.62
390.42	863.66
390.61	894.08
390.81	933.87
391.00	929.19
391.19	971.32
391.39	1015.79
391.58	961.96
391.78	947.92
391.97	1060.26
392.16	1018.13
392.36	1006.43
392.55	1022.81
392.75	968.98
392.94	1125.80
393.13	1015.79
393.33	1027.50
393.52	959.62
393.71	1074.31
393.91	1093.03
394.10	1095.37
394.29	1100.05
394.49	1055.58
394.68	1156.22
394.88	1128.14
395.07	1160.91
395.26	1118.78
395.46	1170.27
395.65	1050.90
395.84	1151.54
396.04	1303.68
396.23	1144.52
396.42	1153.88
396.62	1203.04
396.81	1247.51
397.00	1151.54
397.19	1184.31
397.39	1177.29
397.58	1177.29
397.77	1221.76
397.97	1228.78
398.16	1151.54
398.35	1224.10
398.55	1146.86
398.74	1207.72
398.93	1275.59
399.12	1224.10
399.32	1231.12
399.51	1254.53
399.70	1385.60
399.90	1348.15
400.09	1423.05
400.28	1455.81
400.47	1352.83
400.67	1376.24
400.86	1434.75
401.05	1453.47
401.24	1460.49
401.44	1404.32
401.63	1366.87
401.82	1481.56
402.01	1519.01
402.21	1380.92
402.40	1455.81
402.59	1434.75
402.78	1465.18
402.97	1427.73
403.17	1441.77
403.36	1467.52
403.55	1479.22
403.74	1535.39
403.93	1638.38
404.13	1568.16
404.32	1570.50
404.51	1579.86
404.70	1603.27
404.89	1687.53
405.09	1762.42
405.28	1638.38
405.47	1708.59
405.66	1664.12
405.85	1621.99
406.05	1701.57
406.24	1713.27
406.43	1783.49
406.62	1715.61
406.81	1795.19
407.00	1774.13
407.20	1717.95
407.39	1701.57
407.58	1874.77
407.77	1722.63
407.96	1846.68
408.15	1907.54
408.34	1809.23
408.54	1926.26
408.73	1937.96
408.92	1942.64
409.11	1900.52
409.30	1942.64
409.49	1839.66
409.68	1956.69
409.87	1837.32
410.07	2045.63
410.26	2052.65
410.45	2015.20
410.64	2052.65
410.83	2146.27
411.02	2113.50
411.21	2097.12
411.40	2167.34
411.59	2211.81
411.78	2071.37
411.98	2092.44
412.17	2218.83
412.36	2162.66
412.55	2312.45
412.74	2319.47
412.93	2260.96
413.12	2366.28
413.31	2328.83
413.50	2368.62
413.69	2293.72
413.88	2422.45
414.07	2389.69
414.26	2511.39
414.45	2483.31
414.64	2502.03
414.83	2422.45
415.02	2506.71
415.22	2649.49
415.41	2605.02
415.60	2661.19
415.79	2546.50
415.98	2621.40
416.17	2710.34
416.36	2663.53
416.55	2668.21
416.74	2722.04
416.93	2731.41
417.12	2745.45
417.31	2700.98
417.50	2827.37
417.69	2932.69
417.88	2799.28
418.07	2860.13
418.26	2951.42
418.45	3000.57
418.64	2991.20
418.83	2932.69
419.02	2918.65
419.21	3019.29
419.39	2979.50
419.58	3073.12
419.77	2979.50
419.96	2988.86
420.15	3009.93
420.34	3108.23
420.53	3199.51
420.72	3112.91
420.91	3176.11
421.10	3164.40
421.29	3323.56
421.48	3239.30
421.67	3066.10
421.86	3314.20
422.05	3368.03
422.24	3243.98
422.43	3295.47
422.61	3255.69
422.80	3297.81
422.99	3349.31
423.18	3471.01
423.37	3463.99
423.56	3316.54
423.75	3323.56
423.94	3232.28
424.13	3068.44
424.32	3155.04
424.50	3316.54
424.69	3445.27
424.88	3375.05
425.07	3274.41
425.26	3215.90
425.45	3325.90
425.64	3194.83
425.83	3466.33
426.01	3398.46
426.20	3332.92
426.39	3330.58
426.58	3375.05
426.77	3293.13
426.96	3375.05
427.15	3344.63
427.33	3630.17
427.52	3482.72
427.71	3557.61
427.90	3503.78
428.09	3564.64
428.28	3522.51
428.46	3527.19
428.65	3595.06
428.84	3719.11
429.03	3749.54
429.22	3597.40
429.40	3660.60
429.59	3578.68
429.78	3578.68
429.97	3382.07
430.16	3763.58
430.34	3712.09
430.53	3777.62
430.72	3705.07
430.91	3873.59
431.10	3861.88
431.28	3875.93
431.47	3988.27
431.66	4086.58
431.85	3957.85
432.03	3887.63
432.22	4049.13
432.41	3864.22
432.60	3936.78
432.79	3934.44
432.97	3995.29
433.16	4189.56
433.35	4023.38
433.54	4163.81
433.72	4212.96
433.91	4100.62
434.10	4184.88
434.28	4119.34
434.47	4189.56
434.66	4285.52
434.85	4149.77
435.03	4241.05
435.22	4215.30
435.41	4367.44
435.59	4301.90
435.78	4301.90
435.97	4283.18
436.16	4353.40
436.34	4191.90
436.53	4477.44
436.72	4517.23
436.90	4280.84
437.09	4559.36
437.28	4353.40
437.46	4390.84
437.65	4367.44
437.84	4528.94
438.02	4397.87
438.21	4526.60
438.40	4554.68
438.58	4585.11
438.77	4585.11
438.96	4652.98
439.14	4784.06
439.33	4713.84
439.52	4788.74
439.70	4917.47
439.89	4882.36
440.08	4784.06
440.26	4856.61
440.45	4861.29
440.63	4842.57
440.82	5102.37
441.01	5008.75
441.19	4990.02
441.38	5088.32
441.57	4999.38
441.75	5050.88
441.94	5284.93
442.12	5289.61
442.31	5149.18
442.50	5352.81
442.68	5193.65
442.87	5348.12
443.05	5462.81
443.24	5420.68
443.43	5357.49
443.61	5432.38
443.80	5668.78
443.98	5373.87
444.17	5268.55
444.35	5387.91
444.54	5563.45
444.73	5544.73
444.91	5430.04
445.10	5434.72
445.28	5621.97
445.47	5355.15
445.65	5554.09
445.84	5425.36
446.02	5488.56
446.21	5483.88
446.39	5607.92
446.58	5736.65
446.77	5610.26
446.95	5418.34
447.14	5614.95
447.32	5715.59
447.51	5563.45
447.69	5547.07
447.88	5673.46
448.06	5561.11
448.25	5605.58
448.43	5430.04
448.62	5636.01
448.80	5696.86
448.99	5914.53
449.17	5760.06
449.36	5551.75
449.54	5682.82
449.73	5724.95
449.91	5823.25
450.10	5755.38
450.28	5860.70
450.46	5989.43
450.65	6010.50
450.83	5947.30
451.02	5926.24
451.20	6169.65
451.39	6017.52
451.57	5954.32
451.76	6047.94
451.94	6162.63
452.13	6127.52
452.31	6153.27
452.49	6101.78
452.68	6038.58
452.86	6125.18
453.05	6129.86
453.23	6143.91
453.42	6267.95
453.60	6195.40
453.78	6429.45
453.97	6319.45
454.15	6284.34
454.34	6153.27
454.52	6333.49
454.70	6366.26
454.89	6403.71
455.07	6434.13
455.26	6565.20
455.44	6555.84
455.62	6352.21
455.81	6466.90
455.99	6352.21
456.17	6377.96
456.36	6579.25
456.54	6707.98
456.73	6825.00
456.91	6890.54
457.09	6857.77
457.28	6937.35
457.46	6736.06
457.64	6892.88
457.83	6796.92
458.01	6848.41
458.19	7059.06
458.38	7021.61
458.56	6998.20
458.74	6925.65
458.93	6984.16
459.11	6979.48
459.29	7066.08
459.48	7056.72
459.66	6993.52
459.84	7190.13
460.03	7311.83
460.21	7262.68
460.39	7236.94
460.57	7265.02
460.76	7269.70
460.94	7302.47
461.12	7302.47
461.31	7499.08
461.49	7358.64
461.67	7316.51
461.85	7470.99
462.04	7262.68
462.22	7796.32
462.40	7578.65
462.59	7632.49
462.77	7466.31
462.95	7442.90
463.13	7496.74
463.32	7691.00
463.50	7798.66
463.68	7662.91
463.86	7695.68
464.05	7665.25
464.23	7487.37
464.41	7840.79
464.59	7681.64
464.78	7969.52
464.96	7754.19
465.14	7606.74
465.32	7997.61
465.50	7920.37
465.69	7990.59
465.87	7892.29
466.05	7929.74
466.23	7791.64
466.41	8018.68
466.60	7999.95
466.78	7922.71
466.96	7997.61
467.14	8063.15
467.32	8147.40
467.51	8142.72
467.69	7875.90
467.87	8098.25
468.05	8030.38
468.23	8189.53
468.41	8105.28
468.60	8126.34
468.78	8184.85
468.96	8472.74
469.14	8430.61
469.32	8407.20
469.50	8271.45
469.69	8538.27
469.87	8327.63
470.05	8374.44
470.23	8435.29
470.41	8573.38
470.59	8652.96
470.77	8503.17
470.95	8423.59
471.14	8542.96
471.32	8599.13
471.50	8779.35
471.68	8835.52
471.86	8924.46
472.04	8959.57
472.22	9060.21
472.40	8830.84
472.58	9022.77
472.77	9200.65
472.95	9202.99
473.13	9277.88
473.31	9081.28
473.49	8954.89
473.67	9151.49
473.85	9273.20
474.03	9584.49
474.21	9479.17
474.39	9593.86
474.57	9331.72
474.75	9488.53
474.93	9731.95
475.12	9687.48
475.30	9888.76
475.48	9809.19
475.66	9612.58
475.84	9834.93
476.02	9877.06
476.20	10045.58
476.38	10054.94
476.56	10204.74
476.74	10090.05
476.92	10188.35
477.10	10174.31
477.28	10424.75
477.46	10181.33
477.64	10431.77
477.82	10590.92
478.00	10794.55
478.18	10588.58
478.36	10822.64
478.54	11105.84
478.72	10864.77
478.90	11260.32
479.08	11456.92
479.26	11410.11
479.44	11393.73
479.62	11482.67
479.80	11620.76
479.98	11798.64
480.16	11922.69
480.34	11726.08
480.52	11971.84
480.70	11843.11
480.88	11688.64
481.06	11957.80
481.24	12119.29
481.41	12222.28
481.59	12339.30
481.77	12596.76
481.95	12500.80
482.13	12629.53
482.31	12617.83
482.49	12889.33
482.67	12947.84
482.85	13018.06
483.03	13139.77
483.21	13303.60
483.39	13429.99
483.57	13277.86
483.74	13441.70
483.92	13745.97
484.10	13769.37
484.28	13713.20
484.46	13937.89
484.64	14326.42
484.82	13900.44
485.00	14139.18
485.18	14436.42
485.35	14871.76
485.53	14696.22
485.71	14663.46
485.89	15073.05
486.07	14885.81
486.25	15012.20
486.43	14883.47
486.61	15370.30
486.78	15349.23
486.96	15281.36
487.14	15597.33
487.32	15669.89
487.50	15815.00
487.68	16147.36
487.85	16023.31
488.03	15812.66
488.21	16563.97
488.39	16610.78
488.57	16657.59
488.75	16706.74
488.92	16758.24
489.10	17076.55
489.28	16835.47
489.46	17270.81
489.64	17074.21
489.81	17652.32
489.99	17525.93
490.17	17692.11
490.35	17799.77
490.53	17827.86
490.70	18043.19
490.88	18139.15
491.06	18314.69
491.24	18494.91
491.41	18445.76
491.59	18822.59
491.77	18696.20
491.95	18892.80
492.13	18874.08
492.30	19103.45
492.48	19033.24
492.66	18780.46
492.84	19262.61
493.01	19454.53
493.19	19470.92
493.37	19569.22
493.54	19693.27
493.72	19875.83
493.90	19838.38
494.08	20280.74
494.25	20297.13
494.43	20629.48
494.61	20421.17
494.79	20521.82
494.96	20833.11
495.14	20758.21
495.32	20961.84
495.49	21025.03
495.67	21233.34
495.85	21610.17
496.02	21500.16
496.20	21582.08
496.38	21727.19
496.55	21738.90
496.73	22155.51
496.91	22272.54
497.09	21972.95
497.26	22092.32
497.44	22235.09
497.62	22450.42
497.79	22616.60
497.97	22415.31
498.14	22515.95
498.32	22904.48
498.50	22974.70
498.67	23370.25
498.85	22953.63
499.03	23442.81
499.20	23403.02
499.38	23178.33
499.56	23433.44
499.73	23775.16
499.91	23953.04
500.08	23566.85
500.26	23943.68
500.44	23805.59
500.61	23836.02
500.79	23992.83
500.97	24369.66
501.14	24540.52
501.32	24538.18
501.49	24479.66
501.67	24479.66
501.84	24931.39
502.02	24725.42
502.20	24629.46
502.37	24774.57
502.55	24788.61
502.72	25146.72
502.90	25298.85
503.07	25245.02
503.25	25380.77
503.43	25074.16
503.60	25558.65
503.78	25624.18
503.95	25942.50
504.13	25635.89
504.30	25895.69
504.48	25825.47
504.65	25982.29
504.83	26331.03
505.01	25982.29
505.18	26309.96
505.36	26455.08
505.53	26536.99
505.71	27047.23
505.88	26480.82
506.06	26597.85
506.23	26888.07
506.41	26953.61
506.58	26740.62
506.76	27559.81
506.93	27241.50
507.11	27037.87
507.28	26899.78
507.46	27529.38
507.63	27758.75
507.81	27644.07
507.98	27150.21
508.16	27632.36
508.33	27716.62
508.50	27611.30
508.68	27789.18
508.85	28306.44
509.03	27873.44
509.20	27885.14
509.38	28451.55
509.55	28318.14
509.73	28388.36
509.90	28432.83
510.08	28278.35
510.25	29188.82
510.42	28966.47
510.60	28599.01
510.77	28966.47
510.95	29366.70
511.12	28606.03
511.30	28922.00
511.47	29460.32
511.64	29074.13
511.82	29172.44
511.99	29584.37
512.17	29553.94
512.34	29670.97
512.51	29652.25
512.69	29881.62
512.86	29965.88
513.04	29956.52
513.21	30024.39
513.38	29975.24
513.56	30586.12
513.73	30403.56
513.90	30441.01
514.08	30466.75
514.25	30588.46
514.43	30487.82
514.60	30572.08
514.77	30817.83
514.95	30668.04
515.12	30934.86
515.29	30857.62
515.47	30998.06
515.64	31061.25
515.81	30939.54
515.99	31260.20
516.16	31283.60
516.33	31318.71
516.51	31651.06
516.68	31292.96
516.85	31253.17
517.03	31648.72
517.20	31637.02
517.37	31648.72
517.54	31679.15
517.72	31793.84
517.89	32058.32
518.06	31732.98
518.24	32444.51
518.41	32231.52
518.58	32360.25
518.75	32112.15
518.93	32027.89
519.10	32311.10
519.27	32493.66
519.45	32486.64
519.62	32783.88
519.79	32907.93
519.96	32556.85
520.14	32732.39
520.31	32751.12
520.48	32917.29
520.65	32950.06
520.83	33188.80
521.00	33535.20
521.17	32980.49
521.34	33439.23
521.52	33521.15
521.69	33797.34
521.86	33790.31
522.03	33696.69
522.20	33762.23
522.38	34087.56
522.55	33977.56
522.72	33741.16
522.89	33305.82
523.07	34059.48
523.24	34440.98
523.41	34045.43
523.58	34295.87
523.75	34607.16
523.92	34677.38
524.10	34073.52
524.27	34567.37
524.44	34356.72
524.61	34382.47
524.78	34567.37
524.96	35159.53
525.13	34778.02
525.30	34895.05
525.47	35232.08
525.64	34976.97
525.81	35510.61
525.98	35110.38
526.16	35302.30
526.33	34951.22
526.50	35330.39
526.67	35431.03
526.84	35459.12
527.01	36084.04
527.18	35573.80
527.36	35590.19
527.53	35758.70
527.70	35962.33
527.87	36280.64
528.04	35929.56
528.21	36044.25
528.38	35889.77
528.55	36025.53
528.72	35786.79
528.89	35945.95
529.07	35697.85
529.24	35763.39
529.41	36215.11
529.58	36470.23
529.75	36287.67
529.92	36217.45
530.09	36280.64
530.26	36844.71
530.43	36465.55
530.60	36488.95
530.77	36397.67
530.94	37001.53
531.11	36643.43
531.28	36987.49
531.46	36594.28
531.63	36957.06
531.80	36811.95
531.97	36982.80
532.14	37153.66
532.31	36924.29
532.48	36739.39
532.65	37031.96
532.82	37640.50
532.99	37387.72
533.16	36898.55
533.33	37394.74
533.50	37209.84
533.67	37565.60
533.84	37378.36
534.01	37462.61
534.18	37558.58
534.35	38340.32
534.52	37659.22
534.69	38038.39
534.86	38237.33
535.03	38124.99
535.20	38326.27
535.37	38047.75
535.54	38476.07
535.71	38300.53
535.88	38462.02
536.05	38763.95
536.22	38656.29
536.38	38520.54
536.55	38377.76
536.72	38539.26
536.89	38553.30
537.06	38644.59
537.23	39103.33
537.40	38759.27
537.57	38724.16
537.74	38934.81
537.91	38993.32
538.08	38906.73
538.25	38944.17
538.42	39019.07
538.59	39505.90
538.75	39044.82
538.92	39241.42
539.09	39388.88
539.26	38960.56
539.43	39620.59
539.60	39189.93
539.77	39449.73
539.94	39454.41
540.11	39351.43
540.28	39323.34
540.44	39346.75
540.61	39440.37
540.78	39519.95
540.95	39653.36
541.12	39473.13
541.29	39400.58
541.46	39917.84
541.62	39873.37
541.79	40121.46
541.96	39428.66
542.13	39758.68
542.30	39871.03
542.47	40198.70
542.63	40252.53
542.80	40437.44
542.97	40561.48
543.14	40519.35
543.31	40472.54
543.48	40584.89
543.64	41022.57
543.81	40905.54
543.98	40737.02
544.15	40680.85
544.32	40957.03
544.48	41277.69
544.65	40563.82
544.82	40769.79
544.99	40919.59
545.16	40734.68
545.32	40720.64
545.49	41254.28
545.66	41453.23
545.83	41294.07
546.00	40802.56
546.16	41184.07
546.33	40830.65
546.50	41083.42
546.67	41057.68
546.83	41361.95
547.00	41139.60
547.17	40973.42
547.34	41390.03
547.50	41708.35
547.67	41949.42
547.84	41839.42
548.00	41965.81
548.17	41963.46
548.34	41581.96
548.51	41759.84
548.67	42043.04
548.84	42017.30
549.01	41755.16
549.18	41968.15
549.34	42199.86
549.51	42354.33
549.68	42003.25
549.84	41790.27
550.01	42253.69
550.18	42106.24
550.34	42309.86
550.51	41949.42
550.68	42756.91
550.84	42401.14
551.01	42532.22
551.18	42066.45
551.34	42218.58
551.51	42478.38
551.68	43129.05
551.84	42752.23
552.01	42527.53
552.18	42485.40
552.34	42504.13
552.51	42646.90
552.68	42106.24
552.84	42820.10
553.01	43136.07
553.18	42529.87
553.34	43075.22
553.51	42684.35
553.67	42780.31
553.84	42967.55
554.01	43150.12
554.17	43100.97
554.34	43098.62
554.51	43143.09
554.67	43400.55
554.84	43372.47
555.00	43580.78
555.17	43086.92
555.33	43309.27
555.50	43194.59
555.67	43058.84
555.83	43339.70
556.00	43592.48
556.16	44215.06
556.33	43304.59
556.50	43496.52
556.66	43480.13
556.83	43278.85
556.99	43901.43
557.16	43494.18
557.32	43695.46
557.49	44126.12
557.65	43517.58
557.82	43896.75
557.98	43880.36
558.15	43634.61
558.32	44353.15
558.48	43730.57
558.65	43618.22
558.81	43936.54
558.98	43973.98
559.14	44339.11
559.31	44137.82
559.47	43618.22
559.64	43840.57
559.80	44247.83
559.97	43957.60
560.13	43807.81
560.30	43894.41
560.46	44392.94
560.63	44339.11
560.79	44465.50
560.96	44458.48
561.12	44526.35
561.29	44266.55
561.45	44467.84
561.61	43714.19
561.78	44519.33
561.94	44385.92
562.11	44252.51
562.27	44456.14
562.44	44261.87
562.60	44512.31
562.77	44624.65
562.93	44486.56
563.10	45144.25
563.26	44325.07
563.42	44849.35
563.59	44516.99
563.75	44299.32
563.92	44568.48
564.08	44858.71
564.24	45532.78
564.41	45045.95
564.57	45116.17
564.74	44914.88
564.90	44591.89
565.07	44662.10
565.23	44605.93
565.39	44720.62
565.56	44711.25
565.72	44598.91
565.88	44832.96
566.05	45207.45
566.21	44802.53
566.38	44807.22
566.54	45263.62
566.70	44987.44
566.87	44973.39
567.03	44755.72
567.19	45207.45
567.36	45045.95
567.52	45029.57
567.68	45233.19
567.85	44861.05
568.01	45603.00
568.17	45223.83
568.34	45221.49
568.50	45029.57
568.66	44830.62
568.83	45240.21
568.99	45294.05
569.15	45254.26
569.32	45144.25
569.48	44839.98
569.64	45467.25
569.81	45050.63
569.97	45155.96
570.13	45359.58
570.30	45209.79
570.46	45778.54
570.62	45570.23
570.78	45280.00
570.95	45272.98
571.11	45478.95
571.27	45137.23
571.43	45294.05
571.60	45258.94
571.76	45572.57
571.92	45326.81
572.09	45312.77
572.25	45216.81
572.41	45228.51
572.57	45151.27
572.74	45837.05
572.90	45179.36
573.06	45874.50
573.22	45687.26
573.38	45418.10
573.55	45399.37
573.71	46237.28
573.87	45607.68
574.03	45462.57
574.20	46183.45
574.36	45759.81
574.52	45874.50
574.68	45764.49
574.84	45502.35
575.01	46000.89
575.17	45823.01
575.33	45415.76
575.49	45574.91
575.65	45815.99
575.82	45668.53
575.98	45738.75
576.14	46234.94
576.30	45965.78
576.46	45481.29
576.62	45366.60
576.79	45635.77
576.95	45439.16
577.11	45539.80
577.27	45319.79
577.43	46021.95
577.59	45881.52
577.75	45483.63
577.92	45432.14
578.08	45766.84
578.24	45741.09
578.40	46225.58
578.56	45909.61
578.72	46272.39
578.88	45862.80
579.04	45752.79
579.21	45827.69
579.37	45930.67
579.53	46103.87
579.69	45808.96
579.85	45621.72
580.01	45785.56
580.17	45544.48
580.33	45998.55
580.49	45837.05
580.65	46223.24
580.82	45780.88
580.98	45617.04
581.14	45296.39
581.30	46117.92
581.46	45684.92
581.62	45659.17
581.78	45294.05
581.94	45780.88
582.10	45666.19
582.26	46019.61
582.42	45989.19
582.58	46183.45
582.74	46064.08
582.90	46188.13
583.06	45738.75
583.22	46443.25
583.38	45872.16
583.54	46511.13
583.70	45918.97
583.86	45921.31
584.02	46054.72
584.18	46389.42
584.34	45830.03
584.50	46373.03
584.66	46387.08
584.82	46321.54
584.98	46380.06
585.14	45921.31
585.30	45586.61
585.46	45851.09
585.62	45748.11
585.78	46616.45
585.94	45380.65
586.10	45656.83
586.26	45834.71
586.42	45879.18
586.58	45762.15
586.74	46160.05
586.90	45832.37
587.06	45862.80
587.22	46075.79
587.38	45764.49
587.54	46239.62
587.70	46335.59
587.86	46366.01
588.02	45911.95
588.18	46131.96
588.34	46270.05
588.49	46153.02
588.65	46230.26
588.81	45595.98
588.97	46370.69
589.13	46057.06
589.29	46096.85
589.45	45996.21
589.61	46131.96
589.77	46546.23
589.93	46639.86
590.08	46347.29
