SpectraSuite Data File
++++++++++++++++++++++++++++++++++++
Date: Fri Oct 25 10:44:35 EDT 2013
User: price-jones
Dark Spectrum Present: No
Reference Spectrum Present: No
Number of Sampled Component Spectra: 1
Spectrometers: USB2+H05261
Integration Time (usec): 100000 (USB2+H05261)
Spectra Averaged: 1 (USB2+H05261)
Boxcar Smoothing: 0 (USB2+H05261)
Correct for Electrical Dark: No (USB2+H05261)
Strobe/Lamp Enabled: No (USB2+H05261)
Correct for Detector Non-linearity: No (USB2+H05261)
Correct for Stray Light: No (USB2+H05261)
Number of Pixels in Processed Spectrum: 2048
>>>>>Begin Processed Spectral Data<<<<<
365.73	67.88
365.92	67.88
366.12	67.88
366.32	46.81
366.52	23.41
366.72	30.43
366.91	25.75
367.11	28.09
367.31	0.00
367.51	77.24
367.70	58.51
367.90	44.47
368.10	0.00
368.30	0.00
368.49	49.15
368.69	105.32
368.89	4.68
369.09	51.49
369.28	49.15
369.48	65.54
369.68	65.54
369.87	126.39
370.07	9.36
370.27	180.22
370.47	191.92
370.66	379.17
370.86	425.98
371.06	409.59
371.25	435.34
371.45	369.80
371.65	451.72
371.84	507.90
372.04	402.57
372.24	437.68
372.44	468.11
372.63	561.73
372.83	458.74
373.03	557.05
373.22	458.74
373.42	526.62
373.62	528.96
373.81	489.17
374.01	540.66
374.21	547.69
374.40	533.64
374.60	615.56
374.79	519.60
374.99	547.69
375.19	596.84
375.38	620.24
375.58	479.81
375.78	610.88
375.97	592.16
376.17	615.56
376.37	561.73
376.56	631.94
376.76	547.69
376.95	500.87
377.15	627.26
377.35	601.52
377.54	648.33
377.74	559.39
377.93	617.90
378.13	617.90
378.33	648.33
378.52	636.63
378.72	645.99
378.91	610.88
379.11	657.69
379.31	566.41
379.50	559.39
379.70	648.33
379.89	587.47
380.09	662.37
380.28	575.77
380.48	634.29
380.68	697.48
380.87	674.07
381.07	622.58
381.26	732.59
381.46	603.86
381.65	683.44
381.85	620.24
382.04	667.05
382.24	739.61
382.43	723.23
382.63	713.86
382.83	657.69
383.02	645.99
383.22	788.76
383.41	692.80
383.61	702.16
383.80	737.27
384.00	723.23
384.19	734.93
384.39	816.85
384.58	723.23
384.78	807.48
384.97	737.27
385.17	788.76
385.36	678.76
385.56	779.40
385.75	732.59
385.95	767.70
386.14	814.51
386.34	734.93
386.53	833.23
386.72	919.83
386.92	816.85
387.11	755.99
387.31	807.48
387.50	784.08
387.70	837.91
387.89	793.44
388.09	837.91
388.28	863.66
388.48	898.77
388.67	924.51
388.86	884.72
389.06	851.96
389.25	805.14
389.45	889.40
389.64	873.02
389.84	910.47
390.03	903.45
390.22	966.64
390.42	896.43
390.61	866.00
390.81	938.55
391.00	908.13
391.19	940.90
391.39	959.62
391.58	952.60
391.78	1022.81
391.97	1020.47
392.16	952.60
392.36	1027.50
392.55	983.02
392.75	961.96
392.94	947.92
393.13	915.15
393.33	943.24
393.52	961.96
393.71	1060.26
393.91	1048.56
394.10	1071.97
394.29	1132.82
394.49	1074.31
394.68	1088.35
394.88	1060.26
395.07	1137.50
395.26	1111.75
395.46	1198.35
395.65	1144.52
395.84	1158.57
396.04	1146.86
396.23	1146.86
396.42	1022.81
396.62	1062.60
396.81	1123.46
397.00	1174.95
397.19	1210.06
397.39	1254.53
397.58	1263.89
397.77	1270.91
397.97	1151.54
398.16	1203.04
398.35	1284.95
398.55	1331.76
398.74	1345.81
398.93	1394.96
399.12	1320.06
399.32	1303.68
399.51	1345.81
399.70	1369.21
399.90	1371.55
400.09	1336.45
400.28	1392.62
400.47	1338.79
400.67	1458.15
400.86	1434.75
401.05	1603.27
401.24	1519.01
401.44	1483.90
401.63	1516.67
401.82	1593.90
402.01	1572.84
402.21	1453.47
402.40	1535.39
402.59	1514.33
402.78	1556.46
402.97	1521.35
403.17	1568.16
403.36	1577.52
403.55	1596.25
403.74	1610.29
403.93	1664.12
404.13	1640.72
404.32	1696.89
404.51	1661.78
404.70	1842.00
404.89	1682.85
405.09	1813.92
405.28	1748.38
405.47	1722.63
405.66	1806.89
405.85	1795.19
406.05	1872.43
406.24	1771.79
406.43	1724.97
406.62	1914.56
406.81	1956.69
407.00	1806.89
407.20	1907.54
407.39	1933.28
407.58	1940.30
407.77	1895.83
407.96	2003.50
408.15	1956.69
408.34	2012.86
408.54	2036.27
408.73	2043.29
408.92	2080.74
409.11	2031.58
409.30	2134.57
409.49	1989.46
409.68	1996.48
409.87	2062.01
410.07	2127.55
410.26	2146.27
410.45	2132.23
410.64	2148.61
410.83	2352.24
411.02	2260.96
411.21	2307.77
411.40	2298.41
411.59	2340.54
411.78	2345.22
411.98	2450.54
412.17	2340.54
412.36	2314.79
412.55	2532.46
412.74	2532.46
412.93	2408.41
413.12	2513.74
413.31	2623.74
413.50	2534.80
413.69	2422.45
413.88	2572.25
414.07	2619.06
414.26	2567.57
414.45	2633.10
414.64	2794.60
414.83	2782.90
415.02	2637.78
415.22	2768.85
415.41	2747.79
415.60	2754.81
415.79	2881.20
415.98	2935.03
416.17	2937.37
416.36	2942.05
416.55	2963.12
416.74	2923.33
416.93	2951.42
417.12	3115.25
417.31	3012.27
417.50	3098.87
417.69	3061.42
417.88	3082.49
418.07	3108.23
418.26	3023.97
418.45	3068.44
418.64	3150.36
418.83	3155.04
419.02	3115.25
419.21	3164.40
419.39	3232.28
419.58	3180.79
419.77	3232.28
419.96	3218.24
420.15	3276.75
420.34	3152.70
420.53	3396.12
420.72	3421.86
420.91	3419.52
421.10	3424.20
421.29	3721.45
421.48	3456.97
421.67	3391.44
421.86	3400.80
422.05	3398.46
422.24	3482.72
422.43	3461.65
422.61	3529.53
422.80	3428.88
422.99	3543.57
423.18	3637.19
423.37	3606.77
423.56	3571.66
423.75	3562.30
423.94	3492.08
424.13	3368.03
424.32	3363.35
424.50	3578.68
424.69	3564.64
424.88	3653.58
425.07	3520.17
425.26	3585.70
425.45	3602.08
425.64	3438.25
425.83	3660.60
426.01	3805.71
426.20	3754.22
426.39	3658.26
426.58	3571.66
426.77	3609.11
426.96	3566.98
427.15	3566.98
427.33	3641.87
427.52	3700.39
427.71	3798.69
427.90	3887.63
428.09	3838.48
428.28	3892.31
428.46	3964.87
428.65	3817.41
428.84	3908.69
429.03	3889.97
429.22	3737.84
429.40	3896.99
429.59	3901.67
429.78	3620.81
429.97	3737.84
430.16	3772.94
430.34	3880.61
430.53	3983.59
430.72	4021.04
430.91	3918.06
431.10	3988.27
431.28	3990.61
431.47	4243.39
431.66	4320.63
431.85	4128.70
432.03	4114.66
432.22	4332.33
432.41	4271.48
432.60	4367.44
432.79	4327.65
432.97	4229.35
433.16	4278.50
433.35	4250.41
433.54	4292.54
433.72	4222.33
433.91	4299.56
434.10	4390.84
434.28	4320.63
434.47	4512.55
434.66	4444.68
434.85	4393.19
435.03	4542.98
435.22	4512.55
435.41	4631.92
435.59	4608.51
435.78	4664.69
435.97	4660.01
436.16	4601.49
436.34	4699.80
436.53	4751.29
436.72	4746.61
436.90	4643.62
437.09	4688.09
437.28	4561.70
437.46	4676.39
437.65	4809.80
437.84	4795.76
438.02	4730.22
438.21	4826.18
438.40	4741.93
438.58	4922.15
438.77	4971.30
438.96	5083.64
439.14	4901.08
439.33	5212.37
439.52	5043.85
439.70	5093.01
439.89	5261.52
440.08	5114.07
440.26	5277.91
440.45	5210.03
440.63	5399.62
440.82	5303.65
441.01	5420.68
441.19	5586.86
441.38	5561.11
441.57	5591.54
441.75	5645.37
441.94	5689.84
442.12	5727.29
442.31	5813.89
442.50	5839.64
442.68	5851.34
442.87	5900.49
443.05	5860.70
443.24	5877.09
443.43	5891.13
443.61	5738.99
443.80	6069.01
443.98	5806.87
444.17	5743.67
444.35	5692.18
444.54	6015.18
444.73	6001.13
444.91	5902.83
445.10	5977.73
445.28	5851.34
445.47	5977.73
445.65	5795.17
445.84	5921.56
446.02	5977.73
446.21	5937.94
446.39	5785.80
446.58	6054.97
446.77	6033.90
446.95	5996.45
447.14	5963.68
447.32	6164.97
447.51	5970.71
447.69	6195.40
447.88	6080.71
448.06	6101.78
448.25	6090.07
448.43	6155.61
448.62	6150.93
448.80	6108.80
448.99	6160.29
449.17	6303.06
449.36	6164.97
449.54	6331.15
449.73	6537.12
449.91	6415.41
450.10	6565.20
450.28	6483.28
450.46	6607.33
450.65	6583.93
450.83	6436.47
451.02	6459.88
451.20	6537.12
451.39	6509.03
451.57	6401.37
451.76	6480.94
451.94	6403.71
452.13	6614.35
452.31	6715.00
452.49	6612.01
452.68	6705.63
452.86	6703.29
453.05	6630.74
453.23	6815.64
453.42	6696.27
453.60	6857.77
453.78	6787.55
453.97	6707.98
454.15	6841.39
454.34	6843.73
454.52	6956.07
454.70	7000.54
454.89	6944.37
455.07	6836.70
455.26	7108.21
455.44	7068.42
455.62	7000.54
455.81	7183.10
455.99	7185.44
456.17	7272.04
456.36	7049.69
456.54	7185.44
456.73	7325.88
456.91	7552.91
457.09	7485.03
457.28	7492.05
457.46	7302.47
457.64	7370.35
457.83	7339.92
458.01	7140.97
458.19	7548.23
458.38	7438.22
458.56	7613.76
458.74	7569.29
458.93	7566.95
459.11	7815.05
459.29	7819.73
459.48	7393.75
459.66	7527.16
459.84	7756.54
460.03	7831.43
460.21	7955.48
460.39	7831.43
460.57	7644.19
460.76	7927.39
460.94	7896.97
461.12	7829.09
461.31	8004.63
461.49	7719.09
461.67	7887.61
461.85	8222.30
462.04	7950.80
462.22	8138.04
462.40	8077.19
462.59	8056.12
462.77	8142.72
462.95	8170.81
463.13	8166.13
463.32	8163.79
463.50	8255.07
463.68	8217.62
463.86	8250.39
464.05	8119.32
464.23	8121.66
464.41	8381.46
464.59	8133.36
464.78	8400.18
464.96	8362.73
465.14	8257.41
465.32	8463.38
465.50	8549.98
465.69	8601.47
465.87	8248.05
466.05	8432.95
466.23	8315.92
466.41	8615.51
466.60	8652.96
466.78	8514.87
466.96	8580.40
467.14	8613.17
467.32	8542.96
467.51	8814.46
467.69	8428.27
467.87	8477.42
468.05	8709.13
468.23	8549.98
468.41	8678.71
468.60	8601.47
468.78	8816.80
468.96	8739.56
469.14	9032.13
469.32	9123.41
469.50	8730.20
469.69	9160.86
469.87	8898.72
470.05	8997.02
470.23	9242.78
470.41	9123.41
470.59	9217.03
470.77	8910.42
470.95	9312.99
471.14	9261.50
471.32	9022.77
471.50	9387.89
471.68	9528.32
471.86	9533.00
472.04	9467.47
472.22	9956.64
472.40	9357.46
472.58	9392.57
472.77	9741.31
472.95	9813.87
473.13	9947.28
473.31	9694.50
473.49	9612.58
473.67	9743.65
473.85	9699.18
474.03	10043.24
474.21	9947.28
474.39	10155.58
474.57	10314.74
474.75	10335.81
474.93	10340.49
475.12	10427.09
475.30	10326.44
475.48	10328.78
475.66	10429.43
475.84	10289.00
476.02	10513.69
476.20	10647.10
476.38	10682.20
476.56	10857.75
476.74	11023.92
476.92	10965.41
477.10	10972.43
477.28	11005.20
477.46	11187.76
477.64	11398.41
477.82	11571.61
478.00	11454.58
478.18	11517.78
478.36	11620.76
478.54	11623.10
478.72	11772.89
478.90	11800.98
479.08	11852.47
479.26	11997.59
479.44	12170.79
479.62	12194.19
479.80	12229.30
479.98	12318.24
480.16	12542.93
480.34	12458.67
480.52	12566.34
480.70	12751.24
480.88	12688.04
481.06	13050.83
481.24	12779.32
481.41	13228.71
481.59	13355.10
481.77	13287.22
481.95	13238.07
482.13	13284.88
482.31	13336.37
482.49	13614.90
482.67	13748.31
482.85	13996.40
483.03	13752.99
483.21	14181.31
483.39	14298.33
483.57	14083.00
483.74	13994.06
483.92	14366.21
484.10	14207.05
484.28	14642.39
484.46	14960.70
484.64	14839.00
484.82	14743.03
485.00	15009.86
485.18	15342.21
485.35	15400.72
485.53	15398.38
485.71	14941.98
485.89	15234.55
486.07	15438.17
486.25	15594.99
486.43	15700.31
486.61	15929.69
486.78	16035.01
486.96	16215.23
487.14	16173.10
487.32	16428.22
487.50	16418.86
487.68	16725.47
487.85	16844.84
488.03	17083.57
488.21	17270.81
488.39	17125.70
488.57	17394.86
488.75	17598.49
488.92	17544.66
489.10	17935.53
489.28	17958.93
489.46	18298.31
489.64	18185.96
489.81	18530.02
489.99	18347.46
490.17	18593.22
490.35	18771.10
490.53	18897.49
490.70	19250.91
490.88	19030.90
491.06	19410.06
491.24	19143.24
491.41	19159.63
491.59	19176.01
491.77	19740.08
491.95	19784.55
492.13	19910.94
492.30	20161.37
492.48	20222.23
492.66	20025.62
492.84	20191.80
493.01	20386.07
493.19	20327.55
493.37	20884.60
493.54	20531.18
493.72	21364.41
493.90	21362.07
494.08	21268.45
494.25	21064.82
494.43	21500.16
494.61	21881.67
494.79	21986.99
494.96	21549.31
495.14	21647.61
495.32	21961.25
495.49	22022.10
495.67	22190.62
495.85	22434.03
496.02	22300.62
496.20	22705.54
496.38	22710.22
496.55	22937.25
496.73	23248.54
496.91	23183.01
497.09	23372.59
497.26	23115.13
497.44	23234.50
497.62	23545.79
497.79	23613.66
497.97	23447.49
498.14	24079.43
498.32	24020.92
498.50	24079.43
498.67	24194.12
498.85	24400.08
499.03	24456.26
499.20	24315.83
499.38	24177.73
499.56	24666.91
499.73	24568.60
499.91	24950.11
500.08	24994.58
500.26	24643.50
500.44	25046.07
500.61	24893.94
500.79	24863.51
500.97	25266.08
501.14	25214.59
501.32	25226.29
501.49	25404.17
501.67	25284.81
501.84	25343.32
502.02	25895.69
502.20	26078.25
502.37	26169.53
502.55	25722.49
502.72	26101.65
502.90	26202.30
503.07	26192.94
503.25	27021.48
503.43	26387.20
503.60	26288.90
503.78	26293.58
503.95	26565.08
504.13	26740.62
504.30	26808.50
504.48	26775.73
504.65	27049.57
504.83	27042.55
505.01	27304.69
505.18	27388.95
505.36	27323.41
505.53	27587.89
505.71	27508.32
505.88	27772.80
506.06	27644.07
506.23	28290.06
506.41	27447.46
506.58	27828.97
506.76	27807.90
506.93	28144.94
507.11	28240.90
507.28	28283.03
507.46	28006.85
507.63	28196.43
507.81	28194.09
507.98	27997.49
508.16	28563.90
508.33	28404.74
508.50	28676.24
508.68	28987.53
508.85	29268.40
509.03	29062.43
509.20	28968.81
509.38	29369.04
509.55	29015.62
509.73	29453.30
509.90	29631.18
510.08	29575.01
510.25	29734.17
510.42	29603.10
510.60	29858.21
510.77	30000.99
510.95	30043.12
511.12	29951.84
511.30	30141.42
511.47	30368.45
511.64	30061.84
511.82	30546.33
511.99	30515.90
512.17	30733.57
512.34	30438.67
512.51	30745.28
512.69	30338.02
512.86	30988.69
513.04	30976.99
513.21	31047.21
513.38	31089.34
513.56	30663.36
513.73	31152.53
513.90	31358.50
514.08	31187.64
514.25	31047.21
514.43	31613.62
514.60	31529.36
514.77	31311.69
514.95	31407.65
515.12	31339.77
515.29	31417.01
515.47	32301.73
515.64	32341.52
515.81	31721.28
515.99	32100.45
516.16	32063.00
516.33	32257.26
516.51	31683.83
516.68	32058.32
516.85	31728.30
517.03	31967.04
517.20	32130.87
517.37	32247.90
517.54	32371.95
517.72	32624.73
517.89	32201.09
518.06	32229.18
518.24	32498.34
518.41	32655.15
518.58	32673.88
518.75	32493.66
518.93	33207.52
519.10	32615.37
519.27	32598.98
519.45	32903.25
519.62	33172.41
519.79	33570.30
519.96	33514.13
520.14	33631.16
520.31	33418.17
520.48	33373.70
520.65	33535.20
520.83	33745.84
521.00	34052.45
521.17	34103.95
521.34	33799.68
521.52	33993.94
521.69	34038.41
521.86	34761.64
522.03	34295.87
522.20	34171.82
522.38	34326.30
522.55	34682.06
522.72	34675.04
522.89	34424.60
523.07	34792.06
523.24	34401.19
523.41	34859.94
523.58	34721.85
523.75	35529.33
523.92	35101.01
524.10	35101.01
524.27	35012.07
524.44	35325.71
524.61	35592.53
524.78	35648.70
524.96	35576.14
525.13	35749.34
525.30	36070.00
525.47	35800.83
525.64	35405.28
525.81	35784.45
525.98	35732.96
526.16	35288.26
526.33	35281.24
526.50	35732.96
526.67	35309.32
526.84	35723.60
527.01	35775.09
527.18	35775.09
527.36	36196.38
527.53	36446.82
527.70	36598.96
527.87	36067.66
528.04	36308.73
528.21	36301.71
528.38	36491.29
528.55	36364.90
528.72	36741.73
528.89	36769.82
529.07	36928.97
529.24	36734.71
529.41	36685.56
529.58	36463.21
529.75	36657.47
529.92	37130.26
530.09	37013.23
530.26	37287.07
530.43	37144.30
530.60	37294.10
530.77	37432.19
530.94	37467.30
531.11	37347.93
531.28	37448.57
531.46	37605.39
531.63	37738.80
531.80	37638.15
531.97	37500.06
532.14	37457.93
532.31	37366.65
532.48	37680.28
532.65	37888.59
532.82	37745.82
532.99	37813.70
533.16	37827.74
533.33	38188.18
533.50	38059.45
533.67	38192.86
533.84	38340.32
534.01	38307.55
534.18	37968.17
534.35	38345.00
534.52	38286.48
534.69	38522.88
534.86	38576.71
535.03	38401.17
535.20	38630.54
535.37	38579.05
535.54	38974.60
535.71	38246.69
535.88	38906.73
536.05	38951.20
536.22	39021.41
536.38	38834.17
536.55	38778.00
536.72	38653.95
536.89	38635.22
537.06	39201.63
537.23	38735.87
537.40	38955.88
537.57	38953.54
537.74	38932.47
537.91	39615.91
538.08	39356.11
538.25	39290.57
538.42	39746.98
538.59	39419.30
538.75	38902.04
538.92	39381.85
539.09	39756.34
539.26	39655.70
539.43	39615.91
539.60	39428.66
539.77	39419.30
539.94	39838.26
540.11	39281.21
540.28	39768.04
540.44	39709.53
540.61	39442.71
540.78	39817.19
540.95	39452.07
541.12	39697.83
541.29	39784.43
541.46	39997.41
541.62	40278.28
541.79	40119.12
541.96	39957.63
542.13	40009.12
542.30	39910.82
542.47	39950.60
542.63	40498.29
542.80	40535.74
542.97	40926.61
543.14	40762.77
543.31	40854.05
543.48	40678.51
543.64	41265.99
543.81	41060.02
543.98	40823.62
544.15	40645.74
544.32	41275.35
544.48	41418.12
544.65	40708.94
544.82	41584.30
544.99	40863.41
545.16	41062.36
545.32	41331.52
545.49	41476.63
545.66	41518.76
545.83	41244.92
546.00	41588.98
546.16	41546.85
546.33	41099.81
546.50	41127.89
546.67	41406.42
546.83	40954.69
547.00	41249.60
547.17	41471.95
547.34	41617.07
547.50	41371.31
547.67	41713.03
547.84	41368.97
548.00	41818.35
548.17	41509.40
548.34	41762.18
548.51	41736.43
548.67	42185.82
548.84	42153.05
549.01	41968.15
549.18	41773.88
549.34	41844.10
549.51	42115.60
549.68	41741.11
549.84	42202.20
550.01	42134.32
550.18	42155.39
550.34	41914.31
550.51	41921.34
550.68	42260.71
550.84	41998.57
551.01	42440.93
551.18	42267.73
551.34	42368.38
551.51	42073.47
551.68	42398.80
551.84	42574.34
552.01	42429.23
552.18	42536.90
552.34	42401.14
552.51	42520.51
552.68	42780.31
552.84	43063.52
553.01	42824.78
553.18	42686.69
553.34	42595.41
553.51	42417.53
553.67	42485.40
553.84	43306.93
554.01	43061.18
554.17	43065.86
554.34	42965.21
554.51	42698.39
554.67	42918.40
554.84	43084.58
555.00	42747.54
555.17	42808.40
555.33	42784.99
555.50	42651.58
555.67	42478.38
555.83	42909.04
556.00	43058.84
556.16	43344.38
556.33	43187.56
556.50	43178.20
556.66	43543.33
556.83	42719.46
556.99	43302.25
557.16	43503.54
557.32	42995.64
557.49	43421.62
557.65	43180.54
557.82	43063.52
557.98	43636.95
558.15	43168.84
558.32	42983.94
558.48	43358.42
558.65	43175.86
558.81	43056.50
558.98	43353.74
559.14	43206.29
559.31	43257.78
559.47	43599.50
559.64	43629.93
559.80	43929.51
559.97	43922.49
560.13	43540.99
560.30	43487.15
560.46	43601.84
560.63	43618.22
560.79	43903.77
560.96	43945.90
561.12	43538.65
561.29	43856.96
561.45	43686.10
561.61	43522.26
561.78	43791.42
561.94	43328.00
562.11	43648.65
562.27	43667.37
562.44	43889.73
562.60	43892.07
562.77	44385.92
562.93	43906.11
563.10	43821.85
563.26	44046.54
563.42	44018.46
563.59	44053.56
563.75	43973.98
563.92	43915.47
564.08	44308.68
564.24	44261.87
564.41	43833.55
564.57	44467.84
564.74	44264.21
564.90	44126.12
565.07	43871.00
565.23	44098.03
565.39	44147.18
565.56	44388.26
565.72	44055.90
565.88	44388.26
566.05	43777.38
566.21	44009.09
566.38	44123.78
566.54	44074.63
566.70	44186.97
566.87	44252.51
567.03	44123.78
567.19	44683.17
567.36	44114.42
567.52	44091.01
567.68	44687.85
567.85	44137.82
568.01	44196.34
568.17	44060.58
568.34	44465.50
568.50	44236.12
568.66	44027.82
568.83	44598.91
568.99	44041.86
569.15	44079.31
569.32	43943.56
569.48	44027.82
569.64	44519.33
569.81	44275.91
569.97	44397.62
570.13	44238.47
570.30	44144.84
570.46	43805.47
570.62	43896.75
570.78	44156.55
570.95	44467.84
571.11	44589.55
571.27	44224.42
571.43	44350.81
571.60	44257.19
571.76	44025.48
571.92	44339.11
572.09	44680.83
572.25	44814.24
572.41	44240.81
572.57	44905.52
572.74	44980.42
572.90	44767.43
573.06	44779.13
573.22	44512.31
573.38	44615.29
573.55	44156.55
573.71	44809.56
573.87	44315.70
574.03	44924.24
574.20	44191.65
574.36	44456.14
574.52	44289.96
574.68	44327.41
574.84	44711.25
575.01	44428.05
575.17	44470.18
575.33	44540.39
575.49	44135.48
575.65	44404.64
575.82	44814.24
575.98	44446.77
576.14	44526.35
576.30	44701.89
576.46	44622.31
576.62	44577.84
576.79	44229.10
576.95	44304.00
577.11	44453.79
577.27	44547.42
577.43	45212.13
577.59	44486.56
577.75	44797.85
577.92	44229.10
578.08	44311.02
578.24	44327.41
578.40	44360.17
578.56	44575.50
578.72	44671.46
578.88	44814.24
579.04	44568.48
579.21	44680.83
579.37	45064.67
579.53	44725.30
579.69	44439.75
579.85	44793.17
580.01	44760.40
580.17	44835.30
580.33	44577.84
580.49	44821.26
580.65	45352.56
580.82	44591.89
580.98	44676.15
581.14	44612.95
581.30	44978.07
581.46	44428.05
581.62	44734.66
581.78	44737.00
581.94	44912.54
582.10	44449.11
582.26	44928.92
582.42	45045.95
582.58	44442.09
582.74	44619.97
582.90	45219.15
583.06	44921.90
583.22	44856.37
583.38	44669.12
583.54	44809.56
583.70	44945.31
583.86	44973.39
584.02	44641.04
584.18	44751.04
584.34	44580.18
584.50	44582.52
584.66	44783.81
584.82	44664.44
584.98	44816.58
585.14	45099.78
585.30	44409.32
585.46	44935.95
585.62	44516.99
585.78	44825.94
585.94	44509.97
586.10	44673.81
586.26	44662.10
586.42	44917.22
586.58	44882.11
586.74	44896.16
586.90	44746.36
587.06	44673.81
587.22	44973.39
587.38	44561.46
587.54	44989.78
587.70	45132.55
587.86	44877.43
588.02	44753.38
588.18	45074.04
588.34	44781.47
588.49	44285.28
588.65	44650.40
588.81	44425.71
588.97	44811.90
589.13	44477.20
589.29	44760.40
589.45	44877.43
589.61	44837.64
589.77	44811.90
589.93	44865.73
590.08	45106.80
590.24	44926.58
