SpectraSuite Data File
++++++++++++++++++++++++++++++++++++
Date: Fri Oct 25 11:23:39 EDT 2013
User: price-jones
Dark Spectrum Present: No
Reference Spectrum Present: No
Number of Sampled Component Spectra: 1
Spectrometers: USB2+H05261
Integration Time (usec): 100000 (USB2+H05261)
Spectra Averaged: 1 (USB2+H05261)
Boxcar Smoothing: 0 (USB2+H05261)
Correct for Electrical Dark: No (USB2+H05261)
Strobe/Lamp Enabled: No (USB2+H05261)
Correct for Detector Non-linearity: No (USB2+H05261)
Correct for Stray Light: No (USB2+H05261)
Number of Pixels in Processed Spectrum: 2048
>>>>>Begin Processed Spectral Data<<<<<
365.73	117.03
365.92	117.03
366.12	117.03
366.32	231.71
366.52	142.77
366.72	175.54
366.91	191.92
367.11	147.45
367.31	156.82
367.51	173.20
367.70	133.41
367.90	177.88
368.10	196.60
368.30	126.39
368.49	149.79
368.69	222.35
368.89	222.35
369.09	112.35
369.28	145.11
369.48	173.20
369.68	198.95
369.87	182.56
370.07	107.66
370.27	224.69
370.47	266.82
370.66	650.67
370.86	580.45
371.06	664.71
371.25	622.58
371.45	592.16
371.65	650.67
371.84	676.41
372.04	699.82
372.24	716.20
372.44	695.14
372.63	718.54
372.83	739.61
373.03	720.88
373.22	763.01
373.42	737.27
373.62	788.76
373.81	828.55
374.01	748.97
374.21	734.93
374.40	774.72
374.60	840.25
374.79	786.42
374.99	737.27
375.19	779.40
375.38	830.89
375.58	835.57
375.78	924.51
375.97	861.32
376.17	908.13
376.37	844.93
376.56	849.61
376.76	894.08
376.95	903.45
377.15	861.32
377.35	931.53
377.54	908.13
377.74	774.72
377.93	840.25
378.13	936.21
378.33	1013.45
378.52	917.49
378.72	1025.15
378.91	910.47
379.11	938.55
379.31	945.58
379.50	894.08
379.70	919.83
379.89	952.60
380.09	959.62
380.28	1011.11
380.48	1055.58
380.68	1029.84
380.87	917.49
381.07	985.37
381.26	1060.26
381.46	1004.09
381.65	976.00
381.85	1004.09
382.04	1139.84
382.24	1097.71
382.43	1034.52
382.63	1036.86
382.83	1055.58
383.02	1118.78
383.22	1156.22
383.41	1074.31
383.61	1090.69
383.80	1111.75
384.00	1086.01
384.19	1114.10
384.39	1198.35
384.58	1011.11
384.78	1060.26
384.97	1144.52
385.17	1107.07
385.36	1196.01
385.56	1210.06
385.75	1196.01
385.95	1210.06
386.14	1224.10
386.34	1193.67
386.53	1210.06
386.72	1186.65
386.92	1188.99
387.11	1226.44
387.31	1170.27
387.50	1142.18
387.70	1217.08
387.89	1249.85
388.09	1294.32
388.28	1200.69
388.48	1301.34
388.67	1294.32
388.86	1299.00
389.06	1385.60
389.25	1299.00
389.45	1261.55
389.64	1359.85
389.84	1357.51
390.03	1416.02
390.22	1376.24
390.42	1380.92
390.61	1352.83
390.81	1364.53
391.00	1306.02
391.19	1458.15
391.39	1495.60
391.58	1448.79
391.78	1432.41
391.97	1448.79
392.16	1411.34
392.36	1568.16
392.55	1582.20
392.75	1500.28
392.94	1500.28
393.13	1451.13
393.33	1533.05
393.52	1523.69
393.71	1544.75
393.91	1579.86
394.10	1528.37
394.29	1603.27
394.49	1589.22
394.68	1547.09
394.88	1575.18
395.07	1673.48
395.26	1586.88
395.46	1781.15
395.65	1781.15
395.84	1610.29
396.04	1783.49
396.23	1748.38
396.42	1687.53
396.62	1778.81
396.81	1792.85
397.00	1785.83
397.19	1682.85
397.39	1783.49
397.58	1863.07
397.77	1884.13
397.97	1830.30
398.16	1853.70
398.35	1937.96
398.55	1888.81
398.74	1916.90
398.93	1842.00
399.12	1944.99
399.32	1898.17
399.51	1884.13
399.70	2024.56
399.90	1947.33
400.09	2015.20
400.28	2080.74
400.47	2003.50
400.67	2043.29
400.86	2083.08
401.05	1984.77
401.24	2024.56
401.44	2043.29
401.63	2209.47
401.82	2132.23
402.01	2019.88
402.21	2101.80
402.40	2136.91
402.59	2083.08
402.78	2228.19
402.97	2249.25
403.17	2162.66
403.36	2326.49
403.55	2385.01
403.74	2349.90
403.93	2345.22
404.13	2267.98
404.32	2331.17
404.51	2375.64
404.70	2373.30
404.89	2317.13
405.09	2420.11
405.28	2300.75
405.47	2424.80
405.66	2530.12
405.85	2424.80
406.05	2527.78
406.24	2534.80
406.43	2527.78
406.62	2609.70
406.81	2635.44
407.00	2441.18
407.20	2495.01
407.39	2520.76
407.58	2679.91
407.77	2752.47
407.96	2682.25
408.15	2787.58
408.34	2738.43
408.54	2771.19
408.73	2850.77
408.92	2832.05
409.11	2841.41
409.30	2792.26
409.49	2951.42
409.68	2909.29
409.87	2892.90
410.07	2960.78
410.26	3068.44
410.45	2993.55
410.64	3066.10
410.83	3101.21
411.02	3089.51
411.21	3192.49
411.40	3126.96
411.59	3082.49
411.78	3152.70
411.98	3173.77
412.17	3260.37
412.36	3169.09
412.55	3384.41
412.74	3332.92
412.93	3339.94
413.12	3307.18
413.31	3515.48
413.50	3428.88
413.69	3536.55
413.88	3676.98
414.07	3550.59
414.26	3592.72
414.45	3494.42
414.64	3812.73
414.83	3716.77
415.02	3723.79
415.22	3927.42
415.41	3812.73
415.60	3805.71
415.79	3915.72
415.98	4067.85
416.17	3922.74
416.36	3840.82
416.55	4011.68
416.74	4119.34
416.93	4128.70
417.12	4128.70
417.31	4023.38
417.50	4292.54
417.69	4365.10
417.88	4329.99
418.07	4332.33
418.26	4344.03
418.45	4327.65
418.64	4587.45
418.83	4390.84
419.02	4376.80
419.21	4606.17
419.39	4582.77
419.58	4449.36
419.77	4475.10
419.96	4554.68
420.15	4596.81
420.34	4599.15
420.53	4547.66
420.72	4636.60
420.91	4725.54
421.10	4842.57
421.29	4720.86
421.48	4688.09
421.67	4844.91
421.86	4755.97
422.05	4788.74
422.24	4767.67
422.43	4833.21
422.61	4709.16
422.80	4945.55
422.99	4863.63
423.18	4875.34
423.37	4961.94
423.56	4978.32
423.75	4987.68
423.94	4856.61
424.13	4578.09
424.32	4791.08
424.50	4924.49
424.69	5137.48
424.88	5081.30
425.07	4973.64
425.26	4837.89
425.45	4919.81
425.64	5018.11
425.83	5018.11
426.01	4983.00
426.20	5048.54
426.39	4959.60
426.58	4929.17
426.77	5046.20
426.96	5158.54
427.15	5074.28
427.33	5160.88
427.52	5170.24
427.71	5317.70
427.90	5212.37
428.09	5268.55
428.28	5385.57
428.46	5320.04
428.65	5394.93
428.84	5511.96
429.03	5699.20
429.22	5408.98
429.40	5535.37
429.59	5439.40
429.78	5289.61
429.97	5343.44
430.16	5610.26
430.34	5430.04
430.53	5650.05
430.72	5547.07
430.91	5659.42
431.10	5720.27
431.28	5909.85
431.47	5961.34
431.66	5947.30
431.85	5767.08
432.03	5788.14
432.22	6010.50
432.41	5790.49
432.60	5860.70
432.79	5984.75
432.97	6115.82
433.16	5973.05
433.35	5895.81
433.54	6083.05
433.72	6389.66
433.91	6104.12
434.10	6099.44
434.28	6069.01
434.47	6094.76
434.66	6249.23
434.85	6335.83
435.03	6328.81
435.22	6359.24
435.41	6380.30
435.59	6457.54
435.78	6373.28
435.97	6656.48
436.16	6427.11
436.34	6511.37
436.53	6532.44
436.72	6682.23
436.90	6279.66
437.09	6511.37
437.28	6473.92
437.46	6441.15
437.65	6691.59
437.84	6764.15
438.02	6822.66
438.21	6649.46
438.40	6661.16
438.58	6979.48
438.77	7162.04
438.96	6991.18
439.14	7150.34
439.33	7260.34
439.52	7162.04
439.70	7140.97
439.89	7438.22
440.08	7358.64
440.26	7478.01
440.45	7566.95
440.63	7363.33
440.82	7550.57
441.01	7463.97
441.19	7735.47
441.38	7660.57
441.57	7667.60
441.75	7943.78
441.94	7955.48
442.12	8100.59
442.31	7929.74
442.50	8081.87
442.68	8086.55
442.87	8180.17
443.05	8159.11
443.24	8065.49
443.43	8262.09
443.61	8292.52
443.80	8592.11
443.98	8091.23
444.17	7819.73
444.35	8439.97
444.54	8369.76
444.73	8212.94
444.91	8252.73
445.10	8266.77
445.28	8198.90
445.47	8217.62
445.65	8362.73
445.84	8568.70
446.02	8444.65
446.21	8381.46
446.39	8376.78
446.58	8538.27
446.77	8329.97
446.95	8367.42
447.14	8580.40
447.32	8507.85
447.51	8297.20
447.69	8568.70
447.88	8409.54
448.06	8421.25
448.25	8535.93
448.43	8702.11
448.62	8545.30
448.80	8549.98
448.99	8414.23
449.17	8762.97
449.36	8538.27
449.54	8950.21
449.73	8830.84
449.91	9055.53
450.10	8924.46
450.28	9235.75
450.46	9048.51
450.65	9085.96
450.83	9004.04
451.02	9177.24
451.20	9188.94
451.39	9095.32
451.57	9305.97
451.76	8968.93
451.94	9200.65
452.13	9394.91
452.31	9387.89
452.49	9259.16
452.68	9310.65
452.86	9186.60
453.05	9554.07
453.23	9441.72
453.42	9628.96
453.60	9490.87
453.78	9724.93
453.97	9495.55
454.15	9542.36
454.34	9715.56
454.52	9898.13
454.70	9619.60
454.89	9886.42
455.07	9863.02
455.26	9888.76
455.44	9891.10
455.62	9923.87
455.81	9951.96
455.99	9872.38
456.17	10090.05
456.36	10024.51
456.54	9994.09
456.73	10326.44
456.91	10399.00
457.09	10574.54
457.28	10478.58
457.46	10349.85
457.64	10471.56
457.83	10518.37
458.01	10424.75
458.19	10281.97
458.38	10558.16
458.56	10654.12
458.74	10485.60
458.93	10710.29
459.11	10834.34
459.29	10766.46
459.48	10733.70
459.66	10754.76
459.84	10817.96
460.03	11117.54
460.21	10864.77
460.39	10588.58
460.57	11080.10
460.76	11101.16
460.94	11133.93
461.12	11197.12
461.31	11358.62
461.49	11410.11
461.67	11180.74
461.85	11407.77
462.04	11220.53
462.22	11662.89
462.40	11595.01
462.59	11508.41
462.77	11655.87
462.95	11824.39
463.13	11798.64
463.32	11695.66
463.50	11702.68
463.68	11782.26
463.86	11763.53
464.05	11662.89
464.23	11641.82
464.41	11969.50
464.59	11543.52
464.78	12142.70
464.96	12210.57
465.14	11990.56
465.32	11882.90
465.50	11927.37
465.69	12388.46
465.87	12119.29
466.05	12039.72
466.23	12173.13
466.41	12313.56
466.60	12613.15
466.78	12131.00
466.96	12271.43
467.14	12311.22
467.32	12407.18
467.51	12681.02
467.69	12273.77
467.87	12456.33
468.05	12535.91
468.23	12362.71
468.41	12690.38
468.60	12479.74
468.78	12978.27
468.96	12585.06
469.14	12837.84
469.32	12858.90
469.50	12636.55
469.69	12947.84
469.87	13200.62
470.05	13083.59
470.23	12989.97
470.41	13186.58
470.59	13231.05
470.77	13242.75
470.95	13219.35
471.14	13518.93
471.32	13118.70
471.50	13551.70
471.68	13516.59
471.86	13720.22
472.04	13727.24
472.22	14097.05
472.40	13926.19
472.58	13879.38
472.77	14101.73
472.95	14040.87
473.13	14635.37
473.31	13996.40
473.49	14277.27
473.67	14059.60
473.85	14347.48
474.03	14658.78
474.21	14665.80
474.39	14682.18
474.57	14773.46
474.75	14785.16
474.93	15194.76
475.12	14946.66
475.30	15150.29
475.48	15026.24
475.66	15035.60
475.84	15059.01
476.02	15414.77
476.20	15428.81
476.38	15740.10
476.56	16201.19
476.74	16226.93
476.92	15880.53
477.10	15815.00
477.28	16388.43
477.46	16201.19
477.64	16308.85
477.82	16578.01
478.00	16898.67
478.18	16554.61
478.36	17158.47
478.54	17114.00
478.72	17214.64
478.90	17549.34
479.08	17575.08
479.26	17916.80
479.44	17561.04
479.62	17865.31
479.80	18064.25
479.98	17965.95
480.16	18527.68
480.34	18040.85
480.52	18714.92
480.70	18602.58
480.88	18366.18
481.06	18721.95
481.24	18787.48
481.41	18778.12
481.59	19300.06
481.77	19716.67
481.95	19475.60
482.13	19440.49
482.31	19826.68
482.49	20552.24
482.67	20203.50
482.85	20746.51
483.03	20416.49
483.21	20908.01
483.39	21256.75
483.57	20823.75
483.74	21479.10
483.92	21055.46
484.10	21305.90
484.28	21762.30
484.46	21935.50
484.64	22260.84
484.82	22150.83
485.00	22087.64
485.18	22867.03
485.35	22782.77
485.53	22810.86
485.71	22972.36
485.89	23761.12
486.07	23576.22
486.25	23218.11
486.43	23807.93
486.61	24327.53
486.78	24175.39
486.96	24451.58
487.14	24369.66
487.32	24716.06
487.50	24622.44
487.68	25247.36
487.85	25214.59
488.03	26010.37
488.21	25738.87
488.39	26188.25
488.57	26338.05
488.75	26642.32
488.92	26235.06
489.10	26487.84
489.28	26717.22
489.46	26747.64
489.64	27173.62
489.81	27850.03
489.99	27896.85
490.17	27419.38
490.35	28283.03
490.53	28355.59
490.70	28383.68
490.88	28348.57
491.06	28987.53
491.24	28943.06
491.41	28823.70
491.59	29270.74
491.77	29486.07
491.95	29717.78
492.13	29811.40
492.30	30192.91
492.48	30071.20
492.66	30153.12
492.84	30148.44
493.01	30995.71
493.19	30822.51
493.37	31154.87
493.54	31033.16
493.72	31079.97
493.90	31730.64
494.08	31573.83
494.25	32093.43
494.43	31999.80
494.61	32395.35
494.79	32414.08
494.96	32643.45
495.14	33170.07
495.32	33354.97
495.49	33273.06
495.67	33053.05
495.85	33612.43
496.02	33811.38
496.20	33881.60
496.38	34251.40
496.55	34108.63
496.73	34836.53
496.91	34565.03
497.09	35428.69
497.26	35110.38
497.44	34897.39
497.62	35325.71
497.79	36048.93
497.97	35416.99
498.14	35903.82
498.32	35922.54
498.50	36182.34
498.67	36847.05
498.85	36615.34
499.03	37053.02
499.20	36650.45
499.38	36875.14
499.56	37148.98
499.73	37085.79
499.91	37589.00
500.08	37546.87
500.26	37488.36
500.44	37883.91
500.61	38249.03
500.79	38000.94
500.97	38073.49
501.14	38520.54
501.32	38522.88
501.49	38527.56
501.67	38967.58
501.84	39232.06
502.02	39175.89
502.20	39189.93
502.37	39351.43
502.55	39278.87
502.72	39196.95
502.90	39751.66
503.07	39133.76
503.25	39826.56
503.43	39552.71
503.60	40266.58
503.78	40453.82
503.95	40378.92
504.13	40573.19
504.30	40388.28
504.48	40570.85
504.65	41088.10
504.83	40931.29
505.01	41242.58
505.18	40861.07
505.36	41434.50
505.53	41200.45
505.71	41563.23
505.88	41947.08
506.06	41684.94
506.23	41888.57
506.41	41888.57
506.58	42391.78
506.76	42513.49
506.93	42265.39
507.11	42382.42
507.28	42536.90
507.46	43068.20
507.63	42700.73
507.81	43323.32
507.98	42876.27
508.16	43386.51
508.33	43775.04
508.50	43304.59
508.68	44034.84
508.85	43931.86
509.03	44322.72
509.20	44282.94
509.38	44762.75
509.55	44528.69
509.73	44587.21
509.90	44329.75
510.08	44821.26
510.25	44638.70
510.42	44514.65
510.60	45038.93
510.77	45453.20
510.95	45387.67
511.12	45436.82
511.30	45216.81
511.47	45481.29
511.64	45488.31
511.82	45947.06
511.99	45542.14
512.17	45799.60
512.34	45888.54
512.51	46248.99
512.69	46110.89
512.86	46164.73
513.04	46752.20
513.21	46658.58
513.38	46658.58
513.56	46911.36
513.73	46653.90
513.90	47292.86
514.08	46801.35
514.25	46923.06
514.43	47360.74
514.60	47260.10
514.77	47559.69
514.95	48058.22
515.12	47473.09
515.29	47870.98
515.47	48112.05
515.64	47997.37
515.81	48109.71
515.99	48311.00
516.16	48313.34
516.33	48196.31
516.51	49038.90
516.68	48584.84
516.85	48521.65
517.03	48734.63
517.20	48851.66
517.37	48732.29
517.54	49020.18
517.72	49123.16
517.89	49216.78
518.06	49535.10
518.24	49242.53
518.41	49389.98
518.58	49808.94
518.75	49750.43
518.93	49785.54
519.10	49237.85
519.27	49806.60
519.45	49820.64
519.62	50101.51
519.79	50211.51
519.96	49951.71
520.14	50511.10
520.31	50536.85
520.48	50351.94
520.65	50384.71
520.83	50508.76
521.00	50791.97
521.17	50518.12
521.34	50543.87
521.52	50445.57
521.69	50649.19
521.86	51114.96
522.03	50955.80
522.20	51524.55
522.38	51697.75
522.55	51517.53
522.72	51297.52
522.89	51421.57
523.07	51833.50
523.24	51646.26
523.41	51772.65
523.58	51283.48
523.75	51838.18
523.92	51835.84
524.10	52086.28
524.27	52198.63
524.44	52079.26
524.61	52034.79
524.78	52210.33
524.96	52182.24
525.13	52292.25
525.30	52893.77
525.47	52334.38
525.64	52470.13
525.81	52701.84
525.98	52882.06
526.16	52629.29
526.33	52837.59
526.50	53254.21
526.67	52793.12
526.84	52954.62
527.01	52662.05
527.18	52830.57
527.36	53333.79
527.53	52940.58
527.70	53268.25
527.87	53375.92
528.04	53401.66
528.21	53394.64
528.38	53457.84
528.55	53631.04
528.72	53460.18
528.89	53476.56
529.07	53663.80
529.24	53308.04
529.41	53638.06
529.58	53652.10
529.75	53546.78
529.92	53773.81
530.09	54113.19
530.26	54052.33
530.43	54127.23
530.60	53827.64
530.77	54078.08
530.94	54045.31
531.11	54120.21
531.28	54106.16
531.46	54387.03
531.63	54244.26
531.80	54265.32
531.97	54616.40
532.14	54272.34
532.31	54630.44
532.48	54480.65
532.65	54672.57
532.82	54504.06
532.99	54597.68
533.16	54604.70
533.33	54677.25
533.50	55217.92
533.67	54604.70
533.84	54658.53
534.01	54735.77
534.18	54653.85
534.35	55096.21
534.52	55154.72
534.69	55253.03
534.86	55454.31
535.03	55016.63
535.20	55299.84
535.37	55306.86
535.54	55444.95
535.71	55379.42
535.88	55466.02
536.05	55606.45
536.22	55714.11
536.38	55807.73
536.55	55779.65
536.72	55571.34
536.89	55564.32
537.06	55800.71
537.23	55980.93
537.40	55880.29
537.57	55887.31
537.74	55671.98
537.91	55950.51
538.08	56126.05
538.25	55920.08
538.42	56067.53
538.59	56465.42
538.75	56069.87
538.92	56170.52
539.09	56383.51
539.26	56203.28
539.43	56271.16
539.60	56339.04
539.77	56224.35
539.94	56765.01
540.11	56332.01
540.28	56353.08
540.44	56481.81
540.61	56624.58
540.78	56444.36
540.95	56420.95
541.12	56474.79
541.29	56332.01
541.46	56493.51
541.62	56713.52
541.79	56900.76
541.96	56552.02
542.13	56540.32
542.30	56734.59
542.47	56650.33
542.63	56914.81
542.80	56968.64
542.97	57219.08
543.14	57284.61
543.31	57228.44
543.48	57153.54
543.64	57446.11
543.81	57600.58
543.98	57478.88
544.15	57298.65
544.32	57345.47
544.48	57600.58
544.65	57371.21
544.82	57502.28
544.99	57293.97
545.16	57544.41
545.32	57310.36
545.49	57712.93
545.66	57659.10
545.83	57724.63
546.00	57687.18
546.16	57659.10
546.33	57797.19
546.50	57546.75
546.67	57659.10
546.83	57614.63
547.00	57923.58
547.17	57752.72
547.34	57858.04
547.50	57975.07
547.67	58148.27
547.84	58234.87
548.00	58216.14
548.17	58239.55
548.34	58113.16
548.51	58225.51
548.67	58361.26
548.84	58370.62
549.01	58279.34
549.18	58401.05
549.34	58424.45
549.51	58312.11
549.68	58494.67
549.84	58452.54
550.01	58302.74
550.18	58131.89
550.34	58330.83
550.51	58578.93
550.68	58417.43
550.84	58342.53
551.01	58642.12
551.18	58511.05
551.34	58798.94
551.51	58534.46
551.68	58684.25
551.84	58642.12
552.01	58504.03
552.18	58616.38
552.34	58670.21
552.51	58773.19
552.68	58450.20
552.84	58838.73
553.01	59119.59
553.18	58843.41
553.34	58958.09
553.51	58801.28
553.67	58932.35
553.84	58763.83
554.01	59040.01
554.17	59147.68
554.34	59084.48
554.51	59007.25
554.67	59004.91
554.84	59030.65
555.00	58944.05
555.17	59079.80
555.33	59124.27
555.50	59098.53
555.67	58934.69
555.83	59199.17
556.00	59082.14
556.16	59625.15
556.33	59297.47
556.50	59224.92
556.66	59454.29
556.83	59187.47
556.99	59299.81
557.16	59695.36
557.32	59540.89
557.49	59697.70
557.65	59484.72
557.82	59487.06
557.98	59344.28
558.15	59381.73
558.32	59477.69
558.48	59515.14
558.65	59629.83
558.81	59538.55
558.98	59606.42
559.14	59568.97
559.31	59634.51
559.47	59723.45
559.64	59758.56
559.80	59686.00
559.97	59716.43
560.13	59606.42
560.30	59751.54
560.46	59587.70
560.63	59950.48
560.79	59957.50
560.96	60102.62
561.12	59915.37
561.29	59817.07
561.45	59838.14
561.61	59969.21
561.78	59908.35
561.94	59629.83
562.11	59833.46
562.27	59934.10
562.44	59910.69
562.60	60114.32
562.77	59824.09
562.93	59648.55
563.10	60065.17
563.26	59898.99
563.42	60046.44
563.59	59894.31
563.75	60175.17
563.92	60205.60
564.08	60097.94
564.24	60315.61
564.41	60161.13
564.57	60170.49
564.74	60032.40
564.90	60350.71
565.07	60156.45
565.23	60147.09
565.39	60355.39
565.56	60158.79
565.72	60339.01
565.88	60172.83
566.05	60027.72
566.21	60271.14
566.38	60217.30
566.54	60516.89
566.70	60261.77
566.87	60427.95
567.03	60198.58
567.19	60561.36
567.36	60437.31
567.52	60432.63
567.68	60416.25
567.85	60512.21
568.01	60341.35
568.17	60292.20
568.34	60460.72
568.50	60402.21
568.66	60514.55
568.83	60411.57
568.99	60327.31
569.15	60441.99
569.32	60495.83
569.48	60406.89
569.64	60360.08
569.81	60456.04
569.97	60374.12
570.13	60353.05
570.30	60458.38
570.46	60650.30
570.62	60603.49
570.78	60554.34
570.95	60626.90
571.11	60568.38
571.27	60636.26
571.43	60589.45
571.60	60708.82
571.76	60552.00
571.92	60589.45
572.09	60713.50
572.25	60706.47
572.41	60573.06
572.57	60654.98
572.74	60678.39
572.90	60671.37
573.06	60666.69
573.22	60605.83
573.38	60477.10
573.55	60774.35
573.71	60945.21
573.87	60624.56
574.03	60521.57
574.20	60662.00
574.36	60802.44
574.52	60811.80
574.68	60795.42
574.84	60722.86
575.01	60900.74
575.17	60860.95
575.33	60748.60
575.49	60676.05
575.65	60727.54
575.82	60757.97
575.98	60882.02
576.14	60938.19
576.30	60884.36
576.46	60858.61
576.62	60807.12
576.79	60755.63
576.95	60783.71
577.11	60844.57
577.27	60837.54
577.43	60800.10
577.59	60867.97
577.75	60734.56
577.92	60739.24
578.08	60905.42
578.24	61010.74
578.40	61116.07
578.56	60903.08
578.72	60856.27
578.88	60926.49
579.04	61052.87
579.21	61080.96
579.37	61169.90
579.53	61003.72
579.69	60715.84
579.85	60844.57
580.01	60860.95
580.17	60823.50
580.33	61064.58
580.49	60940.53
580.65	61069.26
580.82	60856.27
580.98	60828.18
581.14	60762.65
581.30	60912.44
581.46	60837.54
581.62	60973.30
581.78	60912.44
581.94	61034.15
582.10	60945.21
582.26	60896.06
582.42	60949.89
582.58	60968.61
582.74	60956.91
582.90	61083.30
583.06	60949.89
583.22	60917.12
583.38	61022.45
583.54	61085.64
583.70	61151.18
583.86	60926.49
584.02	60933.51
584.18	61141.81
584.34	61080.96
584.50	61010.74
584.66	60846.91
584.82	60828.18
584.98	61228.41
585.14	61029.47
585.30	60968.61
585.46	61031.81
585.62	61312.67
585.78	61289.27
585.94	60917.12
586.10	60985.00
586.26	61179.26
586.42	61190.97
586.58	61268.20
586.74	61045.85
586.90	61008.40
587.06	60912.44
587.22	61247.14
587.38	60973.30
587.54	61275.22
587.70	61216.71
587.86	61277.57
588.02	61347.78
588.18	61324.38
588.34	60912.44
588.49	61059.90
