SpectraSuite Data File
++++++++++++++++++++++++++++++++++++
Date: Fri Oct 25 10:47:39 EDT 2013
User: price-jones
Dark Spectrum Present: No
Reference Spectrum Present: No
Number of Sampled Component Spectra: 1
Spectrometers: USB2+H05261
Integration Time (usec): 100000 (USB2+H05261)
Spectra Averaged: 1 (USB2+H05261)
Boxcar Smoothing: 0 (USB2+H05261)
Correct for Electrical Dark: No (USB2+H05261)
Strobe/Lamp Enabled: No (USB2+H05261)
Correct for Detector Non-linearity: No (USB2+H05261)
Correct for Stray Light: No (USB2+H05261)
Number of Pixels in Processed Spectrum: 2048
>>>>>Begin Processed Spectral Data<<<<<
365.73	198.95
365.92	198.95
366.12	198.95
366.32	79.58
366.52	9.36
366.72	0.00
366.91	58.51
367.11	88.94
367.31	14.04
367.51	110.01
367.70	35.11
367.90	60.85
368.10	72.56
368.30	0.00
368.49	100.64
368.69	21.06
368.89	117.03
369.09	63.19
369.28	93.62
369.48	25.75
369.68	91.28
369.87	102.98
370.07	112.35
370.27	194.26
370.47	231.71
370.66	386.19
370.86	367.46
371.06	433.00
371.25	472.79
371.45	465.77
371.65	463.43
371.84	451.72
372.04	383.85
372.24	489.17
372.44	458.74
372.63	500.87
372.83	477.47
373.03	606.20
373.22	505.56
373.42	573.43
373.62	610.88
373.81	564.07
374.01	575.77
374.21	638.97
374.40	505.56
374.60	514.92
374.79	580.45
374.99	552.37
375.19	545.34
375.38	554.71
375.58	517.26
375.78	603.86
375.97	519.60
376.17	608.54
376.37	606.20
376.56	603.86
376.76	571.09
376.95	596.84
377.15	594.50
377.35	561.73
377.54	650.67
377.74	608.54
377.93	620.24
378.13	601.52
378.33	674.07
378.52	660.03
378.72	610.88
378.91	592.16
379.11	580.45
379.31	528.96
379.50	636.63
379.70	662.37
379.89	631.94
380.09	645.99
380.28	671.73
380.48	690.46
380.68	613.22
380.87	657.69
381.07	645.99
381.26	671.73
381.46	650.67
381.65	617.90
381.85	692.80
382.04	718.54
382.24	723.23
382.43	725.57
382.63	667.05
382.83	688.12
383.02	704.50
383.22	692.80
383.41	690.46
383.61	704.50
383.80	748.97
384.00	655.35
384.19	718.54
384.39	650.67
384.58	681.10
384.78	730.25
384.97	798.12
385.17	737.27
385.36	748.97
385.56	798.12
385.75	695.14
385.95	823.87
386.14	819.19
386.34	720.88
386.53	798.12
386.72	844.93
386.92	788.76
387.11	816.85
387.31	842.59
387.50	828.55
387.70	826.21
387.89	882.38
388.09	894.08
388.28	786.42
388.48	798.12
388.67	861.32
388.86	763.01
389.06	884.72
389.25	877.70
389.45	842.59
389.64	870.68
389.84	877.70
390.03	940.90
390.22	943.24
390.42	940.90
390.61	938.55
390.81	851.96
391.00	966.64
391.19	980.68
391.39	997.07
391.58	1013.45
391.78	1039.20
391.97	1062.60
392.16	961.96
392.36	1008.77
392.55	964.30
392.75	943.24
392.94	971.32
393.13	936.21
393.33	980.68
393.52	978.34
393.71	1149.20
393.91	1100.05
394.10	1048.56
394.29	1055.58
394.49	1053.24
394.68	1078.99
394.88	1104.73
395.07	1167.93
395.26	1144.52
395.46	1121.12
395.65	1238.14
395.84	1116.44
396.04	1221.76
396.23	1123.46
396.42	1118.78
396.62	1130.48
396.81	1151.54
397.00	1142.18
397.19	1203.04
397.39	1231.12
397.58	1172.61
397.77	1153.88
397.97	1198.35
398.16	1259.21
398.35	1306.02
398.55	1364.53
398.74	1327.08
398.93	1371.55
399.12	1385.60
399.32	1331.76
399.51	1411.34
399.70	1444.11
399.90	1394.96
400.09	1488.58
400.28	1488.58
400.47	1451.13
400.67	1476.88
400.86	1556.46
401.05	1584.54
401.24	1460.49
401.44	1537.73
401.63	1511.99
401.82	1507.30
402.01	1535.39
402.21	1465.18
402.40	1537.73
402.59	1577.52
402.78	1673.48
402.97	1528.37
403.17	1694.55
403.36	1638.38
403.55	1661.78
403.74	1671.14
403.93	1605.61
404.13	1673.48
404.32	1629.01
404.51	1664.12
404.70	1760.08
404.89	1626.67
405.09	1643.06
405.28	1769.44
405.47	1750.72
405.66	1802.21
405.85	1802.21
406.05	1825.62
406.24	1818.60
406.43	1762.42
406.62	1853.70
406.81	1909.88
407.00	1849.02
407.20	1877.11
407.39	1839.66
407.58	1874.77
407.77	1947.33
407.96	1940.30
408.15	2010.52
408.34	1980.09
408.54	2118.18
408.73	2057.33
408.92	2047.97
409.11	2094.78
409.30	1956.69
409.49	2115.84
409.68	2132.23
409.87	2153.29
410.07	2012.86
410.26	2127.55
410.45	2094.78
410.64	2160.31
410.83	2319.47
411.02	2272.66
411.21	2317.13
411.40	2377.98
411.59	2300.75
411.78	2366.28
411.98	2263.30
412.17	2286.70
412.36	2331.17
412.55	2490.33
412.74	2424.80
412.93	2300.75
413.12	2340.54
413.31	2541.82
413.50	2574.59
413.69	2523.10
413.88	2579.27
414.07	2546.50
414.26	2607.36
414.45	2560.55
414.64	2586.29
414.83	2679.91
415.02	2832.05
415.22	2820.35
415.41	2822.69
415.60	2843.75
415.79	2867.16
415.98	2904.60
416.17	2848.43
416.36	2904.60
416.55	2899.92
416.74	2995.89
416.93	2911.63
417.12	2909.29
417.31	3052.06
417.50	3129.30
417.69	2988.86
417.88	3108.23
418.07	3047.38
418.26	3126.96
418.45	3124.62
418.64	3279.09
418.83	3325.90
419.02	3178.45
419.21	3218.24
419.39	3281.43
419.58	3262.71
419.77	3218.24
419.96	3351.65
420.15	3421.86
420.34	3246.32
420.53	3478.04
420.72	3452.29
420.91	3356.33
421.10	3438.25
421.29	3459.31
421.48	3346.97
421.67	3545.91
421.86	3452.29
422.05	3506.12
422.24	3412.50
422.43	3382.07
422.61	3499.10
422.80	3559.95
422.99	3492.08
423.18	3639.53
423.37	3604.42
423.56	3606.77
423.75	3660.60
423.94	3566.98
424.13	3391.44
424.32	3468.67
424.50	3545.91
424.69	3634.85
424.88	3676.98
425.07	3623.15
425.26	3393.78
425.45	3566.98
425.64	3676.98
425.83	3618.47
426.01	3550.59
426.20	3644.21
426.39	3658.26
426.58	3501.44
426.77	3662.94
426.96	3618.47
427.15	3496.76
427.33	3779.97
427.52	3899.33
427.71	3791.67
427.90	3669.96
428.09	3761.24
428.28	3723.79
428.46	3875.93
428.65	3838.48
428.84	3894.65
429.03	3946.14
429.22	3843.16
429.40	3791.67
429.59	3941.46
429.78	3646.55
429.97	3812.73
430.16	3822.09
430.34	3789.33
430.53	4009.34
430.72	4093.60
430.91	3899.33
431.10	3925.08
431.28	4098.28
431.47	4248.07
431.66	4269.14
431.85	4175.52
432.03	4177.86
432.22	4311.27
432.41	4262.12
432.60	4234.03
432.79	4266.80
432.97	4257.43
433.16	4315.95
433.35	4304.25
433.54	4353.40
433.72	4402.55
433.91	4327.65
434.10	4496.17
434.28	4327.65
434.47	4383.82
434.66	4596.81
434.85	4493.83
435.03	4374.46
435.22	4491.49
435.41	4755.97
435.59	4538.30
435.78	4664.69
435.97	4652.98
436.16	4655.33
436.34	4723.20
436.53	4734.90
436.72	4849.59
436.90	4601.49
437.09	4566.39
437.28	4594.47
437.46	4748.95
437.65	4690.43
437.84	4765.33
438.02	4779.37
438.21	4795.76
438.40	4880.02
438.58	4844.91
438.77	4947.89
438.96	5001.72
439.14	5123.43
439.33	5118.75
439.52	5151.52
439.70	5184.29
439.89	5224.08
440.08	5100.03
440.26	5219.39
440.45	5301.31
440.63	5380.89
440.82	5434.72
441.01	5453.45
441.19	5504.94
441.38	5476.85
441.57	5584.52
441.75	5577.50
441.94	5736.65
442.12	5713.25
442.31	5729.63
442.50	5710.91
442.68	5636.01
442.87	5727.29
443.05	5872.40
443.24	5853.68
443.43	5731.97
443.61	5774.10
443.80	6031.56
443.98	5872.40
444.17	5664.10
444.35	5884.11
444.54	5947.30
444.73	5989.43
444.91	5867.72
445.10	5980.07
445.28	5912.19
445.47	5799.85
445.65	5865.38
445.84	5884.11
446.02	5987.09
446.21	6033.90
446.39	5987.09
446.58	6040.92
446.77	5921.56
446.95	5872.40
447.14	6127.52
447.32	6169.65
447.51	6171.99
447.69	5933.26
447.88	5966.03
448.06	6047.94
448.25	6066.67
448.43	6214.12
448.62	5977.73
448.80	6115.82
448.99	6286.68
449.17	6235.19
449.36	6153.27
449.54	6300.72
449.73	6429.45
449.91	6544.14
450.10	6450.52
450.28	6464.56
450.46	6459.88
450.65	6621.38
450.83	6492.65
451.02	6429.45
451.20	6530.09
451.39	6560.52
451.57	6499.67
451.76	6539.46
451.94	6597.97
452.13	6710.32
452.31	6567.54
452.49	6429.45
452.68	6663.51
452.86	6532.44
453.05	6483.28
453.23	6651.80
453.42	6612.01
453.60	6640.10
453.78	6862.45
453.97	6752.45
454.15	6780.53
454.34	6729.04
454.52	6822.66
454.70	6796.92
454.89	6841.39
455.07	6942.03
455.26	6913.94
455.44	6993.52
455.62	7049.69
455.81	6953.73
455.99	7096.50
456.17	7089.48
456.36	7000.54
456.54	7122.25
456.73	7187.79
456.91	7363.33
457.09	7468.65
457.28	7229.91
457.46	7262.68
457.64	7335.24
457.83	7426.52
458.01	7396.09
458.19	7737.81
458.38	7550.57
458.56	7431.20
458.74	7576.31
458.93	7597.38
459.11	7468.65
459.29	7545.89
459.48	7669.94
459.66	7536.52
459.84	7625.47
460.03	7826.75
460.21	7840.79
460.39	7683.98
460.57	7691.00
460.76	7868.88
460.94	7920.37
461.12	7730.79
461.31	7964.84
461.49	7878.24
461.67	7705.04
461.85	8133.36
462.04	7974.21
462.22	8517.21
462.40	8229.32
462.59	8126.34
462.77	7901.65
462.95	7981.23
463.13	8056.12
463.32	8264.43
463.50	8402.52
463.68	8198.90
463.86	8386.14
464.05	8201.24
464.23	8430.61
464.41	8135.70
464.59	8058.46
464.78	8503.17
464.96	8379.12
465.14	8358.05
465.32	8395.50
465.50	8589.77
465.69	8540.61
465.87	8451.67
466.05	8304.22
466.23	8224.64
466.41	8376.78
466.60	8603.81
466.78	8454.02
466.96	8571.04
467.14	8620.19
467.32	8456.36
467.51	8643.60
467.69	8461.04
467.87	8519.55
468.05	8994.68
468.23	8755.94
468.41	8812.12
468.60	8477.42
468.78	8865.95
468.96	8912.76
469.14	9097.66
469.32	9081.28
469.50	8872.97
469.69	9057.87
469.87	9135.11
470.05	9132.77
470.23	9170.22
470.41	9118.73
470.59	9109.36
470.77	9174.90
470.95	9078.94
471.14	9453.42
471.32	9109.36
471.50	9425.34
471.68	9329.38
471.86	9495.55
472.04	9542.36
472.22	9643.01
472.40	9366.82
472.58	9366.82
472.77	9596.20
472.95	9624.28
473.13	10052.60
473.31	9745.99
473.49	9692.16
473.67	9863.02
473.85	9734.29
474.03	9923.87
474.21	10080.69
474.39	10335.81
474.57	9991.75
474.75	10403.68
474.93	10174.31
475.12	10225.80
475.30	10310.06
475.48	10335.81
475.66	10441.13
475.84	10469.22
476.02	10452.83
476.20	10424.75
476.38	10726.68
476.56	10836.68
476.74	11075.42
476.92	10661.14
477.10	10801.57
477.28	11164.36
477.46	11136.27
477.64	11262.66
477.82	11609.06
478.00	11492.03
478.18	11447.56
478.36	11414.79
478.54	11784.60
478.72	11829.07
478.90	11686.29
479.08	12004.61
479.26	11882.90
479.44	11946.09
479.62	12332.28
479.80	12250.36
479.98	12292.49
480.16	12805.07
480.34	12549.95
480.52	12559.31
480.70	12458.67
480.88	12554.63
481.06	12624.85
481.24	13090.62
481.41	13156.15
481.59	13551.70
481.77	13142.11
481.95	13160.83
482.13	13200.62
482.31	13315.31
482.49	13558.72
482.67	13685.11
482.85	13785.76
483.03	13891.08
483.21	13928.53
483.39	14270.25
483.57	13872.36
483.74	14347.48
483.92	14588.56
484.10	14452.81
484.28	14829.63
484.46	14860.06
484.64	15201.78
484.82	14862.40
485.00	15098.80
485.18	15016.88
485.35	15503.71
485.53	15297.74
485.71	15152.63
485.89	15241.57
486.07	15712.02
486.25	15421.79
486.43	15726.06
486.61	15962.45
486.78	16002.24
486.96	16166.08
487.14	16411.84
487.32	16482.05
487.50	16631.85
487.68	16926.75
487.85	16926.75
488.03	17156.13
488.21	17104.64
488.39	17121.02
488.57	17399.54
488.75	17350.39
488.92	17673.39
489.10	17944.89
489.28	17738.92
489.46	18253.84
489.64	18326.39
489.81	18785.14
489.99	18679.82
490.17	18682.16
490.35	19007.49
490.53	18970.04
490.70	18824.93
490.88	18920.89
491.06	19309.42
491.24	19204.10
491.41	19089.41
491.59	19435.81
491.77	19360.91
491.95	19721.35
492.13	20088.82
492.30	19953.07
492.48	20011.58
492.66	20123.93
492.84	20276.06
493.01	20475.01
493.19	20290.10
493.37	20816.72
493.54	21102.27
493.72	20863.54
493.90	21062.48
494.08	21165.46
494.25	21392.50
494.43	21432.29
494.61	21596.12
494.79	21958.91
494.96	21530.59
495.14	21759.96
495.32	22155.51
495.49	21949.54
495.67	22104.02
495.85	22553.40
496.02	22665.75
496.20	22661.07
496.38	22616.60
496.55	23091.73
496.73	23587.92
496.91	23016.83
497.09	22902.14
497.26	23307.05
497.44	23154.92
497.62	23421.74
497.79	23777.50
497.97	23676.86
498.14	23733.03
498.32	23896.87
498.50	23770.48
498.67	24175.39
498.85	24346.25
499.03	24357.96
499.20	24273.70
499.38	24945.43
499.56	24947.77
499.73	24746.48
499.91	24584.99
500.08	24746.48
500.26	24673.93
500.44	24886.92
500.61	24907.98
500.79	24840.11
500.97	25362.04
501.14	25472.05
501.32	25666.31
501.49	25415.88
501.67	25507.16
501.84	25472.05
502.02	25373.75
502.20	26024.42
502.37	26384.86
502.55	26246.77
502.72	26206.98
502.90	26419.97
503.07	26103.99
503.25	26654.02
503.43	26401.24
503.60	26548.70
503.78	26567.42
503.95	26382.52
504.13	26632.96
504.30	26820.20
504.48	26820.20
504.65	27349.16
504.83	27274.26
505.01	27119.79
505.18	27307.03
505.36	27379.59
505.53	27447.46
505.71	27700.24
505.88	27967.06
506.06	27480.23
506.23	27761.09
506.41	27793.86
506.58	27910.89
506.76	28245.58
506.93	28011.53
507.11	27915.57
507.28	27868.76
507.46	28219.84
507.63	28556.88
507.81	28254.95
507.98	28070.04
508.16	28446.87
508.33	28699.65
508.50	28804.97
508.68	28922.00
508.85	29074.13
509.03	29083.50
509.20	29221.59
509.38	29287.12
509.55	29579.69
509.73	29579.69
509.90	29659.27
510.08	29319.89
510.25	29511.81
510.42	29692.04
510.60	30003.33
510.77	30155.46
510.95	30242.06
511.12	30101.63
511.30	30197.59
511.47	30632.93
511.64	30487.82
511.82	30321.64
511.99	30125.04
512.17	30635.27
512.34	30665.70
512.51	30541.65
512.69	31101.04
512.86	31098.70
513.04	30773.36
513.21	31096.36
513.38	30995.71
513.56	31007.42
513.73	30789.75
513.90	31222.75
514.08	31449.78
514.25	31197.00
514.43	31131.47
514.60	31522.34
514.77	31669.79
514.95	31931.93
515.12	31557.44
515.29	31409.99
515.47	32123.85
515.64	32147.26
515.81	31882.78
515.99	31875.76
516.16	31913.20
516.33	31873.42
516.51	31878.10
516.68	31732.98
516.85	31873.42
517.03	32025.55
517.20	32184.71
517.37	32231.52
517.54	32521.74
517.72	32322.80
517.89	32292.37
518.06	32397.70
518.24	32739.41
518.41	32531.11
518.58	32458.55
518.75	32746.44
518.93	33151.35
519.10	33308.16
519.27	32985.17
519.45	33326.89
519.62	33275.40
519.79	33174.75
519.96	33729.46
520.14	33993.94
520.31	33263.69
520.48	33476.68
520.65	33881.60
520.83	33806.70
521.00	33795.00
521.17	34003.30
521.34	34211.61
521.52	34536.94
521.69	34436.30
521.86	34429.28
522.03	34490.13
522.20	34724.19
522.38	34511.20
522.55	34810.79
522.72	34340.34
522.89	34497.16
523.07	34897.39
523.24	34593.12
523.41	34618.86
523.58	35236.77
523.75	35522.31
523.92	35079.95
524.10	35438.05
524.27	35349.11
524.44	35388.90
524.61	35618.27
524.78	35548.06
524.96	35613.59
525.13	35690.83
525.30	35917.86
525.47	35882.75
525.64	36081.70
525.81	35751.68
525.98	36168.30
526.16	35896.80
526.33	35503.59
526.50	35910.84
526.67	35962.33
526.84	35606.57
527.01	35491.88
527.18	36116.81
527.36	36290.01
527.53	36521.72
527.70	36573.21
527.87	36470.23
528.04	36339.16
528.21	36390.65
528.38	36123.83
528.55	36919.61
528.72	36966.42
528.89	36870.46
529.07	36870.46
529.24	36603.64
529.41	37008.55
529.58	36767.48
529.75	36989.83
529.92	37741.14
530.09	37326.86
530.26	37390.06
530.43	37310.48
530.60	37167.71
530.77	37036.64
530.94	37614.75
531.11	37642.84
531.28	37619.43
531.46	37542.19
531.63	37305.80
531.80	37170.05
531.97	37354.95
532.14	37806.67
532.31	37684.97
532.48	37640.50
532.65	38082.86
532.82	37773.91
532.99	38007.96
533.16	37982.21
533.33	38108.60
533.50	37666.24
533.67	38211.59
533.84	38000.94
534.01	38274.78
534.18	38115.62
534.35	38459.68
534.52	38234.99
534.69	38284.14
534.86	38162.43
535.03	38483.09
535.20	38836.51
535.37	39061.20
535.54	38955.88
535.71	38644.59
535.88	38710.12
536.05	38955.88
536.22	39241.42
536.38	38738.21
536.55	38988.64
536.72	39189.93
536.89	38979.28
537.06	39440.37
537.23	39084.61
537.40	38969.92
537.57	39166.52
537.74	39468.45
537.91	39627.61
538.08	39683.78
538.25	38916.09
538.42	39168.87
538.59	39751.66
538.75	39124.40
538.92	39330.36
539.09	39683.78
539.26	39533.99
539.43	39819.53
539.60	39683.78
539.77	39463.77
539.94	39374.83
540.11	39512.92
540.28	39828.90
540.44	39864.00
540.61	39126.74
540.78	39775.06
540.95	40264.24
541.12	39789.11
541.29	40142.53
541.46	39962.31
541.62	39754.00
541.79	39976.35
541.96	40172.96
542.13	40456.16
542.30	40343.81
542.47	40416.37
542.63	40620.00
542.80	40308.71
542.97	40872.78
543.14	41006.19
543.31	40928.95
543.48	40959.38
543.64	40947.67
543.81	41205.13
543.98	41062.36
544.15	40708.94
544.32	41460.25
544.48	41228.54
544.65	40825.96
544.82	41392.37
544.99	40526.38
545.16	41329.18
545.32	40952.35
545.49	41312.80
545.66	41481.31
545.83	41434.50
546.00	41675.58
546.16	41343.22
546.33	41298.75
546.50	41226.20
546.67	41551.53
546.83	40952.35
547.00	41528.13
547.17	41605.36
547.34	41273.01
547.50	41759.84
547.67	41738.77
547.84	41881.55
548.00	41977.51
548.17	42036.02
548.34	41701.32
548.51	41724.73
548.67	42370.72
548.84	41916.65
549.01	42464.34
549.18	42351.99
549.34	41991.55
549.51	42153.05
549.68	42323.91
549.84	42270.08
550.01	42291.14
550.18	42061.77
550.34	42204.54
550.51	42066.45
550.68	42010.28
550.84	41816.01
551.01	42199.86
551.18	42440.93
551.34	42225.60
551.51	42679.67
551.68	42536.90
551.84	42593.07
552.01	42536.90
552.18	42892.66
552.34	42384.76
552.51	42967.55
552.68	42480.72
552.84	43384.17
553.01	43253.10
553.18	42752.23
553.34	42607.11
553.51	42696.05
553.67	43063.52
553.84	43407.58
554.01	42859.89
554.17	43264.80
554.34	43753.97
554.51	43131.39
554.67	43332.68
554.84	42986.28
555.00	42794.36
555.17	42972.24
555.33	43536.30
555.50	42848.19
555.67	43054.15
555.83	43257.78
556.00	43374.81
556.16	44154.21
556.33	43620.56
556.50	43028.41
556.66	43400.55
556.83	43351.40
556.99	43482.47
557.16	43564.39
557.32	43742.27
557.49	43763.34
557.65	43597.16
557.82	43281.19
557.98	43161.82
558.15	43253.10
558.32	43475.45
558.48	43653.33
558.65	43316.29
558.81	43768.02
558.98	43440.34
559.14	43613.54
559.31	43536.30
559.47	43704.82
559.64	43950.58
559.80	43693.12
559.97	44067.61
560.13	43856.96
560.30	43721.21
560.46	43964.62
560.63	43969.30
560.79	44016.11
560.96	43856.96
561.12	43880.36
561.29	43866.32
561.45	43777.38
561.61	43995.05
561.78	43522.26
561.94	43927.17
562.11	44259.53
562.27	43480.13
562.44	44194.00
562.60	44470.18
562.77	44493.58
562.93	44119.10
563.10	44123.78
563.26	43559.71
563.42	44514.65
563.59	43988.03
563.75	44151.87
563.92	44013.77
564.08	44304.00
564.24	43835.89
564.41	43950.58
564.57	44311.02
564.74	44280.60
564.90	44589.55
565.07	44353.15
565.23	44058.24
565.39	44547.42
565.56	44484.22
565.72	44311.02
565.88	44292.30
566.05	44037.18
566.21	44086.33
566.38	44086.33
566.54	44168.25
566.70	44116.76
566.87	44910.20
567.03	44561.46
567.19	44657.42
567.36	44439.75
567.52	44648.06
567.68	44673.81
567.85	44282.94
568.01	44531.03
568.17	44009.09
568.34	44896.16
568.50	44605.93
568.66	44519.33
568.83	44779.13
568.99	44086.33
569.15	44369.54
569.32	44549.76
569.48	44371.88
569.64	44737.00
569.81	44928.92
569.97	44266.55
570.13	44580.18
570.30	44268.89
570.46	44011.43
570.62	44509.97
570.78	44739.34
570.95	44687.85
571.11	44809.56
571.27	44313.36
571.43	44369.54
571.60	44678.49
571.76	44814.24
571.92	44619.97
572.09	44765.09
572.25	44095.69
572.41	44587.21
572.57	44652.74
572.74	44875.09
572.90	45214.47
573.06	44949.99
573.22	44966.37
573.38	44474.86
573.55	44294.64
573.71	44921.90
573.87	44626.99
574.03	44722.96
574.20	44605.93
574.36	44194.00
574.52	44959.35
574.68	44720.62
574.84	44729.98
575.01	44788.49
575.17	44687.85
575.33	44524.01
575.49	44634.02
575.65	44994.46
575.82	45425.12
575.98	44729.98
576.14	45125.53
576.30	44849.35
576.46	44570.82
576.62	44781.47
576.79	44631.68
576.95	44208.04
577.11	44753.38
577.27	44755.72
577.43	44802.53
577.59	44776.79
577.75	44811.90
577.92	44744.02
578.08	44847.00
578.24	45209.79
578.40	45153.62
578.56	45081.06
578.72	44910.20
578.88	45003.82
579.04	44844.66
579.21	44872.75
579.37	44683.17
579.53	44690.19
579.69	45024.89
579.85	44964.03
580.01	44774.45
580.17	44926.58
580.33	45240.21
580.49	45045.95
580.65	45162.98
580.82	45373.63
580.98	44797.85
581.14	45102.12
581.30	44985.10
581.46	44919.56
581.62	45123.19
581.78	44821.26
581.94	45226.17
582.10	44896.16
582.26	45394.69
582.42	45265.96
582.58	45193.40
582.74	44711.25
582.90	45165.32
583.06	45305.75
583.22	45333.84
583.38	45095.10
583.54	45158.30
583.70	44594.23
583.86	44940.63
584.02	44713.59
584.18	44755.72
584.34	44807.22
584.50	44746.36
584.66	45116.17
584.82	44500.61
584.98	45158.30
585.14	45467.25
585.30	44865.73
585.46	44924.24
585.62	44657.42
585.78	44996.80
585.94	44367.20
586.10	44839.98
586.26	45083.40
586.42	44921.90
586.58	45099.78
586.74	45146.59
586.90	45067.02
587.06	44472.52
587.22	45069.36
587.38	45116.17
587.54	45057.65
587.70	45485.97
587.86	45085.74
588.02	45401.71
588.18	45385.33
588.34	44830.62
588.49	44832.96
588.65	45020.20
588.81	44409.32
588.97	44615.29
589.13	44949.99
589.29	44928.92
589.45	45240.21
589.61	45141.91
589.77	45162.98
589.93	45006.16
590.08	45209.79
590.24	45574.91
