SpectraSuite Data File
++++++++++++++++++++++++++++++++++++
Date: Fri Oct 25 10:43:56 EDT 2013
User: price-jones
Dark Spectrum Present: No
Reference Spectrum Present: No
Number of Sampled Component Spectra: 1
Spectrometers: USB2+H05261
Integration Time (usec): 100000 (USB2+H05261)
Spectra Averaged: 1 (USB2+H05261)
Boxcar Smoothing: 0 (USB2+H05261)
Correct for Electrical Dark: No (USB2+H05261)
Strobe/Lamp Enabled: No (USB2+H05261)
Correct for Detector Non-linearity: No (USB2+H05261)
Correct for Stray Light: No (USB2+H05261)
Number of Pixels in Processed Spectrum: 2048
>>>>>Begin Processed Spectral Data<<<<<
365.73	70.22
365.92	70.22
366.12	70.22
366.32	9.36
366.52	11.70
366.72	58.51
366.91	79.58
367.11	56.17
367.31	16.38
367.51	16.38
367.70	28.09
367.90	60.85
368.10	4.68
368.30	0.00
368.49	11.70
368.69	49.15
368.89	35.11
369.09	0.00
369.28	117.03
369.48	23.41
369.68	32.77
369.87	114.69
370.07	177.88
370.27	149.79
370.47	187.24
370.66	395.55
370.86	327.68
371.06	409.59
371.25	489.17
371.45	477.47
371.65	435.34
371.84	512.58
372.04	479.81
372.24	442.36
372.44	486.83
372.63	484.49
372.83	533.64
373.03	451.72
373.22	596.84
373.42	561.73
373.62	540.66
373.81	550.03
374.01	552.37
374.21	566.41
374.40	580.45
374.60	587.47
374.79	550.03
374.99	517.26
375.19	507.90
375.38	660.03
375.58	613.22
375.78	641.31
375.97	676.41
376.17	657.69
376.37	617.90
376.56	564.07
376.76	573.43
376.95	615.56
377.15	655.35
377.35	643.65
377.54	711.52
377.74	657.69
377.93	617.90
378.13	758.33
378.33	629.60
378.52	662.37
378.72	650.67
378.91	613.22
379.11	662.37
379.31	676.41
379.50	692.80
379.70	774.72
379.89	741.95
380.09	608.54
380.28	777.06
380.48	709.18
380.68	770.04
380.87	653.01
381.07	732.59
381.26	786.42
381.46	753.65
381.65	746.63
381.85	702.16
382.04	690.46
382.24	770.04
382.43	725.57
382.63	667.05
382.83	739.61
383.02	784.08
383.22	821.53
383.41	709.18
383.61	746.63
383.80	903.45
384.00	798.12
384.19	786.42
384.39	774.72
384.58	863.66
384.78	863.66
384.97	835.57
385.17	821.53
385.36	800.46
385.56	891.74
385.75	823.87
385.95	809.83
386.14	844.93
386.34	751.31
386.53	786.42
386.72	814.51
386.92	896.43
387.11	898.77
387.31	1011.11
387.50	898.77
387.70	880.04
387.89	889.40
388.09	917.49
388.28	922.17
388.48	983.02
388.67	964.30
388.86	1053.24
389.06	973.66
389.25	964.30
389.45	999.41
389.64	1006.43
389.84	1071.97
390.03	1018.13
390.22	985.37
390.42	1114.10
390.61	1090.69
390.81	1004.09
391.00	1165.59
391.19	1018.13
391.39	1107.07
391.58	1064.94
391.78	1100.05
391.97	1149.20
392.16	1102.39
392.36	1139.84
392.55	992.39
392.75	1064.94
392.94	947.92
393.13	990.05
393.33	1050.90
393.52	1118.78
393.71	1107.07
393.91	1074.31
394.10	1125.80
394.29	1228.78
394.49	1172.61
394.68	1217.08
394.88	1282.61
395.07	1287.29
395.26	1324.74
395.46	1310.70
395.65	1299.00
395.84	1256.87
396.04	1287.29
396.23	1196.01
396.42	1228.78
396.62	1226.44
396.81	1254.53
397.00	1299.00
397.19	1198.35
397.39	1343.47
397.58	1401.98
397.77	1448.79
397.97	1476.88
398.16	1439.43
398.35	1472.20
398.55	1528.37
398.74	1533.05
398.93	1507.30
399.12	1600.93
399.32	1540.07
399.51	1596.25
399.70	1582.20
399.90	1575.18
400.09	1596.25
400.28	1708.59
400.47	1713.27
400.67	1739.02
400.86	1762.42
401.05	1682.85
401.24	1715.61
401.44	1816.26
401.63	1832.64
401.82	1790.51
402.01	1816.26
402.21	1785.83
402.40	1813.92
402.59	1776.47
402.78	1860.73
402.97	1858.39
403.17	1898.17
403.36	1975.41
403.55	1959.03
403.74	1893.49
403.93	1891.15
404.13	1989.46
404.32	1898.17
404.51	2040.95
404.70	1966.05
404.89	1961.37
405.09	2106.48
405.28	2111.16
405.47	1959.03
405.66	2005.84
405.85	2059.67
406.05	2057.33
406.24	2085.42
406.43	2125.21
406.62	2146.27
406.81	2244.57
407.00	2174.36
407.20	2174.36
407.39	2157.97
407.58	2148.61
407.77	2230.53
407.96	2267.98
408.15	2347.56
408.34	2345.22
408.54	2422.45
408.73	2417.77
408.92	2387.35
409.11	2438.84
409.30	2406.07
409.49	2326.49
409.68	2375.64
409.87	2413.09
410.07	2335.85
410.26	2462.24
410.45	2448.20
410.64	2537.14
410.83	2588.63
411.02	2607.36
411.21	2717.36
411.40	2649.49
411.59	2710.34
411.78	2626.08
411.98	2708.00
412.17	2668.21
412.36	2693.96
412.55	2775.88
412.74	2832.05
412.93	2904.60
413.12	2801.62
413.31	3002.91
413.50	3016.95
413.69	2918.65
413.88	2956.10
414.07	3119.93
414.26	3101.21
414.45	3110.57
414.64	3077.80
414.83	3234.62
415.02	3082.49
415.22	3300.16
415.41	3183.13
415.60	3295.47
415.79	3302.50
415.98	3417.18
416.17	3449.95
416.36	3379.73
416.55	3328.24
416.74	3391.44
416.93	3468.67
417.12	3431.23
417.31	3529.53
417.50	3410.16
417.69	3595.06
417.88	3576.34
418.07	3620.81
418.26	3501.44
418.45	3648.90
418.64	3707.41
418.83	3665.28
419.02	3749.54
419.21	3681.66
419.39	3747.20
419.58	3740.18
419.77	3552.93
419.96	3637.19
420.15	3786.99
420.34	3784.65
420.53	4018.70
420.72	3878.27
420.91	3875.93
421.10	3918.06
421.29	4044.45
421.48	4009.34
421.67	4051.47
421.86	3885.29
422.05	3992.95
422.24	3955.51
422.43	3875.93
422.61	3999.98
422.80	3904.01
422.99	4095.94
423.18	4131.05
423.37	4124.02
423.56	4070.19
423.75	4147.43
423.94	4067.85
424.13	3847.84
424.32	4021.04
424.50	4184.88
424.69	4194.24
424.88	4198.92
425.07	3932.10
425.26	4133.39
425.45	4114.66
425.64	4255.09
425.83	4198.92
426.01	4126.36
426.20	4065.51
426.39	4049.13
426.58	4042.11
426.77	4086.58
426.96	4198.92
427.15	4105.30
427.33	4065.51
427.52	4072.53
427.71	4475.10
427.90	4355.74
428.09	4341.69
428.28	4503.19
428.46	4236.37
428.65	4299.56
428.84	4470.42
429.03	4442.34
429.22	4180.20
429.40	4252.75
429.59	4236.37
429.78	4149.77
429.97	4063.17
430.16	4208.28
430.34	4215.30
430.53	4222.33
430.72	4325.31
430.91	4568.73
431.10	4533.62
431.28	4650.64
431.47	4762.99
431.66	4788.74
431.85	4716.18
432.03	4835.55
432.22	4760.65
432.41	4720.86
432.60	4905.76
432.79	4933.85
432.97	5043.85
433.16	4957.25
433.35	4840.23
433.54	4975.98
433.72	4931.51
433.91	4716.18
434.10	4802.78
434.28	4926.83
434.47	5111.73
434.66	5041.51
434.85	5224.08
435.03	5231.10
435.22	5060.24
435.41	5200.67
435.59	5249.82
435.78	5266.21
435.97	5413.66
436.16	5423.02
436.34	5338.76
436.53	5291.95
436.72	5495.58
436.90	5275.57
437.09	5394.93
437.28	5430.04
437.46	5313.02
437.65	5404.30
437.84	5181.95
438.02	5313.02
438.21	5497.92
438.40	5392.59
438.58	5530.69
438.77	5778.78
438.96	5696.86
439.14	5785.80
439.33	5778.78
439.52	5849.00
439.70	5799.85
439.89	5893.47
440.08	5947.30
440.26	5870.06
440.45	5954.32
440.63	6108.80
440.82	6427.11
441.01	6076.03
441.19	6303.06
441.38	6354.55
441.57	6558.18
441.75	6377.96
441.94	6480.94
442.12	6485.62
442.31	6593.29
442.50	6628.40
442.68	6520.73
442.87	6640.10
443.05	6530.09
443.24	6733.72
443.43	6780.53
443.61	6647.12
443.80	6939.69
443.98	6705.63
444.17	6647.12
444.35	6899.90
444.54	6832.02
444.73	6703.29
444.91	6857.77
445.10	6700.95
445.28	6724.36
445.47	6677.55
445.65	6630.74
445.84	6757.13
446.02	6757.13
446.21	6801.60
446.39	6677.55
446.58	6967.77
446.77	6888.20
446.95	6995.86
447.14	7054.37
447.32	7021.61
447.51	6974.80
447.69	6829.68
447.88	6899.90
448.06	7007.56
448.25	7087.14
448.43	7094.16
448.62	6937.35
448.80	6930.33
448.99	6906.92
449.17	7279.07
449.36	7045.01
449.54	7166.72
449.73	7274.38
449.91	7424.18
450.10	7442.90
450.28	7609.08
450.46	7583.34
450.65	7569.29
450.83	7492.05
451.02	7456.95
451.20	7555.25
451.39	7384.39
451.57	7459.29
451.76	7377.37
451.94	7478.01
452.13	7529.50
452.31	7564.61
452.49	7197.15
452.68	7503.76
452.86	7531.84
453.05	7674.62
453.23	7581.00
453.42	7669.94
453.60	7660.57
453.78	7674.62
453.97	7707.38
454.15	7768.24
454.34	7447.58
454.52	7749.51
454.70	7693.34
454.89	7868.88
455.07	8035.06
455.26	8109.96
455.44	7969.52
455.62	7733.13
455.81	7950.80
455.99	8091.23
456.17	8224.64
456.36	8271.45
456.54	8322.94
456.73	8367.42
456.91	8566.36
457.09	8271.45
457.28	8662.32
457.46	8383.80
457.64	8444.65
457.83	8510.19
458.01	8346.35
458.19	8568.70
458.38	8549.98
458.56	8367.42
458.74	8493.80
458.93	8442.31
459.11	8531.25
459.29	8706.79
459.48	8875.31
459.66	8587.43
459.84	8739.56
460.03	8781.69
460.21	8980.64
460.39	8931.48
460.57	8908.08
460.76	8744.24
460.94	9088.30
461.12	8917.44
461.31	8968.93
461.49	8938.51
461.67	8919.78
461.85	9165.54
462.04	9191.28
462.22	9352.78
462.40	9200.65
462.59	9317.67
462.77	9474.49
462.95	9430.02
463.13	9188.94
463.32	9348.10
463.50	9376.19
463.68	9444.06
463.86	9423.00
464.05	9095.32
464.23	9324.69
464.41	9284.91
464.59	9247.46
464.78	9589.17
464.96	9390.23
465.14	9294.27
465.32	9563.43
465.50	9479.17
465.69	9575.13
465.87	9586.83
466.05	9647.69
466.23	9366.82
466.41	9341.08
466.60	9809.19
466.78	9720.24
466.96	9687.48
467.14	9631.30
467.32	9778.76
467.51	9717.90
467.69	9572.79
467.87	9654.71
468.05	9811.53
468.23	9741.31
468.41	9736.63
468.60	9795.14
468.78	9991.75
468.96	9996.43
469.14	10001.11
469.32	9961.32
469.50	9748.33
469.69	9919.19
469.87	9909.83
470.05	10270.27
470.23	10045.58
470.41	10244.52
470.59	10305.38
470.77	10167.29
470.95	10195.37
471.14	10466.88
471.32	10427.09
471.50	10616.67
471.68	10410.70
471.86	10686.89
472.04	10778.17
472.22	10998.18
472.40	10516.03
472.58	10640.08
472.77	10986.47
472.95	10775.83
473.13	11173.72
473.31	10970.09
473.49	10895.19
473.67	11087.12
473.85	11166.70
474.03	11290.74
474.21	11276.70
474.39	11328.19
474.57	11604.38
474.75	11641.82
474.93	11674.59
475.12	11590.33
475.30	11456.92
475.48	11585.65
475.66	11702.68
475.84	11719.06
476.02	11967.16
476.20	11988.22
476.38	11829.07
476.56	12039.72
476.74	12123.98
476.92	12166.10
477.10	12100.57
477.28	12453.99
477.46	12528.89
477.64	12648.26
477.82	12798.05
478.00	13053.17
478.18	12985.29
478.36	13130.41
478.54	13102.32
478.72	13137.43
478.90	13287.22
479.08	13509.57
479.26	13635.96
479.44	13673.41
479.62	13675.75
479.80	13757.67
479.98	13951.93
480.16	14115.77
480.34	14064.28
480.52	14127.47
480.70	14111.09
480.88	14125.13
481.06	14256.20
481.24	14349.82
481.41	14841.34
481.59	14590.90
481.77	15112.84
481.95	15002.83
482.13	15124.54
482.31	14927.94
482.49	15279.02
482.67	15405.41
482.85	15632.44
483.03	15917.98
483.21	15571.58
483.39	15929.69
483.57	16009.26
483.74	16215.23
483.92	16046.71
484.10	16112.25
484.28	16400.13
484.46	16828.45
484.64	16926.75
484.82	16629.51
485.00	16678.66
485.18	16938.46
485.35	17116.34
485.53	16460.99
485.71	16470.35
485.89	16840.15
486.07	16798.02
486.25	17029.74
486.43	17696.79
486.61	17708.49
486.78	17869.99
486.96	17954.25
487.14	18335.76
487.32	18405.97
487.50	18537.04
487.68	18810.89
487.85	19115.16
488.03	19166.65
488.21	19183.03
488.39	19452.19
488.57	19419.42
488.75	19482.62
488.92	19744.76
489.10	19658.16
489.28	19960.09
489.46	20334.57
489.64	20575.65
489.81	20805.02
489.99	21219.30
490.17	20648.21
490.35	20634.16
490.53	21006.31
490.70	20954.82
490.88	21048.44
491.06	21453.35
491.24	21408.88
491.41	21184.19
491.59	21713.15
491.77	21123.33
491.95	21858.26
492.13	22132.11
492.30	22073.59
492.48	22361.48
492.66	22279.56
492.84	22611.92
493.01	22848.31
493.19	22614.26
493.37	22909.16
493.54	23175.98
493.72	22948.95
493.90	23185.35
494.08	23613.66
494.25	23529.41
494.43	23950.70
494.61	24140.29
494.79	24535.84
494.96	24027.94
495.14	24594.35
495.32	24458.60
495.49	24219.86
495.67	24458.60
495.85	24847.13
496.02	25036.71
496.20	25413.54
496.38	25277.79
496.55	25296.51
496.73	25792.70
496.91	25654.61
497.09	26017.40
497.26	25846.54
497.44	26078.25
497.62	25916.75
497.79	26277.19
497.97	25900.37
498.14	26312.30
498.32	26305.28
498.50	26726.58
498.67	26998.08
498.85	26452.73
499.03	26986.38
499.20	27042.55
499.38	27316.39
499.56	27171.28
499.73	27201.71
499.91	27410.01
500.08	27428.74
500.26	27330.44
500.44	27332.78
500.61	27789.18
500.79	27353.84
500.97	27590.24
501.14	28297.08
501.32	27447.46
501.49	28280.69
501.67	28226.86
501.84	28133.24
502.02	28018.55
502.20	28800.29
502.37	28636.45
502.55	28849.44
502.72	28980.51
502.90	29001.58
503.07	28589.64
503.25	29074.13
503.43	28498.36
503.60	28631.77
503.78	29184.14
503.95	29252.02
504.13	28999.24
504.30	29900.34
504.48	29542.24
504.65	29720.12
504.83	30132.06
505.01	29944.81
505.18	30047.80
505.36	29944.81
505.53	30691.44
505.71	30359.09
505.88	30792.09
506.06	30473.78
506.23	30742.94
506.41	30235.04
506.58	30642.29
506.76	30794.43
506.93	30731.23
507.11	31044.87
507.28	30827.20
507.46	30572.08
507.63	31138.49
507.81	31304.67
507.98	30986.35
508.16	31208.70
508.33	31601.91
508.50	31810.22
508.68	32084.06
508.85	32254.92
509.03	31786.82
509.20	32039.59
509.38	32060.66
509.55	32327.48
509.73	32107.47
509.90	32470.25
510.08	32140.24
510.25	32065.34
510.42	32694.94
510.60	32730.05
510.77	32575.58
510.95	32521.74
511.12	32910.27
511.30	33230.93
511.47	33069.43
511.64	33132.62
511.82	33472.00
511.99	33223.90
512.17	33027.30
512.34	33287.10
512.51	33039.00
512.69	33378.38
512.86	33483.70
513.04	34087.56
513.21	33352.63
513.38	33383.06
513.56	33579.67
513.73	33596.05
513.90	34153.10
514.08	33811.38
514.25	34078.20
514.43	34298.21
514.60	34323.96
514.77	34408.22
514.95	34614.18
515.12	34590.78
515.29	34506.52
515.47	34712.49
515.64	34869.30
515.81	34775.68
515.99	34529.92
516.16	34572.05
516.33	34607.16
516.51	34562.69
516.68	34206.93
516.85	33972.88
517.03	34302.89
517.20	34684.40
517.37	35407.62
517.54	35328.05
517.72	35047.18
517.89	34944.20
518.06	34962.92
518.24	35143.14
518.41	35421.67
518.58	35267.19
518.75	35702.53
518.93	35824.24
519.10	35501.25
519.27	35894.46
519.45	36020.84
519.62	36505.34
519.79	36444.48
519.96	36383.63
520.14	36503.00
520.31	36402.35
520.48	36250.22
520.65	36535.76
520.83	37041.32
521.00	36760.45
521.17	36921.95
521.34	37120.90
521.52	36914.93
521.69	37195.79
521.86	37291.76
522.03	37270.69
522.20	37181.75
522.38	37184.09
522.55	37127.92
522.72	37282.39
522.89	37364.31
523.07	37991.58
523.24	37301.12
523.41	38014.98
523.58	37961.15
523.75	38246.69
523.92	38085.20
524.10	38188.18
524.27	38225.63
524.44	37900.29
524.61	38422.23
524.78	38499.47
524.96	38749.91
525.13	38560.33
525.30	38595.43
525.47	38630.54
525.64	38363.72
525.81	38717.14
525.98	38888.00
526.16	38007.96
526.33	38150.73
526.50	38260.74
526.67	37897.95
526.84	38115.62
527.01	38359.04
527.18	39040.14
527.36	39040.14
527.53	39353.77
527.70	39548.03
527.87	39416.96
528.04	39325.68
528.21	39288.23
528.38	39452.07
528.55	40268.92
528.72	39754.00
528.89	40074.65
529.07	39681.44
529.24	40088.70
529.41	39936.56
529.58	40278.28
529.75	39751.66
529.92	39765.70
530.09	39716.55
530.26	39868.69
530.43	39964.65
530.60	40168.27
530.77	39821.87
530.94	40575.53
531.11	40208.06
531.28	40722.98
531.46	40311.05
531.63	40521.69
531.80	40348.50
531.97	40456.16
532.14	40126.14
532.31	39864.00
532.48	40439.78
532.65	40680.85
532.82	40568.51
532.99	40751.07
533.16	40451.48
533.33	41226.20
533.50	40591.91
533.67	41069.38
533.84	40964.06
534.01	40631.70
534.18	41074.06
534.35	41296.41
534.52	40942.99
534.69	41816.01
534.86	41427.48
535.03	41343.22
535.20	41935.38
535.37	41853.46
535.54	41872.18
535.71	41474.29
535.88	41193.43
536.05	41364.29
536.22	42146.03
536.38	41661.54
536.55	41757.50
536.72	41680.26
536.89	41816.01
537.06	41879.21
537.23	41886.23
537.40	41804.31
537.57	42464.34
537.74	42249.01
537.91	42361.36
538.08	42085.17
538.25	41886.23
538.42	41762.18
538.59	42267.73
538.75	42410.51
538.92	42328.59
539.09	42349.65
539.26	42288.80
539.43	42328.59
539.60	42309.86
539.77	42373.06
539.94	42557.96
540.11	42522.85
540.28	41986.87
540.44	42401.14
540.61	42546.26
540.78	42183.48
540.95	42260.71
541.12	42244.33
541.29	42824.78
541.46	42775.63
541.62	42890.32
541.79	43342.04
541.96	42305.18
542.13	42932.45
542.30	42939.47
542.47	43007.34
542.63	42862.23
542.80	43381.83
542.97	43744.61
543.14	43440.34
543.31	43643.97
543.48	43407.58
543.64	43789.08
543.81	43777.38
543.98	44292.30
544.15	44002.07
544.32	43985.69
544.48	44257.19
544.65	44158.89
544.82	43709.50
544.99	43384.17
545.16	44201.02
545.32	43789.08
545.49	44205.70
545.66	44439.75
545.83	43969.30
546.00	43990.37
546.16	44395.28
546.33	44105.06
546.50	43847.60
546.67	44076.97
546.83	43885.04
547.00	44137.82
547.17	43931.86
547.34	44067.61
547.50	44741.68
547.67	44512.31
547.84	44598.91
548.00	44809.56
548.17	44886.79
548.34	44591.89
548.51	44673.81
548.67	44545.08
548.84	44790.83
549.01	44690.19
549.18	44245.49
549.34	45181.70
549.51	44453.79
549.68	44776.79
549.84	45099.78
550.01	44868.07
550.18	44720.62
550.34	44587.21
550.51	44938.29
550.68	44816.58
550.84	44252.51
551.01	45148.93
551.18	45099.78
551.34	45312.77
551.51	45219.15
551.68	45280.00
551.84	45427.46
552.01	45139.57
552.18	45537.46
552.34	44818.92
552.51	45380.65
552.68	45132.55
552.84	45394.69
553.01	45296.39
553.18	45439.16
553.34	45017.86
553.51	45343.20
553.67	45764.49
553.84	45542.14
554.01	45654.49
554.17	45612.36
554.34	45794.92
554.51	45785.56
554.67	45633.42
554.84	45645.13
555.00	45488.31
555.17	45923.65
555.33	45624.06
555.50	45249.58
555.67	45490.65
555.83	45916.63
556.00	45560.87
556.16	46110.89
556.33	45401.71
556.50	45797.26
556.66	45881.52
556.83	45277.66
556.99	46202.18
557.16	45801.94
557.32	46146.00
557.49	46202.18
557.65	45743.43
557.82	46375.37
557.98	46061.74
558.15	46146.00
558.32	46045.36
558.48	45701.30
558.65	45862.80
558.81	45656.83
558.98	45867.48
559.14	46017.27
559.31	45705.98
559.47	46190.47
559.64	45834.71
559.80	46209.20
559.97	46284.09
560.13	46206.86
560.30	45851.09
560.46	46525.17
560.63	46628.15
560.79	46185.79
560.96	46433.89
561.12	46436.23
561.29	46005.57
561.45	46174.09
561.61	46422.19
561.78	46164.73
561.94	46314.52
562.11	46092.17
562.27	45949.40
562.44	46497.08
562.60	46656.24
562.77	46653.90
562.93	46298.14
563.10	46766.24
563.26	46279.41
563.42	46567.30
563.59	46562.62
563.75	45935.35
563.92	46527.51
564.08	46382.40
564.24	46597.73
564.41	46876.25
564.57	46494.74
564.74	46312.18
564.90	46485.38
565.07	46878.59
565.23	46539.21
565.39	46499.42
565.56	46520.49
565.72	46089.83
565.88	46225.58
566.05	46096.85
566.21	46454.95
566.38	46595.38
566.54	46253.67
566.70	46761.56
566.87	46916.04
567.03	46869.23
567.19	47065.83
567.36	47007.32
567.52	46733.48
567.68	47086.90
567.85	46740.50
568.01	46536.87
568.17	46508.79
568.34	46796.67
568.50	46799.01
568.66	46909.02
568.83	46597.73
568.99	46515.81
569.15	46796.67
569.32	46436.23
569.48	46810.71
569.64	46740.50
569.81	46951.15
569.97	46628.15
570.13	46948.81
570.30	46354.31
570.46	46541.55
570.62	46150.68
570.78	46246.65
570.95	46483.04
571.11	46581.34
571.27	46487.72
571.43	46644.54
571.60	46976.89
571.76	46639.86
571.92	46953.49
572.09	46958.17
572.25	46309.84
572.41	46857.52
572.57	47192.22
572.74	47440.32
572.90	47196.90
573.06	46651.56
573.22	46972.21
573.38	46988.60
573.55	46667.94
573.71	46845.82
573.87	46862.21
574.03	47012.00
574.20	46848.16
574.36	46705.39
574.52	46960.51
574.68	47007.32
574.84	46822.42
575.01	46546.23
575.17	46766.24
575.33	46288.77
575.49	46644.54
575.65	47217.97
575.82	46770.93
575.98	46459.63
576.14	46705.39
576.30	47133.71
576.46	47068.17
576.62	46429.21
576.79	47082.22
576.95	46637.51
577.11	46810.71
577.27	46995.62
577.43	46791.99
577.59	46920.72
577.75	46473.68
577.92	46274.73
578.08	46258.35
578.24	46574.32
578.40	46473.68
578.56	46616.45
578.72	47037.75
578.88	46890.29
579.04	47166.48
579.21	46630.49
579.37	46909.02
579.53	46689.01
579.69	46754.54
579.85	46873.91
580.01	46904.34
580.17	46902.00
580.33	46974.55
580.49	47061.15
580.65	47075.19
580.82	46651.56
580.98	47037.75
581.14	46667.94
581.30	47283.50
581.46	47023.70
581.62	47168.82
581.78	46623.47
581.94	47622.88
582.10	46719.43
582.26	47096.26
582.42	47063.49
582.58	47014.34
582.74	46686.67
582.90	47126.69
583.06	46920.72
583.22	47124.35
583.38	47334.99
583.54	47360.74
583.70	47468.40
583.86	47004.98
584.02	47047.11
584.18	46993.28
584.34	47086.90
584.50	46731.14
584.66	46866.89
584.82	46845.82
584.98	47470.75
585.14	46820.08
585.30	46738.16
585.46	46438.57
585.62	46642.20
585.78	46932.42
585.94	46616.45
586.10	46761.56
586.26	46534.53
586.42	46986.25
586.58	47337.33
586.74	47210.95
586.90	46880.93
587.06	46906.68
587.22	46808.37
587.38	47098.60
587.54	47199.24
587.70	47028.38
587.86	47131.37
588.02	46787.31
588.18	47145.41
588.34	47026.04
588.49	46405.80
588.65	46237.28
588.81	46218.56
588.97	46550.91
589.13	46822.42
589.29	46366.01
589.45	46892.63
589.61	46691.35
589.77	46864.55
589.93	47035.41
