SpectraSuite Data File
++++++++++++++++++++++++++++++++++++
Date: Fri Oct 25 11:22:31 EDT 2013
User: price-jones
Dark Spectrum Present: No
Reference Spectrum Present: No
Number of Sampled Component Spectra: 1
Spectrometers: USB2+H05261
Integration Time (usec): 100000 (USB2+H05261)
Spectra Averaged: 1 (USB2+H05261)
Boxcar Smoothing: 0 (USB2+H05261)
Correct for Electrical Dark: No (USB2+H05261)
Strobe/Lamp Enabled: No (USB2+H05261)
Correct for Detector Non-linearity: No (USB2+H05261)
Correct for Stray Light: No (USB2+H05261)
Number of Pixels in Processed Spectrum: 2048
>>>>>Begin Processed Spectral Data<<<<<
365.73	245.76
365.92	245.76
366.12	245.76
366.32	133.41
366.52	114.69
366.72	145.11
366.91	88.94
367.11	100.64
367.31	142.77
367.51	140.43
367.70	88.94
367.90	152.13
368.10	67.88
368.30	142.77
368.49	119.37
368.69	79.58
368.89	138.09
369.09	156.82
369.28	210.65
369.48	149.79
369.68	119.37
369.87	161.50
370.07	227.03
370.27	161.50
370.47	259.80
370.66	552.37
370.86	603.86
371.06	653.01
371.25	709.18
371.45	599.18
371.65	650.67
371.84	608.54
372.04	744.29
372.24	697.48
372.44	692.80
372.63	737.27
372.83	732.59
373.03	765.36
373.22	734.93
373.42	791.10
373.62	807.48
373.81	863.66
374.01	777.06
374.21	819.19
374.40	755.99
374.60	802.80
374.79	732.59
374.99	870.68
375.19	840.25
375.38	809.83
375.58	868.34
375.78	912.81
375.97	896.43
376.17	919.83
376.37	774.72
376.56	830.89
376.76	875.36
376.95	863.66
377.15	875.36
377.35	940.90
377.54	926.85
377.74	840.25
377.93	894.08
378.13	919.83
378.33	922.17
378.52	898.77
378.72	1011.11
378.91	919.83
379.11	922.17
379.31	980.68
379.50	947.92
379.70	997.07
379.89	959.62
380.09	940.90
380.28	1018.13
380.48	929.19
380.68	1001.75
380.87	929.19
381.07	1015.79
381.26	1022.81
381.46	1043.88
381.65	1036.86
381.85	997.07
382.04	1027.50
382.24	1069.62
382.43	1114.10
382.63	1090.69
382.83	1036.86
383.02	1093.03
383.22	1146.86
383.41	1055.58
383.61	1203.04
383.80	1090.69
384.00	1100.05
384.19	1102.39
384.39	1165.59
384.58	1121.12
384.78	1130.48
384.97	1184.31
385.17	1163.25
385.36	1196.01
385.56	1130.48
385.75	1174.95
385.95	1071.97
386.14	1093.03
386.34	1249.85
386.53	1123.46
386.72	1252.19
386.92	1259.21
387.11	1156.22
387.31	1252.19
387.50	1217.08
387.70	1268.57
387.89	1301.34
388.09	1287.29
388.28	1322.40
388.48	1317.72
388.67	1350.49
388.86	1371.55
389.06	1308.36
389.25	1303.68
389.45	1390.28
389.64	1289.64
389.84	1411.34
390.03	1390.28
390.22	1479.22
390.42	1423.05
390.61	1306.02
390.81	1277.93
391.00	1448.79
391.19	1462.83
391.39	1462.83
391.58	1411.34
391.78	1486.24
391.97	1509.65
392.16	1493.26
392.36	1582.20
392.55	1460.49
392.75	1516.67
392.94	1561.14
393.13	1549.43
393.33	1511.99
393.52	1509.65
393.71	1591.56
393.91	1593.90
394.10	1605.61
394.29	1654.76
394.49	1579.86
394.68	1591.56
394.88	1631.35
395.07	1650.08
395.26	1582.20
395.46	1771.79
395.65	1734.34
395.84	1659.44
396.04	1701.57
396.23	1715.61
396.42	1720.29
396.62	1706.25
396.81	1788.17
397.00	1769.44
397.19	1884.13
397.39	1729.66
397.58	1809.23
397.77	1797.53
397.97	1806.89
398.16	1851.36
398.35	1870.09
398.55	1816.26
398.74	1919.24
398.93	1987.11
399.12	1935.62
399.32	1865.41
399.51	1921.58
399.70	2066.69
399.90	1975.41
400.09	2012.86
400.28	2038.61
400.47	2003.50
400.67	2160.31
400.86	2078.40
401.05	2165.00
401.24	2115.84
401.44	2293.72
401.63	2183.72
401.82	2062.01
402.01	2115.84
402.21	2270.32
402.40	2176.70
402.59	2225.85
402.78	2251.60
402.97	2228.19
403.17	2303.09
403.36	2361.60
403.55	2324.15
403.74	2417.77
403.93	2380.32
404.13	2410.75
404.32	2354.58
404.51	2406.07
404.70	2455.22
404.89	2555.86
405.09	2420.11
405.28	2480.97
405.47	2495.01
405.66	2459.90
405.85	2588.63
406.05	2560.55
406.24	2499.69
406.43	2555.86
406.62	2635.44
406.81	2644.81
407.00	2546.50
407.20	2665.87
407.39	2644.81
407.58	2747.79
407.77	2747.79
407.96	2712.68
408.15	2806.30
408.34	2764.17
408.54	2684.59
408.73	2782.90
408.92	2909.29
409.11	2956.10
409.30	2981.84
409.49	2984.18
409.68	2916.31
409.87	2942.05
410.07	2939.71
410.26	3054.40
410.45	3007.59
410.64	3101.21
410.83	3148.02
411.02	3080.14
411.21	3206.53
411.40	3164.40
411.59	3251.00
411.78	3117.59
411.98	3288.45
412.17	3269.73
412.36	3438.25
412.55	3365.69
412.74	3403.14
412.93	3372.71
413.12	3438.25
413.31	3695.71
413.50	3524.85
413.69	3414.84
413.88	3536.55
414.07	3592.72
414.26	3613.79
414.45	3777.62
414.64	3779.97
414.83	3702.73
415.02	3978.91
415.22	3684.00
415.41	3925.08
415.60	3852.52
415.79	3878.27
415.98	3948.48
416.17	3955.51
416.36	4063.17
416.55	4044.45
416.74	4084.23
416.93	4264.46
417.12	4180.20
417.31	4140.41
417.50	4229.35
417.69	4241.05
417.88	4360.42
418.07	4203.60
418.26	4276.16
418.45	4395.53
418.64	4472.76
418.83	4526.60
419.02	4491.49
419.21	4615.54
419.39	4737.24
419.58	4564.04
419.77	4634.26
419.96	4617.88
420.15	4592.13
420.34	4573.41
420.53	4664.69
420.72	4753.63
420.91	4617.88
421.10	4720.86
421.29	4786.40
421.48	4711.50
421.67	4924.49
421.86	4903.42
422.05	4837.89
422.24	4809.80
422.43	4933.85
422.61	4978.32
422.80	5053.22
422.99	4975.98
423.18	5022.79
423.37	5093.01
423.56	5114.07
423.75	5100.03
423.94	5048.54
424.13	4620.22
424.32	4748.95
424.50	5053.22
424.69	5195.99
424.88	5181.95
425.07	4919.81
425.26	4985.34
425.45	5100.03
425.64	4889.38
425.83	5076.62
426.01	5116.41
426.20	4961.94
426.39	5097.69
426.58	5107.05
426.77	5069.60
426.96	5198.33
427.15	5217.05
427.33	5226.42
427.52	5235.78
427.71	5252.16
427.90	5411.32
428.09	5256.84
428.28	5516.64
428.46	5380.89
428.65	5390.25
428.84	5451.11
429.03	5444.09
429.22	5460.47
429.40	5502.60
429.59	5481.53
429.78	5392.59
429.97	5308.34
430.16	5556.43
430.34	5619.63
430.53	5626.65
430.72	5813.89
430.91	5551.75
431.10	5769.42
431.28	5811.55
431.47	5757.72
431.66	5867.72
431.85	5837.30
432.03	6017.52
432.22	6033.90
432.41	6094.76
432.60	5975.39
432.79	5991.77
432.97	5942.62
433.16	6129.86
433.35	6183.70
433.54	6078.37
433.72	6190.72
433.91	6298.38
434.10	6169.65
434.28	6284.34
434.47	6169.65
434.66	6331.15
434.85	6396.68
435.03	6392.00
435.22	6272.64
435.41	6586.27
435.59	6253.91
435.78	6387.32
435.97	6656.48
436.16	6389.66
436.34	6417.75
436.53	6497.33
436.72	6707.98
436.90	6455.20
437.09	6590.95
437.28	6576.91
437.46	6871.81
437.65	6663.51
437.84	6977.14
438.02	6871.81
438.21	6939.69
438.40	6754.79
438.58	7110.55
438.77	7059.06
438.96	7030.97
439.14	7143.32
439.33	7424.18
439.52	7309.49
439.70	7192.47
439.89	7194.81
440.08	7531.84
440.26	7456.95
440.45	7389.07
440.63	7412.48
440.82	7639.51
441.01	7527.16
441.19	7667.60
441.38	7913.35
441.57	7845.48
441.75	7885.26
441.94	8006.97
442.12	8028.04
442.31	8030.38
442.50	8116.98
442.68	8131.02
442.87	8135.70
443.05	8299.54
443.24	8290.18
443.43	8166.13
443.61	8294.86
443.80	8561.68
443.98	8074.85
444.17	7873.56
444.35	8353.37
444.54	8374.44
444.73	8348.69
444.91	8397.84
445.10	8688.07
445.28	8336.99
445.47	8538.27
445.65	8278.47
445.84	8376.78
446.02	8578.06
446.21	8465.72
446.39	8510.19
446.58	8737.22
446.77	8650.62
446.95	8322.94
447.14	8470.40
447.32	8774.67
447.51	8641.26
447.69	8547.64
447.88	8484.44
448.06	8528.91
448.25	8636.58
448.43	8786.37
448.62	8608.49
448.80	8725.52
448.99	8938.51
449.17	8870.63
449.36	8821.48
449.54	8929.14
449.73	9139.79
449.91	9130.43
450.10	9221.71
450.28	9242.78
450.46	9151.49
450.65	9170.22
450.83	9025.11
451.02	9172.56
451.20	9401.93
451.39	9224.05
451.57	9432.36
451.76	9104.68
451.94	9245.12
452.13	9373.85
452.31	9589.17
452.49	9329.38
452.68	9579.81
452.86	9500.23
453.05	9600.88
453.23	9497.89
453.42	9474.49
453.60	9469.81
453.78	9668.75
453.97	9699.18
454.15	9563.43
454.34	9621.94
454.52	9935.57
454.70	9872.38
454.89	9762.37
455.07	9858.34
455.26	9678.12
455.44	10148.56
455.62	10054.94
455.81	10171.97
455.99	9923.87
456.17	10281.97
456.36	10263.25
456.54	10340.49
456.73	10403.68
456.91	10532.41
457.09	10558.16
457.28	10696.25
457.46	10492.62
457.64	10740.72
457.83	10759.44
458.01	10586.24
458.19	10698.59
458.38	10633.05
458.56	10773.49
458.74	10860.09
458.93	10963.07
459.11	10846.04
459.29	10729.02
459.48	10902.22
459.66	11080.10
459.84	11122.23
460.03	11211.17
460.21	11147.97
460.39	11140.95
460.57	11133.93
460.76	11225.21
460.94	11180.74
461.12	11269.68
461.31	11136.27
461.49	11417.13
461.67	11190.10
461.85	11393.73
462.04	11520.12
462.22	11901.62
462.40	11761.19
462.59	11641.82
462.77	11892.26
462.95	11782.26
463.13	11808.00
463.32	11566.93
463.50	11929.71
463.68	11981.20
463.86	11908.65
464.05	11946.09
464.23	11864.18
464.41	12334.62
464.59	11983.54
464.78	12198.87
464.96	12049.08
465.14	12009.29
465.32	12336.96
465.50	12086.53
465.69	12461.01
465.87	12283.13
466.05	12318.24
466.23	12147.38
466.41	12397.82
466.60	12624.85
466.78	12088.87
466.96	12173.13
467.14	12503.14
467.32	12620.17
467.51	12706.77
467.69	12264.41
467.87	12552.29
468.05	12734.85
468.23	12549.95
468.41	12528.89
468.60	12610.81
468.78	13116.36
468.96	12681.02
469.14	13177.22
469.32	13158.49
469.50	12875.29
469.69	13004.02
469.87	13291.90
470.05	13263.82
470.23	13525.96
470.41	13343.39
470.59	13460.42
470.77	13455.74
470.95	13472.12
471.14	13867.67
471.32	13488.51
471.50	13462.76
471.68	13638.30
471.86	13626.60
472.04	13984.70
472.22	14303.01
472.40	13645.32
472.58	14148.54
472.77	14176.62
472.95	14349.82
473.13	14654.09
473.31	14101.73
473.49	14164.92
473.67	14237.48
473.85	14541.75
474.03	15049.64
474.21	14874.10
474.39	15056.67
474.57	14661.12
474.75	14979.43
474.93	15180.71
475.12	15152.63
475.30	15374.98
475.48	15269.66
475.66	15536.48
475.84	15302.42
476.02	15578.61
476.20	15726.06
476.38	15824.36
476.56	16180.12
476.74	15850.11
476.92	15770.53
477.10	15740.10
477.28	16255.02
477.46	16507.80
477.64	16669.30
477.82	16783.98
478.00	17156.13
478.18	17025.06
478.36	17132.72
478.54	17259.11
478.72	17378.48
478.90	17678.07
479.08	17816.16
479.26	17994.04
479.44	17752.96
479.62	18068.94
479.80	18125.11
479.98	18405.97
480.16	19030.90
480.34	18792.16
480.52	19007.49
480.70	19098.77
480.88	18625.98
481.06	19133.88
481.24	18937.27
481.41	19281.33
481.59	19529.43
481.77	19548.15
481.95	19992.86
482.13	20095.84
482.31	20107.54
482.49	20814.38
482.67	20407.13
482.85	20835.45
483.03	20957.16
483.21	21324.62
483.39	21167.80
483.57	20807.36
483.74	21186.53
483.92	21942.52
484.10	21764.64
484.28	21891.03
484.46	22225.73
484.64	22499.57
484.82	22572.13
485.00	22609.58
485.18	22897.46
485.35	23192.37
485.53	23077.68
485.71	23232.16
485.89	23749.42
486.07	23293.01
486.25	23777.50
486.43	23864.10
486.61	24142.63
486.78	24151.99
486.96	24393.06
487.14	24872.87
487.32	24924.36
487.50	25539.93
487.68	25116.29
487.85	25523.54
488.03	26202.30
488.21	26003.35
488.39	26235.06
488.57	26342.73
488.75	26485.50
488.92	26953.61
489.10	26834.24
489.28	27178.30
489.46	27623.00
489.64	27154.90
489.81	28074.73
489.99	27913.23
490.17	28023.23
490.35	28388.36
490.53	28751.14
490.70	28865.83
490.88	28905.62
491.06	28922.00
491.24	29252.02
491.41	29734.17
491.59	29731.83
491.77	29689.70
491.95	30232.70
492.13	30230.36
492.30	29975.24
492.48	30309.94
492.66	30679.74
492.84	30813.15
493.01	31082.31
493.19	31213.38
493.37	31349.14
493.54	31489.57
493.72	31854.69
493.90	31850.01
494.08	32032.57
494.25	32514.72
494.43	32208.11
494.61	32905.59
494.79	32978.15
494.96	32795.59
495.14	33212.20
495.32	32964.10
495.49	33401.79
495.67	34029.05
495.85	34082.88
496.02	34387.15
496.20	34625.89
496.38	34249.06
496.55	34937.18
496.73	35283.58
496.91	35480.18
497.09	35433.37
497.26	35281.24
497.44	35321.02
497.62	36058.29
497.79	36329.80
497.97	35821.90
498.14	36460.87
498.32	36580.23
498.50	36383.63
498.67	37069.40
498.85	36835.35
499.03	37139.62
499.20	37151.32
499.38	37329.20
499.56	37586.66
499.73	38029.02
499.91	37928.38
500.08	38178.82
500.26	38176.48
500.44	38059.45
500.61	38424.57
500.79	38391.81
500.97	38394.15
501.14	39253.12
501.32	38885.66
501.49	39037.80
501.67	39402.92
501.84	39250.78
502.02	39126.74
502.20	39786.77
502.37	39770.38
502.55	39896.77
502.72	39709.53
502.90	40287.64
503.07	40130.83
503.25	40708.94
503.43	40252.53
503.60	40126.14
503.78	40856.39
503.95	40802.56
504.13	41256.62
504.30	41041.29
504.48	40589.57
504.65	41397.06
504.83	41729.41
505.01	41741.11
505.18	42148.37
505.36	42136.66
505.53	41867.50
505.71	42239.65
505.88	42443.27
506.06	41797.29
506.23	42476.04
506.41	42501.79
506.58	42941.81
506.76	42527.53
506.93	43414.60
507.11	42686.69
507.28	43388.85
507.46	42988.62
507.63	43950.58
507.81	43625.25
507.98	43814.83
508.16	43636.95
508.33	43845.26
508.50	44002.07
508.68	44046.54
508.85	44240.81
509.03	44107.40
509.20	44676.15
509.38	44945.31
509.55	44767.43
509.73	44612.95
509.90	45207.45
510.08	45366.60
510.25	45125.53
510.42	45038.93
510.60	45523.42
510.77	45837.05
510.95	46206.86
511.12	45591.30
511.30	45591.30
511.47	45972.80
511.64	45940.04
511.82	46593.04
511.99	46138.98
512.17	46588.36
512.34	46344.95
512.51	47180.52
512.69	47019.02
512.86	46609.43
513.04	46923.06
513.21	47342.02
513.38	47295.21
513.56	47327.97
513.73	47334.99
513.90	47260.10
514.08	46913.70
514.25	48205.67
514.43	47817.14
514.60	48051.20
514.77	47789.06
514.95	48020.77
515.12	47782.04
515.29	48200.99
515.47	48460.79
515.64	48641.01
515.81	48545.05
515.99	48989.75
516.16	48910.17
516.33	48542.71
516.51	49043.59
516.68	49069.33
516.85	48987.41
517.03	49551.48
517.20	49581.91
517.37	49090.40
517.54	49757.45
517.72	49394.67
517.89	49757.45
518.06	49642.76
518.24	49584.25
518.41	49696.59
518.58	49680.21
518.75	49811.28
518.93	50035.97
519.10	50075.76
519.27	50148.32
519.45	50227.90
519.62	50202.15
519.79	50391.73
519.96	50583.66
520.14	50478.33
520.31	50464.29
520.48	50986.23
520.65	50658.56
520.83	51243.69
521.00	51129.00
521.17	51077.51
521.34	51131.34
521.52	51210.92
521.69	51114.96
521.86	51503.49
522.03	51618.17
522.20	51487.10
522.38	51814.78
522.55	51885.00
522.72	51739.88
522.89	51943.51
523.07	52233.74
523.24	51847.55
523.41	52261.82
523.58	51573.70
523.75	52474.81
523.92	52444.38
524.10	52486.51
524.27	52383.53
524.44	52254.80
524.61	52610.56
524.78	52507.58
524.96	52472.47
525.13	52809.51
525.30	52940.58
525.47	53001.43
525.64	52610.56
525.81	53282.30
525.98	53102.07
526.16	53214.42
526.33	53092.71
526.50	53226.12
526.67	52959.30
526.84	53443.79
527.01	53291.66
527.18	53406.34
527.36	53116.12
527.53	53602.95
527.70	53635.72
527.87	53815.94
528.04	53593.59
528.21	53677.85
528.38	53736.36
528.55	53890.83
528.72	53851.05
528.89	53642.74
529.07	53848.71
529.24	53689.55
529.41	54185.74
529.58	53984.46
529.75	53755.08
529.92	54227.87
530.09	54272.34
530.26	54225.53
530.43	54494.69
530.60	54167.02
530.77	54365.96
530.94	54422.14
531.11	54349.58
531.28	54417.46
531.46	54703.00
531.63	54810.67
531.80	54585.97
531.97	54848.11
532.14	55192.17
532.31	54777.90
532.48	55351.33
532.65	54901.95
532.82	54756.83
532.99	55246.00
533.16	54953.44
533.33	55042.38
533.50	55147.70
533.67	55302.18
533.84	55133.66
534.01	55217.92
534.18	55461.33
534.35	55484.74
534.52	55470.70
534.69	55421.55
534.86	55875.61
535.03	55367.71
535.20	55531.55
535.37	55632.19
535.54	55859.23
535.71	55461.33
535.88	55641.56
536.05	55929.44
536.22	55899.01
536.38	56119.02
536.55	56130.73
536.72	56142.43
536.89	55856.88
537.06	55894.33
537.23	56364.78
537.40	55973.91
537.57	56102.64
537.74	56245.41
537.91	56301.59
538.08	56086.26
538.25	55889.65
538.42	56294.56
538.59	56638.62
538.75	56205.62
538.92	56427.98
539.09	56484.15
539.26	56615.22
539.43	56420.95
539.60	56619.90
539.77	56584.79
539.94	56832.89
540.11	56746.29
540.28	56690.12
540.44	56938.21
540.61	56849.27
540.78	56643.30
540.95	56722.88
541.12	56676.07
541.29	56680.75
541.46	56956.94
541.62	56825.87
541.79	56917.15
541.96	56727.56
542.13	56830.55
542.30	57043.54
542.47	57073.96
542.63	57015.45
542.80	57195.67
542.97	57588.88
543.14	57719.95
543.31	57635.69
543.48	57581.86
543.64	57860.38
543.81	57546.75
543.98	57623.99
544.15	57701.23
544.32	57888.47
544.48	57914.22
544.65	57616.97
544.82	57434.41
544.99	57670.80
545.16	57628.67
545.32	57822.93
545.49	57986.77
545.66	58024.22
545.83	58007.84
546.00	57986.77
546.16	57949.32
546.33	58056.99
546.50	57956.35
546.67	58000.82
546.83	57989.11
547.00	58188.06
547.17	57989.11
547.34	58075.71
547.50	58262.96
547.67	58440.84
547.84	58269.98
548.00	58410.41
548.17	58642.12
548.34	58536.80
548.51	58604.67
548.67	58740.42
548.84	58454.88
549.01	58365.94
549.18	58438.50
549.34	58649.14
549.51	58609.35
549.68	58323.81
549.84	58728.72
550.01	58691.27
550.18	58717.02
550.34	58698.30
550.51	58878.52
550.68	58911.28
550.84	58674.89
551.01	58887.88
551.18	58904.26
551.34	58965.12
551.51	58897.24
551.68	58962.78
551.84	58855.11
552.01	58637.44
552.18	59030.65
552.34	58700.64
552.51	59016.61
552.68	59044.69
552.84	59105.55
553.01	59224.92
553.18	59276.41
553.34	59283.43
553.51	58969.80
553.67	59297.47
553.84	59058.74
554.01	59213.21
554.17	59299.81
554.34	59290.45
554.51	59231.94
554.67	59341.94
554.84	59213.21
555.00	59231.94
555.17	59365.35
555.33	59391.09
555.50	59201.51
555.67	59384.07
555.83	59533.87
556.00	59409.82
556.16	59664.94
556.33	59765.58
556.50	59587.70
556.66	59669.62
556.83	59344.28
556.99	59657.91
557.16	59636.85
557.32	59875.58
557.49	59854.52
557.65	59767.92
557.82	59550.25
557.98	59777.28
558.15	59700.04
558.32	59735.15
558.48	59583.02
558.65	59800.69
558.81	59845.16
558.98	59800.69
559.14	60067.51
559.31	59962.18
559.47	59788.98
559.64	60088.57
559.80	60039.42
559.97	60109.64
560.13	59955.16
560.30	59931.76
560.46	59929.42
560.63	59833.46
560.79	60076.87
560.96	60231.35
561.12	60001.97
561.29	60168.15
561.45	60133.04
561.61	60144.75
561.78	60130.70
561.94	60292.20
562.11	60339.01
562.27	60264.11
562.44	60280.50
562.60	60327.31
562.77	60308.58
562.93	59966.87
563.10	60357.74
563.26	60130.70
563.42	60795.42
563.59	60144.75
563.75	60360.08
563.92	60310.92
564.08	60252.41
564.24	60573.06
564.41	60439.65
564.57	60566.04
564.74	60465.40
564.90	60470.08
565.07	60434.97
565.23	60402.21
565.39	60427.95
565.56	60460.72
565.72	60488.80
565.88	60509.87
566.05	60537.96
566.21	60610.51
566.38	60346.03
566.54	60559.02
566.70	60603.49
566.87	60793.07
567.03	60439.65
567.19	60708.82
567.36	60750.94
567.52	60647.96
567.68	60879.67
567.85	60624.56
568.01	60643.28
568.17	60764.99
568.34	60638.60
568.50	60568.38
568.66	60472.42
568.83	60591.79
568.99	60697.11
569.15	60519.23
569.32	60526.25
569.48	60474.76
569.64	60954.57
569.81	60760.31
569.97	60608.17
570.13	60692.43
570.30	60837.54
570.46	60823.50
570.62	60851.59
570.78	60587.11
570.95	60804.78
571.11	61069.26
571.27	60706.47
571.43	60823.50
571.60	60959.25
571.76	60727.54
571.92	61052.87
572.09	61010.74
572.25	60874.99
572.41	60863.29
572.57	60903.08
572.74	61354.80
572.90	60891.38
573.06	60835.20
573.22	60956.91
573.38	60804.78
573.55	61041.17
573.71	61024.79
573.87	60889.04
574.03	60793.07
574.20	60926.49
574.36	60926.49
574.52	60900.74
574.68	61071.60
574.84	61013.08
575.01	61207.35
575.17	60905.42
575.33	60982.66
575.49	61071.60
575.65	60989.68
575.82	61158.20
575.98	61106.71
576.14	61165.22
576.30	61137.13
576.46	61153.52
576.62	61034.15
576.79	61113.73
576.95	60963.93
577.11	61268.20
577.27	61205.01
577.43	61146.50
577.59	61226.07
577.75	61066.92
577.92	60874.99
578.08	61080.96
578.24	60905.42
578.40	61221.39
578.56	61244.80
578.72	61197.99
578.88	61233.10
579.04	61439.06
579.21	61038.83
579.37	61212.03
579.53	61467.15
579.69	61123.09
579.85	61078.62
580.01	61293.95
580.17	61062.24
580.33	61277.57
580.49	61165.22
580.65	61087.98
580.82	61045.85
580.98	61134.79
581.14	60926.49
581.30	61256.50
581.46	61228.41
581.62	61439.06
581.78	61174.58
581.94	61296.29
582.10	61258.84
582.26	61230.75
582.42	61167.56
582.58	61233.10
582.74	61242.46
582.90	61237.78
583.06	61134.79
583.22	61186.28
583.38	61202.67
583.54	61197.99
583.70	61176.92
583.86	61268.20
584.02	61109.05
584.18	61174.58
584.34	61322.04
584.50	61485.87
584.66	61109.05
584.82	61106.71
584.98	61324.38
585.14	61307.99
585.30	61165.22
585.46	61371.19
585.62	61352.46
585.78	61394.59
585.94	61205.01
586.10	61418.00
586.26	61212.03
586.42	61432.04
586.58	61396.93
586.74	61228.41
586.90	61319.70
587.06	61289.27
587.22	61357.14
587.38	61272.88
587.54	61434.38
587.70	61385.23
587.86	61532.68
588.02	61410.98
588.18	61551.41
588.34	61233.10
588.49	61586.52
