SpectraSuite Data File
++++++++++++++++++++++++++++++++++++
Date: Fri Oct 25 11:33:20 EDT 2013
User: price-jones
Dark Spectrum Present: No
Reference Spectrum Present: No
Number of Sampled Component Spectra: 1
Spectrometers: USB2+H05261
Integration Time (usec): 100000 (USB2+H05261)
Spectra Averaged: 1 (USB2+H05261)
Boxcar Smoothing: 0 (USB2+H05261)
Correct for Electrical Dark: No (USB2+H05261)
Strobe/Lamp Enabled: No (USB2+H05261)
Correct for Detector Non-linearity: No (USB2+H05261)
Correct for Stray Light: No (USB2+H05261)
Number of Pixels in Processed Spectrum: 2048
>>>>>Begin Processed Spectral Data<<<<<
365.73	271.50
365.92	271.50
366.12	271.50
366.32	278.52
366.52	187.24
366.72	189.58
366.91	203.63
367.11	208.31
367.31	147.45
367.51	168.52
367.70	182.56
367.90	187.24
368.10	166.18
368.30	145.11
368.49	166.18
368.69	234.05
368.89	245.76
369.09	292.57
369.28	205.97
369.48	191.92
369.68	205.97
369.87	241.08
370.07	255.12
370.27	266.82
370.47	306.61
370.66	472.79
370.86	559.39
371.06	575.77
371.25	594.50
371.45	524.28
371.65	550.03
371.84	554.71
372.04	559.39
372.24	596.84
372.44	573.43
372.63	559.39
372.83	550.03
373.03	592.16
373.22	622.58
373.42	575.77
373.62	664.71
373.81	671.73
374.01	709.18
374.21	748.97
374.40	627.26
374.60	690.46
374.79	716.20
374.99	603.86
375.19	697.48
375.38	690.46
375.58	664.71
375.78	709.18
375.97	676.41
376.17	685.78
376.37	645.99
376.56	777.06
376.76	657.69
376.95	692.80
377.15	683.44
377.35	681.10
377.54	692.80
377.74	685.78
377.93	723.23
378.13	674.07
378.33	704.50
378.52	706.84
378.72	704.50
378.91	748.97
379.11	716.20
379.31	805.14
379.50	765.36
379.70	786.42
379.89	807.48
380.09	763.01
380.28	704.50
380.48	758.33
380.68	732.59
380.87	744.29
381.07	709.18
381.26	755.99
381.46	781.74
381.65	763.01
381.85	718.54
382.04	772.38
382.24	781.74
382.43	854.30
382.63	739.61
382.83	816.85
383.02	781.74
383.22	795.78
383.41	791.10
383.61	744.29
383.80	835.57
384.00	809.83
384.19	800.46
384.39	828.55
384.58	727.91
384.78	821.53
384.97	828.55
385.17	884.72
385.36	821.53
385.56	812.17
385.75	795.78
385.95	854.30
386.14	905.79
386.34	840.25
386.53	842.59
386.72	807.48
386.92	940.90
387.11	851.96
387.31	873.02
387.50	905.79
387.70	926.85
387.89	973.66
388.09	912.81
388.28	926.85
388.48	936.21
388.67	973.66
388.86	950.26
389.06	868.34
389.25	919.83
389.45	884.72
389.64	901.11
389.84	1011.11
390.03	1011.11
390.22	842.59
390.42	973.66
390.61	994.73
390.81	985.37
391.00	1041.54
391.19	954.94
391.39	966.64
391.58	964.30
391.78	1034.52
391.97	994.73
392.16	966.64
392.36	1032.18
392.55	1048.56
392.75	1050.90
392.94	1039.20
393.13	1022.81
393.33	1062.60
393.52	1090.69
393.71	1097.71
393.91	1139.84
394.10	1128.14
394.29	1060.26
394.49	1198.35
394.68	1018.13
394.88	1093.03
395.07	1156.22
395.26	1139.84
395.46	1144.52
395.65	1177.29
395.84	1172.61
396.04	1219.42
396.23	1174.95
396.42	1299.00
396.62	1158.57
396.81	1207.72
397.00	1200.69
397.19	1263.89
397.39	1233.46
397.58	1247.51
397.77	1266.23
397.97	1212.40
398.16	1261.55
398.35	1294.32
398.55	1299.00
398.74	1362.19
398.93	1385.60
399.12	1373.89
399.32	1306.02
399.51	1329.42
399.70	1378.58
399.90	1392.62
400.09	1437.09
400.28	1366.87
400.47	1327.08
400.67	1392.62
400.86	1418.36
401.05	1357.51
401.24	1451.13
401.44	1488.58
401.63	1427.73
401.82	1420.71
402.01	1514.33
402.21	1474.54
402.40	1420.71
402.59	1514.33
402.78	1425.39
402.97	1537.73
403.17	1556.46
403.36	1563.48
403.55	1530.71
403.74	1556.46
403.93	1694.55
404.13	1617.31
404.32	1582.20
404.51	1614.97
404.70	1600.93
404.89	1598.59
405.09	1614.97
405.28	1689.87
405.47	1661.78
405.66	1633.69
405.85	1785.83
406.05	1696.89
406.24	1757.74
406.43	1750.72
406.62	1776.47
406.81	1823.28
407.00	1783.49
407.20	1771.79
407.39	1842.00
407.58	1863.07
407.77	1872.43
407.96	1933.28
408.15	2015.20
408.34	1902.86
408.54	1980.09
408.73	1839.66
408.92	1989.46
409.11	2040.95
409.30	1982.43
409.49	2064.35
409.68	2071.37
409.87	1963.71
410.07	2038.61
410.26	2022.22
410.45	2071.37
410.64	2078.40
410.83	2132.23
411.02	2066.69
411.21	2127.55
411.40	2076.06
411.59	2251.60
411.78	2181.38
411.98	2202.44
412.17	2232.87
412.36	2190.74
412.55	2314.79
412.74	2317.13
412.93	2392.03
413.12	2356.92
413.31	2422.45
413.50	2480.97
413.69	2380.32
413.88	2443.52
414.07	2546.50
414.26	2471.61
414.45	2614.38
414.64	2546.50
414.83	2586.29
415.02	2487.99
415.22	2658.85
415.41	2705.66
415.60	2698.64
415.79	2705.66
415.98	2750.13
416.17	2712.68
416.36	2691.62
416.55	2700.98
416.74	2752.47
416.93	2775.88
417.12	2925.67
417.31	2815.66
417.50	2951.42
417.69	3030.99
417.88	2923.33
418.07	2909.29
418.26	3080.14
418.45	2928.01
418.64	3087.17
418.83	3040.36
419.02	3124.62
419.21	3136.32
419.39	3101.21
419.58	3131.64
419.77	2979.50
419.96	3169.09
420.15	3133.98
420.34	3185.47
420.53	3169.09
420.72	3255.69
420.91	3251.00
421.10	3328.24
421.29	3311.86
421.48	3297.81
421.67	3393.78
421.86	3283.77
422.05	3344.63
422.24	3178.45
422.43	3358.67
422.61	3419.52
422.80	3531.87
422.99	3424.20
423.18	3365.69
423.37	3361.01
423.56	3417.18
423.75	3382.07
423.94	3398.46
424.13	3049.72
424.32	3330.58
424.50	3424.20
424.69	3559.95
424.88	3709.75
425.07	3424.20
425.26	3276.75
425.45	3475.70
425.64	3454.63
425.83	3274.41
426.01	3609.11
426.20	3562.30
426.39	3403.14
426.58	3576.34
426.77	3641.87
426.96	3611.45
427.15	3611.45
427.33	3524.85
427.52	3489.74
427.71	3688.68
427.90	3578.68
428.09	3744.86
428.28	3667.62
428.46	3712.09
428.65	3691.02
428.84	3758.90
429.03	3798.69
429.22	3840.82
429.40	3789.33
429.59	3700.39
429.78	3768.26
429.97	3655.92
430.16	3775.28
430.34	3878.27
430.53	3838.48
430.72	3946.14
430.91	3969.55
431.10	3817.41
431.28	3922.74
431.47	4044.45
431.66	4011.68
431.85	3964.87
432.03	4035.08
432.22	4301.90
432.41	3981.25
432.60	4049.13
432.79	3978.91
432.97	4203.60
433.16	4016.36
433.35	4283.18
433.54	4098.28
433.72	4262.12
433.91	4173.18
434.10	4124.02
434.28	4131.05
434.47	4322.97
434.66	4332.33
434.85	4402.55
435.03	4386.16
435.22	4395.53
435.41	4428.29
435.59	4454.04
435.78	4306.59
435.97	4498.51
436.16	4393.19
436.34	4514.89
436.53	4596.81
436.72	4617.88
436.90	4358.08
437.09	4470.42
437.28	4622.56
437.46	4477.44
437.65	4697.46
437.84	4681.07
438.02	4458.72
438.21	4638.94
438.40	4468.08
438.58	4678.73
438.77	4840.23
438.96	4875.34
439.14	4774.69
439.33	5116.41
439.52	4959.60
439.70	5048.54
439.89	5041.51
440.08	5076.62
440.26	5034.49
440.45	5111.73
440.63	5235.78
440.82	5268.55
441.01	5252.16
441.19	5224.08
441.38	5294.29
441.57	5287.27
441.75	5256.84
441.94	5423.02
442.12	5408.98
442.31	5542.39
442.50	5549.41
442.68	5427.70
442.87	5406.64
443.05	5495.58
443.24	5638.35
443.43	5614.95
443.61	5729.63
443.80	5781.12
443.98	5551.75
444.17	5343.44
444.35	5509.62
444.54	5497.92
444.73	5511.96
444.91	5636.01
445.10	5746.02
445.28	5767.08
445.47	5530.69
445.65	5521.32
445.84	5678.14
446.02	5696.86
446.21	5692.18
446.39	5762.40
446.58	5643.03
446.77	5734.31
446.95	5657.07
447.14	5853.68
447.32	5891.13
447.51	5804.53
447.69	5703.89
447.88	5795.17
448.06	5816.23
448.25	5757.72
448.43	5921.56
448.62	5982.41
448.80	5942.62
448.99	6026.88
449.17	6059.65
449.36	5919.21
449.54	6069.01
449.73	6188.38
449.91	6155.61
450.10	6118.16
450.28	6284.34
450.46	6272.64
450.65	6202.42
450.83	6132.20
451.02	6190.72
451.20	6204.76
451.39	6150.93
451.57	6195.40
451.76	6286.68
451.94	6179.01
452.13	6333.49
452.31	6389.66
452.49	6356.90
452.68	6239.87
452.86	6441.15
453.05	6359.24
453.23	6490.31
453.42	6448.18
453.60	6384.98
453.78	6630.74
453.97	6520.73
454.15	6527.75
454.34	6326.47
454.52	6682.23
454.70	6640.10
454.89	6740.74
455.07	6590.95
455.26	6785.21
455.44	6853.09
455.62	6715.00
455.81	6595.63
455.99	6787.55
456.17	6771.17
456.36	6918.62
456.54	6995.86
456.73	6651.80
456.91	7122.25
457.09	7124.59
457.28	7117.57
457.46	7068.42
457.64	7229.91
457.83	7150.34
458.01	7063.74
458.19	7283.75
458.38	7279.07
458.56	7222.89
458.74	7187.79
458.93	7358.64
459.11	7295.45
459.29	7236.94
459.48	7494.40
459.66	7349.28
459.84	7489.71
460.03	7644.19
460.21	7508.44
460.39	7412.48
460.57	7562.27
460.76	7716.75
460.94	7655.89
461.12	7438.22
461.31	7494.40
461.49	7712.07
461.67	7576.31
461.85	7665.25
462.04	7571.63
462.22	8030.38
462.40	7826.75
462.59	7915.69
462.77	7831.43
462.95	7971.86
463.13	7981.23
463.32	7819.73
463.50	7861.86
463.68	7906.33
463.86	8035.06
464.05	7801.01
464.23	7730.79
464.41	7885.26
464.59	7983.57
464.78	8051.44
464.96	8053.78
465.14	7880.58
465.32	8224.64
465.50	8273.79
465.69	8112.30
465.87	8116.98
466.05	8222.30
466.23	8336.99
466.41	8248.05
466.60	8379.12
466.78	8229.32
466.96	8229.32
467.14	8210.60
467.32	8439.97
467.51	8472.74
467.69	8159.11
467.87	8430.61
468.05	8608.49
468.23	8271.45
468.41	8318.26
468.60	8535.93
468.78	8587.43
468.96	8538.27
469.14	8573.38
469.32	8681.05
469.50	8709.13
469.69	8868.29
469.87	8702.11
470.05	8732.54
470.23	8737.22
470.41	8957.23
470.59	8964.25
470.77	8933.82
470.95	9095.32
471.14	9210.01
471.32	8835.52
471.50	9128.09
471.68	9088.30
471.86	9207.67
472.04	9254.48
472.22	9390.23
472.40	9275.54
472.58	9359.80
472.77	9284.91
472.95	9453.42
473.13	9675.77
473.31	9394.91
473.49	9430.02
473.67	9549.39
473.85	9701.52
474.03	9741.31
474.21	9675.77
474.39	9696.84
474.57	9851.31
474.75	9813.87
474.93	10031.54
475.12	9863.02
475.30	9966.00
475.48	10164.95
475.66	10214.10
475.84	10092.39
476.02	10366.23
476.20	10583.90
476.38	10443.47
476.56	10827.32
476.74	10534.75
476.92	10630.71
477.10	10588.58
477.28	10829.66
477.46	10778.17
477.64	11016.90
477.82	11042.65
478.00	11403.09
478.18	11318.83
478.36	11190.10
478.54	11494.37
478.72	11433.52
478.90	11419.47
479.08	11646.51
479.26	11992.90
479.44	11971.84
479.62	11836.09
479.80	11981.20
479.98	12138.02
480.16	12446.97
480.34	12123.98
480.52	12226.96
480.70	12620.17
480.88	12449.31
481.06	12578.04
481.24	12685.70
481.41	12884.65
481.59	13074.23
481.77	12767.62
481.95	12912.74
482.13	13247.43
482.31	13104.66
482.49	13657.03
482.67	13359.78
482.85	13525.96
483.03	13729.58
483.21	14005.77
483.39	13947.25
483.57	13867.67
483.74	14101.73
483.92	14286.63
484.10	13937.89
484.28	14576.86
484.46	14651.75
484.64	14920.92
484.82	14778.14
485.00	14862.40
485.18	14864.74
485.35	15180.71
485.53	15250.93
485.71	15169.01
485.89	15733.08
486.07	15627.76
486.25	15569.24
486.43	15775.21
486.61	15810.32
486.78	16135.65
486.96	16088.84
487.14	16095.86
487.32	16119.27
487.50	16325.24
487.68	16613.12
487.85	16748.87
488.03	16992.29
488.21	17062.51
488.39	17097.61
488.57	17167.83
488.75	17380.82
488.92	17530.61
489.10	17668.70
489.28	17661.68
489.46	17804.46
489.64	17975.31
489.81	18394.27
489.99	18218.73
490.17	18302.99
490.35	18523.00
490.53	18513.64
490.70	18981.74
490.88	19033.24
491.06	18995.79
491.24	19009.83
491.41	19005.15
491.59	19384.32
491.77	19342.19
491.95	19597.31
492.13	19716.67
492.30	19817.32
492.48	19887.53
492.66	20243.29
492.84	19988.18
493.01	20292.44
493.19	20240.95
493.37	20517.14
493.54	20613.10
493.72	20734.81
493.90	20938.43
494.08	21067.16
494.25	21109.29
494.43	21029.71
494.61	21441.65
494.79	21678.04
494.96	21521.23
495.14	21546.97
495.32	21809.11
495.49	21792.73
495.67	21834.86
495.85	22415.31
496.02	22169.55
496.20	22794.48
496.38	22712.56
496.55	22508.93
496.73	23159.60
496.91	22899.80
497.09	22923.21
497.26	22934.91
497.44	23047.26
497.62	23330.46
497.79	23363.23
497.97	23922.62
498.14	23601.96
498.32	23604.30
498.50	23768.14
498.67	23859.42
498.85	24297.10
499.03	24121.56
499.20	24123.90
499.38	24570.94
499.56	24765.21
499.73	24702.01
499.91	24957.13
500.08	24872.87
500.26	24919.68
500.44	24748.82
500.61	25123.31
500.79	25043.73
500.97	25263.74
501.14	25685.04
501.32	25280.13
501.49	25476.73
501.67	25741.21
501.84	25982.29
502.02	26148.46
502.20	25582.06
502.37	26019.74
502.55	25888.67
502.72	26050.16
502.90	26190.59
503.07	26134.42
503.25	26368.48
503.43	26092.29
503.60	26616.57
503.78	26630.62
503.95	26621.25
504.13	26724.24
504.30	26773.39
504.48	27173.62
504.65	26895.10
504.83	27168.94
505.01	27637.05
505.18	27482.57
505.36	27812.59
505.53	27538.74
505.71	27564.49
505.88	27929.61
506.06	27688.54
506.23	27992.81
506.41	27697.90
506.58	27653.43
506.76	27971.74
506.93	28423.47
507.11	28177.71
507.28	28559.22
507.46	28575.60
507.63	28652.84
507.81	28943.06
507.98	28690.29
508.16	28713.69
508.33	28809.65
508.50	28858.81
508.68	28891.57
508.85	29275.42
509.03	29312.87
509.20	29366.70
509.38	29687.36
509.55	29628.84
509.73	29605.44
509.90	29804.38
510.08	29596.07
510.25	29769.27
510.42	29703.74
510.60	30195.25
510.77	30106.31
510.95	30272.49
511.12	30274.83
511.30	29928.43
511.47	29996.31
511.64	30199.93
511.82	30565.06
511.99	30389.52
512.17	30941.88
512.34	30602.50
512.51	31129.12
512.69	31194.66
512.86	31138.49
513.04	31302.32
513.21	31428.71
513.38	31309.35
513.56	31447.44
513.73	31349.14
513.90	31398.29
514.08	31601.91
514.25	31630.00
514.43	31718.94
514.60	31910.86
514.77	32334.50
514.95	32095.77
515.12	31889.80
515.29	32084.06
515.47	32430.46
515.64	32465.57
515.81	32063.00
515.99	32481.95
516.16	32708.99
516.33	32648.13
516.51	33055.39
516.68	32795.59
516.85	32680.90
517.03	33053.05
517.20	32828.35
517.37	32907.93
517.54	33099.86
517.72	33191.14
517.89	33425.19
518.06	33523.49
518.24	33240.29
518.41	33139.65
518.58	33659.24
518.75	33064.75
518.93	33706.05
519.10	33792.65
519.27	34080.54
519.45	34061.82
519.62	34333.32
519.79	34321.62
519.96	33900.32
520.14	34459.71
520.31	34185.86
520.48	34279.49
520.65	34054.79
520.83	34925.47
521.00	34899.73
521.17	34677.38
521.34	34988.67
521.52	34611.84
521.69	34646.95
521.86	34998.03
522.03	34866.96
522.20	35297.62
522.38	35269.53
522.55	35377.20
522.72	35388.90
522.89	35700.19
523.07	35754.02
523.24	35938.93
523.41	35543.38
523.58	35314.00
523.75	35512.95
523.92	35768.07
524.10	36147.23
524.27	35917.86
524.44	35917.86
524.61	36051.27
524.78	36350.86
524.96	36418.74
525.13	36521.72
525.30	36355.54
525.47	36636.41
525.64	36549.81
525.81	36837.69
525.98	36458.52
526.16	36776.84
526.33	36891.52
526.50	36884.50
526.67	36500.65
526.84	36840.03
527.01	36905.57
527.18	37099.83
527.36	37336.23
527.53	37071.75
527.70	37820.72
527.87	37687.31
528.04	37429.85
528.21	37572.62
528.38	37043.66
528.55	37376.01
528.72	37645.18
528.89	37467.30
529.07	37308.14
529.24	37553.90
529.41	37811.35
529.58	38092.22
529.75	37816.04
529.92	38225.63
530.09	38026.68
530.26	38003.28
530.43	38391.81
530.60	37673.26
530.77	38155.41
530.94	38347.34
531.11	38293.50
531.28	38696.08
531.46	38337.98
531.63	38188.18
531.80	38527.56
531.97	38768.63
532.14	38665.65
532.31	38789.70
532.48	38998.01
532.65	39330.36
532.82	38824.81
532.99	39229.72
533.16	38848.21
533.33	39005.03
533.50	38845.87
533.67	39152.48
533.84	38366.06
534.01	39253.12
534.18	39416.96
534.35	39590.16
534.52	39580.80
534.69	39538.67
534.86	39552.71
535.03	39555.05
535.20	39770.38
535.37	39812.51
535.54	39896.77
535.71	39655.70
535.88	39854.64
536.05	40058.27
536.22	40107.42
536.38	40203.38
536.55	39957.63
536.72	39966.99
536.89	40254.87
537.06	40250.19
537.23	40568.51
537.40	40273.60
537.57	40381.26
537.74	40566.16
537.91	40678.51
538.08	40318.07
538.25	40474.88
538.42	40467.86
538.59	40678.51
538.75	40432.75
538.92	40961.72
539.09	40933.63
539.26	40947.67
539.43	40910.22
539.60	40556.80
539.77	41146.62
539.94	41193.43
540.11	41209.81
540.28	40847.03
540.44	40769.79
540.61	41237.90
540.78	40947.67
540.95	41486.00
541.12	41198.11
541.29	41191.09
541.46	41415.78
541.62	42029.00
541.79	41565.57
541.96	41172.36
542.13	41596.00
542.30	41631.11
542.47	42000.91
542.63	41478.97
542.80	41654.51
542.97	42087.51
543.14	42574.34
543.31	41865.16
543.48	42330.93
543.64	42616.47
543.81	42356.67
543.98	42644.56
544.15	42237.31
544.32	42487.74
544.48	42782.65
544.65	42609.45
544.82	42515.83
544.99	42511.15
545.16	42899.68
545.32	42539.24
545.49	42974.58
545.66	43601.84
545.83	43072.88
546.00	42801.38
546.16	42848.19
546.33	43093.94
546.50	42871.59
546.67	43288.21
546.83	42614.13
547.00	43110.33
547.17	42953.51
547.34	42899.68
547.50	43236.72
547.67	43831.21
547.84	43065.86
548.00	43707.16
548.17	43831.21
548.34	43459.07
548.51	43868.66
548.67	43945.90
548.84	43540.99
549.01	43409.92
549.18	43688.44
549.34	43903.77
549.51	43758.66
549.68	43882.70
549.84	43798.44
550.01	44060.58
550.18	44126.12
550.34	43681.42
550.51	43793.76
550.68	44315.70
550.84	43943.56
551.01	44390.60
551.18	43973.98
551.34	43810.15
551.51	43927.17
551.68	44264.21
551.84	44325.07
552.01	44126.12
552.18	44470.18
552.34	44245.49
552.51	44626.99
552.68	44201.02
552.84	44060.58
553.01	44629.34
553.18	44198.68
553.34	44849.35
553.51	44823.60
553.67	44435.07
553.84	44875.09
554.01	44725.30
554.17	44601.25
554.34	45102.12
554.51	44802.53
554.67	45118.51
554.84	44835.30
555.00	45118.51
555.17	44802.53
555.33	45045.95
555.50	45200.43
555.67	45336.18
555.83	45270.64
556.00	45504.70
556.16	45373.63
556.33	45387.67
556.50	45162.98
556.66	45081.06
556.83	45289.37
556.99	45209.79
557.16	45769.18
557.32	45551.51
557.49	45193.40
557.65	45345.54
557.82	45670.87
557.98	45509.38
558.15	45757.47
558.32	45556.19
558.48	45277.66
558.65	45710.66
558.81	45818.33
558.98	45722.37
559.14	45687.26
559.31	45607.68
559.47	45633.42
559.64	46045.36
559.80	45633.42
559.97	45879.18
560.13	45544.48
560.30	45886.20
560.46	46344.95
560.63	46176.43
560.79	45815.99
560.96	46211.54
561.12	45937.69
561.29	46068.76
561.45	45893.22
561.61	46256.01
561.78	46263.03
561.94	46223.24
562.11	46054.72
562.27	46024.29
562.44	46089.83
562.60	46520.49
562.77	46277.07
562.93	45851.09
563.10	46206.86
563.26	46476.02
563.42	46934.76
563.59	46564.96
563.75	46171.75
563.92	45970.46
564.08	46270.05
564.24	46227.92
564.41	46536.87
564.57	46532.19
564.74	46703.05
564.90	46621.13
565.07	46469.00
565.23	46710.07
565.39	46499.42
565.56	46972.21
565.72	46583.68
565.88	46705.39
566.05	46583.68
566.21	46553.26
566.38	46562.62
566.54	46681.98
566.70	46546.23
566.87	46564.96
567.03	46618.79
567.19	46752.20
567.36	46953.49
567.52	46700.71
567.68	47112.64
567.85	46597.73
568.01	47234.35
568.17	46703.05
568.34	47004.98
568.50	46937.10
568.66	46473.68
568.83	47306.91
568.99	46550.91
569.15	47150.09
569.32	46829.44
569.48	46927.74
569.64	47395.85
569.81	47215.63
569.97	46735.82
570.13	47248.39
570.30	46841.14
570.46	46777.95
570.62	47047.11
570.78	46969.87
570.95	46958.17
571.11	47138.39
571.27	47196.90
571.43	46529.85
571.60	47267.12
571.76	47208.61
571.92	47051.79
572.09	46850.50
572.25	47164.14
572.41	47201.58
572.57	46864.55
572.74	47622.88
572.90	46930.08
573.06	47023.70
573.22	47292.86
573.38	47777.36
573.55	47517.56
573.71	47840.55
573.87	47330.31
574.03	47318.61
574.20	47676.71
574.36	47246.05
574.52	47461.38
574.68	47526.92
574.84	47430.96
575.01	47688.42
575.17	47344.36
575.33	47311.59
575.49	47477.77
575.65	47512.88
575.82	47386.49
575.98	47063.49
576.14	47374.78
576.30	47992.68
576.46	47356.06
576.62	47220.31
576.79	47538.62
576.95	46857.52
577.11	47224.99
577.27	47416.91
577.43	47906.08
577.59	47611.18
577.75	47250.74
577.92	47297.55
578.08	47175.84
578.24	47466.06
578.40	47618.20
578.56	47751.61
578.72	47393.51
578.88	48020.77
579.04	47407.55
579.21	47344.36
579.37	47646.29
579.53	47402.87
579.69	47285.84
579.85	47566.71
580.01	47627.56
580.17	47370.10
580.33	48137.80
580.49	47538.62
580.65	47753.95
580.82	47742.25
580.98	47330.31
581.14	47540.96
581.30	47730.54
581.46	47480.11
581.62	47398.19
581.78	47496.49
581.94	47995.03
582.10	47463.72
582.26	48175.25
582.42	47533.94
582.58	47571.39
582.74	47672.03
582.90	47737.57
583.06	47758.63
583.22	47634.58
583.38	48004.39
583.54	48105.03
583.70	47746.93
583.86	47669.69
584.02	47775.02
584.18	47971.62
584.34	47866.30
584.50	47969.28
584.66	47693.10
584.82	47875.66
584.98	47777.36
585.14	47917.79
585.30	47611.18
585.46	47739.91
585.62	47702.46
585.78	48271.21
585.94	47674.37
586.10	47775.02
586.26	47484.79
586.42	47430.96
586.58	47938.85
586.74	48107.37
586.90	47695.44
587.06	47721.18
587.22	47943.53
587.38	47540.96
587.54	48086.31
587.70	48341.42
587.86	48320.36
588.02	47950.56
588.18	47835.87
588.34	47583.09
588.49	47819.49
588.65	47688.42
588.81	48060.56
588.97	47901.40
589.13	47887.36
589.29	47917.79
589.45	48009.07
589.61	48006.73
589.77	48172.91
589.93	48165.88
590.08	48083.97
