SpectraSuite Data File
++++++++++++++++++++++++++++++++++++
Date: Fri Oct 25 10:48:25 EDT 2013
User: price-jones
Dark Spectrum Present: No
Reference Spectrum Present: No
Number of Sampled Component Spectra: 1
Spectrometers: USB2+H05261
Integration Time (usec): 100000 (USB2+H05261)
Spectra Averaged: 1 (USB2+H05261)
Boxcar Smoothing: 0 (USB2+H05261)
Correct for Electrical Dark: No (USB2+H05261)
Strobe/Lamp Enabled: No (USB2+H05261)
Correct for Detector Non-linearity: No (USB2+H05261)
Correct for Stray Light: No (USB2+H05261)
Number of Pixels in Processed Spectrum: 2048
>>>>>Begin Processed Spectral Data<<<<<
365.73	156.82
365.92	156.82
366.12	156.82
366.32	105.32
366.52	18.72
366.72	0.00
366.91	67.88
367.11	117.03
367.31	0.00
367.51	58.51
367.70	77.24
367.90	14.04
368.10	9.36
368.30	35.11
368.49	72.56
368.69	65.54
368.89	53.83
369.09	37.45
369.28	93.62
369.48	49.15
369.68	77.24
369.87	114.69
370.07	105.32
370.27	201.29
370.47	231.71
370.66	351.08
370.86	360.44
371.06	409.59
371.25	447.04
371.45	482.15
371.65	559.39
371.84	400.23
372.04	423.64
372.24	519.60
372.44	524.28
372.63	519.60
372.83	580.45
373.03	491.51
373.22	484.49
373.42	559.39
373.62	585.13
373.81	535.98
374.01	550.03
374.21	592.16
374.40	606.20
374.60	622.58
374.79	545.34
374.99	622.58
375.19	643.65
375.38	631.94
375.58	624.92
375.78	601.52
375.97	550.03
376.17	676.41
376.37	585.13
376.56	655.35
376.76	601.52
376.95	578.11
377.15	608.54
377.35	711.52
377.54	514.92
377.74	662.37
377.93	678.76
378.13	645.99
378.33	688.12
378.52	657.69
378.72	645.99
378.91	706.84
379.11	580.45
379.31	589.82
379.50	690.46
379.70	636.63
379.89	699.82
380.09	669.39
380.28	716.20
380.48	653.01
380.68	685.78
380.87	669.39
381.07	706.84
381.26	711.52
381.46	706.84
381.65	807.48
381.85	732.59
382.04	711.52
382.24	622.58
382.43	704.50
382.63	699.82
382.83	655.35
383.02	720.88
383.22	751.31
383.41	737.27
383.61	730.25
383.80	727.91
384.00	760.67
384.19	739.61
384.39	805.14
384.58	767.70
384.78	807.48
384.97	835.57
385.17	856.64
385.36	795.78
385.56	868.34
385.75	805.14
385.95	887.06
386.14	922.17
386.34	858.98
386.53	905.79
386.72	807.48
386.92	765.36
387.11	894.08
387.31	915.15
387.50	856.64
387.70	926.85
387.89	847.27
388.09	875.36
388.28	863.66
388.48	812.17
388.67	936.21
388.86	997.07
389.06	964.30
389.25	1053.24
389.45	1029.84
389.64	919.83
389.84	983.02
390.03	959.62
390.22	1050.90
390.42	1011.11
390.61	1043.88
390.81	1060.26
391.00	952.60
391.19	1128.14
391.39	1041.54
391.58	1048.56
391.78	1102.39
391.97	1043.88
392.16	1008.77
392.36	1139.84
392.55	1034.52
392.75	1001.75
392.94	1015.79
393.13	971.32
393.33	966.64
393.52	1111.75
393.71	1078.99
393.91	1034.52
394.10	1046.22
394.29	1086.01
394.49	1114.10
394.68	1163.25
394.88	1179.63
395.07	1172.61
395.26	1128.14
395.46	1207.72
395.65	1252.19
395.84	1165.59
396.04	1256.87
396.23	1259.21
396.42	1104.73
396.62	1217.08
396.81	1100.05
397.00	1221.76
397.19	1348.15
397.39	1275.59
397.58	1334.11
397.77	1259.21
397.97	1284.95
398.16	1383.26
398.35	1439.43
398.55	1294.32
398.74	1462.83
398.93	1439.43
399.12	1434.75
399.32	1373.89
399.51	1479.22
399.70	1446.45
399.90	1434.75
400.09	1488.58
400.28	1481.56
400.47	1493.26
400.67	1570.50
400.86	1577.52
401.05	1607.95
401.24	1650.08
401.44	1598.59
401.63	1575.18
401.82	1685.19
402.01	1661.78
402.21	1706.25
402.40	1675.82
402.59	1614.97
402.78	1696.89
402.97	1732.00
403.17	1699.23
403.36	1748.38
403.55	1699.23
403.74	1727.32
403.93	1830.30
404.13	1842.00
404.32	1851.36
404.51	1804.55
404.70	1797.53
404.89	1846.68
405.09	1739.02
405.28	1893.49
405.47	1930.94
405.66	1944.99
405.85	1881.79
406.05	1837.32
406.24	1846.68
406.43	1804.55
406.62	1961.37
406.81	1888.81
407.00	2031.58
407.20	1916.90
407.39	1982.43
407.58	1921.58
407.77	2033.93
407.96	2092.44
408.15	2214.15
408.34	2143.93
408.54	2176.70
408.73	2197.76
408.92	2207.13
409.11	2101.80
409.30	2165.00
409.49	2129.89
409.68	2155.63
409.87	2153.29
410.07	2223.51
410.26	2237.55
410.45	2366.28
410.64	2394.37
410.83	2359.26
411.02	2441.18
411.21	2375.64
411.40	2420.11
411.59	2438.84
411.78	2530.12
411.98	2455.22
412.17	2626.08
412.36	2506.71
412.55	2567.57
412.74	2614.38
412.93	2733.75
413.12	2609.70
413.31	2715.02
413.50	2757.15
413.69	2719.70
413.88	2775.88
414.07	2841.41
414.26	2794.60
414.45	2871.84
414.64	2834.39
414.83	2862.48
415.02	2995.89
415.22	3016.95
415.41	2937.37
415.60	2888.22
415.79	3117.59
415.98	3222.92
416.17	3066.10
416.36	3061.42
416.55	3070.78
416.74	3187.81
416.93	3215.90
417.12	3192.49
417.31	3082.49
417.50	3164.40
417.69	3466.33
417.88	3169.09
418.07	3251.00
418.26	3307.18
418.45	3515.48
418.64	3496.76
418.83	3414.84
419.02	3412.50
419.21	3513.14
419.39	3463.99
419.58	3454.63
419.77	3452.29
419.96	3623.15
420.15	3714.43
420.34	3501.44
420.53	3595.06
420.72	3576.34
420.91	3665.28
421.10	3583.36
421.29	3742.52
421.48	3590.38
421.67	3742.52
421.86	3707.41
422.05	3719.11
422.24	3618.47
422.43	3735.50
422.61	3592.72
422.80	3929.76
422.99	3768.26
423.18	3676.98
423.37	3798.69
423.56	3775.28
423.75	3796.35
423.94	3712.09
424.13	3471.01
424.32	3499.10
424.50	3761.24
424.69	3990.61
424.88	3950.82
425.07	3775.28
425.26	3791.67
425.45	3770.60
425.64	3742.52
425.83	3805.71
426.01	3908.69
426.20	3885.29
426.39	3779.97
426.58	3779.97
426.77	3721.45
426.96	3850.18
427.15	3826.78
427.33	3957.85
427.52	3885.29
427.71	4051.47
427.90	3953.16
428.09	3934.44
428.28	4016.36
428.46	4072.53
428.65	4030.40
428.84	4117.00
429.03	4215.30
429.22	4028.06
429.40	4079.55
429.59	4058.49
429.78	3810.39
429.97	3819.75
430.16	3913.38
430.34	4049.13
430.53	4011.68
430.72	4109.98
430.91	4201.26
431.10	4322.97
431.28	4400.21
431.47	4477.44
431.66	4449.36
431.85	4290.20
432.03	4482.13
432.22	4437.66
432.41	4337.01
432.60	4517.23
432.79	4447.02
432.97	4447.02
433.16	4528.94
433.35	4477.44
433.54	4542.98
433.72	4493.83
433.91	4470.42
434.10	4601.49
434.28	4678.73
434.47	4788.74
434.66	4784.06
434.85	4823.84
435.03	4826.18
435.22	4741.93
435.41	4884.70
435.59	4943.21
435.78	4940.87
435.97	4833.21
436.16	4844.91
436.34	4931.51
436.53	5029.81
436.72	5013.43
436.90	4915.12
437.09	4910.44
437.28	5043.85
437.46	4954.91
437.65	5055.56
437.84	5109.39
438.02	4959.60
438.21	5008.75
438.40	4826.18
438.58	5018.11
438.77	5266.21
438.96	5247.48
439.14	5397.28
439.33	5448.77
439.52	5399.62
439.70	5380.89
439.89	5376.21
440.08	5446.43
440.26	5535.37
440.45	5549.41
440.63	5586.86
440.82	5535.37
441.01	5617.29
441.19	5867.72
441.38	5841.98
441.57	5872.40
441.75	5888.79
441.94	6193.06
442.12	5956.66
442.31	6019.86
442.50	6113.48
442.68	5968.37
442.87	6113.48
443.05	6204.76
443.24	6146.25
443.43	6047.94
443.61	6230.51
443.80	6420.09
443.98	6148.59
444.17	5884.11
444.35	6218.80
444.54	6289.02
444.73	6431.79
444.91	6443.49
445.10	6179.01
445.28	6228.17
445.47	6155.61
445.65	6127.52
445.84	6263.27
446.02	6352.21
446.21	6303.06
446.39	6265.61
446.58	6373.28
446.77	6321.79
446.95	6197.74
447.14	6443.49
447.32	6443.49
447.51	6516.05
447.69	6408.39
447.88	6497.33
448.06	6476.26
448.25	6345.19
448.43	6368.60
448.62	6450.52
448.80	6303.06
448.99	6466.90
449.17	6583.93
449.36	6392.00
449.54	6623.72
449.73	6871.81
449.91	6822.66
450.10	6810.96
450.28	6862.45
450.46	6843.73
450.65	6979.48
450.83	6939.69
451.02	7047.35
451.20	7045.01
451.39	6972.46
451.57	7000.54
451.76	6888.20
451.94	6965.43
452.13	6995.86
452.31	7070.76
452.49	6942.03
452.68	6918.62
452.86	6939.69
453.05	7016.93
453.23	6960.75
453.42	7173.74
453.60	6942.03
453.78	7166.72
453.97	7094.16
454.15	7211.19
454.34	7187.79
454.52	7138.63
454.70	7258.00
454.89	7241.62
455.07	7307.15
455.26	7414.82
455.44	7410.14
455.62	7258.00
455.81	7473.33
455.99	7534.18
456.17	7475.67
456.36	7522.48
456.54	7616.10
456.73	7669.94
456.91	7934.42
457.09	7779.94
457.28	8138.04
457.46	7742.49
457.64	7908.67
457.83	7683.98
458.01	7693.34
458.19	8049.10
458.38	7976.55
458.56	8044.42
458.74	7953.14
458.93	7918.03
459.11	7999.95
459.29	7971.86
459.48	8063.15
459.66	7761.22
459.84	8138.04
460.03	8355.71
460.21	8257.41
460.39	8271.45
460.57	8065.49
460.76	8278.47
460.94	8336.99
461.12	8224.64
461.31	8294.86
461.49	8231.66
461.67	8154.43
461.85	8503.17
462.04	8273.79
462.22	8821.48
462.40	8645.94
462.59	8580.40
462.77	8510.19
462.95	8667.00
463.13	8601.47
463.32	8713.81
463.50	8709.13
463.68	8681.05
463.86	8634.24
464.05	8610.83
464.23	8585.08
464.41	8552.32
464.59	8891.70
464.78	9053.19
464.96	8861.27
465.14	8819.14
465.32	8961.91
465.50	8950.21
465.69	9027.45
465.87	8894.04
466.05	8847.22
466.23	8879.99
466.41	9102.34
466.60	8894.04
466.78	8683.39
466.96	9097.66
467.14	8997.02
467.32	9100.00
467.51	9254.48
467.69	9001.70
467.87	9163.20
468.05	9350.44
468.23	8924.46
468.41	9081.28
468.60	9235.75
468.78	9320.01
468.96	9217.03
469.14	9392.57
469.32	9305.97
469.50	9156.18
469.69	9238.09
469.87	9654.71
470.05	9401.93
470.23	9500.23
470.41	9355.12
470.59	9439.38
470.77	9647.69
470.95	9570.45
471.14	9727.27
471.32	9619.60
471.50	9987.07
471.68	9998.77
471.86	10015.15
472.04	10005.79
472.22	10076.01
472.40	9717.90
472.58	9980.04
472.77	10237.50
472.95	10141.54
473.13	10532.41
473.31	10171.97
473.49	10026.86
473.67	10244.52
473.85	10354.53
474.03	10506.66
474.21	10651.78
474.39	10640.08
474.57	10679.86
474.75	10462.19
474.93	10682.20
475.12	10839.02
475.30	10761.78
475.48	10939.66
475.66	10822.64
475.84	11061.37
476.02	10998.18
476.20	11056.69
476.38	11419.47
476.56	11351.60
476.74	11482.67
476.92	11351.60
477.10	11503.73
477.28	11573.95
477.46	11580.97
477.64	11763.53
477.82	11880.56
478.00	11925.03
478.18	12088.87
478.36	12039.72
478.54	12491.44
478.72	12332.28
478.90	12549.95
479.08	12407.18
479.26	12821.45
479.44	12613.15
479.62	12807.41
479.80	12973.59
479.98	12954.87
480.16	13310.63
480.34	13151.47
480.52	13046.15
480.70	13214.66
480.88	13195.94
481.06	13284.88
481.24	13444.04
481.41	13593.83
481.59	13884.06
481.77	13949.59
481.95	13743.63
482.13	14127.47
482.31	14169.60
482.49	14347.48
482.67	14265.57
482.85	14501.96
483.03	14867.08
483.21	14792.19
483.39	14911.55
483.57	14949.00
483.74	15264.97
483.92	14956.02
484.10	15066.03
484.28	15480.30
484.46	15618.39
484.64	16035.01
484.82	15779.89
485.00	15772.87
485.18	15585.63
485.35	15786.91
485.53	15709.68
485.71	15981.18
485.89	16348.64
486.07	15983.52
486.25	16395.45
486.43	16360.34
486.61	16720.79
486.78	16875.26
486.96	16985.27
487.14	17404.22
487.32	17202.94
487.50	17413.59
487.68	17380.82
487.85	17996.38
488.03	18143.83
488.21	18518.32
488.39	18146.17
488.57	18225.75
488.75	18260.86
488.92	18633.00
489.10	18675.13
489.28	18560.45
489.46	18941.96
489.64	19133.88
489.81	19651.14
489.99	19644.12
490.17	19613.69
490.35	19768.16
490.53	19702.63
490.70	20100.52
490.88	19924.98
491.06	20116.90
491.24	19962.43
491.41	19924.98
491.59	20376.70
491.77	20095.84
491.95	20161.37
492.13	20795.66
492.30	20847.15
492.48	20765.23
492.66	21350.37
492.84	21319.94
493.01	21486.12
493.19	21668.68
493.37	21469.73
493.54	21722.51
493.72	21916.78
493.90	21961.25
494.08	22134.45
494.25	22614.26
494.43	22614.26
494.61	22934.91
494.79	22747.67
494.96	22782.77
495.14	22614.26
495.32	23040.23
495.49	23183.01
495.67	23161.94
495.85	23414.72
496.02	23440.47
496.20	23922.62
496.38	24114.54
496.55	23871.12
496.73	24247.95
496.91	24093.47
497.09	24409.45
497.26	24308.80
497.44	24208.16
497.62	24554.56
497.79	25078.84
497.97	24671.59
498.14	25053.09
498.32	24774.57
498.50	24924.36
498.67	25149.06
498.85	25373.75
499.03	25656.95
499.20	25392.47
499.38	25593.76
499.56	25706.10
499.73	25795.04
499.91	25593.76
500.08	26176.55
500.26	25490.77
500.44	25954.20
500.61	26092.29
500.79	26326.35
500.97	26174.21
501.14	27012.12
501.32	26450.39
501.49	26590.83
501.67	26698.49
501.84	26831.90
502.02	26972.33
502.20	27068.30
502.37	27449.80
502.55	27084.68
502.72	26944.25
502.90	27447.46
503.07	27337.46
503.25	27445.12
503.43	27644.07
503.60	27456.82
503.78	27632.36
503.95	27587.89
504.13	27859.40
504.30	27681.52
504.48	27906.21
504.65	28343.89
504.83	28411.76
505.01	28849.44
505.18	28311.12
505.36	29193.50
505.53	28659.86
505.71	28383.68
505.88	29205.20
506.06	28580.28
506.23	28992.22
506.41	28744.12
506.58	28957.11
506.76	29333.93
506.93	29596.07
507.11	28994.56
507.28	29343.30
507.46	29383.09
507.63	29298.83
507.81	29951.84
507.98	29521.18
508.16	29603.10
508.33	29675.65
508.50	30017.37
508.68	29668.63
508.85	30333.34
509.03	30480.80
509.20	30363.77
509.38	30408.24
509.55	30536.97
509.73	30494.84
509.90	30787.41
510.08	30789.75
510.25	30967.63
510.42	30913.80
510.60	31044.87
510.77	31267.22
510.95	31257.85
511.12	31082.31
511.30	31737.66
511.47	31445.10
511.64	31847.67
511.82	31983.42
511.99	31608.93
512.17	31639.36
512.34	31899.16
512.51	31784.48
512.69	31964.70
512.86	32016.19
513.04	31952.99
513.21	32123.85
513.38	32325.14
513.56	32245.56
513.73	32151.94
513.90	32121.51
514.08	32247.90
514.25	32353.23
514.43	32507.70
514.60	32430.46
514.77	32814.31
514.95	33006.23
515.12	32645.79
515.29	33029.64
515.47	33446.26
515.64	33174.75
515.81	32964.10
515.99	33476.68
516.16	33057.73
516.33	33287.10
516.51	32727.71
516.68	32924.32
516.85	32917.29
517.03	33268.37
517.20	33127.94
517.37	33696.69
517.54	33745.84
517.72	33649.88
517.89	33640.52
518.06	33495.41
518.24	33820.74
518.41	33680.31
518.58	33708.40
518.75	34125.01
518.93	34122.67
519.10	34096.92
519.27	34749.93
519.45	34600.14
519.62	34918.45
519.79	34618.86
519.96	35040.16
520.14	35126.76
520.31	34775.68
520.48	35007.39
520.65	34686.74
520.83	35042.50
521.00	35402.94
521.17	35515.29
521.34	35522.31
521.52	34998.03
521.69	35800.83
521.86	35978.72
522.03	35304.64
522.20	35323.36
522.38	35618.27
522.55	35887.43
522.72	35573.80
522.89	35936.59
523.07	35983.40
523.24	35873.39
523.41	35835.94
523.58	36353.20
523.75	36947.70
523.92	36385.97
524.10	36507.68
524.27	36943.02
524.44	36561.51
524.61	36378.95
524.78	37024.93
524.96	36837.69
525.13	36865.78
525.30	36989.83
525.47	37287.07
525.64	36833.01
525.81	37174.73
525.98	37258.99
526.16	36821.31
526.33	36809.61
526.50	37397.08
526.67	36584.91
526.84	37528.15
527.01	37251.97
527.18	37008.55
527.36	37474.32
527.53	37844.12
527.70	37965.83
527.87	37944.76
528.04	37504.74
528.21	37851.14
528.38	38010.30
528.55	37691.99
528.72	37984.55
528.89	38202.22
529.07	38078.18
529.24	37923.70
529.41	38010.30
529.58	38162.43
529.75	37916.68
529.92	38469.04
530.09	38075.84
530.26	38756.93
530.43	38822.47
530.60	38719.48
530.77	38356.70
530.94	38920.77
531.11	38628.20
531.28	38799.06
531.46	39246.10
531.63	39328.02
531.80	38621.18
531.97	38658.63
532.14	38733.53
532.31	38670.33
532.48	38864.60
532.65	39421.64
532.82	39072.90
532.99	39033.11
533.16	38808.42
533.33	39529.31
533.50	39555.05
533.67	39335.04
533.84	39243.76
534.01	39517.60
534.18	39693.15
534.35	40112.10
534.52	39786.77
534.69	39702.51
534.86	39611.23
535.03	39585.48
535.20	40318.07
535.37	40018.48
535.54	40322.75
535.71	39913.16
535.88	39955.29
536.05	39810.17
536.22	40055.93
536.38	40236.15
536.55	40119.12
536.72	40381.26
536.89	40072.31
537.06	40449.14
537.23	40514.67
537.40	40196.36
537.57	40392.97
537.74	40811.92
537.91	40783.83
538.08	40638.72
538.25	40477.22
538.42	40683.19
538.59	41420.46
538.75	40418.71
538.92	40847.03
539.09	40954.69
539.26	40910.22
539.43	40994.48
539.60	40849.37
539.77	40973.42
539.94	41167.68
540.11	40837.67
540.28	41064.70
540.44	41134.92
540.61	40872.78
540.78	41209.81
540.95	41099.81
541.12	41155.98
541.29	41198.11
541.46	41375.99
541.62	41350.24
541.79	41588.98
541.96	41549.19
542.13	41467.27
542.30	41146.62
542.47	41577.28
542.63	41670.90
542.80	41738.77
542.97	42258.37
543.14	42492.43
543.31	42321.57
543.48	42550.94
543.64	42281.78
543.81	42679.67
543.98	42344.97
544.15	42249.01
544.32	42298.16
544.48	42546.26
544.65	42607.11
544.82	42429.23
544.99	42199.86
545.16	42902.02
545.32	42539.24
545.49	42939.47
545.66	42806.06
545.83	43220.33
546.00	43030.75
546.16	42958.19
546.33	42925.42
546.50	42717.12
546.67	42780.31
546.83	42436.25
547.00	42611.79
547.17	42525.19
547.34	42911.38
547.50	43040.11
547.67	43023.73
547.84	42892.66
548.00	43430.98
548.17	43026.07
548.34	43297.57
548.51	43487.15
548.67	43409.92
548.84	43477.79
549.01	43166.50
549.18	43063.52
549.34	43309.27
549.51	43320.98
549.68	43335.02
549.84	43838.23
550.01	43271.82
550.18	43192.25
550.34	43585.46
550.51	43557.37
550.68	43721.21
550.84	43901.43
551.01	43800.79
551.18	43531.62
551.34	43463.75
551.51	43761.00
551.68	43835.89
551.84	43889.73
552.01	43997.39
552.18	43772.70
552.34	43852.28
552.51	44030.16
552.68	43782.06
552.84	44016.11
553.01	44137.82
553.18	44079.31
553.34	43831.21
553.51	43835.89
553.67	44088.67
553.84	44533.37
554.01	44285.28
554.17	44659.76
554.34	44369.54
554.51	44425.71
554.67	44556.78
554.84	44226.76
555.00	44369.54
555.17	44507.63
555.33	44425.71
555.50	44751.04
555.67	44477.20
555.83	44355.49
556.00	44320.38
556.16	44685.51
556.33	44907.86
556.50	44481.88
556.66	44524.01
556.83	44041.86
556.99	44538.05
557.16	44474.86
557.32	45078.72
557.49	44776.79
557.65	44397.62
557.82	44863.39
557.98	44325.07
558.15	44755.72
558.32	44741.68
558.48	44371.88
558.65	44692.53
558.81	45092.76
558.98	44584.86
559.14	44755.72
559.31	44989.78
559.47	45074.04
559.64	44928.92
559.80	45059.99
559.97	44851.69
560.13	45022.54
560.30	45263.62
560.46	45312.77
560.63	45167.66
560.79	45317.45
560.96	45357.24
561.12	45111.49
561.29	44968.71
561.45	44935.95
561.61	45146.59
561.78	45064.67
561.94	44788.49
562.11	44985.10
562.27	45343.20
562.44	45326.81
562.60	45893.22
562.77	45518.74
562.93	45223.83
563.10	45535.12
563.26	44844.66
563.42	45558.53
563.59	44971.05
563.75	45380.65
563.92	45155.96
564.08	45572.57
564.24	45635.77
564.41	45734.07
564.57	45462.57
564.74	45404.05
564.90	45551.51
565.07	45471.93
565.23	45085.74
565.39	45380.65
565.56	45560.87
565.72	45446.18
565.88	45975.14
566.05	45645.13
566.21	45382.99
566.38	45542.14
566.54	45514.06
566.70	45228.51
566.87	45801.94
567.03	45488.31
567.19	46373.03
567.36	45991.53
567.52	45724.71
567.68	45654.49
567.85	45684.92
568.01	45500.01
568.17	45392.35
568.34	45748.11
568.50	45675.55
568.66	45188.72
568.83	45743.43
568.99	45581.93
569.15	45574.91
569.32	45588.95
569.48	45485.97
569.64	46005.57
569.81	45958.76
569.97	45537.46
570.13	45762.15
570.30	45404.05
570.46	44996.80
570.62	45390.01
570.78	45324.47
570.95	45626.40
571.11	45668.53
571.27	45551.51
571.43	45961.10
571.60	46284.09
571.76	45841.73
571.92	46005.57
572.09	45766.84
572.25	45757.47
572.41	45792.58
572.57	45996.21
572.74	46272.39
572.90	45986.85
573.06	45815.99
573.22	46064.08
573.38	45586.61
573.55	45750.45
573.71	46110.89
573.87	45715.34
574.03	45303.41
574.20	46078.13
574.36	45865.14
574.52	45860.46
574.68	45670.87
574.84	45586.61
575.01	45680.24
575.17	45560.87
575.33	45518.74
575.49	45687.26
575.65	46309.84
575.82	46497.08
575.98	45860.46
576.14	46021.95
576.30	45963.44
576.46	45689.60
576.62	45242.56
576.79	45727.05
576.95	45792.58
577.11	45771.52
577.27	45956.42
577.43	45911.95
577.59	45944.72
577.75	46040.68
577.92	45272.98
578.08	45418.10
578.24	45497.67
578.40	45846.41
578.56	45872.16
578.72	46110.89
578.88	46209.20
579.04	46129.62
579.21	45832.37
579.37	45666.19
579.53	45710.66
579.69	45357.24
579.85	45677.90
580.01	46239.62
580.17	46487.72
580.33	46291.12
580.49	46190.47
580.65	46092.17
580.82	45858.12
580.98	45874.50
581.14	45933.01
581.30	46040.68
581.46	45933.01
581.62	46033.66
581.78	45867.48
581.94	46237.28
582.10	45853.44
582.26	46342.61
582.42	45977.48
582.58	46124.94
582.74	46211.54
582.90	46117.92
583.06	45944.72
583.22	45940.04
583.38	46492.40
583.54	46295.80
583.70	46157.70
583.86	45844.07
584.02	45694.28
584.18	45874.50
584.34	46593.04
584.50	46071.10
584.66	45841.73
584.82	45961.10
584.98	46230.26
585.14	46344.95
585.30	46057.06
585.46	45844.07
585.62	45825.35
585.78	45879.18
585.94	45773.86
586.10	45900.25
586.26	46059.40
586.42	45963.44
586.58	46323.88
586.74	46375.37
586.90	46162.39
587.06	46108.55
587.22	46248.99
587.38	45713.00
587.54	46155.36
587.70	46021.95
587.86	45991.53
588.02	45876.84
588.18	46326.22
588.34	45764.49
588.49	45897.91
588.65	45834.71
588.81	45373.63
588.97	46220.90
589.13	45811.31
589.29	45996.21
589.45	46101.53
589.61	46253.67
589.77	46358.99
589.93	46380.06
