SpectraSuite Data File
++++++++++++++++++++++++++++++++++++
Date: Fri Oct 25 11:25:21 EDT 2013
User: price-jones
Dark Spectrum Present: No
Reference Spectrum Present: No
Number of Sampled Component Spectra: 1
Spectrometers: USB2+H05261
Integration Time (usec): 100000 (USB2+H05261)
Spectra Averaged: 1 (USB2+H05261)
Boxcar Smoothing: 0 (USB2+H05261)
Correct for Electrical Dark: No (USB2+H05261)
Strobe/Lamp Enabled: No (USB2+H05261)
Correct for Detector Non-linearity: No (USB2+H05261)
Correct for Stray Light: No (USB2+H05261)
Number of Pixels in Processed Spectrum: 2048
>>>>>Begin Processed Spectral Data<<<<<
365.73	194.26
365.92	194.26
366.12	194.26
366.32	147.45
366.52	126.39
366.72	110.01
366.91	124.05
367.11	177.88
367.31	93.62
367.51	88.94
367.70	145.11
367.90	121.71
368.10	194.26
368.30	175.54
368.49	81.92
368.69	177.88
368.89	180.22
369.09	159.16
369.28	210.65
369.48	210.65
369.68	114.69
369.87	133.41
370.07	177.88
370.27	198.95
370.47	365.12
370.66	552.37
370.86	699.82
371.06	608.54
371.25	667.05
371.45	627.26
371.65	690.46
371.84	681.10
372.04	741.95
372.24	702.16
372.44	643.65
372.63	753.65
372.83	730.25
373.03	674.07
373.22	795.78
373.42	793.44
373.62	732.59
373.81	840.25
374.01	877.70
374.21	753.65
374.40	830.89
374.60	739.61
374.79	812.17
374.99	849.61
375.19	791.10
375.38	781.74
375.58	816.85
375.78	945.58
375.97	926.85
376.17	954.94
376.37	791.10
376.56	833.23
376.76	849.61
376.95	873.02
377.15	910.47
377.35	898.77
377.54	873.02
377.74	856.64
377.93	940.90
378.13	924.51
378.33	884.72
378.52	877.70
378.72	1025.15
378.91	990.05
379.11	917.49
379.31	912.81
379.50	898.77
379.70	978.34
379.89	983.02
380.09	1001.75
380.28	1043.88
380.48	987.71
380.68	917.49
380.87	938.55
381.07	1022.81
381.26	1020.47
381.46	961.96
381.65	1116.44
381.85	1029.84
382.04	990.05
382.24	950.26
382.43	1015.79
382.63	1050.90
382.83	980.68
383.02	1048.56
383.22	1214.74
383.41	1046.22
383.61	1078.99
383.80	1121.12
384.00	1095.37
384.19	1153.88
384.39	1139.84
384.58	1062.60
384.78	1107.07
384.97	1181.97
385.17	1200.69
385.36	1156.22
385.56	1088.35
385.75	1114.10
385.95	1184.31
386.14	1191.33
386.34	1184.31
386.53	1221.76
386.72	1114.10
386.92	1132.82
387.11	1224.10
387.31	1224.10
387.50	1226.44
387.70	1233.46
387.89	1249.85
388.09	1186.65
388.28	1228.78
388.48	1329.42
388.67	1341.13
388.86	1291.98
389.06	1226.44
389.25	1280.27
389.45	1425.39
389.64	1399.64
389.84	1378.58
390.03	1261.55
390.22	1343.47
390.42	1432.41
390.61	1296.66
390.81	1308.36
391.00	1397.30
391.19	1483.90
391.39	1390.28
391.58	1467.52
391.78	1462.83
391.97	1451.13
392.16	1462.83
392.36	1640.72
392.55	1448.79
392.75	1542.41
392.94	1509.65
393.13	1584.54
393.33	1483.90
393.52	1638.38
393.71	1554.12
393.91	1680.50
394.10	1519.01
394.29	1554.12
394.49	1533.05
394.68	1659.44
394.88	1629.01
395.07	1696.89
395.26	1654.76
395.46	1577.52
395.65	1650.08
395.84	1668.80
396.04	1858.39
396.23	1710.93
396.42	1722.63
396.62	1818.60
396.81	1750.72
397.00	1668.80
397.19	1816.26
397.39	1764.76
397.58	1844.34
397.77	1743.70
397.97	1795.19
398.16	1921.58
398.35	1947.33
398.55	1900.52
398.74	1886.47
398.93	1900.52
399.12	1893.49
399.32	1851.36
399.51	1842.00
399.70	2003.50
399.90	2017.54
400.09	2078.40
400.28	2031.58
400.47	1996.48
400.67	2047.97
400.86	2087.76
401.05	2090.10
401.24	2167.34
401.44	2165.00
401.63	2127.55
401.82	2113.50
402.01	2186.06
402.21	2008.18
402.40	2221.17
402.59	2211.81
402.78	2139.25
402.97	2108.82
403.17	2193.08
403.36	2223.51
403.55	2251.60
403.74	2282.02
403.93	2340.54
404.13	2415.43
404.32	2396.71
404.51	2389.69
404.70	2356.92
404.89	2434.16
405.09	2401.39
405.28	2410.75
405.47	2427.14
405.66	2572.25
405.85	2565.23
406.05	2438.84
406.24	2612.04
406.43	2572.25
406.62	2562.89
406.81	2607.36
407.00	2640.12
407.20	2583.95
407.39	2691.62
407.58	2759.49
407.77	2810.98
407.96	2612.04
408.15	2705.66
408.34	2670.55
408.54	2724.38
408.73	2822.69
408.92	2864.82
409.11	2822.69
409.30	2902.26
409.49	2810.98
409.68	2956.10
409.87	2860.13
410.07	2984.18
410.26	2979.50
410.45	2925.67
410.64	3061.42
410.83	3047.38
411.02	3075.46
411.21	3038.02
411.40	3133.98
411.59	3075.46
411.78	2995.89
411.98	3225.26
412.17	3211.22
412.36	3346.97
412.55	3342.28
412.74	3389.10
412.93	3398.46
413.12	3286.11
413.31	3569.32
413.50	3417.18
413.69	3288.45
413.88	3538.89
414.07	3543.57
414.26	3576.34
414.45	3456.97
414.64	3688.68
414.83	3730.81
415.02	3801.03
415.22	3927.42
415.41	3840.82
415.60	3875.93
415.79	3904.01
415.98	4014.02
416.17	4042.11
416.36	3920.40
416.55	3843.16
416.74	4126.36
416.93	4016.36
417.12	4114.66
417.31	4058.49
417.50	4095.94
417.69	4126.36
417.88	4318.29
418.07	4173.18
418.26	4168.49
418.45	4264.46
418.64	4447.02
418.83	4339.35
419.02	4482.13
419.21	4498.51
419.39	4496.17
419.58	4514.89
419.77	4297.22
419.96	4510.21
420.15	4557.02
420.34	4496.17
420.53	4496.17
420.72	4650.64
420.91	4540.64
421.10	4770.01
421.29	4730.22
421.48	4552.34
421.67	4800.44
421.86	4669.37
422.05	4819.16
422.24	4880.02
422.43	4748.95
422.61	4947.89
422.80	4863.63
422.99	4908.10
423.18	4882.36
423.37	4961.94
423.56	4842.57
423.75	4894.06
423.94	4868.31
424.13	4585.11
424.32	4603.83
424.50	4898.74
424.69	4999.38
424.88	4992.36
425.07	4992.36
425.26	4837.89
425.45	4929.17
425.64	4882.36
425.83	4994.70
426.01	4917.47
426.20	5095.35
426.39	4961.94
426.58	5046.20
426.77	4933.85
426.96	4945.55
427.15	5064.92
427.33	5165.56
427.52	4997.04
427.71	5179.61
427.90	5226.42
428.09	5240.46
428.28	5273.23
428.46	5200.67
428.65	5420.68
428.84	5387.91
429.03	5460.47
429.22	5263.86
429.40	5406.64
429.59	5504.94
429.78	5394.93
429.97	5322.38
430.16	5434.72
430.34	5336.42
430.53	5678.14
430.72	5710.91
430.91	5628.99
431.10	5455.79
431.28	5659.42
431.47	5818.57
431.66	5834.96
431.85	5717.93
432.03	5841.98
432.22	5921.56
432.41	5851.34
432.60	5872.40
432.79	5760.06
432.97	5973.05
433.16	6001.13
433.35	5909.85
433.54	6040.92
433.72	6171.99
433.91	6073.69
434.10	6120.50
434.28	6118.16
434.47	6085.39
434.66	6246.89
434.85	6204.76
435.03	6223.48
435.22	6258.59
435.41	6401.37
435.59	6169.65
435.78	6305.40
435.97	6305.40
436.16	6431.79
436.34	6272.64
436.53	6314.77
436.72	6483.28
436.90	6394.34
437.09	6771.17
437.28	6478.60
437.46	6513.71
437.65	6441.15
437.84	6785.21
438.02	6740.74
438.21	6562.86
438.40	6792.23
438.58	7000.54
438.77	7028.63
438.96	6855.43
439.14	6937.35
439.33	7089.48
439.52	7229.91
439.70	7140.97
439.89	7215.87
440.08	7199.49
440.26	7276.73
440.45	7192.47
440.63	7356.30
440.82	7485.03
441.01	7492.05
441.19	7564.61
441.38	7588.02
441.57	7616.10
441.75	7702.70
441.94	7686.32
442.12	7744.83
442.31	7920.37
442.50	7873.56
442.68	7971.86
442.87	7854.84
443.05	8049.10
443.24	8138.04
443.43	8224.64
443.61	8067.83
443.80	8393.16
443.98	7845.48
444.17	7775.26
444.35	8154.43
444.54	8229.32
444.73	8149.75
444.91	8243.37
445.10	8355.71
445.28	8346.35
445.47	8472.74
445.65	8315.92
445.84	8463.38
446.02	8517.21
446.21	8557.00
446.39	8292.52
446.58	8229.32
446.77	8463.38
446.95	8203.58
447.14	8355.71
447.32	8472.74
447.51	8662.32
447.69	8489.12
447.88	8355.71
448.06	8407.20
448.25	8435.29
448.43	8482.10
448.62	8439.97
448.80	8442.31
448.99	8479.76
449.17	8821.48
449.36	8690.41
449.54	8681.05
449.73	8938.51
449.91	8922.12
450.10	8840.20
450.28	8830.84
450.46	9322.35
450.65	9001.70
450.83	9011.06
451.02	9043.83
451.20	9011.06
451.39	9097.66
451.57	9210.01
451.76	8858.93
451.94	9181.92
452.13	9329.38
452.31	9331.72
452.49	9076.60
452.68	9259.16
452.86	9165.54
453.05	9394.91
453.23	9282.56
453.42	9394.91
453.60	9392.57
453.78	9458.10
453.97	9357.46
454.15	9350.44
454.34	9397.25
454.52	9458.10
454.70	9338.74
454.89	9579.81
455.07	9879.40
455.26	9909.83
455.44	9919.19
455.62	9703.86
455.81	9944.94
455.99	9884.08
456.17	10134.52
456.36	9853.66
456.54	10225.80
456.73	10118.14
456.91	10614.33
457.09	10232.82
457.28	10691.57
457.46	10223.46
457.64	10513.69
457.83	10733.70
458.01	10204.74
458.19	10579.22
458.38	10705.61
458.56	10658.80
458.74	10691.57
458.93	10602.63
459.11	10832.00
459.29	10647.10
459.48	10677.52
459.66	10864.77
459.84	10733.70
460.03	10745.40
460.21	10782.85
460.39	10850.72
460.57	10923.28
460.76	11103.50
460.94	10963.07
461.12	11227.55
461.31	10986.47
461.49	11012.22
461.67	11129.25
461.85	11180.74
462.04	11349.26
462.22	11758.85
462.40	11300.11
462.59	11260.32
462.77	11302.45
462.95	11482.67
463.13	11475.65
463.32	11592.67
463.50	11571.61
463.68	11440.54
463.86	11885.24
464.05	11665.23
464.23	11861.84
464.41	11557.57
464.59	11508.41
464.78	12161.42
464.96	11927.37
465.14	11742.47
465.32	11817.36
465.50	11969.50
465.69	12271.43
465.87	11997.59
466.05	12079.50
466.23	12095.89
466.41	12152.06
466.60	12187.17
466.78	12105.25
466.96	12081.85
467.14	12042.06
467.32	12177.81
467.51	12556.97
467.69	12191.85
467.87	12138.02
468.05	12662.30
468.23	12362.71
468.41	12278.45
468.60	12322.92
468.78	12498.46
468.96	12648.26
469.14	12599.10
469.32	13116.36
469.50	12524.21
469.69	12594.42
469.87	13132.75
470.05	12961.89
470.23	12950.18
470.41	13067.21
470.59	13308.29
470.77	13195.94
470.95	13193.60
471.14	13549.36
471.32	13060.19
471.50	13528.30
471.68	13343.39
471.86	13610.22
472.04	13902.78
472.22	13743.63
472.40	13680.43
472.58	13956.61
472.77	13860.65
472.95	14176.62
473.13	14516.00
473.31	13708.52
473.49	14132.15
473.67	14068.96
473.85	14462.17
474.03	14480.89
474.21	14513.66
474.39	14324.08
474.57	14586.22
474.75	14651.75
474.93	14834.32
475.12	14967.73
475.30	14937.30
475.48	14815.59
475.66	15236.89
475.84	15206.46
476.02	15147.95
476.20	15138.58
476.38	15508.39
476.56	16219.91
476.74	16149.70
476.92	15749.46
477.10	15716.70
477.28	16018.63
477.46	16006.92
477.64	16226.93
477.82	16217.57
478.00	16524.18
478.18	16563.97
478.36	16912.71
478.54	16996.97
478.72	16987.61
478.90	17598.49
479.08	17287.20
479.26	17465.08
479.44	17448.69
479.62	17724.88
479.80	17902.76
479.98	18204.69
480.16	18511.30
480.34	18188.30
480.52	18441.08
480.70	18286.61
480.88	18293.63
481.06	18682.16
481.24	18625.98
481.41	18913.87
481.59	19101.11
481.77	19389.00
481.95	19295.38
482.13	19644.12
482.31	19719.01
482.49	20262.02
482.67	19756.46
482.85	20247.97
483.03	20290.10
483.21	20585.01
483.39	20613.10
483.57	20587.35
483.74	21177.17
483.92	21006.31
484.10	21160.78
484.28	21715.49
484.46	21804.43
484.64	22150.83
484.82	22169.55
485.00	22101.68
485.18	22469.14
485.35	23133.86
485.53	22757.03
485.71	22553.40
485.89	23611.32
486.07	23349.18
486.25	23173.64
486.43	23089.38
486.61	23618.35
486.78	23625.37
486.96	23960.06
487.14	24383.70
487.32	24308.80
487.50	24671.59
487.68	24554.56
487.85	24840.11
488.03	25525.88
488.21	25663.97
488.39	25659.29
488.57	25785.68
488.75	25792.70
488.92	26244.43
489.10	26546.36
489.28	26487.84
489.46	26792.11
489.64	26813.18
489.81	27302.35
489.99	27463.85
490.17	27812.59
490.35	28158.99
490.53	28217.50
490.70	28301.76
490.88	27953.02
491.06	28591.98
491.24	28671.56
491.41	28779.23
491.59	28926.68
491.77	28826.04
491.95	29586.71
492.13	29336.27
492.30	29589.05
492.48	29369.04
492.66	29916.73
492.84	29956.52
493.01	30448.03
493.19	30742.94
493.37	30845.92
493.54	30871.67
493.72	31056.57
493.90	30965.29
494.08	31641.70
494.25	31751.71
494.43	31679.15
494.61	31751.71
494.79	32268.97
494.96	32334.50
495.14	32304.07
495.32	32657.49
495.49	33146.67
495.67	32891.55
495.85	33233.27
496.02	33333.91
496.20	33965.85
496.38	33610.09
496.55	33991.60
496.73	34742.91
496.91	34068.84
497.09	34480.77
497.26	34548.65
497.44	34808.45
497.62	35154.85
497.79	35447.41
497.97	34883.34
498.14	35660.40
498.32	36041.91
498.50	35683.81
498.67	36334.48
498.85	36163.62
499.03	36673.85
499.20	36554.49
499.38	36720.66
499.56	36854.08
499.73	36587.25
499.91	36966.42
500.08	37486.02
500.26	37521.13
500.44	37507.08
500.61	37724.75
500.79	37310.48
500.97	38225.63
501.14	38604.80
501.32	38206.90
501.49	37956.47
501.67	38253.72
501.84	39077.58
502.02	38536.92
502.20	38714.80
502.37	39037.80
502.55	39220.36
502.72	39295.25
502.90	39353.77
503.07	39454.41
503.25	39557.39
503.43	39775.06
503.60	40030.18
503.78	39936.56
503.95	39952.94
504.13	40091.04
504.30	40463.18
504.48	40547.44
504.65	40664.47
504.83	40744.05
505.01	41160.66
505.18	40655.11
505.36	41310.46
505.53	40818.94
505.71	41242.58
505.88	41584.30
506.06	41130.23
506.23	41471.95
506.41	41448.55
506.58	41617.07
506.76	41923.68
506.93	41862.82
507.11	42092.19
507.28	42560.30
507.46	42452.64
507.63	42782.65
507.81	43093.94
507.98	42649.24
508.16	42735.84
508.33	43154.80
508.50	43496.52
508.68	43466.09
508.85	43550.35
509.03	43342.04
509.20	43775.04
509.38	44179.95
509.55	43861.64
509.73	43723.55
509.90	44020.80
510.08	44194.00
510.25	44449.11
510.42	44580.18
510.60	44343.79
510.77	44589.55
510.95	45310.43
511.12	44720.62
511.30	44924.24
511.47	45219.15
511.64	45022.54
511.82	45797.26
511.99	44891.48
512.17	45289.37
512.34	45661.51
512.51	46131.96
512.69	46267.71
512.86	46108.55
513.04	46309.84
513.21	46562.62
513.38	46576.66
513.56	46663.26
513.73	46340.27
513.90	46759.22
514.08	46768.58
514.25	47377.12
514.43	46958.17
514.60	47049.45
514.77	47033.07
514.95	47445.00
515.12	47356.06
515.29	47166.48
515.47	47629.90
515.64	47782.04
515.81	47730.54
515.99	47821.83
516.16	47955.24
516.33	47779.70
516.51	48395.26
516.68	47767.99
516.85	47990.34
517.03	48566.12
517.20	48596.54
517.37	48601.22
517.54	48547.39
517.72	48739.32
517.89	49069.33
518.06	48622.29
518.24	48938.26
518.41	49085.72
518.58	49174.66
518.75	49090.40
518.93	49436.80
519.10	48973.37
519.27	49780.85
519.45	49324.45
519.62	49483.61
519.79	49712.98
519.96	49607.65
520.14	49743.41
520.31	49724.68
520.48	50080.44
520.65	49815.96
520.83	50515.78
521.00	50593.02
521.17	50178.75
521.34	50401.10
521.52	50422.16
521.69	50658.56
521.86	50834.10
522.03	50979.21
522.20	50674.94
522.38	51302.20
522.55	50976.87
522.72	51086.87
522.89	50784.94
523.07	51405.19
523.24	51058.79
523.41	51444.98
523.58	51196.88
523.75	51655.62
523.92	51718.82
524.10	51646.26
524.27	51414.55
524.44	51728.18
524.61	51798.40
524.78	52055.85
524.96	51833.50
525.13	51943.51
525.30	52165.86
525.47	52317.99
525.64	52051.17
525.81	52390.55
525.98	52317.99
526.16	52182.24
526.33	52278.21
526.50	52814.19
526.67	52296.93
526.84	52622.26
527.01	52772.06
527.18	52594.18
527.36	52743.97
527.53	52868.02
527.70	53427.41
527.87	52985.05
528.04	52849.30
528.21	53375.92
528.38	52956.96
528.55	53134.84
528.72	53111.44
528.89	53258.89
529.07	53265.91
529.24	53312.72
529.41	53242.51
529.58	53202.72
529.75	53396.98
529.92	53289.32
530.09	53799.55
530.26	53698.91
530.43	53853.39
530.60	53525.71
530.77	53289.32
530.94	53897.86
531.11	53886.15
531.28	53846.36
531.46	53698.91
531.63	54300.43
531.80	53925.94
531.97	54333.20
532.14	54314.47
532.31	54370.64
532.48	54356.60
532.65	54452.56
532.82	54258.30
532.99	54578.95
533.16	54356.60
533.33	54281.70
533.50	54541.50
533.67	54363.62
533.84	54443.20
534.01	54588.31
534.18	54588.31
534.35	54834.07
534.52	54918.33
534.69	54901.95
534.86	55068.12
535.03	54878.54
535.20	54787.26
535.37	54976.84
535.54	55360.69
535.71	55152.38
535.88	55150.04
536.05	55182.81
536.22	55210.90
536.38	55269.41
536.55	55646.24
536.72	55379.42
536.89	55253.03
537.06	55489.42
537.23	55585.38
537.40	55353.67
537.57	55480.06
537.74	55547.93
537.91	55805.39
538.08	55835.82
538.25	55447.29
538.42	55777.31
538.59	55838.16
538.75	55770.28
538.92	55779.65
539.09	55854.54
539.26	55863.91
539.43	55781.99
539.60	56137.75
539.77	55833.48
539.94	56149.45
540.11	56313.29
540.28	55849.86
540.44	56315.63
540.61	56210.31
540.78	56107.32
540.95	56282.86
541.12	56048.81
541.29	56229.03
541.46	56317.97
541.62	56320.31
541.79	56591.81
541.96	56034.77
542.13	56226.69
542.30	56596.49
542.47	56673.73
542.63	56552.02
542.80	56680.75
542.97	56994.39
543.14	56996.73
543.31	57148.86
543.48	57052.90
543.64	57286.95
543.81	57279.93
543.98	57158.22
544.15	57064.60
544.32	57244.82
544.48	57336.10
544.65	57209.71
544.82	57293.97
544.99	57069.28
545.16	57279.93
545.32	57303.34
545.49	57506.96
545.66	57403.98
545.83	57233.12
546.00	57588.88
546.16	57462.49
546.33	57221.42
546.50	57305.68
546.67	57446.11
546.83	57069.28
547.00	57647.39
547.17	57633.35
547.34	57528.03
547.50	57668.46
547.67	57916.56
547.84	57851.02
548.00	57954.00
548.17	57855.70
548.34	57785.49
548.51	58007.84
548.67	58192.74
548.84	57979.75
549.01	57762.08
549.18	58033.58
549.34	58288.70
549.51	58307.43
549.68	58014.86
549.84	58309.77
550.01	58092.10
550.18	57970.39
550.34	58108.48
550.51	58145.93
550.68	57879.11
550.84	57846.34
551.01	58447.86
551.18	58052.31
551.34	58307.43
551.51	58382.32
551.68	58410.41
551.84	58422.11
552.01	58258.27
552.18	58639.78
552.34	58213.80
552.51	58447.86
552.68	58241.89
552.84	58394.03
553.01	58878.52
553.18	58677.23
553.34	58908.94
553.51	58599.99
553.67	58857.45
553.84	58628.08
554.01	58653.82
554.17	59042.35
554.34	58773.19
554.51	58773.19
554.67	58798.94
554.84	58684.25
555.00	58808.30
555.17	58761.49
555.33	59072.78
555.50	58752.13
555.67	58880.86
555.83	58920.65
556.00	59093.85
556.16	59173.42
556.33	59105.55
556.50	58983.84
556.66	58997.88
556.83	58876.18
556.99	59334.92
557.16	59386.41
557.32	59121.93
557.49	59423.86
557.65	59248.32
557.82	59180.45
557.98	59100.87
558.15	59215.55
558.32	59290.45
558.48	59180.45
558.65	59552.59
558.81	59213.21
558.98	59217.89
559.14	59306.83
559.31	59409.82
559.47	59559.61
559.64	59512.80
559.80	59484.72
559.97	59440.24
560.13	59454.29
560.30	59463.65
560.46	59554.93
560.63	59807.71
560.79	59470.67
560.96	59636.85
561.12	59732.81
561.29	59728.13
561.45	59634.51
561.61	59693.02
561.78	59814.73
561.94	59786.64
562.11	59566.63
562.27	59756.22
562.44	59770.26
562.60	59875.58
562.77	59714.09
562.93	59576.00
563.10	59737.49
563.26	59686.00
563.42	60111.98
563.59	59913.03
563.75	59805.37
563.92	59924.74
564.08	59817.07
564.24	59924.74
564.41	59999.63
564.57	59917.71
564.74	59999.63
564.90	59805.37
565.07	59863.88
565.23	59980.91
565.39	59866.22
565.56	60016.02
565.72	60055.81
565.88	60076.87
566.05	59903.67
566.21	59854.52
566.38	59985.59
566.54	60200.92
566.70	60252.41
566.87	60254.75
567.03	59955.16
567.19	60107.30
567.36	60156.45
567.52	60079.21
567.68	60509.87
567.85	60353.05
568.01	60339.01
568.17	60266.45
568.34	60444.33
568.50	60034.74
568.66	60205.60
568.83	60317.95
568.99	60133.04
569.15	60280.50
569.32	60243.05
569.48	60346.03
569.64	60374.12
569.81	60310.92
569.97	60217.30
570.13	60460.72
570.30	60039.42
570.46	60364.76
570.62	60350.71
570.78	60296.88
570.95	60151.77
571.11	60498.17
571.27	60505.19
571.43	60507.53
571.60	60528.59
571.76	60477.10
571.92	60357.74
572.09	60507.53
572.25	60254.75
572.41	60350.71
572.57	60514.55
572.74	60650.30
572.90	60582.43
573.06	60474.76
573.22	60587.11
573.38	60392.84
573.55	60540.30
573.71	60678.39
573.87	60570.72
574.03	60259.43
574.20	60636.26
574.36	60573.06
574.52	60488.80
574.68	60568.38
574.84	60638.60
575.01	60500.51
575.17	60437.31
575.33	60350.71
575.49	60413.91
575.65	60587.11
575.82	60472.42
575.98	60544.98
576.14	60851.59
576.30	60645.62
576.46	60772.01
576.62	60774.35
576.79	60582.43
576.95	60561.36
577.11	60507.53
577.27	60671.37
577.43	60615.19
577.59	60654.98
577.75	60458.38
577.92	60622.22
578.08	60666.69
578.24	60786.05
578.40	60804.78
578.56	60556.68
578.72	60683.07
578.88	60846.91
579.04	60669.03
579.21	60694.77
579.37	60832.86
579.53	60631.58
579.69	60657.32
579.85	60680.73
580.01	60704.13
580.17	60486.46
580.33	60786.05
580.49	60762.65
580.65	60814.14
580.82	60596.47
580.98	60781.37
581.14	60669.03
581.30	60846.91
581.46	60882.02
581.62	60781.37
581.78	60568.38
581.94	60757.97
582.10	60839.89
582.26	60647.96
582.42	60793.07
582.58	60790.73
582.74	60589.45
582.90	60818.82
583.06	60956.91
583.22	60711.16
583.38	60748.60
583.54	60762.65
583.70	60706.47
583.86	60814.14
584.02	60835.20
584.18	60985.00
584.34	60664.35
584.50	60828.18
584.66	60734.56
584.82	60764.99
584.98	60872.65
585.14	60783.71
585.30	60865.63
585.46	61050.53
585.62	60748.60
585.78	61015.43
585.94	60526.25
586.10	60924.14
586.26	61048.19
586.42	60910.10
586.58	60985.00
586.74	61010.74
586.90	60900.74
587.06	60879.67
587.22	61073.94
587.38	60839.89
587.54	61071.60
587.70	61029.47
587.86	60849.25
588.02	60959.25
588.18	60835.20
588.34	60973.30
588.49	60823.50
