SpectraSuite Data File
++++++++++++++++++++++++++++++++++++
Date: Fri Oct 25 11:26:05 EDT 2013
User: price-jones
Dark Spectrum Present: No
Reference Spectrum Present: No
Number of Sampled Component Spectra: 1
Spectrometers: USB2+H05261
Integration Time (usec): 100000 (USB2+H05261)
Spectra Averaged: 1 (USB2+H05261)
Boxcar Smoothing: 0 (USB2+H05261)
Correct for Electrical Dark: No (USB2+H05261)
Strobe/Lamp Enabled: No (USB2+H05261)
Correct for Detector Non-linearity: No (USB2+H05261)
Correct for Stray Light: No (USB2+H05261)
Number of Pixels in Processed Spectrum: 2048
>>>>>Begin Processed Spectral Data<<<<<
365.73	243.42
365.92	243.42
366.12	243.42
366.32	182.56
366.52	135.75
366.72	121.71
366.91	156.82
367.11	135.75
367.31	124.05
367.51	100.64
367.70	112.35
367.90	107.66
368.10	138.09
368.30	105.32
368.49	177.88
368.69	266.82
368.89	168.52
369.09	128.73
369.28	236.39
369.48	229.37
369.68	142.77
369.87	245.76
370.07	229.37
370.27	222.35
370.47	341.72
370.66	688.12
370.86	669.39
371.06	627.26
371.25	732.59
371.45	643.65
371.65	690.46
371.84	606.20
372.04	678.76
372.24	667.05
372.44	699.82
372.63	727.91
372.83	791.10
373.03	730.25
373.22	791.10
373.42	711.52
373.62	779.40
373.81	805.14
374.01	725.57
374.21	791.10
374.40	760.67
374.60	821.53
374.79	814.51
374.99	802.80
375.19	830.89
375.38	809.83
375.58	910.47
375.78	880.04
375.97	915.15
376.17	936.21
376.37	945.58
376.56	901.11
376.76	929.19
376.95	922.17
377.15	919.83
377.35	905.79
377.54	933.87
377.74	882.38
377.93	917.49
378.13	898.77
378.33	875.36
378.52	814.51
378.72	954.94
378.91	954.94
379.11	973.66
379.31	980.68
379.50	922.17
379.70	1083.67
379.89	952.60
380.09	917.49
380.28	990.05
380.48	1001.75
380.68	968.98
380.87	985.37
381.07	1011.11
381.26	1025.15
381.46	978.34
381.65	1076.65
381.85	940.90
382.04	1071.97
382.24	1039.20
382.43	1013.45
382.63	1116.44
382.83	1137.50
383.02	1132.82
383.22	1067.28
383.41	1121.12
383.61	997.07
383.80	1252.19
384.00	1067.28
384.19	1093.03
384.39	1151.54
384.58	1132.82
384.78	1093.03
384.97	1116.44
385.17	1135.16
385.36	1172.61
385.56	1114.10
385.75	1205.38
385.95	1228.78
386.14	1287.29
386.34	1299.00
386.53	1188.99
386.72	1245.16
386.92	1210.06
387.11	1327.08
387.31	1259.21
387.50	1235.80
387.70	1275.59
387.89	1341.13
388.09	1221.76
388.28	1345.81
388.48	1287.29
388.67	1275.59
388.86	1315.38
389.06	1308.36
389.25	1369.21
389.45	1376.24
389.64	1336.45
389.84	1317.72
390.03	1352.83
390.22	1474.54
390.42	1479.22
390.61	1411.34
390.81	1317.72
391.00	1355.17
391.19	1441.77
391.39	1504.96
391.58	1383.26
391.78	1352.83
391.97	1394.96
392.16	1519.01
392.36	1542.41
392.55	1413.68
392.75	1486.24
392.94	1511.99
393.13	1507.30
393.33	1500.28
393.52	1448.79
393.71	1584.54
393.91	1540.07
394.10	1568.16
394.29	1575.18
394.49	1612.63
394.68	1664.12
394.88	1619.65
395.07	1671.14
395.26	1629.01
395.46	1661.78
395.65	1767.10
395.84	1652.42
396.04	1706.25
396.23	1727.32
396.42	1668.80
396.62	1811.57
396.81	1830.30
397.00	1783.49
397.19	1781.15
397.39	1771.79
397.58	1760.08
397.77	1792.85
397.97	1827.96
398.16	1905.20
398.35	1900.52
398.55	1820.94
398.74	1809.23
398.93	1982.43
399.12	1895.83
399.32	1825.62
399.51	1987.11
399.70	2050.31
399.90	1907.54
400.09	1916.90
400.28	2040.95
400.47	2059.67
400.67	2076.06
400.86	2062.01
401.05	2083.08
401.24	2172.02
401.44	2148.61
401.63	2132.23
401.82	2104.14
402.01	2085.42
402.21	2141.59
402.40	2059.67
402.59	2223.51
402.78	2228.19
402.97	2258.62
403.17	2331.17
403.36	2267.98
403.55	2246.91
403.74	2272.66
403.93	2380.32
404.13	2305.43
404.32	2338.20
404.51	2251.60
404.70	2509.05
404.89	2373.30
405.09	2471.61
405.28	2466.92
405.47	2438.84
405.66	2464.58
405.85	2497.35
406.05	2530.12
406.24	2544.16
406.43	2579.27
406.62	2661.19
406.81	2700.98
407.00	2630.76
407.20	2679.91
407.39	2607.36
407.58	2747.79
407.77	2766.51
407.96	2747.79
408.15	2633.10
408.34	2731.41
408.54	2780.56
408.73	2818.00
408.92	2815.66
409.11	2801.62
409.30	2876.52
409.49	2860.13
409.68	2874.18
409.87	2881.20
410.07	3045.04
410.26	3042.70
410.45	3000.57
410.64	2939.71
410.83	3009.93
411.02	3126.96
411.21	3162.06
411.40	3141.00
411.59	3258.03
411.78	3218.24
411.98	3316.54
412.17	3274.41
412.36	3229.94
412.55	3372.71
412.74	3258.03
412.93	3403.14
413.12	3377.39
413.31	3588.04
413.50	3400.80
413.69	3585.70
413.88	3588.04
414.07	3730.81
414.26	3599.74
414.45	3705.07
414.64	3665.28
414.83	3751.88
415.02	3939.12
415.22	3819.75
415.41	3857.20
415.60	3843.16
415.79	3964.87
415.98	3941.46
416.17	4042.11
416.36	3955.51
416.55	4156.79
416.74	4095.94
416.93	4032.74
417.12	4107.64
417.31	4042.11
417.50	4161.47
417.69	4299.56
417.88	4292.54
418.07	4315.95
418.26	4278.50
418.45	4369.78
418.64	4411.91
418.83	4376.80
419.02	4496.17
419.21	4421.27
419.39	4564.04
419.58	4479.79
419.77	4444.68
419.96	4683.41
420.15	4512.55
420.34	4676.39
420.53	4552.34
420.72	4547.66
420.91	4580.43
421.10	4767.67
421.29	4788.74
421.48	4636.60
421.67	4723.20
421.86	4629.58
422.05	4727.88
422.24	4873.00
422.43	4835.55
422.61	4807.46
422.80	4903.42
422.99	4837.89
423.18	4870.65
423.37	5128.11
423.56	4910.44
423.75	4744.27
423.94	4711.50
424.13	4550.00
424.32	4807.46
424.50	5032.15
424.69	5116.41
424.88	4985.34
425.07	4959.60
425.26	4945.55
425.45	4994.70
425.64	4994.70
425.83	4950.23
426.01	5039.17
426.20	5081.30
426.39	5102.37
426.58	4990.02
426.77	5029.81
426.96	5151.52
427.15	5205.35
427.33	5259.18
427.52	5186.63
427.71	5207.69
427.90	5195.99
428.09	5320.04
428.28	5451.11
428.46	5373.87
428.65	5252.16
428.84	5563.45
429.03	5366.85
429.22	5296.63
429.40	5488.56
429.59	5516.64
429.78	5298.97
429.97	5331.74
430.16	5444.09
430.34	5511.96
430.53	5675.80
430.72	5703.89
430.91	5628.99
431.10	5586.86
431.28	5724.95
431.47	5729.63
431.66	5624.31
431.85	5692.18
432.03	5893.47
432.22	5928.58
432.41	5804.53
432.60	5823.25
432.79	5954.32
432.97	6139.23
433.16	5968.37
433.35	6036.24
433.54	6239.87
433.72	6113.48
433.91	5928.58
434.10	6054.97
434.28	6057.31
434.47	6176.67
434.66	6438.81
434.85	6459.88
435.03	6487.96
435.22	6253.91
435.41	6534.78
435.59	6319.45
435.78	6513.71
435.97	6530.09
436.16	6345.19
436.34	6457.54
436.53	6612.01
436.72	6717.34
436.90	6438.81
437.09	6609.67
437.28	6471.58
437.46	6630.74
437.65	6677.55
437.84	6698.61
438.02	6686.91
438.21	6867.13
438.40	6700.95
438.58	6944.37
438.77	7138.63
438.96	6963.09
439.14	7155.02
439.33	6913.94
439.52	7286.09
439.70	7169.06
439.89	7213.53
440.08	7449.93
440.26	7183.10
440.45	7389.07
440.63	7431.20
440.82	7470.99
441.01	7377.37
441.19	7541.21
441.38	7527.16
441.57	7688.66
441.75	7789.30
441.94	8023.36
442.12	7948.46
442.31	8084.21
442.50	7793.98
442.68	7967.18
442.87	7913.35
443.05	8154.43
443.24	8248.05
443.43	8152.09
443.61	8116.98
443.80	8482.10
443.98	8126.34
444.17	7744.83
444.35	8236.35
444.54	8355.71
444.73	8402.52
444.91	8334.65
445.10	8262.09
445.28	8379.12
445.47	8238.69
445.65	8259.75
445.84	8395.50
446.02	8353.37
446.21	8475.08
446.39	8393.16
446.58	8468.06
446.77	8470.40
446.95	8208.26
447.14	8311.24
447.32	8554.66
447.51	8472.74
447.69	8566.36
447.88	8397.84
448.06	8456.36
448.25	8533.59
448.43	8814.46
448.62	8505.51
448.80	8697.43
448.99	8840.20
449.17	8709.13
449.36	8641.26
449.54	8894.04
449.73	8887.01
449.91	9008.72
450.10	8999.36
450.28	8959.57
450.46	8992.34
450.65	9146.81
450.83	8947.87
451.02	9128.09
451.20	9238.09
451.39	8978.30
451.57	9373.85
451.76	8945.53
451.94	9114.05
452.13	9329.38
452.31	9437.04
452.49	9067.24
452.68	9320.01
452.86	9245.12
453.05	9312.99
453.23	9530.66
453.42	9329.38
453.60	9584.49
453.78	9420.66
453.97	9312.99
454.15	9425.34
454.34	9673.43
454.52	9551.73
454.70	9734.29
454.89	9628.96
455.07	9685.14
455.26	9788.12
455.44	9877.06
455.62	9722.59
455.81	9912.17
455.99	9966.00
456.17	10024.51
456.36	10038.56
456.54	9991.75
456.73	10380.28
456.91	10291.34
457.09	10333.47
457.28	10558.16
457.46	10338.15
457.64	10410.70
457.83	10501.98
458.01	10396.66
458.19	10743.06
458.38	10506.66
458.56	10761.78
458.74	10511.35
458.93	10600.29
459.11	10780.51
459.29	10637.73
459.48	10619.01
459.66	10501.98
459.84	10850.72
460.03	10981.79
460.21	11068.39
460.39	10974.77
460.57	10913.92
460.76	11157.33
460.94	11040.31
461.12	11194.78
461.31	11124.57
461.49	11421.81
461.67	11227.55
461.85	11648.85
462.04	11190.10
462.22	11786.94
462.40	11709.70
462.59	11583.31
462.77	11534.16
462.95	11632.46
463.13	11613.74
463.32	11618.42
463.50	11728.42
463.68	11712.04
463.86	11939.07
464.05	11632.46
464.23	11646.51
464.41	12159.08
464.59	11557.57
464.78	12229.30
464.96	11957.80
465.14	11929.71
465.32	12023.33
465.50	12318.24
465.69	12292.49
465.87	12306.54
466.05	12187.17
466.23	12105.25
466.41	12105.25
466.60	12383.77
466.78	12203.55
466.96	12236.32
467.14	12100.57
467.32	12479.74
467.51	12587.40
467.69	12194.19
467.87	12351.01
468.05	12676.34
468.23	12271.43
468.41	12528.89
468.60	12549.95
468.78	12711.45
468.96	12533.57
469.14	12748.90
469.32	12980.61
469.50	12732.51
469.69	12980.61
469.87	13114.02
470.05	13109.34
470.23	12954.87
470.41	12987.63
470.59	13312.97
470.77	13156.15
470.95	13254.45
471.14	13741.29
471.32	13095.30
471.50	13582.13
471.68	13411.27
471.86	13554.04
472.04	13701.50
472.22	14085.34
472.40	13664.05
472.58	13860.65
472.77	13923.85
472.95	14061.94
473.13	14567.49
473.31	13811.50
473.49	14204.71
473.67	13940.23
473.85	14492.60
474.03	14682.18
474.21	14757.08
474.39	14839.00
474.57	14794.53
474.75	14965.39
474.93	14792.19
475.12	14686.86
475.30	15122.20
475.48	15096.46
475.66	15091.77
475.84	15087.09
476.02	15583.29
476.20	15470.94
476.38	15552.86
476.56	15932.03
476.74	15805.64
476.92	15822.02
477.10	15770.53
477.28	15775.21
477.46	16259.70
477.64	16231.62
477.82	16641.21
478.00	17039.10
478.18	16732.49
478.36	16781.64
478.54	17025.06
478.72	16999.31
478.90	17277.83
479.08	17586.79
479.26	17792.75
479.44	17795.09
479.62	17851.27
479.80	17717.86
479.98	17792.75
480.16	18649.39
480.34	18022.12
480.52	18593.22
480.70	18546.40
480.88	18085.32
481.06	18731.31
481.24	18904.51
481.41	19047.28
481.59	19250.91
481.77	19250.91
481.95	19452.19
482.13	19978.81
482.31	19393.68
482.49	20088.82
482.67	20116.90
482.85	20297.13
483.03	20762.89
483.21	20872.90
483.39	20992.26
483.57	20828.43
483.74	21212.28
483.92	21441.65
484.10	21284.83
484.28	21621.87
484.46	21979.97
484.64	22368.50
484.82	21991.67
485.00	22218.71
485.18	22412.97
485.35	22827.24
485.53	22815.54
485.71	22773.41
485.89	23711.97
486.07	23152.58
486.25	23417.06
486.43	23452.17
486.61	23669.84
486.78	24053.69
486.96	24030.28
487.14	24650.52
487.32	24805.00
487.50	24554.56
487.68	24994.58
487.85	25333.96
488.03	25708.44
488.21	25905.05
488.39	25476.73
488.57	26040.80
488.75	26132.08
488.92	26050.16
489.10	26625.93
489.28	26593.17
489.46	27292.99
489.64	27161.92
489.81	27447.46
489.99	27828.97
490.17	27527.04
490.35	28091.11
490.53	28158.99
490.70	28056.00
490.88	28203.46
491.06	28411.76
491.24	28751.14
491.41	28823.70
491.59	29193.50
491.77	29174.78
491.95	29788.00
492.13	29799.70
492.30	29593.73
492.48	30110.99
492.66	30300.58
492.84	30150.78
493.01	30611.87
493.19	30574.42
493.37	31129.12
493.54	30995.71
493.72	31311.69
493.90	31417.01
494.08	31805.54
494.25	32037.25
494.43	32187.05
494.61	32442.17
494.79	32385.99
494.96	32369.61
495.14	32493.66
495.32	32783.88
495.49	33359.66
495.67	33165.39
495.85	33516.47
496.02	33518.81
496.20	33771.59
496.38	33888.62
496.55	34256.08
496.73	34710.14
496.91	34452.69
497.09	34443.32
497.26	34859.94
497.44	34979.31
497.62	35475.50
497.79	35934.24
497.97	35681.47
498.14	36006.80
498.32	35849.99
498.50	36158.94
498.67	36964.08
498.85	36559.17
499.03	36720.66
499.20	36800.24
499.38	37050.68
499.56	37053.02
499.73	37017.91
499.91	37310.48
500.08	37298.78
500.26	37368.99
500.44	37481.34
500.61	38089.88
500.79	37535.17
500.97	37710.71
501.14	38333.29
501.32	38506.49
501.49	38323.93
501.67	38803.74
501.84	38787.36
502.02	38927.79
502.20	39199.29
502.37	39398.24
502.55	39313.98
502.72	39435.69
502.90	39573.78
503.07	39234.40
503.25	39906.13
503.43	39487.18
503.60	39999.76
503.78	40486.59
503.95	40179.98
504.13	40297.00
504.30	40479.57
504.48	40715.96
504.65	40854.05
504.83	40896.18
505.01	41354.93
505.18	40896.18
505.36	41380.67
505.53	40722.98
505.71	41539.83
505.88	41642.81
506.06	41549.19
506.23	41832.39
506.41	41640.47
506.58	42045.38
506.76	42026.66
506.93	42583.71
507.11	42272.42
507.28	42309.86
507.46	42614.13
507.63	43133.73
507.81	42890.32
507.98	42513.49
508.16	43014.37
508.33	43503.54
508.50	43194.59
508.68	43199.27
508.85	43604.18
509.03	43440.34
509.20	43810.15
509.38	44091.01
509.55	44112.08
509.73	44348.47
509.90	44182.29
510.08	44807.22
510.25	44563.80
510.42	44472.52
510.60	44821.26
510.77	45509.38
510.95	45272.98
511.12	45015.52
511.30	45228.51
511.47	45755.13
511.64	45439.16
511.82	45539.80
511.99	45535.12
512.17	45923.65
512.34	45794.92
512.51	46204.52
512.69	46202.18
512.86	46419.84
513.04	46525.17
513.21	46300.48
513.38	46735.82
513.56	47159.45
513.73	46693.69
513.90	46939.44
514.08	46667.94
514.25	47129.03
514.43	47150.09
514.60	47171.16
514.77	47077.54
514.95	47540.96
515.12	47641.60
515.29	47821.83
515.47	47852.25
515.64	48144.82
515.81	47693.10
515.99	47819.49
516.16	48126.10
516.33	48189.29
516.51	48191.63
516.68	48619.95
516.85	48278.23
517.03	48854.00
517.20	48783.79
517.37	48900.81
517.54	48470.15
517.72	48708.89
517.89	49132.53
518.06	49174.66
518.24	48933.58
518.41	48933.58
518.58	48996.77
518.75	49202.74
518.93	49703.62
519.10	49652.12
519.27	49696.59
519.45	49380.62
519.62	50171.72
519.79	49820.64
519.96	49855.75
520.14	49855.75
520.31	49998.52
520.48	50082.78
520.65	50042.99
520.83	50506.42
521.00	50684.30
521.17	50604.72
521.34	50761.54
521.52	50440.89
521.69	50604.72
521.86	50740.47
522.03	51044.74
522.20	51281.14
522.38	51332.63
522.55	51475.40
522.72	51138.36
522.89	51346.67
523.07	51562.00
523.24	51393.48
523.41	51700.09
523.58	51444.98
523.75	51660.30
523.92	51728.18
524.10	51749.24
524.27	52282.89
524.44	51585.41
524.61	51751.59
524.78	52341.40
524.96	52058.20
525.13	51901.38
525.30	52229.05
525.47	52442.04
525.64	52381.19
525.81	52772.06
525.98	52786.10
526.16	52533.32
526.33	52610.56
526.50	53160.59
526.67	52750.99
526.84	52818.87
527.01	52861.00
527.18	52633.97
527.36	52715.89
527.53	52900.79
527.70	53422.73
527.87	53247.19
528.04	53059.94
528.21	53233.14
528.38	53366.55
528.55	53336.13
528.72	53221.44
528.89	53666.14
529.07	53277.61
529.24	53333.79
529.41	53329.11
529.58	53462.52
529.75	53432.09
529.92	53698.91
530.09	53815.94
530.26	53832.32
530.43	54021.90
530.60	53338.47
530.77	53975.09
530.94	54152.97
531.11	53944.67
531.28	53893.18
531.46	54042.97
531.63	54330.86
531.80	54178.72
531.97	54312.13
532.14	54195.10
532.31	54302.77
532.48	54803.64
532.65	54808.32
532.82	54230.21
532.99	54698.32
533.16	54394.05
533.33	54761.51
533.50	55016.63
533.67	54726.41
533.84	54848.11
534.01	54930.03
534.18	54831.73
534.35	55002.59
534.52	54803.64
534.69	55143.02
534.86	55234.30
535.03	54873.86
535.20	55051.74
535.37	55084.51
535.54	55246.00
535.71	55035.36
535.88	55339.63
536.05	55264.73
536.22	55533.89
536.38	55442.61
536.55	55503.46
536.72	55297.50
536.89	55353.67
537.06	55683.69
537.23	55639.22
537.40	55529.21
537.57	55592.40
537.74	55538.57
537.91	56048.81
538.08	55934.12
538.25	55763.26
538.42	55746.88
538.59	56030.08
538.75	55875.61
538.92	55870.93
539.09	56076.90
539.26	55992.64
539.43	55927.10
539.60	56011.36
539.77	56032.42
539.94	56437.34
540.11	56259.46
540.28	56250.09
540.44	56378.82
540.61	56341.38
540.78	56388.19
540.95	56130.73
541.12	56217.33
541.29	56275.84
541.46	56367.12
541.62	56495.85
541.79	56598.83
541.96	56402.23
542.13	56432.66
542.30	56570.75
542.47	56870.34
542.63	56809.48
542.80	56956.94
542.97	57048.22
543.14	57247.16
543.31	56891.40
543.48	57329.08
543.64	57270.57
543.81	57584.20
543.98	57172.27
544.15	57167.58
544.32	57420.36
544.48	57570.16
544.65	57275.25
544.82	57219.08
544.99	57233.12
545.16	57675.48
545.32	57296.31
545.49	57530.37
545.66	57680.16
545.83	57572.50
546.00	57745.70
546.16	57729.31
546.33	57436.75
546.50	57411.00
546.67	57537.39
546.83	57399.30
547.00	57858.04
547.17	57516.32
547.34	57647.39
547.50	57846.34
547.67	57939.96
547.84	57925.92
548.00	58092.10
548.17	58136.57
548.34	58138.91
548.51	58185.72
548.67	58178.70
548.84	58087.42
549.01	58164.65
549.18	57946.98
549.34	58052.31
549.51	58178.70
549.68	58379.98
549.84	58389.34
550.01	58309.77
550.18	58239.55
550.34	58272.32
550.51	58291.04
550.68	58433.81
550.84	58117.84
551.01	58534.46
551.18	58155.29
551.34	58447.86
551.51	58712.34
551.68	58543.82
551.84	58436.16
552.01	58450.20
552.18	58344.87
552.34	58466.58
552.51	58494.67
552.68	58489.99
552.84	58712.34
553.01	58908.94
553.18	58745.11
553.34	58810.64
553.51	58506.37
553.67	58681.91
553.84	58829.37
554.01	58859.79
554.17	58880.86
554.34	59049.38
554.51	58934.69
554.67	59103.21
554.84	59201.51
555.00	58937.03
555.17	58932.35
555.33	58993.20
555.50	58805.96
555.67	58962.78
555.83	59082.14
556.00	58901.92
556.16	59290.45
556.33	59243.64
556.50	59302.15
556.66	59407.48
556.83	59112.57
556.99	59470.67
557.16	59447.27
557.32	59470.67
557.49	59435.56
557.65	59189.81
557.82	59206.19
557.98	59145.34
558.15	59449.61
558.32	59419.18
558.48	59250.66
558.65	59419.18
558.81	59400.46
558.98	59381.73
559.14	59550.25
559.31	59599.40
559.47	59580.68
559.64	59723.45
559.80	59615.79
559.97	59798.35
560.13	59606.42
560.30	59763.24
560.46	59702.38
560.63	59578.34
560.79	59746.86
560.96	59880.27
561.12	59765.58
561.29	59838.14
561.45	59798.35
561.61	59751.54
561.78	59615.79
561.94	59639.19
562.11	59880.27
562.27	59906.01
562.44	59938.78
562.60	59971.55
562.77	59957.50
562.93	59566.63
563.10	60037.08
563.26	59952.82
563.42	60121.34
563.59	59898.99
563.75	59856.86
563.92	59861.54
564.08	59709.41
564.24	60074.53
564.41	60093.25
564.57	60048.78
564.74	60027.72
564.90	60114.32
565.07	59842.82
565.23	60111.98
565.39	60142.41
565.56	60196.24
565.72	60214.96
565.88	60039.42
566.05	60093.25
566.21	60027.72
566.38	60392.84
566.54	60135.38
566.70	60392.84
566.87	60449.02
567.03	60069.85
567.19	60334.33
567.36	60236.03
567.52	60434.97
567.68	60416.25
567.85	60470.08
568.01	60339.01
568.17	60182.19
568.34	60186.88
568.50	60170.49
568.66	60324.97
568.83	60259.43
568.99	60488.80
569.15	60491.15
569.32	60397.52
569.48	60378.80
569.64	60495.83
569.81	60346.03
569.97	60449.02
570.13	60456.04
570.30	60339.01
570.46	60453.70
570.62	60411.57
570.78	60109.64
570.95	60498.17
571.11	60594.13
571.27	60331.99
571.43	60530.93
571.60	60626.90
571.76	60603.49
571.92	60437.31
572.09	60493.49
572.25	60467.74
572.41	60437.31
572.57	60458.38
572.74	60750.94
572.90	60491.15
573.06	60608.17
573.22	60449.02
573.38	60591.79
573.55	60783.71
573.71	60793.07
573.87	60605.83
574.03	60465.40
574.20	60734.56
574.36	60657.32
574.52	60673.71
574.68	60582.43
574.84	60706.47
575.01	60647.96
575.17	60697.11
575.33	60570.72
575.49	60612.85
575.65	60624.56
575.82	60734.56
575.98	60736.90
576.14	60996.70
576.30	60676.05
576.46	60729.88
576.62	60762.65
576.79	60568.38
576.95	60863.29
577.11	60746.26
577.27	60767.33
577.43	60708.82
577.59	60802.44
577.75	60767.33
577.92	60706.47
578.08	60760.31
578.24	60748.60
578.40	60886.70
578.56	60952.23
578.72	60755.63
578.88	60926.49
579.04	60989.68
579.21	60940.53
579.37	60924.14
579.53	60882.02
579.69	60680.73
579.85	60708.82
580.01	60715.84
580.17	60687.75
580.33	61066.92
580.49	60828.18
580.65	61078.62
580.82	60839.89
580.98	60802.44
581.14	60683.07
581.30	61010.74
581.46	60846.91
581.62	60926.49
581.78	60783.71
581.94	60811.80
582.10	60776.69
582.26	60975.64
582.42	60802.44
582.58	60781.37
582.74	60823.50
582.90	60921.80
583.06	60987.34
583.22	60818.82
583.38	60912.44
583.54	60697.11
583.70	60905.42
583.86	60928.83
584.02	60750.94
584.18	61031.81
584.34	61052.87
584.50	60898.40
584.66	60755.63
584.82	60956.91
584.98	61123.09
585.14	60947.55
585.30	61031.81
585.46	61062.24
585.62	60633.92
585.78	61202.67
585.94	60769.67
586.10	60947.55
586.26	60970.96
586.42	61015.43
586.58	61038.83
586.74	61083.30
586.90	60823.50
587.06	60825.84
587.22	60830.52
587.38	61085.64
587.54	61155.86
587.70	61137.13
587.86	61141.81
588.02	60889.04
588.18	61193.31
588.34	60949.89
588.49	60931.17
