SpectraSuite Data File
++++++++++++++++++++++++++++++++++++
Date: Fri Oct 25 10:44:38 EDT 2013
User: price-jones
Dark Spectrum Present: No
Reference Spectrum Present: No
Number of Sampled Component Spectra: 1
Spectrometers: USB2+H05261
Integration Time (usec): 100000 (USB2+H05261)
Spectra Averaged: 1 (USB2+H05261)
Boxcar Smoothing: 0 (USB2+H05261)
Correct for Electrical Dark: No (USB2+H05261)
Strobe/Lamp Enabled: No (USB2+H05261)
Correct for Detector Non-linearity: No (USB2+H05261)
Correct for Stray Light: No (USB2+H05261)
Number of Pixels in Processed Spectrum: 2048
>>>>>Begin Processed Spectral Data<<<<<
365.73	70.22
365.92	70.22
366.12	70.22
366.32	110.01
366.52	0.00
366.72	42.13
366.91	0.00
367.11	86.60
367.31	0.00
367.51	0.00
367.70	16.38
367.90	58.51
368.10	25.75
368.30	9.36
368.49	0.00
368.69	18.72
368.89	0.00
369.09	18.72
369.28	65.54
369.48	84.26
369.68	49.15
369.87	93.62
370.07	49.15
370.27	121.71
370.47	201.29
370.66	381.51
370.86	351.08
371.06	489.17
371.25	463.43
371.45	404.91
371.65	404.91
371.84	358.10
372.04	425.98
372.24	528.96
372.44	486.83
372.63	514.92
372.83	493.85
373.03	505.56
373.22	447.04
373.42	409.59
373.62	472.79
373.81	477.47
374.01	624.92
374.21	547.69
374.40	489.17
374.60	505.56
374.79	594.50
374.99	524.28
375.19	636.63
375.38	540.66
375.58	533.64
375.78	557.05
375.97	596.84
376.17	582.79
376.37	498.53
376.56	594.50
376.76	533.64
376.95	475.13
377.15	603.86
377.35	622.58
377.54	622.58
377.74	627.26
377.93	624.92
378.13	521.94
378.33	622.58
378.52	578.11
378.72	552.37
378.91	699.82
379.11	660.03
379.31	496.19
379.50	582.79
379.70	697.48
379.89	641.31
380.09	638.97
380.28	662.37
380.48	557.05
380.68	617.90
380.87	636.63
381.07	634.29
381.26	631.94
381.46	664.71
381.65	683.44
381.85	641.31
382.04	657.69
382.24	662.37
382.43	746.63
382.63	601.52
382.83	582.79
383.02	737.27
383.22	723.23
383.41	660.03
383.61	704.50
383.80	660.03
384.00	716.20
384.19	720.88
384.39	709.18
384.58	748.97
384.78	760.67
384.97	746.63
385.17	748.97
385.36	713.86
385.56	720.88
385.75	671.73
385.95	758.33
386.14	851.96
386.34	748.97
386.53	732.59
386.72	779.40
386.92	807.48
387.11	802.80
387.31	744.29
387.50	732.59
387.70	772.38
387.89	770.04
388.09	809.83
388.28	732.59
388.48	821.53
388.67	828.55
388.86	877.70
389.06	847.27
389.25	868.34
389.45	856.64
389.64	894.08
389.84	877.70
390.03	887.06
390.22	926.85
390.42	882.38
390.61	861.32
390.81	861.32
391.00	971.32
391.19	933.87
391.39	1025.15
391.58	1015.79
391.78	952.60
391.97	945.58
392.16	863.66
392.36	1008.77
392.55	936.21
392.75	929.19
392.94	849.61
393.13	1046.22
393.33	966.64
393.52	1011.11
393.71	1011.11
393.91	1025.15
394.10	994.73
394.29	1011.11
394.49	992.39
394.68	940.90
394.88	1046.22
395.07	1083.67
395.26	1153.88
395.46	1137.50
395.65	1095.37
395.84	1135.16
396.04	1160.91
396.23	1114.10
396.42	1137.50
396.62	1081.33
396.81	1123.46
397.00	1053.24
397.19	1158.57
397.39	1165.59
397.58	1245.16
397.77	1240.48
397.97	1308.36
398.16	1240.48
398.35	1196.01
398.55	1296.66
398.74	1280.27
398.93	1310.70
399.12	1270.91
399.32	1247.51
399.51	1329.42
399.70	1406.66
399.90	1303.68
400.09	1432.41
400.28	1359.85
400.47	1406.66
400.67	1469.86
400.86	1474.54
401.05	1430.07
401.24	1446.45
401.44	1495.60
401.63	1448.79
401.82	1547.09
402.01	1504.96
402.21	1497.94
402.40	1554.12
402.59	1434.75
402.78	1551.78
402.97	1486.24
403.17	1572.84
403.36	1624.33
403.55	1614.97
403.74	1621.99
403.93	1678.16
404.13	1647.74
404.32	1570.50
404.51	1584.54
404.70	1647.74
404.89	1497.94
405.09	1685.19
405.28	1664.12
405.47	1713.27
405.66	1713.27
405.85	1767.10
406.05	1701.57
406.24	1764.76
406.43	1722.63
406.62	1849.02
406.81	1830.30
407.00	1853.70
407.20	1884.13
407.39	1846.68
407.58	1930.94
407.77	1898.17
407.96	1980.09
408.15	1921.58
408.34	1884.13
408.54	1961.37
408.73	1940.30
408.92	1877.11
409.11	2071.37
409.30	1926.26
409.49	1984.77
409.68	2064.35
409.87	2076.06
410.07	2040.95
410.26	2125.21
410.45	1968.39
410.64	2118.18
410.83	2244.57
411.02	2129.89
411.21	2253.94
411.40	2345.22
411.59	2193.08
411.78	2282.02
411.98	2223.51
412.17	2349.90
412.36	2284.36
412.55	2518.42
412.74	2345.22
412.93	2349.90
413.12	2410.75
413.31	2492.67
413.50	2562.89
413.69	2410.75
413.88	2588.63
414.07	2448.20
414.26	2600.34
414.45	2495.01
414.64	2635.44
414.83	2502.03
415.02	2717.36
415.22	2562.89
415.41	2799.28
415.60	2836.73
415.79	2789.92
415.98	3014.61
416.17	2703.32
416.36	2808.64
416.55	2761.83
416.74	2916.31
416.93	2923.33
417.12	2841.41
417.31	3033.33
417.50	3052.06
417.69	3038.02
417.88	3019.29
418.07	3047.38
418.26	3030.99
418.45	3108.23
418.64	3103.55
418.83	3173.77
419.02	3141.00
419.21	3204.19
419.39	3162.06
419.58	3045.04
419.77	3119.93
419.96	3187.81
420.15	3281.43
420.34	3274.41
420.53	3452.29
420.72	3253.34
420.91	3236.96
421.10	3496.76
421.29	3454.63
421.48	3246.32
421.67	3335.26
421.86	3468.67
422.05	3426.54
422.24	3431.23
422.43	3440.59
422.61	3454.63
422.80	3494.42
422.99	3405.48
423.18	3438.25
423.37	3496.76
423.56	3433.57
423.75	3396.12
423.94	3435.91
424.13	3236.96
424.32	3452.29
424.50	3487.40
424.69	3506.12
424.88	3634.85
425.07	3604.42
425.26	3466.33
425.45	3407.82
425.64	3548.25
425.83	3557.61
426.01	3609.11
426.20	3489.74
426.39	3662.94
426.58	3468.67
426.77	3485.06
426.96	3618.47
427.15	3496.76
427.33	3562.30
427.52	3545.91
427.71	3660.60
427.90	3632.51
428.09	3742.52
428.28	3768.26
428.46	3744.86
428.65	3695.71
428.84	3803.37
429.03	3838.48
429.22	3859.54
429.40	3653.58
429.59	3705.07
429.78	3538.89
429.97	3524.85
430.16	3709.75
430.34	3737.84
430.53	3913.38
430.72	3779.97
430.91	3873.59
431.10	3896.99
431.28	3950.82
431.47	4124.02
431.66	4100.62
431.85	3969.55
432.03	4170.83
432.22	4032.74
432.41	4121.68
432.60	4182.54
432.79	4107.64
432.97	4264.46
433.16	4262.12
433.35	4145.09
433.54	4222.33
433.72	4271.48
433.91	4360.42
434.10	4269.14
434.28	4243.39
434.47	4540.64
434.66	4322.97
434.85	4311.27
435.03	4301.90
435.22	4367.44
435.41	4592.13
435.59	4559.36
435.78	4575.75
435.97	4636.60
436.16	4620.22
436.34	4514.89
436.53	4582.77
436.72	4767.67
436.90	4559.36
437.09	4753.63
437.28	4517.23
437.46	4706.82
437.65	4606.17
437.84	4748.95
438.02	4657.67
438.21	4643.62
438.40	4723.20
438.58	4999.38
438.77	5001.72
438.96	4784.06
439.14	4798.10
439.33	5020.45
439.52	4975.98
439.70	5053.22
439.89	5041.51
440.08	5188.97
440.26	5151.52
440.45	5090.67
440.63	5118.75
440.82	5385.57
441.01	5352.81
441.19	5420.68
441.38	5341.10
441.57	5383.23
441.75	5549.41
441.94	5596.22
442.12	5584.52
442.31	5729.63
442.50	5596.22
442.68	5621.97
442.87	5647.71
443.05	5673.46
443.24	5841.98
443.43	5584.52
443.61	5643.03
443.80	5856.02
443.98	5591.54
444.17	5451.11
444.35	5928.58
444.54	5923.90
444.73	5989.43
444.91	5806.87
445.10	5715.59
445.28	5713.25
445.47	5738.99
445.65	5816.23
445.84	5895.81
446.02	5799.85
446.21	5802.19
446.39	5888.79
446.58	5823.25
446.77	5956.66
446.95	5919.21
447.14	5872.40
447.32	5916.87
447.51	5984.75
447.69	5877.09
447.88	6050.28
448.06	6125.18
448.25	6054.97
448.43	5959.00
448.62	5940.28
448.80	5895.81
448.99	5989.43
449.17	6076.03
449.36	6120.50
449.54	6153.27
449.73	6392.00
449.91	6146.25
450.10	6230.51
450.28	6342.85
450.46	6441.15
450.65	6223.48
450.83	6317.11
451.02	6216.46
451.20	6403.71
451.39	6284.34
451.57	6424.77
451.76	6693.93
451.94	6483.28
452.13	6478.60
452.31	6384.98
452.49	6347.53
452.68	6504.35
452.86	6476.26
453.05	6436.47
453.23	6672.87
453.42	6504.35
453.60	6487.96
453.78	6612.01
453.97	6469.24
454.15	6630.74
454.34	6530.09
454.52	6612.01
454.70	6916.28
454.89	6630.74
455.07	6885.86
455.26	6881.18
455.44	6986.50
455.62	6897.56
455.81	6942.03
455.99	6970.12
456.17	7009.90
456.36	6897.56
456.54	7124.59
456.73	7105.87
456.91	7089.48
457.09	7150.34
457.28	7318.86
457.46	7096.50
457.64	7302.47
457.83	7164.38
458.01	7192.47
458.19	7363.33
458.38	7239.28
458.56	7454.61
458.74	7480.35
458.93	7398.43
459.11	7513.12
459.29	7265.02
459.48	7590.36
459.66	7438.22
459.84	7522.48
460.03	7590.36
460.21	7702.70
460.39	7721.43
460.57	7604.40
460.76	7588.02
460.94	7702.70
461.12	7674.62
461.31	7829.09
461.49	7606.74
461.67	7850.16
461.85	7922.71
462.04	7838.45
462.22	7815.05
462.40	7878.24
462.59	7829.09
462.77	7805.69
462.95	8042.08
463.13	7955.48
463.32	8044.42
463.50	7918.03
463.68	8175.49
463.86	7992.93
464.05	7859.52
464.23	7913.35
464.41	8102.93
464.59	8018.68
464.78	8252.73
464.96	8198.90
465.14	8135.70
465.32	8439.97
465.50	8217.62
465.69	8500.83
465.87	8264.43
466.05	8226.98
466.23	8339.33
466.41	8360.39
466.60	8587.43
466.78	8046.76
466.96	8301.88
467.14	8341.67
467.32	8346.35
467.51	8493.80
467.69	8524.23
467.87	8587.43
468.05	8482.10
468.23	8446.99
468.41	8461.04
468.60	8753.60
468.78	8620.19
468.96	8692.75
469.14	8669.34
469.32	8758.28
469.50	8461.04
469.69	8622.53
469.87	8933.82
470.05	8875.31
470.23	8671.68
470.41	8772.33
470.59	9226.39
470.77	9041.49
470.95	9055.53
471.14	8908.08
471.32	8828.50
471.50	9235.75
471.68	9064.89
471.86	9270.86
472.04	9413.63
472.22	9425.34
472.40	9310.65
472.58	9474.49
472.77	9423.00
472.95	9542.36
473.13	9944.94
473.31	9460.45
473.49	9600.88
473.67	9591.52
473.85	9762.37
474.03	10010.47
474.21	9804.50
474.39	10190.69
474.57	9818.55
474.75	10160.27
474.93	10026.86
475.12	9884.08
475.30	10076.01
475.48	10186.01
475.66	10150.90
475.84	10260.91
476.02	10377.94
476.20	10207.08
476.38	10537.09
476.56	10663.48
476.74	10686.89
476.92	10768.80
477.10	10642.42
477.28	10771.15
477.46	10846.04
477.64	11145.63
477.82	11136.27
478.00	11311.81
478.18	11339.90
478.36	11386.71
478.54	11733.11
478.72	11438.20
478.90	11726.08
479.08	11728.42
479.26	11761.19
479.44	11681.61
479.62	11939.07
479.80	12128.66
479.98	12011.63
480.16	12411.86
480.34	12105.25
480.52	12489.10
480.70	12444.63
480.88	12135.68
481.06	12496.12
481.24	12468.03
481.41	12896.35
481.59	12985.29
481.77	13221.69
481.95	13174.88
482.13	13226.37
482.31	13013.38
482.49	13242.75
482.67	13509.57
482.85	13490.85
483.03	13422.97
483.21	13706.18
483.39	13699.16
483.57	14181.31
483.74	14207.05
483.92	14197.69
484.10	14338.12
484.28	14295.99
484.46	14555.79
484.64	14934.96
484.82	14387.27
485.00	14827.29
485.18	15073.05
485.35	15087.09
485.53	14953.68
485.71	15225.18
485.89	15309.44
486.07	15033.26
486.25	15211.14
486.43	15337.53
486.61	15768.19
486.78	15740.10
486.96	16046.71
487.14	15929.69
487.32	16011.60
487.50	16257.36
487.68	16313.53
487.85	16528.86
488.03	16870.58
488.21	16861.22
488.39	17085.91
488.57	17083.57
488.75	17172.51
488.92	17514.23
489.10	17645.30
489.28	17502.53
489.46	18068.94
489.64	18024.47
489.81	18171.92
489.99	18333.42
490.17	18417.68
490.35	18452.78
490.53	18595.56
490.70	18555.77
490.88	18787.48
491.06	18864.72
491.24	18892.80
491.41	19091.75
491.59	19150.26
491.77	19066.00
491.95	19466.24
492.13	19332.82
492.30	19531.77
492.48	19899.23
492.66	19864.13
492.84	19655.82
493.01	20236.27
493.19	19833.70
493.37	20161.37
493.54	20086.48
493.72	20580.33
493.90	20573.31
494.08	20919.71
494.25	21474.42
494.43	21158.44
494.61	21362.07
494.79	21638.25
494.96	21558.67
495.14	21373.77
495.32	21404.20
495.49	21823.16
495.67	21504.84
495.85	21867.63
496.02	22050.19
496.20	22150.83
496.38	22548.72
496.55	22141.47
496.73	22544.04
496.91	22499.57
497.09	22794.48
497.26	23239.18
497.44	22794.48
497.62	23077.68
497.79	23356.21
497.97	22831.93
498.14	23396.00
498.32	23599.62
498.50	23903.89
498.67	23859.42
498.85	23850.06
499.03	23997.51
499.20	23971.77
499.38	24201.14
499.56	24177.73
499.73	24357.96
499.91	24273.70
500.08	24444.56
500.26	24320.51
500.44	24673.93
500.61	24439.87
500.79	24320.51
500.97	24816.70
501.14	24971.18
501.32	24570.94
501.49	24893.94
501.67	25043.73
501.84	25399.49
502.02	25235.66
502.20	25642.91
502.37	25893.35
502.55	25645.25
502.72	25441.62
502.90	25750.57
503.07	25771.64
503.25	25778.66
503.43	25680.36
503.60	25930.80
503.78	25757.60
503.95	26302.94
504.13	26494.86
504.30	26618.91
504.48	26204.64
504.65	26480.82
504.83	27178.30
505.01	26850.63
505.18	26618.91
505.36	26979.36
505.53	27215.75
505.71	27204.05
505.88	27311.71
506.06	26955.95
506.23	27145.53
506.41	27040.21
506.58	27063.61
506.76	27454.48
506.93	27552.79
507.11	27728.33
507.28	27379.59
507.46	27325.75
507.63	27639.39
507.81	28168.35
507.98	27775.14
508.16	27672.15
508.33	28034.94
508.50	28528.79
508.68	28348.57
508.85	28755.82
509.03	28425.81
509.20	28381.34
509.38	28589.64
509.55	28814.34
509.73	28772.21
509.90	28844.76
510.08	28613.05
510.25	29036.69
510.42	29256.70
510.60	29432.24
510.77	29322.23
510.95	30066.52
511.12	29694.38
511.30	29486.07
511.47	29846.51
511.64	30150.78
511.82	29806.72
511.99	29729.48
512.17	30015.03
512.34	29734.17
512.51	30052.48
512.69	30171.85
512.86	30188.23
513.04	30312.28
513.21	30583.78
513.38	30436.33
513.56	30572.08
513.73	30396.54
513.90	30476.12
514.08	30188.23
514.25	30951.24
514.43	30698.47
514.60	31026.14
514.77	30691.44
514.95	31197.00
515.12	31276.58
515.29	31447.44
515.47	31250.83
515.64	31718.94
515.81	31077.63
515.99	31143.17
516.16	31442.76
516.33	31494.25
516.51	31611.28
516.68	31466.16
516.85	31173.60
517.03	31892.14
517.20	31625.32
517.37	31952.99
517.54	31960.02
517.72	31901.50
517.89	31747.03
518.06	31697.88
518.24	31850.01
518.41	31967.04
518.58	32259.60
518.75	32161.30
518.93	32390.67
519.10	32032.57
519.27	32598.98
519.45	32479.61
519.62	32601.32
519.79	32786.22
519.96	33074.11
520.14	32966.45
520.31	32879.85
520.48	32837.72
520.65	32875.16
520.83	33427.53
521.00	33462.64
521.17	33254.33
521.34	33188.80
521.52	33708.40
521.69	33912.02
521.86	34087.56
522.03	33429.87
522.20	33727.12
522.38	33832.44
522.55	33818.40
522.72	34117.99
522.89	33582.01
523.07	34132.03
523.24	34305.23
523.41	34476.09
523.58	34176.50
523.75	34588.44
523.92	34944.20
524.10	34953.56
524.27	34941.86
524.44	34782.70
524.61	34668.02
524.78	35070.59
524.96	34384.81
525.13	34899.73
525.30	35208.68
525.47	35632.32
525.64	35187.61
525.81	35239.11
525.98	35243.79
526.16	35285.92
526.33	35498.91
526.50	35459.12
526.67	35234.42
526.84	35189.95
527.01	35075.27
527.18	35512.95
527.36	36084.04
527.53	35606.57
527.70	36105.10
527.87	36086.38
528.04	35892.12
528.21	36088.72
528.38	35828.92
528.55	35814.88
528.72	36009.14
528.89	36306.39
529.07	35849.99
529.24	36322.77
529.41	36374.27
529.58	36084.04
529.75	36116.81
529.92	36528.74
530.09	36498.31
530.26	36233.83
530.43	36957.06
530.60	36584.91
530.77	36421.08
530.94	36690.24
531.11	37064.72
531.28	36905.57
531.46	36620.02
531.63	37015.57
531.80	37139.62
531.97	37134.94
532.14	36999.19
532.31	37198.13
532.48	37275.37
532.65	37092.81
532.82	37497.72
532.99	37347.93
533.16	37186.43
533.33	37467.30
533.50	37771.57
533.67	37724.75
533.84	37621.77
534.01	37776.25
534.18	37387.72
534.35	38007.96
534.52	37387.72
534.69	37907.32
534.86	37436.87
535.03	37755.18
535.20	38164.78
535.37	38539.26
535.54	38660.97
535.71	38272.44
535.88	37956.47
536.05	38384.79
536.22	38204.56
536.38	38300.53
536.55	38522.88
536.72	38342.66
536.89	37806.67
537.06	38532.24
537.23	38677.35
537.40	38342.66
537.57	38639.90
537.74	38675.01
537.91	38941.83
538.08	38642.24
538.25	38822.47
538.42	38476.07
538.59	38934.81
538.75	38455.00
538.92	38773.31
539.09	39100.99
539.26	38792.04
539.43	38986.30
539.60	38965.24
539.77	38731.18
539.94	38965.24
540.11	38838.85
540.28	39246.10
540.44	38759.27
540.61	39122.05
540.78	39093.97
540.95	38988.64
541.12	38873.96
541.29	39377.17
541.46	39442.71
541.62	39384.19
541.79	39491.86
541.96	39564.42
542.13	39543.35
542.30	39847.62
542.47	39611.23
542.63	39866.34
542.80	39711.87
542.97	40315.73
543.14	40151.89
543.31	40179.98
543.48	40224.45
543.64	40730.00
543.81	40545.10
543.98	40575.53
544.15	40465.52
544.32	40369.56
544.48	40718.30
544.65	40011.46
544.82	40830.65
544.99	40074.65
545.16	40825.96
545.32	40502.97
545.49	41113.85
545.66	41294.07
545.83	40671.49
546.00	40910.22
546.16	41034.27
546.33	40362.54
546.50	40521.69
546.67	40521.69
546.83	40432.75
547.00	40973.42
547.17	40856.39
547.34	40926.61
547.50	41371.31
547.67	41581.96
547.84	41202.79
548.00	41134.92
548.17	41574.94
548.34	41296.41
548.51	41095.13
548.67	41570.25
548.84	41254.28
549.01	41504.72
549.18	41167.68
549.34	41282.37
549.51	41734.09
549.68	41434.50
549.84	41109.17
550.01	41834.74
550.18	41656.85
550.34	41759.84
550.51	41549.19
550.68	41441.53
550.84	41483.66
551.01	41780.90
551.18	41731.75
551.34	42005.59
551.51	42045.38
551.68	41865.16
551.84	41612.38
552.01	41853.46
552.18	41982.19
552.34	42017.30
552.51	42155.39
552.68	42040.70
552.84	42265.39
553.01	42368.38
553.18	42328.59
553.34	42157.73
553.51	42075.81
553.67	42422.21
553.84	42169.43
554.01	42644.56
554.17	42796.70
554.34	42450.30
554.51	42445.62
554.67	42377.74
554.84	42506.47
555.00	42574.34
555.17	42401.14
555.33	42595.41
555.50	42422.21
555.67	42293.48
555.83	42417.53
556.00	42696.05
556.16	42703.07
556.33	42497.11
556.50	42733.50
556.66	42780.31
556.83	42677.33
556.99	42721.80
557.16	42995.64
557.32	42829.46
557.49	42944.15
557.65	42892.66
557.82	42766.27
557.98	43047.13
558.15	42859.89
558.32	43213.31
558.48	42761.59
558.65	42724.14
558.81	42176.45
558.98	43182.88
559.14	43124.37
559.31	42955.85
559.47	43107.99
559.64	43672.06
559.80	43393.53
559.97	43026.07
560.13	43091.60
560.30	43009.68
560.46	43257.78
560.63	42852.87
560.79	43606.52
560.96	43817.17
561.12	43129.05
561.29	43103.31
561.45	43023.73
561.61	43475.45
561.78	43239.06
561.94	43358.42
562.11	43243.74
562.27	43557.37
562.44	43164.16
562.60	43529.28
562.77	43629.93
562.93	43126.71
563.10	43545.67
563.26	42976.92
563.42	43578.43
563.59	43229.69
563.75	43438.00
563.92	43564.39
564.08	43688.44
564.24	43536.30
564.41	43328.00
564.57	43306.93
564.74	43288.21
564.90	43426.30
565.07	43438.00
565.23	43999.73
565.39	43295.23
565.56	43442.68
565.72	43613.54
565.88	43978.67
566.05	43625.25
566.21	43445.02
566.38	43613.54
566.54	43611.20
566.70	43505.88
566.87	43906.11
567.03	43990.37
567.19	44343.79
567.36	44308.68
567.52	43777.38
567.68	44201.02
567.85	43784.40
568.01	43739.93
568.17	43674.40
568.34	43749.29
568.50	43817.17
568.66	44013.77
568.83	43910.79
568.99	43849.94
569.15	44027.82
569.32	43585.46
569.48	43999.73
569.64	44177.61
569.81	44229.10
569.97	43611.20
570.13	43849.94
570.30	43658.01
570.46	43842.92
570.62	44002.07
570.78	43819.51
570.95	43786.74
571.11	43894.41
571.27	43503.54
571.43	44004.41
571.60	43491.83
571.76	44126.12
571.92	44002.07
572.09	44081.65
572.25	43791.42
572.41	43936.54
572.57	43948.24
572.74	44156.55
572.90	44140.16
573.06	44004.41
573.22	44364.85
573.38	43969.30
573.55	44390.60
573.71	44147.18
573.87	43863.98
574.03	44086.33
574.20	44041.86
574.36	43910.79
574.52	44140.16
574.68	44123.78
574.84	43983.35
575.01	43981.01
575.17	43756.32
575.33	43929.51
575.49	44219.74
575.65	44638.70
575.82	44088.67
575.98	43908.45
576.14	44341.45
576.30	44343.79
576.46	44072.29
576.62	44112.08
576.79	44392.94
576.95	43985.69
577.11	43899.09
577.27	44032.50
577.43	44020.80
577.59	44158.89
577.75	43789.08
577.92	44091.01
578.08	44222.08
578.24	43955.26
578.40	44502.95
578.56	44006.75
578.72	43917.81
578.88	44142.50
579.04	44367.20
579.21	44540.39
579.37	44231.44
579.53	44500.61
579.69	43756.32
579.85	44194.00
580.01	44196.34
580.17	44018.46
580.33	44355.49
580.49	44292.30
580.65	44451.45
580.82	44399.96
580.98	44591.89
581.14	43917.81
581.30	44514.65
581.46	43875.68
581.62	44250.17
581.78	44081.65
581.94	44559.12
582.10	44315.70
582.26	44507.63
582.42	44350.81
582.58	44463.16
582.74	44280.60
582.90	44060.58
583.06	44392.94
583.22	44797.85
583.38	44308.68
583.54	44477.20
583.70	44208.04
583.86	43922.49
584.02	44032.50
584.18	44556.78
584.34	43859.30
584.50	44467.84
584.66	43697.80
584.82	44182.29
584.98	44549.76
585.14	44617.63
585.30	44032.50
585.46	44900.84
585.62	44245.49
585.78	44147.18
585.94	44032.50
586.10	44444.43
586.26	44252.51
586.42	44271.23
586.58	44795.51
586.74	44376.56
586.90	44224.42
587.06	44233.78
587.22	44215.06
587.38	44046.54
587.54	44425.71
587.70	45043.61
587.86	44493.58
588.02	44238.47
588.18	44762.75
588.34	44624.65
588.49	44083.99
588.65	43985.69
588.81	44032.50
588.97	44079.31
589.13	44325.07
589.29	44570.82
589.45	44299.32
589.61	44601.25
589.77	44580.18
589.93	44397.62
590.08	44980.42
590.24	44594.23
590.40	44634.02
