SpectraSuite Data File
++++++++++++++++++++++++++++++++++++
Date: Fri Oct 25 10:43:28 EDT 2013
User: price-jones
Dark Spectrum Present: No
Reference Spectrum Present: No
Number of Sampled Component Spectra: 1
Spectrometers: USB2+H05261
Integration Time (usec): 100000 (USB2+H05261)
Spectra Averaged: 1 (USB2+H05261)
Boxcar Smoothing: 0 (USB2+H05261)
Correct for Electrical Dark: No (USB2+H05261)
Strobe/Lamp Enabled: No (USB2+H05261)
Correct for Detector Non-linearity: No (USB2+H05261)
Correct for Stray Light: No (USB2+H05261)
Number of Pixels in Processed Spectrum: 2048
>>>>>Begin Processed Spectral Data<<<<<
365.73	107.66
365.92	107.66
366.12	107.66
366.32	0.00
366.52	0.00
366.72	100.64
366.91	35.11
367.11	39.79
367.31	7.02
367.51	0.00
367.70	65.54
367.90	0.00
368.10	0.00
368.30	44.47
368.49	0.00
368.69	46.81
368.89	9.36
369.09	58.51
369.28	21.06
369.48	30.43
369.68	51.49
369.87	147.45
370.07	105.32
370.27	67.88
370.47	203.63
370.66	372.15
370.86	276.18
371.06	409.59
371.25	503.22
371.45	440.02
371.65	456.40
371.84	447.04
372.04	437.68
372.24	472.79
372.44	512.58
372.63	510.24
372.83	456.40
373.03	521.94
373.22	454.06
373.42	547.69
373.62	505.56
373.81	568.75
374.01	545.34
374.21	559.39
374.40	538.32
374.60	596.84
374.79	547.69
374.99	449.38
375.19	554.71
375.38	571.09
375.58	545.34
375.78	561.73
375.97	638.97
376.17	631.94
376.37	580.45
376.56	571.09
376.76	622.58
376.95	573.43
377.15	650.67
377.35	627.26
377.54	610.88
377.74	704.50
377.93	674.07
378.13	711.52
378.33	706.84
378.52	671.73
378.72	648.33
378.91	690.46
379.11	655.35
379.31	610.88
379.50	716.20
379.70	634.29
379.89	692.80
380.09	648.33
380.28	627.26
380.48	676.41
380.68	636.63
380.87	720.88
381.07	695.14
381.26	830.89
381.46	723.23
381.65	704.50
381.85	751.31
382.04	702.16
382.24	732.59
382.43	716.20
382.63	681.10
382.83	788.76
383.02	653.01
383.22	746.63
383.41	711.52
383.61	692.80
383.80	791.10
384.00	779.40
384.19	823.87
384.39	842.59
384.58	744.29
384.78	758.33
384.97	798.12
385.17	730.25
385.36	763.01
385.56	828.55
385.75	779.40
385.95	828.55
386.14	835.57
386.34	880.04
386.53	863.66
386.72	795.78
386.92	835.57
387.11	861.32
387.31	819.19
387.50	889.40
387.70	821.53
387.89	802.80
388.09	880.04
388.28	877.70
388.48	898.77
388.67	898.77
388.86	964.30
389.06	847.27
389.25	1011.11
389.45	968.98
389.64	994.73
389.84	1041.54
390.03	1018.13
390.22	882.38
390.42	997.07
390.61	994.73
390.81	999.41
391.00	959.62
391.19	1088.35
391.39	1067.28
391.58	1018.13
391.78	1036.86
391.97	978.34
392.16	1034.52
392.36	1060.26
392.55	980.68
392.75	1011.11
392.94	1006.43
393.13	1011.11
393.33	990.05
393.52	957.28
393.71	1043.88
393.91	1095.37
394.10	1132.82
394.29	1170.27
394.49	1165.59
394.68	1135.16
394.88	1198.35
395.07	1212.40
395.26	1273.25
395.46	1287.29
395.65	1203.04
395.84	1165.59
396.04	1282.61
396.23	1193.67
396.42	1203.04
396.62	1146.86
396.81	1221.76
397.00	1207.72
397.19	1249.85
397.39	1336.45
397.58	1455.81
397.77	1329.42
397.97	1481.56
398.16	1446.45
398.35	1427.73
398.55	1446.45
398.74	1612.63
398.93	1516.67
399.12	1511.99
399.32	1385.60
399.51	1401.98
399.70	1582.20
399.90	1516.67
400.09	1547.09
400.28	1540.07
400.47	1624.33
400.67	1586.88
400.86	1544.75
401.05	1645.40
401.24	1636.03
401.44	1703.91
401.63	1734.34
401.82	1710.93
402.01	1621.99
402.21	1710.93
402.40	1769.44
402.59	1748.38
402.78	1750.72
402.97	1727.32
403.17	1734.34
403.36	1762.42
403.55	1743.70
403.74	1858.39
403.93	1858.39
404.13	1867.75
404.32	1851.36
404.51	1895.83
404.70	1905.20
404.89	1893.49
405.09	2038.61
405.28	1849.02
405.47	1858.39
405.66	1907.54
405.85	1959.03
406.05	1919.24
406.24	1991.80
406.43	1977.75
406.62	2015.20
406.81	2115.84
407.00	2019.88
407.20	1994.14
407.39	2038.61
407.58	2150.95
407.77	2211.81
407.96	2150.95
408.15	2179.04
408.34	2225.85
408.54	2134.57
408.73	2317.13
408.92	2172.02
409.11	2303.09
409.30	2244.57
409.49	2235.21
409.68	2242.23
409.87	2218.83
410.07	2413.09
410.26	2277.34
410.45	2366.28
410.64	2286.70
410.83	2354.58
411.02	2429.48
411.21	2459.90
411.40	2698.64
411.59	2569.91
411.78	2583.95
411.98	2600.34
412.17	2593.31
412.36	2703.32
412.55	2684.59
412.74	2747.79
412.93	2782.90
413.12	2651.83
413.31	2773.53
413.50	2782.90
413.69	2738.43
413.88	2892.90
414.07	2867.16
414.26	2853.11
414.45	2939.71
414.64	2885.88
414.83	3126.96
415.02	3026.31
415.22	3080.14
415.41	3096.53
415.60	2913.97
415.79	3218.24
415.98	3129.30
416.17	3232.28
416.36	3323.56
416.55	3201.85
416.74	3253.34
416.93	3243.98
417.12	3068.44
417.31	3302.50
417.50	3246.32
417.69	3536.55
417.88	3311.86
418.07	3393.78
418.26	3517.83
418.45	3323.56
418.64	3468.67
418.83	3562.30
419.02	3510.80
419.21	3569.32
419.39	3475.70
419.58	3475.70
419.77	3543.57
419.96	3641.87
420.15	3660.60
420.34	3684.00
420.53	3691.02
420.72	3721.45
420.91	3726.13
421.10	3810.39
421.29	3777.62
421.48	3875.93
421.67	3824.44
421.86	3679.32
422.05	3852.52
422.24	3700.39
422.43	3719.11
422.61	3894.65
422.80	3908.69
422.99	3815.07
423.18	3941.46
423.37	3857.20
423.56	3911.04
423.75	3763.58
423.94	3934.44
424.13	3592.72
424.32	3761.24
424.50	3887.63
424.69	4035.08
424.88	4014.02
425.07	3854.86
425.26	3882.95
425.45	3878.27
425.64	3929.76
425.83	4032.74
426.01	4018.70
426.20	3948.48
426.39	3936.78
426.58	3822.09
426.77	3892.31
426.96	4018.70
427.15	3976.57
427.33	3913.38
427.52	4081.89
427.71	3997.64
427.90	4126.36
428.09	4009.34
428.28	4191.90
428.46	4133.39
428.65	4081.89
428.84	4241.05
429.03	4177.86
429.22	4135.73
429.40	4117.00
429.59	3957.85
429.78	3758.90
429.97	3852.52
430.16	3983.59
430.34	4168.49
430.53	4105.30
430.72	4102.96
430.91	4184.88
431.10	4257.43
431.28	4578.09
431.47	4667.03
431.66	4573.41
431.85	4440.00
432.03	4557.02
432.22	4676.39
432.41	4552.34
432.60	4582.77
432.79	4727.88
432.97	4777.03
433.16	4840.23
433.35	4645.96
433.54	4688.09
433.72	4620.22
433.91	4638.94
434.10	4891.72
434.28	4774.69
434.47	4823.84
434.66	4812.14
434.85	5069.60
435.03	4863.63
435.22	4840.23
435.41	5081.30
435.59	4959.60
435.78	5006.41
435.97	5104.71
436.16	4966.62
436.34	5231.10
436.53	5167.90
436.72	5317.70
436.90	5057.90
437.09	5069.60
437.28	5123.43
437.46	5153.86
437.65	5123.43
437.84	5165.56
438.02	5179.61
438.21	5167.90
438.40	5165.56
438.58	5240.46
438.77	5345.78
438.96	5207.69
439.14	5266.21
439.33	5348.12
439.52	5579.84
439.70	5495.58
439.89	5631.33
440.08	5614.95
440.26	5636.01
440.45	5799.85
440.63	5816.23
440.82	5940.28
441.01	5886.45
441.19	5949.64
441.38	5921.56
441.57	6097.10
441.75	6113.48
441.94	6267.95
442.12	6221.14
442.31	6375.62
442.50	6518.39
442.68	6239.87
442.87	6277.32
443.05	6375.62
443.24	6207.10
443.43	6562.86
443.61	6260.93
443.80	6492.65
443.98	6300.72
444.17	6197.74
444.35	6427.11
444.54	6429.45
444.73	6462.22
444.91	6429.45
445.10	6452.86
445.28	6396.68
445.47	6462.22
445.65	6347.53
445.84	6298.38
446.02	6494.99
446.21	6427.11
446.39	6438.81
446.58	6572.22
446.77	6677.55
446.95	6445.84
447.14	6612.01
447.32	6602.65
447.51	6757.13
447.69	6593.29
447.88	6586.27
448.06	6595.63
448.25	6939.69
448.43	6541.80
448.62	6586.27
448.80	6593.29
448.99	6792.23
449.17	6693.93
449.36	6801.60
449.54	6946.71
449.73	7126.93
449.91	6953.73
450.10	7054.37
450.28	7169.06
450.46	7183.10
450.65	7138.63
450.83	7101.19
451.02	7052.03
451.20	7059.06
451.39	7194.81
451.57	7239.28
451.76	6918.62
451.94	7096.50
452.13	7243.96
452.31	7187.79
452.49	6885.86
452.68	7028.63
452.86	7180.76
453.05	7321.20
453.23	7250.98
453.42	7396.09
453.60	7405.46
453.78	7400.77
453.97	7295.45
454.15	7262.68
454.34	7377.37
454.52	7517.80
454.70	7346.94
454.89	7559.93
455.07	7475.67
455.26	7452.27
455.44	7702.70
455.62	7602.06
455.81	7513.12
455.99	7749.51
456.17	7662.91
456.36	7761.22
456.54	7899.31
456.73	7829.09
456.91	8079.53
457.09	7981.23
457.28	8198.90
457.46	7934.42
457.64	8011.65
457.83	7885.26
458.01	7812.71
458.19	8222.30
458.38	8175.49
458.56	8163.79
458.74	8044.42
458.93	8051.44
459.11	8208.26
459.29	8292.52
459.48	8194.22
459.66	8098.25
459.84	8294.86
460.03	8489.12
460.21	8456.36
460.39	8615.51
460.57	8367.42
460.76	8671.68
460.94	8439.97
461.12	8400.18
461.31	8744.24
461.49	8615.51
461.67	8561.68
461.85	8781.69
462.04	8636.58
462.22	8997.02
462.40	8814.46
462.59	8865.95
462.77	8704.45
462.95	8772.33
463.13	8809.78
463.32	8943.19
463.50	8950.21
463.68	9064.89
463.86	9088.30
464.05	8865.95
464.23	8884.67
464.41	9071.92
464.59	8706.79
464.78	9153.84
464.96	9179.58
465.14	8945.53
465.32	9259.16
465.50	9036.81
465.69	9254.48
465.87	9032.13
466.05	9219.37
466.23	9123.41
466.41	8982.98
466.60	9406.61
466.78	9034.47
466.96	9200.65
467.14	9151.49
467.32	9210.01
467.51	9441.72
467.69	9057.87
467.87	9303.63
468.05	9394.91
468.23	9247.46
468.41	9357.46
468.60	9193.62
468.78	9486.19
468.96	9511.94
469.14	9846.63
469.32	9811.53
469.50	9352.78
469.69	9666.41
469.87	9699.18
470.05	9811.53
470.23	9689.82
470.41	9654.71
470.59	9764.72
470.77	9788.12
470.95	9703.86
471.14	10066.64
471.32	9975.36
471.50	10178.99
471.68	10164.95
471.86	10244.52
472.04	10326.44
472.22	10485.60
472.40	10099.41
472.58	10207.08
472.77	10291.34
472.95	10443.47
473.13	10841.36
473.31	10349.85
473.49	10228.14
473.67	10459.85
473.85	10672.84
474.03	10782.85
474.21	10707.95
474.39	11019.24
474.57	10806.25
474.75	11197.12
474.93	11063.71
475.12	10869.45
475.30	11272.02
475.48	11201.80
475.66	11250.96
475.84	11173.72
476.02	11332.87
476.20	11250.96
476.38	11620.76
476.56	11723.74
476.74	11569.27
476.92	11829.07
477.10	11756.51
477.28	11765.87
477.46	11815.02
477.64	12105.25
477.82	12372.07
478.00	12620.17
478.18	12306.54
478.36	12470.37
478.54	12688.04
478.72	12769.96
478.90	12638.89
479.08	12996.99
479.26	12844.86
479.44	12767.62
479.62	12901.03
479.80	13422.97
479.98	13317.65
480.16	13575.11
480.34	13296.58
480.52	13776.39
480.70	13530.64
480.88	13528.30
481.06	13692.13
481.24	13872.36
481.41	14246.84
481.59	14043.21
481.77	14546.43
481.95	14195.35
482.13	14293.65
482.31	14497.28
482.49	14527.71
482.67	14773.46
482.85	14855.38
483.03	14822.61
483.21	15077.73
483.39	15594.99
483.57	15396.04
483.74	15136.24
483.92	15391.36
484.10	15400.72
484.28	15723.72
484.46	15749.46
484.64	15995.22
484.82	15875.85
485.00	16079.48
485.18	16280.77
485.35	16264.38
485.53	15948.41
485.71	15878.19
485.89	16491.41
486.07	16189.49
486.25	16744.19
486.43	16751.21
486.61	17128.04
486.78	17006.33
486.96	17006.33
487.14	17434.65
487.32	17654.66
487.50	17666.36
487.68	17764.67
487.85	18031.49
488.03	18361.50
488.21	18319.37
488.39	18403.63
488.57	18185.96
488.75	18675.13
488.92	18473.85
489.10	19019.19
489.28	19070.68
489.46	19302.40
489.64	19545.81
489.81	19889.87
489.99	19756.46
490.17	20065.41
490.35	19939.02
490.53	19840.72
490.70	20542.88
490.88	20095.84
491.06	20936.09
491.24	20690.34
491.41	20673.95
491.59	20790.98
491.77	20350.96
491.95	20989.92
492.13	20910.35
492.30	21535.27
492.48	21441.65
492.66	21886.35
492.84	21682.72
493.01	21968.27
493.19	21624.21
493.37	22239.77
493.54	22139.13
493.72	22284.24
493.90	22380.20
494.08	22780.43
494.25	22881.08
494.43	23061.30
494.61	23550.47
494.79	23206.41
494.96	23101.09
495.14	23218.11
495.32	23293.01
495.49	23426.42
495.67	23826.65
495.85	24109.86
496.02	24065.39
496.20	24531.15
496.38	23957.72
496.55	24325.19
496.73	24910.32
496.91	24716.06
497.09	24460.94
497.26	24531.15
497.44	24891.60
497.62	24924.36
497.79	25146.72
497.97	24781.59
498.14	25092.88
498.32	25167.78
498.50	25158.42
498.67	25696.74
498.85	25710.78
499.03	26235.06
499.20	26082.93
499.38	26085.27
499.56	26082.93
499.73	26363.79
499.91	26181.23
500.08	26511.25
500.26	25743.55
500.44	26380.18
500.61	26305.28
500.79	26525.29
500.97	26691.47
501.14	26806.16
501.32	26799.13
501.49	26768.71
501.67	27058.93
501.84	27503.64
502.02	27124.47
502.20	27356.18
502.37	27646.41
502.55	27529.38
502.72	27847.69
502.90	27613.64
503.07	27646.41
503.25	27674.49
503.43	27779.82
503.60	27569.17
503.78	27662.79
503.95	27772.80
504.13	28175.37
504.30	28449.21
504.48	28180.05
504.65	28620.07
504.83	28858.81
505.01	28870.51
505.18	28926.68
505.36	28776.89
505.53	29020.30
505.71	29462.66
505.88	29046.05
506.06	29404.15
506.23	29441.60
506.41	29844.17
506.58	29415.85
506.76	29799.70
506.93	29933.11
507.11	29518.84
507.28	29563.31
507.46	29715.44
507.63	29537.56
507.81	30118.01
507.98	30026.73
508.16	30213.98
508.33	30228.02
508.50	30221.00
508.68	30560.37
508.85	30611.87
509.03	30581.44
509.20	30843.58
509.38	31056.57
509.55	30668.04
509.73	31187.64
509.90	31197.00
510.08	30911.46
510.25	31072.95
510.42	31463.82
510.60	31372.54
510.77	31620.64
510.95	31810.22
511.12	31716.60
511.30	31615.96
511.47	32086.40
511.64	32013.85
511.82	32091.09
511.99	31871.07
512.17	31929.59
512.34	31695.53
512.51	31943.63
512.69	32027.89
512.86	32273.65
513.04	32540.47
513.21	32610.68
513.38	32549.83
513.56	32322.80
513.73	32591.96
513.90	32835.38
514.08	32107.47
514.25	33010.92
514.43	33212.20
514.60	33064.75
514.77	32945.38
514.95	33312.84
515.12	33134.96
515.29	33179.43
515.47	33479.02
515.64	33614.77
515.81	33453.28
515.99	33397.10
516.16	33689.67
516.33	33383.06
516.51	33544.56
516.68	32903.25
516.85	32994.53
517.03	33287.10
517.20	33404.13
517.37	33773.93
517.54	34209.27
517.72	34036.07
517.89	33546.90
518.06	33706.05
518.24	33928.41
518.41	33895.64
518.58	34340.34
518.75	34380.13
518.93	34443.32
519.10	34162.46
519.27	35068.25
519.45	35049.52
519.62	35297.62
519.79	34911.43
519.96	35047.18
520.14	35449.75
520.31	35007.39
520.48	35056.54
520.65	35351.45
520.83	35356.13
521.00	35299.96
521.17	35531.67
521.34	35868.71
521.52	35936.59
521.69	35988.08
521.86	35569.12
522.03	35716.58
522.20	36114.47
522.38	35648.70
522.55	36194.04
522.72	36020.84
522.89	35529.33
523.07	36278.30
523.24	36278.30
523.41	36613.00
523.58	36374.27
523.75	36947.70
523.92	36907.91
524.10	36912.59
524.27	37345.59
524.44	37109.19
524.61	37130.26
524.78	37013.23
524.96	37188.77
525.13	36935.99
525.30	37336.23
525.47	37294.10
525.64	36933.65
525.81	37443.89
525.98	37228.56
526.16	37268.35
526.33	36840.03
526.50	37446.23
526.67	36870.46
526.84	37303.46
527.01	36851.73
527.18	37368.99
527.36	37862.85
527.53	37900.29
527.70	38375.42
527.87	37771.57
528.04	37745.82
528.21	38288.82
528.38	37736.46
528.55	39023.75
528.72	38366.06
528.89	38555.64
529.07	38265.42
529.24	38199.88
529.41	38572.03
529.58	38555.64
529.75	38494.79
529.92	38789.70
530.09	38745.23
530.26	38733.53
530.43	38902.04
530.60	38852.89
530.77	39117.37
530.94	39100.99
531.11	38944.17
531.28	39026.09
531.46	39222.70
531.63	39297.59
531.80	38862.26
531.97	38733.53
532.14	38700.76
532.31	39119.71
532.48	38951.20
532.65	39578.46
532.82	38998.01
532.99	39056.52
533.16	39662.72
533.33	39423.98
533.50	39730.59
533.67	39613.57
533.84	39847.62
534.01	39407.60
534.18	39330.36
534.35	40002.10
534.52	40076.99
534.69	40179.98
534.86	40659.79
535.03	40184.66
535.20	40673.83
535.37	40535.74
535.54	40849.37
535.71	40297.00
535.88	40278.28
536.05	40161.25
536.22	40392.97
536.38	40460.84
536.55	40212.74
536.72	40364.88
536.89	40044.23
537.06	40582.55
537.23	40987.46
537.40	41006.19
537.57	40411.69
537.74	40933.63
537.91	40725.32
538.08	41092.79
538.25	40570.85
538.42	41048.32
538.59	41715.37
538.75	40797.88
538.92	40889.16
539.09	40954.69
539.26	41034.27
539.43	41034.27
539.60	41160.66
539.77	40610.64
539.94	41085.76
540.11	40917.25
540.28	41315.14
540.44	41301.09
540.61	41352.58
540.78	41160.66
540.95	41069.38
541.12	41254.28
541.29	41071.72
541.46	41610.04
541.62	41331.52
541.79	41331.52
541.96	41331.52
542.13	41507.06
542.30	41553.87
542.47	41748.14
542.63	41624.09
542.80	41820.69
542.97	42314.55
543.14	41886.23
543.31	42735.84
543.48	41958.78
543.64	42852.87
543.81	42784.99
543.98	42220.92
544.15	42225.60
544.32	42667.97
544.48	43203.95
544.65	42541.58
544.82	42820.10
544.99	42410.51
545.16	42146.03
545.32	42115.60
545.49	43133.73
545.66	42883.30
545.83	42768.61
546.00	43115.01
546.16	42892.66
546.33	42593.07
546.50	42361.36
546.67	43253.10
546.83	42703.07
547.00	42522.85
547.17	42740.52
547.34	42845.85
547.50	42951.17
547.67	43206.29
547.84	42862.23
548.00	43351.40
548.17	43480.13
548.34	43302.25
548.51	43934.20
548.67	43559.71
548.84	43253.10
549.01	43299.91
549.18	43016.71
549.34	43379.49
549.51	43636.95
549.68	43449.70
549.84	43288.21
550.01	43306.93
550.18	43009.68
550.34	43232.04
550.51	43711.84
550.68	43585.46
550.84	43320.98
551.01	43592.48
551.18	43344.38
551.34	43899.09
551.51	44100.37
551.68	43938.88
551.84	43901.43
552.01	43580.78
552.18	43906.11
552.34	43866.32
552.51	43873.34
552.68	43784.40
552.84	44238.47
553.01	44470.18
553.18	44151.87
553.34	43943.56
553.51	43737.59
553.67	44091.01
553.84	44648.06
554.01	44416.35
554.17	43983.35
554.34	44652.74
554.51	44292.30
554.67	44037.18
554.84	44109.74
555.00	44385.92
555.17	44093.35
555.33	44715.93
555.50	43997.39
555.67	44472.52
555.83	44383.58
556.00	44444.43
556.16	44699.55
556.33	44390.60
556.50	44514.65
556.66	44868.07
556.83	44079.31
556.99	44645.72
557.16	44818.92
557.32	44451.45
557.49	44598.91
557.65	44601.25
557.82	44498.26
557.98	44294.64
558.15	44720.62
558.32	44720.62
558.48	44421.03
558.65	44790.83
558.81	44610.61
558.98	44524.01
559.14	44465.50
559.31	44814.24
559.47	44666.78
559.64	44739.34
559.80	44697.21
559.97	44573.16
560.13	44980.42
560.30	44839.98
560.46	45265.96
560.63	45397.03
560.79	44865.73
560.96	45172.34
561.12	45230.85
561.29	44715.93
561.45	45106.80
561.61	45059.99
561.78	44722.96
561.94	45139.57
562.11	44603.59
562.27	44961.69
562.44	44830.62
562.60	45282.34
562.77	44875.09
562.93	44938.29
563.10	45361.92
563.26	45242.56
563.42	44781.47
563.59	45656.83
563.75	44964.03
563.92	45249.58
564.08	45392.35
564.24	45631.08
564.41	45319.79
564.57	45160.64
564.74	45340.86
564.90	45434.48
565.07	45240.21
565.23	45500.01
565.39	44996.80
565.56	45059.99
565.72	44989.78
565.88	45350.22
566.05	45336.18
566.21	45219.15
566.38	45151.27
566.54	45296.39
566.70	45586.61
566.87	45799.60
567.03	45432.14
567.19	45584.27
567.36	45525.76
567.52	45567.89
567.68	45820.67
567.85	44964.03
568.01	45600.66
568.17	45406.39
568.34	45481.29
568.50	45408.73
568.66	45483.63
568.83	45361.92
568.99	45347.88
569.15	45453.20
569.32	45535.12
569.48	45390.01
569.64	45464.91
569.81	45668.53
569.97	45312.77
570.13	45375.97
570.30	45949.40
570.46	45413.41
570.62	44744.02
570.78	45226.17
570.95	44851.69
571.11	45937.69
571.27	45453.20
571.43	45677.90
571.60	45591.30
571.76	45013.18
571.92	45703.64
572.09	45851.09
572.25	45574.91
572.41	45961.10
572.57	45872.16
572.74	45649.81
572.90	45858.12
573.06	45867.48
573.22	45832.37
573.38	45617.04
573.55	45186.38
573.71	45773.86
573.87	45935.35
574.03	45654.49
574.20	45457.88
574.36	45663.85
574.52	45879.18
574.68	45654.49
574.84	45879.18
575.01	45823.01
575.17	45698.96
575.33	45446.18
575.49	45504.70
575.65	45483.63
575.82	45696.62
575.98	45439.16
576.14	46202.18
576.30	45808.96
576.46	45876.84
576.62	45549.17
576.79	45640.45
576.95	45202.77
577.11	45902.59
577.27	45687.26
577.43	45317.45
577.59	45443.84
577.75	45361.92
577.92	45326.81
578.08	45333.84
578.24	45455.54
578.40	45291.71
578.56	45977.48
578.72	45420.44
578.88	45982.16
579.04	45930.67
579.21	45387.67
579.37	45261.28
579.53	45780.88
579.69	45478.95
579.85	45689.60
580.01	45705.98
580.17	45593.64
580.33	45397.03
580.49	45617.04
580.65	45680.24
580.82	45378.31
580.98	45390.01
581.14	45893.22
581.30	46000.89
581.46	45961.10
581.62	46129.62
581.78	45661.51
581.94	46026.63
582.10	46155.36
582.26	45982.16
582.42	45823.01
582.58	45748.11
582.74	45675.55
582.90	46122.60
583.06	45701.30
583.22	45617.04
583.38	46162.39
583.54	45670.87
583.70	46059.40
583.86	45741.09
584.02	45610.02
584.18	45993.87
584.34	45837.05
584.50	45954.08
584.66	45783.22
584.82	45539.80
584.98	46136.64
585.14	45954.08
585.30	45123.19
585.46	45605.34
585.62	45797.26
585.78	45593.64
585.94	45577.25
586.10	45371.28
586.26	45460.23
586.42	46454.95
586.58	45649.81
586.74	45708.32
586.90	45986.85
587.06	45617.04
587.22	46106.21
587.38	45640.45
587.54	45954.08
587.70	45888.54
587.86	45546.82
588.02	45663.85
588.18	45720.02
588.34	45858.12
588.49	45345.54
588.65	45301.07
588.81	44987.44
588.97	45322.13
589.13	45333.84
589.29	45261.28
589.45	45432.14
589.61	45645.13
589.77	46108.55
589.93	45930.67
590.08	45989.19
