SpectraSuite Data File
++++++++++++++++++++++++++++++++++++
Date: Fri Oct 25 10:47:48 EDT 2013
User: price-jones
Dark Spectrum Present: No
Reference Spectrum Present: No
Number of Sampled Component Spectra: 1
Spectrometers: USB2+H05261
Integration Time (usec): 100000 (USB2+H05261)
Spectra Averaged: 1 (USB2+H05261)
Boxcar Smoothing: 0 (USB2+H05261)
Correct for Electrical Dark: No (USB2+H05261)
Strobe/Lamp Enabled: No (USB2+H05261)
Correct for Detector Non-linearity: No (USB2+H05261)
Correct for Stray Light: No (USB2+H05261)
Number of Pixels in Processed Spectrum: 2048
>>>>>Begin Processed Spectral Data<<<<<
365.73	140.43
365.92	140.43
366.12	140.43
366.32	138.09
366.52	30.43
366.72	84.26
366.91	86.60
367.11	63.19
367.31	70.22
367.51	23.41
367.70	117.03
367.90	112.35
368.10	0.00
368.30	72.56
368.49	56.17
368.69	35.11
368.89	119.37
369.09	44.47
369.28	72.56
369.48	63.19
369.68	114.69
369.87	119.37
370.07	79.58
370.27	126.39
370.47	203.63
370.66	367.46
370.86	348.74
371.06	425.98
371.25	519.60
371.45	407.25
371.65	510.24
371.84	395.55
372.04	503.22
372.24	451.72
372.44	425.98
372.63	428.32
372.83	526.62
373.03	458.74
373.22	463.43
373.42	477.47
373.62	468.11
373.81	585.13
374.01	521.94
374.21	559.39
374.40	552.37
374.60	622.58
374.79	575.77
374.99	578.11
375.19	538.32
375.38	580.45
375.58	589.82
375.78	571.09
375.97	603.86
376.17	678.76
376.37	631.94
376.56	603.86
376.76	557.05
376.95	573.43
377.15	678.76
377.35	631.94
377.54	582.79
377.74	636.63
377.93	678.76
378.13	585.13
378.33	655.35
378.52	580.45
378.72	657.69
378.91	662.37
379.11	669.39
379.31	585.13
379.50	580.45
379.70	671.73
379.89	716.20
380.09	610.88
380.28	660.03
380.48	758.33
380.68	568.75
380.87	547.69
381.07	650.67
381.26	720.88
381.46	641.31
381.65	641.31
381.85	648.33
382.04	770.04
382.24	671.73
382.43	690.46
382.63	697.48
382.83	702.16
383.02	695.14
383.22	662.37
383.41	681.10
383.61	734.93
383.80	688.12
384.00	755.99
384.19	739.61
384.39	653.01
384.58	681.10
384.78	765.36
384.97	791.10
385.17	805.14
385.36	779.40
385.56	760.67
385.75	770.04
385.95	802.80
386.14	840.25
386.34	798.12
386.53	795.78
386.72	819.19
386.92	830.89
387.11	760.67
387.31	798.12
387.50	784.08
387.70	837.91
387.89	849.61
388.09	807.48
388.28	802.80
388.48	823.87
388.67	873.02
388.86	889.40
389.06	758.33
389.25	917.49
389.45	950.26
389.64	840.25
389.84	903.45
390.03	861.32
390.22	940.90
390.42	901.11
390.61	938.55
390.81	830.89
391.00	915.15
391.19	961.96
391.39	950.26
391.58	917.49
391.78	1008.77
391.97	936.21
392.16	954.94
392.36	1046.22
392.55	1008.77
392.75	910.47
392.94	929.19
393.13	936.21
393.33	905.79
393.52	978.34
393.71	1057.92
393.91	1029.84
394.10	1086.01
394.29	1095.37
394.49	1057.92
394.68	1088.35
394.88	1165.59
395.07	1123.46
395.26	1186.65
395.46	1156.22
395.65	1221.76
395.84	1107.07
396.04	1231.12
396.23	1062.60
396.42	1114.10
396.62	1128.14
396.81	1167.93
397.00	1193.67
397.19	1149.20
397.39	1198.35
397.58	1299.00
397.77	1296.66
397.97	1184.31
398.16	1343.47
398.35	1320.06
398.55	1350.49
398.74	1242.82
398.93	1301.34
399.12	1355.17
399.32	1364.53
399.51	1401.98
399.70	1362.19
399.90	1364.53
400.09	1392.62
400.28	1406.66
400.47	1444.11
400.67	1437.09
400.86	1392.62
401.05	1486.24
401.24	1516.67
401.44	1444.11
401.63	1483.90
401.82	1486.24
402.01	1481.56
402.21	1542.41
402.40	1633.69
402.59	1540.07
402.78	1535.39
402.97	1579.86
403.17	1530.71
403.36	1638.38
403.55	1563.48
403.74	1657.10
403.93	1668.80
404.13	1568.16
404.32	1572.84
404.51	1589.22
404.70	1668.80
404.89	1689.87
405.09	1774.13
405.28	1673.48
405.47	1755.40
405.66	1729.66
405.85	1778.81
406.05	1771.79
406.24	1830.30
406.43	1827.96
406.62	1902.86
406.81	1795.19
407.00	1816.26
407.20	1783.49
407.39	1858.39
407.58	1994.14
407.77	1930.94
407.96	1963.71
408.15	1907.54
408.34	2017.54
408.54	1987.11
408.73	2083.08
408.92	1994.14
409.11	1966.05
409.30	1982.43
409.49	1989.46
409.68	2062.01
409.87	2099.46
410.07	2073.71
410.26	2031.58
410.45	2047.97
410.64	2319.47
410.83	2146.27
411.02	2148.61
411.21	2260.96
411.40	2270.32
411.59	2368.62
411.78	2253.94
411.98	2293.72
412.17	2314.79
412.36	2370.96
412.55	2377.98
412.74	2530.12
412.93	2565.23
413.12	2396.71
413.31	2548.84
413.50	2548.84
413.69	2548.84
413.88	2621.40
414.07	2607.36
414.26	2621.40
414.45	2635.44
414.64	2614.38
414.83	2799.28
415.02	2698.64
415.22	2843.75
415.41	2661.19
415.60	2733.75
415.79	2829.71
415.98	2829.71
416.17	2799.28
416.36	2853.11
416.55	2825.03
416.74	3035.67
416.93	2855.45
417.12	2963.12
417.31	3016.95
417.50	2904.60
417.69	3126.96
417.88	3096.53
418.07	3016.95
418.26	3091.85
418.45	3063.76
418.64	3178.45
418.83	3131.64
419.02	3091.85
419.21	3302.50
419.39	3183.13
419.58	3157.38
419.77	3192.49
419.96	3269.73
420.15	3206.53
420.34	3234.62
420.53	3461.65
420.72	3311.86
420.91	3389.10
421.10	3445.27
421.29	3382.07
421.48	3356.33
421.67	3398.46
421.86	3529.53
422.05	3480.38
422.24	3445.27
422.43	3396.12
422.61	3456.97
422.80	3485.06
422.99	3559.95
423.18	3445.27
423.37	3557.61
423.56	3428.88
423.75	3461.65
423.94	3475.70
424.13	3253.34
424.32	3339.94
424.50	3623.15
424.69	3595.06
424.88	3623.15
425.07	3452.29
425.26	3489.74
425.45	3496.76
425.64	3569.32
425.83	3576.34
426.01	3794.01
426.20	3604.42
426.39	3700.39
426.58	3681.66
426.77	3414.84
426.96	3531.87
427.15	3583.36
427.33	3695.71
427.52	3686.34
427.71	3733.15
427.90	3850.18
428.09	3672.30
428.28	3693.37
428.46	3808.05
428.65	3782.31
428.84	3950.82
429.03	3857.20
429.22	3751.88
429.40	3779.97
429.59	3791.67
429.78	3613.79
429.97	3534.21
430.16	3721.45
430.34	3875.93
430.53	3854.86
430.72	3962.53
430.91	3995.29
431.10	3969.55
431.28	4004.66
431.47	4098.28
431.66	4161.47
431.85	4072.53
432.03	4147.43
432.22	4156.79
432.41	4095.94
432.60	4339.35
432.79	4119.34
432.97	4339.35
433.16	4301.90
433.35	4128.70
433.54	4264.46
433.72	4304.25
433.91	4280.84
434.10	4255.09
434.28	4379.14
434.47	4634.26
434.66	4472.76
434.85	4589.79
435.03	4500.85
435.22	4318.29
435.41	4484.47
435.59	4652.98
435.78	4617.88
435.97	4704.48
436.16	4458.72
436.34	4550.00
436.53	4643.62
436.72	4723.20
436.90	4442.34
437.09	4716.18
437.28	4589.79
437.46	4613.20
437.65	4638.94
437.84	4814.48
438.02	4652.98
438.21	4592.13
438.40	4802.78
438.58	4954.91
438.77	4966.62
438.96	4877.68
439.14	5015.77
439.33	5046.20
439.52	5018.11
439.70	5018.11
439.89	5142.16
440.08	5100.03
440.26	5104.71
440.45	5200.67
440.63	5214.71
440.82	5355.15
441.01	5256.84
441.19	5343.44
441.38	5411.32
441.57	5596.22
441.75	5713.25
441.94	5526.00
442.12	5458.13
442.31	5638.35
442.50	5738.99
442.68	5797.51
442.87	5748.36
443.05	5724.95
443.24	5926.24
443.43	5788.14
443.61	5802.19
443.80	5874.74
443.98	5554.09
444.17	5591.54
444.35	5809.21
444.54	5994.11
444.73	5795.17
444.91	5888.79
445.10	5891.13
445.28	5834.96
445.47	5804.53
445.65	5760.06
445.84	5858.36
446.02	5818.57
446.21	6022.20
446.39	5975.39
446.58	6043.26
446.77	6022.20
446.95	5926.24
447.14	5746.02
447.32	6179.01
447.51	6122.84
447.69	6052.63
447.88	5912.19
448.06	5963.68
448.25	6097.10
448.43	5963.68
448.62	6010.50
448.80	5949.64
448.99	6312.42
449.17	6225.82
449.36	6195.40
449.54	6157.95
449.73	6312.42
449.91	6349.87
450.10	6368.60
450.28	6487.96
450.46	6558.18
450.65	6394.34
450.83	6471.58
451.02	6429.45
451.20	6506.69
451.39	6300.72
451.57	6413.07
451.76	6455.20
451.94	6558.18
452.13	6431.79
452.31	6464.56
452.49	6480.94
452.68	6574.56
452.86	6506.69
453.05	6553.50
453.23	6560.52
453.42	6513.71
453.60	6527.75
453.78	6715.00
453.97	6478.60
454.15	6670.53
454.34	6668.19
454.52	6759.47
454.70	6710.32
454.89	6785.21
455.07	6782.87
455.26	6977.14
455.44	6883.52
455.62	6913.94
455.81	6925.65
455.99	7000.54
456.17	6956.07
456.36	7180.76
456.54	7061.40
456.73	7124.59
456.91	7253.32
457.09	7293.11
457.28	7414.82
457.46	7300.13
457.64	7384.39
457.83	7267.36
458.01	7133.95
458.19	7590.36
458.38	7344.60
458.56	7442.90
458.74	7454.61
458.93	7417.16
459.11	7541.21
459.29	7438.22
459.48	7452.27
459.66	7557.59
459.84	7581.00
460.03	7782.28
460.21	7882.92
460.39	7705.04
460.57	7674.62
460.76	7782.28
460.94	7903.99
461.12	7779.94
461.31	7861.86
461.49	7726.11
461.67	7852.50
461.85	7861.86
462.04	7995.27
462.22	8231.66
462.40	7845.48
462.59	8114.64
462.77	7868.88
462.95	8070.17
463.13	8070.17
463.32	8088.89
463.50	8079.53
463.68	8262.09
463.86	8189.53
464.05	8095.91
464.23	8072.51
464.41	8147.40
464.59	8201.24
464.78	8194.22
464.96	8238.69
465.14	8154.43
465.32	8187.19
465.50	8308.90
465.69	8566.36
465.87	8128.68
466.05	8425.93
466.23	8365.07
466.41	8194.22
466.60	8393.16
466.78	8170.81
466.96	8472.74
467.14	8362.73
467.32	8475.08
467.51	8552.32
467.69	8339.33
467.87	8458.70
468.05	8734.88
468.23	8491.46
468.41	8561.68
468.60	8535.93
468.78	8610.83
468.96	8725.52
469.14	8849.57
469.32	8992.34
469.50	8650.62
469.69	8823.82
469.87	8875.31
470.05	8870.63
470.23	8964.25
470.41	9022.77
470.59	9221.71
470.77	8978.30
470.95	8992.34
471.14	9036.81
471.32	9039.15
471.50	9366.82
471.68	9439.38
471.86	9256.82
472.04	9392.57
472.22	9551.73
472.40	9465.13
472.58	9336.40
472.77	9509.60
472.95	9633.64
473.13	9820.89
473.31	9523.64
473.49	9605.56
473.67	9633.64
473.85	9586.83
474.03	10010.47
474.21	9991.75
474.39	9984.73
474.57	9841.95
474.75	10031.54
474.93	10216.44
475.12	10270.27
475.30	10370.91
475.48	10314.74
475.66	10284.31
475.84	10415.38
476.02	10387.30
476.20	10391.98
476.38	10684.55
476.56	10855.40
476.74	10759.44
476.92	10661.14
477.10	10827.32
477.28	11007.54
477.46	10956.05
477.64	11126.91
477.82	10977.11
478.00	11466.28
478.18	11351.60
478.36	11346.92
478.54	11438.20
478.72	11580.97
478.90	12039.72
479.08	11613.74
479.26	11962.48
479.44	12077.16
479.62	11859.49
479.80	12229.30
479.98	12245.68
480.16	12421.22
480.34	12294.83
480.52	12322.92
480.70	12613.15
480.88	12430.59
481.06	12510.16
481.24	12528.89
481.41	12996.99
481.59	12989.97
481.77	13102.32
481.95	12966.57
482.13	13144.45
482.31	13181.90
482.49	13547.02
482.67	13537.66
482.85	13617.24
483.03	13671.07
483.21	13886.40
483.39	13947.25
483.57	13940.23
483.74	14345.14
483.92	14455.15
484.10	13895.76
484.28	14324.08
484.46	14523.02
484.64	14714.95
484.82	14647.07
485.00	14679.84
485.18	14890.49
485.35	15080.07
485.53	14888.15
485.71	15136.24
485.89	15246.25
486.07	15688.61
486.25	15578.61
486.43	15393.70
486.61	15557.54
486.78	15782.23
486.96	15875.85
487.14	16060.76
487.32	16343.96
487.50	16327.58
487.68	16723.13
487.85	16856.54
488.03	17011.01
488.21	16980.59
488.39	17057.82
488.57	16931.44
488.75	17062.51
488.92	17509.55
489.10	17610.19
489.28	17706.15
489.46	18197.67
489.64	17839.56
489.81	18017.44
489.99	18361.50
490.17	18359.16
490.35	18464.49
490.53	18675.13
490.70	18551.09
490.88	18857.70
491.06	19042.60
491.24	19145.58
491.41	18951.32
491.59	19328.14
491.77	19293.04
491.95	19491.98
492.13	19496.66
492.30	19592.62
492.48	19814.98
492.66	19807.95
492.84	19964.77
493.01	20170.74
493.19	20088.82
493.37	20624.80
493.54	20587.35
493.72	20800.34
493.90	20746.51
494.08	20908.01
494.25	21539.95
494.43	21252.06
494.61	21687.40
494.79	21413.56
494.96	21516.54
495.14	21755.28
495.32	21841.88
495.49	21841.88
495.67	22169.55
495.85	22115.72
496.02	22162.53
496.20	22087.64
496.38	22780.43
496.55	22817.88
496.73	23091.73
496.91	22824.90
497.09	22735.96
497.26	23307.05
497.44	22979.38
497.62	23014.49
497.79	23400.68
497.97	23426.42
498.14	23204.07
498.32	23606.64
498.50	23908.57
498.67	23964.75
498.85	24144.97
499.03	24203.48
499.20	24350.93
499.38	24348.59
499.56	24233.91
499.73	24432.85
499.91	24512.43
500.08	24594.35
500.26	24301.78
500.44	24732.44
500.61	24685.63
500.79	24685.63
500.97	24931.39
501.14	25242.68
501.32	24870.53
501.49	25394.81
501.67	25373.75
501.84	25560.99
502.02	25518.86
502.20	25687.38
502.37	25766.96
502.55	25528.22
502.72	25788.02
502.90	25748.23
503.07	26022.08
503.25	26045.48
503.43	25809.09
503.60	26181.23
503.78	26684.45
503.95	25837.17
504.13	26590.83
504.30	26661.04
504.48	26654.02
504.65	26644.66
504.83	26911.48
505.01	26726.58
505.18	26792.11
505.36	27332.78
505.53	26913.82
505.71	27716.62
505.88	27695.56
506.06	27147.87
506.23	27590.24
506.41	27735.35
506.58	27833.65
506.76	27679.18
506.93	27854.72
507.11	27922.59
507.28	27915.57
507.46	27644.07
507.63	27931.95
507.81	28168.35
507.98	28013.87
508.16	28383.68
508.33	28414.10
508.50	28709.01
508.68	28556.88
508.85	28889.23
509.03	28889.23
509.20	28975.83
509.38	29034.35
509.55	28931.36
509.73	28999.24
509.90	29308.19
510.08	28989.88
510.25	29256.70
510.42	29383.09
510.60	29766.93
510.77	29762.25
510.95	29462.66
511.12	29560.97
511.30	29926.09
511.47	30174.19
511.64	30436.33
511.82	29926.09
511.99	29722.46
512.17	30213.98
512.34	30363.77
512.51	30239.72
512.69	30204.61
512.86	30506.54
513.04	30171.85
513.21	30705.49
513.38	30857.62
513.56	30658.68
513.73	30684.42
513.90	31007.42
514.08	30958.27
514.25	31470.84
514.43	31105.72
514.60	31477.86
514.77	31204.02
514.95	31056.57
515.12	31246.15
515.29	31536.38
515.47	31749.37
515.64	31709.58
515.81	31515.31
515.99	31812.56
516.16	31618.30
516.33	31630.00
516.51	31871.07
516.68	31658.09
516.85	31660.43
517.03	32027.89
517.20	31976.40
517.37	32360.25
517.54	32297.05
517.72	32077.04
517.89	32184.71
518.06	32238.54
518.24	32367.27
518.41	32182.37
518.58	32147.26
518.75	32212.79
518.93	32823.67
519.10	32847.08
519.27	32797.93
519.45	33221.56
519.62	32926.66
519.79	33085.81
519.96	33074.11
520.14	33167.73
520.31	33074.11
520.48	33748.18
520.65	33427.53
520.83	33766.91
521.00	33474.34
521.17	33666.27
521.34	33296.46
521.52	33736.48
521.69	34017.35
521.86	33998.62
522.03	34202.25
522.20	34398.85
522.38	34466.73
522.55	34345.02
522.72	34106.29
522.89	34057.14
523.07	34700.78
523.24	34267.78
523.41	34801.43
523.58	34642.27
523.75	34497.16
523.92	34787.38
524.10	34890.37
524.27	35166.55
524.44	35028.46
524.61	34998.03
524.78	35093.99
524.96	35229.74
525.13	35716.58
525.30	35590.19
525.47	35304.64
525.64	35728.28
525.81	35934.24
525.98	35297.62
526.16	35526.99
526.33	35445.07
526.50	35374.86
526.67	35374.86
526.84	35358.47
527.01	35374.86
527.18	35838.28
527.36	35924.88
527.53	36151.91
527.70	36423.42
527.87	36306.39
528.04	36041.91
528.21	36191.70
528.38	36170.64
528.55	36299.37
528.72	36315.75
528.89	36697.26
529.07	36645.77
529.24	36556.83
529.41	36723.01
529.58	36341.50
529.75	36725.35
529.92	37031.96
530.09	36690.24
530.26	37181.75
530.43	36884.50
530.60	36858.76
530.77	37205.16
530.94	37181.75
531.11	36905.57
531.28	37315.16
531.46	37034.30
531.63	37425.17
531.80	37202.82
531.97	37202.82
532.14	37581.98
532.31	37305.80
532.48	37448.57
532.65	37769.22
532.82	37556.24
532.99	37677.94
533.16	37464.96
533.33	37446.23
533.50	37626.45
533.67	37968.17
533.84	37724.75
534.01	38263.08
534.18	37764.54
534.35	38291.16
534.52	37809.01
534.69	38094.56
534.86	38050.09
535.03	37837.10
535.20	38497.13
535.37	38576.71
535.54	38253.72
535.71	38209.25
535.88	38167.12
536.05	38721.82
536.22	39058.86
536.38	38979.28
536.55	38457.34
536.72	38951.20
536.89	38401.17
537.06	38731.18
537.23	38628.20
537.40	38871.62
537.57	38735.87
537.74	38459.68
537.91	39332.70
538.08	39147.80
538.25	38866.94
538.42	38946.51
538.59	39047.16
538.75	38841.19
538.92	39199.29
539.09	39381.85
539.26	39440.37
539.43	39124.40
539.60	39519.95
539.77	39498.88
539.94	39126.74
540.11	39470.79
540.28	39283.55
540.44	39704.85
540.61	39386.54
540.78	39199.29
540.95	39346.75
541.12	39480.16
541.29	39358.45
541.46	39704.85
541.62	39901.45
541.79	40212.74
541.96	39606.55
542.13	39938.90
542.30	40114.44
542.47	40397.65
542.63	40460.84
542.80	40229.13
542.97	40414.03
543.14	40411.69
543.31	40289.98
543.48	40947.67
543.64	40832.99
543.81	40879.80
543.98	40385.94
544.15	40512.33
544.32	41020.23
544.48	41219.17
544.65	40676.17
544.82	40917.25
544.99	40659.79
545.16	40556.80
545.32	40870.43
545.49	40907.88
545.66	40996.82
545.83	41408.76
546.00	41205.13
546.16	41441.53
546.33	41024.91
546.50	40959.38
546.67	41141.94
546.83	40683.19
547.00	41071.72
547.17	40877.46
547.34	41268.33
547.50	41631.11
547.67	41879.21
547.84	41572.60
548.00	41404.08
548.17	41846.44
548.34	41366.63
548.51	41752.82
548.67	41909.63
548.84	42050.06
549.01	41972.83
549.18	41879.21
549.34	42300.50
549.51	42007.94
549.68	42029.00
549.84	41926.02
550.01	42323.91
550.18	41911.97
550.34	41954.10
550.51	42033.68
550.68	41923.68
550.84	41787.92
551.01	41900.27
551.18	42050.06
551.34	42110.92
551.51	42136.66
551.68	42223.26
551.84	42501.79
552.01	42019.64
552.18	42096.88
552.34	42162.41
552.51	42623.50
552.68	42181.13
552.84	42445.62
553.01	43124.37
553.18	42674.99
553.34	42202.20
553.51	42232.63
553.67	42497.11
553.84	43122.03
554.01	43131.39
554.17	43178.20
554.34	42831.80
554.51	42923.08
554.67	43330.34
554.84	43063.52
555.00	42672.65
555.17	43084.58
555.33	42775.63
555.50	43189.91
555.67	42831.80
555.83	43075.22
556.00	42953.51
556.16	43096.28
556.33	43302.25
556.50	42859.89
556.66	43196.93
556.83	42759.25
556.99	43323.32
557.16	43349.06
557.32	43353.74
557.49	42979.26
557.65	43086.92
557.82	42993.30
557.98	42721.80
558.15	43641.63
558.32	43775.04
558.48	43215.65
558.65	43295.23
558.81	43342.04
558.98	42829.46
559.14	43487.15
559.31	43257.78
559.47	43161.82
559.64	43587.80
559.80	43739.93
559.97	43496.52
560.13	43501.20
560.30	43599.50
560.46	43356.08
560.63	43728.23
560.79	43704.82
560.96	43538.65
561.12	43604.18
561.29	43983.35
561.45	43339.70
561.61	43613.54
561.78	43669.72
561.94	43325.66
562.11	43756.32
562.27	43683.76
562.44	44009.09
562.60	44121.44
562.77	44095.69
562.93	43676.74
563.10	43948.24
563.26	43845.26
563.42	44051.22
563.59	43849.94
563.75	44161.23
563.92	44292.30
564.08	44100.37
564.24	44201.02
564.41	44247.83
564.57	43892.07
564.74	43693.12
564.90	44292.30
565.07	43711.84
565.23	43863.98
565.39	44037.18
565.56	44205.70
565.72	44231.44
565.88	44308.68
566.05	44044.20
566.21	43981.01
566.38	44121.44
566.54	43920.15
566.70	44367.20
566.87	44388.26
567.03	44179.95
567.19	44346.13
567.36	44289.96
567.52	44282.94
567.68	44594.23
567.85	44172.93
568.01	43894.41
568.17	44257.19
568.34	44399.96
568.50	44406.98
568.66	44009.09
568.83	44210.38
568.99	43959.94
569.15	44025.48
569.32	44261.87
569.48	44238.47
569.64	44779.13
569.81	44444.43
569.97	44505.29
570.13	44245.49
570.30	44168.25
570.46	43852.28
570.62	43969.30
570.78	43922.49
570.95	44002.07
571.11	44432.73
571.27	44502.95
571.43	44280.60
571.60	44575.50
571.76	44353.15
571.92	44437.41
572.09	44037.18
572.25	44437.41
572.41	44390.60
572.57	44343.79
572.74	44978.07
572.90	44727.64
573.06	44598.91
573.22	44524.01
573.38	44444.43
573.55	44397.62
573.71	44615.29
573.87	44737.00
574.03	44233.78
574.20	44458.48
574.36	44390.60
574.52	44662.10
574.68	44917.22
574.84	44259.53
575.01	44741.68
575.17	44505.29
575.33	44715.93
575.49	44737.00
575.65	45132.55
575.82	44828.28
575.98	44776.79
576.14	44715.93
576.30	44339.11
576.46	44416.35
576.62	44559.12
576.79	44626.99
576.95	44322.72
577.11	44680.83
577.27	44404.64
577.43	44779.13
577.59	44591.89
577.75	44409.32
577.92	44678.49
578.08	44488.90
578.24	44367.20
578.40	44289.96
578.56	44507.63
578.72	44559.12
578.88	44765.09
579.04	44507.63
579.21	44409.32
579.37	44753.38
579.53	44676.15
579.69	44385.92
579.85	44629.34
580.01	44631.68
580.17	44666.78
580.33	44760.40
580.49	44685.51
580.65	44809.56
580.82	44547.42
580.98	44594.23
581.14	44423.37
581.30	44519.33
581.46	44638.70
581.62	45017.86
581.78	44392.94
581.94	45088.08
582.10	44872.75
582.26	45027.23
582.42	44659.76
582.58	44928.92
582.74	44484.22
582.90	45036.59
583.06	45015.52
583.22	44994.46
583.38	44624.65
583.54	45029.57
583.70	44456.14
583.86	44825.94
584.02	44425.71
584.18	44957.01
584.34	44779.13
584.50	44676.15
584.66	44406.98
584.82	44538.05
584.98	44528.69
585.14	44884.45
585.30	44580.18
585.46	44638.70
585.62	44289.96
585.78	44856.37
585.94	44294.64
586.10	44453.79
586.26	44596.57
586.42	44626.99
586.58	45127.87
586.74	44835.30
586.90	44493.58
587.06	44313.36
587.22	44861.05
587.38	44414.01
587.54	45020.20
587.70	45041.27
587.86	45216.81
588.02	44659.76
588.18	44959.35
588.34	45010.84
588.49	44566.14
588.65	44495.92
588.81	44481.88
588.97	44364.85
589.13	44732.32
589.29	44797.85
589.45	45059.99
589.61	44697.21
589.77	45041.27
589.93	44839.98
590.08	45415.76
590.24	45216.81
