SpectraSuite Data File
++++++++++++++++++++++++++++++++++++
Date: Fri Oct 25 10:48:29 EDT 2013
User: price-jones
Dark Spectrum Present: No
Reference Spectrum Present: No
Number of Sampled Component Spectra: 1
Spectrometers: USB2+H05261
Integration Time (usec): 100000 (USB2+H05261)
Spectra Averaged: 1 (USB2+H05261)
Boxcar Smoothing: 0 (USB2+H05261)
Correct for Electrical Dark: No (USB2+H05261)
Strobe/Lamp Enabled: No (USB2+H05261)
Correct for Detector Non-linearity: No (USB2+H05261)
Correct for Stray Light: No (USB2+H05261)
Number of Pixels in Processed Spectrum: 2048
>>>>>Begin Processed Spectral Data<<<<<
365.73	63.19
365.92	63.19
366.12	63.19
366.32	98.30
366.52	46.81
366.72	60.85
366.91	56.17
367.11	49.15
367.31	0.00
367.51	65.54
367.70	60.85
367.90	63.19
368.10	28.09
368.30	72.56
368.49	23.41
368.69	67.88
368.89	63.19
369.09	81.92
369.28	74.90
369.48	44.47
369.68	128.73
369.87	70.22
370.07	79.58
370.27	168.52
370.47	208.31
370.66	425.98
370.86	444.70
371.06	475.13
371.25	528.96
371.45	514.92
371.65	465.77
371.84	484.49
372.04	451.72
372.24	477.47
372.44	430.66
372.63	533.64
372.83	589.82
373.03	505.56
373.22	538.32
373.42	573.43
373.62	587.47
373.81	533.64
374.01	699.82
374.21	547.69
374.40	510.24
374.60	631.94
374.79	559.39
374.99	592.16
375.19	596.84
375.38	587.47
375.58	540.66
375.78	596.84
375.97	613.22
376.17	617.90
376.37	596.84
376.56	638.97
376.76	573.43
376.95	671.73
377.15	624.92
377.35	676.41
377.54	657.69
377.74	641.31
377.93	706.84
378.13	706.84
378.33	685.78
378.52	622.58
378.72	660.03
378.91	699.82
379.11	648.33
379.31	690.46
379.50	676.41
379.70	662.37
379.89	706.84
380.09	681.10
380.28	788.76
380.48	732.59
380.68	716.20
380.87	678.76
381.07	720.88
381.26	746.63
381.46	725.57
381.65	739.61
381.85	683.44
382.04	690.46
382.24	763.01
382.43	695.14
382.63	842.59
382.83	716.20
383.02	718.54
383.22	795.78
383.41	732.59
383.61	730.25
383.80	713.86
384.00	821.53
384.19	835.57
384.39	826.21
384.58	809.83
384.78	828.55
384.97	802.80
385.17	781.74
385.36	894.08
385.56	828.55
385.75	868.34
385.95	873.02
386.14	882.38
386.34	884.72
386.53	868.34
386.72	894.08
386.92	866.00
387.11	851.96
387.31	856.64
387.50	933.87
387.70	945.58
387.89	896.43
388.09	933.87
388.28	931.53
388.48	891.74
388.67	987.71
388.86	992.39
389.06	940.90
389.25	1018.13
389.45	1006.43
389.64	983.02
389.84	1071.97
390.03	1036.86
390.22	1018.13
390.42	1057.92
390.61	1095.37
390.81	1001.75
391.00	1048.56
391.19	1057.92
391.39	1177.29
391.58	1050.90
391.78	1057.92
391.97	1053.24
392.16	1008.77
392.36	1078.99
392.55	1109.41
392.75	1111.75
392.94	1006.43
393.13	985.37
393.33	1078.99
393.52	1043.88
393.71	1074.31
393.91	1177.29
394.10	1233.46
394.29	1284.95
394.49	1107.07
394.68	1235.80
394.88	1177.29
395.07	1275.59
395.26	1327.08
395.46	1252.19
395.65	1299.00
395.84	1172.61
396.04	1320.06
396.23	1270.91
396.42	1240.48
396.62	1231.12
396.81	1228.78
397.00	1217.08
397.19	1289.64
397.39	1357.51
397.58	1437.09
397.77	1411.34
397.97	1497.94
398.16	1387.94
398.35	1406.66
398.55	1502.62
398.74	1441.77
398.93	1507.30
399.12	1502.62
399.32	1483.90
399.51	1481.56
399.70	1551.78
399.90	1500.28
400.09	1629.01
400.28	1600.93
400.47	1680.50
400.67	1722.63
400.86	1706.25
401.05	1687.53
401.24	1834.98
401.44	1732.00
401.63	1685.19
401.82	1764.76
402.01	1732.00
402.21	1797.53
402.40	1767.10
402.59	1776.47
402.78	1804.55
402.97	1755.40
403.17	1774.13
403.36	1799.87
403.55	1795.19
403.74	1905.20
403.93	1916.90
404.13	1827.96
404.32	1952.01
404.51	1933.28
404.70	1891.15
404.89	1830.30
405.09	2050.31
405.28	2026.90
405.47	2010.52
405.66	2026.90
405.85	1984.77
406.05	2045.63
406.24	2069.03
406.43	2003.50
406.62	2001.16
406.81	2165.00
407.00	2085.42
407.20	2033.93
407.39	2071.37
407.58	2129.89
407.77	2200.10
407.96	2155.63
408.15	2235.21
408.34	2207.13
408.54	2263.30
408.73	2361.60
408.92	2324.15
409.11	2321.81
409.30	2214.15
409.49	2225.85
409.68	2284.36
409.87	2333.51
410.07	2359.26
410.26	2415.43
410.45	2394.37
410.64	2363.94
410.83	2534.80
411.02	2455.22
411.21	2644.81
411.40	2670.55
411.59	2565.23
411.78	2665.87
411.98	2525.44
412.17	2672.89
412.36	2684.59
412.55	2710.34
412.74	2787.58
412.93	2750.13
413.12	2647.15
413.31	2892.90
413.50	2843.75
413.69	2848.43
413.88	2979.50
414.07	2895.24
414.26	3063.76
414.45	3012.27
414.64	3002.91
414.83	3047.38
415.02	3016.95
415.22	3129.30
415.41	3148.02
415.60	3192.49
415.79	3199.51
415.98	3232.28
416.17	3183.13
416.36	3201.85
416.55	3176.11
416.74	3274.41
416.93	3251.00
417.12	3318.88
417.31	3365.69
417.50	3351.65
417.69	3396.12
417.88	3414.84
418.07	3440.59
418.26	3466.33
418.45	3433.57
418.64	3705.07
418.83	3602.08
419.02	3482.72
419.21	3688.68
419.39	3604.42
419.58	3382.07
419.77	3435.91
419.96	3676.98
420.15	3674.64
420.34	3639.53
420.53	3721.45
420.72	3782.31
420.91	3805.71
421.10	3822.09
421.29	3873.59
421.48	3742.52
421.67	3882.95
421.86	3833.80
422.05	3845.50
422.24	3784.65
422.43	3763.58
422.61	3850.18
422.80	3946.14
422.99	3896.99
423.18	3894.65
423.37	4180.20
423.56	3964.87
423.75	3911.04
423.94	3889.97
424.13	3618.47
424.32	3772.94
424.50	3946.14
424.69	4105.30
424.88	4030.40
425.07	3934.44
425.26	3904.01
425.45	3967.21
425.64	4018.70
425.83	3957.85
426.01	4067.85
426.20	4004.66
426.39	4189.56
426.58	4004.66
426.77	4063.17
426.96	4016.36
427.15	3971.89
427.33	4257.43
427.52	4067.85
427.71	4091.26
427.90	4060.83
428.09	4280.84
428.28	4215.30
428.46	4119.34
428.65	4194.24
428.84	4292.54
429.03	4311.27
429.22	4016.36
429.40	4152.11
429.59	4191.90
429.78	3925.08
429.97	3918.06
430.16	4072.53
430.34	4248.07
430.53	4227.01
430.72	4269.14
430.91	4255.09
431.10	4428.29
431.28	4566.39
431.47	4645.96
431.66	4786.40
431.85	4559.36
432.03	4688.09
432.22	4641.28
432.41	4615.54
432.60	4713.84
432.79	4727.88
432.97	4697.46
433.16	4873.00
433.35	4781.71
433.54	4732.56
433.72	4643.62
433.91	4652.98
434.10	4863.63
434.28	4840.23
434.47	4936.19
434.66	4938.53
434.85	4978.32
435.03	4926.83
435.22	4865.97
435.41	5135.14
435.59	5078.96
435.78	5331.74
435.97	5226.42
436.16	5203.01
436.34	4901.08
436.53	5224.08
436.72	5231.10
436.90	5062.58
437.09	5287.27
437.28	5102.37
437.46	5217.05
437.65	5345.78
437.84	5287.27
438.02	5142.16
438.21	5308.34
438.40	5219.39
438.58	5254.50
438.77	5607.92
438.96	5526.00
439.14	5638.35
439.33	5689.84
439.52	5596.22
439.70	5432.38
439.89	5600.90
440.08	5757.72
440.26	5668.78
440.45	5612.60
440.63	5966.03
440.82	6064.33
441.01	5884.11
441.19	5893.47
441.38	6183.70
441.57	6221.14
441.75	6359.24
441.94	6333.49
442.12	6377.96
442.31	6429.45
442.50	6387.32
442.68	6253.91
442.87	6179.01
443.05	6225.82
443.24	6537.12
443.43	6516.05
443.61	6572.22
443.80	6754.79
443.98	6413.07
444.17	6265.61
444.35	6511.37
444.54	6567.54
444.73	6452.86
444.91	6506.69
445.10	6429.45
445.28	6436.47
445.47	6403.71
445.65	6450.52
445.84	6548.82
446.02	6707.98
446.21	6612.01
446.39	6623.72
446.58	6642.44
446.77	6649.46
446.95	6583.93
447.14	6747.76
447.32	6925.65
447.51	6745.42
447.69	6635.42
447.88	6722.02
448.06	6897.56
448.25	6796.92
448.43	6710.32
448.62	6853.09
448.80	6544.14
448.99	6981.82
449.17	6892.88
449.36	6785.21
449.54	6932.67
449.73	6998.20
449.91	7241.62
450.10	7157.36
450.28	7426.52
450.46	7169.06
450.65	7077.78
450.83	7187.79
451.02	7112.89
451.20	7372.69
451.39	7279.07
451.57	7225.23
451.76	7222.89
451.94	7358.64
452.13	7386.73
452.31	7213.53
452.49	7136.29
452.68	7356.30
452.86	7103.53
453.05	7452.27
453.23	7372.69
453.42	7255.66
453.60	7253.32
453.78	7421.84
453.97	7321.20
454.15	7346.94
454.34	7548.23
454.52	7529.50
454.70	7571.63
454.89	7585.68
455.07	7611.42
455.26	7630.15
455.44	7892.29
455.62	7831.43
455.81	7789.30
455.99	7892.29
456.17	7831.43
456.36	7789.30
456.54	7955.48
456.73	7761.22
456.91	8285.50
457.09	8182.51
457.28	8362.73
457.46	8161.45
457.64	8503.17
457.83	8161.45
458.01	7974.21
458.19	8226.98
458.38	8278.47
458.56	8545.30
458.74	8304.22
458.93	8229.32
459.11	8386.14
459.29	8264.43
459.48	8362.73
459.66	8248.05
459.84	8575.72
460.03	8573.38
460.21	8334.65
460.39	8505.51
460.57	8510.19
460.76	8643.60
460.94	8772.33
461.12	8816.80
461.31	8657.64
461.49	8713.81
461.67	8662.32
461.85	8889.35
462.04	8903.40
462.22	9071.92
462.40	8908.08
462.59	9025.11
462.77	9074.26
462.95	9074.26
463.13	8898.72
463.32	9029.79
463.50	9001.70
463.68	9123.41
463.86	8978.30
464.05	9011.06
464.23	8943.19
464.41	9163.20
464.59	9043.83
464.78	9369.16
464.96	9167.88
465.14	9050.85
465.32	9315.33
465.50	9369.16
465.69	9149.15
465.87	9394.91
466.05	9195.96
466.23	9022.77
466.41	9139.79
466.60	9493.21
466.78	9472.15
466.96	9380.87
467.14	9528.32
467.32	9287.25
467.51	9659.39
467.69	9303.63
467.87	9397.25
468.05	9579.81
468.23	9523.64
468.41	9404.27
468.60	9490.87
468.78	9547.05
468.96	9610.24
469.14	9893.44
469.32	9633.64
469.50	9647.69
469.69	9834.93
469.87	9673.43
470.05	9844.29
470.23	9989.41
470.41	10108.77
470.59	10061.96
470.77	10026.86
470.95	9928.55
471.14	10211.76
471.32	10073.67
471.50	10256.23
471.68	10509.01
471.86	10553.48
472.04	10654.12
472.22	10630.71
472.40	10272.61
472.58	10511.35
472.77	10509.01
472.95	10782.85
473.13	10675.18
473.31	10567.52
473.49	10586.24
473.67	10736.04
473.85	10782.85
474.03	11030.94
474.21	11098.82
474.39	10972.43
474.57	11206.48
474.75	11159.67
474.93	11154.99
475.12	11143.29
475.30	11360.96
475.48	11398.41
475.66	11463.94
475.84	11272.02
476.02	11562.25
476.20	11477.99
476.38	11700.34
476.56	12343.99
476.74	11943.75
476.92	11864.18
477.10	12016.31
477.28	12259.73
477.46	12025.67
477.64	12343.99
477.82	12397.82
478.00	12549.95
478.18	12428.24
478.36	12531.23
478.54	12718.47
478.72	13046.15
478.90	13085.94
479.08	13312.97
479.26	13198.28
479.44	13254.45
479.62	13472.12
479.80	13404.25
479.98	13631.28
480.16	13610.22
480.34	13593.83
480.52	13795.12
480.70	13685.11
480.88	13804.48
481.06	13846.61
481.24	14183.65
481.41	14476.21
481.59	14654.09
481.77	14492.60
481.95	14569.83
482.13	14527.71
482.31	14523.02
482.49	14993.47
482.67	15243.91
482.85	14890.49
483.03	15229.87
483.21	15274.34
483.39	15325.83
483.57	15569.24
483.74	15573.92
483.92	15829.04
484.10	15857.13
484.28	15899.26
484.46	16353.32
484.64	16278.43
484.82	16219.91
485.00	16372.05
485.18	16294.81
485.35	16606.10
485.53	16416.52
485.71	16439.92
485.89	16479.71
486.07	16496.10
486.25	16477.37
486.43	17046.12
486.61	17226.34
486.78	17261.45
486.96	17603.17
487.14	17687.43
487.32	18118.09
487.50	17991.70
487.68	18272.56
487.85	18621.30
488.03	18707.90
488.21	18827.27
488.39	18630.66
488.57	18939.62
488.75	18939.62
488.92	19257.93
489.10	19405.38
489.28	19426.45
489.46	19969.45
489.64	19672.20
489.81	20173.08
489.99	20367.34
490.17	20287.76
490.35	20493.73
490.53	20229.25
490.70	20648.21
490.88	20592.03
491.06	20594.37
491.24	20863.54
491.41	21055.46
491.59	20938.43
491.77	21109.29
491.95	21315.26
492.13	21446.33
492.30	21844.22
492.48	21675.70
492.66	21671.02
492.84	22008.06
493.01	22333.39
493.19	22143.81
493.37	22331.05
493.54	22403.61
493.72	22909.16
493.90	22735.96
494.08	23056.62
494.25	23498.98
494.43	23398.34
494.61	23213.43
494.79	23454.51
494.96	23761.12
495.14	23550.47
495.32	23915.59
495.49	24105.18
495.67	24051.34
495.85	24013.90
496.02	24514.77
496.20	24786.27
496.38	24774.57
496.55	24383.70
496.73	25170.12
496.91	25238.00
497.09	24947.77
497.26	25366.73
497.44	25230.98
497.62	25542.27
497.79	25741.21
497.97	25631.21
498.14	26038.46
498.32	25883.98
498.50	25991.65
498.67	26452.73
498.85	26169.53
499.03	26455.08
499.20	26291.24
499.38	26780.41
499.56	26445.71
499.73	26469.12
499.91	26677.43
500.08	26712.53
500.26	26408.26
500.44	26637.64
500.61	27204.05
500.79	26698.49
500.97	27070.64
501.14	28048.98
501.32	27428.74
501.49	27674.49
501.67	27503.64
501.84	27590.24
502.02	27789.18
502.20	27730.67
502.37	27681.52
502.55	28173.03
502.72	28329.84
502.90	28325.16
503.07	28540.49
503.25	28196.43
503.43	28154.30
503.60	28474.96
503.78	28704.33
503.95	28584.96
504.13	28519.43
504.30	28732.42
504.48	28903.28
504.65	29167.76
504.83	29422.87
505.01	29404.15
505.18	29221.59
505.36	29511.81
505.53	29802.04
505.71	30012.69
505.88	29785.66
506.06	29575.01
506.23	30022.05
506.41	30019.71
506.58	29979.92
506.76	29750.55
506.93	30075.88
507.11	30366.11
507.28	30567.40
507.46	29996.31
507.63	30370.79
507.81	30618.89
507.98	30225.68
508.16	30824.86
508.33	31168.91
508.50	31512.97
508.68	31208.70
508.85	31468.50
509.03	31566.81
509.20	31342.11
509.38	31531.70
509.55	31665.11
509.73	31674.47
509.90	31648.72
510.08	31871.07
510.25	31885.12
510.42	31747.03
510.60	32025.55
510.77	32194.07
510.95	32133.21
511.12	31974.06
511.30	32505.36
511.47	32870.48
511.64	32589.62
511.82	32708.99
511.99	32486.64
512.17	32755.80
512.34	32336.84
512.51	32776.86
512.69	33352.63
512.86	32837.72
513.04	33174.75
513.21	32910.27
513.38	33064.75
513.56	33163.05
513.73	32751.12
513.90	33376.04
514.08	33301.14
514.25	33464.98
514.43	33336.25
514.60	33560.94
514.77	33670.95
514.95	33764.57
515.12	33979.90
515.29	33965.85
515.47	34565.03
515.64	34405.88
515.81	33724.78
515.99	34202.25
516.16	34160.12
516.33	33900.32
516.51	33883.94
516.68	33883.94
516.85	33654.56
517.03	34185.86
517.20	34267.78
517.37	34927.81
517.54	35019.10
517.72	34841.21
517.89	34202.25
518.06	34459.71
518.24	34534.60
518.41	34766.32
518.58	35047.18
518.75	34937.18
518.93	35140.80
519.10	35199.32
519.27	35484.86
519.45	35484.86
519.62	35770.41
519.79	35604.23
519.96	35775.09
520.14	36271.28
520.31	35803.17
520.48	35952.97
520.65	36072.34
520.83	36074.68
521.00	36114.47
521.17	36451.50
521.34	36205.75
521.52	36655.13
521.69	37076.43
521.86	36889.18
522.03	36758.11
522.20	36687.90
522.38	36788.54
522.55	37146.64
522.72	36512.36
522.89	36601.30
523.07	37287.07
523.24	36879.82
523.41	37336.23
523.58	36879.82
523.75	37638.15
523.92	37507.08
524.10	37806.67
524.27	37488.36
524.44	37710.71
524.61	38017.32
524.78	37553.90
524.96	38064.13
525.13	37944.76
525.30	37975.19
525.47	38120.31
525.64	37897.95
525.81	37848.80
525.98	37748.16
526.16	37984.55
526.33	37912.00
526.50	38160.09
526.67	37495.38
526.84	37972.85
527.01	38080.52
527.18	38026.68
527.36	38859.91
527.53	38497.13
527.70	38969.92
527.87	38998.01
528.04	38515.86
528.21	39037.80
528.38	38787.36
528.55	39068.22
528.72	39138.44
528.89	39620.59
529.07	39604.20
529.24	38988.64
529.41	39438.03
529.58	39084.61
529.75	38998.01
529.92	39854.64
530.09	39477.82
530.26	39709.53
530.43	39775.06
530.60	39608.89
530.77	39562.08
530.94	39948.26
531.11	39936.56
531.28	39828.90
531.46	39667.40
531.63	39981.03
531.80	39974.01
531.97	39573.78
532.14	40147.21
532.31	39274.19
532.48	39587.82
532.65	40481.91
532.82	40112.10
532.99	40437.44
533.16	40203.38
533.33	40547.44
533.50	40559.14
533.67	40488.93
533.84	40847.03
534.01	40484.25
534.18	40105.08
534.35	41132.57
534.52	40926.61
534.69	41064.70
534.86	40914.90
535.03	40348.50
535.20	41188.75
535.37	41268.33
535.54	41319.82
535.71	41298.75
535.88	40945.33
536.05	41413.44
536.22	41207.47
536.38	41076.40
536.55	40959.38
536.72	41383.01
536.89	40931.29
537.06	41390.03
537.23	41546.85
537.40	41563.23
537.57	41794.95
537.74	41411.10
537.91	41570.25
538.08	41591.32
538.25	41338.54
538.42	41909.63
538.59	42291.14
538.75	41481.31
538.92	41661.54
539.09	41886.23
539.26	41916.65
539.43	41656.85
539.60	41757.50
539.77	41956.44
539.94	42150.71
540.11	41970.49
540.28	41820.69
540.44	42024.32
540.61	42047.72
540.78	41729.41
540.95	41890.91
541.12	42230.29
541.29	42389.44
541.46	42005.59
541.62	42742.86
541.79	42572.00
541.96	42113.26
542.13	42340.29
542.30	42462.00
542.47	42354.33
542.63	42564.98
542.80	42824.78
542.97	43302.25
543.14	43412.26
543.31	42808.40
543.48	43339.70
543.64	43196.93
543.81	43377.15
543.98	43185.22
544.15	43168.84
544.32	43171.18
544.48	43805.47
544.65	43384.17
544.82	43351.40
544.99	43255.44
545.16	43421.62
545.32	43299.91
545.49	43438.00
545.66	43550.35
545.83	43985.69
546.00	43679.08
546.16	43770.36
546.33	43730.57
546.50	43185.22
546.67	43751.63
546.83	43690.78
547.00	43356.08
547.17	43489.49
547.34	43920.15
547.50	43501.20
547.67	44212.72
547.84	43924.83
548.00	43796.10
548.17	44156.55
548.34	44196.34
548.51	44650.40
548.67	44432.73
548.84	44842.32
549.01	44318.04
549.18	44498.26
549.34	44320.38
549.51	44538.05
549.68	44271.23
549.84	44945.31
550.01	44573.16
550.18	44149.53
550.34	44467.84
550.51	44357.83
550.68	44294.64
550.84	43948.24
551.01	44926.58
551.18	44734.66
551.34	44465.50
551.51	45059.99
551.68	44809.56
551.84	44790.83
552.01	44814.24
552.18	44818.92
552.34	44339.11
552.51	44832.96
552.68	44942.97
552.84	45109.14
553.01	45078.72
553.18	45069.36
553.34	44996.80
553.51	44924.24
553.67	45214.47
553.84	45308.09
554.01	44945.31
554.17	45235.53
554.34	45275.32
554.51	45132.55
554.67	45387.67
554.84	45322.13
555.00	45174.68
555.17	44928.92
555.33	45654.49
555.50	45357.24
555.67	45071.70
555.83	45464.91
556.00	45404.05
556.16	45928.33
556.33	45724.71
556.50	45397.03
556.66	45364.26
556.83	45270.64
556.99	46251.33
557.16	45413.41
557.32	45670.87
557.49	45642.79
557.65	45614.70
557.82	45687.26
557.98	45621.72
558.15	45471.93
558.32	45883.86
558.48	45509.38
558.65	45579.59
558.81	45450.86
558.98	45741.09
559.14	45553.85
559.31	45523.42
559.47	45808.96
559.64	45949.40
559.80	46223.24
559.97	46087.49
560.13	45930.67
560.30	45766.84
560.46	45832.37
560.63	46071.10
560.79	46064.08
560.96	46218.56
561.12	46309.84
561.29	46258.35
561.45	46089.83
561.61	46258.35
561.78	46244.30
561.94	46064.08
562.11	45961.10
562.27	46094.51
562.44	45893.22
562.60	46553.26
562.77	46733.48
562.93	46167.07
563.10	46487.72
563.26	46005.57
563.42	46234.94
563.59	45970.46
563.75	46279.41
563.92	46663.26
564.08	46291.12
564.24	46672.62
564.41	46651.56
564.57	46450.27
564.74	46354.31
564.90	46581.34
565.07	46394.10
565.23	46529.85
565.39	46227.92
565.56	46401.12
565.72	45937.69
565.88	46080.47
566.05	46443.25
566.21	46127.28
566.38	46038.34
566.54	46380.06
566.70	46363.67
566.87	46571.98
567.03	46445.59
567.19	46726.46
567.36	46735.82
567.52	46653.90
567.68	46452.61
567.85	46270.05
568.01	46707.73
568.17	46401.12
568.34	46227.92
568.50	46499.42
568.66	46047.70
568.83	46258.35
568.99	46211.54
569.15	46546.23
569.32	46415.16
569.48	46590.70
569.64	46354.31
569.81	46342.61
569.97	46541.55
570.13	46567.30
570.30	46527.51
570.46	46248.99
570.62	45867.48
570.78	45808.96
570.95	46162.39
571.11	46459.63
571.27	46288.77
571.43	46464.32
571.60	46770.93
571.76	46843.48
571.92	46637.51
572.09	46415.16
572.25	46681.98
572.41	46681.98
572.57	46820.08
572.74	47302.23
572.90	46216.22
573.06	46773.27
573.22	46541.55
573.38	47131.37
573.55	46571.98
573.71	46457.29
573.87	46777.95
574.03	46897.31
574.20	46946.47
574.36	46340.27
574.52	47042.43
574.68	46862.21
574.84	46836.46
575.01	46642.20
575.17	46478.36
575.33	46658.58
575.49	46560.28
575.65	47166.48
575.82	46646.88
575.98	46600.07
576.14	46784.97
576.30	46855.18
576.46	46726.46
576.62	46834.12
576.79	46787.31
576.95	46192.81
577.11	46504.10
577.27	46918.38
577.43	46796.67
577.59	46560.28
577.75	46457.29
577.92	46122.60
578.08	46410.48
578.24	46057.06
578.40	46562.62
578.56	46719.43
578.72	46894.97
578.88	46906.68
579.04	46923.06
579.21	46277.07
579.37	46707.73
579.53	46698.37
579.69	46817.74
579.85	46553.26
580.01	46864.55
580.17	47012.00
580.33	46789.65
580.49	46759.22
580.65	46616.45
580.82	47009.66
580.98	46588.36
581.14	46745.18
581.30	46913.70
581.46	46983.91
581.62	46712.41
581.78	46841.14
581.94	47166.48
582.10	46972.21
582.26	47014.34
582.42	47143.07
582.58	46609.43
582.74	46789.65
582.90	47126.69
583.06	46813.05
583.22	46885.61
583.38	46791.99
583.54	47171.16
583.70	46787.31
583.86	46588.36
584.02	46899.65
584.18	47552.66
584.34	47129.03
584.50	46911.36
584.66	46948.81
584.82	46946.47
584.98	46841.14
585.14	46988.60
585.30	46902.00
585.46	47004.98
585.62	46705.39
585.78	47398.19
585.94	46824.76
586.10	46909.02
586.26	46658.58
586.42	46789.65
586.58	46649.22
586.74	47126.69
586.90	47047.11
587.06	46742.84
587.22	47152.43
587.38	46710.07
587.54	47178.18
587.70	47290.52
587.86	46983.91
588.02	46429.21
588.18	46902.00
588.34	46614.11
588.49	46202.18
588.65	46651.56
588.81	46337.93
588.97	46190.47
589.13	46253.67
589.29	46457.29
589.45	46499.42
589.61	46965.19
589.77	46742.84
589.93	46791.99
