SpectraSuite Data File
++++++++++++++++++++++++++++++++++++
Date: Fri Oct 25 10:44:51 EDT 2013
User: price-jones
Dark Spectrum Present: No
Reference Spectrum Present: No
Number of Sampled Component Spectra: 1
Spectrometers: USB2+H05261
Integration Time (usec): 100000 (USB2+H05261)
Spectra Averaged: 1 (USB2+H05261)
Boxcar Smoothing: 0 (USB2+H05261)
Correct for Electrical Dark: No (USB2+H05261)
Strobe/Lamp Enabled: No (USB2+H05261)
Correct for Detector Non-linearity: No (USB2+H05261)
Correct for Stray Light: No (USB2+H05261)
Number of Pixels in Processed Spectrum: 2048
>>>>>Begin Processed Spectral Data<<<<<
365.73	147.45
365.92	147.45
366.12	147.45
366.32	23.41
366.52	16.38
366.72	7.02
366.91	35.11
367.11	4.68
367.31	23.41
367.51	0.00
367.70	72.56
367.90	0.00
368.10	18.72
368.30	30.43
368.49	112.35
368.69	44.47
368.89	67.88
369.09	81.92
369.28	70.22
369.48	84.26
369.68	81.92
369.87	0.00
370.07	112.35
370.27	117.03
370.47	161.50
370.66	407.25
370.86	393.21
371.06	395.55
371.25	423.64
371.45	404.91
371.65	447.04
371.84	454.06
372.04	475.13
372.24	440.02
372.44	428.32
372.63	447.04
372.83	505.56
373.03	472.79
373.22	465.77
373.42	465.77
373.62	507.90
373.81	566.41
374.01	578.11
374.21	528.96
374.40	479.81
374.60	550.03
374.79	491.51
374.99	521.94
375.19	528.96
375.38	514.92
375.58	507.90
375.78	617.90
375.97	535.98
376.17	566.41
376.37	610.88
376.56	617.90
376.76	571.09
376.95	566.41
377.15	543.00
377.35	671.73
377.54	660.03
377.74	601.52
377.93	594.50
378.13	575.77
378.33	655.35
378.52	610.88
378.72	585.13
378.91	568.75
379.11	566.41
379.31	645.99
379.50	664.71
379.70	655.35
379.89	697.48
380.09	671.73
380.28	552.37
380.48	615.56
380.68	573.43
380.87	620.24
381.07	643.65
381.26	636.63
381.46	692.80
381.65	627.26
381.85	638.97
382.04	744.29
382.24	690.46
382.43	645.99
382.63	678.76
382.83	744.29
383.02	748.97
383.22	716.20
383.41	702.16
383.61	683.44
383.80	671.73
384.00	690.46
384.19	744.29
384.39	793.44
384.58	777.06
384.78	711.52
384.97	718.54
385.17	772.38
385.36	685.78
385.56	784.08
385.75	734.93
385.95	873.02
386.14	828.55
386.34	849.61
386.53	784.08
386.72	746.63
386.92	851.96
387.11	802.80
387.31	826.21
387.50	849.61
387.70	755.99
387.89	779.40
388.09	795.78
388.28	819.19
388.48	849.61
388.67	819.19
388.86	842.59
389.06	866.00
389.25	863.66
389.45	903.45
389.64	856.64
389.84	861.32
390.03	830.89
390.22	833.23
390.42	926.85
390.61	922.17
390.81	964.30
391.00	1027.50
391.19	926.85
391.39	1034.52
391.58	961.96
391.78	945.58
391.97	924.51
392.16	933.87
392.36	1032.18
392.55	971.32
392.75	947.92
392.94	915.15
393.13	1001.75
393.33	1011.11
393.52	1109.41
393.71	1041.54
393.91	1004.09
394.10	992.39
394.29	1109.41
394.49	1125.80
394.68	1149.20
394.88	1139.84
395.07	1137.50
395.26	1188.99
395.46	1130.48
395.65	1081.33
395.84	1074.31
396.04	1156.22
396.23	1116.44
396.42	1083.67
396.62	1132.82
396.81	1186.65
397.00	1160.91
397.19	1163.25
397.39	1097.71
397.58	1214.74
397.77	1217.08
397.97	1174.95
398.16	1254.53
398.35	1345.81
398.55	1315.38
398.74	1324.74
398.93	1390.28
399.12	1406.66
399.32	1336.45
399.51	1322.40
399.70	1373.89
399.90	1320.06
400.09	1488.58
400.28	1511.99
400.47	1380.92
400.67	1472.20
400.86	1324.74
401.05	1446.45
401.24	1547.09
401.44	1493.26
401.63	1547.09
401.82	1537.73
402.01	1406.66
402.21	1612.63
402.40	1554.12
402.59	1643.06
402.78	1596.25
402.97	1563.48
403.17	1621.99
403.36	1610.29
403.55	1610.29
403.74	1673.48
403.93	1586.88
404.13	1678.16
404.32	1680.50
404.51	1586.88
404.70	1750.72
404.89	1703.91
405.09	1675.82
405.28	1720.29
405.47	1664.12
405.66	1776.47
405.85	1687.53
406.05	1825.62
406.24	1806.89
406.43	1790.51
406.62	1881.79
406.81	1884.13
407.00	1856.04
407.20	1788.17
407.39	1905.20
407.58	1949.67
407.77	2008.18
407.96	2038.61
408.15	1980.09
408.34	1956.69
408.54	1989.46
408.73	2019.88
408.92	1956.69
409.11	2078.40
409.30	2125.21
409.49	1991.80
409.68	2010.52
409.87	2139.25
410.07	2003.50
410.26	2146.27
410.45	2202.44
410.64	2099.46
410.83	2167.34
411.02	2197.76
411.21	2267.98
411.40	2314.79
411.59	2349.90
411.78	2333.51
411.98	2340.54
412.17	2249.25
412.36	2406.07
412.55	2462.24
412.74	2408.41
412.93	2541.82
413.12	2380.32
413.31	2677.57
413.50	2576.93
413.69	2574.59
413.88	2544.16
414.07	2476.29
414.26	2654.17
414.45	2794.60
414.64	2736.09
414.83	2857.79
415.02	2799.28
415.22	2679.91
415.41	2832.05
415.60	2789.92
415.79	2855.45
415.98	2874.18
416.17	2967.80
416.36	2855.45
416.55	2850.77
416.74	2935.03
416.93	2899.92
417.12	2960.78
417.31	2871.84
417.50	2939.71
417.69	3138.66
417.88	3042.70
418.07	3199.51
418.26	3124.62
418.45	3197.17
418.64	3215.90
418.83	3260.37
419.02	3033.33
419.21	3262.71
419.39	3349.31
419.58	3222.92
419.77	3222.92
419.96	3307.18
420.15	3461.65
420.34	3386.76
420.53	3426.54
420.72	3499.10
420.91	3330.58
421.10	3372.71
421.29	3442.93
421.48	3426.54
421.67	3576.34
421.86	3473.36
422.05	3478.04
422.24	3407.82
422.43	3447.61
422.61	3492.08
422.80	3630.17
422.99	3581.02
423.18	3721.45
423.37	3733.15
423.56	3562.30
423.75	3466.33
423.94	3442.93
424.13	3344.63
424.32	3520.17
424.50	3655.92
424.69	3627.83
424.88	3712.09
425.07	3531.87
425.26	3557.61
425.45	3508.46
425.64	3527.19
425.83	3590.38
426.01	3496.76
426.20	3597.40
426.39	3747.20
426.58	3754.22
426.77	3632.51
426.96	3754.22
427.15	3684.00
427.33	3672.30
427.52	3740.18
427.71	3831.46
427.90	3705.07
428.09	3698.05
428.28	3662.94
428.46	3859.54
428.65	3927.42
428.84	3709.75
429.03	3878.27
429.22	3948.48
429.40	3885.29
429.59	3859.54
429.78	3712.09
429.97	3667.62
430.16	3786.99
430.34	3801.03
430.53	3899.33
430.72	3915.72
430.91	3878.27
431.10	3899.33
431.28	3964.87
431.47	4208.28
431.66	4025.72
431.85	4196.58
432.03	4105.30
432.22	4229.35
432.41	4229.35
432.60	4231.69
432.79	4257.43
432.97	4337.01
433.16	4224.67
433.35	4318.29
433.54	4201.26
433.72	4205.94
433.91	4339.35
434.10	4241.05
434.28	4306.59
434.47	4299.56
434.66	4489.15
434.85	4484.47
435.03	4517.23
435.22	4503.19
435.41	4547.66
435.59	4442.34
435.78	4645.96
435.97	4585.11
436.16	4667.03
436.34	4643.62
436.53	4432.97
436.72	4772.35
436.90	4676.39
437.09	4629.58
437.28	4503.19
437.46	4720.86
437.65	4842.57
437.84	4870.65
438.02	4777.03
438.21	4730.22
438.40	4648.30
438.58	4877.68
438.77	4940.87
438.96	4966.62
439.14	5083.64
439.33	5130.45
439.52	5118.75
439.70	5060.24
439.89	5139.82
440.08	5203.01
440.26	5200.67
440.45	5240.46
440.63	5359.83
440.82	5369.19
441.01	5224.08
441.19	5479.19
441.38	5509.62
441.57	5516.64
441.75	5441.75
441.94	5589.20
442.12	5769.42
442.31	5834.96
442.50	5951.98
442.68	5722.61
442.87	5813.89
443.05	5724.95
443.24	5781.12
443.43	5783.46
443.61	5886.45
443.80	5966.03
443.98	5720.27
444.17	5572.82
444.35	5895.81
444.54	5942.62
444.73	5865.38
444.91	5942.62
445.10	5970.71
445.28	5785.80
445.47	5785.80
445.65	5820.91
445.84	6015.18
446.02	6031.56
446.21	5881.77
446.39	5811.55
446.58	6101.78
446.77	5963.68
446.95	5926.24
447.14	6143.91
447.32	6054.97
447.51	5944.96
447.69	5947.30
447.88	5975.39
448.06	5996.45
448.25	6005.81
448.43	6043.26
448.62	6045.60
448.80	5942.62
448.99	6216.46
449.17	6279.66
449.36	6211.78
449.54	6237.53
449.73	6296.04
449.91	6518.39
450.10	6485.62
450.28	6466.90
450.46	6342.85
450.65	6382.64
450.83	6487.96
451.02	6403.71
451.20	6368.60
451.39	6504.35
451.57	6478.60
451.76	6462.22
451.94	6539.46
452.13	6733.72
452.31	6434.13
452.49	6427.11
452.68	6502.01
452.86	6534.78
453.05	6715.00
453.23	6764.15
453.42	6537.12
453.60	6675.21
453.78	6679.89
453.97	6626.06
454.15	6656.48
454.34	6607.33
454.52	6855.43
454.70	6817.98
454.89	6810.96
455.07	6799.26
455.26	6949.05
455.44	6878.83
455.62	7075.44
455.81	7002.88
455.99	6970.12
456.17	7077.78
456.36	7208.85
456.54	7204.17
456.73	7178.42
456.91	7414.82
457.09	7463.97
457.28	7480.35
457.46	7171.40
457.64	7250.98
457.83	7449.93
458.01	7384.39
458.19	7573.97
458.38	7234.60
458.56	7602.06
458.74	7667.60
458.93	7398.43
459.11	7440.56
459.29	7541.21
459.48	7667.60
459.66	7616.10
459.84	7555.25
460.03	7555.25
460.21	7892.29
460.39	7599.72
460.57	7812.71
460.76	7871.22
460.94	7819.73
461.12	8065.49
461.31	8028.04
461.49	7730.79
461.67	7833.77
461.85	7971.86
462.04	7808.03
462.22	7906.33
462.40	8044.42
462.59	8112.30
462.77	8037.40
462.95	8280.82
463.13	8112.30
463.32	7868.88
463.50	8210.60
463.68	8224.64
463.86	8180.17
464.05	8056.12
464.23	8002.29
464.41	8318.26
464.59	8173.15
464.78	8362.73
464.96	8397.84
465.14	8329.97
465.32	8421.25
465.50	8446.99
465.69	8498.49
465.87	8505.51
466.05	8521.89
466.23	8409.54
466.41	8271.45
466.60	8540.61
466.78	8367.42
466.96	8341.67
467.14	8411.89
467.32	8657.64
467.51	8622.53
467.69	8435.29
467.87	8470.40
468.05	8709.13
468.23	8512.53
468.41	8505.51
468.60	8805.10
468.78	8879.99
468.96	8730.20
469.14	8863.61
469.32	8758.28
469.50	8578.06
469.69	8849.57
469.87	9118.73
470.05	8990.00
470.23	8896.38
470.41	9036.81
470.59	9043.83
470.77	9100.00
470.95	9092.98
471.14	9160.86
471.32	9123.41
471.50	9444.06
471.68	9406.61
471.86	9266.18
472.04	9509.60
472.22	9748.33
472.40	9394.91
472.58	9441.72
472.77	9633.64
472.95	9643.01
473.13	9951.96
473.31	9401.93
473.49	9692.16
473.67	9696.84
473.85	9797.48
474.03	10038.56
474.21	10010.47
474.39	10118.14
474.57	10253.89
474.75	10326.44
474.93	10090.05
475.12	10291.34
475.30	10363.89
475.48	10298.36
475.66	10366.23
475.84	10239.84
476.02	10422.41
476.20	10438.79
476.38	10939.66
476.56	10843.70
476.74	10581.56
476.92	10766.46
477.10	10778.17
477.28	11091.80
477.46	11157.33
477.64	11133.93
477.82	11328.19
478.00	11583.31
478.18	11372.66
478.36	11293.08
478.54	11485.01
478.72	11641.82
478.90	11847.79
479.08	11960.14
479.26	12079.50
479.44	11985.88
479.62	12175.47
479.80	11997.59
479.98	12259.73
480.16	12475.06
480.34	12386.12
480.52	12334.62
480.70	12571.02
480.88	12465.69
481.06	12727.83
481.24	12772.30
481.41	12919.76
481.59	13245.09
481.77	13181.90
481.95	13181.90
482.13	13334.03
482.31	13348.08
482.49	13497.87
482.67	13563.40
482.85	13504.89
483.03	13907.46
483.21	14012.79
483.39	14321.74
483.57	13975.34
483.74	14434.08
483.92	14445.79
484.10	14604.94
484.28	14593.24
484.46	14684.52
484.64	15131.56
484.82	14689.20
485.00	14883.47
485.18	15054.33
485.35	15335.19
485.53	15110.50
485.71	14974.75
485.89	15548.18
486.07	15300.08
486.25	15501.37
486.43	15913.30
486.61	15922.66
486.78	15985.86
486.96	16063.10
487.14	16180.12
487.32	16482.05
487.50	16489.07
487.68	16673.98
487.85	16849.52
488.03	17137.40
488.21	17226.34
488.39	17188.89
488.57	17535.29
488.75	17516.57
488.92	17795.09
489.10	17633.60
489.28	17722.54
489.46	17729.56
489.64	17963.61
489.81	18270.22
489.99	18576.83
490.17	18469.17
490.35	18534.70
490.53	18829.61
490.70	18869.40
490.88	18654.07
491.06	19503.68
491.24	18918.55
491.41	19070.68
491.59	19180.69
491.77	19293.04
491.95	19599.65
492.13	19854.76
492.30	19885.19
492.48	20215.21
492.66	20226.91
492.84	20208.19
493.01	20418.83
493.19	20283.08
493.37	20613.10
493.54	20285.42
493.72	20929.07
493.90	20638.84
494.08	20938.43
494.25	21516.54
494.43	21348.03
494.61	21474.42
494.79	21406.54
494.96	21706.13
495.14	21898.05
495.32	21921.46
495.49	22146.15
495.67	21874.65
495.85	22340.41
496.02	22230.41
496.20	22923.21
496.38	22504.25
496.55	22625.96
496.73	22913.84
496.91	22871.72
497.09	23208.75
497.26	23496.64
497.44	23220.45
497.62	23442.81
497.79	23445.15
497.97	23648.77
498.14	23566.85
498.32	23786.86
498.50	23995.17
498.67	24308.80
498.85	23880.49
499.03	24634.14
499.20	24070.07
499.38	24283.06
499.56	24362.64
499.73	24594.35
499.91	24809.68
500.08	24357.96
500.26	24554.56
500.44	24748.82
500.61	25338.64
500.79	24592.01
500.97	25020.33
501.14	25198.21
501.32	25284.81
501.49	25486.09
501.67	25397.15
501.84	25319.92
502.02	25565.67
502.20	25825.47
502.37	25846.54
502.55	25656.95
502.72	26029.10
502.90	26174.21
503.07	26132.08
503.25	26455.08
503.43	26274.85
503.60	25958.88
503.78	26242.09
503.95	26436.35
504.13	26429.33
504.30	26721.90
504.48	26888.07
504.65	27098.72
504.83	27077.66
505.01	27227.45
505.18	27133.83
505.36	27660.45
505.53	27159.58
505.71	27517.68
505.88	27828.97
506.06	27236.81
506.23	27845.35
506.41	27487.25
506.58	27819.61
506.76	28236.22
506.93	28463.25
507.11	27938.97
507.28	27615.98
507.46	28013.87
507.63	28287.71
507.81	28173.03
507.98	28510.07
508.16	28224.52
508.33	28559.22
508.50	28804.97
508.68	28833.06
508.85	28968.81
509.03	28783.91
509.20	28844.76
509.38	29362.02
509.55	29362.02
509.73	29406.49
509.90	29570.33
510.08	29233.29
510.25	29385.43
510.42	29373.72
510.60	29263.72
510.77	29591.39
510.95	30218.66
511.12	29858.21
511.30	30183.55
511.47	30125.04
511.64	30015.03
511.82	30153.12
511.99	30211.64
512.17	30534.63
512.34	30356.75
512.51	30574.42
512.69	30654.00
512.86	30504.20
513.04	31082.31
513.21	30663.36
513.38	30740.60
513.56	30939.54
513.73	30665.70
513.90	30677.40
514.08	30946.56
514.25	31236.79
514.43	31234.45
514.60	31255.51
514.77	31262.54
514.95	31454.46
515.12	31601.91
515.29	31363.18
515.47	31960.02
515.64	31622.98
515.81	32245.56
515.99	31732.98
516.16	32018.53
516.33	32109.81
516.51	32074.70
516.68	31367.86
516.85	31309.35
517.03	31938.95
517.20	31896.82
517.37	32304.07
517.54	32542.81
517.72	32737.07
517.89	31971.72
518.06	32226.84
518.24	32472.59
518.41	32559.19
518.58	32669.20
518.75	32095.77
518.93	33055.39
519.10	32624.73
519.27	32856.44
519.45	32816.65
519.62	33151.35
519.79	33003.89
519.96	33263.69
520.14	33834.78
520.31	33560.94
520.48	33439.23
520.65	33483.70
520.83	34085.22
521.00	33965.85
521.17	33937.77
521.34	33563.28
521.52	34024.37
521.69	34143.74
521.86	34338.00
522.03	34429.28
522.20	34478.43
522.38	34532.26
522.55	34759.30
522.72	34700.78
522.89	34345.02
523.07	34920.79
523.24	34375.45
523.41	34707.80
523.58	34775.68
523.75	35175.91
523.92	34815.47
524.10	35026.12
524.27	35360.81
524.44	34965.26
524.61	35140.80
524.78	35253.15
524.96	35449.75
525.13	35402.94
525.30	35772.75
525.47	35915.52
525.64	35793.81
525.81	35622.95
525.98	35688.49
526.16	35377.20
526.33	35103.35
526.50	35592.53
526.67	35449.75
526.84	35431.03
527.01	35857.01
527.18	36079.36
527.36	36432.78
527.53	36371.92
527.70	36400.01
527.87	36079.36
528.04	36165.96
528.21	36641.09
528.38	36694.92
528.55	36699.60
528.72	36830.67
528.89	36568.53
529.07	36959.40
529.24	36128.51
529.41	36928.97
529.58	36538.10
529.75	36825.99
529.92	37071.75
530.09	36568.53
530.26	37057.70
530.43	36968.76
530.60	36952.38
530.77	37146.64
530.94	37163.03
531.11	36816.63
531.28	37628.79
531.46	37340.91
531.63	37720.07
531.80	37453.25
531.97	37464.96
532.14	37460.27
532.31	37521.13
532.48	37240.26
532.65	37883.91
532.82	37619.43
532.99	37560.92
533.16	37319.84
533.33	37947.11
533.50	38361.38
533.67	37937.74
533.84	37844.12
534.01	38272.44
534.18	37914.34
534.35	38445.64
534.52	38117.96
534.69	38391.81
534.86	37851.14
535.03	38586.07
535.20	38302.87
535.37	38370.74
535.54	38862.26
535.71	38398.83
535.88	39047.16
536.05	38445.64
536.22	39033.11
536.38	38892.68
536.55	38593.09
536.72	38579.05
536.89	38808.42
537.06	39002.69
537.23	39014.39
537.40	38944.17
537.57	39075.24
537.74	39049.50
537.91	39147.80
538.08	39246.10
538.25	38586.07
538.42	39278.87
538.59	39370.15
538.75	38876.30
538.92	39564.42
539.09	39431.01
539.26	39260.15
539.43	39115.03
539.60	39112.69
539.77	38974.60
539.94	39489.52
540.11	39192.27
540.28	39569.10
540.44	39395.90
540.61	39849.96
540.78	39580.80
540.95	39985.71
541.12	39260.15
541.29	39658.04
541.46	40002.10
541.62	39742.30
541.79	39920.18
541.96	39395.90
542.13	40137.85
542.30	40006.78
542.47	40081.67
542.63	40062.95
542.80	40238.49
542.97	40594.25
543.14	40751.07
543.31	40638.72
543.48	40407.01
543.64	41027.25
543.81	41088.10
543.98	40971.08
544.15	40495.95
544.32	41069.38
544.48	41265.99
544.65	40933.63
544.82	40879.80
544.99	40790.86
545.16	41099.81
545.32	40692.55
545.49	41184.07
545.66	41654.51
545.83	41366.63
546.00	41691.96
546.16	41062.36
546.33	41179.39
546.50	40921.93
546.67	41397.06
546.83	41050.66
547.00	41177.04
547.17	41425.14
547.34	41432.16
547.50	41647.49
547.67	41745.80
547.84	41544.51
548.00	41563.23
548.17	41855.80
548.34	42101.56
548.51	41713.03
548.67	41673.24
548.84	42167.09
549.01	41581.96
549.18	41586.64
549.34	41563.23
549.51	42014.96
549.68	41947.08
549.84	42529.87
550.01	42462.00
550.18	42230.29
550.34	42251.35
550.51	41977.51
550.68	41785.58
550.84	41727.07
551.01	42176.45
551.18	42459.66
551.34	42181.13
551.51	42178.79
551.68	42431.57
551.84	42600.09
552.01	42543.92
552.18	42314.55
552.34	42038.36
552.51	42295.82
552.68	42302.84
552.84	42857.55
553.01	43019.05
553.18	42710.10
553.34	42206.88
553.51	42307.52
553.67	42953.51
553.84	42564.98
554.01	42965.21
554.17	42419.87
554.34	42462.00
554.51	42464.34
554.67	42958.19
554.84	43154.80
555.00	42630.52
555.17	42649.24
555.33	43047.13
555.50	42813.08
555.67	43239.06
555.83	42902.02
556.00	42981.60
556.16	43512.90
556.33	43061.18
556.50	43159.48
556.66	43526.94
556.83	42595.41
556.99	43482.47
557.16	43250.76
557.32	43426.30
557.49	43697.80
557.65	43082.24
557.82	43058.84
557.98	43346.72
558.15	43590.14
558.32	43555.03
558.48	43117.35
558.65	43056.50
558.81	42810.74
558.98	42862.23
559.14	43571.41
559.31	43365.45
559.47	43714.19
559.64	43683.76
559.80	43758.66
559.97	43938.88
560.13	43115.01
560.30	43372.47
560.46	43349.06
560.63	43803.13
560.79	43959.94
560.96	44067.61
561.12	43756.32
561.29	43835.89
561.45	43636.95
561.61	43849.94
561.78	43552.69
561.94	43793.76
562.11	43599.50
562.27	43700.14
562.44	43643.97
562.60	44247.83
562.77	43901.43
562.93	44086.33
563.10	43992.71
563.26	43768.02
563.42	43758.66
563.59	43407.58
563.75	43835.89
563.92	43845.26
564.08	43714.19
564.24	44151.87
564.41	44135.48
564.57	43913.13
564.74	44011.43
564.90	44086.33
565.07	43917.81
565.23	43948.24
565.39	44369.54
565.56	44215.06
565.72	44240.81
565.88	44119.10
566.05	43983.35
566.21	44037.18
566.38	43700.14
566.54	44119.10
566.70	44105.06
566.87	45099.78
567.03	44320.38
567.19	44418.69
567.36	43922.49
567.52	43966.96
567.68	44273.57
567.85	43927.17
568.01	44404.64
568.17	44030.16
568.34	44065.27
568.50	44608.27
568.66	44404.64
568.83	44470.18
568.99	44189.31
569.15	44062.93
569.32	44271.23
569.48	43985.69
569.64	44648.06
569.81	44142.50
569.97	44500.61
570.13	44105.06
570.30	44184.63
570.46	44030.16
570.62	44044.20
570.78	44083.99
570.95	44505.29
571.11	44692.53
571.27	44285.28
571.43	43997.39
571.60	44175.27
571.76	44306.34
571.92	44573.16
572.09	44357.83
572.25	43849.94
572.41	43969.30
572.57	44807.22
572.74	44879.77
572.90	44296.98
573.06	44292.30
573.22	44315.70
573.38	44591.89
573.55	44554.44
573.71	44299.32
573.87	44694.87
574.03	44367.20
574.20	43997.39
574.36	44446.77
574.52	44531.03
574.68	44521.67
574.84	44547.42
575.01	44470.18
575.17	44533.37
575.33	44140.16
575.49	44236.12
575.65	44987.44
575.82	44781.47
575.98	44598.91
576.14	44470.18
576.30	44399.96
576.46	44451.45
576.62	44493.58
576.79	44844.66
576.95	44353.15
577.11	44535.71
577.27	44435.07
577.43	44123.78
577.59	44538.05
577.75	44500.61
577.92	44350.81
578.08	44318.04
578.24	44580.18
578.40	44793.17
578.56	44786.15
578.72	44617.63
578.88	44381.24
579.04	44889.13
579.21	44608.27
579.37	44238.47
579.53	44367.20
579.69	44287.62
579.85	44364.85
580.01	44804.88
580.17	44369.54
580.33	44889.13
580.49	44346.13
580.65	44940.63
580.82	44275.91
580.98	44474.86
581.14	44655.08
581.30	44947.65
581.46	44357.83
581.62	45041.27
581.78	44589.55
581.94	44734.66
582.10	44959.35
582.26	44720.62
582.42	44818.92
582.58	45095.10
582.74	44645.72
582.90	45104.46
583.06	44704.23
583.22	44952.33
583.38	45361.92
583.54	45095.10
583.70	45148.93
583.86	44505.29
584.02	44598.91
584.18	44858.71
584.34	44989.78
584.50	45045.95
584.66	44903.18
584.82	44643.38
584.98	44711.25
585.14	44643.38
585.30	44739.34
585.46	45291.71
585.62	44692.53
585.78	44818.92
585.94	44292.30
586.10	45097.44
586.26	44552.10
586.42	45057.65
586.58	45322.13
586.74	44816.58
586.90	44760.40
587.06	44648.06
587.22	44975.73
587.38	44669.12
587.54	44692.53
587.70	44804.88
587.86	44683.17
588.02	45013.18
588.18	44863.39
588.34	44416.35
588.49	44540.39
588.65	44074.63
588.81	44509.97
588.97	44453.79
589.13	44638.70
589.29	44854.03
589.45	44629.34
589.61	44533.37
589.77	45078.72
589.93	44577.84
590.08	45067.02
590.24	45261.28
