SpectraSuite Data File
++++++++++++++++++++++++++++++++++++
Date: Fri Oct 25 10:47:36 EDT 2013
User: price-jones
Dark Spectrum Present: No
Reference Spectrum Present: No
Number of Sampled Component Spectra: 1
Spectrometers: USB2+H05261
Integration Time (usec): 100000 (USB2+H05261)
Spectra Averaged: 1 (USB2+H05261)
Boxcar Smoothing: 0 (USB2+H05261)
Correct for Electrical Dark: No (USB2+H05261)
Strobe/Lamp Enabled: No (USB2+H05261)
Correct for Detector Non-linearity: No (USB2+H05261)
Correct for Stray Light: No (USB2+H05261)
Number of Pixels in Processed Spectrum: 2048
>>>>>Begin Processed Spectral Data<<<<<
365.73	156.82
365.92	156.82
366.12	156.82
366.32	37.45
366.52	0.00
366.72	44.47
366.91	11.70
367.11	81.92
367.31	0.00
367.51	58.51
367.70	65.54
367.90	42.13
368.10	74.90
368.30	0.00
368.49	39.79
368.69	105.32
368.89	16.38
369.09	86.60
369.28	16.38
369.48	112.35
369.68	142.77
369.87	145.11
370.07	147.45
370.27	117.03
370.47	212.99
370.66	346.40
370.86	397.89
371.06	500.87
371.25	449.38
371.45	360.44
371.65	514.92
371.84	472.79
372.04	482.15
372.24	454.06
372.44	543.00
372.63	491.51
372.83	566.41
373.03	437.68
373.22	451.72
373.42	554.71
373.62	538.32
373.81	585.13
374.01	547.69
374.21	568.75
374.40	533.64
374.60	545.34
374.79	486.83
374.99	582.79
375.19	582.79
375.38	585.13
375.58	498.53
375.78	582.79
375.97	566.41
376.17	566.41
376.37	580.45
376.56	543.00
376.76	599.18
376.95	566.41
377.15	645.99
377.35	538.32
377.54	587.47
377.74	629.60
377.93	664.71
378.13	557.05
378.33	631.94
378.52	594.50
378.72	573.43
378.91	599.18
379.11	631.94
379.31	702.16
379.50	648.33
379.70	695.14
379.89	629.60
380.09	676.41
380.28	627.26
380.48	638.97
380.68	664.71
380.87	676.41
381.07	617.90
381.26	737.27
381.46	599.18
381.65	669.39
381.85	613.22
382.04	674.07
382.24	624.92
382.43	669.39
382.63	674.07
382.83	681.10
383.02	744.29
383.22	718.54
383.41	767.70
383.61	685.78
383.80	755.99
384.00	688.12
384.19	739.61
384.39	816.85
384.58	809.83
384.78	777.06
384.97	784.08
385.17	781.74
385.36	739.61
385.56	725.57
385.75	800.46
385.95	723.23
386.14	901.11
386.34	805.14
386.53	805.14
386.72	830.89
386.92	901.11
387.11	837.91
387.31	889.40
387.50	800.46
387.70	807.48
387.89	774.72
388.09	905.79
388.28	854.30
388.48	826.21
388.67	744.29
388.86	922.17
389.06	877.70
389.25	847.27
389.45	894.08
389.64	947.92
389.84	931.53
390.03	990.05
390.22	950.26
390.42	882.38
390.61	999.41
390.81	849.61
391.00	870.68
391.19	919.83
391.39	957.28
391.58	957.28
391.78	1020.47
391.97	959.62
392.16	976.00
392.36	1011.11
392.55	997.07
392.75	910.47
392.94	1025.15
393.13	929.19
393.33	908.13
393.52	1025.15
393.71	1025.15
393.91	1022.81
394.10	1015.79
394.29	1069.62
394.49	1128.14
394.68	1020.47
394.88	1097.71
395.07	1114.10
395.26	1137.50
395.46	1174.95
395.65	1214.74
395.84	1114.10
396.04	1156.22
396.23	1078.99
396.42	1088.35
396.62	1123.46
396.81	1174.95
397.00	1146.86
397.19	1177.29
397.39	1207.72
397.58	1299.00
397.77	1219.42
397.97	1284.95
398.16	1186.65
398.35	1336.45
398.55	1153.88
398.74	1406.66
398.93	1444.11
399.12	1275.59
399.32	1345.81
399.51	1364.53
399.70	1451.13
399.90	1411.34
400.09	1385.60
400.28	1453.47
400.47	1394.96
400.67	1462.83
400.86	1474.54
401.05	1523.69
401.24	1434.75
401.44	1483.90
401.63	1551.78
401.82	1514.33
402.01	1589.22
402.21	1540.07
402.40	1579.86
402.59	1495.60
402.78	1668.80
402.97	1540.07
403.17	1519.01
403.36	1591.56
403.55	1713.27
403.74	1626.67
403.93	1708.59
404.13	1657.10
404.32	1682.85
404.51	1727.32
404.70	1781.15
404.89	1776.47
405.09	1671.14
405.28	1703.91
405.47	1685.19
405.66	1753.06
405.85	1888.81
406.05	1820.94
406.24	1820.94
406.43	1809.23
406.62	1963.71
406.81	1940.30
407.00	1856.04
407.20	1771.79
407.39	1879.45
407.58	1877.11
407.77	1975.41
407.96	2003.50
408.15	1879.45
408.34	2106.48
408.54	2024.56
408.73	1949.67
408.92	2024.56
409.11	2012.86
409.30	2174.36
409.49	2092.44
409.68	2087.76
409.87	2113.50
410.07	2129.89
410.26	2221.17
410.45	2165.00
410.64	2139.25
410.83	2317.13
411.02	2150.95
411.21	2277.34
411.40	2368.62
411.59	2275.00
411.78	2333.51
411.98	2260.96
412.17	2363.94
412.36	2338.20
412.55	2448.20
412.74	2471.61
412.93	2609.70
413.12	2427.14
413.31	2640.12
413.50	2495.01
413.69	2485.65
413.88	2689.28
414.07	2590.97
414.26	2677.57
414.45	2586.29
414.64	2640.12
414.83	2675.23
415.02	2743.11
415.22	2733.75
415.41	2839.07
415.60	2937.37
415.79	2771.19
415.98	2780.56
416.17	2944.39
416.36	2925.67
416.55	2986.52
416.74	3098.87
416.93	2946.73
417.12	3066.10
417.31	2998.23
417.50	3040.36
417.69	3152.70
417.88	3234.62
418.07	3141.00
418.26	3148.02
418.45	3103.55
418.64	3272.07
418.83	3227.60
419.02	3211.22
419.21	3089.51
419.39	3316.54
419.58	3232.28
419.77	3234.62
419.96	3288.45
420.15	3412.50
420.34	3342.28
420.53	3428.88
420.72	3356.33
420.91	3482.72
421.10	3384.41
421.29	3496.76
421.48	3419.52
421.67	3571.66
421.86	3550.59
422.05	3456.97
422.24	3461.65
422.43	3370.37
422.61	3534.21
422.80	3578.68
422.99	3581.02
423.18	3552.93
423.37	3534.21
423.56	3674.64
423.75	3564.64
423.94	3473.36
424.13	3290.79
424.32	3375.05
424.50	3527.19
424.69	3597.40
424.88	3719.11
425.07	3552.93
425.26	3471.01
425.45	3674.64
425.64	3534.21
425.83	3613.79
426.01	3620.81
426.20	3658.26
426.39	3695.71
426.58	3723.79
426.77	3691.02
426.96	3669.96
427.15	3705.07
427.33	3728.47
427.52	3740.18
427.71	3768.26
427.90	3698.05
428.09	3918.06
428.28	3843.16
428.46	3698.05
428.65	3742.52
428.84	3815.07
429.03	3934.44
429.22	3772.94
429.40	3990.61
429.59	3932.10
429.78	3765.92
429.97	3616.13
430.16	3660.60
430.34	3866.56
430.53	3840.82
430.72	3918.06
430.91	3817.41
431.10	3985.93
431.28	4177.86
431.47	4163.81
431.66	4219.99
431.85	4119.34
432.03	4311.27
432.22	4304.25
432.41	4269.14
432.60	4318.29
432.79	4297.22
432.97	4360.42
433.16	4198.92
433.35	4290.20
433.54	4383.82
433.72	4344.03
433.91	4278.50
434.10	4404.89
434.28	4416.59
434.47	4442.34
434.66	4519.57
434.85	4409.57
435.03	4505.53
435.22	4559.36
435.41	4603.83
435.59	4636.60
435.78	4608.51
435.97	4669.37
436.16	4599.15
436.34	4524.26
436.53	4786.40
436.72	4678.73
436.90	4575.75
437.09	4779.37
437.28	4676.39
437.46	4650.64
437.65	4760.65
437.84	4695.11
438.02	4716.18
438.21	4741.93
438.40	4746.61
438.58	4781.71
438.77	5043.85
438.96	4833.21
439.14	5104.71
439.33	5195.99
439.52	4961.94
439.70	5191.31
439.89	5172.58
440.08	5254.50
440.26	5240.46
440.45	5132.79
440.63	5305.99
440.82	5401.96
441.01	5355.15
441.19	5359.83
441.38	5364.51
441.57	5631.33
441.75	5568.13
441.94	5750.70
442.12	5645.37
442.31	5785.80
442.50	5668.78
442.68	5809.21
442.87	5703.89
443.05	5778.78
443.24	5755.38
443.43	5909.85
443.61	5851.34
443.80	5956.66
443.98	5809.21
444.17	5610.26
444.35	5694.52
444.54	6080.71
444.73	6050.28
444.91	5767.08
445.10	5771.76
445.28	5802.19
445.47	5792.83
445.65	5949.64
445.84	5886.45
446.02	5898.15
446.21	6059.65
446.39	5991.77
446.58	6010.50
446.77	5996.45
446.95	5844.32
447.14	6078.37
447.32	6066.67
447.51	6118.16
447.69	6012.84
447.88	5949.64
448.06	6069.01
448.25	6054.97
448.43	6012.84
448.62	6008.16
448.80	6171.99
448.99	6197.74
449.17	6146.25
449.36	6249.23
449.54	6347.53
449.73	6342.85
449.91	6509.03
450.10	6396.68
450.28	6438.81
450.46	6555.84
450.65	6459.88
450.83	6452.86
451.02	6462.22
451.20	6487.96
451.39	6586.27
451.57	6525.41
451.76	6614.35
451.94	6466.90
452.13	6684.57
452.31	6726.70
452.49	6516.05
452.68	6579.25
452.86	6619.04
453.05	6539.46
453.23	6612.01
453.42	6581.59
453.60	6602.65
453.78	6778.19
453.97	6452.86
454.15	6904.58
454.34	6621.38
454.52	6904.58
454.70	6958.41
454.89	6916.28
455.07	6729.04
455.26	6761.81
455.44	7176.08
455.62	7068.42
455.81	7021.61
455.99	7082.46
456.17	7145.66
456.36	7110.55
456.54	7234.60
456.73	7176.08
456.91	7304.81
457.09	7250.98
457.28	7323.54
457.46	7197.15
457.64	7192.47
457.83	7335.24
458.01	7302.47
458.19	7393.75
458.38	7475.67
458.56	7566.95
458.74	7508.44
458.93	7449.93
459.11	7683.98
459.29	7510.78
459.48	7555.25
459.66	7726.11
459.84	7613.76
460.03	7714.41
460.21	7786.96
460.39	7702.70
460.57	7843.14
460.76	7885.26
460.94	7861.86
461.12	7896.97
461.31	8058.46
461.49	7737.81
461.67	7691.00
461.85	8093.57
462.04	8028.04
462.22	8344.01
462.40	7969.52
462.59	8187.19
462.77	8234.00
462.95	8091.23
463.13	7992.93
463.32	8168.47
463.50	8229.32
463.68	8248.05
463.86	8210.60
464.05	8037.40
464.23	8147.40
464.41	8184.85
464.59	8063.15
464.78	8589.77
464.96	8402.52
465.14	8180.17
465.32	8266.77
465.50	8505.51
465.69	8400.18
465.87	8425.93
466.05	8390.82
466.23	8503.17
466.41	8491.46
466.60	8454.02
466.78	8278.47
466.96	8531.25
467.14	8503.17
467.32	8573.38
467.51	8748.92
467.69	8470.40
467.87	8290.18
468.05	8702.11
468.23	8695.09
468.41	8636.58
468.60	8868.29
468.78	8887.01
468.96	8706.79
469.14	9043.83
469.32	8823.82
469.50	8631.90
469.69	9032.13
469.87	8973.61
470.05	8954.89
470.23	9018.08
470.41	9097.66
470.59	8987.66
470.77	9275.54
470.95	9088.30
471.14	9408.95
471.32	9100.00
471.50	9453.42
471.68	9525.98
471.86	9408.95
472.04	9598.54
472.22	9675.77
472.40	9369.16
472.58	9479.17
472.77	9635.99
472.95	9479.17
473.13	9907.49
473.31	9720.24
473.49	9678.12
473.67	9750.67
473.85	9912.17
474.03	9998.77
474.21	10068.98
474.39	10195.37
474.57	10022.17
474.75	10092.39
474.93	10324.10
475.12	10267.93
475.30	10527.73
475.48	10289.00
475.66	10415.38
475.84	10303.04
476.02	10448.15
476.20	10431.77
476.38	10731.36
476.56	10918.60
476.74	10913.92
476.92	10789.87
477.10	10939.66
477.28	11030.94
477.46	10843.70
477.64	11318.83
477.82	11321.17
478.00	11585.65
478.18	11592.67
478.36	11433.52
478.54	11513.10
478.72	11384.37
478.90	11969.50
479.08	11948.43
479.26	12147.38
479.44	12107.59
479.62	12149.72
479.80	12133.34
479.98	12236.32
480.16	12657.62
480.34	12512.50
480.52	12683.36
480.70	12379.09
480.88	12503.14
481.06	12666.98
481.24	12580.38
481.41	13067.21
481.59	13247.43
481.77	12980.61
481.95	13336.37
482.13	13207.64
482.31	13280.20
482.49	13635.96
482.67	13596.17
482.85	13584.47
483.03	13928.53
483.21	13951.93
483.39	14008.11
483.57	13968.32
483.74	14464.51
483.92	14398.98
484.10	14321.74
484.28	14590.90
484.46	14834.32
484.64	14937.30
484.82	14658.78
485.00	15108.16
485.18	15281.36
485.35	15466.26
485.53	15232.21
485.71	15143.27
485.89	15239.23
486.07	15403.07
486.25	15374.98
486.43	15740.10
486.61	15894.58
486.78	16004.58
486.96	16086.50
487.14	16587.38
487.32	16074.80
487.50	16884.62
487.68	16702.06
487.85	17172.51
488.03	17008.67
488.21	17170.17
488.39	17261.45
488.57	17474.44
488.75	17380.82
488.92	17776.37
489.10	18036.17
489.28	17802.11
489.46	18277.24
489.64	17846.58
489.81	18684.50
489.99	18822.59
490.17	18565.13
490.35	18778.12
490.53	18771.10
490.70	19124.52
490.88	18934.93
491.06	19267.29
491.24	19300.06
491.41	19260.27
491.59	19358.57
491.77	19255.59
491.95	19772.85
492.13	19964.77
492.30	20102.86
492.48	19845.40
492.66	20203.50
492.84	20058.39
493.01	20152.01
493.19	20369.68
493.37	20673.95
493.54	20912.69
493.72	21018.01
493.90	21247.38
494.08	21223.98
494.25	21479.10
494.43	21294.19
494.61	21425.26
494.79	21642.93
494.96	21839.54
495.14	21617.19
495.32	22183.60
495.49	21975.29
495.67	22246.79
495.85	22382.54
496.02	22368.50
496.20	22691.49
496.38	22522.98
496.55	22780.43
496.73	23201.73
496.91	23000.44
497.09	22869.37
497.26	23513.02
497.44	23421.74
497.62	23498.98
497.79	23658.14
497.97	23669.84
498.14	23335.14
498.32	23611.32
498.50	23758.78
498.67	24037.30
498.85	24304.12
499.03	24411.79
499.20	24545.20
499.38	24430.51
499.56	24732.44
499.73	24442.21
499.91	24606.05
500.08	25163.10
500.26	24833.08
500.44	25074.16
500.61	24865.85
500.79	24823.72
500.97	25188.85
501.14	25708.44
501.32	25371.41
501.49	25532.90
501.67	25607.80
501.84	25603.12
502.02	25493.12
502.20	26068.89
502.37	25954.20
502.55	25734.19
502.72	26424.65
502.90	26066.55
503.07	25771.64
503.25	26181.23
503.43	26103.99
503.60	26302.94
503.78	26602.53
503.95	26094.63
504.13	26639.98
504.30	26560.40
504.48	26499.55
504.65	27096.38
504.83	27438.10
505.01	27250.86
505.18	27147.87
505.36	27379.59
505.53	27697.90
505.71	27845.35
505.88	27513.00
506.06	27482.57
506.23	27831.31
506.41	27543.42
506.58	27957.70
506.76	27524.70
506.93	27906.21
507.11	28273.67
507.28	28311.12
507.46	28156.64
507.63	28301.76
507.81	28507.72
507.98	28547.51
508.16	28566.24
508.33	28868.17
508.50	28739.44
508.68	28591.98
508.85	29156.05
509.03	28912.64
509.20	29081.16
509.38	29333.93
509.55	29584.37
509.73	29549.26
509.90	29446.28
510.08	29291.80
510.25	29415.85
510.42	29647.57
510.60	29701.40
510.77	29804.38
510.95	30190.57
511.12	29722.46
511.30	30270.15
511.47	30015.03
511.64	30244.40
511.82	30366.11
511.99	30239.72
512.17	30560.37
512.34	30534.63
512.51	30764.00
512.69	30485.48
512.86	30829.54
513.04	30923.16
513.21	30902.09
513.38	30583.78
513.56	30878.69
513.73	30682.08
513.90	31040.18
514.08	30986.35
514.25	31323.39
514.43	31402.97
514.60	31283.60
514.77	31372.54
514.95	31728.30
515.12	31957.67
515.29	31751.71
515.47	32100.45
515.64	31821.92
515.81	31814.90
515.99	31732.98
516.16	32149.60
516.33	31700.22
516.51	31995.12
516.68	31775.11
516.85	31597.23
517.03	32046.62
517.20	32519.40
517.37	32306.41
517.54	32374.29
517.72	32737.07
517.89	32795.59
518.06	32486.64
518.24	32355.57
518.41	32283.01
518.58	32292.37
518.75	32503.02
518.93	33151.35
519.10	32582.60
519.27	32987.51
519.45	33027.30
519.62	33474.34
519.79	33139.65
519.96	33439.23
520.14	33771.59
520.31	33483.70
520.48	33830.10
520.65	33553.92
520.83	33790.31
521.00	33965.85
521.17	33806.70
521.34	34031.39
521.52	33825.42
521.69	33799.68
521.86	34366.09
522.03	34054.79
522.20	34190.55
522.38	34555.67
522.55	34347.36
522.72	34438.64
522.89	34106.29
523.07	34785.04
523.24	34333.32
523.41	35051.86
523.58	34726.53
523.75	35192.30
523.92	35126.76
524.10	35194.64
524.27	35306.98
524.44	35594.87
524.61	35524.65
524.78	35339.75
524.96	35847.64
525.13	35409.96
525.30	35791.47
525.47	35871.05
525.64	35543.38
525.81	35587.85
525.98	35849.99
526.16	35466.14
526.33	35714.23
526.50	36224.47
526.67	35342.09
526.84	35828.92
527.01	35395.92
527.18	36051.27
527.36	35852.33
527.53	36348.52
527.70	36659.81
527.87	36285.33
528.04	36449.16
528.21	36203.41
528.38	36350.86
528.55	36861.10
528.72	36697.26
528.89	36840.03
529.07	36912.59
529.24	36767.48
529.41	36858.76
529.58	36751.09
529.75	36914.93
529.92	37132.60
530.09	37542.19
530.26	36966.42
530.43	37420.48
530.60	37113.87
530.77	37471.98
530.94	37160.69
531.11	37380.70
531.28	37221.54
531.46	37717.73
531.63	37141.96
531.80	37324.52
531.97	37493.04
532.14	37684.97
532.31	37596.03
532.48	37841.78
532.65	37762.20
532.82	37469.64
532.99	38026.68
533.16	37439.21
533.33	38075.84
533.50	38499.47
533.67	38375.42
533.84	37848.80
534.01	38302.87
534.18	38064.13
534.35	38225.63
534.52	38239.67
534.69	38431.60
534.86	38607.14
535.03	38146.05
535.20	38904.38
535.37	38981.62
535.54	39178.23
535.71	38501.81
535.88	38700.76
536.05	38686.71
536.22	38740.55
536.38	39292.91
536.55	38990.98
536.72	38822.47
536.89	38611.82
537.06	38740.55
537.23	39009.71
537.40	38693.74
537.57	39210.99
537.74	39005.03
537.91	39564.42
538.08	39168.87
538.25	39145.46
538.42	39484.84
538.59	39203.97
538.75	39070.56
538.92	39810.17
539.09	39482.50
539.26	39768.04
539.43	39597.18
539.60	40093.38
539.77	39491.86
539.94	39845.28
540.11	39526.97
540.28	39487.18
540.44	39679.10
540.61	40126.14
540.78	39370.15
540.95	39519.95
541.12	39723.57
541.29	39470.79
541.46	40233.81
541.62	39948.26
541.79	40172.96
541.96	39746.98
542.13	40297.00
542.30	40477.22
542.47	40404.67
542.63	40418.71
542.80	40470.20
542.97	40479.57
543.14	40769.79
543.31	40673.83
543.48	40524.04
543.64	41090.44
543.81	40594.25
543.98	40697.24
544.15	40877.46
544.32	41387.69
544.48	41308.11
544.65	40809.58
544.82	41055.34
544.99	40840.01
545.16	41240.24
545.32	40921.93
545.49	41483.66
545.66	41635.79
545.83	41155.98
546.00	41556.21
546.16	41289.39
546.33	41191.09
546.50	40765.11
546.67	41113.85
546.83	41441.53
547.00	41488.34
547.17	41659.20
547.34	41509.40
547.50	41661.54
547.67	41984.53
547.84	41507.06
548.00	41759.84
548.17	41752.82
548.34	41979.85
548.51	41844.10
548.67	42155.39
548.84	42071.13
549.01	41703.67
549.18	41872.18
549.34	41900.27
549.51	41846.44
549.68	42267.73
549.84	42141.35
550.01	42050.06
550.18	42256.03
550.34	42454.98
550.51	42096.88
550.68	41862.82
550.84	41839.42
551.01	41970.49
551.18	42464.34
551.34	42281.78
551.51	42103.90
551.68	42373.06
551.84	42429.23
552.01	42342.63
552.18	42293.48
552.34	42075.81
552.51	42653.92
552.68	42176.45
552.84	43023.73
553.01	43339.70
553.18	42667.97
553.34	42822.44
553.51	42485.40
553.67	42576.69
553.84	43253.10
554.01	43129.05
554.17	43175.86
554.34	42794.36
554.51	43189.91
554.67	43281.19
554.84	43145.44
555.00	42780.31
555.17	42689.03
555.33	43489.49
555.50	42946.49
555.67	42852.87
555.83	43119.69
556.00	43136.07
556.16	43365.45
556.33	43531.62
556.50	43377.15
556.66	43271.82
556.83	42623.50
556.99	43559.71
557.16	43524.60
557.32	43800.79
557.49	43304.59
557.65	43276.51
557.82	43288.21
557.98	43140.75
558.15	43374.81
558.32	43601.84
558.48	43440.34
558.65	43646.31
558.81	43456.73
558.98	43777.38
559.14	44032.50
559.31	43903.77
559.47	43213.31
559.64	44037.18
559.80	43873.34
559.97	43772.70
560.13	43672.06
560.30	43805.47
560.46	43416.94
560.63	43744.61
560.79	43763.34
560.96	44016.11
561.12	44067.61
561.29	43845.26
561.45	43999.73
561.61	44172.93
561.78	43335.02
561.94	43447.36
562.11	43761.00
562.27	43646.31
562.44	43746.95
562.60	44210.38
562.77	44360.17
562.93	43934.20
563.10	44348.47
563.26	43976.33
563.42	44158.89
563.59	44254.85
563.75	44360.17
563.92	44446.77
564.08	44212.72
564.24	44524.01
564.41	43814.83
564.57	44102.71
564.74	44301.66
564.90	44198.68
565.07	44598.91
565.23	44046.54
565.39	44023.14
565.56	44509.97
565.72	44542.74
565.88	44165.91
566.05	44142.50
566.21	44617.63
566.38	44102.71
566.54	44259.53
566.70	44395.28
566.87	44788.49
567.03	44353.15
567.19	44985.10
567.36	44612.95
567.52	44573.16
567.68	44568.48
567.85	44208.04
568.01	44502.95
568.17	44243.15
568.34	44645.72
568.50	44509.97
568.66	44210.38
568.83	44172.93
568.99	44121.44
569.15	44720.62
569.32	44308.68
569.48	44238.47
569.64	45162.98
569.81	44737.00
569.97	44411.67
570.13	44224.42
570.30	44226.76
570.46	44484.22
570.62	44053.56
570.78	43976.33
570.95	44760.40
571.11	44531.03
571.27	44484.22
571.43	44491.24
571.60	44744.02
571.76	44603.59
571.92	44493.58
572.09	44332.09
572.25	44645.72
572.41	44147.18
572.57	44376.56
572.74	44715.93
572.90	44697.21
573.06	44685.51
573.22	44648.06
573.38	44985.10
573.55	44275.91
573.71	44996.80
573.87	44704.23
574.03	44519.33
574.20	44896.16
574.36	44360.17
574.52	45104.46
574.68	44835.30
574.84	44619.97
575.01	44619.97
575.17	44390.60
575.33	44626.99
575.49	44315.70
575.65	44505.29
575.82	45050.63
575.98	44896.16
576.14	45181.70
576.30	44975.73
576.46	44971.05
576.62	44428.05
576.79	44687.85
576.95	44367.20
577.11	44638.70
577.27	44765.09
577.43	45490.65
577.59	45062.33
577.75	44938.29
577.92	44573.16
578.08	44507.63
578.24	44531.03
578.40	45013.18
578.56	44849.35
578.72	44638.70
578.88	45141.91
579.04	44825.94
579.21	44619.97
579.37	45006.16
579.53	44739.34
579.69	44402.30
579.85	45099.78
580.01	44919.56
580.17	44851.69
580.33	44617.63
580.49	44910.20
580.65	44704.23
580.82	45067.02
580.98	44671.46
581.14	44587.21
581.30	44912.54
581.46	44964.03
581.62	44865.73
581.78	44818.92
581.94	45265.96
582.10	44968.71
582.26	45251.92
582.42	44701.89
582.58	44863.39
582.74	44898.50
582.90	44893.82
583.06	45036.59
583.22	45031.91
583.38	45310.43
583.54	45287.03
583.70	45081.06
583.86	44896.16
584.02	44648.06
584.18	45296.39
584.34	44949.99
584.50	44617.63
584.66	44898.50
584.82	44825.94
584.98	45375.97
585.14	45038.93
585.30	44879.77
585.46	44732.32
585.62	44650.40
585.78	44598.91
585.94	44414.01
586.10	45118.51
586.26	44928.92
586.42	45254.26
586.58	45207.45
586.74	45099.78
586.90	45155.96
587.06	44891.48
587.22	45090.42
587.38	44926.58
587.54	45240.21
587.70	45282.34
587.86	44978.07
588.02	44931.26
588.18	45221.49
588.34	44690.19
588.49	44666.78
588.65	44706.57
588.81	44626.99
588.97	44868.07
589.13	44650.40
589.29	44839.98
589.45	44781.47
589.61	44809.56
589.77	45390.01
589.93	45003.82
590.08	45233.19
590.24	45193.40
