SpectraSuite Data File
++++++++++++++++++++++++++++++++++++
Date: Fri Oct 25 10:47:16 EDT 2013
User: price-jones
Dark Spectrum Present: No
Reference Spectrum Present: No
Number of Sampled Component Spectra: 1
Spectrometers: USB2+H05261
Integration Time (usec): 100000 (USB2+H05261)
Spectra Averaged: 1 (USB2+H05261)
Boxcar Smoothing: 0 (USB2+H05261)
Correct for Electrical Dark: No (USB2+H05261)
Strobe/Lamp Enabled: No (USB2+H05261)
Correct for Detector Non-linearity: No (USB2+H05261)
Correct for Stray Light: No (USB2+H05261)
Number of Pixels in Processed Spectrum: 2048
>>>>>Begin Processed Spectral Data<<<<<
365.73	166.18
365.92	166.18
366.12	166.18
366.32	49.15
366.52	60.85
366.72	65.54
366.91	0.00
367.11	72.56
367.31	63.19
367.51	11.70
367.70	53.83
367.90	0.00
368.10	88.94
368.30	95.96
368.49	0.00
368.69	67.88
368.89	142.77
369.09	102.98
369.28	88.94
369.48	98.30
369.68	100.64
369.87	135.75
370.07	70.22
370.27	173.20
370.47	152.13
370.66	351.08
370.86	404.91
371.06	411.93
371.25	475.13
371.45	421.30
371.65	421.30
371.84	414.27
372.04	409.59
372.24	484.49
372.44	447.04
372.63	468.11
372.83	519.60
373.03	531.30
373.22	510.24
373.42	484.49
373.62	407.25
373.81	458.74
374.01	454.06
374.21	477.47
374.40	472.79
374.60	538.32
374.79	472.79
374.99	580.45
375.19	571.09
375.38	589.82
375.58	528.96
375.78	571.09
375.97	512.58
376.17	667.05
376.37	503.22
376.56	531.30
376.76	552.37
376.95	456.40
377.15	566.41
377.35	613.22
377.54	720.88
377.74	601.52
377.93	533.64
378.13	578.11
378.33	538.32
378.52	601.52
378.72	613.22
378.91	615.56
379.11	559.39
379.31	594.50
379.50	636.63
379.70	493.85
379.89	667.05
380.09	587.47
380.28	699.82
380.48	704.50
380.68	594.50
380.87	667.05
381.07	671.73
381.26	662.37
381.46	573.43
381.65	664.71
381.85	636.63
382.04	594.50
382.24	739.61
382.43	664.71
382.63	697.48
382.83	653.01
383.02	683.44
383.22	730.25
383.41	683.44
383.61	697.48
383.80	791.10
384.00	709.18
384.19	650.67
384.39	774.72
384.58	643.65
384.78	660.03
384.97	741.95
385.17	758.33
385.36	702.16
385.56	720.88
385.75	716.20
385.95	725.57
386.14	753.65
386.34	765.36
386.53	800.46
386.72	753.65
386.92	723.23
387.11	767.70
387.31	856.64
387.50	826.21
387.70	744.29
387.89	816.85
388.09	791.10
388.28	814.51
388.48	819.19
388.67	856.64
388.86	870.68
389.06	842.59
389.25	854.30
389.45	842.59
389.64	826.21
389.84	898.77
390.03	961.96
390.22	835.57
390.42	873.02
390.61	851.96
390.81	840.25
391.00	929.19
391.19	891.74
391.39	912.81
391.58	947.92
391.78	978.34
391.97	961.96
392.16	947.92
392.36	957.28
392.55	964.30
392.75	912.81
392.94	940.90
393.13	945.58
393.33	945.58
393.52	940.90
393.71	983.02
393.91	1020.47
394.10	1057.92
394.29	901.11
394.49	980.68
394.68	992.39
394.88	990.05
395.07	1170.27
395.26	1036.86
395.46	1034.52
395.65	1146.86
395.84	1020.47
396.04	1111.75
396.23	1151.54
396.42	1055.58
396.62	1088.35
396.81	1109.41
397.00	1034.52
397.19	1132.82
397.39	1121.12
397.58	1121.12
397.77	1214.74
397.97	1132.82
398.16	1170.27
398.35	1078.99
398.55	1263.89
398.74	1219.42
398.93	1198.35
399.12	1217.08
399.32	1284.95
399.51	1191.33
399.70	1273.25
399.90	1277.93
400.09	1247.51
400.28	1355.17
400.47	1331.76
400.67	1263.89
400.86	1345.81
401.05	1418.36
401.24	1455.81
401.44	1336.45
401.63	1359.85
401.82	1544.75
402.01	1411.34
402.21	1383.26
402.40	1380.92
402.59	1490.92
402.78	1341.13
402.97	1507.30
403.17	1453.47
403.36	1413.68
403.55	1488.58
403.74	1575.18
403.93	1535.39
404.13	1610.29
404.32	1600.93
404.51	1533.05
404.70	1600.93
404.89	1584.54
405.09	1671.14
405.28	1528.37
405.47	1542.41
405.66	1577.52
405.85	1720.29
406.05	1666.46
406.24	1657.10
406.43	1675.82
406.62	1638.38
406.81	1762.42
407.00	1703.91
407.20	1708.59
407.39	1760.08
407.58	1668.80
407.77	1825.62
407.96	1781.15
408.15	1888.81
408.34	1732.00
408.54	1860.73
408.73	1776.47
408.92	1877.11
409.11	1919.24
409.30	1900.52
409.49	1912.22
409.68	1886.47
409.87	1921.58
410.07	1961.37
410.26	2026.90
410.45	1980.09
410.64	1996.48
410.83	2101.80
411.02	2113.50
411.21	2200.10
411.40	2202.44
411.59	2275.00
411.78	2115.84
411.98	2242.23
412.17	2228.19
412.36	2134.57
412.55	2249.25
412.74	2312.45
412.93	2275.00
413.12	2193.08
413.31	2445.86
413.50	2392.03
413.69	2473.95
413.88	2483.31
414.07	2457.56
414.26	2464.58
414.45	2483.31
414.64	2492.67
414.83	2539.48
415.02	2656.51
415.22	2555.86
415.41	2684.59
415.60	2693.96
415.79	2733.75
415.98	2665.87
416.17	2619.06
416.36	2558.21
416.55	2548.84
416.74	2778.22
416.93	2696.30
417.12	2810.98
417.31	2820.35
417.50	2796.94
417.69	2932.69
417.88	2897.58
418.07	2867.16
418.26	2867.16
418.45	2979.50
418.64	3002.91
418.83	3042.70
419.02	2972.48
419.21	3110.57
419.39	3038.02
419.58	3019.29
419.77	3052.06
419.96	3087.17
420.15	3176.11
420.34	3115.25
420.53	3148.02
420.72	3243.98
420.91	3248.66
421.10	3176.11
421.29	3365.69
421.48	3143.34
421.67	3204.19
421.86	3232.28
422.05	3269.73
422.24	3225.26
422.43	3206.53
422.61	3276.75
422.80	3356.33
422.99	3318.88
423.18	3335.26
423.37	3410.16
423.56	3424.20
423.75	3262.71
423.94	3332.92
424.13	3162.06
424.32	3251.00
424.50	3356.33
424.69	3419.52
424.88	3454.63
425.07	3447.61
425.26	3389.10
425.45	3398.46
425.64	3398.46
425.83	3447.61
426.01	3515.48
426.20	3449.95
426.39	3456.97
426.58	3431.23
426.77	3508.46
426.96	3466.33
427.15	3361.01
427.33	3520.17
427.52	3555.27
427.71	3655.92
427.90	3499.10
428.09	3522.51
428.28	3555.27
428.46	3499.10
428.65	3606.77
428.84	3751.88
429.03	3693.37
429.22	3585.70
429.40	3665.28
429.59	3723.79
429.78	3595.06
429.97	3599.74
430.16	3686.34
430.34	3583.36
430.53	3768.26
430.72	3786.99
430.91	3630.17
431.10	3850.18
431.28	3875.93
431.47	3859.54
431.66	4051.47
431.85	3906.35
432.03	3889.97
432.22	4014.02
432.41	4044.45
432.60	4140.41
432.79	4173.18
432.97	4030.40
433.16	3969.55
433.35	4004.66
433.54	4030.40
433.72	4147.43
433.91	4067.85
434.10	4191.90
434.28	3990.61
434.47	4306.59
434.66	4362.76
434.85	4311.27
435.03	4248.07
435.22	4285.52
435.41	4386.16
435.59	4259.78
435.78	4290.20
435.97	4245.73
436.16	4505.53
436.34	4402.55
436.53	4554.68
436.72	4472.76
436.90	4360.42
437.09	4482.13
437.28	4404.89
437.46	4437.66
437.65	4557.02
437.84	4526.60
438.02	4519.57
438.21	4517.23
438.40	4477.44
438.58	4617.88
438.77	4730.22
438.96	4528.94
439.14	4709.16
439.33	4847.25
439.52	4748.95
439.70	4800.44
439.89	4980.66
440.08	5085.98
440.26	4858.95
440.45	4940.87
440.63	5111.73
440.82	5149.18
441.01	5132.79
441.19	5181.95
441.38	5245.14
441.57	5226.42
441.75	5275.57
441.94	5490.90
442.12	5329.40
442.31	5369.19
442.50	5621.97
442.68	5310.68
442.87	5294.29
443.05	5308.34
443.24	5565.79
443.43	5551.75
443.61	5586.86
443.80	5568.13
443.98	5509.62
444.17	5210.03
444.35	5518.98
444.54	5727.29
444.73	5724.95
444.91	5654.73
445.10	5589.20
445.28	5685.16
445.47	5551.75
445.65	5626.65
445.84	5577.50
446.02	5523.66
446.21	5628.99
446.39	5570.48
446.58	5802.19
446.77	5813.89
446.95	5631.33
447.14	5549.41
447.32	5706.23
447.51	5521.32
447.69	5516.64
447.88	5846.66
448.06	5703.89
448.25	5659.42
448.43	5785.80
448.62	5652.39
448.80	5673.46
448.99	5909.85
449.17	5893.47
449.36	6071.35
449.54	6066.67
449.73	5947.30
449.91	6108.80
450.10	6129.86
450.28	6094.76
450.46	6162.63
450.65	5851.34
450.83	5973.05
451.02	6015.18
451.20	6148.59
451.39	6171.99
451.57	6052.63
451.76	5994.11
451.94	6036.24
452.13	6225.82
452.31	6162.63
452.49	6010.50
452.68	6160.29
452.86	6298.38
453.05	6370.94
453.23	6324.13
453.42	6221.14
453.60	6244.55
453.78	6345.19
453.97	6340.51
454.15	6225.82
454.34	6462.22
454.52	6392.00
454.70	6478.60
454.89	6394.34
455.07	6450.52
455.26	6497.33
455.44	6588.61
455.62	6539.46
455.81	6595.63
455.99	6590.95
456.17	6752.45
456.36	6672.87
456.54	6942.03
456.73	6829.68
456.91	6885.86
457.09	6979.48
457.28	7145.66
457.46	6857.77
457.64	6930.33
457.83	6958.41
458.01	6988.84
458.19	7152.68
458.38	6766.49
458.56	7019.27
458.74	6953.73
458.93	7023.95
459.11	7133.95
459.29	7166.72
459.48	7220.55
459.66	7253.32
459.84	7248.64
460.03	7569.29
460.21	7229.91
460.39	7389.07
460.57	7468.65
460.76	7426.52
460.94	7400.77
461.12	7445.24
461.31	7473.33
461.49	7489.71
461.67	7316.51
461.85	7559.93
462.04	7602.06
462.22	8018.68
462.40	7604.40
462.59	7499.08
462.77	7637.17
462.95	7637.17
463.13	7705.04
463.32	7571.63
463.50	7613.76
463.68	7705.04
463.86	7779.94
464.05	7651.21
464.23	7749.51
464.41	7985.91
464.59	7644.19
464.78	7955.48
464.96	8004.63
465.14	7772.92
465.32	7934.42
465.50	7798.66
465.69	8135.70
465.87	7892.29
466.05	7974.21
466.23	8009.31
466.41	8105.28
466.60	8365.07
466.78	7967.18
466.96	8116.98
467.14	8049.10
467.32	8133.36
467.51	8081.87
467.69	7896.97
467.87	8145.06
468.05	8236.35
468.23	8226.98
468.41	8280.82
468.60	8325.29
468.78	8259.75
468.96	8152.09
469.14	8299.54
469.32	8369.76
469.50	8402.52
469.69	8432.95
469.87	8608.49
470.05	8620.19
470.23	8596.79
470.41	8442.31
470.59	8662.32
470.77	8662.32
470.95	8798.07
471.14	8744.24
471.32	8594.45
471.50	8938.51
471.68	8943.19
471.86	8858.93
472.04	8887.01
472.22	9202.99
472.40	8985.32
472.58	9069.58
472.77	9397.25
472.95	9165.54
473.13	9514.28
473.31	9041.49
473.49	9207.67
473.67	9282.56
473.85	9312.99
474.03	9610.24
474.21	9373.85
474.39	9593.86
474.57	9387.89
474.75	9713.22
474.93	9633.64
475.12	9551.73
475.30	9809.19
475.48	9778.76
475.66	9806.84
475.84	9888.76
476.02	9966.00
476.20	10134.52
476.38	10094.73
476.56	10546.45
476.74	10363.89
476.92	10099.41
477.10	10319.42
477.28	10586.24
477.46	10473.90
477.64	10623.69
477.82	10775.83
478.00	10904.56
478.18	10785.19
478.36	11169.04
478.54	11164.36
478.72	11197.12
478.90	10991.16
479.08	11510.75
479.26	11452.24
479.44	11304.79
479.62	11269.68
479.80	11784.60
479.98	11798.64
480.16	11903.96
480.34	11843.11
480.52	11974.18
480.70	11950.78
480.88	11964.82
481.06	11978.86
481.24	12156.74
481.41	12446.97
481.59	12442.29
481.77	12503.14
481.95	12676.34
482.13	12697.41
482.31	12676.34
482.49	13001.68
482.67	12996.99
482.85	13200.62
483.03	13224.03
483.21	13369.14
483.39	13392.55
483.57	13570.43
483.74	13668.73
483.92	13820.86
484.10	13708.52
484.28	13867.67
484.46	14295.99
484.64	14272.59
484.82	14150.88
485.00	14476.21
485.18	14417.70
485.35	14293.65
485.53	14501.96
485.71	14581.54
485.89	14892.83
486.07	14731.33
486.25	14803.89
486.43	15049.64
486.61	15412.43
486.78	15351.57
486.96	15489.67
487.14	15641.80
487.32	15697.97
487.50	15807.98
487.68	15779.89
487.85	16196.51
488.03	16318.22
488.21	16475.03
488.39	16372.05
488.57	16568.65
488.75	16903.35
488.92	16730.15
489.10	16915.05
489.28	17114.00
489.46	17338.69
489.64	17273.15
489.81	17635.94
489.99	17642.96
490.17	17996.38
490.35	18129.79
490.53	17877.01
490.70	18314.69
490.88	18157.88
491.06	18321.71
491.24	18225.75
491.41	18398.95
491.59	18457.46
491.77	18656.41
491.95	18836.63
492.13	18977.06
492.30	19173.67
492.48	18953.66
492.66	19417.08
492.84	19405.38
493.01	20086.48
493.19	19463.90
493.37	19887.53
493.54	19908.60
493.72	20130.95
493.90	20177.76
494.08	20072.43
494.25	20252.66
494.43	20320.53
494.61	20865.88
494.79	20727.78
494.96	20737.15
495.14	20837.79
495.32	20929.07
495.49	21270.79
495.67	21273.13
495.85	21137.38
496.02	21727.19
496.20	21413.56
496.38	21778.68
496.55	21884.01
496.73	22497.23
496.91	22228.07
497.09	22237.43
497.26	22221.05
497.44	22008.06
497.62	22253.81
497.79	22745.33
497.97	22419.99
498.14	22611.92
498.32	23070.66
498.50	23023.85
498.67	23096.41
498.85	22946.61
499.03	23470.89
499.20	23246.20
499.38	23520.04
499.56	23131.51
499.73	23836.02
499.91	23580.90
500.08	23861.76
500.26	23840.70
500.44	23906.23
500.61	23765.80
500.79	23873.46
500.97	23910.91
501.14	24503.07
501.32	24479.66
501.49	24524.13
501.67	24903.30
501.84	24636.48
502.02	24840.11
502.20	24966.49
502.37	25146.72
502.55	24919.68
502.72	25202.89
502.90	25369.07
503.07	24835.42
503.25	25263.74
503.43	25008.62
503.60	25710.78
503.78	25535.24
503.95	25788.02
504.13	25532.90
504.30	25458.01
504.48	25633.55
504.65	25951.86
504.83	26272.51
505.01	26099.31
505.18	25970.58
505.36	26382.52
505.53	26314.64
505.71	26403.58
505.88	26787.43
506.06	26754.66
506.23	26742.96
506.41	26443.37
506.58	26986.38
506.76	26581.46
506.93	27070.64
507.11	27101.06
507.28	27271.92
507.46	26909.14
507.63	27009.78
507.81	27180.64
507.98	27243.84
508.16	27206.39
508.33	27410.01
508.50	27786.84
508.68	27896.85
508.85	28222.18
509.03	27564.49
509.20	28114.52
509.38	28044.30
509.55	28589.64
509.73	28364.95
509.90	28437.51
510.08	28135.58
510.25	28226.86
510.42	28435.17
510.60	28435.17
510.77	28723.05
510.95	28966.47
511.12	28769.86
511.30	28926.68
511.47	29460.32
511.64	29050.73
511.82	29259.04
511.99	29240.31
512.17	29308.19
512.34	29315.21
512.51	29301.17
512.69	29558.63
512.86	29404.15
513.04	29860.55
513.21	29773.95
513.38	29832.47
513.56	30033.75
513.73	29867.58
513.90	30176.53
514.08	29886.30
514.25	30096.95
514.43	30302.92
514.60	30005.67
514.77	29895.66
514.95	30555.69
515.12	30457.39
515.29	30506.54
515.47	30541.65
515.64	30810.81
515.81	30501.86
515.99	30918.48
516.16	31218.07
516.33	31005.08
516.51	31115.08
516.68	30955.93
516.85	30553.35
517.03	30895.07
517.20	31241.47
517.37	31098.70
517.54	31449.78
517.72	31573.83
517.89	31592.55
518.06	31222.75
518.24	31559.78
518.41	31365.52
518.58	31587.87
518.75	31613.62
518.93	31871.07
519.10	31770.43
519.27	31679.15
519.45	32217.47
519.62	32294.71
519.79	32556.85
519.96	32121.51
520.14	33062.41
520.31	32261.94
520.48	32479.61
520.65	32442.17
520.83	32690.26
521.00	32844.74
521.17	33006.23
521.34	33027.30
521.52	33106.88
521.69	32989.85
521.86	33127.94
522.03	33205.18
522.20	33078.79
522.38	33226.24
522.55	33263.69
522.72	33134.96
522.89	33312.84
523.07	33692.01
523.24	33469.66
523.41	33745.84
523.58	33455.62
523.75	33975.22
523.92	33979.90
524.10	33958.83
524.27	34223.31
524.44	33865.21
524.61	34398.85
524.78	34256.08
524.96	34443.32
525.13	34338.00
525.30	34328.64
525.47	34459.71
525.64	34401.19
525.81	34787.38
525.98	34478.43
526.16	34581.42
526.33	34499.50
526.50	34852.92
526.67	34457.37
526.84	34761.64
527.01	34590.78
527.18	35047.18
527.36	34550.99
527.53	35119.74
527.70	35597.21
527.87	35388.90
528.04	35431.03
528.21	35487.20
528.38	35321.02
528.55	35573.80
528.72	35622.95
528.89	36086.38
529.07	35393.58
529.24	35398.26
529.41	35627.63
529.58	35725.94
529.75	35868.71
529.92	35852.33
530.09	35936.59
530.26	36067.66
530.43	36271.28
530.60	35583.16
530.77	36053.61
530.94	36165.96
531.11	36077.02
531.28	36268.94
531.46	36233.83
531.63	36285.33
531.80	36245.54
531.97	36327.45
532.14	36442.14
532.31	36404.69
532.48	36470.23
532.65	36634.06
532.82	36753.43
532.99	36591.94
533.16	36121.49
533.33	37156.00
533.50	36854.08
533.67	36788.54
533.84	37130.26
534.01	37308.14
534.18	36999.19
534.35	37406.44
534.52	37097.49
534.69	37429.85
534.86	37247.29
535.03	37502.40
535.20	37923.70
535.37	37727.10
535.54	37420.48
535.71	37556.24
535.88	37825.40
536.05	37628.79
536.22	37919.02
536.38	37762.20
536.55	38094.56
536.72	38019.66
536.89	37841.78
537.06	37879.23
537.23	37855.82
537.40	37970.51
537.57	37919.02
537.74	37818.38
537.91	38277.12
538.08	38213.93
538.25	37907.32
538.42	38342.66
538.59	38366.06
538.75	38082.86
538.92	38455.00
539.09	38639.90
539.26	38209.25
539.43	38391.81
539.60	38153.07
539.77	38260.74
539.94	38300.53
540.11	38375.42
540.28	38492.45
540.44	38855.23
540.61	38897.36
540.78	38405.85
540.95	38682.03
541.12	38838.85
541.29	38801.40
541.46	38672.67
541.62	39012.05
541.79	38880.98
541.96	38478.41
542.13	39072.90
542.30	39370.15
542.47	38562.67
542.63	38866.94
542.80	38871.62
542.97	39791.45
543.14	39770.38
543.31	39681.44
543.48	39587.82
543.64	39871.03
543.81	39529.31
543.98	39667.40
544.15	39552.71
544.32	39655.70
544.48	40364.88
544.65	40208.06
544.82	39646.33
544.99	39641.65
545.16	39941.24
545.32	40020.82
545.49	39936.56
545.66	40402.33
545.83	40086.36
546.00	40275.94
546.16	40217.43
546.33	39936.56
546.50	39456.75
546.67	40446.80
546.83	39711.87
547.00	40507.65
547.17	40311.05
547.34	40376.58
547.50	40229.13
547.67	40411.69
547.84	40957.03
548.00	40500.63
548.17	40697.24
548.34	40755.75
548.51	41165.34
548.67	40734.68
548.84	41254.28
549.01	41258.96
549.18	40528.72
549.34	41008.53
549.51	41235.56
549.68	41317.48
549.84	41132.57
550.01	41261.30
550.18	40889.16
550.34	41425.14
550.51	41060.02
550.68	40783.83
550.84	40896.18
551.01	41048.32
551.18	41036.61
551.34	41216.83
551.51	41518.76
551.68	41464.93
551.84	41598.34
552.01	40992.14
552.18	41624.09
552.34	40760.43
552.51	41558.55
552.68	41378.33
552.84	41385.35
553.01	41841.76
553.18	41268.33
553.34	41614.72
553.51	41394.71
553.67	41701.32
553.84	42026.66
554.01	41708.35
554.17	42246.67
554.34	42019.64
554.51	41881.55
554.67	41909.63
554.84	41832.39
555.00	41830.05
555.17	41888.57
555.33	41734.09
555.50	42234.97
555.67	42202.20
555.83	42316.89
556.00	42181.13
556.16	42244.33
556.33	42412.85
556.50	42340.29
556.66	42876.27
556.83	42511.15
556.99	42094.53
557.16	42431.57
557.32	42520.51
557.49	42244.33
557.65	41904.95
557.82	42417.53
557.98	42150.71
558.15	42389.44
558.32	42560.30
558.48	42583.71
558.65	42677.33
558.81	42307.52
558.98	42361.36
559.14	42333.27
559.31	42632.86
559.47	43035.43
559.64	42866.91
559.80	43587.80
559.97	43147.78
560.13	42377.74
560.30	42543.92
560.46	42546.26
560.63	42534.56
560.79	42836.48
560.96	43143.09
561.12	42972.24
561.29	42911.38
561.45	43119.69
561.61	42674.99
561.78	43040.11
561.94	42895.00
562.11	42965.21
562.27	42981.60
562.44	42777.97
562.60	43372.47
562.77	43007.34
562.93	43164.16
563.10	42990.96
563.26	42735.84
563.42	43012.02
563.59	42693.71
563.75	43051.81
563.92	43320.98
564.08	43276.51
564.24	43129.05
564.41	43222.67
564.57	42784.99
564.74	43377.15
564.90	43393.53
565.07	43636.95
565.23	43335.02
565.39	43255.44
565.56	43182.88
565.72	43255.44
565.88	43311.61
566.05	43192.25
566.21	43220.33
566.38	43187.56
566.54	43229.69
566.70	43320.98
566.87	43761.00
567.03	43255.44
567.19	43538.65
567.36	43178.20
567.52	42990.96
567.68	43400.55
567.85	43337.36
568.01	43735.25
568.17	43257.78
568.34	43304.59
568.50	43665.03
568.66	43318.64
568.83	43632.27
568.99	43339.70
569.15	43070.54
569.32	43973.98
569.48	43313.95
569.64	43882.70
569.81	43634.61
569.97	43302.25
570.13	43274.16
570.30	43026.07
570.46	43592.48
570.62	43412.26
570.78	43505.88
570.95	43543.33
571.11	43812.49
571.27	43569.07
571.43	43714.19
571.60	43779.72
571.76	43489.49
571.92	43597.16
572.09	43971.64
572.25	43838.23
572.41	43807.81
572.57	43943.56
572.74	43945.90
572.90	43576.09
573.06	43522.26
573.22	43737.59
573.38	43871.00
573.55	43611.20
573.71	43922.49
573.87	43536.30
574.03	43543.33
574.20	43924.83
574.36	43421.62
574.52	43756.32
574.68	43739.93
574.84	43819.51
575.01	43798.44
575.17	44151.87
575.33	43725.89
575.49	43903.77
575.65	44264.21
575.82	44275.91
575.98	43927.17
576.14	44236.12
576.30	43777.38
576.46	43737.59
576.62	43522.26
576.79	43679.08
576.95	43557.37
577.11	43405.23
577.27	43793.76
577.43	43763.34
577.59	43952.92
577.75	43873.34
577.92	43798.44
578.08	43744.61
578.24	43833.55
578.40	43697.80
578.56	43477.79
578.72	44116.76
578.88	44360.17
579.04	44048.88
579.21	43983.35
579.37	43234.38
579.53	43833.55
579.69	43543.33
579.85	43634.61
580.01	43674.40
580.17	44048.88
580.33	44608.27
580.49	44091.01
580.65	44006.75
580.82	44018.46
580.98	44058.24
581.14	44018.46
581.30	44287.62
581.46	43669.72
581.62	44149.53
581.78	44060.58
581.94	44332.09
582.10	43929.51
582.26	44423.37
582.42	44133.14
582.58	44114.42
582.74	43847.60
582.90	43999.73
583.06	44119.10
583.22	43927.17
583.38	44144.84
583.54	44069.95
583.70	43959.94
583.86	44032.50
584.02	43730.57
584.18	44074.63
584.34	44388.26
584.50	44041.86
584.66	44004.41
584.82	43833.55
584.98	44224.42
585.14	44121.44
585.30	43913.13
585.46	43964.62
585.62	44296.98
585.78	44091.01
585.94	43562.05
586.10	43737.59
586.26	43711.84
586.42	44102.71
586.58	44201.02
586.74	44074.63
586.90	43976.33
587.06	44306.34
587.22	44442.09
587.38	43856.96
587.54	44355.49
587.70	44172.93
587.86	43889.73
588.02	43838.23
588.18	44126.12
588.34	44093.35
588.49	44002.07
588.65	43969.30
588.81	43831.21
588.97	44540.39
589.13	43639.29
589.29	44238.47
589.45	44215.06
589.61	44402.30
589.77	44362.51
589.93	43943.56
590.08	44390.60
590.24	44582.52
590.40	44322.72
