SpectraSuite Data File
++++++++++++++++++++++++++++++++++++
Date: Fri Oct 25 11:25:58 EDT 2013
User: price-jones
Dark Spectrum Present: No
Reference Spectrum Present: No
Number of Sampled Component Spectra: 1
Spectrometers: USB2+H05261
Integration Time (usec): 100000 (USB2+H05261)
Spectra Averaged: 1 (USB2+H05261)
Boxcar Smoothing: 0 (USB2+H05261)
Correct for Electrical Dark: No (USB2+H05261)
Strobe/Lamp Enabled: No (USB2+H05261)
Correct for Detector Non-linearity: No (USB2+H05261)
Correct for Stray Light: No (USB2+H05261)
Number of Pixels in Processed Spectrum: 2048
>>>>>Begin Processed Spectral Data<<<<<
365.73	290.23
365.92	290.23
366.12	290.23
366.32	166.18
366.52	182.56
366.72	236.39
366.91	121.71
367.11	98.30
367.31	145.11
367.51	135.75
367.70	107.66
367.90	168.52
368.10	149.79
368.30	119.37
368.49	135.75
368.69	98.30
368.89	149.79
369.09	138.09
369.28	154.48
369.48	182.56
369.68	236.39
369.87	175.54
370.07	196.60
370.27	297.25
370.47	355.76
370.66	631.94
370.86	634.29
371.06	674.07
371.25	744.29
371.45	699.82
371.65	767.70
371.84	692.80
372.04	709.18
372.24	690.46
372.44	774.72
372.63	770.04
372.83	704.50
373.03	737.27
373.22	727.91
373.42	922.17
373.62	779.40
373.81	861.32
374.01	875.36
374.21	814.51
374.40	842.59
374.60	751.31
374.79	795.78
374.99	812.17
375.19	816.85
375.38	800.46
375.58	884.72
375.78	908.13
375.97	901.11
376.17	929.19
376.37	933.87
376.56	877.70
376.76	851.96
376.95	821.53
377.15	992.39
377.35	847.27
377.54	952.60
377.74	854.30
377.93	915.15
378.13	940.90
378.33	938.55
378.52	947.92
378.72	973.66
378.91	919.83
379.11	868.34
379.31	844.93
379.50	915.15
379.70	926.85
379.89	961.96
380.09	990.05
380.28	1011.11
380.48	929.19
380.68	964.30
380.87	1064.94
381.07	940.90
381.26	1050.90
381.46	968.98
381.65	1086.01
381.85	1004.09
382.04	1069.62
382.24	1034.52
382.43	1015.79
382.63	1001.75
382.83	1083.67
383.02	1114.10
383.22	1123.46
383.41	1118.78
383.61	1107.07
383.80	1135.16
384.00	1097.71
384.19	1231.12
384.39	1167.93
384.58	1078.99
384.78	1165.59
384.97	1210.06
385.17	1207.72
385.36	1186.65
385.56	1151.54
385.75	1128.14
385.95	1193.67
386.14	1165.59
386.34	1132.82
386.53	1263.89
386.72	1263.89
386.92	1259.21
387.11	1240.48
387.31	1238.14
387.50	1235.80
387.70	1233.46
387.89	1366.87
388.09	1261.55
388.28	1289.64
388.48	1275.59
388.67	1324.74
388.86	1296.66
389.06	1324.74
389.25	1273.25
389.45	1266.23
389.64	1362.19
389.84	1427.73
390.03	1430.07
390.22	1373.89
390.42	1357.51
390.61	1397.30
390.81	1397.30
391.00	1366.87
391.19	1455.81
391.39	1420.71
391.58	1465.18
391.78	1423.05
391.97	1509.65
392.16	1523.69
392.36	1549.43
392.55	1514.33
392.75	1556.46
392.94	1526.03
393.13	1495.60
393.33	1549.43
393.52	1607.95
393.71	1563.48
393.91	1507.30
394.10	1666.46
394.29	1682.85
394.49	1631.35
394.68	1579.86
394.88	1640.72
395.07	1661.78
395.26	1694.55
395.46	1694.55
395.65	1722.63
395.84	1739.02
396.04	1778.81
396.23	1746.04
396.42	1755.40
396.62	1729.66
396.81	1764.76
397.00	1797.53
397.19	1748.38
397.39	1806.89
397.58	1872.43
397.77	1757.74
397.97	1804.55
398.16	1834.98
398.35	1902.86
398.55	1935.62
398.74	1905.20
398.93	1973.07
399.12	1989.46
399.32	1856.04
399.51	1891.15
399.70	1949.67
399.90	1888.81
400.09	1982.43
400.28	1975.41
400.47	2001.16
400.67	2090.10
400.86	2083.08
401.05	2127.55
401.24	2097.12
401.44	2059.67
401.63	2066.69
401.82	2209.47
402.01	2120.53
402.21	2022.22
402.40	2216.49
402.59	2207.13
402.78	2218.83
402.97	2087.76
403.17	2211.81
403.36	2188.40
403.55	2225.85
403.74	2279.68
403.93	2279.68
404.13	2410.75
404.32	2307.77
404.51	2361.60
404.70	2520.76
404.89	2382.67
405.09	2539.48
405.28	2385.01
405.47	2534.80
405.66	2441.18
405.85	2569.91
406.05	2466.92
406.24	2619.06
406.43	2605.02
406.62	2633.10
406.81	2719.70
407.00	2567.57
407.20	2518.42
407.39	2527.78
407.58	2782.90
407.77	2724.38
407.96	2771.19
408.15	2825.03
408.34	2555.86
408.54	2775.88
408.73	2698.64
408.92	2761.83
409.11	2918.65
409.30	2841.41
409.49	2794.60
409.68	2895.24
409.87	2860.13
410.07	2970.14
410.26	3023.97
410.45	3000.57
410.64	3023.97
410.83	3056.74
411.02	3148.02
411.21	3056.74
411.40	3124.62
411.59	3145.68
411.78	3115.25
411.98	3112.91
412.17	3288.45
412.36	3351.65
412.55	3293.13
412.74	3482.72
412.93	3339.94
413.12	3358.67
413.31	3595.06
413.50	3344.63
413.69	3471.01
413.88	3595.06
414.07	3616.13
414.26	3508.46
414.45	3637.19
414.64	3648.90
414.83	3691.02
415.02	3660.60
415.22	3801.03
415.41	3887.63
415.60	3789.33
415.79	3894.65
415.98	3852.52
416.17	3995.29
416.36	3985.93
416.55	3976.57
416.74	3955.51
416.93	3992.95
417.12	4117.00
417.31	4060.83
417.50	4243.39
417.69	4393.19
417.88	4215.30
418.07	4379.14
418.26	4245.73
418.45	4301.90
418.64	4416.59
418.83	4280.84
419.02	4325.31
419.21	4456.38
419.39	4353.40
419.58	4414.25
419.77	4505.53
419.96	4465.74
420.15	4589.79
420.34	4571.07
420.53	4526.60
420.72	4493.83
420.91	4786.40
421.10	4622.56
421.29	4781.71
421.48	4512.55
421.67	4826.18
421.86	4919.81
422.05	4788.74
422.24	4732.56
422.43	4851.93
422.61	4983.00
422.80	5060.24
422.99	4908.10
423.18	4971.30
423.37	4973.64
423.56	4821.50
423.75	4908.10
423.94	4812.14
424.13	4610.86
424.32	4758.31
424.50	4844.91
424.69	4983.00
424.88	5046.20
425.07	4894.06
425.26	4821.50
425.45	4945.55
425.64	4847.25
425.83	5076.62
426.01	5008.75
426.20	5067.26
426.39	5097.69
426.58	5006.41
426.77	5032.15
426.96	5210.03
427.15	5144.50
427.33	5078.96
427.52	5284.93
427.71	5217.05
427.90	5067.26
428.09	5308.34
428.28	5219.39
428.46	5378.55
428.65	5411.32
428.84	5338.76
429.03	5533.03
429.22	5343.44
429.40	5408.98
429.59	5355.15
429.78	5380.89
429.97	5345.78
430.16	5582.18
430.34	5631.33
430.53	5657.07
430.72	5591.54
430.91	5481.53
431.10	5497.92
431.28	5713.25
431.47	5593.88
431.66	5863.04
431.85	5769.42
432.03	5746.02
432.22	5884.11
432.41	5928.58
432.60	5727.29
432.79	5902.83
432.97	5991.77
433.16	6052.63
433.35	6010.50
433.54	6146.25
433.72	6118.16
433.91	6092.41
434.10	6186.04
434.28	6157.95
434.47	6038.58
434.66	6169.65
434.85	6487.96
435.03	6359.24
435.22	6469.24
435.41	6523.07
435.59	6441.15
435.78	6567.54
435.97	6506.69
436.16	6380.30
436.34	6293.70
436.53	6441.15
436.72	6562.86
436.90	6546.48
437.09	6616.69
437.28	6359.24
437.46	6604.99
437.65	6661.16
437.84	6736.06
438.02	6794.58
438.21	6892.88
438.40	6691.59
438.58	6930.33
438.77	6724.36
438.96	7052.03
439.14	7171.40
439.33	7201.83
439.52	7222.89
439.70	7159.70
439.89	7424.18
440.08	7368.01
440.26	7363.33
440.45	7302.47
440.63	7363.33
440.82	7485.03
441.01	7398.43
441.19	7595.04
441.38	7566.95
441.57	7845.48
441.75	7770.58
441.94	7796.32
442.12	7847.82
442.31	7864.20
442.50	8032.72
442.68	7761.22
442.87	7929.74
443.05	8142.72
443.24	8297.20
443.43	8088.89
443.61	8046.76
443.80	8276.13
443.98	8072.51
444.17	7939.10
444.35	8107.62
444.54	8294.86
444.73	8358.05
444.91	8383.80
445.10	8402.52
445.28	8276.13
445.47	8358.05
445.65	8409.54
445.84	8449.33
446.02	8461.04
446.21	8552.32
446.39	8201.24
446.58	8524.23
446.77	8210.60
446.95	8409.54
447.14	8549.98
447.32	8540.61
447.51	8484.44
447.69	8341.67
447.88	8622.53
448.06	8580.40
448.25	8557.00
448.43	8608.49
448.62	8454.02
448.80	8645.94
448.99	8732.54
449.17	8793.39
449.36	8624.87
449.54	8800.41
449.73	9011.06
449.91	9064.89
450.10	8805.10
450.28	9013.40
450.46	8908.08
450.65	9076.60
450.83	8952.55
451.02	9144.47
451.20	9118.73
451.39	9135.11
451.57	9062.55
451.76	9041.49
451.94	9095.32
452.13	9210.01
452.31	9207.67
452.49	8961.91
452.68	9331.72
452.86	9378.53
453.05	9561.09
453.23	9240.44
453.42	9364.48
453.60	9357.46
453.78	9357.46
453.97	9322.35
454.15	9420.66
454.34	9437.04
454.52	9701.52
454.70	9745.99
454.89	9825.57
455.07	10001.11
455.26	9713.22
455.44	9834.93
455.62	9813.87
455.81	9825.57
455.99	10083.03
456.17	9898.13
456.36	9989.41
456.54	9975.36
456.73	10050.26
456.91	10471.56
457.09	10335.81
457.28	10410.70
457.46	10576.88
457.64	10602.63
457.83	10464.54
458.01	10413.04
458.19	10546.45
458.38	10516.03
458.56	10520.71
458.74	10679.86
458.93	10750.08
459.11	10551.14
459.29	10789.87
459.48	10745.40
459.66	10832.00
459.84	10817.96
460.03	11049.67
460.21	10995.84
460.39	10956.05
460.57	11023.92
460.76	11023.92
460.94	11309.47
461.12	11286.06
461.31	11159.67
461.49	11082.44
461.67	11290.74
461.85	11276.70
462.04	11447.56
462.22	11854.81
462.40	11485.01
462.59	11281.38
462.77	11400.75
462.95	11613.74
463.13	11648.85
463.32	11513.10
463.50	11721.40
463.68	11861.84
463.86	11943.75
464.05	11822.05
464.23	11499.05
464.41	11927.37
464.59	11740.13
464.78	11920.35
464.96	11836.09
465.14	12081.85
465.32	12049.08
465.50	12093.55
465.69	12175.47
465.87	12170.79
466.05	12114.61
466.23	11995.25
466.41	12210.57
466.60	12500.80
466.78	12159.08
466.96	12046.74
467.14	12418.88
467.32	12287.81
467.51	12599.10
467.69	12226.96
467.87	12400.16
468.05	12620.17
468.23	12365.05
468.41	12697.41
468.60	12507.82
468.78	12830.82
468.96	12606.13
469.14	12664.64
469.32	12957.21
469.50	12765.28
469.69	13114.02
469.87	13116.36
470.05	13228.71
470.23	13104.66
470.41	13050.83
470.59	13247.43
470.77	13198.28
470.95	13266.16
471.14	13422.97
471.32	13221.69
471.50	13551.70
471.68	13607.87
471.86	13446.38
472.04	13394.89
472.22	13797.46
472.40	13764.69
472.58	13834.91
472.77	14139.18
472.95	14221.10
473.13	14328.76
473.31	13973.00
473.49	13998.74
473.67	14146.20
473.85	14286.63
474.03	14499.62
474.21	14420.04
474.39	14593.24
474.57	14576.86
474.75	15089.43
474.93	15009.86
475.12	14733.67
475.30	15236.89
475.48	15054.33
475.66	15119.86
475.84	15145.61
476.02	15241.57
476.20	15454.56
476.38	15735.42
476.56	15978.84
476.74	16004.58
476.92	15688.61
477.10	15747.12
477.28	16027.99
477.46	16142.67
477.64	15953.09
477.82	16594.40
478.00	16835.47
478.18	16650.57
478.36	16996.97
478.54	17238.05
478.72	17043.78
478.90	17156.13
479.08	17362.09
479.26	17729.56
479.44	17544.66
479.62	17834.88
479.80	18082.98
479.98	17944.89
480.16	18480.87
480.34	17975.31
480.52	18485.55
480.70	18602.58
480.88	18368.52
481.06	18691.52
481.24	18693.86
481.41	18909.19
481.59	19463.90
481.77	19112.81
481.95	19658.16
482.13	19634.75
482.31	19686.25
482.49	19941.36
482.67	20044.35
482.85	20575.65
483.03	20524.16
483.21	20542.88
483.39	20685.65
483.57	20837.79
483.74	20812.04
483.92	21083.55
484.10	21207.59
484.28	21455.69
484.46	21947.20
484.64	22225.73
484.82	21626.55
485.00	22003.38
485.18	22565.10
485.35	22836.61
485.53	22778.09
485.71	22583.83
485.89	23789.20
486.07	23239.18
486.25	23124.49
486.43	23344.50
486.61	23960.06
486.78	23758.78
486.96	24224.54
487.14	24608.39
487.32	24467.96
487.50	24629.46
487.68	24900.96
487.85	25050.75
488.03	25376.09
488.21	25598.44
488.39	25610.14
488.57	25956.54
488.75	25984.63
488.92	26792.11
489.10	26780.41
489.28	26792.11
489.46	27152.55
489.64	26679.77
489.81	27559.81
489.99	27669.81
490.17	27770.46
490.35	27910.89
490.53	28301.76
490.70	28201.11
490.88	28158.99
491.06	29043.71
491.24	28863.49
491.41	29254.36
491.59	29376.06
491.77	29448.62
491.95	29652.25
492.13	29645.23
492.30	30178.87
492.48	29977.58
492.66	30078.22
492.84	30473.78
493.01	30380.15
493.19	30377.81
493.37	30794.43
493.54	31089.34
493.72	31370.20
493.90	31321.05
494.08	31484.89
494.25	32205.77
494.43	32091.09
494.61	32397.70
494.79	32561.53
494.96	32374.29
495.14	32498.34
495.32	33385.40
495.49	33289.44
495.67	33172.41
495.85	33467.32
496.02	33940.11
496.20	34012.66
496.38	33699.03
496.55	34047.77
496.73	34841.21
496.91	34525.24
497.09	34396.51
497.26	34785.04
497.44	34759.30
497.62	35138.46
497.79	35800.83
497.97	35440.39
498.14	35786.79
498.32	35728.28
498.50	35590.19
498.67	36531.08
498.85	36470.23
499.03	36407.03
499.20	36563.85
499.38	36833.01
499.56	37083.45
499.73	37247.29
499.91	37237.92
500.08	37865.19
500.26	37357.29
500.44	37596.03
500.61	38094.56
500.79	37345.59
500.97	38246.69
501.14	38426.92
501.32	38382.45
501.49	38396.49
501.67	38843.53
501.84	38375.42
502.02	38520.54
502.20	39171.21
502.37	39388.88
502.55	39105.67
502.72	39576.12
502.90	39124.40
503.07	39711.87
503.25	40044.23
503.43	39718.89
503.60	40079.33
503.78	39966.99
503.95	40322.75
504.13	40243.17
504.30	40823.62
504.48	40526.38
504.65	40921.93
504.83	41043.63
505.01	41481.31
505.18	41060.02
505.36	41663.88
505.53	41219.17
505.71	41383.01
505.88	41244.92
506.06	41200.45
506.23	42316.89
506.41	41937.72
506.58	42080.49
506.76	42295.82
506.93	42602.43
507.11	42155.39
507.28	42148.37
507.46	42703.07
507.63	42923.08
507.81	42787.33
507.98	42536.90
508.16	42745.20
508.33	43248.42
508.50	43367.79
508.68	43632.27
508.85	43519.92
509.03	43880.36
509.20	43744.61
509.38	43863.98
509.55	44444.43
509.73	44671.46
509.90	44905.52
510.08	44458.48
510.25	44626.99
510.42	44718.28
510.60	44935.95
510.77	44491.24
510.95	45490.65
511.12	44919.56
511.30	44692.53
511.47	45280.00
511.64	45492.99
511.82	45755.13
511.99	45998.55
512.17	45773.86
512.34	45722.37
512.51	46464.32
512.69	46206.86
512.86	46005.57
513.04	46782.63
513.21	46473.68
513.38	46595.38
513.56	46639.86
513.73	46433.89
513.90	46892.63
514.08	46937.10
514.25	47152.43
514.43	47281.16
514.60	46962.85
514.77	47175.84
514.95	47606.50
515.12	47697.78
515.29	47302.23
515.47	47580.75
515.64	47732.89
515.81	47522.24
515.99	47992.68
516.16	48470.15
516.33	48147.16
516.51	48526.33
516.68	48231.42
516.85	48280.57
517.03	48477.18
517.20	48257.17
517.37	48648.03
517.54	48612.93
517.72	48683.14
517.89	48926.56
518.06	49481.27
518.24	49207.42
518.41	49029.54
518.58	49282.32
518.75	48900.81
518.93	49298.70
519.10	49394.67
519.27	49837.03
519.45	49673.19
519.62	49715.32
519.79	49698.94
519.96	49778.51
520.14	49909.58
520.31	49689.57
520.48	50333.22
520.65	50253.64
520.83	50494.72
521.00	50983.89
521.17	50499.40
521.34	50614.08
521.52	50768.56
521.69	50747.50
521.86	51035.38
522.03	51030.70
522.20	51416.89
522.38	51590.09
522.55	51096.24
522.72	50941.76
522.89	51100.92
523.07	51257.73
523.24	51363.06
523.41	51679.03
523.58	51349.01
523.75	52196.29
523.92	51360.72
524.10	51889.68
524.27	51826.48
524.44	52107.35
524.61	51964.57
524.78	52140.11
524.96	52112.03
525.13	51995.00
525.30	52533.32
525.47	52570.77
525.64	52322.68
525.81	52306.29
525.98	52666.73
526.16	52411.62
526.33	52463.11
526.50	52982.71
526.67	52758.02
526.84	52622.26
527.01	52940.58
527.18	52832.91
527.36	52584.82
527.53	52877.38
527.70	53408.68
527.87	53326.77
528.04	53055.26
528.21	53048.24
528.38	53085.69
528.55	53450.81
528.72	53436.77
528.89	53048.24
529.07	53113.78
529.24	53354.85
529.41	53359.53
529.58	53640.40
529.75	53333.79
529.92	53750.40
530.09	53743.38
530.26	53982.12
530.43	53989.14
530.60	53712.95
530.77	53771.47
530.94	54220.85
531.11	53851.05
531.28	54148.29
531.46	53907.22
531.63	54017.22
531.80	54045.31
531.97	54312.13
532.14	54389.37
532.31	54209.15
532.48	54370.64
532.65	54335.54
532.82	54494.69
532.99	54520.44
533.16	54422.14
533.33	54707.68
533.50	54759.17
533.67	54857.48
533.84	54611.72
534.01	54703.00
534.18	54754.49
534.35	55147.70
534.52	54649.17
534.69	55018.97
534.86	55323.24
535.03	54911.31
535.20	55131.32
535.37	55320.90
535.54	55412.18
535.71	55250.69
535.88	55379.42
536.05	55526.87
536.22	55554.96
536.38	55517.51
536.55	55468.36
536.72	55510.49
536.89	55302.18
537.06	55323.24
537.23	55700.07
537.40	55444.95
537.57	55765.60
537.74	55758.58
537.91	55980.93
538.08	55849.86
538.25	55576.02
538.42	55976.25
538.59	55924.76
538.75	55765.60
538.92	55896.67
539.09	55868.59
539.26	55899.01
539.43	56095.62
539.60	56317.97
539.77	56109.66
539.94	56516.92
540.11	56231.37
540.28	56170.52
540.44	56488.83
540.61	56219.67
540.78	56324.99
540.95	56350.74
541.12	56322.65
541.29	56507.55
541.46	56472.45
541.62	56353.08
541.79	56397.55
541.96	56406.91
542.13	56643.30
542.30	56713.52
542.47	56676.07
542.63	56680.75
542.80	56715.86
542.97	57111.41
543.14	57219.08
543.31	57198.01
543.48	57265.89
543.64	57350.15
543.81	57214.40
543.98	57146.52
544.15	57193.33
544.32	57528.03
544.48	57427.38
544.65	57088.01
544.82	57338.44
544.99	57392.28
545.16	57591.22
545.32	57301.00
545.49	57535.05
545.66	57785.49
545.83	57654.42
546.00	57762.08
546.16	57733.99
546.33	57579.52
546.50	57626.33
546.67	57689.52
546.83	57588.88
547.00	57820.59
547.17	57483.56
547.34	57769.10
547.50	57829.96
547.67	57982.09
547.84	58096.78
548.00	57972.73
548.17	58068.69
548.34	57867.40
548.51	58075.71
548.67	57879.11
548.84	58059.33
549.01	57935.28
549.18	58042.95
549.34	58019.54
549.51	58190.40
549.68	58218.49
549.84	58504.03
550.01	58286.36
550.18	58166.99
550.34	58326.15
550.51	58426.79
550.68	58265.30
550.84	58220.83
551.01	58553.18
551.18	58396.37
551.34	58550.84
551.51	58330.83
551.68	58546.16
551.84	58555.52
552.01	58499.35
552.18	58522.76
552.34	58464.24
552.51	58686.59
552.68	58415.09
552.84	58447.86
553.01	58862.13
553.18	58607.01
553.34	59035.33
553.51	58805.96
553.67	58885.54
553.84	58782.55
554.01	58841.07
554.17	59025.97
554.34	59135.98
554.51	58904.26
554.67	58925.33
554.84	58930.01
555.00	58880.86
555.17	58880.86
555.33	59121.93
555.50	58859.79
555.67	58948.73
555.83	58990.86
556.00	59061.08
556.16	59442.59
556.33	59238.96
556.50	59114.91
556.66	59355.99
556.83	59173.42
556.99	59374.71
557.16	59576.00
557.32	59524.50
557.49	59664.94
557.65	59297.47
557.82	59451.95
557.98	59295.13
558.15	59355.99
558.32	59491.74
558.48	59473.01
558.65	59222.58
558.81	59405.14
558.98	59435.56
559.14	59554.93
559.31	59578.34
559.47	59578.34
559.64	59557.27
559.80	59615.79
559.97	59767.92
560.13	59477.69
560.30	59791.33
560.46	59852.18
560.63	59735.15
560.79	59615.79
560.96	59793.67
561.12	59594.72
561.29	59765.58
561.45	59728.13
561.61	59753.88
561.78	59758.56
561.94	59735.15
562.11	59660.26
562.27	59891.97
562.44	59994.95
562.60	60093.25
562.77	59964.52
562.93	59915.37
563.10	59898.99
563.26	59718.77
563.42	60055.81
563.59	59971.55
563.75	59891.97
563.92	59880.27
564.08	59840.48
564.24	60058.15
564.41	60079.21
564.57	60179.85
564.74	60116.66
564.90	60184.54
565.07	60142.41
565.23	60020.70
565.39	60341.35
565.56	60111.98
565.72	60058.15
565.88	60097.94
566.05	60004.31
566.21	60278.16
566.38	60130.70
566.54	60247.73
566.70	60224.32
566.87	60264.11
567.03	59812.39
567.19	60521.57
567.36	60081.55
567.52	60189.22
567.68	60605.83
567.85	60500.51
568.01	60238.37
568.17	60280.50
568.34	60474.76
568.50	60142.41
568.66	60289.86
568.83	60346.03
568.99	60395.18
569.15	60254.75
569.32	60339.01
569.48	60294.54
569.64	60371.78
569.81	60589.45
569.97	60207.94
570.13	60317.95
570.30	60221.98
570.46	60353.05
570.62	60559.02
570.78	60453.70
570.95	60292.20
571.11	60556.68
571.27	60395.18
571.43	60755.63
571.60	60500.51
571.76	60542.64
571.92	60631.58
572.09	60505.19
572.25	60577.75
572.41	60388.16
572.57	60479.44
572.74	60732.22
572.90	60299.22
573.06	60493.49
573.22	60596.47
573.38	60671.37
573.55	60596.47
573.71	60767.33
573.87	60671.37
574.03	60423.27
574.20	60622.22
574.36	60612.85
574.52	60633.92
574.68	60629.24
574.84	60750.94
575.01	60874.99
575.17	60608.17
575.33	60516.89
575.49	60601.15
575.65	60636.26
575.82	60685.41
575.98	60750.94
576.14	60882.02
576.30	60673.71
576.46	60568.38
576.62	60680.73
576.79	60533.28
576.95	60434.97
577.11	60781.37
577.27	60917.12
577.43	60786.05
577.59	60814.14
577.75	60774.35
577.92	60610.51
578.08	60676.05
578.24	60748.60
578.40	60945.21
578.56	60748.60
578.72	60718.18
578.88	60867.97
579.04	60886.70
579.21	60659.66
579.37	61036.49
579.53	60935.85
579.69	60783.71
579.85	60554.34
580.01	60874.99
580.17	60678.39
580.33	60921.80
580.49	60900.74
580.65	60734.56
580.82	60767.33
580.98	60736.90
581.14	60718.18
581.30	61001.38
581.46	60582.43
581.62	60853.93
581.78	60692.43
581.94	60853.93
582.10	60786.05
582.26	60692.43
582.42	60722.86
582.58	60678.39
582.74	60947.55
582.90	60959.25
583.06	60942.87
583.22	60673.71
583.38	61020.11
583.54	60891.38
583.70	61052.87
583.86	60898.40
584.02	60837.54
584.18	61013.08
584.34	61045.85
584.50	60678.39
584.66	60811.80
584.82	60722.86
584.98	61010.74
585.14	61263.52
585.30	60889.04
585.46	61064.58
585.62	60891.38
585.78	61017.77
585.94	60647.96
586.10	61034.15
586.26	60898.40
586.42	60977.98
586.58	61057.56
586.74	60954.57
586.90	61087.98
587.06	60912.44
587.22	61148.84
587.38	60968.61
587.54	61010.74
587.70	61052.87
587.86	60977.98
588.02	61076.28
588.18	61008.40
588.34	60832.86
588.49	61057.56
