SpectraSuite Data File
++++++++++++++++++++++++++++++++++++
Date: Fri Oct 25 11:25:31 EDT 2013
User: price-jones
Dark Spectrum Present: No
Reference Spectrum Present: No
Number of Sampled Component Spectra: 1
Spectrometers: USB2+H05261
Integration Time (usec): 100000 (USB2+H05261)
Spectra Averaged: 1 (USB2+H05261)
Boxcar Smoothing: 0 (USB2+H05261)
Correct for Electrical Dark: No (USB2+H05261)
Strobe/Lamp Enabled: No (USB2+H05261)
Correct for Detector Non-linearity: No (USB2+H05261)
Correct for Stray Light: No (USB2+H05261)
Number of Pixels in Processed Spectrum: 2048
>>>>>Begin Processed Spectral Data<<<<<
365.73	264.48
365.92	264.48
366.12	264.48
366.32	198.95
366.52	177.88
366.72	196.60
366.91	170.86
367.11	79.58
367.31	114.69
367.51	140.43
367.70	168.52
367.90	121.71
368.10	177.88
368.30	184.90
368.49	131.07
368.69	224.69
368.89	159.16
369.09	131.07
369.28	163.84
369.48	220.01
369.68	138.09
369.87	201.29
370.07	212.99
370.27	313.63
370.47	327.68
370.66	543.00
370.86	578.11
371.06	697.48
371.25	596.84
371.45	660.03
371.65	739.61
371.84	655.35
372.04	704.50
372.24	751.31
372.44	678.76
372.63	669.39
372.83	627.26
373.03	753.65
373.22	786.42
373.42	727.91
373.62	800.46
373.81	823.87
374.01	800.46
374.21	753.65
374.40	760.67
374.60	877.70
374.79	753.65
374.99	739.61
375.19	842.59
375.38	849.61
375.58	849.61
375.78	837.91
375.97	849.61
376.17	924.51
376.37	915.15
376.56	922.17
376.76	847.27
376.95	910.47
377.15	912.81
377.35	919.83
377.54	880.04
377.74	898.77
377.93	912.81
378.13	961.96
378.33	966.64
378.52	840.25
378.72	910.47
378.91	861.32
379.11	945.58
379.31	933.87
379.50	936.21
379.70	959.62
379.89	1029.84
380.09	978.34
380.28	936.21
380.48	999.41
380.68	910.47
380.87	997.07
381.07	983.02
381.26	1011.11
381.46	1018.13
381.65	1062.60
381.85	992.39
382.04	1114.10
382.24	1039.20
382.43	1020.47
382.63	940.90
382.83	1046.22
383.02	1086.01
383.22	1102.39
383.41	1069.62
383.61	1128.14
383.80	1071.97
384.00	1109.41
384.19	1109.41
384.39	1196.01
384.58	1137.50
384.78	1149.20
384.97	1128.14
385.17	1076.65
385.36	1191.33
385.56	1273.25
385.75	1214.74
385.95	1179.63
386.14	1231.12
386.34	1233.46
386.53	1263.89
386.72	1198.35
386.92	1205.38
387.11	1238.14
387.31	1282.61
387.50	1315.38
387.70	1188.99
387.89	1174.95
388.09	1277.93
388.28	1233.46
388.48	1231.12
388.67	1371.55
388.86	1270.91
389.06	1210.06
389.25	1317.72
389.45	1308.36
389.64	1334.11
389.84	1369.21
390.03	1392.62
390.22	1390.28
390.42	1467.52
390.61	1378.58
390.81	1444.11
391.00	1439.43
391.19	1383.26
391.39	1404.32
391.58	1458.15
391.78	1476.88
391.97	1448.79
392.16	1469.86
392.36	1537.73
392.55	1483.90
392.75	1549.43
392.94	1460.49
393.13	1472.20
393.33	1439.43
393.52	1523.69
393.71	1486.24
393.91	1577.52
394.10	1528.37
394.29	1657.10
394.49	1544.75
394.68	1565.82
394.88	1596.25
395.07	1678.16
395.26	1708.59
395.46	1724.97
395.65	1659.44
395.84	1694.55
396.04	1769.44
396.23	1701.57
396.42	1762.42
396.62	1825.62
396.81	1748.38
397.00	1746.04
397.19	1577.52
397.39	1762.42
397.58	1806.89
397.77	1839.66
397.97	1809.23
398.16	1839.66
398.35	1844.34
398.55	1902.86
398.74	1926.26
398.93	1982.43
399.12	1987.11
399.32	1881.79
399.51	1980.09
399.70	2001.16
399.90	1942.64
400.09	2015.20
400.28	2015.20
400.47	2069.03
400.67	2045.63
400.86	2031.58
401.05	2099.46
401.24	2052.65
401.44	2094.78
401.63	2003.50
401.82	2120.53
402.01	2076.06
402.21	2059.67
402.40	2272.66
402.59	2157.97
402.78	2265.64
402.97	2270.32
403.17	2270.32
403.36	2146.27
403.55	2132.23
403.74	2293.72
403.93	2394.37
404.13	2373.30
404.32	2457.56
404.51	2312.45
404.70	2497.35
404.89	2436.50
405.09	2579.27
405.28	2377.98
405.47	2466.92
405.66	2471.61
405.85	2562.89
406.05	2544.16
406.24	2567.57
406.43	2525.44
406.62	2612.04
406.81	2654.17
407.00	2534.80
407.20	2586.29
407.39	2576.93
407.58	2715.02
407.77	2705.66
407.96	2600.34
408.15	2700.98
408.34	2754.81
408.54	2909.29
408.73	2928.01
408.92	2698.64
409.11	2820.35
409.30	2878.86
409.49	2848.43
409.68	2871.84
409.87	2960.78
410.07	2995.89
410.26	2958.44
410.45	3016.95
410.64	3075.46
410.83	2923.33
411.02	3068.44
411.21	3197.17
411.40	3143.34
411.59	3222.92
411.78	3103.55
411.98	3251.00
412.17	3187.81
412.36	3220.58
412.55	3297.81
412.74	3419.52
412.93	3396.12
413.12	3468.67
413.31	3447.61
413.50	3447.61
413.69	3410.16
413.88	3513.14
414.07	3506.12
414.26	3534.21
414.45	3606.77
414.64	3660.60
414.83	3714.43
415.02	3744.86
415.22	3803.37
415.41	3784.65
415.60	3840.82
415.79	3871.25
415.98	4007.00
416.17	3946.14
416.36	3852.52
416.55	3927.42
416.74	3904.01
416.93	3983.59
417.12	4009.34
417.31	4131.05
417.50	4219.99
417.69	4170.83
417.88	4131.05
418.07	4168.49
418.26	4243.39
418.45	4219.99
418.64	4578.09
418.83	4650.64
419.02	4369.78
419.21	4400.21
419.39	4627.24
419.58	4421.27
419.77	4423.61
419.96	4503.19
420.15	4423.61
420.34	4503.19
420.53	4496.17
420.72	4652.98
420.91	4592.13
421.10	4716.18
421.29	4798.10
421.48	4650.64
421.67	4774.69
421.86	4718.52
422.05	4685.75
422.24	4739.58
422.43	4784.06
422.61	4847.25
422.80	4826.18
422.99	4842.57
423.18	4868.31
423.37	4999.38
423.56	4713.84
423.75	5004.07
423.94	4877.68
424.13	4578.09
424.32	4762.99
424.50	4954.91
424.69	5118.75
424.88	4994.70
425.07	4985.34
425.26	5013.43
425.45	4990.02
425.64	5018.11
425.83	5015.77
426.01	4968.96
426.20	5057.90
426.39	5160.88
426.58	4905.76
426.77	5069.60
426.96	5076.62
427.15	5228.76
427.33	5076.62
427.52	5188.97
427.71	5343.44
427.90	5191.31
428.09	5203.01
428.28	5355.15
428.46	5256.84
428.65	5282.59
428.84	5535.37
429.03	5570.48
429.22	5313.02
429.40	5497.92
429.59	5523.66
429.78	5362.17
429.97	5210.03
430.16	5413.66
430.34	5551.75
430.53	5518.98
430.72	5701.54
430.91	5671.12
431.10	5535.37
431.28	5619.63
431.47	5713.25
431.66	5902.83
431.85	5806.87
432.03	5841.98
432.22	5881.77
432.41	5839.64
432.60	5973.05
432.79	6050.28
432.97	5966.03
433.16	5994.11
433.35	6061.99
433.54	6047.94
433.72	6181.35
433.91	5942.62
434.10	6031.56
434.28	5970.71
434.47	6092.41
434.66	6132.20
434.85	6235.19
435.03	6328.81
435.22	6335.83
435.41	6406.05
435.59	6413.07
435.78	6534.78
435.97	6532.44
436.16	6251.57
436.34	6249.23
436.53	6565.20
436.72	6654.14
436.90	6520.73
437.09	6616.69
437.28	6443.49
437.46	6640.10
437.65	6609.67
437.84	6836.70
438.02	6693.93
438.21	6747.76
438.40	6614.35
438.58	6827.34
438.77	6960.75
438.96	6883.52
439.14	7026.29
439.33	7197.15
439.52	7157.36
439.70	6956.07
439.89	7332.90
440.08	7250.98
440.26	7148.00
440.45	7157.36
440.63	7321.20
440.82	7424.18
441.01	7494.40
441.19	7618.44
441.38	7730.79
441.57	7473.33
441.75	7791.64
441.94	7894.63
442.12	7964.84
442.31	7885.26
442.50	7960.16
442.68	7892.29
442.87	7999.95
443.05	7880.58
443.24	8226.98
443.43	8154.43
443.61	8091.23
443.80	8287.84
443.98	7995.27
444.17	7875.90
444.35	8018.68
444.54	8269.11
444.73	8484.44
444.91	8219.96
445.10	8362.73
445.28	8304.22
445.47	8084.21
445.65	8423.59
445.84	8386.14
446.02	8395.50
446.21	8493.80
446.39	8231.66
446.58	8346.35
446.77	8407.20
446.95	8243.37
447.14	8461.04
447.32	8564.02
447.51	8470.40
447.69	8418.91
447.88	8535.93
448.06	8575.72
448.25	8489.12
448.43	8503.17
448.62	8397.84
448.80	8393.16
448.99	8524.23
449.17	8652.96
449.36	8613.17
449.54	8835.52
449.73	8816.80
449.91	8788.71
450.10	8769.99
450.28	8954.89
450.46	8945.53
450.65	9158.52
450.83	9069.58
451.02	9221.71
451.20	9015.74
451.39	9210.01
451.57	8891.70
451.76	8973.61
451.94	9085.96
452.13	9394.91
452.31	9179.58
452.49	9172.56
452.68	9268.52
452.86	9207.67
453.05	9249.80
453.23	9327.03
453.42	9125.75
453.60	9252.14
453.78	9556.41
453.97	9221.71
454.15	9282.56
454.34	9453.42
454.52	9575.13
454.70	9317.67
454.89	9633.64
455.07	9624.28
455.26	9891.10
455.44	9790.46
455.62	9809.19
455.81	9898.13
455.99	9956.64
456.17	9907.49
456.36	9863.02
456.54	9923.87
456.73	10146.22
456.91	10384.96
457.09	10202.40
457.28	10532.41
457.46	10448.15
457.64	10518.37
457.83	10471.56
458.01	10401.34
458.19	10581.56
458.38	10401.34
458.56	10686.89
458.74	10600.29
458.93	10630.71
459.11	10635.39
459.29	10813.28
459.48	10860.09
459.66	10834.34
459.84	10796.89
460.03	11033.29
460.21	10942.00
460.39	10923.28
460.57	10909.24
460.76	11122.23
460.94	11091.80
461.12	10953.71
461.31	11197.12
461.49	11019.24
461.67	11133.93
461.85	11562.25
462.04	11239.25
462.22	11562.25
462.40	11335.21
462.59	11470.97
462.77	11187.76
462.95	11468.62
463.13	11485.01
463.32	11531.82
463.50	11604.38
463.68	11777.58
463.86	11740.13
464.05	11499.05
464.23	11653.53
464.41	11943.75
464.59	11641.82
464.78	11859.49
464.96	12032.69
465.14	11784.60
465.32	12184.83
465.50	12105.25
465.69	12051.42
465.87	12243.34
466.05	12072.48
466.23	12095.89
466.41	11920.35
466.60	12301.86
466.78	12046.74
466.96	12278.45
467.14	12093.55
467.32	12287.81
467.51	12496.12
467.69	12070.14
467.87	12313.56
468.05	12643.57
468.23	12290.15
468.41	12484.42
468.60	12446.97
468.78	12821.45
468.96	12484.42
469.14	12840.18
469.32	12788.69
469.50	12449.31
469.69	12655.28
469.87	12823.80
470.05	12753.58
470.23	13043.81
470.41	13090.62
470.59	12905.71
470.77	13170.19
470.95	13158.49
471.14	13392.55
471.32	13139.77
471.50	13453.40
471.68	13376.16
471.86	13479.15
472.04	13504.89
472.22	14141.52
472.40	13851.29
472.58	13699.16
472.77	13881.72
472.95	13729.58
473.13	14356.85
473.31	14043.21
473.49	14052.58
473.67	14260.88
473.85	14328.76
474.03	14740.69
474.21	14354.51
474.39	14588.56
474.57	14696.22
474.75	14953.68
474.93	15154.97
475.12	14813.25
475.30	14970.07
475.48	14876.44
475.66	15208.80
475.84	15220.50
476.02	15283.70
476.20	15241.57
476.38	15782.23
476.56	15964.79
476.74	15899.26
476.92	15866.49
477.10	15754.15
477.28	16016.29
477.46	16308.85
477.64	16390.77
477.82	16582.70
478.00	16917.39
478.18	16865.90
478.36	16706.74
478.54	17078.89
478.72	17039.10
478.90	17422.95
479.08	17455.72
479.26	17502.53
479.44	17603.17
479.62	17769.35
479.80	18008.08
479.98	17937.87
480.16	18546.40
480.34	18036.17
480.52	18389.59
480.70	18448.10
480.88	18272.56
481.06	18658.75
481.24	18586.19
481.41	18925.57
481.59	19367.93
481.77	19726.04
481.95	19440.49
482.13	19728.38
482.31	19417.08
482.49	20217.55
482.67	19941.36
482.85	20327.55
483.03	20409.47
483.21	20381.38
483.39	20807.36
483.57	20844.81
483.74	21120.99
483.92	21200.57
484.10	21118.65
484.28	21755.28
484.46	22029.12
484.64	22148.49
484.82	21486.12
485.00	22195.30
485.18	22532.34
485.35	22637.66
485.53	22487.87
485.71	22621.28
485.89	23145.56
486.07	23028.53
486.25	23269.61
486.43	23852.40
486.61	23501.32
486.78	23974.11
486.96	24313.48
487.14	24456.26
487.32	24219.86
487.50	24540.52
487.68	25104.59
487.85	25118.63
488.03	25041.39
488.21	25692.06
488.39	25570.35
488.57	26047.82
488.75	25996.33
488.92	26281.88
489.10	26609.55
489.28	26396.56
489.46	26946.59
489.64	26609.55
489.81	27632.36
489.99	27424.06
490.17	27405.33
490.35	28306.44
490.53	28236.22
490.70	28271.33
490.88	28013.87
491.06	28484.32
491.24	29125.63
491.41	28723.05
491.59	28985.19
491.77	28910.30
491.95	29446.28
492.13	29647.57
492.30	29783.32
492.48	29949.50
492.66	29848.85
492.84	29689.70
493.01	30696.13
493.19	30586.12
493.37	30878.69
493.54	31281.26
493.72	31126.78
493.90	31023.80
494.08	31592.55
494.25	31676.81
494.43	31835.97
494.61	32254.92
494.79	32393.01
494.96	32545.15
495.14	32533.45
495.32	32758.14
495.49	33034.32
495.67	33144.33
495.85	33324.55
496.02	33593.71
496.20	33617.11
496.38	33654.56
496.55	33570.30
496.73	34480.77
496.91	34525.24
497.09	34700.78
497.26	34792.06
497.44	34471.41
497.62	35005.05
497.79	35295.28
497.97	35473.16
498.14	35571.46
498.32	35924.88
498.50	36053.61
498.67	36044.25
498.85	36098.08
499.03	36306.39
499.20	36339.16
499.38	36524.06
499.56	36598.96
499.73	36512.36
499.91	36931.31
500.08	37179.41
500.26	37296.44
500.44	37450.91
500.61	37521.13
500.79	37181.75
500.97	38302.87
501.14	38127.33
501.32	38106.26
501.49	37832.42
501.67	38361.38
501.84	38630.54
502.02	38492.45
502.20	38628.20
502.37	38609.48
502.55	38974.60
502.72	39194.61
502.90	39344.41
503.07	39255.46
503.25	39868.69
503.43	39166.52
503.60	39569.10
503.78	39793.79
503.95	40072.31
504.13	40306.37
504.30	40397.65
504.48	39721.23
504.65	40259.55
504.83	40570.85
505.01	41090.44
505.18	41179.39
505.36	41698.98
505.53	41439.18
505.71	41359.61
505.88	41785.58
506.06	41230.88
506.23	41457.91
506.41	41181.73
506.58	41638.13
506.76	41818.35
506.93	42174.11
507.11	42321.57
507.28	42600.09
507.46	42312.20
507.63	42843.51
507.81	42815.42
507.98	42349.65
508.16	43133.73
508.33	43105.65
508.50	43725.89
508.68	43650.99
508.85	43473.11
509.03	43466.09
509.20	43763.34
509.38	43885.04
509.55	44332.09
509.73	44355.49
509.90	44435.07
510.08	44580.18
510.25	44552.10
510.42	44315.70
510.60	44718.28
510.77	45092.76
510.95	45390.01
511.12	44900.84
511.30	44842.32
511.47	45443.84
511.64	45027.23
511.82	45815.99
511.99	45291.71
512.17	46155.36
512.34	45633.42
512.51	45968.12
512.69	45940.04
512.86	46209.20
513.04	46621.13
513.21	46288.77
513.38	46485.38
513.56	46635.17
513.73	46511.13
513.90	46864.55
514.08	46590.70
514.25	46953.49
514.43	47023.70
514.60	47543.30
514.77	46838.80
514.95	47290.52
515.12	47463.72
515.29	47566.71
515.47	47524.58
515.64	47852.25
515.81	47440.32
515.99	48018.43
516.16	48264.19
516.33	48023.11
516.51	48172.91
516.68	48196.31
516.85	48327.38
517.03	48825.92
517.20	48374.19
517.37	48800.17
517.54	48392.92
517.72	48587.18
517.89	49024.86
518.06	48949.96
518.24	49092.74
518.41	49102.10
518.58	49069.33
518.75	48837.62
518.93	49104.44
519.10	49179.34
519.27	49247.21
519.45	49696.59
519.62	49841.71
519.79	49916.61
519.96	49656.81
520.14	49841.71
520.31	49619.36
520.48	50363.65
520.65	49989.16
520.83	50499.40
521.00	50576.64
521.17	50356.63
521.34	50267.69
521.52	50614.08
521.69	50885.59
521.86	50679.62
522.03	50822.39
522.20	50850.48
522.38	51011.98
522.55	51180.49
522.72	51264.75
522.89	51147.73
523.07	51372.42
523.24	51395.82
523.41	51519.87
523.58	51154.75
523.75	51784.35
523.92	51709.46
524.10	52074.58
524.27	51503.49
524.44	51767.97
524.61	51753.93
524.78	52133.09
524.96	51739.88
525.13	51997.34
525.30	52257.14
525.47	52280.55
525.64	52032.45
525.81	52484.17
525.98	52151.82
526.16	52411.62
526.33	52488.85
526.50	53092.71
526.67	52835.25
526.84	52596.52
527.01	52910.15
527.18	52868.02
527.36	52783.76
527.53	52985.05
527.70	53209.74
527.87	53357.19
528.04	53282.30
528.21	53155.91
528.38	53399.32
528.55	53387.62
528.72	52980.37
528.89	53464.86
529.07	53151.23
529.24	53041.22
529.41	53542.10
529.58	53801.89
529.75	53647.42
529.92	53598.27
530.09	53677.85
530.26	53804.24
530.43	53806.58
530.60	53607.63
530.77	53642.74
530.94	53907.22
531.11	53727.00
531.28	54012.54
531.46	54035.95
531.63	54035.95
531.80	54035.95
531.97	54110.85
532.14	54520.44
532.31	53996.16
532.48	54560.23
532.65	54382.35
532.82	54471.29
532.99	54525.12
533.16	54508.74
533.33	54836.41
533.50	54820.03
533.67	54585.97
533.84	54419.80
534.01	54789.60
534.18	54937.05
534.35	55318.56
534.52	54756.83
534.69	55143.02
534.86	55220.26
535.03	54852.80
535.20	55084.51
535.37	55306.86
535.54	55220.26
535.71	55107.91
535.88	55327.92
536.05	55433.25
536.22	55444.95
536.38	55255.37
536.55	55386.44
536.72	55498.78
536.89	55199.19
537.06	55395.80
537.23	55725.81
537.40	55494.10
537.57	55540.91
537.74	55667.30
537.91	55716.45
538.08	55702.41
538.25	55524.53
538.42	55688.37
538.59	55997.32
538.75	55545.59
538.92	55817.10
539.09	55969.23
539.26	55854.54
539.43	55906.04
539.60	56081.58
539.77	56065.19
539.94	56158.81
540.11	56420.95
540.28	56175.20
540.44	56142.43
540.61	56306.27
540.78	56212.65
540.95	56257.12
541.12	56357.76
541.29	56292.22
541.46	56629.26
541.62	56360.10
541.79	56444.36
541.96	56488.83
542.13	56540.32
542.30	56594.15
542.47	56615.22
542.63	56697.14
542.80	56788.42
542.97	57010.77
543.14	57034.17
543.31	57160.56
543.48	57237.80
543.64	57247.16
543.81	57226.10
543.98	57233.12
544.15	57214.40
544.32	57336.10
544.48	57488.24
544.65	57258.87
544.82	57471.85
544.99	57120.77
545.16	57291.63
545.32	57186.31
545.49	57539.73
545.66	57392.28
545.83	57694.21
546.00	57621.65
546.16	57640.37
546.33	57275.25
546.50	57195.67
546.67	57422.70
546.83	57350.15
547.00	57771.44
547.17	57488.24
547.34	57628.67
547.50	57733.99
547.67	58068.69
547.84	58127.20
548.00	58000.82
548.17	58035.92
548.34	57900.17
548.51	58010.18
548.67	58017.20
548.84	58164.65
549.01	57790.17
549.18	58089.76
549.34	58003.16
549.51	58202.10
549.68	58356.58
549.84	58185.72
550.01	58267.64
550.18	57972.73
550.34	58326.15
550.51	58553.18
550.68	58422.11
550.84	58040.60
551.01	58361.26
551.18	58377.64
551.34	58541.48
551.51	58410.41
551.68	58438.50
551.84	58454.88
552.01	58309.77
552.18	58508.71
552.34	58415.09
552.51	58457.22
552.68	58361.26
552.84	58599.99
553.01	58698.30
553.18	58602.33
553.34	58876.18
553.51	58618.72
553.67	58635.10
553.84	58719.36
554.01	59004.91
554.17	58733.40
554.34	58911.28
554.51	58775.53
554.67	58939.37
554.84	59037.67
555.00	58951.07
555.17	58850.43
555.33	59068.10
555.50	58717.02
555.67	58801.28
555.83	58864.47
556.00	59199.17
556.16	59196.83
556.33	59032.99
556.50	59077.46
556.66	59332.58
556.83	58944.05
556.99	59260.02
557.16	59430.88
557.32	59407.48
557.49	59554.93
557.65	59023.63
557.82	59419.18
557.98	59208.53
558.15	59444.93
558.32	59257.68
558.48	59323.22
558.65	59423.86
558.81	59428.54
558.98	59430.88
559.14	59473.01
559.31	59510.46
559.47	59571.32
559.64	59568.97
559.80	59461.31
559.97	59540.89
560.13	59391.09
560.30	59632.17
560.46	59625.15
560.63	59423.86
560.79	59901.33
560.96	59676.64
561.12	59693.02
561.29	59632.17
561.45	59552.59
561.61	59704.73
561.78	59559.61
561.94	59819.41
562.11	59880.27
562.27	59648.55
562.44	59695.36
562.60	60088.57
562.77	59796.01
562.93	59533.87
563.10	60055.81
563.26	59716.43
563.42	60053.47
563.59	59791.33
563.75	59814.73
563.92	59992.61
564.08	59709.41
564.24	60121.34
564.41	60079.21
564.57	59987.93
564.74	59964.52
564.90	60020.70
565.07	59969.21
565.23	59924.74
565.39	59955.16
565.56	60226.66
565.72	59898.99
565.88	60119.00
566.05	59943.46
566.21	59896.65
566.38	60095.60
566.54	60058.15
566.70	60308.58
566.87	60254.75
567.03	59992.61
567.19	60196.24
567.36	60287.52
567.52	60299.22
567.68	60376.46
567.85	60404.55
568.01	60364.76
568.17	60027.72
568.34	60273.48
568.50	60191.56
568.66	59880.27
568.83	60280.50
568.99	60378.80
569.15	60278.16
569.32	60268.79
569.48	60329.65
569.64	60221.98
569.81	60203.26
569.97	60107.30
570.13	60296.88
570.30	60214.96
570.46	60378.80
570.62	60432.63
570.78	60413.91
570.95	60236.03
571.11	60444.33
571.27	60406.89
571.43	60507.53
571.60	60608.17
571.76	60371.78
571.92	60486.46
572.09	60388.16
572.25	60409.23
572.41	60353.05
572.57	60493.49
572.74	60575.40
572.90	60507.53
573.06	60528.59
573.22	60266.45
573.38	60458.38
573.55	60568.38
573.71	60790.73
573.87	60535.62
574.03	60542.64
574.20	60680.73
574.36	60411.57
574.52	60577.75
574.68	60666.69
574.84	60734.56
575.01	60460.72
575.17	60645.62
575.33	60427.95
575.49	60449.02
575.65	60631.58
575.82	60750.94
575.98	60477.10
576.14	60727.54
576.30	60544.98
576.46	60495.83
576.62	60575.40
576.79	60500.51
576.95	60467.74
577.11	60652.64
577.27	60846.91
577.43	60800.10
577.59	60666.69
577.75	60622.22
577.92	60624.56
578.08	60825.84
578.24	60741.58
578.40	60900.74
578.56	60734.56
578.72	60659.66
578.88	60931.17
579.04	61043.51
579.21	60671.37
579.37	60706.47
579.53	60947.55
579.69	60477.10
579.85	60608.17
580.01	60638.60
580.17	60559.02
580.33	60821.16
580.49	60697.11
580.65	60884.36
580.82	60650.30
580.98	60842.23
581.14	60676.05
581.30	60762.65
581.46	60704.13
581.62	60544.98
581.78	60598.81
581.94	60896.06
582.10	60605.83
582.26	60807.12
582.42	60884.36
582.58	60647.96
582.74	60741.58
582.90	60867.97
583.06	60790.73
583.22	60687.75
583.38	60779.03
583.54	60786.05
583.70	60804.78
583.86	60956.91
584.02	60767.33
584.18	61003.72
584.34	60718.18
584.50	60872.65
584.66	60722.86
584.82	60666.69
584.98	61062.24
585.14	60851.59
585.30	60725.20
585.46	61059.90
585.62	60933.51
585.78	61003.72
585.94	60896.06
586.10	60786.05
586.26	61085.64
586.42	60900.74
586.58	60989.68
586.74	60945.21
586.90	60753.29
587.06	60807.12
587.22	60966.27
587.38	60996.70
587.54	61174.58
587.70	61183.94
587.86	60931.17
588.02	60844.57
588.18	60872.65
588.34	61038.83
588.49	61041.17
