SpectraSuite Data File
++++++++++++++++++++++++++++++++++++
Date: Fri Oct 25 11:23:28 EDT 2013
User: price-jones
Dark Spectrum Present: No
Reference Spectrum Present: No
Number of Sampled Component Spectra: 1
Spectrometers: USB2+H05261
Integration Time (usec): 100000 (USB2+H05261)
Spectra Averaged: 1 (USB2+H05261)
Boxcar Smoothing: 0 (USB2+H05261)
Correct for Electrical Dark: No (USB2+H05261)
Strobe/Lamp Enabled: No (USB2+H05261)
Correct for Detector Non-linearity: No (USB2+H05261)
Correct for Stray Light: No (USB2+H05261)
Number of Pixels in Processed Spectrum: 2048
>>>>>Begin Processed Spectral Data<<<<<
365.73	187.24
365.92	187.24
366.12	187.24
366.32	163.84
366.52	138.09
366.72	121.71
366.91	121.71
367.11	203.63
367.31	98.30
367.51	105.32
367.70	93.62
367.90	170.86
368.10	114.69
368.30	149.79
368.49	114.69
368.69	166.18
368.89	156.82
369.09	98.30
369.28	184.90
369.48	135.75
369.68	255.12
369.87	156.82
370.07	138.09
370.27	175.54
370.47	280.86
370.66	585.13
370.86	617.90
371.06	489.17
371.25	730.25
371.45	601.52
371.65	711.52
371.84	709.18
372.04	667.05
372.24	725.57
372.44	678.76
372.63	805.14
372.83	763.01
373.03	725.57
373.22	779.40
373.42	739.61
373.62	770.04
373.81	849.61
374.01	840.25
374.21	840.25
374.40	786.42
374.60	788.76
374.79	777.06
374.99	835.57
375.19	828.55
375.38	858.98
375.58	851.96
375.78	877.70
375.97	844.93
376.17	884.72
376.37	795.78
376.56	856.64
376.76	842.59
376.95	905.79
377.15	866.00
377.35	889.40
377.54	847.27
377.74	880.04
377.93	903.45
378.13	826.21
378.33	971.32
378.52	919.83
378.72	1006.43
378.91	940.90
379.11	933.87
379.31	924.51
379.50	1046.22
379.70	943.24
379.89	961.96
380.09	1015.79
380.28	983.02
380.48	1018.13
380.68	1008.77
380.87	844.93
381.07	1057.92
381.26	1111.75
381.46	1004.09
381.65	976.00
381.85	1025.15
382.04	1008.77
382.24	1053.24
382.43	1011.11
382.63	1064.94
382.83	1060.26
383.02	1111.75
383.22	1074.31
383.41	1067.28
383.61	1095.37
383.80	1205.38
384.00	1102.39
384.19	1090.69
384.39	1188.99
384.58	1107.07
384.78	1149.20
384.97	1151.54
385.17	1086.01
385.36	1074.31
385.56	1156.22
385.75	1149.20
385.95	1179.63
386.14	1217.08
386.34	1214.74
386.53	1210.06
386.72	1193.67
386.92	1219.42
387.11	1317.72
387.31	1266.23
387.50	1235.80
387.70	1177.29
387.89	1282.61
388.09	1210.06
388.28	1289.64
388.48	1181.97
388.67	1378.58
388.86	1315.38
389.06	1266.23
389.25	1313.04
389.45	1268.57
389.64	1329.42
389.84	1406.66
390.03	1444.11
390.22	1411.34
390.42	1315.38
390.61	1394.96
390.81	1343.47
391.00	1490.92
391.19	1444.11
391.39	1406.66
391.58	1404.32
391.78	1385.60
391.97	1516.67
392.16	1474.54
392.36	1572.84
392.55	1439.43
392.75	1472.20
392.94	1528.37
393.13	1542.41
393.33	1495.60
393.52	1544.75
393.71	1521.35
393.91	1647.74
394.10	1570.50
394.29	1671.14
394.49	1554.12
394.68	1659.44
394.88	1568.16
395.07	1626.67
395.26	1636.03
395.46	1652.42
395.65	1734.34
395.84	1816.26
396.04	1813.92
396.23	1706.25
396.42	1694.55
396.62	1823.28
396.81	1867.75
397.00	1783.49
397.19	1825.62
397.39	1778.81
397.58	1863.07
397.77	1870.09
397.97	1827.96
398.16	1870.09
398.35	1842.00
398.55	1865.41
398.74	1944.99
398.93	1940.30
399.12	1954.35
399.32	1975.41
399.51	1923.92
399.70	2026.90
399.90	1947.33
400.09	2019.88
400.28	2054.99
400.47	2047.97
400.67	2015.20
400.86	2064.35
401.05	2078.40
401.24	2106.48
401.44	2179.04
401.63	2211.81
401.82	2181.38
402.01	2183.72
402.21	2129.89
402.40	2167.34
402.59	2092.44
402.78	2174.36
402.97	2244.57
403.17	2244.57
403.36	2193.08
403.55	2284.36
403.74	2326.49
403.93	2207.13
404.13	2279.68
404.32	2457.56
404.51	2455.22
404.70	2490.33
404.89	2251.60
405.09	2436.50
405.28	2399.05
405.47	2520.76
405.66	2387.35
405.85	2480.97
406.05	2511.39
406.24	2572.25
406.43	2626.08
406.62	2614.38
406.81	2686.94
407.00	2504.37
407.20	2600.34
407.39	2684.59
407.58	2789.92
407.77	2803.96
407.96	2738.43
408.15	2822.69
408.34	2670.55
408.54	2717.36
408.73	2808.64
408.92	2768.85
409.11	2869.50
409.30	2942.05
409.49	2862.48
409.68	2913.97
409.87	3005.25
410.07	3089.51
410.26	3023.97
410.45	3014.61
410.64	2925.67
410.83	3110.57
411.02	3012.27
411.21	3101.21
411.40	3194.83
411.59	3262.71
411.78	3241.64
411.98	3274.41
412.17	3335.26
412.36	3241.64
412.55	3407.82
412.74	3501.44
412.93	3461.65
413.12	3379.73
413.31	3478.04
413.50	3461.65
413.69	3513.14
413.88	3492.08
414.07	3613.79
414.26	3585.70
414.45	3742.52
414.64	3585.70
414.83	3770.60
415.02	3728.47
415.22	3850.18
415.41	3857.20
415.60	3908.69
415.79	3936.78
415.98	3817.41
416.17	3936.78
416.36	3777.62
416.55	3864.22
416.74	4119.34
416.93	4140.41
417.12	4173.18
417.31	4252.75
417.50	4245.73
417.69	4262.12
417.88	4276.16
418.07	4163.81
418.26	4276.16
418.45	4318.29
418.64	4262.12
418.83	4397.87
419.02	4505.53
419.21	4416.59
419.39	4482.13
419.58	4606.17
419.77	4418.93
419.96	4713.84
420.15	4573.41
420.34	4594.47
420.53	4578.09
420.72	4674.05
420.91	4669.37
421.10	4664.69
421.29	4772.35
421.48	4678.73
421.67	4802.78
421.86	4667.03
422.05	4781.71
422.24	4774.69
422.43	4816.82
422.61	4840.23
422.80	4973.64
422.99	4966.62
423.18	5015.77
423.37	5020.45
423.56	5032.15
423.75	4830.87
423.94	5011.09
424.13	4528.94
424.32	4669.37
424.50	5137.48
424.69	5107.05
424.88	5025.13
425.07	4898.74
425.26	4994.70
425.45	5074.28
425.64	5076.62
425.83	5027.47
426.01	5095.35
426.20	5006.41
426.39	5050.88
426.58	5132.79
426.77	5135.14
426.96	5259.18
427.15	4990.02
427.33	5289.61
427.52	5186.63
427.71	5174.92
427.90	5163.22
428.09	5451.11
428.28	5289.61
428.46	5406.64
428.65	5387.91
428.84	5540.05
429.03	5596.22
429.22	5406.64
429.40	5397.28
429.59	5504.94
429.78	5444.09
429.97	5163.22
430.16	5607.92
430.34	5647.71
430.53	5680.48
430.72	5530.69
430.91	5692.18
431.10	5706.23
431.28	5799.85
431.47	5799.85
431.66	5830.27
431.85	5778.78
432.03	5921.56
432.22	6040.92
432.41	5907.51
432.60	5893.47
432.79	6024.54
432.97	5982.41
433.16	6001.13
433.35	5921.56
433.54	6033.90
433.72	6005.81
433.91	6099.44
434.10	6160.29
434.28	6139.23
434.47	6375.62
434.66	6200.08
434.85	6188.38
435.03	6347.53
435.22	6384.98
435.41	6558.18
435.59	6597.97
435.78	6581.59
435.97	6457.54
436.16	6506.69
436.34	6602.65
436.53	6417.75
436.72	6635.42
436.90	6588.61
437.09	6670.53
437.28	6518.39
437.46	6600.31
437.65	6782.87
437.84	6806.28
438.02	6890.54
438.21	6817.98
438.40	6799.26
438.58	6946.71
438.77	7089.48
438.96	6871.81
439.14	7281.41
439.33	7180.76
439.52	7122.25
439.70	7239.28
439.89	7176.08
440.08	7316.51
440.26	7496.74
440.45	7290.77
440.63	7508.44
440.82	7510.78
441.01	7438.22
441.19	7857.18
441.38	7744.83
441.57	7885.26
441.75	7885.26
441.94	8046.76
442.12	7892.29
442.31	8086.55
442.50	8046.76
442.68	8084.21
442.87	8074.85
443.05	8013.99
443.24	8215.28
443.43	8184.85
443.61	8320.60
443.80	8454.02
443.98	8248.05
444.17	8023.36
444.35	8056.12
444.54	8341.67
444.73	8425.93
444.91	8238.69
445.10	8472.74
445.28	8250.39
445.47	8269.11
445.65	8372.10
445.84	8273.79
446.02	8482.10
446.21	8395.50
446.39	8369.76
446.58	8587.43
446.77	8758.28
446.95	8454.02
447.14	8500.83
447.32	8641.26
447.51	8540.61
447.69	8657.64
447.88	8528.91
448.06	8589.77
448.25	8547.64
448.43	8510.19
448.62	8610.83
448.80	8531.25
448.99	8645.94
449.17	8716.16
449.36	8634.24
449.54	8877.65
449.73	9076.60
449.91	9090.64
450.10	8990.00
450.28	9095.32
450.46	8870.63
450.65	9118.73
450.83	9081.28
451.02	9116.39
451.20	9268.52
451.39	9057.87
451.57	9198.31
451.76	9011.06
451.94	9334.06
452.13	9149.15
452.31	9324.69
452.49	9158.52
452.68	9441.72
452.86	9268.52
453.05	9259.16
453.23	9540.02
453.42	9408.95
453.60	9472.15
453.78	9509.60
453.97	9633.64
454.15	9530.66
454.34	9420.66
454.52	9579.81
454.70	9689.82
454.89	9881.74
455.07	9682.80
455.26	9872.38
455.44	9942.60
455.62	10064.30
455.81	9783.44
455.99	10087.71
456.17	10036.22
456.36	10153.24
456.54	10242.18
456.73	10263.25
456.91	10415.38
457.09	10516.03
457.28	10586.24
457.46	10310.06
457.64	10637.73
457.83	10420.06
458.01	10537.09
458.19	10729.02
458.38	10436.45
458.56	10719.65
458.74	10593.26
458.93	10600.29
459.11	10808.59
459.29	10927.96
459.48	11021.58
459.66	10719.65
459.84	10892.85
460.03	11073.07
460.21	11145.63
460.39	11136.27
460.57	10892.85
460.76	11253.30
460.94	11358.62
461.12	11199.46
461.31	11197.12
461.49	11293.08
461.67	11382.03
461.85	11662.89
462.04	11169.04
462.22	11831.41
462.40	11585.65
462.59	11548.20
462.77	11501.39
462.95	11585.65
463.13	11625.44
463.32	11735.45
463.50	11648.85
463.68	11709.70
463.86	11925.03
464.05	11541.18
464.23	11871.20
464.41	11850.13
464.59	11777.58
464.78	12074.82
464.96	12039.72
465.14	11749.49
465.32	11983.54
465.50	12372.07
465.69	12189.51
465.87	12128.66
466.05	12409.52
466.23	12098.23
466.41	12336.96
466.60	12545.27
466.78	12114.61
466.96	12266.75
467.14	12269.09
467.32	12568.68
467.51	12629.53
467.69	12177.81
467.87	12425.90
468.05	12592.08
468.23	12507.82
468.41	12353.35
468.60	12734.85
468.78	12681.02
468.96	12776.98
469.14	12924.44
469.32	12901.03
469.50	12669.32
469.69	13053.17
469.87	12973.59
470.05	13114.02
470.23	13064.87
470.41	13104.66
470.59	13287.22
470.77	12971.25
470.95	13369.14
471.14	13458.08
471.32	13177.22
471.50	13671.07
471.68	13689.79
471.86	13806.82
472.04	13708.52
472.22	13963.64
472.40	13729.58
472.58	13858.31
472.77	13923.85
472.95	14057.26
473.13	14583.88
473.31	14174.28
473.49	14228.12
473.67	14200.03
473.85	14406.00
474.03	14736.01
474.21	14689.20
474.39	14672.82
474.57	14593.24
474.75	14794.53
474.93	14808.57
475.12	14773.46
475.30	15161.99
475.48	14932.62
475.66	15346.89
475.84	15283.70
476.02	15740.10
476.20	15555.20
476.38	15501.37
476.56	16109.91
476.74	16018.63
476.92	15981.18
477.10	15473.28
477.28	16388.43
477.46	16250.34
477.64	16233.96
477.82	16716.11
478.00	16968.88
478.18	16702.06
478.36	16945.48
478.54	17172.51
478.72	17427.63
478.90	17418.27
479.08	17635.94
479.26	17654.66
479.44	17706.15
479.62	18136.81
479.80	18347.46
479.98	18043.19
480.16	18633.00
480.34	18593.22
480.52	18890.46
480.70	18700.88
480.88	18422.36
481.06	18621.30
481.24	18808.54
481.41	19023.87
481.59	19463.90
481.77	19833.70
481.95	19726.04
482.13	19852.42
482.31	19723.69
482.49	20393.09
482.67	20163.72
482.85	20542.88
483.03	20688.00
483.21	20760.55
483.39	21273.13
483.57	20957.16
483.74	21165.46
483.92	21422.92
484.10	21390.16
484.28	21661.66
484.46	21963.59
484.64	22415.31
484.82	22155.51
485.00	22480.85
485.18	22974.70
485.35	22932.57
485.53	22628.30
485.71	23190.03
485.89	23749.42
486.07	23484.94
486.25	23517.70
486.43	23941.34
486.61	23843.04
486.78	24163.69
486.96	24170.71
487.14	24556.90
487.32	24568.60
487.50	24903.30
487.68	25139.69
487.85	25348.00
488.03	25722.49
488.21	26141.44
488.39	25713.13
488.57	26206.98
488.75	26368.48
488.92	26497.20
489.10	27002.76
489.28	26675.09
489.46	26878.71
489.64	27218.09
489.81	27964.72
489.99	27950.68
490.17	28079.41
490.35	28266.65
490.53	28147.28
490.70	28381.34
490.88	28339.21
491.06	29134.99
491.24	28720.71
491.41	28868.17
491.59	29394.79
491.77	29362.02
491.95	29893.32
492.13	29769.27
492.30	30373.13
492.48	29907.37
492.66	30513.56
492.84	30202.27
493.01	30665.70
493.19	30555.69
493.37	30810.81
493.54	30780.39
493.72	31112.74
493.90	31501.27
494.08	31859.37
494.25	32086.40
494.43	32095.77
494.61	32224.50
494.79	32268.97
494.96	32613.02
495.14	32573.24
495.32	33369.02
495.49	33193.48
495.67	33413.49
495.85	33640.52
496.02	33420.51
496.20	34330.98
496.38	34206.93
496.55	34127.35
496.73	35063.57
496.91	34707.80
497.09	34660.99
497.26	35140.80
497.44	34979.31
497.62	35498.91
497.79	35878.07
497.97	35487.20
498.14	35899.14
498.32	36070.00
498.50	36470.23
498.67	36465.55
498.85	36549.81
499.03	36741.73
499.20	36964.08
499.38	37074.09
499.56	37102.17
499.73	37230.90
499.91	37471.98
500.08	38174.14
500.26	37376.01
500.44	37844.12
500.61	37846.46
500.79	37589.00
500.97	38244.35
501.14	38522.88
501.32	38815.44
501.49	38529.90
501.67	38740.55
501.84	39014.39
502.02	38953.54
502.20	39175.89
502.37	39580.80
502.55	39735.27
502.72	39239.08
502.90	39447.39
503.07	39915.50
503.25	39590.16
503.43	39571.44
503.60	40311.05
503.78	40509.99
503.95	40219.77
504.13	40687.87
504.30	40341.47
504.48	40254.87
504.65	41141.94
504.83	41256.62
505.01	41254.28
505.18	41675.58
505.36	41696.64
505.53	41649.83
505.71	41804.31
505.88	41883.89
506.06	41486.00
506.23	41883.89
506.41	41813.67
506.58	42300.50
506.76	42370.72
506.93	42721.80
507.11	42557.96
507.28	42983.94
507.46	42981.60
507.63	43576.09
507.81	43428.64
507.98	42946.49
508.16	42997.98
508.33	43697.80
508.50	43629.93
508.68	43847.60
508.85	43945.90
509.03	43913.13
509.20	44086.33
509.38	44357.83
509.55	44706.57
509.73	44538.05
509.90	44481.88
510.08	44612.95
510.25	44512.31
510.42	44952.33
510.60	45123.19
510.77	45120.85
510.95	45631.08
511.12	45535.12
511.30	45202.77
511.47	45492.99
511.64	45764.49
511.82	45954.08
511.99	45500.01
512.17	46335.59
512.34	45813.65
512.51	46845.82
512.69	46712.41
512.86	46476.02
513.04	46658.58
513.21	46473.68
513.38	46536.87
513.56	46630.49
513.73	46810.71
513.90	47440.32
514.08	47587.77
514.25	47430.96
514.43	47430.96
514.60	47459.04
514.77	47217.97
514.95	47662.67
515.12	47611.18
515.29	47613.52
515.47	47980.98
515.64	48069.92
515.81	48240.78
515.99	48229.08
516.16	48325.04
516.33	48701.87
516.51	48568.46
516.68	48500.58
516.85	48531.01
517.03	49095.08
517.20	49146.57
517.37	49315.09
517.54	48968.69
517.72	49301.04
517.89	49169.97
518.06	48973.37
518.24	49013.16
518.41	49050.61
518.58	49792.56
518.75	49457.86
518.93	49741.06
519.10	49478.92
519.27	49855.75
519.45	50085.12
519.62	50134.28
519.79	50195.13
519.96	50167.04
520.14	50279.39
520.31	49841.71
520.48	50508.76
520.65	50485.36
520.83	50866.86
521.00	50972.19
521.17	50806.01
521.34	50602.38
521.52	50773.24
521.69	50677.28
521.86	51150.07
522.03	51028.36
522.20	51662.64
522.38	51592.43
522.55	51473.06
522.72	51524.55
522.89	51346.67
523.07	51777.33
523.24	51456.68
523.41	51657.96
523.58	51592.43
523.75	52058.20
523.92	51892.02
524.10	52011.38
524.27	51990.32
524.44	52486.51
524.61	52353.10
524.78	52374.17
524.96	52275.87
525.13	52577.79
525.30	52720.57
525.47	52678.44
525.64	52650.35
525.81	52563.75
525.98	53022.50
526.16	52547.37
526.33	52917.17
526.50	53230.80
526.67	52868.02
526.84	53043.56
527.01	53162.93
527.18	53109.10
527.36	53055.26
527.53	53057.60
527.70	53502.31
527.87	53572.52
528.04	53158.25
528.21	53279.96
528.38	53427.41
528.55	53539.75
528.72	53034.20
528.89	53298.68
529.07	53659.12
529.24	53567.84
529.41	53689.55
529.58	53783.17
529.75	53762.11
529.92	54103.82
530.09	54127.23
530.26	53937.65
530.43	53900.20
530.60	54028.93
530.77	54160.00
530.94	54162.34
531.11	54220.85
531.28	54291.07
531.46	54295.75
531.63	54258.30
531.80	54412.77
531.97	54354.26
532.14	54583.63
532.31	54583.63
532.48	54695.98
532.65	54714.70
532.82	54375.33
532.99	54960.46
533.16	54735.77
533.33	55229.62
533.50	55086.85
533.67	55033.02
533.84	54850.45
534.01	55000.25
534.18	55070.46
534.35	55295.16
534.52	55199.19
534.69	55473.04
534.86	55363.03
535.03	55262.39
535.20	55271.75
535.37	55433.25
535.54	55203.88
535.71	55353.67
535.88	55650.92
536.05	55487.08
536.22	55697.73
536.38	55686.03
536.55	55749.22
536.72	55636.87
536.89	55632.19
537.06	55554.96
537.23	55964.55
537.40	55344.31
537.57	55716.45
537.74	55927.10
537.91	55990.30
538.08	56034.77
538.25	55929.44
538.42	55922.42
538.59	56189.24
538.75	56016.04
538.92	56018.38
539.09	56161.15
539.26	56240.73
539.43	56229.03
539.60	56425.64
539.77	56292.22
539.94	56587.13
540.11	56554.36
540.28	56673.73
540.44	56397.55
540.61	56680.75
540.78	56430.32
540.95	56638.62
541.12	56217.33
541.29	56559.05
541.46	56647.99
541.62	56793.10
541.79	56926.51
541.96	56554.36
542.13	56910.13
542.30	56563.73
542.47	57024.81
542.63	56999.07
542.80	57017.79
542.97	57085.67
543.14	57237.80
543.31	57095.03
543.48	57162.90
543.64	57551.43
543.81	57223.76
543.98	57457.81
544.15	57546.75
544.32	57607.61
544.48	57642.71
544.65	57317.38
544.82	57361.85
544.99	57471.85
545.16	57691.86
545.32	57425.04
545.49	57946.98
545.66	57813.57
545.83	58033.58
546.00	57736.34
546.16	57668.46
546.33	57600.58
546.50	57670.80
546.67	57989.11
546.83	57366.53
547.00	57708.25
547.17	57792.51
547.34	57869.75
547.50	57846.34
547.67	57965.71
547.84	58024.22
548.00	58096.78
548.17	58274.66
548.34	58075.71
548.51	58473.60
548.67	58258.27
548.84	58127.20
549.01	57930.60
549.18	58342.53
549.34	58293.38
549.51	58272.32
549.68	58225.51
549.84	58447.86
550.01	58628.08
550.18	58614.04
550.34	58482.97
550.51	58351.90
550.68	58501.69
550.84	58319.13
551.01	58822.34
551.18	58501.69
551.34	58642.12
551.51	58745.11
551.68	58607.01
551.84	58543.82
552.01	58508.71
552.18	58740.42
552.34	58555.52
552.51	58592.97
552.68	58681.91
552.84	58724.04
553.01	59082.14
553.18	58951.07
553.34	58890.22
553.51	58937.03
553.67	58873.84
553.84	59068.10
554.01	59049.38
554.17	58986.18
554.34	59309.18
554.51	59189.81
554.67	59150.02
554.84	58995.54
555.00	58976.82
555.17	59037.67
555.33	59058.74
555.50	59100.87
555.67	59103.21
555.83	59032.99
556.00	59171.08
556.16	59470.67
556.33	59238.96
556.50	59285.77
556.66	59402.80
556.83	59262.36
556.99	59604.08
557.16	59484.72
557.32	59433.22
557.49	59576.00
557.65	59458.97
557.82	59601.74
557.98	59437.90
558.15	59433.22
558.32	59545.57
558.48	59395.77
558.65	59407.48
558.81	59494.08
558.98	59683.66
559.14	59765.58
559.31	59709.41
559.47	59662.60
559.64	59910.69
559.80	59833.46
559.97	59873.24
560.13	59662.60
560.30	60023.04
560.46	59788.98
560.63	60072.19
560.79	59856.86
560.96	59913.03
561.12	60016.02
561.29	59678.98
561.45	59985.59
561.61	59952.82
561.78	59664.94
561.94	59765.58
562.11	59896.65
562.27	60048.78
562.44	60030.06
562.60	60041.76
562.77	60095.60
562.93	59821.75
563.10	60116.66
563.26	59873.24
563.42	60179.85
563.59	60055.81
563.75	60055.81
563.92	60189.22
564.08	60046.44
564.24	60207.94
564.41	60086.23
564.57	60336.67
564.74	60177.51
564.90	60221.98
565.07	60142.41
565.23	60259.43
565.39	60329.65
565.56	60219.64
565.72	60170.49
565.88	60559.02
566.05	60189.22
566.21	60266.45
566.38	60392.84
566.54	60617.53
566.70	60191.56
566.87	60392.84
567.03	60294.54
567.19	60320.29
567.36	60420.93
567.52	60317.95
567.68	60467.74
567.85	60507.53
568.01	60350.71
568.17	60254.75
568.34	60411.57
568.50	60437.31
568.66	60254.75
568.83	60413.91
568.99	60439.65
569.15	60275.82
569.32	60467.74
569.48	60615.19
569.64	60362.42
569.81	60692.43
569.97	60259.43
570.13	60680.73
570.30	60346.03
570.46	60697.11
570.62	60526.25
570.78	60552.00
570.95	60802.44
571.11	60626.90
571.27	60743.92
571.43	60704.13
571.60	60680.73
571.76	60715.84
571.92	60608.17
572.09	60645.62
572.25	60757.97
572.41	60657.32
572.57	60685.41
572.74	60741.58
572.90	60542.64
573.06	60678.39
573.22	60814.14
573.38	60727.54
573.55	60736.90
573.71	60879.67
573.87	60729.88
574.03	60772.01
574.20	60879.67
574.36	60706.47
574.52	60734.56
574.68	60683.07
574.84	60736.90
575.01	60994.36
575.17	60800.10
575.33	60650.30
575.49	60772.01
575.65	60713.50
575.82	60921.80
575.98	60935.85
576.14	60963.93
576.30	60828.18
576.46	60830.52
576.62	60912.44
576.79	60882.02
576.95	60708.82
577.11	61020.11
577.27	60977.98
577.43	60977.98
577.59	60963.93
577.75	60872.65
577.92	60828.18
578.08	60884.36
578.24	60874.99
578.40	60999.04
578.56	60970.96
578.72	60832.86
578.88	61141.81
579.04	60973.30
579.21	60874.99
579.37	61230.75
579.53	61083.30
579.69	60882.02
579.85	60748.60
580.01	60989.68
580.17	60828.18
580.33	60933.51
580.49	60968.61
580.65	61022.45
580.82	60954.57
580.98	60697.11
581.14	60905.42
581.30	61209.69
581.46	60867.97
581.62	60959.25
581.78	60987.34
581.94	60898.40
582.10	60917.12
582.26	61041.17
582.42	60959.25
582.58	60853.93
582.74	60903.08
582.90	61087.98
583.06	60814.14
583.22	60889.04
583.38	61193.31
583.54	60945.21
583.70	60870.31
583.86	61099.68
584.02	60977.98
584.18	60985.00
584.34	61120.75
584.50	61059.90
584.66	60928.83
584.82	61083.30
584.98	61087.98
585.14	61197.99
585.30	60996.70
585.46	61169.90
585.62	61167.56
585.78	61027.13
585.94	60872.65
586.10	61092.66
586.26	60999.04
586.42	61118.41
586.58	61310.33
586.74	61120.75
586.90	61031.81
587.06	61146.50
587.22	61188.63
587.38	61034.15
587.54	61109.05
587.70	61106.71
587.86	61111.39
588.02	61106.71
588.18	61230.75
588.34	61116.07
