SpectraSuite Data File
++++++++++++++++++++++++++++++++++++
Date: Fri Oct 25 11:25:05 EDT 2013
User: price-jones
Dark Spectrum Present: No
Reference Spectrum Present: No
Number of Sampled Component Spectra: 1
Spectrometers: USB2+H05261
Integration Time (usec): 100000 (USB2+H05261)
Spectra Averaged: 1 (USB2+H05261)
Boxcar Smoothing: 0 (USB2+H05261)
Correct for Electrical Dark: No (USB2+H05261)
Strobe/Lamp Enabled: No (USB2+H05261)
Correct for Detector Non-linearity: No (USB2+H05261)
Correct for Stray Light: No (USB2+H05261)
Number of Pixels in Processed Spectrum: 2048
>>>>>Begin Processed Spectral Data<<<<<
365.73	227.03
365.92	227.03
366.12	227.03
366.32	161.50
366.52	161.50
366.72	133.41
366.91	88.94
367.11	112.35
367.31	170.86
367.51	182.56
367.70	140.43
367.90	91.28
368.10	117.03
368.30	140.43
368.49	138.09
368.69	126.39
368.89	189.58
369.09	152.13
369.28	121.71
369.48	114.69
369.68	191.92
369.87	252.78
370.07	245.76
370.27	264.48
370.47	308.95
370.66	580.45
370.86	568.75
371.06	606.20
371.25	667.05
371.45	631.94
371.65	692.80
371.84	695.14
372.04	779.40
372.24	678.76
372.44	718.54
372.63	685.78
372.83	753.65
373.03	704.50
373.22	767.70
373.42	730.25
373.62	781.74
373.81	828.55
374.01	774.72
374.21	830.89
374.40	702.16
374.60	828.55
374.79	711.52
374.99	814.51
375.19	830.89
375.38	840.25
375.58	802.80
375.78	880.04
375.97	833.23
376.17	833.23
376.37	856.64
376.56	926.85
376.76	889.40
376.95	868.34
377.15	952.60
377.35	856.64
377.54	926.85
377.74	882.38
377.93	793.44
378.13	898.77
378.33	959.62
378.52	896.43
378.72	985.37
378.91	943.24
379.11	952.60
379.31	961.96
379.50	919.83
379.70	1046.22
379.89	940.90
380.09	980.68
380.28	980.68
380.48	1041.54
380.68	1001.75
380.87	973.66
381.07	954.94
381.26	1060.26
381.46	952.60
381.65	1083.67
381.85	1004.09
382.04	1078.99
382.24	1008.77
382.43	964.30
382.63	1128.14
382.83	1046.22
383.02	1064.94
383.22	1107.07
383.41	1029.84
383.61	1046.22
383.80	1062.60
384.00	980.68
384.19	1130.48
384.39	1174.95
384.58	1135.16
384.78	1170.27
384.97	1275.59
385.17	1125.80
385.36	1160.91
385.56	1107.07
385.75	1053.24
385.95	1111.75
386.14	1196.01
386.34	1214.74
386.53	1186.65
386.72	1167.93
386.92	1217.08
387.11	1242.82
387.31	1224.10
387.50	1153.88
387.70	1235.80
387.89	1266.23
388.09	1205.38
388.28	1303.68
388.48	1233.46
388.67	1413.68
388.86	1378.58
389.06	1259.21
389.25	1303.68
389.45	1369.21
389.64	1268.57
389.84	1313.04
390.03	1350.49
390.22	1392.62
390.42	1406.66
390.61	1273.25
390.81	1371.55
391.00	1392.62
391.19	1409.00
391.39	1446.45
391.58	1432.41
391.78	1409.00
391.97	1540.07
392.16	1453.47
392.36	1549.43
392.55	1406.66
392.75	1577.52
392.94	1519.01
393.13	1586.88
393.33	1469.86
393.52	1526.03
393.71	1500.28
393.91	1572.84
394.10	1540.07
394.29	1558.80
394.49	1636.03
394.68	1596.25
394.88	1528.37
395.07	1720.29
395.26	1661.78
395.46	1689.87
395.65	1722.63
395.84	1650.08
396.04	1820.94
396.23	1750.72
396.42	1703.91
396.62	1788.17
396.81	1748.38
397.00	1706.25
397.19	1720.29
397.39	1720.29
397.58	1792.85
397.77	1907.54
397.97	1755.40
398.16	1781.15
398.35	1870.09
398.55	1832.64
398.74	1799.87
398.93	1944.99
399.12	1886.47
399.32	1877.11
399.51	1959.03
399.70	1980.09
399.90	1823.28
400.09	1980.09
400.28	2054.99
400.47	2043.29
400.67	2059.67
400.86	2090.10
401.05	2134.57
401.24	2054.99
401.44	2085.42
401.63	2127.55
401.82	2052.65
402.01	2090.10
402.21	2223.51
402.40	2113.50
402.59	2183.72
402.78	2174.36
402.97	2230.53
403.17	2305.43
403.36	2223.51
403.55	2305.43
403.74	2342.88
403.93	2349.90
404.13	2396.71
404.32	2441.18
404.51	2296.07
404.70	2312.45
404.89	2347.56
405.09	2356.92
405.28	2401.39
405.47	2495.01
405.66	2401.39
405.85	2422.45
406.05	2541.82
406.24	2523.10
406.43	2574.59
406.62	2546.50
406.81	2708.00
407.00	2609.70
407.20	2565.23
407.39	2661.19
407.58	2708.00
407.77	2729.06
407.96	2710.34
408.15	2679.91
408.34	2825.03
408.54	2799.28
408.73	2789.92
408.92	2778.22
409.11	2911.63
409.30	2949.08
409.49	3000.57
409.68	2848.43
409.87	2871.84
410.07	3056.74
410.26	3000.57
410.45	2995.89
410.64	2956.10
410.83	3005.25
411.02	3063.76
411.21	3274.41
411.40	2993.55
411.59	3229.94
411.78	3122.27
411.98	3173.77
412.17	3368.03
412.36	3241.64
412.55	3265.05
412.74	3393.78
412.93	3400.80
413.12	3246.32
413.31	3515.48
413.50	3410.16
413.69	3351.65
413.88	3496.76
414.07	3417.18
414.26	3597.40
414.45	3564.64
414.64	3695.71
414.83	3662.94
415.02	3864.22
415.22	3691.02
415.41	3810.39
415.60	3840.82
415.79	3927.42
415.98	3866.56
416.17	3885.29
416.36	3913.38
416.55	3887.63
416.74	4156.79
416.93	3978.91
417.12	4187.22
417.31	4194.24
417.50	4114.66
417.69	4212.96
417.88	4093.60
418.07	4308.93
418.26	4264.46
418.45	4184.88
418.64	4458.72
418.83	4479.79
419.02	4393.19
419.21	4559.36
419.39	4486.81
419.58	4351.06
419.77	4542.98
419.96	4444.68
420.15	4578.09
420.34	4538.30
420.53	4664.69
420.72	4660.01
420.91	4575.75
421.10	4865.97
421.29	4650.64
421.48	4725.54
421.67	4767.67
421.86	4706.82
422.05	4784.06
422.24	4767.67
422.43	4807.46
422.61	4858.95
422.80	4966.62
422.99	4933.85
423.18	4994.70
423.37	4968.96
423.56	4819.16
423.75	4954.91
423.94	4856.61
424.13	4535.96
424.32	4744.27
424.50	4966.62
424.69	5172.58
424.88	4903.42
425.07	4910.44
425.26	4884.70
425.45	4922.15
425.64	4781.71
425.83	4830.87
426.01	5036.83
426.20	5107.05
426.39	5057.90
426.58	4975.98
426.77	5170.24
426.96	5043.85
427.15	5006.41
427.33	4983.00
427.52	5233.44
427.71	5259.18
427.90	5212.37
428.09	5266.21
428.28	5214.71
428.46	5273.23
428.65	5238.12
428.84	5469.83
429.03	5610.26
429.22	5238.12
429.40	5408.98
429.59	5401.96
429.78	5238.12
429.97	5371.53
430.16	5549.41
430.34	5540.05
430.53	5633.67
430.72	5654.73
430.91	5547.07
431.10	5493.24
431.28	5774.10
431.47	5788.14
431.66	5685.16
431.85	5692.18
432.03	5790.49
432.22	5994.11
432.41	5785.80
432.60	5827.93
432.79	5944.96
432.97	5944.96
433.16	5858.36
433.35	5863.04
433.54	5984.75
433.72	6064.33
433.91	5991.77
434.10	6146.25
434.28	5944.96
434.47	6228.17
434.66	6139.23
434.85	6090.07
435.03	6132.20
435.22	6216.46
435.41	6516.05
435.59	6436.47
435.78	6499.67
435.97	6434.13
436.16	6307.74
436.34	6464.56
436.53	6487.96
436.72	6649.46
436.90	6471.58
437.09	6476.26
437.28	6328.81
437.46	6572.22
437.65	6562.86
437.84	6597.97
438.02	6733.72
438.21	6532.44
438.40	6752.45
438.58	6956.07
438.77	6817.98
438.96	6820.32
439.14	6998.20
439.33	7094.16
439.52	7035.65
439.70	7171.40
439.89	7339.92
440.08	7332.90
440.26	7190.13
440.45	7431.20
440.63	7382.05
440.82	7487.37
441.01	7351.62
441.19	7452.27
441.38	7852.50
441.57	7534.18
441.75	7751.85
441.94	7836.11
442.12	7889.95
442.31	7992.93
442.50	7847.82
442.68	7936.76
442.87	8004.63
443.05	7967.18
443.24	8133.36
443.43	8067.83
443.61	8205.92
443.80	8421.25
443.98	8184.85
444.17	7913.35
444.35	8329.97
444.54	8135.70
444.73	8121.66
444.91	8245.71
445.10	8140.38
445.28	8184.85
445.47	8102.93
445.65	8100.59
445.84	8304.22
446.02	8407.20
446.21	8358.05
446.39	8234.00
446.58	8439.97
446.77	8444.65
446.95	7803.35
447.14	8493.80
447.32	8519.55
447.51	8257.41
447.69	8599.13
447.88	8540.61
448.06	8388.48
448.25	8400.18
448.43	8634.24
448.62	8599.13
448.80	8262.09
448.99	8610.83
449.17	8730.20
449.36	8648.28
449.54	8688.07
449.73	8992.34
449.91	8823.82
450.10	8851.91
450.28	8894.04
450.46	8922.12
450.65	8912.76
450.83	9102.34
451.02	8858.93
451.20	9055.53
451.39	9085.96
451.57	9139.79
451.76	9048.51
451.94	9163.20
452.13	9163.20
452.31	9266.18
452.49	9125.75
452.68	9310.65
452.86	9226.39
453.05	9507.26
453.23	9479.17
453.42	9301.29
453.60	9170.22
453.78	9549.39
453.97	9413.63
454.15	9497.89
454.34	9387.89
454.52	9582.15
454.70	9753.01
454.89	9762.37
455.07	9643.01
455.26	9792.80
455.44	9916.85
455.62	9834.93
455.81	9832.59
455.99	10111.11
456.17	10078.35
456.36	9874.72
456.54	10237.50
456.73	10246.87
456.91	10401.34
457.09	10214.10
457.28	10401.34
457.46	10174.31
457.64	10427.09
457.83	10462.19
458.01	10384.96
458.19	10562.84
458.38	10251.55
458.56	10544.11
458.74	10651.78
458.93	10480.92
459.11	10679.86
459.29	10693.91
459.48	10815.62
459.66	10717.31
459.84	10724.33
460.03	11002.86
460.21	10986.47
460.39	10761.78
460.57	10920.94
460.76	11236.91
460.94	10974.77
461.12	11098.82
461.31	11169.04
461.49	10944.34
461.67	11056.69
461.85	11164.36
462.04	11398.41
462.22	11522.46
462.40	11424.15
462.59	11417.13
462.77	11356.28
462.95	11754.17
463.13	11466.28
463.32	11527.14
463.50	11587.99
463.68	11793.96
463.86	11779.92
464.05	11569.27
464.23	11700.34
464.41	12020.99
464.59	11475.65
464.78	12222.28
464.96	12100.57
465.14	11580.97
465.32	11789.28
465.50	11948.43
465.69	12020.99
465.87	12194.19
466.05	11978.86
466.23	11997.59
466.41	12170.79
466.60	12386.12
466.78	11829.07
466.96	12201.21
467.14	12449.31
467.32	12233.98
467.51	12393.14
467.69	12030.35
467.87	12315.90
468.05	12575.70
468.23	12498.46
468.41	12205.89
468.60	12568.68
468.78	12830.82
468.96	12430.59
469.14	12503.14
469.32	12826.14
469.50	12636.55
469.69	12774.64
469.87	13004.02
470.05	13266.16
470.23	13095.30
470.41	13083.59
470.59	13114.02
470.77	13069.55
470.95	13224.03
471.14	13207.64
471.32	13291.90
471.50	13427.65
471.68	13507.23
471.86	13781.07
472.04	13647.66
472.22	13975.34
472.40	13437.02
472.58	13687.45
472.77	13954.27
472.95	14225.78
473.13	14342.80
473.31	14125.13
473.49	13841.93
473.67	13963.64
473.85	14193.01
474.03	14410.68
474.21	14450.47
474.39	14590.90
474.57	14544.09
474.75	14719.63
474.93	15087.09
475.12	14775.80
475.30	15084.75
475.48	14913.89
475.66	15176.03
475.84	15037.94
476.02	15286.04
476.20	15248.59
476.38	15428.81
476.56	15784.57
476.74	15765.85
476.92	15793.94
477.10	15775.21
477.28	16011.60
477.46	15793.94
477.64	16215.23
477.82	16231.62
478.00	16971.22
478.18	16631.85
478.36	16905.69
478.54	17003.99
478.72	17125.70
478.90	16868.24
479.08	17631.26
479.26	17827.86
479.44	17776.37
479.62	17724.88
479.80	17827.86
479.98	18012.76
480.16	18537.04
480.34	17975.31
480.52	18527.68
480.70	18305.33
480.88	18396.61
481.06	18586.19
481.24	18743.01
481.41	18927.91
481.59	19248.57
481.77	19648.80
481.95	19389.00
482.13	19353.89
482.31	19536.45
482.49	20297.13
482.67	20156.69
482.85	20320.53
483.03	20409.47
483.21	20524.16
483.39	20856.51
483.57	20877.58
483.74	20837.79
483.92	21537.61
484.10	20908.01
484.28	21357.39
484.46	21678.04
484.64	22361.48
484.82	21666.34
485.00	22263.18
485.18	22492.55
485.35	22916.19
485.53	22415.31
485.71	22658.73
485.89	23447.49
486.07	23466.21
486.25	23278.97
486.43	23403.02
486.61	23388.97
486.78	23929.64
486.96	24058.37
487.14	24308.80
487.32	24196.46
487.50	24748.82
487.68	24919.68
487.85	25156.08
488.03	25607.80
488.21	25355.02
488.39	25649.93
488.57	25680.36
488.75	25916.75
488.92	26562.74
489.10	26490.18
489.28	26628.27
489.46	27047.23
489.64	26656.36
489.81	27386.61
489.99	27676.83
490.17	27463.85
490.35	27887.48
490.53	28119.20
490.70	28077.07
490.88	27875.78
491.06	28659.86
491.24	28535.81
491.41	29006.26
491.59	29373.72
491.77	28898.59
491.95	29521.18
492.13	29596.07
492.30	30108.65
492.48	29535.22
492.66	30003.33
492.84	30162.48
493.01	30213.98
493.19	30492.50
493.37	30785.07
493.54	30749.96
493.72	31271.90
493.90	31648.72
494.08	31257.85
494.25	32165.98
494.43	31873.42
494.61	31950.65
494.79	32470.25
494.96	32327.48
495.14	32669.20
495.32	33050.70
495.49	32989.85
495.67	32783.88
495.85	33221.56
496.02	33635.84
496.20	33544.56
496.38	33748.18
496.55	34230.33
496.73	34583.76
496.91	34314.59
497.09	34483.11
497.26	34742.91
497.44	34534.60
497.62	34927.81
497.79	35335.07
497.97	34824.83
498.14	35887.43
498.32	36072.34
498.50	36016.16
498.67	36308.73
498.85	35990.42
499.03	36107.44
499.20	36133.19
499.38	36671.51
499.56	36954.72
499.73	36563.85
499.91	37097.49
500.08	36973.44
500.26	36849.39
500.44	37621.77
500.61	37376.01
500.79	37488.36
500.97	37677.94
501.14	38244.35
501.32	38361.38
501.49	38323.93
501.67	38211.59
501.84	38462.02
502.02	38520.54
502.20	38890.34
502.37	39136.10
502.55	38958.22
502.72	39316.32
502.90	39281.21
503.07	39061.20
503.25	39707.19
503.43	39871.03
503.60	40011.46
503.78	40109.76
503.95	39695.49
504.13	40020.82
504.30	40189.34
504.48	40236.15
504.65	40156.57
504.83	40828.30
505.01	40914.90
505.18	41148.96
505.36	41432.16
505.53	41155.98
505.71	41284.71
505.88	41584.30
506.06	40821.28
506.23	41572.60
506.41	41556.21
506.58	41727.07
506.76	41694.30
506.93	42218.58
507.11	42153.05
507.28	41935.38
507.46	42319.23
507.63	42689.03
507.81	42981.60
507.98	42433.91
508.16	42705.41
508.33	43152.46
508.50	43276.51
508.68	43847.60
508.85	43454.39
509.03	43330.34
509.20	43697.80
509.38	43929.51
509.55	43716.53
509.73	44186.97
509.90	44552.10
510.08	44109.74
510.25	44301.66
510.42	44591.89
510.60	44634.02
510.77	45092.76
510.95	45052.97
511.12	44816.58
511.30	44657.42
511.47	45310.43
511.64	44992.12
511.82	45846.41
511.99	45020.20
512.17	45865.14
512.34	45411.07
512.51	45986.85
512.69	46050.04
512.86	45993.87
513.04	46115.58
513.21	46546.23
513.38	46445.59
513.56	46564.96
513.73	46555.60
513.90	46932.42
514.08	46050.04
514.25	46731.14
514.43	47117.32
514.60	47351.38
514.77	47346.70
514.95	47161.79
515.12	47217.97
515.29	47206.26
515.47	47433.30
515.64	48051.20
515.81	47587.77
515.99	47896.72
516.16	48072.26
516.33	47899.06
516.51	48198.65
516.68	48589.52
516.85	47941.19
517.03	48615.27
517.20	48975.71
517.37	48287.59
517.54	48788.47
517.72	48741.66
517.89	48561.44
518.06	48982.73
518.24	48697.19
518.41	48945.28
518.58	48954.64
518.75	49305.73
518.93	49177.00
519.10	49202.74
519.27	49441.48
519.45	49263.60
519.62	50031.29
519.79	49724.68
519.96	49879.16
520.14	49624.04
520.31	49858.09
520.48	50298.11
520.65	50059.38
520.83	50351.94
521.00	50333.22
521.17	50454.93
521.34	50382.37
521.52	50681.96
521.69	49998.52
521.86	50644.51
522.03	50925.38
522.20	51096.24
522.38	51189.86
522.55	51150.07
522.72	51241.35
522.89	51206.24
523.07	51360.72
523.24	51180.49
523.41	51562.00
523.58	51325.61
523.75	51625.20
523.92	51672.01
524.10	51576.04
524.27	51828.82
524.44	51910.74
524.61	51828.82
524.78	52079.26
524.96	52088.62
525.13	51870.95
525.30	51976.28
525.47	52168.20
525.64	52154.16
525.81	52505.24
525.98	52596.52
526.16	52559.07
526.33	52388.21
526.50	52687.80
526.67	52935.90
526.84	52652.69
527.01	52734.61
527.18	52734.61
527.36	52753.33
527.53	52692.48
527.70	53282.30
527.87	53324.43
528.04	52802.49
528.21	53153.57
528.38	53179.31
528.55	53240.17
528.72	53174.63
528.89	53279.96
529.07	53155.91
529.24	53064.63
529.41	53682.53
529.58	53413.37
529.75	53616.99
529.92	53787.85
530.09	53481.24
530.26	53883.81
530.43	53881.47
530.60	53588.91
530.77	53418.05
530.94	53832.32
531.11	53659.12
531.28	53797.21
531.46	53979.78
531.63	54138.93
531.80	54152.97
531.97	54279.36
532.14	54206.81
532.31	54209.15
532.48	54307.45
532.65	54281.70
532.82	54323.83
532.99	54567.25
533.16	54305.11
533.33	54344.90
533.50	54789.60
533.67	54885.56
533.84	54487.67
534.01	54663.21
534.18	54368.30
534.35	54810.67
534.52	54684.28
534.69	54684.28
534.86	55004.93
535.03	54946.42
535.20	55164.09
535.37	55065.78
535.54	55386.44
535.71	55248.35
535.88	55136.00
536.05	55636.87
536.22	55395.80
536.38	55606.45
536.55	55201.53
536.72	55412.18
536.89	55318.56
537.06	55463.67
537.23	55398.14
537.40	55196.85
537.57	55632.19
537.74	55679.00
537.91	55667.30
538.08	55735.18
538.25	55522.19
538.42	55739.86
538.59	55884.97
538.75	55583.04
538.92	55934.12
539.09	55777.31
539.26	55856.88
539.43	55987.95
539.60	56016.04
539.77	55882.63
539.94	56460.74
540.11	56449.04
540.28	56123.71
540.44	56289.88
540.61	56357.76
540.78	56212.65
540.95	56207.97
541.12	56353.08
541.29	56214.99
541.46	56355.42
541.62	56280.52
541.79	56324.99
541.96	56126.05
542.13	56397.55
542.30	56526.28
542.47	56549.68
542.63	56645.65
542.80	56753.31
542.97	56774.37
543.14	56896.08
543.31	56982.68
543.48	56858.63
543.64	57485.90
543.81	57102.05
543.98	57090.35
544.15	57088.01
544.32	57190.99
544.48	57282.27
544.65	57223.76
544.82	57396.96
544.99	57090.35
545.16	57333.76
545.32	57483.56
545.49	57474.20
545.66	57656.76
545.83	57511.64
546.00	57652.08
546.16	57560.79
546.33	57401.64
546.50	57331.42
546.67	57532.71
546.83	57099.71
547.00	57481.22
547.17	57336.10
547.34	57701.23
547.50	57638.03
547.67	57764.42
547.84	57738.68
548.00	57780.81
548.17	58134.23
548.34	57745.70
548.51	58141.25
548.67	58192.74
548.84	57942.30
549.01	57970.39
549.18	57797.19
549.34	58052.31
549.51	58110.82
549.68	57958.69
549.84	58152.95
550.01	58253.59
550.18	57923.58
550.34	58326.15
550.51	58482.97
550.68	58129.54
550.84	58028.90
551.01	58356.58
551.18	58623.40
551.34	58262.96
551.51	58396.37
551.68	58312.11
551.84	58461.90
552.01	58450.20
552.18	58623.40
552.34	58482.97
552.51	58571.91
552.68	58358.92
552.84	58576.59
553.01	58782.55
553.18	58499.35
553.34	58695.95
553.51	58515.73
553.67	58705.32
553.84	58609.35
554.01	58592.97
554.17	58834.05
554.34	58873.84
554.51	58878.52
554.67	58859.79
554.84	58780.21
555.00	58960.44
555.17	58745.11
555.33	58752.13
555.50	58857.45
555.67	58695.95
555.83	58672.55
556.00	58784.90
556.16	59215.55
556.33	59171.08
556.50	59018.95
556.66	59203.85
556.83	58920.65
556.99	59213.21
557.16	59323.22
557.32	59355.99
557.49	59531.53
557.65	59194.49
557.82	59276.41
557.98	59065.76
558.15	59302.15
558.32	59227.26
558.48	59231.94
558.65	59234.28
558.81	59381.73
558.98	59264.70
559.14	59402.80
559.31	59442.59
559.47	59587.70
559.64	59421.52
559.80	59377.05
559.97	59653.23
560.13	59435.56
560.30	59367.69
560.46	59561.95
560.63	59379.39
560.79	59615.79
560.96	59732.81
561.12	59660.26
561.29	59688.34
561.45	59906.01
561.61	59718.77
561.78	59805.37
561.94	59550.25
562.11	59718.77
562.27	59662.60
562.44	59788.98
562.60	59891.97
562.77	59688.34
562.93	59772.60
563.10	60009.00
563.26	59828.77
563.42	59896.65
563.59	59835.80
563.75	59840.48
563.92	59798.35
564.08	59969.21
564.24	59983.25
564.41	59877.93
564.57	60147.09
564.74	59826.43
564.90	59971.55
565.07	59906.01
565.23	59971.55
565.39	60065.17
565.56	60151.77
565.72	60065.17
565.88	60170.49
566.05	59863.88
566.21	60060.49
566.38	59941.12
566.54	60163.47
566.70	60203.26
566.87	60231.35
567.03	59955.16
567.19	60261.77
567.36	60058.15
567.52	60144.75
567.68	60456.04
567.85	60177.51
568.01	60186.88
568.17	60203.26
568.34	60374.12
568.50	60114.32
568.66	60147.09
568.83	60252.41
568.99	59973.89
569.15	60097.94
569.32	60247.73
569.48	60156.45
569.64	60369.44
569.81	60191.56
569.97	60289.86
570.13	60381.14
570.30	59980.91
570.46	60331.99
570.62	60299.22
570.78	60505.19
570.95	60285.18
571.11	60477.10
571.27	60231.35
571.43	60514.55
571.60	60544.98
571.76	60350.71
571.92	60605.83
572.09	60404.55
572.25	60477.10
572.41	60348.37
572.57	60420.93
572.74	60523.91
572.90	60427.95
573.06	60544.98
573.22	60491.15
573.38	60301.56
573.55	60477.10
573.71	60676.05
573.87	60397.52
574.03	60559.02
574.20	60591.79
574.36	60289.86
574.52	60521.57
574.68	60612.85
574.84	60734.56
575.01	60444.33
575.17	60526.25
575.33	60449.02
575.49	60402.21
575.65	60748.60
575.82	60598.81
575.98	60753.29
576.14	60774.35
576.30	60629.24
576.46	60556.68
576.62	60528.59
576.79	60575.40
576.95	60612.85
577.11	60669.03
577.27	60474.76
577.43	60720.52
577.59	60535.62
577.75	60734.56
577.92	60486.46
578.08	60561.36
578.24	60853.93
578.40	60893.72
578.56	60708.82
578.72	60694.77
578.88	60795.42
579.04	60809.46
579.21	60748.60
579.37	60779.03
579.53	60619.88
579.69	60542.64
579.85	60594.13
580.01	60673.71
580.17	60776.69
580.33	60872.65
580.49	60940.53
580.65	60739.24
580.82	60837.54
580.98	60793.07
581.14	60743.92
581.30	60797.76
581.46	60692.43
581.62	60886.70
581.78	60720.52
581.94	60811.80
582.10	60676.05
582.26	60867.97
582.42	60640.94
582.58	60706.47
582.74	60734.56
582.90	60849.25
583.06	60828.18
583.22	60612.85
583.38	60683.07
583.54	60786.05
583.70	60755.63
583.86	60898.40
584.02	60783.71
584.18	60802.44
584.34	60896.06
584.50	60746.26
584.66	60718.18
584.82	60739.24
584.98	60924.14
585.14	60842.23
585.30	60856.27
585.46	60865.63
585.62	60912.44
585.78	61024.79
585.94	60559.02
586.10	60823.50
586.26	60973.30
586.42	60802.44
586.58	61066.92
586.74	60814.14
586.90	60900.74
587.06	60961.59
587.22	61078.62
587.38	60961.59
587.54	60940.53
587.70	61179.26
587.86	61003.72
588.02	60781.37
588.18	61055.21
588.34	60886.70
588.49	60924.14
