SpectraSuite Data File
++++++++++++++++++++++++++++++++++++
Date: Fri Oct 25 10:43:36 EDT 2013
User: price-jones
Dark Spectrum Present: No
Reference Spectrum Present: No
Number of Sampled Component Spectra: 1
Spectrometers: USB2+H05261
Integration Time (usec): 100000 (USB2+H05261)
Spectra Averaged: 1 (USB2+H05261)
Boxcar Smoothing: 0 (USB2+H05261)
Correct for Electrical Dark: No (USB2+H05261)
Strobe/Lamp Enabled: No (USB2+H05261)
Correct for Detector Non-linearity: No (USB2+H05261)
Correct for Stray Light: No (USB2+H05261)
Number of Pixels in Processed Spectrum: 2048
>>>>>Begin Processed Spectral Data<<<<<
365.73	212.99
365.92	212.99
366.12	212.99
366.32	119.37
366.52	25.75
366.72	18.72
366.91	25.75
367.11	11.70
367.31	0.00
367.51	70.22
367.70	51.49
367.90	14.04
368.10	21.06
368.30	58.51
368.49	0.00
368.69	65.54
368.89	77.24
369.09	2.34
369.28	72.56
369.48	88.94
369.68	60.85
369.87	56.17
370.07	58.51
370.27	79.58
370.47	166.18
370.66	365.12
370.86	418.96
371.06	489.17
371.25	510.24
371.45	477.47
371.65	477.47
371.84	482.15
372.04	496.19
372.24	538.32
372.44	461.09
372.63	575.77
372.83	472.79
373.03	489.17
373.22	564.07
373.42	489.17
373.62	468.11
373.81	566.41
374.01	571.09
374.21	533.64
374.40	582.79
374.60	535.98
374.79	645.99
374.99	571.09
375.19	599.18
375.38	587.47
375.58	613.22
375.78	613.22
375.97	608.54
376.17	634.29
376.37	634.29
376.56	505.56
376.76	620.24
376.95	592.16
377.15	608.54
377.35	601.52
377.54	620.24
377.74	543.00
377.93	711.52
378.13	645.99
378.33	702.16
378.52	739.61
378.72	734.93
378.91	741.95
379.11	615.56
379.31	620.24
379.50	582.79
379.70	739.61
379.89	692.80
380.09	636.63
380.28	627.26
380.48	655.35
380.68	631.94
380.87	741.95
381.07	751.31
381.26	692.80
381.46	653.01
381.65	641.31
381.85	739.61
382.04	711.52
382.24	685.78
382.43	678.76
382.63	688.12
382.83	720.88
383.02	709.18
383.22	791.10
383.41	748.97
383.61	774.72
383.80	847.27
384.00	772.38
384.19	849.61
384.39	842.59
384.58	823.87
384.78	793.44
384.97	760.67
385.17	800.46
385.36	812.17
385.56	868.34
385.75	896.43
385.95	854.30
386.14	924.51
386.34	854.30
386.53	863.66
386.72	858.98
386.92	840.25
387.11	870.68
387.31	915.15
387.50	809.83
387.70	933.87
387.89	887.06
388.09	943.24
388.28	901.11
388.48	866.00
388.67	1008.77
388.86	877.70
389.06	873.02
389.25	971.32
389.45	971.32
389.64	957.28
389.84	971.32
390.03	1071.97
390.22	1116.44
390.42	1062.60
390.61	912.81
390.81	1088.35
391.00	1090.69
391.19	1135.16
391.39	1067.28
391.58	1083.67
391.78	1132.82
391.97	1100.05
392.16	987.71
392.36	1135.16
392.55	1050.90
392.75	1041.54
392.94	1123.46
393.13	1053.24
393.33	1013.45
393.52	1062.60
393.71	1139.84
393.91	1078.99
394.10	1132.82
394.29	1088.35
394.49	1100.05
394.68	1181.97
394.88	1228.78
395.07	1296.66
395.26	1200.69
395.46	1320.06
395.65	1268.57
395.84	1224.10
396.04	1217.08
396.23	1219.42
396.42	1137.50
396.62	1196.01
396.81	1174.95
397.00	1266.23
397.19	1291.98
397.39	1451.13
397.58	1423.05
397.77	1427.73
397.97	1516.67
398.16	1439.43
398.35	1556.46
398.55	1390.28
398.74	1455.81
398.93	1504.96
399.12	1502.62
399.32	1647.74
399.51	1572.84
399.70	1535.39
399.90	1619.65
400.09	1678.16
400.28	1603.27
400.47	1678.16
400.67	1729.66
400.86	1741.36
401.05	1771.79
401.24	1678.16
401.44	1657.10
401.63	1739.02
401.82	1771.79
402.01	1783.49
402.21	1842.00
402.40	1956.69
402.59	1757.74
402.78	1797.53
402.97	1811.57
403.17	1884.13
403.36	1867.75
403.55	1944.99
403.74	1827.96
403.93	1790.51
404.13	1942.64
404.32	1837.32
404.51	1947.33
404.70	1935.62
404.89	1968.39
405.09	1996.48
405.28	1909.88
405.47	2040.95
405.66	2003.50
405.85	2076.06
406.05	2019.88
406.24	2132.23
406.43	2083.08
406.62	2244.57
406.81	2118.18
407.00	2104.14
407.20	2155.63
407.39	2069.03
407.58	2204.78
407.77	2134.57
407.96	2188.40
408.15	2310.11
408.34	2354.58
408.54	2200.10
408.73	2293.72
408.92	2324.15
409.11	2408.41
409.30	2319.47
409.49	2279.68
409.68	2321.81
409.87	2279.68
410.07	2370.96
410.26	2424.80
410.45	2495.01
410.64	2424.80
410.83	2548.84
411.02	2602.68
411.21	2607.36
411.40	2555.86
411.59	2672.89
411.78	2644.81
411.98	2677.57
412.17	2700.98
412.36	2616.72
412.55	2796.94
412.74	2796.94
412.93	2768.85
413.12	2846.09
413.31	2876.52
413.50	2935.03
413.69	2899.92
413.88	2939.71
414.07	2923.33
414.26	3101.21
414.45	3122.27
414.64	3054.40
414.83	3068.44
415.02	3192.49
415.22	3101.21
415.41	3211.22
415.60	3115.25
415.79	3236.96
415.98	3391.44
416.17	3288.45
416.36	3358.67
416.55	3243.98
416.74	3232.28
416.93	3396.12
417.12	3351.65
417.31	3487.40
417.50	3503.78
417.69	3487.40
417.88	3557.61
418.07	3543.57
418.26	3480.38
418.45	3562.30
418.64	3829.12
418.83	3604.42
419.02	3712.09
419.21	3822.09
419.39	3695.71
419.58	3641.87
419.77	3644.21
419.96	3740.18
420.15	3882.95
420.34	3812.73
420.53	3810.39
420.72	4014.02
420.91	3962.53
421.10	3859.54
421.29	3992.95
421.48	3880.61
421.67	3892.31
421.86	3922.74
422.05	3740.18
422.24	3791.67
422.43	3861.88
422.61	3918.06
422.80	3997.64
422.99	3950.82
423.18	3981.25
423.37	4004.66
423.56	3995.29
423.75	3925.08
423.94	3950.82
424.13	3620.81
424.32	3873.59
424.50	4051.47
424.69	4065.51
424.88	4107.64
425.07	3896.99
425.26	3969.55
425.45	3948.48
425.64	3920.40
425.83	3990.61
426.01	4053.81
426.20	4079.55
426.39	4180.20
426.58	3960.19
426.77	3964.87
426.96	4004.66
427.15	4173.18
427.33	4095.94
427.52	4212.96
427.71	4072.53
427.90	4044.45
428.09	4227.01
428.28	4168.49
428.46	4227.01
428.65	4217.65
428.84	4372.12
429.03	4278.50
429.22	4259.78
429.40	4198.92
429.59	4227.01
429.78	4021.04
429.97	3934.44
430.16	3999.98
430.34	4056.15
430.53	4161.47
430.72	4198.92
430.91	4227.01
431.10	4475.10
431.28	4585.11
431.47	4676.39
431.66	4856.61
431.85	4650.64
432.03	4674.05
432.22	4751.29
432.41	4676.39
432.60	4805.12
432.79	4667.03
432.97	4849.59
433.16	4919.81
433.35	4683.41
433.54	4774.69
433.72	4704.48
433.91	4730.22
434.10	4809.80
434.28	4802.78
434.47	4999.38
434.66	5048.54
434.85	5015.77
435.03	5008.75
435.22	4891.72
435.41	5235.78
435.59	5226.42
435.78	5228.76
435.97	5181.95
436.16	5284.93
436.34	5268.55
436.53	5273.23
436.72	5364.51
436.90	5210.03
437.09	5116.41
437.28	5097.69
437.46	5355.15
437.65	5191.31
437.84	5277.91
438.02	5219.39
438.21	5350.46
438.40	5210.03
438.58	5408.98
438.77	5483.88
438.96	5472.17
439.14	5774.10
439.33	5853.68
439.52	5680.48
439.70	5753.04
439.89	5781.12
440.08	5816.23
440.26	5823.25
440.45	5860.70
440.63	5984.75
440.82	6174.33
441.01	6069.01
441.19	6015.18
441.38	6272.64
441.57	6200.08
441.75	6218.80
441.94	6399.02
442.12	6321.79
442.31	6534.78
442.50	6272.64
442.68	6420.09
442.87	6321.79
443.05	6509.03
443.24	6651.80
443.43	6724.36
443.61	6567.54
443.80	6832.02
443.98	6513.71
444.17	6291.36
444.35	6647.12
444.54	6693.93
444.73	6644.78
444.91	6658.82
445.10	6663.51
445.28	6420.09
445.47	6565.20
445.65	6516.05
445.84	6544.14
446.02	6792.23
446.21	6775.85
446.39	6679.89
446.58	6696.27
446.77	6693.93
446.95	6642.44
447.14	6792.23
447.32	6848.41
447.51	6614.35
447.69	6764.15
447.88	6759.47
448.06	6949.05
448.25	6808.62
448.43	6841.39
448.62	6909.26
448.80	6848.41
448.99	7042.67
449.17	6920.96
449.36	7035.65
449.54	7246.30
449.73	7155.02
449.91	7089.48
450.10	7262.68
450.28	7379.71
450.46	7552.91
450.65	7407.80
450.83	7302.47
451.02	7452.27
451.20	7489.71
451.39	7335.24
451.57	7461.63
451.76	7286.09
451.94	7447.58
452.13	7335.24
452.31	7454.61
452.49	7339.92
452.68	7344.60
452.86	7353.96
453.05	7419.50
453.23	7597.38
453.42	7541.21
453.60	7396.09
453.78	7604.40
453.97	7489.71
454.15	7480.35
454.34	7541.21
454.52	7716.75
454.70	7679.30
454.89	7784.62
455.07	7691.00
455.26	7812.71
455.44	7803.35
455.62	7674.62
455.81	7868.88
455.99	8018.68
456.17	7925.05
456.36	7922.71
456.54	7939.10
456.73	8145.06
456.91	8149.75
457.09	8236.35
457.28	8339.33
457.46	8339.33
457.64	8365.07
457.83	8119.32
458.01	7967.18
458.19	8526.57
458.38	8212.94
458.56	8526.57
458.74	8470.40
458.93	8367.42
459.11	8519.55
459.29	8418.91
459.48	8557.00
459.66	8362.73
459.84	8624.87
460.03	8847.22
460.21	8521.89
460.39	8774.67
460.57	8629.56
460.76	8891.70
460.94	8858.93
461.12	8940.85
461.31	8840.20
461.49	8863.61
461.67	8592.11
461.85	8863.61
462.04	9032.13
462.22	9376.19
462.40	9027.45
462.59	9029.79
462.77	8865.95
462.95	9186.60
463.13	9076.60
463.32	9242.78
463.50	8966.59
463.68	9256.82
463.86	9125.75
464.05	9163.20
464.23	9083.62
464.41	9327.03
464.59	9123.41
464.78	9193.62
464.96	9095.32
465.14	9090.64
465.32	9324.69
465.50	9516.62
465.69	9364.48
465.87	9165.54
466.05	9362.14
466.23	9341.08
466.41	9345.76
466.60	9474.49
466.78	9121.07
466.96	9516.62
467.14	9235.75
467.32	9635.99
467.51	9778.76
467.69	9488.53
467.87	9565.77
468.05	9659.39
468.23	9668.75
468.41	9757.69
468.60	9467.47
468.78	9729.61
468.96	9692.16
469.14	10038.56
469.32	9771.74
469.50	9392.57
469.69	9921.53
469.87	9984.73
470.05	9923.87
470.23	10024.51
470.41	9973.02
470.59	10141.54
470.77	9914.51
470.95	9982.38
471.14	10202.40
471.32	10328.78
471.50	10527.73
471.68	10251.55
471.86	10614.33
472.04	10525.39
472.22	10623.69
472.40	10509.01
472.58	10689.23
472.77	10504.32
472.95	10686.89
473.13	10832.00
473.31	10611.99
473.49	10726.68
473.67	10965.41
473.85	10949.03
474.03	11279.04
474.21	11265.00
474.39	11328.19
474.57	11290.74
474.75	11220.53
474.93	11330.53
475.12	11309.47
475.30	11325.85
475.48	11557.57
475.66	11534.16
475.84	11538.84
476.02	11541.18
476.20	11843.11
476.38	11868.86
476.56	12037.38
476.74	11997.59
476.92	11910.99
477.10	12231.64
477.28	12449.31
477.46	12315.90
477.64	12713.79
477.82	12519.53
478.00	12784.01
478.18	12669.32
478.36	12851.88
478.54	12776.98
478.72	12945.50
478.90	13039.12
479.08	13364.46
479.26	13387.86
479.44	13235.73
479.62	13224.03
479.80	13547.02
479.98	13558.72
480.16	13935.55
480.34	13937.89
480.52	14054.92
480.70	14090.02
480.88	13738.94
481.06	14204.71
481.24	14099.39
481.41	14340.46
481.59	14817.93
481.77	14595.58
481.95	14565.15
482.13	14501.96
482.31	14813.25
482.49	15248.59
482.67	15077.73
482.85	15056.67
483.03	15297.74
483.21	15508.39
483.39	15468.60
483.57	15536.48
483.74	15864.15
483.92	15789.25
484.10	15763.51
484.28	16060.76
484.46	16294.81
484.64	16608.44
484.82	16341.62
485.00	16407.16
485.18	16669.30
485.35	16793.34
485.53	16533.54
485.71	16093.52
485.89	16549.93
486.07	16926.75
486.25	16943.14
486.43	17137.40
486.61	17493.16
486.78	17474.44
486.96	17584.44
487.14	18106.38
487.32	18043.19
487.50	18167.24
487.68	18431.72
487.85	18590.88
488.03	19051.96
488.21	18759.39
488.39	18881.10
488.57	18876.42
488.75	19023.87
488.92	19288.35
489.10	19742.42
489.28	19854.76
489.46	20037.33
489.64	19967.11
489.81	20692.68
489.99	20170.74
490.17	20580.33
490.35	20812.04
490.53	20716.08
490.70	20886.94
490.88	20917.37
491.06	21010.99
491.24	21284.83
491.41	21046.10
491.59	21238.02
491.77	21142.06
491.95	20931.41
492.13	21441.65
492.30	21912.10
492.48	21769.32
492.66	22176.58
492.84	22045.51
493.01	22375.52
493.19	22345.09
493.37	22803.84
493.54	22766.39
493.72	22972.36
493.90	23197.05
494.08	23229.82
494.25	23445.15
494.43	23573.88
494.61	23976.45
494.79	23672.18
494.96	23868.78
495.14	23672.18
495.32	24034.96
495.49	24217.52
495.67	24187.10
495.85	24451.58
496.02	24746.48
496.20	24891.60
496.38	24959.47
496.55	24814.36
496.73	25345.66
496.91	25163.10
497.09	25266.08
497.26	25668.66
497.44	25245.02
497.62	25495.46
497.79	25818.45
497.97	25841.85
498.14	25874.62
498.32	25844.20
498.50	26127.40
498.67	26403.58
498.85	25989.31
499.03	26295.92
499.20	26560.40
499.38	26757.00
499.56	26918.50
499.73	26639.98
499.91	26883.39
500.08	27126.81
500.26	26618.91
500.44	27056.59
500.61	27112.77
500.79	26958.29
500.97	27288.31
501.14	27339.80
501.32	27154.90
501.49	27566.83
501.67	27599.60
501.84	27367.88
502.02	27768.12
502.20	28023.23
502.37	28112.17
502.55	28540.49
502.72	28421.13
502.90	28292.40
503.07	28386.02
503.25	28772.21
503.43	28308.78
503.60	28659.86
503.78	28421.13
503.95	28486.66
504.13	28952.43
504.30	28938.38
504.48	29160.73
504.65	29235.63
504.83	29387.77
505.01	29483.73
505.18	29401.81
505.36	29666.29
505.53	29977.58
505.71	29898.00
505.88	30087.59
506.06	30218.66
506.23	29968.22
506.41	30103.97
506.58	29970.56
506.76	30375.47
506.93	30506.54
507.11	30565.06
507.28	30745.28
507.46	30419.94
507.63	30331.00
507.81	30759.32
507.98	30604.84
508.16	30562.72
508.33	31026.14
508.50	31023.80
508.68	31180.62
508.85	31409.99
509.03	31367.86
509.20	31257.85
509.38	31246.15
509.55	31732.98
509.73	31620.64
509.90	31625.32
510.08	31796.18
510.25	32004.49
510.42	31695.53
510.60	32006.83
510.77	32098.11
510.95	32224.50
511.12	32304.07
511.30	32659.84
511.47	32589.62
511.64	32847.08
511.82	32980.49
511.99	32533.45
512.17	32912.61
512.34	32706.65
512.51	33390.08
512.69	32996.87
512.86	33165.39
513.04	33041.34
513.21	33280.08
513.38	32982.83
513.56	33010.92
513.73	33134.96
513.90	33191.14
514.08	33127.94
514.25	33413.49
514.43	33738.82
514.60	33373.70
514.77	33479.02
514.95	33607.75
515.12	33677.97
515.29	34188.21
515.47	34099.26
515.64	34412.90
515.81	34040.75
515.99	34132.03
516.16	33996.28
516.33	33919.04
516.51	34157.78
516.68	33734.14
516.85	33408.81
517.03	34340.34
517.20	34270.12
517.37	34550.99
517.54	34794.40
517.72	34639.93
517.89	34284.17
518.06	34546.31
518.24	34333.32
518.41	34637.59
518.58	34775.68
518.75	34909.09
518.93	35304.64
519.10	35253.15
519.27	35503.59
519.45	35569.12
519.62	35541.03
519.79	35868.71
519.96	35833.60
520.14	35665.08
520.31	35608.91
520.48	35751.68
520.65	35941.27
520.83	36203.41
521.00	36266.60
521.17	36172.98
521.34	36538.10
521.52	36278.30
521.69	36734.71
521.86	36893.86
522.03	36538.10
522.20	36959.40
522.38	36737.05
522.55	36566.19
522.72	36884.50
522.89	36737.05
523.07	37165.37
523.24	36605.98
523.41	37340.91
523.58	37048.34
523.75	37846.46
523.92	37785.61
524.10	37614.75
524.27	38265.42
524.44	38050.09
524.61	37827.74
524.78	37715.39
524.96	37926.04
525.13	37933.06
525.30	37986.89
525.47	38185.84
525.64	38024.34
525.81	38136.69
525.98	37804.33
526.16	37813.70
526.33	37525.81
526.50	37869.87
526.67	37425.17
526.84	37806.67
527.01	37762.20
527.18	38389.47
527.36	38480.75
527.53	38487.77
527.70	39103.33
527.87	38990.98
528.04	38710.12
528.21	39082.27
528.38	38953.54
528.55	39098.65
528.72	39262.49
528.89	39580.80
529.07	39171.21
529.24	38998.01
529.41	39367.81
529.58	39662.72
529.75	39487.18
529.92	39665.06
530.09	39690.80
530.26	39730.59
530.43	39697.83
530.60	39468.45
530.77	39622.93
530.94	40086.36
531.11	39842.94
531.28	40044.23
531.46	40067.63
531.63	39711.87
531.80	39950.60
531.97	39882.73
532.14	39889.75
532.31	39276.53
532.48	39587.82
532.65	40144.87
532.82	40175.30
532.99	40212.74
533.16	40725.32
533.33	40634.04
533.50	40121.46
533.67	40407.01
533.84	40360.20
534.01	40306.37
534.18	40222.11
534.35	40470.20
534.52	40582.55
534.69	40811.92
534.86	41130.23
535.03	40680.85
535.20	41265.99
535.37	41006.19
535.54	41441.53
535.71	41263.64
535.88	41097.47
536.05	41167.68
536.22	41053.00
536.38	41464.93
536.55	41043.63
536.72	41319.82
536.89	41024.91
537.06	41165.34
537.23	41476.63
537.40	41904.95
537.57	41343.22
537.74	41572.60
537.91	41930.70
538.08	41799.63
538.25	41043.63
538.42	41432.16
538.59	41968.15
538.75	41158.32
538.92	41633.45
539.09	41923.68
539.26	41710.69
539.43	41661.54
539.60	42141.35
539.77	41509.40
539.94	42122.62
540.11	41706.01
540.28	41895.59
540.44	41558.55
540.61	41743.45
540.78	41462.59
540.95	41799.63
541.12	42150.71
541.29	42017.30
541.46	41703.67
541.62	42682.01
541.79	42515.83
541.96	42120.28
542.13	42206.88
542.30	42485.40
542.47	42466.68
542.63	42520.51
542.80	42522.85
542.97	42878.61
543.14	42941.81
543.31	42410.51
543.48	43100.97
543.64	43412.26
543.81	43037.77
543.98	43180.54
544.15	43068.20
544.32	43260.12
544.48	43697.80
544.65	43208.63
544.82	43035.43
544.99	43175.86
545.16	42937.13
545.32	42941.81
545.49	43564.39
545.66	43854.62
545.83	43798.44
546.00	43868.66
546.16	44081.65
546.33	43501.20
546.50	42775.63
546.67	43463.75
546.83	42904.36
547.00	43629.93
547.17	43854.62
547.34	43704.82
547.50	43578.43
547.67	43758.66
547.84	43976.33
548.00	43775.04
548.17	44311.02
548.34	44184.63
548.51	44423.37
548.67	44374.22
548.84	44186.97
549.01	44236.12
549.18	43842.92
549.34	44348.47
549.51	44091.01
549.68	43992.71
549.84	44226.76
550.01	44697.21
550.18	43920.15
550.34	44287.62
550.51	44320.38
550.68	44114.42
550.84	43768.02
551.01	44186.97
551.18	44224.42
551.34	44385.92
551.51	44304.00
551.68	44233.78
551.84	44137.82
552.01	44205.70
552.18	44231.44
552.34	44236.12
552.51	44685.51
552.68	44870.41
552.84	44664.44
553.01	44769.77
553.18	44947.65
553.34	44994.46
553.51	44418.69
553.67	44720.62
553.84	45081.06
554.01	45179.36
554.17	45181.70
554.34	45088.08
554.51	45010.84
554.67	44797.85
554.84	44861.05
555.00	45160.64
555.17	45022.54
555.33	45230.85
555.50	45045.95
555.67	44978.07
555.83	45045.95
556.00	45205.11
556.16	45867.48
556.33	44947.65
556.50	45471.93
556.66	45041.27
556.83	45055.31
556.99	45078.72
557.16	45682.58
557.32	45525.76
557.49	45280.00
557.65	45581.93
557.82	45240.21
557.98	45177.02
558.15	45523.42
558.32	45406.39
558.48	44975.73
558.65	45462.57
558.81	45221.49
558.98	45375.97
559.14	45801.94
559.31	45104.46
559.47	45553.85
559.64	45488.31
559.80	45794.92
559.97	45652.15
560.13	45591.30
560.30	45965.78
560.46	45631.08
560.63	45514.06
560.79	45865.14
560.96	45617.04
561.12	45483.63
561.29	45301.07
561.45	45668.53
561.61	45605.34
561.78	45514.06
561.94	45883.86
562.11	45860.46
562.27	45474.27
562.44	45507.04
562.60	45640.45
562.77	45390.01
562.93	45624.06
563.10	45914.29
563.26	45598.32
563.42	45961.10
563.59	46054.72
563.75	45778.54
563.92	46291.12
564.08	45904.93
564.24	46085.15
564.41	45757.47
564.57	46122.60
564.74	46096.85
564.90	45869.82
565.07	45925.99
565.23	46045.36
565.39	45652.15
565.56	46115.58
565.72	45373.63
565.88	45745.77
566.05	45502.35
566.21	45815.99
566.38	45748.11
566.54	45647.47
566.70	46199.83
566.87	46122.60
567.03	46258.35
567.19	46536.87
567.36	46422.19
567.52	45996.21
567.68	46160.05
567.85	46181.11
568.01	46316.86
568.17	45886.20
568.34	46391.76
568.50	46068.76
568.66	46216.22
568.83	46127.28
568.99	45811.31
569.15	46019.61
569.32	46094.51
569.48	45961.10
569.64	46267.71
569.81	46396.44
569.97	45860.46
570.13	46082.81
570.30	45710.66
570.46	45598.32
570.62	45675.55
570.78	45741.09
570.95	45799.60
571.11	45764.49
571.27	45916.63
571.43	45923.65
571.60	46286.43
571.76	46263.03
571.92	46560.28
572.09	46241.96
572.25	45986.85
572.41	46616.45
572.57	46459.63
572.74	46913.70
572.90	45937.69
573.06	46251.33
573.22	46447.93
573.38	46298.14
573.55	45965.78
573.71	46300.48
573.87	46108.55
574.03	46401.12
574.20	46293.46
574.36	46075.79
574.52	46557.94
574.68	46113.23
574.84	46471.34
575.01	46440.91
575.17	46330.90
575.33	46024.29
575.49	46389.42
575.65	46160.05
575.82	46141.32
575.98	46267.71
576.14	46433.89
576.30	46527.51
576.46	46361.33
576.62	46260.69
576.79	45928.33
576.95	46209.20
577.11	46583.68
577.27	46377.72
577.43	46106.21
577.59	46052.38
577.75	46459.63
577.92	46014.93
578.08	45806.62
578.24	46007.91
578.40	46375.37
578.56	46167.07
578.72	46218.56
578.88	46775.61
579.04	46616.45
579.21	46183.45
579.37	46520.49
579.53	46366.01
579.69	46204.52
579.85	46199.83
580.01	46199.83
580.17	46054.72
580.33	46623.47
580.49	46366.01
580.65	46026.63
580.82	46410.48
580.98	45977.48
581.14	46480.70
581.30	46513.47
581.46	46157.70
581.62	46583.68
581.78	46476.02
581.94	46883.27
582.10	46380.06
582.26	46476.02
582.42	46595.38
582.58	46787.31
582.74	46880.93
582.90	46461.97
583.06	46791.99
583.22	46457.29
583.38	46670.28
583.54	46855.18
583.70	46749.86
583.86	46946.47
584.02	46199.83
584.18	46244.30
584.34	46328.56
584.50	45886.20
584.66	46267.71
584.82	46031.32
584.98	46791.99
585.14	46487.72
585.30	46230.26
585.46	46103.87
585.62	45769.18
585.78	46384.74
585.94	45991.53
586.10	46136.64
586.26	45933.01
586.42	46471.34
586.58	46541.55
586.74	46433.89
586.90	46515.81
587.06	46415.16
587.22	46511.13
587.38	46642.20
587.54	46492.40
587.70	46607.09
587.86	46223.24
588.02	46237.28
588.18	46557.94
588.34	46155.36
588.49	45883.86
588.65	45935.35
588.81	45731.73
588.97	45876.84
589.13	45691.94
589.29	45846.41
589.45	46110.89
589.61	46050.04
589.77	46576.66
589.93	46726.46
