SpectraSuite Data File
++++++++++++++++++++++++++++++++++++
Date: Fri Oct 25 11:25:08 EDT 2013
User: price-jones
Dark Spectrum Present: No
Reference Spectrum Present: No
Number of Sampled Component Spectra: 1
Spectrometers: USB2+H05261
Integration Time (usec): 100000 (USB2+H05261)
Spectra Averaged: 1 (USB2+H05261)
Boxcar Smoothing: 0 (USB2+H05261)
Correct for Electrical Dark: No (USB2+H05261)
Strobe/Lamp Enabled: No (USB2+H05261)
Correct for Detector Non-linearity: No (USB2+H05261)
Correct for Stray Light: No (USB2+H05261)
Number of Pixels in Processed Spectrum: 2048
>>>>>Begin Processed Spectral Data<<<<<
365.73	182.56
365.92	182.56
366.12	182.56
366.32	161.50
366.52	161.50
366.72	248.10
366.91	215.33
367.11	191.92
367.31	145.11
367.51	119.37
367.70	168.52
367.90	117.03
368.10	81.92
368.30	124.05
368.49	145.11
368.69	170.86
368.89	100.64
369.09	168.52
369.28	180.22
369.48	201.29
369.68	210.65
369.87	177.88
370.07	191.92
370.27	243.42
370.47	285.55
370.66	613.22
370.86	617.90
371.06	711.52
371.25	706.84
371.45	706.84
371.65	711.52
371.84	690.46
372.04	725.57
372.24	706.84
372.44	650.67
372.63	730.25
372.83	772.38
373.03	781.74
373.22	713.86
373.42	760.67
373.62	863.66
373.81	809.83
374.01	777.06
374.21	765.36
374.40	858.98
374.60	866.00
374.79	734.93
374.99	791.10
375.19	849.61
375.38	826.21
375.58	882.38
375.78	919.83
375.97	870.68
376.17	875.36
376.37	919.83
376.56	896.43
376.76	851.96
376.95	842.59
377.15	961.96
377.35	812.17
377.54	851.96
377.74	896.43
377.93	877.70
378.13	891.74
378.33	947.92
378.52	882.38
378.72	994.73
378.91	980.68
379.11	894.08
379.31	978.34
379.50	929.19
379.70	992.39
379.89	964.30
380.09	964.30
380.28	887.06
380.48	968.98
380.68	1029.84
380.87	910.47
381.07	1078.99
381.26	924.51
381.46	976.00
381.65	1088.35
381.85	1022.81
382.04	959.62
382.24	1041.54
382.43	1039.20
382.63	1111.75
382.83	1050.90
383.02	1025.15
383.22	1116.44
383.41	1156.22
383.61	1107.07
383.80	1041.54
384.00	1050.90
384.19	1135.16
384.39	1116.44
384.58	1137.50
384.78	1181.97
384.97	1139.84
385.17	1114.10
385.36	1114.10
385.56	1153.88
385.75	1144.52
385.95	1228.78
386.14	1151.54
386.34	1301.34
386.53	1207.72
386.72	1188.99
386.92	1144.52
387.11	1296.66
387.31	1231.12
387.50	1198.35
387.70	1242.82
387.89	1345.81
388.09	1247.51
388.28	1291.98
388.48	1261.55
388.67	1308.36
388.86	1364.53
389.06	1287.29
389.25	1397.30
389.45	1266.23
389.64	1299.00
389.84	1441.77
390.03	1366.87
390.22	1345.81
390.42	1287.29
390.61	1451.13
390.81	1418.36
391.00	1352.83
391.19	1411.34
391.39	1418.36
391.58	1387.94
391.78	1453.47
391.97	1544.75
392.16	1458.15
392.36	1469.86
392.55	1530.71
392.75	1514.33
392.94	1589.22
393.13	1535.39
393.33	1629.01
393.52	1526.03
393.71	1664.12
393.91	1598.59
394.10	1575.18
394.29	1633.69
394.49	1682.85
394.68	1636.03
394.88	1540.07
395.07	1668.80
395.26	1762.42
395.46	1654.76
395.65	1643.06
395.84	1755.40
396.04	1809.23
396.23	1778.81
396.42	1783.49
396.62	1874.77
396.81	1666.46
397.00	1790.51
397.19	1760.08
397.39	1739.02
397.58	1893.49
397.77	1797.53
397.97	1877.11
398.16	1858.39
398.35	1879.45
398.55	1944.99
398.74	1921.58
398.93	1944.99
399.12	1966.05
399.32	1856.04
399.51	1973.07
399.70	2045.63
399.90	1968.39
400.09	2073.71
400.28	1984.77
400.47	2003.50
400.67	1982.43
400.86	2090.10
401.05	2059.67
401.24	2078.40
401.44	2015.20
401.63	2073.71
401.82	2155.63
402.01	2176.70
402.21	2258.62
402.40	2232.87
402.59	2267.98
402.78	2260.96
402.97	2218.83
403.17	2305.43
403.36	2125.21
403.55	2228.19
403.74	2427.14
403.93	2392.03
404.13	2321.81
404.32	2382.67
404.51	2377.98
404.70	2478.63
404.89	2289.04
405.09	2473.95
405.28	2445.86
405.47	2457.56
405.66	2523.10
405.85	2544.16
406.05	2363.94
406.24	2530.12
406.43	2445.86
406.62	2574.59
406.81	2616.72
407.00	2696.30
407.20	2576.93
407.39	2574.59
407.58	2722.04
407.77	2726.72
407.96	2710.34
408.15	2733.75
408.34	2754.81
408.54	2691.62
408.73	2850.77
408.92	2862.48
409.11	2785.24
409.30	2970.14
409.49	2855.45
409.68	2818.00
409.87	2918.65
410.07	2951.42
410.26	2956.10
410.45	2946.73
410.64	2986.52
410.83	3087.17
411.02	3075.46
411.21	3166.74
411.40	3206.53
411.59	3339.94
411.78	3119.93
411.98	3152.70
412.17	3255.69
412.36	3311.86
412.55	3316.54
412.74	3473.36
412.93	3426.54
413.12	3239.30
413.31	3492.08
413.50	3597.40
413.69	3482.72
413.88	3583.36
414.07	3555.27
414.26	3721.45
414.45	3616.13
414.64	3686.34
414.83	3707.41
415.02	3674.64
415.22	3794.01
415.41	3803.37
415.60	3709.75
415.79	3719.11
415.98	3852.52
416.17	4032.74
416.36	3967.21
416.55	3983.59
416.74	4025.72
416.93	3920.40
417.12	4238.71
417.31	4219.99
417.50	4208.28
417.69	4351.06
417.88	4152.11
418.07	4198.92
418.26	4283.18
418.45	4217.65
418.64	4358.08
418.83	4451.70
419.02	4470.42
419.21	4386.16
419.39	4411.91
419.58	4365.10
419.77	4329.99
419.96	4580.43
420.15	4517.23
420.34	4552.34
420.53	4667.03
420.72	4741.93
420.91	4718.52
421.10	4730.22
421.29	4772.35
421.48	4601.49
421.67	4613.20
421.86	4678.73
422.05	4720.86
422.24	4805.12
422.43	4699.80
422.61	4809.80
422.80	4964.28
422.99	4880.02
423.18	4922.15
423.37	5097.69
423.56	5029.81
423.75	4964.28
423.94	4788.74
424.13	4491.49
424.32	4641.28
424.50	4936.19
424.69	5095.35
424.88	4873.00
425.07	4975.98
425.26	4894.06
425.45	4912.78
425.64	4990.02
425.83	4882.36
426.01	5013.43
426.20	4863.63
426.39	5195.99
426.58	5018.11
426.77	5100.03
426.96	5041.51
427.15	5151.52
427.33	5273.23
427.52	5266.21
427.71	5214.71
427.90	5294.29
428.09	5336.42
428.28	5373.87
428.46	5298.97
428.65	5392.59
428.84	5540.05
429.03	5390.25
429.22	5280.25
429.40	5476.85
429.59	5493.24
429.78	5406.64
429.97	5198.33
430.16	5406.64
430.34	5748.36
430.53	5624.31
430.72	5605.58
430.91	5675.80
431.10	5612.60
431.28	5619.63
431.47	5816.23
431.66	5717.93
431.85	5776.44
432.03	5902.83
432.22	6012.84
432.41	5809.21
432.60	5956.66
432.79	5874.74
432.97	6136.88
433.16	6050.28
433.35	6015.18
433.54	5951.98
433.72	6207.10
433.91	6167.31
434.10	5954.32
434.28	6232.85
434.47	6272.64
434.66	6303.06
434.85	6155.61
435.03	6429.45
435.22	6410.73
435.41	6457.54
435.59	6544.14
435.78	6340.51
435.97	6466.90
436.16	6340.51
436.34	6209.44
436.53	6410.73
436.72	6703.29
436.90	6382.64
437.09	6502.01
437.28	6487.96
437.46	6593.29
437.65	6733.72
437.84	6740.74
438.02	6750.10
438.21	6857.77
438.40	6637.76
438.58	6951.39
438.77	7052.03
438.96	6899.90
439.14	7131.61
439.33	7206.51
439.52	7178.42
439.70	7133.95
439.89	7279.07
440.08	7250.98
440.26	7213.53
440.45	7267.36
440.63	7304.81
440.82	7538.87
441.01	7297.79
441.19	7538.87
441.38	7599.72
441.57	7644.19
441.75	7772.92
441.94	7918.03
442.12	7939.10
442.31	7978.89
442.50	7967.18
442.68	7866.54
442.87	7744.83
443.05	8088.89
443.24	8222.30
443.43	8119.32
443.61	8112.30
443.80	8252.73
443.98	8074.85
444.17	7744.83
444.35	8287.84
444.54	8292.52
444.73	8322.94
444.91	8208.26
445.10	8320.60
445.28	8187.19
445.47	8280.82
445.65	8388.48
445.84	8346.35
446.02	8496.14
446.21	8294.86
446.39	8217.62
446.58	8491.46
446.77	8442.31
446.95	8245.71
447.14	8451.67
447.32	8397.84
447.51	8505.51
447.69	8381.46
447.88	8477.42
448.06	8454.02
448.25	8468.06
448.43	8234.00
448.62	8711.47
448.80	8465.72
448.99	8793.39
449.17	8594.45
449.36	8718.50
449.54	8641.26
449.73	8830.84
449.91	9043.83
450.10	8992.34
450.28	9128.09
450.46	9088.30
450.65	9011.06
450.83	9146.81
451.02	8812.12
451.20	9226.39
451.39	9062.55
451.57	9137.45
451.76	8931.48
451.94	9121.07
452.13	9308.31
452.31	9310.65
452.49	9137.45
452.68	9177.24
452.86	9373.85
453.05	9352.78
453.23	9533.00
453.42	9294.27
453.60	9387.89
453.78	9362.14
453.97	9362.14
454.15	9357.46
454.34	9315.33
454.52	9575.13
454.70	9570.45
454.89	9832.59
455.07	9757.69
455.26	9701.52
455.44	9893.44
455.62	9900.47
455.81	9792.80
455.99	9954.30
456.17	9994.09
456.36	10029.20
456.54	10239.84
456.73	10157.92
456.91	10509.01
457.09	10321.76
457.28	10375.59
457.46	10494.96
457.64	10431.77
457.83	10401.34
458.01	10476.24
458.19	10630.71
458.38	10303.04
458.56	10810.93
458.74	10731.36
458.93	10537.09
459.11	10537.09
459.29	10633.05
459.48	10820.30
459.66	11073.07
459.84	10717.31
460.03	10871.79
460.21	10820.30
460.39	10988.82
460.57	10958.39
460.76	11019.24
460.94	11052.01
461.12	11044.99
461.31	11192.44
461.49	11208.83
461.67	10981.79
461.85	11328.19
462.04	11246.27
462.22	12018.65
462.40	11555.22
462.59	11272.02
462.77	11630.12
462.95	11585.65
463.13	11260.32
463.32	11595.01
463.50	11592.67
463.68	11822.05
463.86	11845.45
464.05	11412.45
464.23	11903.96
464.41	11953.12
464.59	11562.25
464.78	12233.98
464.96	11936.73
465.14	11777.58
465.32	12222.28
465.50	12098.23
465.69	12212.92
465.87	12212.92
466.05	12030.35
466.23	12147.38
466.41	12046.74
466.60	12283.13
466.78	12126.32
466.96	12245.68
467.14	12135.68
467.32	12390.80
467.51	12453.99
467.69	12032.69
467.87	12421.22
468.05	12851.88
468.23	12510.16
468.41	12339.30
468.60	12498.46
468.78	12702.09
468.96	12437.61
469.14	12533.57
469.32	12688.04
469.50	12531.23
469.69	12844.86
469.87	12961.89
470.05	12889.33
470.23	13200.62
470.41	13228.71
470.59	13123.38
470.77	12943.16
470.95	13083.59
471.14	13554.04
471.32	13015.72
471.50	13401.91
471.68	13642.98
471.86	13610.22
472.04	13657.03
472.22	13795.12
472.40	13710.86
472.58	13778.73
472.77	13912.14
472.95	14171.94
473.13	14487.92
473.31	14129.81
473.49	13991.72
473.67	13973.00
473.85	14263.22
474.03	14668.14
474.21	14370.89
474.39	14368.55
474.57	14920.92
474.75	14750.06
474.93	14780.48
475.12	14871.76
475.30	14899.85
475.48	14705.59
475.66	15073.05
475.84	15183.06
476.02	15545.84
476.20	15103.48
476.38	15480.30
476.56	15602.01
476.74	15992.88
476.92	15784.57
477.10	15953.09
477.28	15967.13
477.46	15915.64
477.64	16505.46
477.82	16568.65
478.00	16966.54
478.18	16786.32
478.36	17029.74
478.54	17104.64
478.72	16964.20
478.90	17369.12
479.08	17710.83
479.26	17577.42
479.44	17738.92
479.62	17661.68
479.80	18040.85
479.98	17930.84
480.16	18380.23
480.34	18118.09
480.52	18782.80
480.70	18787.48
480.88	18384.91
481.06	18937.27
481.24	18520.66
481.41	19066.00
481.59	19131.54
481.77	19438.15
481.95	19232.18
482.13	19939.02
482.31	19744.76
482.49	20093.50
482.67	20453.94
482.85	20409.47
483.03	20353.30
483.21	20512.46
483.39	20776.94
483.57	20840.13
483.74	21284.83
483.92	21263.77
484.10	20875.24
484.28	21647.61
484.46	21979.97
484.64	22162.53
484.82	21715.49
485.00	22394.25
485.18	22553.40
485.35	22747.67
485.53	22782.77
485.71	22979.38
485.89	23520.04
486.07	23194.71
486.25	23208.75
486.43	23482.59
486.61	23723.67
486.78	23683.88
486.96	24292.42
487.14	24575.62
487.32	24489.03
487.50	24945.43
487.68	24968.84
487.85	24971.18
488.03	25563.33
488.21	25888.67
488.39	25467.37
488.57	25839.51
488.75	25921.43
488.92	26178.89
489.10	26595.51
489.28	26251.45
489.46	27103.40
489.64	26759.34
489.81	27433.42
489.99	27393.63
490.17	27777.48
490.35	27552.79
490.53	28259.63
490.70	28285.37
490.88	28009.19
491.06	28767.52
491.24	28606.03
491.41	29151.37
491.59	28980.51
491.77	28994.56
491.95	29331.59
492.13	29675.65
492.30	30080.56
492.48	29888.64
492.66	30190.57
492.84	29923.75
493.01	30756.98
493.19	30541.65
493.37	30693.79
493.54	31035.50
493.72	31108.06
493.90	31536.38
494.08	31796.18
494.25	31784.48
494.43	32144.92
494.61	32191.73
494.79	32224.50
494.96	31889.80
495.14	32837.72
495.32	32491.32
495.49	32854.10
495.67	32870.48
495.85	33427.53
496.02	33816.06
496.20	33968.19
496.38	34045.43
496.55	34398.85
496.73	34572.05
496.91	34726.53
497.09	34714.83
497.26	34670.36
497.44	34747.59
497.62	34918.45
497.79	35765.73
497.97	35262.51
498.14	36233.83
498.32	35983.40
498.50	35646.36
498.67	35981.06
498.85	36531.08
499.03	36416.40
499.20	36772.16
499.38	36711.30
499.56	37132.60
499.73	36893.86
499.91	37083.45
500.08	37029.62
500.26	37296.44
500.44	37598.37
500.61	37488.36
500.79	37453.25
500.97	37944.76
501.14	38562.67
501.32	38499.47
501.49	38167.12
501.67	38232.65
501.84	38733.53
502.02	38548.62
502.20	38782.68
502.37	39433.35
502.55	38890.34
502.72	39257.81
502.90	39814.85
503.07	39697.83
503.25	39522.29
503.43	39463.77
503.60	40095.72
503.78	39917.84
503.95	40126.14
504.13	39985.71
504.30	40837.67
504.48	40308.71
504.65	40655.11
504.83	40968.74
505.01	40739.36
505.18	40788.52
505.36	41401.74
505.53	40823.62
505.71	41558.55
505.88	41303.43
506.06	41027.25
506.23	42068.79
506.41	41928.36
506.58	41963.46
506.76	42209.22
506.93	42543.92
507.11	42359.02
507.28	42616.47
507.46	42637.54
507.63	43040.11
507.81	43065.86
507.98	42576.69
508.16	42806.06
508.33	43056.50
508.50	43538.65
508.68	43407.58
508.85	43653.33
509.03	43592.48
509.20	43442.68
509.38	44074.63
509.55	44219.74
509.73	44458.48
509.90	44432.73
510.08	44573.16
510.25	44217.40
510.42	44334.43
510.60	44907.86
510.77	44809.56
510.95	45195.74
511.12	44355.49
511.30	45184.04
511.47	45441.50
511.64	45523.42
511.82	45443.84
511.99	45598.32
512.17	45656.83
512.34	45769.18
512.51	46410.48
512.69	46351.97
512.86	45923.65
513.04	46209.20
513.21	46738.16
513.38	46789.65
513.56	46808.37
513.73	46342.61
513.90	46761.56
514.08	46492.40
514.25	47196.90
514.43	47409.89
514.60	47442.66
514.77	47372.44
514.95	47629.90
515.12	47655.65
515.29	47004.98
515.47	47597.13
515.64	47716.50
515.81	47817.14
515.99	48355.47
516.16	48116.73
516.33	47805.44
516.51	48268.87
516.68	48250.14
516.85	48140.14
517.03	48294.61
517.20	49048.27
517.37	48903.15
517.54	49013.16
517.72	48992.09
517.89	48945.28
518.06	48931.24
518.24	49013.16
518.41	49474.24
518.58	49102.10
518.75	49305.73
518.93	49289.34
519.10	49778.51
519.27	49584.25
519.45	49418.07
519.62	49518.71
519.79	49780.85
519.96	49940.01
520.14	50206.83
520.31	50026.61
520.48	50012.57
520.65	50220.87
520.83	50401.10
521.00	50745.15
521.17	50387.05
521.34	50356.63
521.52	50806.01
521.69	50747.50
521.86	50604.72
522.03	51192.20
522.20	51234.33
522.38	51423.91
522.55	51082.19
522.72	50981.55
522.89	51042.40
523.07	51299.86
523.24	51253.05
523.41	51517.53
523.58	51239.01
523.75	51662.64
523.92	51510.51
524.10	51915.42
524.27	51999.68
524.44	51697.75
524.61	51976.28
524.78	52128.41
524.96	52172.88
525.13	52371.83
525.30	52308.63
525.47	52509.92
525.64	52395.23
525.81	52325.02
525.98	52545.03
526.16	52425.66
526.33	52397.57
526.50	52676.10
526.67	52648.01
526.84	52842.27
527.01	52758.02
527.18	52596.52
527.36	53038.88
527.53	52594.18
527.70	53228.46
527.87	53265.91
528.04	52844.62
528.21	53165.27
528.38	53371.24
528.55	53289.32
528.72	53270.59
528.89	53165.27
529.07	53034.20
529.24	53373.58
529.41	53572.52
529.58	53378.26
529.75	53401.66
529.92	53602.95
530.09	54031.27
530.26	53972.75
530.43	53951.69
530.60	53539.75
530.77	53638.06
530.94	54089.78
531.11	53759.76
531.28	54295.75
531.46	53846.36
531.63	54082.76
531.80	53776.15
531.97	54092.12
532.14	54103.82
532.31	54223.19
532.48	54302.77
532.65	54602.36
532.82	54361.28
532.99	54618.74
533.16	54536.82
533.33	54796.62
533.50	54862.16
533.67	54499.37
533.84	54461.93
534.01	54976.84
534.18	54728.75
534.35	55037.70
534.52	55061.10
534.69	55196.85
534.86	54981.52
535.03	54906.63
535.20	55007.27
535.37	55243.66
535.54	55119.62
535.71	55152.38
535.88	55346.65
536.05	55257.71
536.22	55238.98
536.38	55416.86
536.55	55440.27
536.72	55377.08
536.89	55351.33
537.06	55381.76
537.23	55597.09
537.40	55683.69
537.57	55480.06
537.74	55679.00
537.91	55948.17
538.08	55718.79
538.25	55634.53
538.42	55917.74
538.59	56048.81
538.75	55749.22
538.92	55899.01
539.09	56156.47
539.26	55973.91
539.43	55845.18
539.60	56114.34
539.77	56074.55
539.94	56460.74
540.11	56355.42
540.28	56170.52
540.44	56207.97
540.61	56324.99
540.78	56376.48
540.95	56322.65
541.12	56282.86
541.29	56329.67
541.46	56409.25
541.62	56456.06
541.79	56568.41
541.96	56126.05
542.13	56530.96
542.30	56615.22
542.47	56788.42
542.63	56856.29
542.80	56678.41
542.97	57057.58
543.14	57254.18
543.31	56945.23
543.48	57183.97
543.64	57284.61
543.81	57382.91
543.98	57375.89
544.15	57176.95
544.32	57132.48
544.48	57616.97
544.65	57443.77
544.82	57373.55
544.99	57085.67
545.16	57528.03
545.32	57317.38
545.49	57560.79
545.66	57748.04
545.83	57403.98
546.00	57481.22
546.16	57495.26
546.33	57333.76
546.50	57279.93
546.67	57694.21
546.83	57193.33
547.00	57581.86
547.17	57631.01
547.34	57811.23
547.50	57841.66
547.67	57986.77
547.84	57954.00
548.00	57851.02
548.17	58335.51
548.34	58021.88
548.51	57975.07
548.67	58134.23
548.84	57970.39
549.01	57876.77
549.18	57993.79
549.34	58071.03
549.51	58253.59
549.68	58159.97
549.84	58145.93
550.01	58319.13
550.18	58232.53
550.34	58394.03
550.51	58220.83
550.68	58436.16
550.84	58202.10
551.01	58508.71
551.18	58274.66
551.34	58459.56
551.51	58363.60
551.68	58450.20
551.84	58494.67
552.01	58447.86
552.18	58436.16
552.34	58548.50
552.51	58520.41
552.68	58497.01
552.84	58628.08
553.01	58775.53
553.18	58784.90
553.34	58829.37
553.51	58698.30
553.67	58794.26
553.84	58616.38
554.01	58925.33
554.17	59065.76
554.34	58768.51
554.51	58756.81
554.67	58780.21
554.84	58738.08
555.00	58897.24
555.17	58866.81
555.33	58953.41
555.50	58913.62
555.67	58960.44
555.83	58824.68
556.00	59037.67
556.16	59203.85
556.33	59040.01
556.50	59105.55
556.66	59194.49
556.83	59187.47
556.99	59171.08
557.16	59576.00
557.32	59351.30
557.49	59379.39
557.65	59262.36
557.82	59283.43
557.98	59018.95
558.15	59238.96
558.32	59372.37
558.48	59372.37
558.65	59402.80
558.81	59297.47
558.98	59465.99
559.14	59576.00
559.31	59281.09
559.47	59559.61
559.64	59477.69
559.80	59559.61
559.97	59681.32
560.13	59568.97
560.30	59538.55
560.46	59634.51
560.63	59587.70
560.79	59709.41
560.96	59711.75
561.12	59810.05
561.29	59683.66
561.45	59707.07
561.61	59793.67
561.78	59732.81
561.94	59437.90
562.11	59838.14
562.27	59852.18
562.44	59800.69
562.60	59917.71
562.77	59934.10
562.93	59681.32
563.10	60009.00
563.26	59866.22
563.42	60348.37
563.59	59849.84
563.75	59765.58
563.92	59952.82
564.08	59971.55
564.24	60088.57
564.41	60081.55
564.57	60116.66
564.74	60069.85
564.90	60083.89
565.07	59887.29
565.23	60093.25
565.39	60034.74
565.56	60037.08
565.72	60037.08
565.88	60048.78
566.05	59728.13
566.21	59959.84
566.38	60018.36
566.54	60053.47
566.70	60306.24
566.87	60346.03
567.03	60142.41
567.19	60355.39
567.36	60317.95
567.52	60240.71
567.68	60638.60
567.85	60285.18
568.01	60420.93
568.17	60229.01
568.34	60198.58
568.50	60172.83
568.66	60097.94
568.83	60474.76
568.99	60245.39
569.15	60285.18
569.32	60477.10
569.48	60121.34
569.64	60446.68
569.81	60392.84
569.97	60217.30
570.13	60179.85
570.30	60402.21
570.46	60346.03
570.62	60353.05
570.78	60411.57
570.95	60453.70
571.11	60388.16
571.27	60481.78
571.43	60399.86
571.60	60645.62
571.76	60449.02
571.92	60378.80
572.09	60662.00
572.25	60629.24
572.41	60512.21
572.57	60425.61
572.74	60764.99
572.90	60444.33
573.06	60437.31
573.22	60378.80
573.38	60568.38
573.55	60544.98
573.71	60610.51
573.87	60601.15
574.03	60420.93
574.20	60753.29
574.36	60362.42
574.52	60669.03
574.68	60694.77
574.84	60640.94
575.01	60811.80
575.17	60554.34
575.33	60371.78
575.49	60657.32
575.65	60636.26
575.82	60741.58
575.98	60725.20
576.14	60867.97
576.30	60748.60
576.46	60458.38
576.62	60615.19
576.79	60755.63
576.95	60296.88
577.11	60587.11
577.27	60676.05
577.43	60764.99
577.59	60685.41
577.75	60713.50
577.92	60617.53
578.08	60720.52
578.24	60985.00
578.40	60835.20
578.56	60736.90
578.72	60680.73
578.88	60907.76
579.04	60970.96
579.21	60760.31
579.37	60750.94
579.53	61050.53
579.69	60650.30
579.85	60535.62
580.01	60746.26
580.17	60776.69
580.33	60807.12
580.49	60882.02
580.65	60884.36
580.82	60816.48
580.98	60636.26
581.14	60774.35
581.30	60982.66
581.46	60725.20
581.62	60846.91
581.78	60650.30
581.94	60853.93
582.10	60764.99
582.26	60851.59
582.42	60870.31
582.58	60804.78
582.74	60685.41
582.90	60795.42
583.06	60879.67
583.22	60704.13
583.38	60568.38
583.54	60970.96
583.70	60907.76
583.86	60762.65
584.02	60767.33
584.18	61080.96
584.34	60760.31
584.50	60947.55
584.66	60809.46
584.82	60767.33
584.98	61076.28
585.14	61123.09
585.30	60729.88
585.46	60940.53
585.62	60942.87
585.78	61095.00
585.94	60767.33
586.10	60982.66
586.26	60966.27
586.42	60926.49
586.58	61024.79
586.74	60917.12
586.90	60818.82
587.06	60947.55
587.22	61080.96
587.38	60947.55
587.54	60870.31
587.70	61102.03
587.86	61111.39
588.02	60886.70
588.18	61020.11
588.34	60992.02
588.49	60867.97
