SpectraSuite Data File
++++++++++++++++++++++++++++++++++++
Date: Fri Oct 25 10:48:18 EDT 2013
User: price-jones
Dark Spectrum Present: No
Reference Spectrum Present: No
Number of Sampled Component Spectra: 1
Spectrometers: USB2+H05261
Integration Time (usec): 100000 (USB2+H05261)
Spectra Averaged: 1 (USB2+H05261)
Boxcar Smoothing: 0 (USB2+H05261)
Correct for Electrical Dark: No (USB2+H05261)
Strobe/Lamp Enabled: No (USB2+H05261)
Correct for Detector Non-linearity: No (USB2+H05261)
Correct for Stray Light: No (USB2+H05261)
Number of Pixels in Processed Spectrum: 2048
>>>>>Begin Processed Spectral Data<<<<<
365.73	131.07
365.92	131.07
366.12	131.07
366.32	0.00
366.52	86.60
366.72	65.54
366.91	49.15
367.11	74.90
367.31	0.00
367.51	49.15
367.70	88.94
367.90	46.81
368.10	67.88
368.30	7.02
368.49	11.70
368.69	154.48
368.89	131.07
369.09	25.75
369.28	77.24
369.48	44.47
369.68	77.24
369.87	110.01
370.07	81.92
370.27	114.69
370.47	259.80
370.66	451.72
370.86	465.77
371.06	517.26
371.25	440.02
371.45	528.96
371.65	519.60
371.84	470.45
372.04	430.66
372.24	496.19
372.44	437.68
372.63	514.92
372.83	550.03
373.03	573.43
373.22	575.77
373.42	535.98
373.62	500.87
373.81	606.20
374.01	636.63
374.21	627.26
374.40	636.63
374.60	594.50
374.79	550.03
374.99	631.94
375.19	589.82
375.38	662.37
375.58	580.45
375.78	538.32
375.97	603.86
376.17	617.90
376.37	645.99
376.56	615.56
376.76	617.90
376.95	620.24
377.15	648.33
377.35	781.74
377.54	690.46
377.74	683.44
377.93	645.99
378.13	727.91
378.33	664.71
378.52	592.16
378.72	606.20
378.91	802.80
379.11	704.50
379.31	720.88
379.50	645.99
379.70	631.94
379.89	716.20
380.09	770.04
380.28	730.25
380.48	653.01
380.68	732.59
380.87	744.29
381.07	706.84
381.26	828.55
381.46	716.20
381.65	711.52
381.85	681.10
382.04	779.40
382.24	709.18
382.43	774.72
382.63	786.42
382.83	758.33
383.02	751.31
383.22	709.18
383.41	751.31
383.61	767.70
383.80	732.59
384.00	755.99
384.19	847.27
384.39	880.04
384.58	763.01
384.78	823.87
384.97	866.00
385.17	877.70
385.36	877.70
385.56	880.04
385.75	779.40
385.95	791.10
386.14	950.26
386.34	980.68
386.53	837.91
386.72	926.85
386.92	922.17
387.11	966.64
387.31	884.72
387.50	802.80
387.70	898.77
387.89	936.21
388.09	901.11
388.28	910.47
388.48	931.53
388.67	938.55
388.86	994.73
389.06	912.81
389.25	950.26
389.45	1015.79
389.64	1020.47
389.84	1064.94
390.03	1064.94
390.22	1027.50
390.42	1093.03
390.61	1029.84
390.81	992.39
391.00	1043.88
391.19	1144.52
391.39	1121.12
391.58	1111.75
391.78	1006.43
391.97	1088.35
392.16	1020.47
392.36	1071.97
392.55	1006.43
392.75	1029.84
392.94	1050.90
393.13	997.07
393.33	1069.62
393.52	1078.99
393.71	1121.12
393.91	1144.52
394.10	1125.80
394.29	1235.80
394.49	1242.82
394.68	1167.93
394.88	1240.48
395.07	1394.96
395.26	1186.65
395.46	1259.21
395.65	1231.12
395.84	1275.59
396.04	1303.68
396.23	1233.46
396.42	1261.55
396.62	1233.46
396.81	1245.16
397.00	1231.12
397.19	1296.66
397.39	1341.13
397.58	1383.26
397.77	1500.28
397.97	1427.73
398.16	1469.86
398.35	1427.73
398.55	1591.56
398.74	1563.48
398.93	1565.82
399.12	1640.72
399.32	1444.11
399.51	1514.33
399.70	1591.56
399.90	1586.88
400.09	1633.69
400.28	1582.20
400.47	1596.25
400.67	1607.95
400.86	1640.72
401.05	1586.88
401.24	1706.25
401.44	1706.25
401.63	1795.19
401.82	1727.32
402.01	1713.27
402.21	1673.48
402.40	1870.09
402.59	1802.21
402.78	1823.28
402.97	1858.39
403.17	1750.72
403.36	1909.88
403.55	1874.77
403.74	1860.73
403.93	1853.70
404.13	1989.46
404.32	1884.13
404.51	1856.04
404.70	2054.99
404.89	1947.33
405.09	2008.18
405.28	2033.93
405.47	1998.82
405.66	2024.56
405.85	2001.16
406.05	1954.35
406.24	2003.50
406.43	2094.78
406.62	2031.58
406.81	2132.23
407.00	2047.97
407.20	2090.10
407.39	2113.50
407.58	2246.91
407.77	2256.28
407.96	2312.45
408.15	2225.85
408.34	2317.13
408.54	2251.60
408.73	2356.92
408.92	2387.35
409.11	2335.85
409.30	2321.81
409.49	2267.98
409.68	2377.98
409.87	2359.26
410.07	2448.20
410.26	2438.84
410.45	2333.51
410.64	2553.52
410.83	2572.25
411.02	2595.65
411.21	2569.91
411.40	2588.63
411.59	2677.57
411.78	2724.38
411.98	2794.60
412.17	2665.87
412.36	2651.83
412.55	2850.77
412.74	2829.71
412.93	2775.88
413.12	2853.11
413.31	2806.30
413.50	2867.16
413.69	2932.69
413.88	2963.12
414.07	2953.76
414.26	2970.14
414.45	2960.78
414.64	2967.80
414.83	3023.97
415.02	3052.06
415.22	3000.57
415.41	3241.64
415.60	3234.62
415.79	3194.83
415.98	3309.52
416.17	3407.82
416.36	3424.20
416.55	3302.50
416.74	3265.05
416.93	3382.07
417.12	3356.33
417.31	3435.91
417.50	3433.57
417.69	3529.53
417.88	3445.27
418.07	3634.85
418.26	3585.70
418.45	3534.21
418.64	3763.58
418.83	3660.60
419.02	3602.08
419.21	3623.15
419.39	3552.93
419.58	3571.66
419.77	3503.78
419.96	3737.84
420.15	3688.68
420.34	3794.01
420.53	3836.14
420.72	3892.31
420.91	3929.76
421.10	3927.42
421.29	3925.08
421.48	3953.16
421.67	3798.69
421.86	3896.99
422.05	3751.88
422.24	3915.72
422.43	3859.54
422.61	3948.48
422.80	3971.89
422.99	3997.64
423.18	3990.61
423.37	4102.96
423.56	4023.38
423.75	3957.85
423.94	3927.42
424.13	3648.90
424.32	3911.04
424.50	3992.95
424.69	4198.92
424.88	4079.55
425.07	4114.66
425.26	3964.87
425.45	3927.42
425.64	3969.55
425.83	3859.54
426.01	4264.46
426.20	3943.80
426.39	4044.45
426.58	3999.98
426.77	3955.51
426.96	4049.13
427.15	4154.45
427.33	4149.77
427.52	4189.56
427.71	4320.63
427.90	4128.70
428.09	4217.65
428.28	4201.26
428.46	4252.75
428.65	4215.30
428.84	4257.43
429.03	4362.76
429.22	4156.79
429.40	4227.01
429.59	4294.88
429.78	4135.73
429.97	3913.38
430.16	4030.40
430.34	4189.56
430.53	4184.88
430.72	4332.33
430.91	4294.88
431.10	4507.87
431.28	4498.51
431.47	4690.43
431.66	4678.73
431.85	4615.54
432.03	4793.42
432.22	4648.30
432.41	4744.27
432.60	4718.52
432.79	4819.16
432.97	4924.49
433.16	4903.42
433.35	4816.82
433.54	4631.92
433.72	4706.82
433.91	4802.78
434.10	4833.21
434.28	4858.95
434.47	4786.40
434.66	4987.68
434.85	5104.71
435.03	5111.73
435.22	5165.56
435.41	5231.10
435.59	5064.92
435.78	5111.73
435.97	5170.24
436.16	5177.26
436.34	5139.82
436.53	5289.61
436.72	5324.72
436.90	5172.58
437.09	5210.03
437.28	5109.39
437.46	5254.50
437.65	5284.93
437.84	5364.51
438.02	5296.63
438.21	5387.91
438.40	5203.01
438.58	5460.47
438.77	5516.64
438.96	5516.64
439.14	5544.73
439.33	5640.69
439.52	5706.23
439.70	5673.46
439.89	5741.33
440.08	5776.44
440.26	5951.98
440.45	5841.98
440.63	6101.78
440.82	6099.44
441.01	6097.10
441.19	6141.57
441.38	6230.51
441.57	6251.57
441.75	6218.80
441.94	6342.85
442.12	6497.33
442.31	6424.77
442.50	6361.58
442.68	6396.68
442.87	6466.90
443.05	6513.71
443.24	6431.79
443.43	6464.56
443.61	6595.63
443.80	6689.25
443.98	6457.54
444.17	6424.77
444.35	6651.80
444.54	6897.56
444.73	6612.01
444.91	6689.25
445.10	6590.95
445.28	6736.06
445.47	6473.92
445.65	6600.31
445.84	6478.60
446.02	6675.21
446.21	6518.39
446.39	6527.75
446.58	6876.49
446.77	6759.47
446.95	6764.15
447.14	6899.90
447.32	6918.62
447.51	6799.26
447.69	6757.13
447.88	6675.21
448.06	6810.96
448.25	6764.15
448.43	6871.81
448.62	6736.06
448.80	6761.81
448.99	6883.52
449.17	7061.40
449.36	6696.27
449.54	7063.74
449.73	7232.26
449.91	7026.29
450.10	7382.05
450.28	7522.48
450.46	7417.16
450.65	7316.51
450.83	7272.04
451.02	7398.43
451.20	7260.34
451.39	7286.09
451.57	7260.34
451.76	7316.51
451.94	7428.86
452.13	7403.11
452.31	7274.38
452.49	7248.64
452.68	7269.70
452.86	7433.54
453.05	7302.47
453.23	7632.49
453.42	7538.87
453.60	7307.15
453.78	7503.76
453.97	7566.95
454.15	7550.57
454.34	7646.53
454.52	7655.89
454.70	7606.74
454.89	7676.96
455.07	7726.11
455.26	7817.39
455.44	7801.01
455.62	7763.56
455.81	7798.66
455.99	7967.18
456.17	8124.00
456.36	8018.68
456.54	8180.17
456.73	7889.95
456.91	8308.90
457.09	8241.03
457.28	8280.82
457.46	8320.60
457.64	8388.48
457.83	8102.93
458.01	8292.52
458.19	8435.29
458.38	8170.81
458.56	8336.99
458.74	8245.71
458.93	8362.73
459.11	8400.18
459.29	8287.84
459.48	8524.23
459.66	8538.27
459.84	8571.04
460.03	8751.26
460.21	8411.89
460.39	8718.50
460.57	8528.91
460.76	8622.53
460.94	8779.35
461.12	8751.26
461.31	8877.65
461.49	8982.98
461.67	9013.40
461.85	8961.91
462.04	8926.80
462.22	9472.15
462.40	9273.20
462.59	9090.64
462.77	8945.53
462.95	9085.96
463.13	8847.22
463.32	8954.89
463.50	9275.54
463.68	9184.26
463.86	9275.54
464.05	9107.02
464.23	9130.43
464.41	9401.93
464.59	9008.72
464.78	9406.61
464.96	9254.48
465.14	9327.03
465.32	9472.15
465.50	9385.55
465.69	9488.53
465.87	9437.04
466.05	9401.93
466.23	9366.82
466.41	9373.85
466.60	9577.47
466.78	9317.67
466.96	9481.51
467.14	9287.25
467.32	9659.39
467.51	9596.20
467.69	9329.38
467.87	9638.33
468.05	9745.99
468.23	9474.49
468.41	9554.07
468.60	9643.01
468.78	9710.88
468.96	9589.17
469.14	9898.13
469.32	10052.60
469.50	9558.75
469.69	9891.10
469.87	10010.47
470.05	9748.33
470.23	9994.09
470.41	10066.64
470.59	10209.42
470.77	9949.62
470.95	10132.18
471.14	10324.10
471.32	10101.75
471.50	10619.01
471.68	10562.84
471.86	10413.04
472.04	10672.84
472.22	10649.44
472.40	10555.82
472.58	10572.20
472.77	10546.45
472.95	10675.18
473.13	11047.33
473.31	10633.05
473.49	10677.52
473.67	10810.93
473.85	10991.16
474.03	10960.73
474.21	11257.98
474.39	11183.08
474.57	11206.48
474.75	11227.55
474.93	11609.06
475.12	11300.11
475.30	11375.00
475.48	11602.04
475.66	11314.15
475.84	11543.52
476.02	11480.33
476.20	11524.80
476.38	11913.33
476.56	12006.95
476.74	11950.78
476.92	12140.36
477.10	12004.61
477.28	12355.69
477.46	12287.81
477.64	12348.67
477.82	12468.03
478.00	12863.58
478.18	12975.93
478.36	12634.21
478.54	12643.57
478.72	13048.49
478.90	13071.89
479.08	13263.82
479.26	13322.33
479.44	13399.57
479.62	13502.55
479.80	13437.02
479.98	13638.30
480.16	13902.78
480.34	13600.85
480.52	13996.40
480.70	13661.71
480.88	13905.12
481.06	13949.59
481.24	14382.59
481.41	14448.13
481.59	14614.30
481.77	14869.42
481.95	14562.81
482.13	14665.80
482.31	14728.99
482.49	15066.03
482.67	15218.16
482.85	15426.47
483.03	15342.21
483.21	15374.98
483.39	15602.01
483.57	15573.92
483.74	15817.34
483.92	16067.78
484.10	15962.45
484.28	15971.82
484.46	16294.81
484.64	16652.91
484.82	16421.20
485.00	16482.05
485.18	16805.05
485.35	16585.04
485.53	16367.37
485.71	16503.12
485.89	16657.59
486.07	16599.08
486.25	16814.41
486.43	17310.60
486.61	17156.13
486.78	17682.75
486.96	18099.36
487.14	18146.17
487.32	18008.08
487.50	18263.20
487.68	18492.57
487.85	18792.16
488.03	18773.44
488.21	18785.14
488.39	18829.61
488.57	18813.23
488.75	19264.95
488.92	19606.67
489.10	19632.41
489.28	19887.53
489.46	19735.40
489.64	20194.14
489.81	20678.63
489.99	20622.46
490.17	20556.93
490.35	20638.84
490.53	20470.33
490.70	20587.35
490.88	20884.60
491.06	21032.05
491.24	20952.48
491.41	20891.62
491.59	21085.89
491.77	20954.82
491.95	21373.77
492.13	21685.06
492.30	21610.17
492.48	22249.13
492.66	21994.01
492.84	22373.18
493.01	22431.69
493.19	22239.77
493.37	22665.75
493.54	22632.98
493.72	23300.03
493.90	22885.76
494.08	23260.24
494.25	23489.62
494.43	23517.70
494.61	23459.19
494.79	23852.40
494.96	23686.22
495.14	23812.61
495.32	23988.15
495.49	24290.08
495.67	24283.06
495.85	24507.75
496.02	24739.46
496.20	24856.49
496.38	24840.11
496.55	24922.02
496.73	25598.44
496.91	24922.02
497.09	25727.17
497.26	25710.78
497.44	25261.40
497.62	25460.35
497.79	25673.34
497.97	25343.32
498.14	25902.71
498.32	26122.72
498.50	26089.95
498.67	26312.30
498.85	26232.72
499.03	26984.04
499.20	27131.49
499.38	26635.30
499.56	27122.13
499.73	26869.35
499.91	26834.24
500.08	26902.12
500.26	26595.51
500.44	27391.29
500.61	27138.51
500.79	26988.72
500.97	27505.98
501.14	27709.60
501.32	27489.59
501.49	27733.01
501.67	27690.88
501.84	27597.26
502.02	27953.02
502.20	28107.49
502.37	28348.57
502.55	28308.78
502.72	28439.85
502.90	28379.00
503.07	28388.36
503.25	28711.35
503.43	28236.22
503.60	28957.11
503.78	28774.55
503.95	28748.80
504.13	29113.92
504.30	29057.75
504.48	29322.23
504.65	29394.79
504.83	29486.07
505.01	29865.24
505.18	29673.31
505.36	29984.60
505.53	29619.48
505.71	30211.64
505.88	30108.65
506.06	29778.64
506.23	30253.76
506.41	29823.11
506.58	30340.36
506.76	30274.83
506.93	30361.43
507.11	30586.12
507.28	30331.00
507.46	30384.83
507.63	30541.65
507.81	31014.44
507.98	30724.21
508.16	31110.40
508.33	31051.89
508.50	31494.25
508.68	31615.96
508.85	31587.87
509.03	31690.85
509.20	31793.84
509.38	31634.68
509.55	31770.43
509.73	31981.08
509.90	32034.91
510.08	31985.76
510.25	31850.01
510.42	32020.87
510.60	32451.53
510.77	32257.26
510.95	32507.70
511.12	32608.34
511.30	32435.14
511.47	32755.80
511.64	33289.44
511.82	33214.54
511.99	32713.67
512.17	32872.82
512.34	32926.66
512.51	33074.11
512.69	33626.48
512.86	33214.54
513.04	33113.90
513.21	33703.71
513.38	33221.56
513.56	33497.75
513.73	33385.40
513.90	33432.21
514.08	32973.47
514.25	33813.72
514.43	33738.82
514.60	33682.65
514.77	33802.02
514.95	33851.17
515.12	34040.75
515.29	34286.51
515.47	34796.74
515.64	34508.86
515.81	34579.07
515.99	34527.58
516.16	33970.54
516.33	34377.79
516.51	34450.35
516.68	33773.93
516.85	33787.97
517.03	34127.35
517.20	34321.62
517.37	34859.94
517.54	34724.19
517.72	34944.20
517.89	34602.48
518.06	34546.31
518.24	34827.17
518.41	34792.06
518.58	34838.87
518.75	34885.68
518.93	35611.25
519.10	35182.93
519.27	35784.45
519.45	35728.28
519.62	35971.69
519.79	36009.14
519.96	36060.63
520.14	36517.04
520.31	35985.74
520.48	36109.78
520.65	35929.56
520.83	36563.85
521.00	36715.98
521.17	36474.91
521.34	36226.81
521.52	37081.11
521.69	36877.48
521.86	37324.52
522.03	37284.73
522.20	37151.32
522.38	37036.64
522.55	37209.84
522.72	36947.70
522.89	37280.05
523.07	37324.52
523.24	36985.15
523.41	37406.44
523.58	37661.56
523.75	38136.69
523.92	37956.47
524.10	37933.06
524.27	38302.87
524.44	37830.08
524.61	38078.18
524.78	38199.88
524.96	38366.06
525.13	38319.25
525.30	38160.09
525.47	38801.40
525.64	38211.59
525.81	38499.47
525.98	38206.90
526.16	37904.98
526.33	37792.63
526.50	38202.22
526.67	38141.37
526.84	38038.39
527.01	38141.37
527.18	38405.85
527.36	38829.49
527.53	39040.14
527.70	38948.85
527.87	38871.62
528.04	39276.53
528.21	38946.51
528.38	39297.59
528.55	39522.29
528.72	39232.06
528.89	39964.65
529.07	39536.33
529.24	39222.70
529.41	39693.15
529.58	39271.85
529.75	39931.88
529.92	40189.34
530.09	39679.10
530.26	39810.17
530.43	40116.78
530.60	39805.49
530.77	40142.53
530.94	40421.05
531.11	40362.54
531.28	39988.05
531.46	40161.25
531.63	40343.81
531.80	40484.25
531.97	40271.26
532.14	40203.38
532.31	40065.29
532.48	40240.83
532.65	40371.90
532.82	40411.69
532.99	40657.45
533.16	40512.33
533.33	40823.62
533.50	40926.61
533.67	40718.30
533.84	40758.09
534.01	40942.99
534.18	40477.22
534.35	40957.03
534.52	40711.28
534.69	41186.41
534.86	41074.06
535.03	40964.06
535.20	41525.78
535.37	41490.68
535.54	41731.75
535.71	41312.80
535.88	41514.08
536.05	41228.54
536.22	41649.83
536.38	41486.00
536.55	41565.57
536.72	41331.52
536.89	41184.07
537.06	41432.16
537.23	41783.24
537.40	41373.65
537.57	41811.33
537.74	41968.15
537.91	42234.97
538.08	42169.43
538.25	41656.85
538.42	41654.51
538.59	42330.93
538.75	41371.31
538.92	42150.71
539.09	42384.76
539.26	41951.76
539.43	42199.86
539.60	41881.55
539.77	41968.15
539.94	42164.75
540.11	41888.57
540.28	42176.45
540.44	41844.10
540.61	42415.19
540.78	42330.93
540.95	42061.77
541.12	42438.59
541.29	42305.18
541.46	42366.04
541.62	42658.60
541.79	42581.37
541.96	41961.12
542.13	42440.93
542.30	42759.25
542.47	43065.86
542.63	42955.85
542.80	42848.19
542.97	43082.24
543.14	43203.95
543.31	42909.04
543.48	43672.06
543.64	44009.09
543.81	43910.79
543.98	43442.68
544.15	43330.34
544.32	43913.13
544.48	43718.87
544.65	43634.61
544.82	43917.81
544.99	43540.99
545.16	43964.62
545.32	43646.31
545.49	43667.37
545.66	43885.04
545.83	43552.69
546.00	44390.60
546.16	43896.75
546.33	44170.59
546.50	43339.70
546.67	44210.38
546.83	43480.13
547.00	43676.74
547.17	43819.51
547.34	43791.42
547.50	44161.23
547.67	44091.01
547.84	44643.38
548.00	44744.02
548.17	44453.79
548.34	44399.96
548.51	45064.67
548.67	44729.98
548.84	44921.90
549.01	44397.62
549.18	44341.45
549.34	44533.37
549.51	44762.75
549.68	44524.01
549.84	44362.51
550.01	45050.63
550.18	44535.71
550.34	44788.49
550.51	44699.55
550.68	44966.37
550.84	44540.39
551.01	44666.78
551.18	44421.03
551.34	44755.72
551.51	44421.03
551.68	44992.12
551.84	44837.64
552.01	45095.10
552.18	45085.74
552.34	44854.03
552.51	44849.35
552.68	45305.75
552.84	45549.17
553.01	45581.93
553.18	45048.29
553.34	45144.25
553.51	44961.69
553.67	45280.00
553.84	46078.13
554.01	45631.08
554.17	45757.47
554.34	45780.88
554.51	45984.51
554.67	45755.13
554.84	45352.56
555.00	45139.57
555.17	45202.77
555.33	45598.32
555.50	45195.74
555.67	45277.66
555.83	45525.76
556.00	45352.56
556.16	45991.53
556.33	45769.18
556.50	45535.12
556.66	45914.29
556.83	45350.22
556.99	46160.05
557.16	45914.29
557.32	45673.21
557.49	45776.20
557.65	45504.70
557.82	45979.82
557.98	45823.01
558.15	45661.51
558.32	45422.78
558.48	46059.40
558.65	45570.23
558.81	45996.21
558.98	45907.27
559.14	46335.59
559.31	45968.12
559.47	46169.41
559.64	46021.95
559.80	45963.44
559.97	46101.53
560.13	46057.06
560.30	45928.33
560.46	46169.41
560.63	46040.68
560.79	46153.02
560.96	46129.62
561.12	45872.16
561.29	45961.10
561.45	46457.29
561.61	46291.12
561.78	46363.67
561.94	45914.29
562.11	46260.69
562.27	46014.93
562.44	46204.52
562.60	46382.40
562.77	46536.87
562.93	46681.98
563.10	46101.53
563.26	46323.88
563.42	46677.30
563.59	46220.90
563.75	46429.21
563.92	46511.13
564.08	46600.07
564.24	46567.30
564.41	46918.38
564.57	46553.26
564.74	46635.17
564.90	46820.08
565.07	46337.93
565.23	46583.68
565.39	46754.54
565.56	46717.09
565.72	46417.50
565.88	46356.65
566.05	46234.94
566.21	46574.32
566.38	46536.87
566.54	46536.87
566.70	47023.70
566.87	46983.91
567.03	46396.44
567.19	47206.26
567.36	46703.05
567.52	46550.91
567.68	47269.46
567.85	46529.85
568.01	46515.81
568.17	46754.54
568.34	46752.20
568.50	46679.64
568.66	46368.35
568.83	46340.27
568.99	46178.77
569.15	46440.91
569.32	46216.22
569.48	46344.95
569.64	46567.30
569.81	46351.97
569.97	46625.81
570.13	46660.92
570.30	46761.56
570.46	46380.06
570.62	46258.35
570.78	46363.67
570.95	46635.17
571.11	46955.83
571.27	46487.72
571.43	46326.22
571.60	46553.26
571.76	47157.11
571.92	46457.29
572.09	46981.57
572.25	46777.95
572.41	46696.03
572.57	46841.14
572.74	47267.12
572.90	46990.94
573.06	46731.14
573.22	47114.98
573.38	47107.96
573.55	46944.12
573.71	46969.87
573.87	46714.75
574.03	46574.32
574.20	46962.85
574.36	46742.84
574.52	46899.65
574.68	47112.64
574.84	47180.52
575.01	47131.37
575.17	46822.42
575.33	46834.12
575.49	46831.78
575.65	47358.40
575.82	46932.42
575.98	46665.60
576.14	47068.17
576.30	46761.56
576.46	46403.46
576.62	46569.64
576.79	46611.77
576.95	46499.42
577.11	46897.31
577.27	46808.37
577.43	46829.44
577.59	46932.42
577.75	46796.67
577.92	46487.72
578.08	46389.42
578.24	46607.09
578.40	46934.76
578.56	46742.84
578.72	47051.79
578.88	47009.66
579.04	47122.01
579.21	46532.19
579.37	47203.92
579.53	46752.20
579.69	46490.06
579.85	47271.80
580.01	47140.73
580.17	47061.15
580.33	47077.54
580.49	46986.25
580.65	47222.65
580.82	47187.54
580.98	46845.82
581.14	46866.89
581.30	47381.80
581.46	46972.21
581.62	47159.45
581.78	47122.01
581.94	47054.13
582.10	47208.61
582.26	47117.32
582.42	47295.21
582.58	47224.99
582.74	47379.46
582.90	46925.40
583.06	47477.77
583.22	47009.66
583.38	47182.86
583.54	47140.73
583.70	46946.47
583.86	46855.18
584.02	46965.19
584.18	47147.75
584.34	46873.91
584.50	46930.08
584.66	46894.97
584.82	46927.74
584.98	47114.98
585.14	47285.84
585.30	46916.04
585.46	46904.34
585.62	47182.86
585.78	46703.05
585.94	46836.46
586.10	46752.20
586.26	46983.91
586.42	47192.22
586.58	47437.98
586.74	47065.83
586.90	46803.69
587.06	46492.40
587.22	47182.86
587.38	46684.33
587.54	47349.04
587.70	46834.12
587.86	47217.97
588.02	46873.91
588.18	47164.14
588.34	46480.70
588.49	46525.17
588.65	46410.48
588.81	46326.22
588.97	46511.13
589.13	46543.89
589.29	46506.44
589.45	46707.73
589.61	47365.42
589.77	47435.64
589.93	46913.70
