SpectraSuite Data File
++++++++++++++++++++++++++++++++++++
Date: Fri Oct 25 11:33:57 EDT 2013
User: price-jones
Dark Spectrum Present: No
Reference Spectrum Present: No
Number of Sampled Component Spectra: 1
Spectrometers: USB2+H05261
Integration Time (usec): 100000 (USB2+H05261)
Spectra Averaged: 1 (USB2+H05261)
Boxcar Smoothing: 0 (USB2+H05261)
Correct for Electrical Dark: No (USB2+H05261)
Strobe/Lamp Enabled: No (USB2+H05261)
Correct for Detector Non-linearity: No (USB2+H05261)
Correct for Stray Light: No (USB2+H05261)
Number of Pixels in Processed Spectrum: 2048
>>>>>Begin Processed Spectral Data<<<<<
365.73	252.78
365.92	252.78
366.12	252.78
366.32	133.41
366.52	173.20
366.72	177.88
366.91	149.79
367.11	177.88
367.31	138.09
367.51	163.84
367.70	173.20
367.90	184.90
368.10	170.86
368.30	147.45
368.49	194.26
368.69	163.84
368.89	212.99
369.09	212.99
369.28	205.97
369.48	138.09
369.68	152.13
369.87	180.22
370.07	222.35
370.27	294.91
370.47	355.76
370.66	489.17
370.86	486.83
371.06	475.13
371.25	505.56
371.45	524.28
371.65	601.52
371.84	526.62
372.04	524.28
372.24	538.32
372.44	573.43
372.63	561.73
372.83	613.22
373.03	592.16
373.22	594.50
373.42	547.69
373.62	638.97
373.81	657.69
374.01	613.22
374.21	653.01
374.40	608.54
374.60	636.63
374.79	517.26
374.99	636.63
375.19	636.63
375.38	692.80
375.58	650.67
375.78	648.33
375.97	641.31
376.17	751.31
376.37	631.94
376.56	692.80
376.76	664.71
376.95	594.50
377.15	615.56
377.35	706.84
377.54	681.10
377.74	627.26
377.93	685.78
378.13	667.05
378.33	713.86
378.52	669.39
378.72	744.29
378.91	662.37
379.11	669.39
379.31	765.36
379.50	748.97
379.70	709.18
379.89	795.78
380.09	718.54
380.28	758.33
380.48	720.88
380.68	671.73
380.87	802.80
381.07	765.36
381.26	763.01
381.46	840.25
381.65	664.71
381.85	819.19
382.04	711.52
382.24	760.67
382.43	770.04
382.63	739.61
382.83	739.61
383.02	844.93
383.22	833.23
383.41	702.16
383.61	767.70
383.80	837.91
384.00	812.17
384.19	814.51
384.39	880.04
384.58	798.12
384.78	819.19
384.97	784.08
385.17	847.27
385.36	732.59
385.56	791.10
385.75	786.42
385.95	821.53
386.14	791.10
386.34	908.13
386.53	873.02
386.72	833.23
386.92	947.92
387.11	863.66
387.31	933.87
387.50	868.34
387.70	915.15
387.89	894.08
388.09	945.58
388.28	854.30
388.48	964.30
388.67	954.94
388.86	929.19
389.06	901.11
389.25	887.06
389.45	933.87
389.64	915.15
389.84	973.66
390.03	896.43
390.22	926.85
390.42	952.60
390.61	873.02
390.81	898.77
391.00	943.24
391.19	1086.01
391.39	926.85
391.58	994.73
391.78	1004.09
391.97	1011.11
392.16	1013.45
392.36	1034.52
392.55	1123.46
392.75	1104.73
392.94	1062.60
393.13	1107.07
393.33	1081.33
393.52	1057.92
393.71	1097.71
393.91	1088.35
394.10	1076.65
394.29	1191.33
394.49	1015.79
394.68	1174.95
394.88	1111.75
395.07	1067.28
395.26	1102.39
395.46	1130.48
395.65	1198.35
395.84	1156.22
396.04	1181.97
396.23	1165.59
396.42	1121.12
396.62	1151.54
396.81	1160.91
397.00	1193.67
397.19	1193.67
397.39	1228.78
397.58	1233.46
397.77	1156.22
397.97	1306.02
398.16	1203.04
398.35	1221.76
398.55	1240.48
398.74	1266.23
398.93	1425.39
399.12	1313.04
399.32	1238.14
399.51	1303.68
399.70	1341.13
399.90	1362.19
400.09	1352.83
400.28	1329.42
400.47	1364.53
400.67	1327.08
400.86	1397.30
401.05	1399.64
401.24	1469.86
401.44	1448.79
401.63	1514.33
401.82	1502.62
402.01	1357.51
402.21	1455.81
402.40	1486.24
402.59	1472.20
402.78	1511.99
402.97	1462.83
403.17	1610.29
403.36	1650.08
403.55	1654.76
403.74	1650.08
403.93	1554.12
404.13	1551.78
404.32	1657.10
404.51	1650.08
404.70	1643.06
404.89	1624.33
405.09	1699.23
405.28	1661.78
405.47	1610.29
405.66	1685.19
405.85	1729.66
406.05	1673.48
406.24	1650.08
406.43	1647.74
406.62	1797.53
406.81	1783.49
407.00	1612.63
407.20	1783.49
407.39	1771.79
407.58	1823.28
407.77	1874.77
407.96	1774.13
408.15	1858.39
408.34	1799.87
408.54	1870.09
408.73	1809.23
408.92	1909.88
409.11	1959.03
409.30	2083.08
409.49	2043.29
409.68	1980.09
409.87	1888.81
410.07	2015.20
410.26	2015.20
410.45	2083.08
410.64	1984.77
410.83	2099.46
411.02	2087.76
411.21	2094.78
411.40	2146.27
411.59	2176.70
411.78	2115.84
411.98	2157.97
412.17	2218.83
412.36	2218.83
412.55	2242.23
412.74	2305.43
412.93	2249.25
413.12	2310.11
413.31	2431.82
413.50	2392.03
413.69	2277.34
413.88	2392.03
414.07	2356.92
414.26	2396.71
414.45	2534.80
414.64	2513.74
414.83	2539.48
415.02	2569.91
415.22	2682.25
415.41	2583.95
415.60	2464.58
415.79	2609.70
415.98	2663.53
416.17	2682.25
416.36	2689.28
416.55	2729.06
416.74	2923.33
416.93	2843.75
417.12	2757.15
417.31	2775.88
417.50	2942.05
417.69	3023.97
417.88	2869.50
418.07	2930.35
418.26	2977.16
418.45	2991.20
418.64	3096.53
418.83	3002.91
419.02	3054.40
419.21	3063.76
419.39	3126.96
419.58	2963.12
419.77	2967.80
419.96	3143.34
420.15	3042.70
420.34	3063.76
420.53	3206.53
420.72	3150.36
420.91	3190.15
421.10	3253.34
421.29	3157.38
421.48	3239.30
421.67	3213.56
421.86	3323.56
422.05	3311.86
422.24	3288.45
422.43	3215.90
422.61	3328.24
422.80	3297.81
422.99	3400.80
423.18	3428.88
423.37	3475.70
423.56	3414.84
423.75	3349.31
423.94	3302.50
424.13	3141.00
424.32	3274.41
424.50	3405.48
424.69	3346.97
424.88	3527.19
425.07	3403.14
425.26	3342.28
425.45	3351.65
425.64	3424.20
425.83	3370.37
426.01	3494.42
426.20	3449.95
426.39	3452.29
426.58	3447.61
426.77	3426.54
426.96	3637.19
427.15	3461.65
427.33	3660.60
427.52	3447.61
427.71	3597.40
427.90	3700.39
428.09	3672.30
428.28	3817.41
428.46	3695.71
428.65	3646.55
428.84	3679.32
429.03	3768.26
429.22	3733.15
429.40	3777.62
429.59	3733.15
429.78	3634.85
429.97	3613.79
430.16	3829.12
430.34	3889.97
430.53	3899.33
430.72	3824.44
430.91	3740.18
431.10	3791.67
431.28	3801.03
431.47	3847.84
431.66	3925.08
431.85	3983.59
432.03	4037.42
432.22	4161.47
432.41	3934.44
432.60	3995.29
432.79	4088.92
432.97	4081.89
433.16	4161.47
433.35	4154.45
433.54	4014.02
433.72	4070.19
433.91	4156.79
434.10	4203.60
434.28	4119.34
434.47	4161.47
434.66	4241.05
434.85	4292.54
435.03	4306.59
435.22	4236.37
435.41	4482.13
435.59	4325.31
435.78	4482.13
435.97	4337.01
436.16	4215.30
436.34	4390.84
436.53	4402.55
436.72	4456.38
436.90	4409.57
437.09	4484.47
437.28	4395.53
437.46	4587.45
437.65	4449.36
437.84	4603.83
438.02	4414.25
438.21	4524.26
438.40	4643.62
438.58	4718.52
438.77	4854.27
438.96	4676.39
439.14	4896.40
439.33	4816.82
439.52	4849.59
439.70	4990.02
439.89	4973.64
440.08	5022.79
440.26	4983.00
440.45	4938.53
440.63	5081.30
440.82	5137.48
441.01	5039.17
441.19	5137.48
441.38	5289.61
441.57	5268.55
441.75	5430.04
441.94	5313.02
442.12	5324.72
442.31	5413.66
442.50	5420.68
442.68	5226.42
442.87	5348.12
443.05	5373.87
443.24	5722.61
443.43	5533.03
443.61	5397.28
443.80	5542.39
443.98	5231.10
444.17	5308.34
444.35	5481.53
444.54	5486.22
444.73	5408.98
444.91	5561.11
445.10	5685.16
445.28	5636.01
445.47	5547.07
445.65	5654.73
445.84	5680.48
446.02	5729.63
446.21	5792.83
446.39	5699.20
446.58	5834.96
446.77	5659.42
446.95	5455.79
447.14	5710.91
447.32	5797.51
447.51	5540.05
447.69	5713.25
447.88	5841.98
448.06	5720.27
448.25	5708.57
448.43	5685.16
448.62	5837.30
448.80	5912.19
448.99	5846.66
449.17	5944.96
449.36	5811.55
449.54	5731.97
449.73	5891.13
449.91	6101.78
450.10	5951.98
450.28	5959.00
450.46	5991.77
450.65	6113.48
450.83	5902.83
451.02	6132.20
451.20	6104.12
451.39	6176.67
451.57	6171.99
451.76	6218.80
451.94	6069.01
452.13	6143.91
452.31	6293.70
452.49	6108.80
452.68	6197.74
452.86	6160.29
453.05	6389.66
453.23	6260.93
453.42	6380.30
453.60	6188.38
453.78	6387.32
453.97	6424.77
454.15	6356.90
454.34	6303.06
454.52	6473.92
454.70	6504.35
454.89	6553.50
455.07	6492.65
455.26	6555.84
455.44	6565.20
455.62	6616.69
455.81	6698.61
455.99	6787.55
456.17	6834.36
456.36	6764.15
456.54	6839.05
456.73	6883.52
456.91	6911.60
457.09	6904.58
457.28	6902.24
457.46	7019.27
457.64	7049.69
457.83	7183.10
458.01	6937.35
458.19	7241.62
458.38	6967.77
458.56	7133.95
458.74	6913.94
458.93	7045.01
459.11	7005.22
459.29	7082.46
459.48	7150.34
459.66	7311.83
459.84	7157.36
460.03	7332.90
460.21	7302.47
460.39	7449.93
460.57	7510.78
460.76	7403.11
460.94	7391.41
461.12	7531.84
461.31	7398.43
461.49	7506.10
461.67	7368.01
461.85	7578.65
462.04	7449.93
462.22	7852.50
462.40	7496.74
462.59	7618.44
462.77	7461.63
462.95	7658.23
463.13	7564.61
463.32	7672.28
463.50	7822.07
463.68	7763.56
463.86	7815.05
464.05	7555.25
464.23	7702.70
464.41	7929.74
464.59	7838.45
464.78	7901.65
464.96	7918.03
465.14	7857.18
465.32	7918.03
465.50	7960.16
465.69	8107.62
465.87	8030.38
466.05	7978.89
466.23	8088.89
466.41	8025.70
466.60	8404.86
466.78	8205.92
466.96	8166.13
467.14	8046.76
467.32	8102.93
467.51	8269.11
467.69	7903.99
467.87	8187.19
468.05	8388.48
468.23	8299.54
468.41	8273.79
468.60	8393.16
468.78	8259.75
468.96	8339.33
469.14	8456.36
469.32	8557.00
469.50	8308.90
469.69	8638.92
469.87	8798.07
470.05	8613.17
470.23	8692.75
470.41	8704.45
470.59	8692.75
470.77	8634.24
470.95	8795.73
471.14	8889.35
471.32	8760.63
471.50	8821.48
471.68	9015.74
471.86	8957.23
472.04	9188.94
472.22	9202.99
472.40	9018.08
472.58	9270.86
472.77	9067.24
472.95	9350.44
473.13	9614.92
473.31	9242.78
473.49	9289.59
473.67	9472.15
473.85	9556.41
474.03	9706.20
474.21	9540.02
474.39	9643.01
474.57	9591.52
474.75	9788.12
474.93	9884.08
475.12	9860.68
475.30	9811.53
475.48	9687.48
475.66	9834.93
475.84	9806.84
476.02	10040.90
476.20	9942.60
476.38	10321.76
476.56	10434.11
476.74	10450.49
476.92	10251.55
477.10	10387.30
477.28	10516.03
477.46	10658.80
477.64	10663.48
477.82	10707.95
478.00	11023.92
478.18	10766.46
478.36	10949.03
478.54	11330.53
478.72	11147.97
478.90	11311.81
479.08	11492.03
479.26	11346.92
479.44	11623.10
479.62	11456.92
479.80	11866.52
479.98	11646.51
480.16	12116.95
480.34	12030.35
480.52	12325.26
480.70	12255.04
480.88	12011.63
481.06	12182.49
481.24	12269.09
481.41	12444.63
481.59	12624.85
481.77	12807.41
481.95	12786.35
482.13	12784.01
482.31	12870.61
482.49	13102.32
482.67	13076.57
482.85	13277.86
483.03	13448.72
483.21	13439.36
483.39	13715.54
483.57	13579.79
483.74	13862.99
483.92	13848.95
484.10	13558.72
484.28	14015.13
484.46	14544.09
484.64	14565.15
484.82	14394.29
485.00	14607.28
485.18	14595.58
485.35	15049.64
485.53	14939.64
485.71	14941.98
485.89	15342.21
486.07	15143.27
486.25	15194.76
486.43	15393.70
486.61	15597.33
486.78	15831.38
486.96	15716.70
487.14	16133.31
487.32	16077.14
487.50	16072.46
487.68	16109.91
487.85	16468.01
488.03	16592.06
488.21	16856.54
488.39	16968.88
488.57	17036.76
488.75	16901.01
488.92	17076.55
489.10	17291.88
489.28	17539.97
489.46	17633.60
489.64	17455.72
489.81	17832.54
489.99	18075.96
490.17	18223.41
490.35	18183.62
490.53	18310.01
490.70	18490.23
490.88	18387.25
491.06	18499.59
491.24	18878.76
491.41	19012.17
491.59	18944.30
491.77	18960.68
491.95	19307.08
492.13	19105.79
492.30	19218.14
492.48	19452.19
492.66	19920.30
492.84	19644.12
493.01	20027.96
493.19	20013.92
493.37	20360.32
493.54	20526.50
493.72	20585.01
493.90	20184.78
494.08	20467.98
494.25	20697.36
494.43	20622.46
494.61	21289.51
494.79	21263.77
494.96	20805.02
495.14	21191.21
495.32	21233.34
495.49	21429.94
495.67	21638.25
495.85	21469.73
496.02	22118.06
496.20	22050.19
496.38	22281.90
496.55	22125.08
496.73	22750.01
496.91	22230.41
497.09	22373.18
497.26	22803.84
497.44	22424.67
497.62	23028.53
497.79	23208.75
497.97	22986.40
498.14	23161.94
498.32	23606.64
498.50	23807.93
498.67	23639.41
498.85	23674.52
499.03	23927.30
499.20	23775.16
499.38	24121.56
499.56	23941.34
499.73	24030.28
499.91	24339.23
500.08	24662.22
500.26	24107.52
500.44	24542.86
500.61	24760.53
500.79	24673.93
500.97	25034.37
501.14	25184.16
501.32	24947.77
501.49	25139.69
501.67	24907.98
501.84	25575.03
502.02	25123.31
502.20	25455.67
502.37	25404.17
502.55	25289.49
502.72	25659.29
502.90	25640.57
503.07	25593.76
503.25	25631.21
503.43	25783.34
503.60	26129.74
503.78	25937.82
503.95	25942.50
504.13	26309.96
504.30	26422.31
504.48	26380.18
504.65	26504.23
504.83	26347.41
505.01	26590.83
505.18	26897.44
505.36	27246.18
505.53	26609.55
505.71	27131.49
505.88	27428.74
506.06	27164.26
506.23	27548.11
506.41	27311.71
506.58	26988.72
506.76	27552.79
506.93	27459.16
507.11	27826.63
507.28	27737.69
507.46	28100.47
507.63	28004.51
507.81	28170.69
507.98	28016.21
508.16	28109.83
508.33	28648.16
508.50	28334.53
508.68	28357.93
508.85	28816.68
509.03	28205.80
509.20	28957.11
509.38	28713.69
509.55	28910.30
509.73	29202.86
509.90	29266.06
510.08	28914.98
510.25	29006.26
510.42	29076.48
510.60	29640.54
510.77	29591.39
510.95	29930.77
511.12	29378.40
511.30	29551.60
511.47	29701.40
511.64	30185.89
511.82	30087.59
511.99	29977.58
512.17	30005.67
512.34	30010.35
512.51	30422.28
512.69	30562.72
512.86	30733.57
513.04	30443.35
513.21	30532.29
513.38	30843.58
513.56	30792.09
513.73	30733.57
513.90	30616.55
514.08	30836.56
514.25	30883.37
514.43	31288.28
514.60	31409.99
514.77	31372.54
514.95	31473.18
515.12	31417.01
515.29	31323.39
515.47	31569.15
515.64	31938.95
515.81	31590.21
515.99	31892.14
516.16	32238.54
516.33	31754.05
516.51	32182.37
516.68	31999.80
516.85	31840.65
517.03	32404.72
517.20	32512.38
517.37	32212.79
517.54	32732.39
517.72	32751.12
517.89	32769.84
518.06	32662.18
518.24	32657.49
518.41	32531.11
518.58	32800.27
518.75	32355.57
518.93	32776.86
519.10	32924.32
519.27	33090.49
519.45	33193.48
519.62	33163.05
519.79	33516.47
519.96	33567.96
520.14	33631.16
520.31	33113.90
520.48	33680.31
520.65	33914.36
520.83	33963.51
521.00	33743.50
521.17	33827.76
521.34	34263.10
521.52	34235.02
521.69	34235.02
521.86	34005.64
522.03	34429.28
522.20	34150.76
522.38	34838.87
522.55	34749.93
522.72	34906.75
522.89	34513.54
523.07	35033.14
523.24	34473.75
523.41	34761.64
523.58	34820.15
523.75	35269.53
523.92	35218.04
524.10	35093.99
524.27	35297.62
524.44	35426.35
524.61	35447.41
524.78	35615.93
524.96	35159.53
525.13	35651.04
525.30	35779.77
525.47	35761.05
525.64	35442.73
525.81	36177.66
525.98	36151.91
526.16	36378.95
526.33	35461.46
526.50	36149.57
526.67	35936.59
526.84	36039.57
527.01	36282.98
527.18	36261.92
527.36	36322.77
527.53	36383.63
527.70	36968.76
527.87	36690.24
528.04	36243.20
528.21	36718.32
528.38	36774.50
528.55	37113.87
528.72	36374.27
528.89	36856.42
529.07	36910.25
529.24	36711.30
529.41	37202.82
529.58	37310.48
529.75	36935.99
529.92	37099.83
530.09	37069.40
530.26	37516.45
530.43	37411.12
530.60	36879.82
530.77	37448.57
530.94	37811.35
531.11	37350.27
531.28	37479.00
531.46	37825.40
531.63	37778.59
531.80	37661.56
531.97	38120.31
532.14	37851.14
532.31	38227.97
532.48	38204.56
532.65	38389.47
532.82	38106.26
532.99	37993.92
533.16	38169.46
533.33	38075.84
533.50	38326.27
533.67	38532.24
533.84	38314.57
534.01	38888.00
534.18	38314.57
534.35	38944.17
534.52	38410.53
534.69	38813.10
534.86	38778.00
535.03	38986.30
535.20	39152.48
535.37	39033.11
535.54	39072.90
535.71	39260.15
535.88	39159.50
536.05	39243.76
536.22	39152.48
536.38	39133.76
536.55	39269.51
536.72	39152.48
536.89	39342.06
537.06	39651.02
537.23	39732.93
537.40	38995.67
537.57	39866.34
537.74	39456.75
537.91	39789.11
538.08	39604.20
538.25	39606.55
538.42	40236.15
538.59	40030.18
538.75	40093.38
538.92	40100.40
539.09	40568.51
539.26	39941.24
539.43	40088.70
539.60	40364.88
539.77	40168.27
539.94	40648.08
540.11	40273.60
540.28	40123.80
540.44	40105.08
540.61	40297.00
540.78	40301.68
540.95	39936.56
541.12	40250.19
541.29	40041.88
541.46	40577.87
541.62	40973.42
541.79	40486.59
541.96	40713.62
542.13	40339.13
542.30	41221.52
542.47	40533.40
542.63	40746.39
542.80	40914.90
542.97	41137.26
543.14	41642.81
543.31	41357.27
543.48	41361.95
543.64	41448.55
543.81	41680.26
543.98	41493.02
544.15	41502.38
544.32	41495.36
544.48	42148.37
544.65	41394.71
544.82	42473.70
544.99	42078.15
545.16	42080.49
545.32	41556.21
545.49	42410.51
545.66	42082.83
545.83	42223.26
546.00	42108.58
546.16	41867.50
546.33	42150.71
546.50	42127.30
546.67	42747.54
546.83	42024.32
547.00	42178.79
547.17	42270.08
547.34	42117.94
547.50	43063.52
547.67	42635.20
547.84	42359.02
548.00	42696.05
548.17	42705.41
548.34	42787.33
548.51	42824.78
548.67	42684.35
548.84	42670.31
549.01	43100.97
549.18	42937.13
549.34	42913.72
549.51	43019.05
549.68	43250.76
549.84	42873.93
550.01	43110.33
550.18	42813.08
550.34	43569.07
550.51	43028.41
550.68	43161.82
550.84	43330.34
551.01	43047.13
551.18	42981.60
551.34	43248.42
551.51	43423.96
551.68	43264.80
551.84	43227.35
552.01	43077.56
552.18	43648.65
552.34	43924.83
552.51	43489.49
552.68	43323.32
552.84	43117.35
553.01	43590.14
553.18	43735.25
553.34	44130.80
553.51	43454.39
553.67	43828.87
553.84	43889.73
554.01	43852.28
554.17	43636.95
554.34	44016.11
554.51	43969.30
554.67	44460.82
554.84	44673.81
555.00	43871.00
555.17	44266.55
555.33	44774.45
555.50	44233.78
555.67	44102.71
555.83	44355.49
556.00	44296.98
556.16	45036.59
556.33	44079.31
556.50	44299.32
556.66	44102.71
556.83	44224.42
556.99	44737.00
557.16	44942.97
557.32	44552.10
557.49	44713.59
557.65	44414.01
557.82	44879.77
557.98	44828.28
558.15	44982.76
558.32	44559.12
558.48	44259.53
558.65	44975.73
558.81	44889.13
558.98	44694.87
559.14	44788.49
559.31	44542.74
559.47	44753.38
559.64	44758.06
559.80	44994.46
559.97	44828.28
560.13	44994.46
560.30	44612.95
560.46	45057.65
560.63	45717.68
560.79	45130.21
560.96	45481.29
561.12	44971.05
561.29	45092.76
561.45	45577.25
561.61	45221.49
561.78	45202.77
561.94	45055.31
562.11	45450.86
562.27	45123.19
562.44	45364.26
562.60	45600.66
562.77	45502.35
562.93	45102.12
563.10	45837.05
563.26	45469.59
563.42	45895.56
563.59	45460.23
563.75	45551.51
563.92	45045.95
564.08	45661.51
564.24	45607.68
564.41	45518.74
564.57	45272.98
564.74	45684.92
564.90	45172.34
565.07	45769.18
565.23	45832.37
565.39	45631.08
565.56	45490.65
565.72	45485.97
565.88	45708.32
566.05	45701.30
566.21	45848.75
566.38	45851.09
566.54	45949.40
566.70	45301.07
566.87	46092.17
567.03	45603.00
567.19	46190.47
567.36	46401.12
567.52	46082.81
567.68	45977.48
567.85	46075.79
568.01	46347.29
568.17	45794.92
568.34	46120.26
568.50	46253.67
568.66	46270.05
568.83	46080.47
568.99	46021.95
569.15	46178.77
569.32	46232.60
569.48	45858.12
569.64	46103.87
569.81	45925.99
569.97	46258.35
570.13	46464.32
570.30	45996.21
570.46	46602.41
570.62	46478.36
570.78	46279.41
570.95	46047.70
571.11	46471.34
571.27	46438.57
571.43	46040.68
571.60	46298.14
571.76	46445.59
571.92	46122.60
572.09	46181.11
572.25	46253.67
572.41	46211.54
572.57	46260.69
572.74	46213.88
572.90	46188.13
573.06	46279.41
573.22	46429.21
573.38	46529.85
573.55	46445.59
573.71	46401.12
573.87	46457.29
574.03	46316.86
574.20	46873.91
574.36	46263.03
574.52	46225.58
574.68	46670.28
574.84	46674.96
575.01	46412.82
575.17	46398.78
575.33	46623.47
575.49	46555.60
575.65	46270.05
575.82	46417.50
575.98	46380.06
576.14	46923.06
576.30	46937.10
576.46	46396.44
576.62	46625.81
576.79	46721.77
576.95	46143.66
577.11	46515.81
577.27	46241.96
577.43	46639.86
577.59	46548.57
577.75	46555.60
577.92	46377.72
578.08	46520.49
578.24	46731.14
578.40	46841.14
578.56	46784.97
578.72	46623.47
578.88	46906.68
579.04	46927.74
579.21	46134.30
579.37	46827.10
579.53	46681.98
579.69	46766.24
579.85	46738.16
580.01	46618.79
580.17	46562.62
580.33	46869.23
580.49	46698.37
580.65	46745.18
580.82	46490.06
580.98	46480.70
581.14	46450.27
581.30	47150.09
581.46	46515.81
581.62	46651.56
581.78	46869.23
581.94	46997.96
582.10	46822.42
582.26	46745.18
582.42	46579.00
582.58	46492.40
582.74	46763.90
582.90	47126.69
583.06	47105.62
583.22	46937.10
583.38	46955.83
583.54	47201.58
583.70	47173.50
583.86	46794.33
584.02	46775.61
584.18	47360.74
584.34	46974.55
584.50	47255.42
584.66	46897.31
584.82	46791.99
584.98	47374.78
585.14	47210.95
585.30	46602.41
585.46	46979.23
585.62	46677.30
585.78	46927.74
585.94	46756.88
586.10	46946.47
586.26	46389.42
586.42	46845.82
586.58	46824.76
586.74	46843.48
586.90	47019.02
587.06	47021.36
587.22	47007.32
587.38	46852.84
587.54	47079.88
587.70	47138.39
587.86	47281.16
588.02	46796.67
588.18	46906.68
588.34	46824.76
588.49	46796.67
588.65	46817.74
588.81	46749.86
588.97	47234.35
589.13	47047.11
589.29	46930.08
589.45	47063.49
589.61	47019.02
589.77	47332.65
589.93	46799.01
590.08	46789.65
