SpectraSuite Data File
++++++++++++++++++++++++++++++++++++
Date: Fri Oct 25 11:26:32 EDT 2013
User: price-jones
Dark Spectrum Present: No
Reference Spectrum Present: No
Number of Sampled Component Spectra: 1
Spectrometers: USB2+H05261
Integration Time (usec): 100000 (USB2+H05261)
Spectra Averaged: 1 (USB2+H05261)
Boxcar Smoothing: 0 (USB2+H05261)
Correct for Electrical Dark: No (USB2+H05261)
Strobe/Lamp Enabled: No (USB2+H05261)
Correct for Detector Non-linearity: No (USB2+H05261)
Correct for Stray Light: No (USB2+H05261)
Number of Pixels in Processed Spectrum: 2048
>>>>>Begin Processed Spectral Data<<<<<
365.73	243.42
365.92	243.42
366.12	243.42
366.32	166.18
366.52	154.48
366.72	126.39
366.91	114.69
367.11	138.09
367.31	128.73
367.51	191.92
367.70	124.05
367.90	170.86
368.10	93.62
368.30	142.77
368.49	126.39
368.69	187.24
368.89	203.63
369.09	100.64
369.28	147.45
369.48	166.18
369.68	236.39
369.87	262.14
370.07	222.35
370.27	217.67
370.47	386.19
370.66	608.54
370.86	667.05
371.06	643.65
371.25	674.07
371.45	664.71
371.65	713.86
371.84	709.18
372.04	690.46
372.24	699.82
372.44	723.23
372.63	723.23
372.83	809.83
373.03	725.57
373.22	784.08
373.42	725.57
373.62	779.40
373.81	706.84
374.01	725.57
374.21	788.76
374.40	828.55
374.60	816.85
374.79	744.29
374.99	844.93
375.19	861.32
375.38	873.02
375.58	866.00
375.78	868.34
375.97	868.34
376.17	840.25
376.37	903.45
376.56	875.36
376.76	908.13
376.95	873.02
377.15	903.45
377.35	910.47
377.54	950.26
377.74	882.38
377.93	903.45
378.13	868.34
378.33	868.34
378.52	959.62
378.72	954.94
378.91	973.66
379.11	990.05
379.31	912.81
379.50	1001.75
379.70	966.64
379.89	1048.56
380.09	1011.11
380.28	1004.09
380.48	943.24
380.68	1022.81
380.87	980.68
381.07	1032.18
381.26	1039.20
381.46	966.64
381.65	1097.71
381.85	1020.47
382.04	1053.24
382.24	1055.58
382.43	1125.80
382.63	1095.37
382.83	1090.69
383.02	1107.07
383.22	1200.69
383.41	1188.99
383.61	1135.16
383.80	1142.18
384.00	1121.12
384.19	1177.29
384.39	1153.88
384.58	1090.69
384.78	1086.01
384.97	1184.31
385.17	1130.48
385.36	1142.18
385.56	1238.14
385.75	1240.48
385.95	1200.69
386.14	1259.21
386.34	1217.08
386.53	1231.12
386.72	1188.99
386.92	1331.76
387.11	1221.76
387.31	1186.65
387.50	1193.67
387.70	1254.53
387.89	1240.48
388.09	1327.08
388.28	1334.11
388.48	1294.32
388.67	1362.19
388.86	1378.58
389.06	1313.04
389.25	1364.53
389.45	1275.59
389.64	1373.89
389.84	1437.09
390.03	1420.71
390.22	1427.73
390.42	1287.29
390.61	1401.98
390.81	1444.11
391.00	1371.55
391.19	1533.05
391.39	1413.68
391.58	1409.00
391.78	1427.73
391.97	1474.54
392.16	1526.03
392.36	1507.30
392.55	1523.69
392.75	1465.18
392.94	1549.43
393.13	1507.30
393.33	1540.07
393.52	1638.38
393.71	1664.12
393.91	1549.43
394.10	1652.42
394.29	1652.42
394.49	1605.61
394.68	1638.38
394.88	1596.25
395.07	1621.99
395.26	1673.48
395.46	1650.08
395.65	1661.78
395.84	1823.28
396.04	1767.10
396.23	1853.70
396.42	1706.25
396.62	1666.46
396.81	1844.34
397.00	1827.96
397.19	1820.94
397.39	1834.98
397.58	1886.47
397.77	1884.13
397.97	1809.23
398.16	1809.23
398.35	1874.77
398.55	1863.07
398.74	2010.52
398.93	1923.92
399.12	1898.17
399.32	1991.80
399.51	1898.17
399.70	2017.54
399.90	2036.27
400.09	2038.61
400.28	2141.59
400.47	1963.71
400.67	2054.99
400.86	2176.70
401.05	2045.63
401.24	2134.57
401.44	2148.61
401.63	2071.37
401.82	2118.18
402.01	2160.31
402.21	2186.06
402.40	2221.17
402.59	2111.16
402.78	2270.32
402.97	2162.66
403.17	2307.77
403.36	2265.64
403.55	2207.13
403.74	2277.34
403.93	2410.75
404.13	2382.67
404.32	2403.73
404.51	2361.60
404.70	2455.22
404.89	2401.39
405.09	2441.18
405.28	2326.49
405.47	2427.14
405.66	2502.03
405.85	2506.71
406.05	2443.52
406.24	2595.65
406.43	2551.18
406.62	2644.81
406.81	2637.78
407.00	2466.92
407.20	2684.59
407.39	2670.55
407.58	2698.64
407.77	2731.41
407.96	2736.09
408.15	2843.75
408.34	2726.72
408.54	2885.88
408.73	2801.62
408.92	2803.96
409.11	2949.08
409.30	2963.12
409.49	2965.46
409.68	3005.25
409.87	2993.55
410.07	3026.31
410.26	2986.52
410.45	3009.93
410.64	3138.66
410.83	3159.72
411.02	3108.23
411.21	3026.31
411.40	3234.62
411.59	3279.09
411.78	3265.05
411.98	3145.68
412.17	3171.43
412.36	3225.26
412.55	3361.01
412.74	3433.57
412.93	3365.69
413.12	3449.95
413.31	3716.77
413.50	3485.06
413.69	3517.83
413.88	3728.47
414.07	3550.59
414.26	3506.12
414.45	3658.26
414.64	3641.87
414.83	3707.41
415.02	3798.69
415.22	3747.20
415.41	3775.28
415.60	3971.89
415.79	3918.06
415.98	3950.82
416.17	3967.21
416.36	3941.46
416.55	4002.32
416.74	4117.00
416.93	4079.55
417.12	3943.80
417.31	4145.09
417.50	4196.58
417.69	4292.54
417.88	4280.84
418.07	4339.35
418.26	4250.41
418.45	4425.95
418.64	4557.02
418.83	4535.96
419.02	4299.56
419.21	4393.19
419.39	4770.01
419.58	4566.39
419.77	4550.00
419.96	4493.83
420.15	4634.26
420.34	4622.56
420.53	4634.26
420.72	4638.94
420.91	4592.13
421.10	4791.08
421.29	4732.56
421.48	4706.82
421.67	4842.57
421.86	4819.16
422.05	4826.18
422.24	4723.20
422.43	4889.38
422.61	4964.28
422.80	4880.02
422.99	4973.64
423.18	5093.01
423.37	4861.29
423.56	4863.63
423.75	4905.76
423.94	4805.12
424.13	4496.17
424.32	4805.12
424.50	5020.45
424.69	5188.97
424.88	5167.90
425.07	5050.88
425.26	4896.40
425.45	4961.94
425.64	5109.39
425.83	5041.51
426.01	5053.22
426.20	4990.02
426.39	5064.92
426.58	4936.19
426.77	5151.52
426.96	5107.05
427.15	5132.79
427.33	5163.22
427.52	5198.33
427.71	5392.59
427.90	5291.95
428.09	5212.37
428.28	5252.16
428.46	5434.72
428.65	5544.73
428.84	5462.81
429.03	5448.77
429.22	5397.28
429.40	5542.39
429.59	5643.03
429.78	5289.61
429.97	5392.59
430.16	5544.73
430.34	5600.90
430.53	5558.77
430.72	5701.54
430.91	5619.63
431.10	5638.35
431.28	5727.29
431.47	5750.70
431.66	5865.38
431.85	5760.06
432.03	5881.77
432.22	5989.43
432.41	5809.21
432.60	5973.05
432.79	6005.81
432.97	5919.21
433.16	6085.39
433.35	5914.53
433.54	6141.57
433.72	6099.44
433.91	6052.63
434.10	6169.65
434.28	6120.50
434.47	6200.08
434.66	6181.35
434.85	6410.73
435.03	6228.17
435.22	6317.11
435.41	6534.78
435.59	6307.74
435.78	6642.44
435.97	6366.26
436.16	6340.51
436.34	6541.80
436.53	6443.49
436.72	6630.74
436.90	6555.84
437.09	6665.85
437.28	6544.14
437.46	6717.34
437.65	6707.98
437.84	6897.56
438.02	6731.38
438.21	6853.09
438.40	6813.30
438.58	6899.90
438.77	7087.14
438.96	6899.90
439.14	7063.74
439.33	7077.78
439.52	7187.79
439.70	7133.95
439.89	7269.70
440.08	7470.99
440.26	7452.27
440.45	7119.91
440.63	7452.27
440.82	7669.94
441.01	7515.46
441.19	7691.00
441.38	7648.87
441.57	7826.75
441.75	7936.76
441.94	8021.02
442.12	8016.33
442.31	7976.55
442.50	8084.21
442.68	8121.66
442.87	7861.86
443.05	8067.83
443.24	8215.28
443.43	8159.11
443.61	8219.96
443.80	8383.80
443.98	8098.25
444.17	8013.99
444.35	8145.06
444.54	8439.97
444.73	8341.67
444.91	8369.76
445.10	8353.37
445.28	8339.33
445.47	8259.75
445.65	8561.68
445.84	8521.89
446.02	8608.49
446.21	8418.91
446.39	8430.61
446.58	8652.96
446.77	8540.61
446.95	8243.37
447.14	8606.15
447.32	8851.91
447.51	8582.74
447.69	8423.59
447.88	8505.51
448.06	8489.12
448.25	8510.19
448.43	8725.52
448.62	8645.94
448.80	8580.40
448.99	8777.01
449.17	8746.58
449.36	8578.06
449.54	8753.60
449.73	9118.73
449.91	8901.06
450.10	8908.08
450.28	9170.22
450.46	9053.19
450.65	9191.28
450.83	9158.52
451.02	9231.07
451.20	9261.50
451.39	9284.91
451.57	9057.87
451.76	9181.92
451.94	9298.95
452.13	9387.89
452.31	9249.80
452.49	9280.22
452.68	9380.87
452.86	9254.48
453.05	9570.45
453.23	9565.77
453.42	9537.68
453.60	9277.88
453.78	9533.00
453.97	9186.60
454.15	9362.14
454.34	9533.00
454.52	9727.27
454.70	9582.15
454.89	9856.00
455.07	9895.78
455.26	9877.06
455.44	9799.82
455.62	10022.17
455.81	9895.78
455.99	9872.38
456.17	10115.80
456.36	10050.26
456.54	10207.08
456.73	10099.41
456.91	10417.72
457.09	10478.58
457.28	10560.50
457.46	10338.15
457.64	10588.58
457.83	10450.49
458.01	10656.46
458.19	10677.52
458.38	10649.44
458.56	10626.03
458.74	10696.25
458.93	10672.84
459.11	10548.79
459.29	10787.53
459.48	10846.04
459.66	10839.02
459.84	10827.32
460.03	11028.60
460.21	11037.97
460.39	10937.32
460.57	11005.20
460.76	11087.12
460.94	11126.91
461.12	11190.10
461.31	11220.53
461.49	11171.38
461.67	11171.38
461.85	11641.82
462.04	11335.21
462.22	11496.71
462.40	11733.11
462.59	11557.57
462.77	11536.50
462.95	11833.75
463.13	11716.72
463.32	11857.15
463.50	11693.32
463.68	11873.54
463.86	11939.07
464.05	11733.11
464.23	11730.76
464.41	11934.39
464.59	11805.66
464.78	12123.98
464.96	11950.78
465.14	11822.05
465.32	11960.14
465.50	12044.40
465.69	12226.96
465.87	12163.76
466.05	12322.92
466.23	12201.21
466.41	12180.15
466.60	12465.69
466.78	12058.44
466.96	12163.76
467.14	12287.81
467.32	12500.80
467.51	12507.82
467.69	12521.87
467.87	12475.06
468.05	12542.93
468.23	12507.82
468.41	12498.46
468.60	12713.79
468.78	12549.95
468.96	12428.24
469.14	12709.11
469.32	13025.08
469.50	12915.08
469.69	12833.16
469.87	13055.51
470.05	13097.64
470.23	13074.23
470.41	13240.41
470.59	13696.82
470.77	13296.58
470.95	13422.97
471.14	13390.20
471.32	13357.44
471.50	13493.19
471.68	13425.31
471.86	13575.11
472.04	13781.07
472.22	14047.90
472.40	13647.66
472.58	13757.67
472.77	13944.91
472.95	14417.70
473.13	14773.46
473.31	14157.90
473.49	14319.40
473.67	14230.46
473.85	14389.61
474.03	14422.38
474.21	14806.23
474.39	14733.67
474.57	14721.97
474.75	14743.03
474.93	15225.18
475.12	14895.17
475.30	14970.07
475.48	15009.86
475.66	15171.35
475.84	15047.30
476.02	15461.58
476.20	15515.41
476.38	15700.31
476.56	16046.71
476.74	15920.32
476.92	15939.05
477.10	15857.13
477.28	16187.14
477.46	16086.50
477.64	16189.49
477.82	16538.23
478.00	17118.68
478.18	16563.97
478.36	17060.16
478.54	17029.74
478.72	17128.04
478.90	17593.81
479.08	17525.93
479.26	17785.73
479.44	17752.96
479.62	18097.02
479.80	18228.09
479.98	18277.24
480.16	18520.66
480.34	18480.87
480.52	18874.08
480.70	18789.82
480.88	18686.84
481.06	18867.06
481.24	18972.38
481.41	18979.40
481.59	19534.11
481.77	19515.39
481.95	19702.63
482.13	19763.48
482.31	19845.40
482.49	20510.11
482.67	20072.43
482.85	20858.85
483.03	20610.76
483.21	20678.63
483.39	20774.60
483.57	20849.49
483.74	21268.45
483.92	21341.00
484.10	21226.32
484.28	21675.70
484.46	21713.15
484.64	22082.95
484.82	22022.10
485.00	22368.50
485.18	22724.26
485.35	23218.11
485.53	22977.04
485.71	22904.48
485.89	23381.95
486.07	23044.91
486.25	23508.34
486.43	23630.05
486.61	24074.75
486.78	24163.69
486.96	24500.73
487.14	24596.69
487.32	24547.54
487.50	25027.35
487.68	24985.22
487.85	25521.20
488.03	25734.19
488.21	25586.74
488.39	25933.14
488.57	26157.83
488.75	26176.55
488.92	26712.53
489.10	26845.94
489.28	27012.12
489.46	27213.41
489.64	27255.54
489.81	27714.28
489.99	27922.59
490.17	27847.69
490.35	28123.88
490.53	28156.64
490.70	28591.98
490.88	28098.13
491.06	28697.31
491.24	28833.06
491.41	29046.05
491.59	28924.34
491.77	29240.31
491.95	29750.55
492.13	30082.91
492.30	29998.65
492.48	29907.37
492.66	30314.62
492.84	30237.38
493.01	30361.43
493.19	30888.05
493.37	31182.96
493.54	31161.89
493.72	31292.96
493.90	31519.99
494.08	31646.38
494.25	32271.31
494.43	32563.87
494.61	32496.00
494.79	32624.73
494.96	32591.96
495.14	32608.34
495.32	33331.57
495.49	33235.61
495.67	33577.33
495.85	33764.57
496.02	33617.11
496.20	33663.93
496.38	34237.36
496.55	34541.63
496.73	34806.11
496.91	34576.73
497.09	34707.80
497.26	35115.06
497.44	35122.08
497.62	35496.56
497.79	35810.20
497.97	35246.13
498.14	36282.98
498.32	36407.03
498.50	36025.53
498.67	36584.91
498.85	36390.65
499.03	36856.42
499.20	36673.85
499.38	36926.63
499.56	37151.32
499.73	37649.86
499.91	37420.48
500.08	37827.74
500.26	37228.56
500.44	37647.52
500.61	37776.25
500.79	37766.88
500.97	38092.22
501.14	38321.59
501.32	38740.55
501.49	38499.47
501.67	38614.16
501.84	39030.77
502.02	38691.40
502.20	39501.22
502.37	39126.74
502.55	39267.17
502.72	39449.73
502.90	40011.46
503.07	39512.92
503.25	39641.65
503.43	39807.83
503.60	40360.20
503.78	39721.23
503.95	40084.01
504.13	40821.28
504.30	40933.63
504.48	40570.85
504.65	40940.65
504.83	41303.43
505.01	41216.83
505.18	41392.37
505.36	41965.81
505.53	40999.16
505.71	41741.11
505.88	41975.17
506.06	41277.69
506.23	41904.95
506.41	41958.78
506.58	41947.08
506.76	42340.29
506.93	42274.76
507.11	42415.19
507.28	42742.86
507.46	42852.87
507.63	42918.40
507.81	43161.82
507.98	42976.92
508.16	43278.85
508.33	43194.59
508.50	43548.01
508.68	43765.68
508.85	43952.92
509.03	43583.12
509.20	44233.78
509.38	44285.28
509.55	44299.32
509.73	44191.65
509.90	44746.36
510.08	44402.30
510.25	44601.25
510.42	45043.61
510.60	45455.54
510.77	45380.65
510.95	45654.49
511.12	45277.66
511.30	45502.35
511.47	45654.49
511.64	45429.80
511.82	46188.13
511.99	45432.14
512.17	45968.12
512.34	46377.72
512.51	46623.47
512.69	46562.62
512.86	46497.08
513.04	46532.19
513.21	46506.44
513.38	46604.75
513.56	47161.79
513.73	46855.18
513.90	47260.10
514.08	47136.05
514.25	47327.97
514.43	47140.73
514.60	47129.03
514.77	47597.13
514.95	47973.96
515.12	47557.35
515.29	47777.36
515.47	48292.27
515.64	48191.63
515.81	48027.79
515.99	48531.01
516.16	48346.11
516.33	48460.79
516.51	48783.79
516.68	48575.48
516.85	49059.97
517.03	48605.91
517.20	49052.95
517.37	49092.74
517.54	49146.57
517.72	48966.35
517.89	49031.88
518.06	49287.00
518.24	49373.60
518.41	49265.94
518.58	49165.29
518.75	49214.44
518.93	49593.61
519.10	49572.55
519.27	49867.45
519.45	49956.39
519.62	49862.77
519.79	50230.24
519.96	49977.46
520.14	50377.69
520.31	49991.50
520.48	50625.79
520.65	50387.05
520.83	50670.26
521.00	50529.83
521.17	50534.51
521.34	50733.45
521.52	50920.70
521.69	50890.27
521.86	50937.08
522.03	51126.66
522.20	51634.56
522.38	51482.42
522.55	51597.11
522.72	51075.17
522.89	51468.38
523.07	51824.14
523.24	51269.43
523.41	51662.64
523.58	51414.55
523.75	51681.37
523.92	51995.00
524.10	52231.40
524.27	52072.24
524.44	52528.64
524.61	52266.50
524.78	52041.81
524.96	52203.31
525.13	52416.30
525.30	52523.96
525.47	52512.26
525.64	52573.11
525.81	52545.03
525.98	52732.27
526.16	52933.56
526.33	52659.71
526.50	52898.45
526.67	52701.84
526.84	53123.14
527.01	52743.97
527.18	53099.73
527.36	53036.54
527.53	52891.43
527.70	53062.29
527.87	53301.02
528.04	53282.30
528.21	53247.19
528.38	53375.92
528.55	53558.48
528.72	53443.79
528.89	53214.42
529.07	53359.53
529.24	53368.90
529.41	53846.36
529.58	53939.99
529.75	53860.41
529.92	53874.45
530.09	53642.74
530.26	53956.37
530.43	53799.55
530.60	53792.53
530.77	53979.78
530.94	53923.60
531.11	54003.18
531.28	54305.11
531.46	54372.99
531.63	54525.12
531.80	54232.55
531.97	54382.35
532.14	54618.74
532.31	54445.54
532.48	54679.60
532.65	54436.18
532.82	54548.53
532.99	54625.76
533.16	54714.70
533.33	54616.40
533.50	55260.05
533.67	55131.32
533.84	54740.45
534.01	55058.76
534.18	55159.41
534.35	55433.25
534.52	54951.10
534.69	55021.31
534.86	55428.57
535.03	55173.45
535.20	55428.57
535.37	55437.93
535.54	55309.20
535.71	55229.62
535.88	55643.90
536.05	55807.73
536.22	55587.72
536.38	55800.71
536.55	55554.96
536.72	55606.45
536.89	55578.36
537.06	55524.53
537.23	56051.15
537.40	55796.03
537.57	55634.53
537.74	55847.52
537.91	55934.12
538.08	56058.17
538.25	55709.43
538.42	55992.64
538.59	56137.75
538.75	55686.03
538.92	55999.66
539.09	56193.92
539.26	56147.11
539.43	56252.44
539.60	56339.04
539.77	56367.12
539.94	56603.52
540.11	56432.66
540.28	56486.49
540.44	56430.32
540.61	56367.12
540.78	56598.83
540.95	56409.25
541.12	56427.98
541.29	56378.82
541.46	56603.52
541.62	56804.80
541.79	56507.55
541.96	56397.55
542.13	56479.47
542.30	56638.62
542.47	56860.97
542.63	56860.97
542.80	56978.00
542.97	57205.03
543.14	57059.92
543.31	57165.24
543.48	57303.34
543.64	57403.98
543.81	57478.88
543.98	57378.23
544.15	57270.57
544.32	57483.56
544.48	57762.08
544.65	57462.49
544.82	57378.23
544.99	57462.49
545.16	57607.61
545.32	57298.65
545.49	57778.46
545.66	57546.75
545.83	57694.21
546.00	57733.99
546.16	57642.71
546.33	57565.48
546.50	57441.43
546.67	57738.68
546.83	57521.01
547.00	57729.31
547.17	57741.02
547.34	57890.81
547.50	57937.62
547.67	58028.90
547.84	58003.16
548.00	58272.32
548.17	58218.49
548.34	58124.86
548.51	58305.09
548.67	58333.17
548.84	58134.23
549.01	58061.67
549.18	58274.66
549.34	58305.09
549.51	58508.71
549.68	58368.28
549.84	58300.40
550.01	58389.34
550.18	58349.56
550.34	58525.10
550.51	58452.54
550.68	58539.14
550.84	58412.75
551.01	58529.78
551.18	58607.01
551.34	58581.27
551.51	58642.12
551.68	58770.85
551.84	58555.52
552.01	58555.52
552.18	58651.48
552.34	58536.80
552.51	58754.47
552.68	58466.58
552.84	58827.02
553.01	58775.53
553.18	58934.69
553.34	59105.55
553.51	58834.05
553.67	58787.24
553.84	59241.30
554.01	58976.82
554.17	59185.13
554.34	59140.66
554.51	59100.87
554.67	59140.66
554.84	59194.49
555.00	59096.19
555.17	59042.35
555.33	59161.72
555.50	59086.82
555.67	58803.62
555.83	59124.27
556.00	58958.09
556.16	59491.74
556.33	59292.79
556.50	59091.51
556.66	59419.18
556.83	58983.84
556.99	59519.82
557.16	59547.91
557.32	59585.36
557.49	59664.94
557.65	59372.37
557.82	59381.73
557.98	59353.65
558.15	59550.25
558.32	59416.84
558.48	59423.86
558.65	59751.54
558.81	59302.15
558.98	59480.03
559.14	59613.44
559.31	59756.22
559.47	59793.67
559.64	59587.70
559.80	59821.75
559.97	59693.02
560.13	59758.56
560.30	59475.35
560.46	59615.79
560.63	59852.18
560.79	59739.83
560.96	59973.89
561.12	60020.70
561.29	59985.59
561.45	60074.53
561.61	59849.84
561.78	59910.69
561.94	59868.56
562.11	59934.10
562.27	59994.95
562.44	59962.18
562.60	60203.26
562.77	59859.20
562.93	59976.23
563.10	60212.62
563.26	59983.25
563.42	60224.32
563.59	60189.22
563.75	60030.06
563.92	60163.47
564.08	60018.36
564.24	60364.76
564.41	59985.59
564.57	60229.01
564.74	60114.32
564.90	60130.70
565.07	60285.18
565.23	60196.24
565.39	59992.61
565.56	60292.20
565.72	60156.45
565.88	60289.86
566.05	60102.62
566.21	60214.96
566.38	60088.57
566.54	60339.01
566.70	60250.07
566.87	60453.70
567.03	60214.96
567.19	60364.76
567.36	60303.90
567.52	60142.41
567.68	60603.49
567.85	60376.46
568.01	60577.75
568.17	60299.22
568.34	60441.99
568.50	60406.89
568.66	60488.80
568.83	60420.93
568.99	60324.97
569.15	60250.07
569.32	60453.70
569.48	60502.85
569.64	60523.91
569.81	60397.52
569.97	60441.99
570.13	60640.94
570.30	60310.92
570.46	60598.81
570.62	60575.40
570.78	60519.23
570.95	60530.93
571.11	60662.00
571.27	60573.06
571.43	60451.36
571.60	60664.35
571.76	60704.13
571.92	60699.45
572.09	60582.43
572.25	60645.62
572.41	60662.00
572.57	60617.53
572.74	60734.56
572.90	60704.13
573.06	60715.84
573.22	60580.09
573.38	60619.88
573.55	60734.56
573.71	60832.86
573.87	60865.63
574.03	60610.51
574.20	60874.99
574.36	60451.36
574.52	60910.10
574.68	60940.53
574.84	60989.68
575.01	60828.18
575.17	60615.19
575.33	60851.59
575.49	60406.89
575.65	60746.26
575.82	60629.24
575.98	60912.44
576.14	60966.27
576.30	60846.91
576.46	60617.53
576.62	60844.57
576.79	60865.63
576.95	60762.65
577.11	60900.74
577.27	60746.26
577.43	60760.31
577.59	60650.30
577.75	60891.38
577.92	60783.71
578.08	60757.97
578.24	60882.02
578.40	60889.04
578.56	61085.64
578.72	60800.10
578.88	61029.47
579.04	60987.34
579.21	60987.34
579.37	60935.85
579.53	61027.13
579.69	60587.11
579.85	60900.74
580.01	60774.35
580.17	60715.84
580.33	60781.37
580.49	60968.61
580.65	61174.58
580.82	60860.95
580.98	60980.32
581.14	61059.90
581.30	60907.76
581.46	60933.51
581.62	61010.74
581.78	60797.76
581.94	61202.67
582.10	60776.69
582.26	60989.68
582.42	60802.44
582.58	61078.62
582.74	60725.20
582.90	61022.45
583.06	60882.02
583.22	60863.29
583.38	60961.59
583.54	60992.02
583.70	60837.54
583.86	60980.32
584.02	61022.45
584.18	61209.69
584.34	61106.71
584.50	60739.24
584.66	60959.25
584.82	60729.88
584.98	61090.32
585.14	61118.41
585.30	61139.47
585.46	61113.73
585.62	60968.61
585.78	61300.97
585.94	60825.84
586.10	61153.52
586.26	60945.21
586.42	61293.95
586.58	61172.24
586.74	61055.21
586.90	61095.00
587.06	61001.38
587.22	61109.05
587.38	60942.87
587.54	61305.65
587.70	61319.70
587.86	61045.85
588.02	61080.96
588.18	61141.81
588.34	61256.50
