SpectraSuite Data File
++++++++++++++++++++++++++++++++++++
Date: Fri Oct 25 11:34:20 EDT 2013
User: price-jones
Dark Spectrum Present: No
Reference Spectrum Present: No
Number of Sampled Component Spectra: 1
Spectrometers: USB2+H05261
Integration Time (usec): 100000 (USB2+H05261)
Spectra Averaged: 1 (USB2+H05261)
Boxcar Smoothing: 0 (USB2+H05261)
Correct for Electrical Dark: No (USB2+H05261)
Strobe/Lamp Enabled: No (USB2+H05261)
Correct for Detector Non-linearity: No (USB2+H05261)
Correct for Stray Light: No (USB2+H05261)
Number of Pixels in Processed Spectrum: 2048
>>>>>Begin Processed Spectral Data<<<<<
365.73	322.99
365.92	322.99
366.12	322.99
366.32	184.90
366.52	227.03
366.72	175.54
366.91	173.20
367.11	255.12
367.31	191.92
367.51	227.03
367.70	142.77
367.90	241.08
368.10	212.99
368.30	159.16
368.49	198.95
368.69	212.99
368.89	266.82
369.09	198.95
369.28	210.65
369.48	175.54
369.68	220.01
369.87	229.37
370.07	203.63
370.27	276.18
370.47	313.63
370.66	463.43
370.86	517.26
371.06	538.32
371.25	557.05
371.45	566.41
371.65	610.88
371.84	496.19
372.04	545.34
372.24	587.47
372.44	667.05
372.63	550.03
372.83	517.26
373.03	624.92
373.22	610.88
373.42	641.31
373.62	678.76
373.81	627.26
374.01	662.37
374.21	683.44
374.40	638.97
374.60	603.86
374.79	599.18
374.99	587.47
375.19	622.58
375.38	660.03
375.58	648.33
375.78	683.44
375.97	704.50
376.17	594.50
376.37	660.03
376.56	648.33
376.76	695.14
376.95	655.35
377.15	638.97
377.35	655.35
377.54	706.84
377.74	702.16
377.93	610.88
378.13	692.80
378.33	706.84
378.52	732.59
378.72	732.59
378.91	727.91
379.11	725.57
379.31	688.12
379.50	732.59
379.70	748.97
379.89	723.23
380.09	683.44
380.28	753.65
380.48	706.84
380.68	697.48
380.87	697.48
381.07	723.23
381.26	727.91
381.46	755.99
381.65	664.71
381.85	755.99
382.04	711.52
382.24	800.46
382.43	741.95
382.63	798.12
382.83	741.95
383.02	777.06
383.22	875.36
383.41	779.40
383.61	858.98
383.80	849.61
384.00	737.27
384.19	812.17
384.39	828.55
384.58	758.33
384.78	851.96
384.97	887.06
385.17	812.17
385.36	816.85
385.56	798.12
385.75	805.14
385.95	844.93
386.14	884.72
386.34	814.51
386.53	809.83
386.72	840.25
386.92	887.06
387.11	910.47
387.31	877.70
387.50	833.23
387.70	873.02
387.89	891.74
388.09	858.98
388.28	910.47
388.48	954.94
388.67	971.32
388.86	915.15
389.06	917.49
389.25	919.83
389.45	929.19
389.64	896.43
389.84	983.02
390.03	919.83
390.22	959.62
390.42	999.41
390.61	959.62
390.81	858.98
391.00	931.53
391.19	1004.09
391.39	1004.09
391.58	1027.50
391.78	894.08
391.97	1015.79
392.16	1011.11
392.36	1053.24
392.55	1046.22
392.75	1078.99
392.94	1086.01
393.13	1107.07
393.33	1043.88
393.52	1011.11
393.71	1067.28
393.91	1090.69
394.10	1104.73
394.29	1074.31
394.49	997.07
394.68	1153.88
394.88	1100.05
395.07	1008.77
395.26	1135.16
395.46	1165.59
395.65	1067.28
395.84	1111.75
396.04	1270.91
396.23	1165.59
396.42	1153.88
396.62	1093.03
396.81	1231.12
397.00	1172.61
397.19	1198.35
397.39	1212.40
397.58	1196.01
397.77	1196.01
397.97	1235.80
398.16	1179.63
398.35	1341.13
398.55	1121.12
398.74	1282.61
398.93	1364.53
399.12	1343.47
399.32	1226.44
399.51	1331.76
399.70	1294.32
399.90	1186.65
400.09	1413.68
400.28	1401.98
400.47	1371.55
400.67	1352.83
400.86	1411.34
401.05	1301.34
401.24	1376.24
401.44	1453.47
401.63	1373.89
401.82	1320.06
402.01	1355.17
402.21	1474.54
402.40	1460.49
402.59	1378.58
402.78	1481.56
402.97	1502.62
403.17	1439.43
403.36	1481.56
403.55	1521.35
403.74	1638.38
403.93	1551.78
404.13	1579.86
404.32	1568.16
404.51	1631.35
404.70	1577.52
404.89	1455.81
405.09	1614.97
405.28	1664.12
405.47	1596.25
405.66	1675.82
405.85	1671.14
406.05	1743.70
406.24	1680.50
406.43	1687.53
406.62	1795.19
406.81	1657.10
407.00	1673.48
407.20	1689.87
407.39	1748.38
407.58	1823.28
407.77	1879.45
407.96	1823.28
408.15	1973.07
408.34	1937.96
408.54	1881.79
408.73	1802.21
408.92	1949.67
409.11	1816.26
409.30	1949.67
409.49	1966.05
409.68	1989.46
409.87	1893.49
410.07	2008.18
410.26	1930.94
410.45	1963.71
410.64	1954.35
410.83	2062.01
411.02	2078.40
411.21	2076.06
411.40	2141.59
411.59	2125.21
411.78	2165.00
411.98	2183.72
412.17	2188.40
412.36	2270.32
412.55	2181.38
412.74	2251.60
412.93	2291.38
413.12	2230.53
413.31	2392.03
413.50	2190.74
413.69	2270.32
413.88	2436.50
414.07	2331.17
414.26	2396.71
414.45	2401.39
414.64	2410.75
414.83	2424.80
415.02	2499.69
415.22	2504.37
415.41	2464.58
415.60	2530.12
415.79	2668.21
415.98	2696.30
416.17	2621.40
416.36	2677.57
416.55	2677.57
416.74	2747.79
416.93	2663.53
417.12	2890.56
417.31	2726.72
417.50	2710.34
417.69	2918.65
417.88	2897.58
418.07	2925.67
418.26	2911.63
418.45	2839.07
418.64	3054.40
418.83	2897.58
419.02	2925.67
419.21	2984.18
419.39	2928.01
419.58	3061.42
419.77	3014.61
419.96	3038.02
420.15	2932.69
420.34	3145.68
420.53	3014.61
420.72	3028.65
420.91	3075.46
421.10	3152.70
421.29	3225.26
421.48	3133.98
421.67	3227.60
421.86	3180.79
422.05	3185.47
422.24	3220.58
422.43	3363.35
422.61	3323.56
422.80	3220.58
422.99	3279.09
423.18	3323.56
423.37	3391.44
423.56	3330.58
423.75	3454.63
423.94	3215.90
424.13	3225.26
424.32	3218.24
424.50	3344.63
424.69	3351.65
424.88	3328.24
425.07	3166.74
425.26	3330.58
425.45	3225.26
425.64	3309.52
425.83	3363.35
426.01	3393.78
426.20	3421.86
426.39	3370.37
426.58	3346.97
426.77	3424.20
426.96	3531.87
427.15	3492.08
427.33	3595.06
427.52	3492.08
427.71	3459.31
427.90	3501.44
428.09	3433.57
428.28	3480.38
428.46	3517.83
428.65	3527.19
428.84	3686.34
429.03	3569.32
429.22	3531.87
429.40	3606.77
429.59	3658.26
429.78	3630.17
429.97	3499.10
430.16	3602.08
430.34	3770.60
430.53	3719.11
430.72	3772.94
430.91	3880.61
431.10	3695.71
431.28	3866.56
431.47	3904.01
431.66	3985.93
431.85	3911.04
432.03	3997.64
432.22	3955.51
432.41	4046.79
432.60	4014.02
432.79	3927.42
432.97	3953.16
433.16	3997.64
433.35	3904.01
433.54	4117.00
433.72	4030.40
433.91	4109.98
434.10	3911.04
434.28	4079.55
434.47	4180.20
434.66	4159.13
434.85	4198.92
435.03	4290.20
435.22	4234.03
435.41	4196.58
435.59	4107.64
435.78	4198.92
435.97	4341.69
436.16	4470.42
436.34	4234.03
436.53	4372.12
436.72	4454.04
436.90	4397.87
437.09	4346.37
437.28	4124.02
437.46	4280.84
437.65	4383.82
437.84	4432.97
438.02	4561.70
438.21	4418.93
438.40	4407.23
438.58	4676.39
438.77	4596.81
438.96	4629.58
439.14	4613.20
439.33	4870.65
439.52	4823.84
439.70	4828.53
439.89	4791.08
440.08	4842.57
440.26	4950.23
440.45	4702.14
440.63	5071.94
440.82	5095.35
441.01	4812.14
441.19	5083.64
441.38	5088.32
441.57	5013.43
441.75	5090.67
441.94	5259.18
442.12	5210.03
442.31	5296.63
442.50	5254.50
442.68	5343.44
442.87	5184.29
443.05	5331.74
443.24	5394.93
443.43	5390.25
443.61	5380.89
443.80	5481.53
443.98	5329.40
444.17	5139.82
444.35	5418.34
444.54	5586.86
444.73	5338.76
444.91	5481.53
445.10	5341.10
445.28	5507.28
445.47	5488.56
445.65	5556.43
445.84	5472.17
446.02	5589.20
446.21	5509.62
446.39	5631.33
446.58	5479.19
446.77	5617.29
446.95	5441.75
447.14	5657.07
447.32	5750.70
447.51	5518.98
447.69	5460.47
447.88	5678.14
448.06	5504.94
448.25	5891.13
448.43	5563.45
448.62	5823.25
448.80	5621.97
448.99	5764.74
449.17	5645.37
449.36	5724.95
449.54	5776.44
449.73	5874.74
449.91	5820.91
450.10	5743.67
450.28	5888.79
450.46	6026.88
450.65	5956.66
450.83	5895.81
451.02	5996.45
451.20	6029.22
451.39	5959.00
451.57	6005.81
451.76	5895.81
451.94	6015.18
452.13	5984.75
452.31	5942.62
452.49	5900.49
452.68	6101.78
452.86	6134.54
453.05	6314.77
453.23	6108.80
453.42	6186.04
453.60	6218.80
453.78	6193.06
453.97	6090.07
454.15	6272.64
454.34	6228.17
454.52	6246.89
454.70	6296.04
454.89	6410.73
455.07	6345.19
455.26	6345.19
455.44	6375.62
455.62	6436.47
455.81	6342.85
455.99	6567.54
456.17	6539.46
456.36	6532.44
456.54	6684.57
456.73	6443.49
456.91	6815.64
457.09	6752.45
457.28	6848.41
457.46	6745.42
457.64	6874.15
457.83	6977.14
458.01	6738.40
458.19	7087.14
458.38	6956.07
458.56	7098.84
458.74	6998.20
458.93	6935.01
459.11	7159.70
459.29	7129.27
459.48	7150.34
459.66	7129.27
459.84	7117.57
460.03	7194.81
460.21	7255.66
460.39	7166.72
460.57	7171.40
460.76	7213.53
460.94	7391.41
461.12	7459.29
461.31	7131.61
461.49	7218.21
461.67	7253.32
461.85	7515.46
462.04	7274.38
462.22	7817.39
462.40	7506.10
462.59	7520.14
462.77	7396.09
462.95	7405.46
463.13	7585.68
463.32	7557.59
463.50	7492.05
463.68	7733.13
463.86	7698.02
464.05	7623.12
464.23	7611.42
464.41	7948.46
464.59	7508.44
464.78	7918.03
464.96	7749.51
465.14	7875.90
465.32	7939.10
465.50	7786.96
465.69	7878.24
465.87	7887.61
466.05	7903.99
466.23	7906.33
466.41	7981.23
466.60	8098.25
466.78	7761.22
466.96	7967.18
467.14	8086.55
467.32	7896.97
467.51	8184.85
467.69	7943.78
467.87	7969.52
468.05	8203.58
468.23	8168.47
468.41	8149.75
468.60	8140.38
468.78	8266.77
468.96	8126.34
469.14	8407.20
469.32	8432.95
469.50	8119.32
469.69	8292.52
469.87	8430.61
470.05	8421.25
470.23	8519.55
470.41	8554.66
470.59	8617.85
470.77	8479.76
470.95	8683.39
471.14	8748.92
471.32	8545.30
471.50	8512.53
471.68	8725.52
471.86	8931.48
472.04	8814.46
472.22	8940.85
472.40	8865.95
472.58	8879.99
472.77	9125.75
472.95	9263.84
473.13	9245.12
473.31	9294.27
473.49	9020.42
473.67	9128.09
473.85	9135.11
474.03	9509.60
474.21	9364.48
474.39	9420.66
474.57	9362.14
474.75	9710.88
474.93	9757.69
475.12	9748.33
475.30	9589.17
475.48	9617.26
475.66	9764.72
475.84	9802.16
476.02	9926.21
476.20	10036.22
476.38	10029.20
476.56	10230.48
476.74	10031.54
476.92	10230.48
477.10	10054.94
477.28	10211.76
477.46	10298.36
477.64	10464.54
477.82	10623.69
478.00	10860.09
478.18	10712.63
478.36	10668.16
478.54	10902.22
478.72	11084.78
478.90	11262.66
479.08	11047.33
479.26	11351.60
479.44	11241.59
479.62	11281.38
479.80	11562.25
479.98	11606.72
480.16	11941.41
480.34	11758.85
480.52	11978.86
480.70	11967.16
480.88	11789.28
481.06	11899.28
481.24	11913.33
481.41	12154.40
481.59	12222.28
481.77	12341.64
481.95	12463.35
482.13	12446.97
482.31	12573.36
482.49	12954.87
482.67	12905.71
482.85	13102.32
483.03	13060.19
483.21	13235.73
483.39	13511.91
483.57	13160.83
483.74	13296.58
483.92	13561.06
484.10	13408.93
484.28	13958.96
484.46	14078.32
484.64	14225.78
484.82	14031.51
485.00	14085.34
485.18	14352.16
485.35	14609.62
485.53	14588.56
485.71	14544.09
485.89	15091.77
486.07	14532.39
486.25	14941.98
486.43	15185.40
486.61	14864.74
486.78	15389.02
486.96	15293.06
487.14	15555.20
487.32	15791.59
487.50	15922.66
487.68	15995.22
487.85	16262.04
488.03	16170.76
488.21	16533.54
488.39	16493.76
488.57	16416.52
488.75	16468.01
488.92	17025.06
489.10	17191.23
489.28	17123.36
489.46	17156.13
489.64	17057.82
489.81	17635.94
489.99	17530.61
490.17	17748.28
490.35	17982.34
490.53	17841.90
490.70	18092.34
490.88	18176.60
491.06	18333.42
491.24	18445.76
491.41	18396.61
491.59	18581.51
491.77	18724.29
491.95	18588.53
492.13	18888.12
492.30	18899.83
492.48	19159.63
492.66	19346.87
492.84	19253.25
493.01	19463.90
493.19	19419.42
493.37	19700.29
493.54	19454.53
493.72	19805.61
493.90	20072.43
494.08	20027.96
494.25	20348.62
494.43	20257.34
494.61	20290.10
494.79	20666.93
494.96	20306.49
495.14	20776.94
495.32	20945.45
495.49	21111.63
495.67	20985.24
495.85	21270.79
496.02	21373.77
496.20	21532.93
496.38	21851.24
496.55	21986.99
496.73	22581.49
496.91	21986.99
497.09	22043.17
497.26	22377.86
497.44	22228.07
497.62	22600.21
497.79	22878.74
497.97	22380.20
498.14	22885.76
498.32	22635.32
498.50	22892.78
498.67	22991.08
498.85	23075.34
499.03	23147.90
499.20	23314.08
499.38	23578.56
499.56	23887.51
499.73	23681.54
499.91	24011.56
500.08	24217.52
500.26	23744.73
500.44	23950.70
500.61	23939.00
500.79	24058.37
500.97	24119.22
501.14	24395.40
501.32	24491.37
501.49	24453.92
501.67	24250.29
501.84	25006.28
502.02	24840.11
502.20	24840.11
502.37	24545.20
502.55	25118.63
502.72	25104.59
502.90	25127.99
503.07	24760.53
503.25	25387.79
503.43	24992.24
503.60	25488.43
503.78	25443.96
503.95	25406.52
504.13	25743.55
504.30	25816.11
504.48	25766.96
504.65	25951.86
504.83	26188.25
505.01	26103.99
505.18	25951.86
505.36	26639.98
505.53	26462.10
505.71	26455.08
505.88	26625.93
506.06	26319.32
506.23	26815.52
506.41	26878.71
506.58	27012.12
506.76	26759.34
506.93	26841.26
507.11	27365.54
507.28	27424.06
507.46	27269.58
507.63	27168.94
507.81	27639.39
507.98	27426.40
508.16	27227.45
508.33	27749.39
508.50	27644.07
508.68	27868.76
508.85	28191.75
509.03	28053.66
509.20	28135.58
509.38	28364.95
509.55	28203.46
509.73	28332.18
509.90	28744.12
510.08	28573.26
510.25	28474.96
510.42	28304.10
510.60	29085.84
510.77	28760.50
510.95	29074.13
511.12	28940.72
511.30	29193.50
511.47	29078.82
511.64	29071.79
511.82	29469.69
511.99	29296.49
512.17	29350.32
512.34	29446.28
512.51	29919.07
512.69	29916.73
512.86	29958.86
513.04	30232.70
513.21	30017.37
513.38	29944.81
513.56	30089.93
513.73	29951.84
513.90	30251.42
514.08	30054.82
514.25	30700.81
514.43	30717.19
514.60	30352.07
514.77	30433.99
514.95	30719.53
515.12	30258.45
515.29	30153.12
515.47	31000.40
515.64	31159.55
515.81	30850.60
515.99	31030.82
516.16	31510.63
516.33	31108.06
516.51	31295.30
516.68	31215.72
516.85	31264.88
517.03	31615.96
517.20	31798.52
517.37	31424.03
517.54	32128.53
517.72	31885.12
517.89	31344.45
518.06	31992.78
518.24	32201.09
518.41	31840.65
518.58	32170.66
518.75	31854.69
518.93	32259.60
519.10	32194.07
519.27	32156.62
519.45	32800.27
519.62	32339.18
519.79	32627.07
519.96	32737.07
520.14	32561.53
520.31	32540.47
520.48	32875.16
520.65	32854.10
520.83	33535.20
521.00	33373.70
521.17	33167.73
521.34	32919.63
521.52	33748.18
521.69	33776.27
521.86	33851.17
522.03	33406.47
522.20	33837.12
522.38	33851.17
522.55	34300.55
522.72	33923.72
522.89	34183.52
523.07	34242.04
523.24	33771.59
523.41	34059.48
523.58	33989.26
523.75	34796.74
523.92	34146.08
524.10	34361.40
524.27	34452.69
524.44	34354.38
524.61	34756.96
524.78	34672.70
524.96	34766.32
525.13	34937.18
525.30	34909.09
525.47	35058.88
525.64	35187.61
525.81	35180.59
525.98	34925.47
526.16	34614.18
526.33	35133.78
526.50	35250.81
526.67	35166.55
526.84	35253.15
527.01	35262.51
527.18	35641.68
527.36	35861.69
527.53	35646.36
527.70	36205.75
527.87	35910.84
528.04	36067.66
528.21	36091.06
528.38	35969.35
528.55	36189.36
528.72	35927.22
528.89	36378.95
529.07	35805.52
529.24	35456.78
529.41	36561.51
529.58	36275.96
529.75	36505.34
529.92	36395.33
530.09	36009.14
530.26	36540.44
530.43	36301.71
530.60	36144.89
530.77	36481.93
530.94	37055.36
531.11	36252.56
531.28	36720.66
531.46	36910.25
531.63	37034.30
531.80	36973.44
531.97	36830.67
532.14	37326.86
532.31	36961.74
532.48	37514.11
532.65	37701.35
532.82	37158.34
532.99	37450.91
533.16	37024.93
533.33	37450.91
533.50	37904.98
533.67	37542.19
533.84	37677.94
534.01	37874.55
534.18	37752.84
534.35	38354.36
534.52	37785.61
534.69	38089.88
534.86	38199.88
535.03	37853.48
535.20	37888.59
535.37	38204.56
535.54	38513.52
535.71	38047.75
535.88	38075.84
536.05	38256.06
536.22	38590.75
536.38	38302.87
536.55	38447.98
536.72	38288.82
536.89	38415.21
537.06	38415.21
537.23	38504.15
537.40	38326.27
537.57	38546.28
537.74	38356.70
537.91	39187.59
538.08	38836.51
538.25	38295.85
538.42	38597.77
538.59	39112.69
538.75	38899.70
538.92	39330.36
539.09	39227.38
539.26	38883.32
539.43	39154.82
539.60	39239.08
539.77	39012.05
539.94	39658.04
540.11	39562.08
540.28	39445.05
540.44	39714.21
540.61	39917.84
540.78	39737.62
540.95	39606.55
541.12	39805.49
541.29	39358.45
541.46	39688.46
541.62	39545.69
541.79	39662.72
541.96	39381.85
542.13	39569.10
542.30	39868.69
542.47	39817.19
542.63	40102.74
542.80	39899.11
542.97	40753.41
543.14	40432.75
543.31	40079.33
543.48	40849.37
543.64	40746.39
543.81	40797.88
543.98	40872.78
544.15	40568.51
544.32	40928.95
544.48	41546.85
544.65	40608.29
544.82	40722.98
544.99	41013.21
545.16	40865.75
545.32	40952.35
545.49	41261.30
545.66	41223.86
545.83	41338.54
546.00	41610.04
546.16	41113.85
546.33	40966.40
546.50	40863.41
546.67	41401.74
546.83	41083.42
547.00	41455.57
547.17	40847.03
547.34	41064.70
547.50	41865.16
547.67	41656.85
547.84	41698.98
548.00	41621.75
548.17	42040.70
548.34	41588.98
548.51	41364.29
548.67	42047.72
548.84	41911.97
549.01	41827.71
549.18	42223.26
549.34	41785.58
549.51	41958.78
549.68	42181.13
549.84	42232.63
550.01	42047.72
550.18	41993.89
550.34	42089.85
550.51	42302.84
550.68	42513.49
550.84	41717.71
551.01	42469.02
551.18	42150.71
551.34	42082.83
551.51	42225.60
551.68	42375.40
551.84	42321.57
552.01	42497.11
552.18	42239.65
552.34	42487.74
552.51	42714.78
552.68	42925.42
552.84	42604.77
553.01	42693.71
553.18	42670.31
553.34	42801.38
553.51	42628.18
553.67	43192.25
553.84	43026.07
554.01	43180.54
554.17	42981.60
554.34	43023.73
554.51	43054.15
554.67	42717.12
554.84	43217.99
555.00	43189.91
555.17	43115.01
555.33	43164.16
555.50	43344.38
555.67	43267.14
555.83	43178.20
556.00	43412.26
556.16	43950.58
556.33	43054.15
556.50	43517.58
556.66	43192.25
556.83	43306.93
556.99	43810.15
557.16	43597.16
557.32	43501.20
557.49	43973.98
557.65	43545.67
557.82	43763.34
557.98	43765.68
558.15	43583.12
558.32	44186.97
558.48	43761.00
558.65	43716.53
558.81	43653.33
558.98	43934.20
559.14	43480.13
559.31	43887.39
559.47	43672.06
559.64	44020.80
559.80	43971.64
559.97	43707.16
560.13	43761.00
560.30	43728.23
560.46	44481.88
560.63	44186.97
560.79	44018.46
560.96	44435.07
561.12	43962.28
561.29	44067.61
561.45	44399.96
561.61	44308.68
561.78	43988.03
561.94	44584.86
562.11	44664.44
562.27	44425.71
562.44	44301.66
562.60	44502.95
562.77	44350.81
562.93	44023.14
563.10	44577.84
563.26	44542.74
563.42	44776.79
563.59	44715.93
563.75	43920.15
563.92	44540.39
564.08	44774.45
564.24	44638.70
564.41	44098.03
564.57	44744.02
564.74	44437.41
564.90	44839.98
565.07	44437.41
565.23	44671.46
565.39	44524.01
565.56	45216.81
565.72	44531.03
565.88	44486.56
566.05	44678.49
566.21	44769.77
566.38	44559.12
566.54	45062.33
566.70	44957.01
566.87	45202.77
567.03	44732.32
567.19	44959.35
567.36	44676.15
567.52	44947.65
567.68	45361.92
567.85	45209.79
568.01	44933.60
568.17	45212.13
568.34	44980.42
568.50	45118.51
568.66	44767.43
568.83	45125.53
568.99	44882.11
569.15	45106.80
569.32	44554.44
569.48	45074.04
569.64	45380.65
569.81	45097.44
569.97	44924.24
570.13	44802.53
570.30	45059.99
570.46	44741.68
570.62	45387.67
570.78	45172.34
570.95	45298.73
571.11	45565.55
571.27	45074.04
571.43	44718.28
571.60	45160.64
571.76	45280.00
571.92	45350.22
572.09	45048.29
572.25	45516.40
572.41	45294.05
572.57	45041.27
572.74	45595.98
572.90	45745.77
573.06	45518.74
573.22	45647.47
573.38	45755.13
573.55	45811.31
573.71	45792.58
573.87	45181.70
574.03	45481.29
574.20	45766.84
574.36	45390.01
574.52	45911.95
574.68	45453.20
574.84	45464.91
575.01	45743.43
575.17	45605.34
575.33	45525.76
575.49	45319.79
575.65	45790.24
575.82	45713.00
575.98	45382.99
576.14	45574.91
576.30	45755.13
576.46	45787.90
576.62	45694.28
576.79	45441.50
576.95	45296.39
577.11	45092.76
577.27	45713.00
577.43	45495.33
577.59	45397.03
577.75	45881.52
577.92	45071.70
578.08	45879.18
578.24	46127.28
578.40	45837.05
578.56	45659.17
578.72	45436.82
578.88	45359.58
579.04	45698.96
579.21	45680.24
579.37	45720.02
579.53	45902.59
579.69	45713.00
579.85	45574.91
580.01	45544.48
580.17	45595.98
580.33	45956.42
580.49	45794.92
580.65	45982.16
580.82	45923.65
580.98	45600.66
581.14	45441.50
581.30	45748.11
581.46	45563.21
581.62	45619.38
581.78	45680.24
581.94	46160.05
582.10	45947.06
582.26	46195.15
582.42	45930.67
582.58	46045.36
582.74	45785.56
582.90	45958.76
583.06	45851.09
583.22	45713.00
583.38	46227.92
583.54	45935.35
583.70	45764.49
583.86	46288.77
584.02	45500.01
584.18	46073.45
584.34	45734.07
584.50	46117.92
584.66	45591.30
584.82	45666.19
584.98	45659.17
585.14	46281.75
585.30	45811.31
585.46	45738.75
585.62	46108.55
585.78	45776.20
585.94	45682.58
586.10	45986.85
586.26	45755.13
586.42	45724.71
586.58	45834.71
586.74	46237.28
586.90	45633.42
587.06	45984.51
587.22	45766.84
587.38	45556.19
587.54	45909.61
587.70	46148.34
587.86	45965.78
588.02	45680.24
588.18	46248.99
588.34	45778.54
588.49	45911.95
588.65	46106.21
588.81	45853.44
588.97	46403.46
589.13	45982.16
589.29	46061.74
589.45	46291.12
589.61	46389.42
589.77	46061.74
589.93	45930.67
590.08	46333.24
