SpectraSuite Data File
++++++++++++++++++++++++++++++++++++
Date: Fri Oct 25 11:22:45 EDT 2013
User: price-jones
Dark Spectrum Present: No
Reference Spectrum Present: No
Number of Sampled Component Spectra: 1
Spectrometers: USB2+H05261
Integration Time (usec): 100000 (USB2+H05261)
Spectra Averaged: 1 (USB2+H05261)
Boxcar Smoothing: 0 (USB2+H05261)
Correct for Electrical Dark: No (USB2+H05261)
Strobe/Lamp Enabled: No (USB2+H05261)
Correct for Detector Non-linearity: No (USB2+H05261)
Correct for Stray Light: No (USB2+H05261)
Number of Pixels in Processed Spectrum: 2048
>>>>>Begin Processed Spectral Data<<<<<
365.73	212.99
365.92	212.99
366.12	212.99
366.32	112.35
366.52	95.96
366.72	135.75
366.91	95.96
367.11	53.83
367.31	126.39
367.51	117.03
367.70	77.24
367.90	70.22
368.10	131.07
368.30	93.62
368.49	79.58
368.69	205.97
368.89	128.73
369.09	98.30
369.28	117.03
369.48	147.45
369.68	121.71
369.87	196.60
370.07	194.26
370.27	161.50
370.47	320.65
370.66	648.33
370.86	667.05
371.06	608.54
371.25	678.76
371.45	667.05
371.65	725.57
371.84	704.50
372.04	638.97
372.24	727.91
372.44	695.14
372.63	748.97
372.83	800.46
373.03	779.40
373.22	772.38
373.42	800.46
373.62	763.01
373.81	777.06
374.01	727.91
374.21	718.54
374.40	830.89
374.60	870.68
374.79	805.14
374.99	903.45
375.19	791.10
375.38	809.83
375.58	849.61
375.78	903.45
375.97	954.94
376.17	901.11
376.37	798.12
376.56	901.11
376.76	746.63
376.95	884.72
377.15	882.38
377.35	903.45
377.54	882.38
377.74	861.32
377.93	919.83
378.13	866.00
378.33	933.87
378.52	933.87
378.72	896.43
378.91	933.87
379.11	997.07
379.31	875.36
379.50	976.00
379.70	964.30
379.89	891.74
380.09	985.37
380.28	933.87
380.48	1025.15
380.68	959.62
380.87	961.96
381.07	1083.67
381.26	1116.44
381.46	1029.84
381.65	1032.18
381.85	1160.91
382.04	1057.92
382.24	1046.22
382.43	1125.80
382.63	1039.20
382.83	1046.22
383.02	1029.84
383.22	1149.20
383.41	1043.88
383.61	1064.94
383.80	1128.14
384.00	1132.82
384.19	1130.48
384.39	1100.05
384.58	1078.99
384.78	1132.82
384.97	1107.07
385.17	1191.33
385.36	1188.99
385.56	1254.53
385.75	1137.50
385.95	1273.25
386.14	1163.25
386.34	1226.44
386.53	1174.95
386.72	1153.88
386.92	1277.93
387.11	1280.27
387.31	1294.32
387.50	1235.80
387.70	1224.10
387.89	1268.57
388.09	1273.25
388.28	1327.08
388.48	1308.36
388.67	1301.34
388.86	1252.19
389.06	1315.38
389.25	1205.38
389.45	1453.47
389.64	1284.95
389.84	1343.47
390.03	1313.04
390.22	1369.21
390.42	1369.21
390.61	1493.26
390.81	1317.72
391.00	1458.15
391.19	1390.28
391.39	1397.30
391.58	1453.47
391.78	1430.07
391.97	1530.71
392.16	1526.03
392.36	1383.26
392.55	1437.09
392.75	1533.05
392.94	1479.22
393.13	1493.26
393.33	1556.46
393.52	1605.61
393.71	1586.88
393.91	1523.69
394.10	1582.20
394.29	1629.01
394.49	1547.09
394.68	1640.72
394.88	1710.93
395.07	1626.67
395.26	1720.29
395.46	1748.38
395.65	1668.80
395.84	1633.69
396.04	1795.19
396.23	1699.23
396.42	1734.34
396.62	1774.13
396.81	1654.76
397.00	1757.74
397.19	1844.34
397.39	1806.89
397.58	1748.38
397.77	1865.41
397.97	1799.87
398.16	1966.05
398.35	1839.66
398.55	1886.47
398.74	1930.94
398.93	2045.63
399.12	1977.75
399.32	1914.56
399.51	1987.11
399.70	1989.46
399.90	1902.86
400.09	2012.86
400.28	2033.93
400.47	2106.48
400.67	2097.12
400.86	2024.56
401.05	2188.40
401.24	2087.76
401.44	1994.14
401.63	2036.27
401.82	2136.91
402.01	2188.40
402.21	2193.08
402.40	2174.36
402.59	2293.72
402.78	2165.00
402.97	2270.32
403.17	2272.66
403.36	2246.91
403.55	2310.11
403.74	2342.88
403.93	2380.32
404.13	2349.90
404.32	2340.54
404.51	2312.45
404.70	2487.99
404.89	2406.07
405.09	2569.91
405.28	2719.70
405.47	2466.92
405.66	2523.10
405.85	2506.71
406.05	2541.82
406.24	2635.44
406.43	2555.86
406.62	2640.12
406.81	2689.28
407.00	2733.75
407.20	2513.74
407.39	2658.85
407.58	2698.64
407.77	2761.83
407.96	2768.85
408.15	2846.09
408.34	2855.45
408.54	2883.54
408.73	2736.09
408.92	2881.20
409.11	2789.92
409.30	2904.60
409.49	2825.03
409.68	2958.44
409.87	2895.24
410.07	2939.71
410.26	3059.08
410.45	3110.57
410.64	3075.46
410.83	3091.85
411.02	3143.34
411.21	3117.59
411.40	3129.30
411.59	3232.28
411.78	3236.96
411.98	3243.98
412.17	3194.83
412.36	3260.37
412.55	3361.01
412.74	3330.58
412.93	3335.26
413.12	3351.65
413.31	3632.51
413.50	3424.20
413.69	3520.17
413.88	3651.24
414.07	3548.25
414.26	3700.39
414.45	3609.11
414.64	3639.53
414.83	3737.84
415.02	3786.99
415.22	3861.88
415.41	3815.07
415.60	3801.03
415.79	3885.29
415.98	3854.86
416.17	3974.23
416.36	3978.91
416.55	4039.76
416.74	4095.94
416.93	4119.34
417.12	4208.28
417.31	4294.88
417.50	4217.65
417.69	4301.90
417.88	4290.20
418.07	4355.74
418.26	4416.59
418.45	4404.89
418.64	4489.15
418.83	4456.38
419.02	4444.68
419.21	4627.24
419.39	4451.70
419.58	4561.70
419.77	4451.70
419.96	4594.47
420.15	4678.73
420.34	4636.60
420.53	4582.77
420.72	4861.29
420.91	4643.62
421.10	4821.50
421.29	4786.40
421.48	4704.48
421.67	4793.42
421.86	4720.86
422.05	4837.89
422.24	4805.12
422.43	4835.55
422.61	4868.31
422.80	4973.64
422.99	5034.49
423.18	5074.28
423.37	5071.94
423.56	4994.70
423.75	4919.81
423.94	4868.31
424.13	4622.56
424.32	4819.16
424.50	4966.62
424.69	5048.54
424.88	5153.86
425.07	5071.94
425.26	4931.51
425.45	5097.69
425.64	5039.17
425.83	4880.02
426.01	5158.54
426.20	5041.51
426.39	4999.38
426.58	5036.83
426.77	5177.26
426.96	5151.52
427.15	5076.62
427.33	5172.58
427.52	5039.17
427.71	5280.25
427.90	5366.85
428.09	5303.65
428.28	5416.00
428.46	5390.25
428.65	5397.28
428.84	5584.52
429.03	5523.66
429.22	5472.17
429.40	5441.75
429.59	5516.64
429.78	5399.62
429.97	5451.11
430.16	5401.96
430.34	5582.18
430.53	5694.52
430.72	5678.14
430.91	5661.76
431.10	5612.60
431.28	5652.39
431.47	5778.78
431.66	5769.42
431.85	5729.63
432.03	5977.73
432.22	6097.10
432.41	5947.30
432.60	5970.71
432.79	6001.13
432.97	6012.84
433.16	6122.84
433.35	6005.81
433.54	6258.59
433.72	6136.88
433.91	6169.65
434.10	6111.14
434.28	6085.39
434.47	6221.14
434.66	6349.87
434.85	6225.82
435.03	6333.49
435.22	6225.82
435.41	6455.20
435.59	6356.90
435.78	6406.05
435.97	6630.74
436.16	6450.52
436.34	6558.18
436.53	6628.40
436.72	6590.95
436.90	6377.96
437.09	6696.27
437.28	6530.09
437.46	6675.21
437.65	6504.35
437.84	6719.68
438.02	6773.51
438.21	6612.01
438.40	6836.70
438.58	7047.35
438.77	7028.63
438.96	6820.32
439.14	7173.74
439.33	7208.85
439.52	7344.60
439.70	7236.94
439.89	7274.38
440.08	7412.48
440.26	7428.86
440.45	7417.16
440.63	7531.84
440.82	7630.15
441.01	7433.54
441.19	7695.68
441.38	7602.06
441.57	7676.96
441.75	7962.50
441.94	7981.23
442.12	8056.12
442.31	8067.83
442.50	8273.79
442.68	7990.59
442.87	8238.69
443.05	8119.32
443.24	8159.11
443.43	8046.76
443.61	8212.94
443.80	8301.88
443.98	8070.17
444.17	7906.33
444.35	8163.79
444.54	8329.97
444.73	8161.45
444.91	8386.14
445.10	8458.70
445.28	8271.45
445.47	8266.77
445.65	8404.86
445.84	8477.42
446.02	8561.68
446.21	8704.45
446.39	8262.09
446.58	8557.00
446.77	8526.57
446.95	8189.53
447.14	8437.63
447.32	8655.30
447.51	8468.06
447.69	8418.91
447.88	8734.88
448.06	8568.70
448.25	8468.06
448.43	8571.04
448.62	8681.05
448.80	8540.61
448.99	8748.92
449.17	8795.73
449.36	8739.56
449.54	8854.25
449.73	9111.71
449.91	9118.73
450.10	9074.26
450.28	8975.95
450.46	9214.69
450.65	9006.38
450.83	9128.09
451.02	9097.66
451.20	9172.56
451.39	9334.06
451.57	9249.80
451.76	8980.64
451.94	9348.10
452.13	9493.21
452.31	9425.34
452.49	9418.32
452.68	9317.67
452.86	9556.41
453.05	9617.26
453.23	9554.07
453.42	9462.79
453.60	9387.89
453.78	9650.03
453.97	9472.15
454.15	9542.36
454.34	9638.33
454.52	9722.59
454.70	9818.55
454.89	9533.00
455.07	9909.83
455.26	9975.36
455.44	10003.45
455.62	10132.18
455.81	9933.23
455.99	10214.10
456.17	9966.00
456.36	10071.33
456.54	10204.74
456.73	10127.50
456.91	10239.84
457.09	10335.81
457.28	10630.71
457.46	10303.04
457.64	10654.12
457.83	10485.60
458.01	10501.98
458.19	10719.65
458.38	10576.88
458.56	10815.62
458.74	10721.99
458.93	10911.58
459.11	10633.05
459.29	10867.11
459.48	10949.03
459.66	10799.23
459.84	10991.16
460.03	11199.46
460.21	10902.22
460.39	10909.24
460.57	11066.05
460.76	11204.14
460.94	11281.38
461.12	11180.74
461.31	11297.77
461.49	11246.27
461.67	11115.20
461.85	11403.09
462.04	11260.32
462.22	11836.09
462.40	11620.76
462.59	11557.57
462.77	11669.91
462.95	11660.55
463.13	11751.83
463.32	11700.34
463.50	11857.15
463.68	11740.13
463.86	11955.46
464.05	11892.26
464.23	11927.37
464.41	11878.22
464.59	11655.87
464.78	11999.93
464.96	12065.46
465.14	11810.34
465.32	12072.48
465.50	12229.30
465.69	12173.13
465.87	12280.79
466.05	12187.17
466.23	12358.03
466.41	12453.99
466.60	12582.72
466.78	12109.93
466.96	12142.70
467.14	12449.31
467.32	12414.20
467.51	12697.41
467.69	12152.06
467.87	12432.93
468.05	12919.76
468.23	12458.67
468.41	12439.95
468.60	12875.29
468.78	12978.27
468.96	12566.34
469.14	12886.99
469.32	13090.62
469.50	12503.14
469.69	13266.16
469.87	13160.83
470.05	13109.34
470.23	13439.36
470.41	13142.11
470.59	13378.50
470.77	13245.09
470.95	13516.59
471.14	13645.32
471.32	13219.35
471.50	13612.56
471.68	13626.60
471.86	13776.39
472.04	13593.83
472.22	13996.40
472.40	13865.33
472.58	13855.97
472.77	14251.52
472.95	14047.90
473.13	14733.67
473.31	14073.64
473.49	14284.29
473.67	14141.52
473.85	14246.84
474.03	14663.46
474.21	14654.09
474.39	14766.44
474.57	14799.21
474.75	14981.77
474.93	15037.94
475.12	14986.45
475.30	15199.44
475.48	15056.67
475.66	15316.47
475.84	15339.87
476.02	15506.05
476.20	15400.72
476.38	15880.53
476.56	16327.58
476.74	16203.53
476.92	15946.07
477.10	15782.23
477.28	16283.11
477.46	16376.73
477.64	16669.30
477.82	16538.23
478.00	16950.16
478.18	16741.85
478.36	17020.38
478.54	17039.10
478.72	17380.82
478.90	17626.57
479.08	17516.57
479.26	17460.40
479.44	17825.52
479.62	17998.72
479.80	18092.34
479.98	18281.92
480.16	18691.52
480.34	18146.17
480.52	19124.52
480.70	18843.65
480.88	18602.58
481.06	18728.97
481.24	18956.00
481.41	19112.81
481.59	19594.96
481.77	19452.19
481.95	19819.66
482.13	19887.53
482.31	19597.31
482.49	20264.36
482.67	20194.14
482.85	20620.12
483.03	20699.70
483.21	20666.93
483.39	21034.39
483.57	20854.17
483.74	21146.74
483.92	21443.99
484.10	21172.49
484.28	22064.23
484.46	22422.33
484.64	22515.95
484.82	22274.88
485.00	22675.11
485.18	22862.35
485.35	23204.07
485.53	23080.02
485.71	22991.08
485.89	23761.12
486.07	23639.41
486.25	23487.28
486.43	23520.04
486.61	24004.53
486.78	24259.65
486.96	24189.44
487.14	24381.36
487.32	24741.80
487.50	24858.83
487.68	25083.52
487.85	25207.57
488.03	25778.66
488.21	25769.30
488.39	26202.30
488.57	26157.83
488.75	26230.38
488.92	26920.84
489.10	27112.77
489.28	26728.92
489.46	27285.97
489.64	26611.89
489.81	27981.10
489.99	27744.71
490.17	27861.74
490.35	28407.08
490.53	28666.88
490.70	28521.77
490.88	28369.63
491.06	28973.49
491.24	28957.11
491.41	28978.17
491.59	29474.37
491.77	29303.51
491.95	29860.55
492.13	29633.52
492.30	30141.42
492.48	29825.45
492.66	30897.41
492.84	30513.56
493.01	30895.07
493.19	30974.65
493.37	31178.28
493.54	31412.33
493.72	31318.71
493.90	31449.78
494.08	32165.98
494.25	32170.66
494.43	31796.18
494.61	32776.86
494.79	32818.99
494.96	32788.56
495.14	32891.55
495.32	33572.64
495.49	33263.69
495.67	33464.98
495.85	33874.57
496.02	34146.08
496.20	34321.62
496.38	34448.00
496.55	34515.88
496.73	34848.24
496.91	34558.01
497.09	35316.34
497.26	35304.64
497.44	34843.56
497.62	35700.19
497.79	35704.87
497.97	35725.94
498.14	36243.20
498.32	36346.18
498.50	36772.16
498.67	36755.77
498.85	36549.81
499.03	36741.73
499.20	36884.50
499.38	37034.30
499.56	37020.25
499.73	37029.62
499.91	37144.30
500.08	37846.46
500.26	37790.29
500.44	38157.75
500.61	37930.72
500.79	37965.83
500.97	38450.32
501.14	38546.28
501.32	38864.60
501.49	38422.23
501.67	39133.76
501.84	38637.56
502.02	39206.31
502.20	39386.54
502.37	39749.32
502.55	39372.49
502.72	39779.74
502.90	39789.11
503.07	39562.08
503.25	39585.48
503.43	39901.45
503.60	40437.44
503.78	40404.67
503.95	40535.74
504.13	40395.31
504.30	40818.94
504.48	40545.10
504.65	40987.46
504.83	41425.14
505.01	41301.09
505.18	41434.50
505.36	41935.38
505.53	41387.69
505.71	42314.55
505.88	42134.32
506.06	41563.23
506.23	41961.12
506.41	42167.09
506.58	42403.49
506.76	42295.82
506.93	42541.58
507.11	42464.34
507.28	43063.52
507.46	42958.19
507.63	43243.74
507.81	43625.25
507.98	43604.18
508.16	43428.64
508.33	43732.91
508.50	43920.15
508.68	44282.94
508.85	44502.95
509.03	44191.65
509.20	44105.06
509.38	44664.44
509.55	44781.47
509.73	44807.22
509.90	44629.34
510.08	44528.69
510.25	44882.11
510.42	44849.35
510.60	45462.57
510.77	45375.97
510.95	45993.87
511.12	45319.79
511.30	45373.63
511.47	45621.72
511.64	45900.25
511.82	46197.49
511.99	45750.45
512.17	46050.04
512.34	46134.30
512.51	46473.68
512.69	46504.10
512.86	46518.15
513.04	46478.36
513.21	47285.84
513.38	46995.62
513.56	47196.90
513.73	47026.04
513.90	47051.79
514.08	47283.50
514.25	47615.86
514.43	47908.43
514.60	47714.16
514.77	47751.61
514.95	47859.27
515.12	47863.96
515.29	48009.07
515.47	48133.12
515.64	48594.20
515.81	48072.26
515.99	48505.26
516.16	48491.22
516.33	48676.12
516.51	48994.43
516.68	48734.63
516.85	48971.03
517.03	49006.14
517.20	48870.39
517.37	49038.90
517.54	49144.23
517.72	49301.04
517.89	49298.70
518.06	49240.19
518.24	49251.89
518.41	49415.73
518.58	49701.28
518.75	49514.03
518.93	49881.50
519.10	49720.00
519.27	50021.93
519.45	50005.55
519.62	50279.39
519.79	49909.58
519.96	49858.09
520.14	50693.66
520.31	50284.07
520.48	50508.76
520.65	50492.38
520.83	50993.25
521.00	50918.35
521.17	50550.89
521.34	50651.53
521.52	50864.52
521.69	51082.19
521.86	51201.56
522.03	51199.22
522.20	51419.23
522.38	51615.83
522.55	51835.84
522.72	51636.90
522.89	51835.84
523.07	52301.61
523.24	51599.45
523.41	51779.67
523.58	51739.88
523.75	51887.34
523.92	52105.01
524.10	52350.76
524.27	52013.73
524.44	52425.66
524.61	52250.12
524.78	52301.61
524.96	52273.52
525.13	52432.68
525.30	52699.50
525.47	52692.48
525.64	52701.84
525.81	52767.38
525.98	53022.50
526.16	53008.45
526.33	53045.90
526.50	53275.27
526.67	53191.01
526.84	53214.42
527.01	53261.23
527.18	53050.58
527.36	52999.09
527.53	53453.15
527.70	53418.05
527.87	53518.69
528.04	53382.94
528.21	53352.51
528.38	53581.88
528.55	53806.58
528.72	53345.49
528.89	53368.90
529.07	53771.47
529.24	53418.05
529.41	53846.36
529.58	53755.08
529.75	53825.30
529.92	53858.07
530.09	54094.46
530.26	54049.99
530.43	54188.08
530.60	53963.39
530.77	54419.80
530.94	54316.81
531.11	54195.10
531.28	54424.48
531.46	54501.71
531.63	54574.27
531.80	54555.55
531.97	54468.95
532.14	54803.64
532.31	54651.51
532.48	54719.38
532.65	54607.04
532.82	54637.47
532.99	54824.71
533.16	54841.09
533.33	54848.11
533.50	55011.95
533.67	54934.71
533.84	54915.99
534.01	54951.10
534.18	55348.99
534.35	55271.75
534.52	55255.37
534.69	55269.41
534.86	55491.76
535.03	55220.26
535.20	55423.89
535.37	55412.18
535.54	55379.42
535.71	55435.59
535.88	55522.19
536.05	55824.12
536.22	55723.47
536.38	55664.96
536.55	55618.15
536.72	55716.45
536.89	55877.95
537.06	56114.34
537.23	55789.01
537.40	55695.39
537.57	56072.21
537.74	55927.10
537.91	56016.04
538.08	55894.33
538.25	55856.88
538.42	56147.11
538.59	56156.47
538.75	56119.02
538.92	56198.60
539.09	56596.49
539.26	56357.76
539.43	56161.15
539.60	56371.80
539.77	56048.81
539.94	56655.01
540.11	56470.11
540.28	56779.06
540.44	56320.31
540.61	56591.81
540.78	56198.60
540.95	56547.34
541.12	56573.09
541.29	56704.16
541.46	56762.67
541.62	56676.07
541.79	56797.78
541.96	56519.26
542.13	56486.49
542.30	56734.59
542.47	56989.70
542.63	56980.34
542.80	57008.43
542.97	57411.00
543.14	57467.17
543.31	57450.79
543.48	57310.36
543.64	57731.65
543.81	57443.77
543.98	57389.94
544.15	57633.35
544.32	57656.76
544.48	57752.72
544.65	57759.74
544.82	57436.75
544.99	57441.43
545.16	57893.15
545.32	57607.61
545.49	57895.49
545.66	57900.17
545.83	57808.89
546.00	57769.10
546.16	58007.84
546.33	57708.25
546.50	57743.36
546.67	57806.55
546.83	57516.32
547.00	58000.82
547.17	58003.16
547.34	57925.92
547.50	58010.18
547.67	58211.46
547.84	58113.16
548.00	58347.21
548.17	58403.39
548.34	58279.34
548.51	58403.39
548.67	58494.67
548.84	58274.66
549.01	58377.64
549.18	58412.75
549.34	58534.46
549.51	58497.01
549.68	58473.60
549.84	58342.53
550.01	58543.82
550.18	58560.20
550.34	58504.03
550.51	58560.20
550.68	58450.20
550.84	58515.73
551.01	58876.18
551.18	58726.38
551.34	58497.01
551.51	58768.51
551.68	58754.47
551.84	58784.90
552.01	58712.34
552.18	58738.08
552.34	58791.92
552.51	58908.94
552.68	58677.23
552.84	58878.52
553.01	59007.25
553.18	58932.35
553.34	58951.07
553.51	59276.41
553.67	59007.25
553.84	59009.59
554.01	58993.20
554.17	59035.33
554.34	59002.56
554.51	59086.82
554.67	59035.33
554.84	59171.08
555.00	59103.21
555.17	59145.34
555.33	59098.53
555.50	59196.83
555.67	59028.31
555.83	59231.94
556.00	59337.26
556.16	59772.60
556.33	59442.59
556.50	59536.21
556.66	59463.65
556.83	59435.56
556.99	59641.53
557.16	59707.07
557.32	59714.09
557.49	59831.11
557.65	59519.82
557.82	59430.88
557.98	59501.10
558.15	59557.27
558.32	59482.37
558.48	59377.05
558.65	59693.02
558.81	59828.77
558.98	59730.47
559.14	59824.09
559.31	59894.31
559.47	59964.52
559.64	59913.03
559.80	59831.11
559.97	59987.93
560.13	59568.97
560.30	59847.50
560.46	59880.27
560.63	59955.16
560.79	59943.46
560.96	59964.52
561.12	60210.28
561.29	59959.84
561.45	60109.64
561.61	60048.78
561.78	60088.57
561.94	59934.10
562.11	59980.91
562.27	60095.60
562.44	60280.50
562.60	60200.92
562.77	59913.03
562.93	60079.21
563.10	60184.54
563.26	59866.22
563.42	60289.86
563.59	60086.23
563.75	60156.45
563.92	60135.38
564.08	60294.54
564.24	60221.98
564.41	60238.37
564.57	60238.37
564.74	60243.05
564.90	60261.77
565.07	60287.52
565.23	60238.37
565.39	60313.26
565.56	60427.95
565.72	60229.01
565.88	60479.44
566.05	60329.65
566.21	60303.90
566.38	60324.97
566.54	60544.98
566.70	60554.34
566.87	60687.75
567.03	60278.16
567.19	60552.00
567.36	60563.70
567.52	60364.76
567.68	60622.22
567.85	60608.17
568.01	60423.27
568.17	60444.33
568.34	60444.33
568.50	60278.16
568.66	60282.84
568.83	60601.15
568.99	60519.23
569.15	60575.40
569.32	60488.80
569.48	60544.98
569.64	60612.85
569.81	60544.98
569.97	60601.15
570.13	60697.11
570.30	60556.68
570.46	60582.43
570.62	60809.46
570.78	60533.28
570.95	60739.24
571.11	60811.80
571.27	60619.88
571.43	60638.60
571.60	60933.51
571.76	60701.79
571.92	60935.85
572.09	60788.39
572.25	60832.86
572.41	60549.66
572.57	60746.26
572.74	61022.45
572.90	60701.79
573.06	60828.18
573.22	60750.94
573.38	60842.23
573.55	60755.63
573.71	61015.43
573.87	60835.20
574.03	60783.71
574.20	60910.10
574.36	60860.95
574.52	60994.36
574.68	60753.29
574.84	60774.35
575.01	60877.33
575.17	60853.93
575.33	60989.68
575.49	60949.89
575.65	60900.74
575.82	61200.33
575.98	60816.48
576.14	61293.95
576.30	61045.85
576.46	60942.87
576.62	61024.79
576.79	60886.70
576.95	60753.29
577.11	61137.13
577.27	61066.92
577.43	60865.63
577.59	60797.76
577.75	60931.17
577.92	60811.80
578.08	60956.91
578.24	61106.71
578.40	61174.58
578.56	61024.79
578.72	61041.17
578.88	61090.32
579.04	61137.13
579.21	61001.38
579.37	61270.54
579.53	61176.92
579.69	60835.20
579.85	60896.06
580.01	61048.19
580.17	60795.42
580.33	61080.96
580.49	61216.71
580.65	61179.26
580.82	61024.79
580.98	60900.74
581.14	60882.02
581.30	61216.71
581.46	60985.00
581.62	61162.88
581.78	61073.94
581.94	61256.50
582.10	60959.25
582.26	61045.85
582.42	60921.80
582.58	61132.45
582.74	60931.17
582.90	60963.93
583.06	60966.27
583.22	60952.23
583.38	61137.13
583.54	60891.38
583.70	61125.43
583.86	61015.43
584.02	60846.91
584.18	61378.21
584.34	61003.72
584.50	61235.44
584.66	60877.33
584.82	60954.57
584.98	60961.59
585.14	61195.65
585.30	61123.09
585.46	61109.05
585.62	61038.83
585.78	61389.91
585.94	61162.88
586.10	61265.86
586.26	61015.43
586.42	61343.10
586.58	61118.41
586.74	61118.41
586.90	61200.33
587.06	61097.34
587.22	61425.02
587.38	61230.75
587.54	61432.04
587.70	61305.65
587.86	61389.91
588.02	61207.35
588.18	61270.54
588.34	61282.25
588.49	61279.91
