SpectraSuite Data File
++++++++++++++++++++++++++++++++++++
Date: Fri Oct 25 11:25:22 EDT 2013
User: price-jones
Dark Spectrum Present: No
Reference Spectrum Present: No
Number of Sampled Component Spectra: 1
Spectrometers: USB2+H05261
Integration Time (usec): 100000 (USB2+H05261)
Spectra Averaged: 1 (USB2+H05261)
Boxcar Smoothing: 0 (USB2+H05261)
Correct for Electrical Dark: No (USB2+H05261)
Strobe/Lamp Enabled: No (USB2+H05261)
Correct for Detector Non-linearity: No (USB2+H05261)
Correct for Stray Light: No (USB2+H05261)
Number of Pixels in Processed Spectrum: 2048
>>>>>Begin Processed Spectral Data<<<<<
365.73	210.65
365.92	210.65
366.12	210.65
366.32	212.99
366.52	170.86
366.72	126.39
366.91	152.13
367.11	177.88
367.31	107.66
367.51	198.95
367.70	149.79
367.90	156.82
368.10	70.22
368.30	191.92
368.49	58.51
368.69	177.88
368.89	212.99
369.09	184.90
369.28	196.60
369.48	210.65
369.68	191.92
369.87	168.52
370.07	215.33
370.27	297.25
370.47	353.42
370.66	645.99
370.86	585.13
371.06	615.56
371.25	620.24
371.45	692.80
371.65	704.50
371.84	690.46
372.04	720.88
372.24	704.50
372.44	657.69
372.63	720.88
372.83	718.54
373.03	779.40
373.22	770.04
373.42	791.10
373.62	784.08
373.81	777.06
374.01	819.19
374.21	840.25
374.40	856.64
374.60	779.40
374.79	835.57
374.99	849.61
375.19	861.32
375.38	854.30
375.58	840.25
375.78	873.02
375.97	919.83
376.17	861.32
376.37	926.85
376.56	858.98
376.76	896.43
376.95	823.87
377.15	922.17
377.35	945.58
377.54	940.90
377.74	830.89
377.93	802.80
378.13	882.38
378.33	873.02
378.52	819.19
378.72	924.51
378.91	985.37
379.11	973.66
379.31	926.85
379.50	929.19
379.70	957.28
379.89	952.60
380.09	1004.09
380.28	1032.18
380.48	947.92
380.68	971.32
380.87	924.51
381.07	912.81
381.26	1001.75
381.46	1020.47
381.65	1060.26
381.85	1001.75
382.04	983.02
382.24	1083.67
382.43	1053.24
382.63	1062.60
382.83	1083.67
383.02	1104.73
383.22	1146.86
383.41	1088.35
383.61	1165.59
383.80	1128.14
384.00	1100.05
384.19	1163.25
384.39	1060.26
384.58	1135.16
384.78	1144.52
384.97	1142.18
385.17	1118.78
385.36	1270.91
385.56	1167.93
385.75	1142.18
385.95	1203.04
386.14	1266.23
386.34	1130.48
386.53	1240.48
386.72	1149.20
386.92	1217.08
387.11	1083.67
387.31	1287.29
387.50	1233.46
387.70	1259.21
387.89	1235.80
388.09	1273.25
388.28	1254.53
388.48	1235.80
388.67	1284.95
388.86	1359.85
389.06	1364.53
389.25	1315.38
389.45	1387.94
389.64	1366.87
389.84	1488.58
390.03	1444.11
390.22	1387.94
390.42	1352.83
390.61	1329.42
390.81	1387.94
391.00	1406.66
391.19	1488.58
391.39	1434.75
391.58	1411.34
391.78	1497.94
391.97	1446.45
392.16	1490.92
392.36	1596.25
392.55	1467.52
392.75	1516.67
392.94	1514.33
393.13	1500.28
393.33	1486.24
393.52	1565.82
393.71	1490.92
393.91	1621.99
394.10	1668.80
394.29	1636.03
394.49	1598.59
394.68	1535.39
394.88	1561.14
395.07	1703.91
395.26	1736.68
395.46	1596.25
395.65	1631.35
395.84	1760.08
396.04	1727.32
396.23	1753.06
396.42	1750.72
396.62	1795.19
396.81	1802.21
397.00	1736.68
397.19	1813.92
397.39	1792.85
397.58	1877.11
397.77	1849.02
397.97	1842.00
398.16	1849.02
398.35	1952.01
398.55	1792.85
398.74	1916.90
398.93	2017.54
399.12	1963.71
399.32	1891.15
399.51	1923.92
399.70	1949.67
399.90	1961.37
400.09	1881.79
400.28	1959.03
400.47	2106.48
400.67	2097.12
400.86	2087.76
401.05	2118.18
401.24	2059.67
401.44	2022.22
401.63	2047.97
401.82	2064.35
402.01	2106.48
402.21	2169.68
402.40	2211.81
402.59	2087.76
402.78	2176.70
402.97	2251.60
403.17	2221.17
403.36	2174.36
403.55	2349.90
403.74	2335.85
403.93	2392.03
404.13	2338.20
404.32	2338.20
404.51	2279.68
404.70	2427.14
404.89	2429.48
405.09	2457.56
405.28	2502.03
405.47	2471.61
405.66	2450.54
405.85	2579.27
406.05	2523.10
406.24	2726.72
406.43	2651.83
406.62	2630.76
406.81	2637.78
407.00	2614.38
407.20	2616.72
407.39	2661.19
407.58	2684.59
407.77	2719.70
407.96	2708.00
408.15	2764.17
408.34	2745.45
408.54	2747.79
408.73	2792.26
408.92	2897.58
409.11	2820.35
409.30	2949.08
409.49	2895.24
409.68	2843.75
409.87	2815.66
410.07	2864.82
410.26	3038.02
410.45	3009.93
410.64	3033.33
410.83	3089.51
411.02	3148.02
411.21	3122.27
411.40	3117.59
411.59	3218.24
411.78	3197.17
411.98	3229.94
412.17	3243.98
412.36	3300.16
412.55	3368.03
412.74	3344.63
412.93	3407.82
413.12	3356.33
413.31	3524.85
413.50	3524.85
413.69	3426.54
413.88	3578.68
414.07	3585.70
414.26	3611.45
414.45	3599.74
414.64	3662.94
414.83	3810.39
415.02	3845.50
415.22	3794.01
415.41	3852.52
415.60	3857.20
415.79	3948.48
415.98	3999.98
416.17	4049.13
416.36	3857.20
416.55	3985.93
416.74	4077.21
416.93	3882.95
417.12	4030.40
417.31	4049.13
417.50	4234.03
417.69	4400.21
417.88	4259.78
418.07	4304.25
418.26	4238.71
418.45	4250.41
418.64	4353.40
418.83	4507.87
419.02	4299.56
419.21	4475.10
419.39	4449.36
419.58	4552.34
419.77	4447.02
419.96	4470.42
420.15	4622.56
420.34	4606.17
420.53	4559.36
420.72	4678.73
420.91	4795.76
421.10	4770.01
421.29	4835.55
421.48	4744.27
421.67	4634.26
421.86	4697.46
422.05	4812.14
422.24	4636.60
422.43	4882.36
422.61	4856.61
422.80	4865.97
422.99	4828.53
423.18	4992.36
423.37	5043.85
423.56	4826.18
423.75	4891.72
423.94	4732.56
424.13	4482.13
424.32	4610.86
424.50	4835.55
424.69	5238.12
424.88	4844.91
425.07	4917.47
425.26	4793.42
425.45	4882.36
425.64	4882.36
425.83	5048.54
426.01	5053.22
426.20	4987.68
426.39	4968.96
426.58	4983.00
426.77	5088.32
426.96	5055.56
427.15	5076.62
427.33	5085.98
427.52	5123.43
427.71	5298.97
427.90	5238.12
428.09	5298.97
428.28	5434.72
428.46	5303.65
428.65	5282.59
428.84	5371.53
429.03	5511.96
429.22	5275.57
429.40	5352.81
429.59	5437.06
429.78	5214.71
429.97	5334.08
430.16	5535.37
430.34	5526.00
430.53	5652.39
430.72	5544.73
430.91	5626.65
431.10	5504.94
431.28	5661.76
431.47	5748.36
431.66	5788.14
431.85	5640.69
432.03	5809.21
432.22	5853.68
432.41	5905.17
432.60	5776.44
432.79	5781.12
432.97	5858.36
433.16	5891.13
433.35	5970.71
433.54	6017.52
433.72	6181.35
433.91	5905.17
434.10	6080.71
434.28	6087.73
434.47	6087.73
434.66	6148.59
434.85	6387.32
435.03	6354.55
435.22	6108.80
435.41	6368.60
435.59	6384.98
435.78	6370.94
435.97	6483.28
436.16	6431.79
436.34	6445.84
436.53	6410.73
436.72	6539.46
436.90	6520.73
437.09	6733.72
437.28	6530.09
437.46	6443.49
437.65	6595.63
437.84	6799.26
438.02	6642.44
438.21	6691.59
438.40	6499.67
438.58	6874.15
438.77	7002.88
438.96	7002.88
439.14	7155.02
439.33	7215.87
439.52	7112.89
439.70	7295.45
439.89	7234.60
440.08	7529.50
440.26	7265.02
440.45	7269.70
440.63	7328.22
440.82	7447.58
441.01	7630.15
441.19	7522.48
441.38	7723.77
441.57	7641.85
441.75	7833.77
441.94	7922.71
442.12	7786.96
442.31	8030.38
442.50	8065.49
442.68	7854.84
442.87	7880.58
443.05	7974.21
443.24	8156.77
443.43	8271.45
443.61	7896.97
443.80	8484.44
443.98	8009.31
444.17	7871.22
444.35	8292.52
444.54	8184.85
444.73	8168.47
444.91	8362.73
445.10	8234.00
445.28	8306.56
445.47	8112.30
445.65	8231.66
445.84	8416.57
446.02	8521.89
446.21	8252.73
446.39	8264.43
446.58	8388.48
446.77	8491.46
446.95	8175.49
447.14	8486.78
447.32	8421.25
447.51	8315.92
447.69	8325.29
447.88	8566.36
448.06	8606.15
448.25	8262.09
448.43	8631.90
448.62	8606.15
448.80	8369.76
448.99	8496.14
449.17	8678.71
449.36	8676.37
449.54	8699.77
449.73	8765.31
449.91	9057.87
450.10	9060.21
450.28	8982.98
450.46	8947.87
450.65	9048.51
450.83	8971.27
451.02	8835.52
451.20	9102.34
451.39	8884.67
451.57	9357.46
451.76	9092.98
451.94	9158.52
452.13	9341.08
452.31	9252.14
452.49	9125.75
452.68	9343.42
452.86	9345.76
453.05	9336.40
453.23	9446.40
453.42	9294.27
453.60	9291.93
453.78	9554.07
453.97	9383.21
454.15	9331.72
454.34	9331.72
454.52	9881.74
454.70	9795.14
454.89	9582.15
455.07	9734.29
455.26	9701.52
455.44	9811.53
455.62	9907.49
455.81	9827.91
455.99	9856.00
456.17	9832.59
456.36	9961.32
456.54	9926.21
456.73	10043.24
456.91	10307.72
457.09	10293.68
457.28	10473.90
457.46	10293.68
457.64	10373.25
457.83	10579.22
458.01	10345.17
458.19	10710.29
458.38	10452.83
458.56	10691.57
458.74	10670.50
458.93	10630.71
459.11	10649.44
459.29	10626.03
459.48	10677.52
459.66	10801.57
459.84	11009.88
460.03	10817.96
460.21	10881.15
460.39	10965.41
460.57	10986.47
460.76	11309.47
460.94	11101.16
461.12	10956.05
461.31	11257.98
461.49	11262.66
461.67	11145.63
461.85	11400.75
462.04	11197.12
462.22	11604.38
462.40	11499.05
462.59	11520.12
462.77	11597.35
462.95	11332.87
463.13	11545.86
463.32	11634.80
463.50	11613.74
463.68	11754.17
463.86	11765.87
464.05	11871.20
464.23	11800.98
464.41	11822.05
464.59	11548.20
464.78	11833.75
464.96	11960.14
465.14	11941.41
465.32	12023.33
465.50	12023.33
465.69	11913.33
465.87	12030.35
466.05	12173.13
466.23	12299.52
466.41	12205.89
466.60	12477.40
466.78	12058.44
466.96	12182.49
467.14	12229.30
467.32	12311.22
467.51	12353.35
467.69	12098.23
467.87	12201.21
468.05	12437.61
468.23	12500.80
468.41	12311.22
468.60	12498.46
468.78	12666.98
468.96	12435.27
469.14	12875.29
469.32	12861.24
469.50	12603.78
469.69	13008.70
469.87	13027.42
470.05	12922.10
470.23	13151.47
470.41	12957.21
470.59	13177.22
470.77	13046.15
470.95	13160.83
471.14	13769.37
471.32	13296.58
471.50	13528.30
471.68	13537.66
471.86	13521.27
472.04	13336.37
472.22	13935.55
472.40	13862.99
472.58	13514.25
472.77	14090.02
472.95	14022.15
473.13	14567.49
473.31	13834.91
473.49	14010.45
473.67	14118.11
473.85	14204.71
474.03	14658.78
474.21	14534.73
474.39	14494.94
474.57	14413.02
474.75	14789.85
474.93	14846.02
475.12	14740.69
475.30	14998.15
475.48	14927.94
475.66	15269.66
475.84	15171.35
476.02	15049.64
476.20	15279.02
476.38	15634.78
476.56	15857.13
476.74	15878.19
476.92	15932.03
477.10	15756.49
477.28	16116.93
477.46	16065.44
477.64	16086.50
477.82	16269.06
478.00	17003.99
478.18	16793.34
478.36	16776.96
478.54	17184.21
478.72	16940.80
478.90	17074.21
479.08	17415.93
479.26	17598.49
479.44	17788.07
479.62	17605.51
479.80	18075.96
479.98	18150.85
480.16	18562.79
480.34	18450.44
480.52	18511.30
480.70	18471.51
480.88	18230.43
481.06	18471.51
481.24	19000.47
481.41	18883.44
481.59	19344.53
481.77	19281.33
481.95	19475.60
482.13	19660.50
482.31	19667.52
482.49	19941.36
482.67	20182.44
482.85	20357.98
483.03	20573.31
483.21	20795.66
483.39	20669.27
483.57	20973.54
483.74	21123.33
483.92	21177.17
484.10	21067.16
484.28	21591.44
484.46	21867.63
484.64	21975.29
484.82	21774.00
485.00	22185.94
485.18	22492.55
485.35	22911.50
485.53	22656.39
485.71	22939.59
485.89	23396.00
486.07	23089.38
486.25	23541.11
486.43	23023.85
486.61	23508.34
486.78	23995.17
486.96	24030.28
487.14	24418.81
487.32	24285.40
487.50	24865.85
487.68	25125.65
487.85	25001.60
488.03	25195.87
488.21	25666.31
488.39	25773.98
488.57	25799.73
488.75	25795.04
488.92	25659.29
489.10	26581.46
489.28	26593.17
489.46	27049.57
489.64	27278.94
489.81	27236.81
489.99	27042.55
490.17	27819.61
490.35	28025.57
490.53	28067.70
490.70	28381.34
490.88	27983.44
491.06	28547.51
491.24	28678.58
491.41	28929.02
491.59	28968.81
491.77	28863.49
491.95	29439.26
492.13	29605.44
492.30	29874.60
492.48	29839.49
492.66	29919.07
492.84	30232.70
493.01	30543.99
493.19	30876.35
493.37	30869.33
493.54	30773.36
493.72	31370.20
493.90	31070.61
494.08	31917.89
494.25	31503.61
494.43	31660.43
494.61	32100.45
494.79	31976.40
494.96	32533.45
495.14	32690.26
495.32	32753.46
495.49	32776.86
495.67	32896.23
495.85	33436.89
496.02	33504.77
496.20	33429.87
496.38	33734.14
496.55	34089.90
496.73	34349.70
496.91	34761.64
497.09	34672.70
497.26	35093.99
497.44	34387.15
497.62	35550.40
497.79	35318.68
497.97	35562.10
498.14	35700.19
498.32	36020.84
498.50	36077.02
498.67	36245.54
498.85	36369.58
499.03	36524.06
499.20	36416.40
499.38	36491.29
499.56	36833.01
499.73	36989.83
499.91	37397.08
500.08	37308.14
500.26	37495.38
500.44	37720.07
500.61	37661.56
500.79	37755.18
500.97	37804.33
501.14	38211.59
501.32	37998.60
501.49	38569.69
501.67	38543.94
501.84	38565.01
502.02	39007.37
502.20	39180.57
502.37	39182.91
502.55	39070.56
502.72	39037.80
502.90	39393.56
503.07	39468.45
503.25	39676.76
503.43	39526.97
503.60	39871.03
503.78	40201.04
503.95	40151.89
504.13	40273.60
504.30	40563.82
504.48	40280.62
504.65	40776.81
504.83	41095.13
505.01	40863.41
505.18	40996.82
505.36	41832.39
505.53	41045.97
505.71	41319.82
505.88	41539.83
506.06	41277.69
506.23	41612.38
506.41	41296.41
506.58	41727.07
506.76	41783.24
506.93	42120.28
507.11	41984.53
507.28	42595.41
507.46	42635.20
507.63	42550.94
507.81	42990.96
507.98	42953.51
508.16	43377.15
508.33	42838.83
508.50	43480.13
508.68	43676.74
508.85	43482.47
509.03	43650.99
509.20	43655.67
509.38	44229.10
509.55	44439.75
509.73	44322.72
509.90	44194.00
510.08	44383.58
510.25	44320.38
510.42	44729.98
510.60	44596.57
510.77	45090.42
510.95	44769.77
511.12	45048.29
511.30	44980.42
511.47	45287.03
511.64	45624.06
511.82	45638.11
511.99	45661.51
512.17	45579.59
512.34	45703.64
512.51	45879.18
512.69	46117.92
512.86	46330.90
513.04	46539.21
513.21	46288.77
513.38	46649.22
513.56	46576.66
513.73	46553.26
513.90	46960.51
514.08	46728.80
514.25	46887.95
514.43	47016.68
514.60	47133.71
514.77	46616.45
514.95	47555.00
515.12	47360.74
515.29	47459.04
515.47	47639.26
515.64	47859.27
515.81	47662.67
515.99	47957.58
516.16	48531.01
516.33	47749.27
516.51	48701.87
516.68	48168.22
516.85	47966.94
517.03	48664.42
517.20	48619.95
517.37	48774.42
517.54	48540.37
517.72	48694.85
517.89	48891.45
518.06	49092.74
518.24	49242.53
518.41	48893.79
518.58	49193.38
518.75	49411.05
518.93	49317.43
519.10	49345.51
519.27	49610.00
519.45	49153.59
519.62	49745.75
519.79	49567.87
519.96	49640.42
520.14	49909.58
520.31	49750.43
520.48	50312.16
520.65	50307.47
520.83	50450.25
521.00	50520.46
521.17	50361.31
521.34	50429.18
521.52	50459.61
521.69	50876.22
521.86	50782.60
522.03	51105.60
522.20	51246.03
522.38	51166.45
522.55	51105.60
522.72	51161.77
522.89	50953.46
523.07	51112.62
523.24	51231.99
523.41	51679.03
523.58	50946.44
523.75	51697.75
523.92	51564.34
524.10	51554.98
524.27	51611.15
524.44	52116.71
524.61	52009.04
524.78	52006.70
524.96	52229.05
525.13	52233.74
525.30	52130.75
525.47	52648.01
525.64	52226.71
525.81	52402.25
525.98	52491.19
526.16	52406.94
526.33	52839.93
526.50	52858.66
526.67	52566.09
526.84	52893.77
527.01	52863.34
527.18	52699.50
527.36	52853.98
527.53	53146.54
527.70	53137.18
527.87	53078.67
528.04	53162.93
528.21	53322.08
528.38	52982.71
528.55	53106.76
528.72	53240.17
528.89	53186.33
529.07	53375.92
529.24	53102.07
529.41	53439.11
529.58	53490.60
529.75	53600.61
529.92	53659.12
530.09	53418.05
530.26	53668.48
530.43	53968.07
530.60	53499.97
530.77	53937.65
530.94	53806.58
531.11	53837.00
531.28	54248.94
531.46	54152.97
531.63	54429.16
531.80	54066.38
531.97	54108.50
532.14	54171.70
532.31	54305.11
532.48	54262.98
532.65	54468.95
532.82	54398.73
532.99	54639.81
533.16	54241.92
533.33	54494.69
533.50	54824.71
533.67	54670.23
533.84	54546.18
534.01	54618.74
534.18	54721.72
534.35	55077.49
534.52	54808.32
534.69	55377.08
534.86	55098.55
535.03	54742.79
535.20	55164.09
535.37	55063.44
535.54	55491.76
535.71	55070.46
535.88	55262.39
536.05	55351.33
536.22	55379.42
536.38	55536.23
536.55	55522.19
536.72	55487.08
536.89	55327.92
537.06	55496.44
537.23	55442.61
537.40	55444.95
537.57	55714.11
537.74	55718.79
537.91	55693.05
538.08	55781.99
538.25	55828.80
538.42	55655.60
538.59	56051.15
538.75	55597.09
538.92	55833.48
539.09	56072.21
539.26	55980.93
539.43	56245.41
539.60	55971.57
539.77	56079.24
539.94	56161.15
540.11	56222.01
540.28	56229.03
540.44	56240.73
540.61	56247.75
540.78	56186.90
540.95	56334.35
541.12	56175.20
541.29	56439.68
541.46	56315.63
541.62	56275.84
541.79	56488.83
541.96	56165.84
542.13	56540.32
542.30	56399.89
542.47	56610.54
542.63	56701.82
542.80	56673.73
542.97	56912.47
543.14	56978.00
543.31	56884.38
543.48	57095.03
543.64	57169.93
543.81	57137.16
543.98	57265.89
544.15	57003.75
544.32	57322.06
544.48	57319.72
544.65	57216.74
544.82	57310.36
544.99	56830.55
545.16	57389.94
545.32	57226.10
545.49	57598.24
545.66	57549.09
545.83	57715.27
546.00	57488.24
546.16	57614.63
546.33	57380.57
546.50	57102.05
546.67	57495.26
546.83	57322.06
547.00	57584.20
547.17	57492.92
547.34	57705.91
547.50	57745.70
547.67	57963.37
547.84	57680.16
548.00	58045.29
548.17	58056.99
548.34	57925.92
548.51	57914.22
548.67	58134.23
548.84	58066.35
549.01	58005.50
549.18	58000.82
549.34	58155.29
549.51	58082.73
549.68	58302.74
549.84	58089.76
550.01	58279.34
550.18	57944.64
550.34	58379.98
550.51	58260.62
550.68	58253.59
550.84	58171.67
551.01	58337.85
551.18	58351.90
551.34	58836.39
551.51	58375.30
551.68	58354.24
551.84	58452.54
552.01	58412.75
552.18	58628.08
552.34	58356.58
552.51	58438.50
552.68	58485.31
552.84	58560.20
553.01	58670.21
553.18	58700.64
553.34	58808.30
553.51	58574.25
553.67	58777.87
553.84	58745.11
554.01	58906.60
554.17	58883.20
554.34	58810.64
554.51	59135.98
554.67	58932.35
554.84	59028.31
555.00	58997.88
555.17	58871.49
555.33	58913.62
555.50	58838.73
555.67	58805.96
555.83	58759.15
556.00	59047.04
556.16	59409.82
556.33	59117.25
556.50	59096.19
556.66	59267.05
556.83	59011.93
556.99	59257.68
557.16	59271.73
557.32	59285.77
557.49	59568.97
557.65	59126.61
557.82	59309.18
557.98	59285.77
558.15	59255.34
558.32	59391.09
558.48	59164.06
558.65	59531.53
558.81	59444.93
558.98	59341.94
559.14	59355.99
559.31	59721.11
559.47	59423.86
559.64	59597.06
559.80	59737.49
559.97	59697.70
560.13	59463.65
560.30	59625.15
560.46	59655.57
560.63	59702.38
560.79	59788.98
560.96	59765.58
561.12	59753.88
561.29	59641.53
561.45	59618.13
561.61	59622.81
561.78	59772.60
561.94	59561.95
562.11	59917.71
562.27	59681.32
562.44	59686.00
562.60	59805.37
562.77	59779.62
562.93	59608.76
563.10	59945.80
563.26	59718.77
563.42	59927.08
563.59	59962.18
563.75	59880.27
563.92	59810.05
564.08	59859.20
564.24	60128.36
564.41	60062.83
564.57	59838.14
564.74	60060.49
564.90	59987.93
565.07	59861.54
565.23	59990.27
565.39	59994.95
565.56	60161.13
565.72	59842.82
565.88	59992.61
566.05	60111.98
566.21	60095.60
566.38	59898.99
566.54	60151.77
566.70	60140.07
566.87	60238.37
567.03	60046.44
567.19	60240.71
567.36	60390.50
567.52	60004.31
567.68	60381.14
567.85	60378.80
568.01	60313.26
568.17	60053.47
568.34	60278.16
568.50	60327.31
568.66	60161.13
568.83	60154.11
568.99	60254.75
569.15	60289.86
569.32	60399.86
569.48	60219.64
569.64	60320.29
569.81	60266.45
569.97	60266.45
570.13	60388.16
570.30	60090.91
570.46	60289.86
570.62	60261.77
570.78	60413.91
570.95	60151.77
571.11	60498.17
571.27	60324.97
571.43	60474.76
571.60	60385.82
571.76	60413.91
571.92	60425.61
572.09	60432.63
572.25	60378.80
572.41	60406.89
572.57	60329.65
572.74	60633.92
572.90	60465.40
573.06	60434.97
573.22	60659.66
573.38	60423.27
573.55	60470.08
573.71	60608.17
573.87	60657.32
574.03	60397.52
574.20	60573.06
574.36	60409.23
574.52	60488.80
574.68	60441.99
574.84	60718.18
575.01	60699.45
575.17	60542.64
575.33	60470.08
575.49	60523.91
575.65	60652.64
575.82	60764.99
575.98	60704.13
576.14	60802.44
576.30	60662.00
576.46	60610.51
576.62	60839.89
576.79	60734.56
576.95	60491.15
577.11	60645.62
577.27	60701.79
577.43	60919.46
577.59	60584.77
577.75	60526.25
577.92	60519.23
578.08	60640.94
578.24	60818.82
578.40	60872.65
578.56	60828.18
578.72	60367.10
578.88	60921.80
579.04	60750.94
579.21	60591.79
579.37	60938.19
579.53	61010.74
579.69	60685.41
579.85	60654.98
580.01	60779.03
580.17	60519.23
580.33	60835.20
580.49	60970.96
580.65	60811.80
580.82	60746.26
580.98	60720.52
581.14	60687.75
581.30	60818.82
581.46	60746.26
581.62	60807.12
581.78	60662.00
581.94	60722.86
582.10	60729.88
582.26	60788.39
582.42	60687.75
582.58	60764.99
582.74	60631.58
582.90	60823.50
583.06	60982.66
583.22	60671.37
583.38	61083.30
583.54	60811.80
583.70	60917.12
583.86	61001.38
584.02	60722.86
584.18	61017.77
584.34	60891.38
584.50	61029.47
584.66	60750.94
584.82	60711.16
584.98	60931.17
585.14	60828.18
585.30	60676.05
585.46	60842.23
585.62	60772.01
585.78	60891.38
585.94	60772.01
586.10	60959.25
586.26	60891.38
586.42	60882.02
586.58	61069.26
586.74	61172.24
586.90	60734.56
587.06	60837.54
587.22	60931.17
587.38	60867.97
587.54	61015.43
587.70	60907.76
587.86	60963.93
588.02	61015.43
588.18	61073.94
588.34	61062.24
588.49	60889.04
