SpectraSuite Data File
++++++++++++++++++++++++++++++++++++
Date: Fri Oct 25 10:48:19 EDT 2013
User: price-jones
Dark Spectrum Present: No
Reference Spectrum Present: No
Number of Sampled Component Spectra: 1
Spectrometers: USB2+H05261
Integration Time (usec): 100000 (USB2+H05261)
Spectra Averaged: 1 (USB2+H05261)
Boxcar Smoothing: 0 (USB2+H05261)
Correct for Electrical Dark: No (USB2+H05261)
Strobe/Lamp Enabled: No (USB2+H05261)
Correct for Detector Non-linearity: No (USB2+H05261)
Correct for Stray Light: No (USB2+H05261)
Number of Pixels in Processed Spectrum: 2048
>>>>>Begin Processed Spectral Data<<<<<
365.73	156.82
365.92	156.82
366.12	156.82
366.32	72.56
366.52	37.45
366.72	91.28
366.91	32.77
367.11	56.17
367.31	44.47
367.51	56.17
367.70	37.45
367.90	39.79
368.10	67.88
368.30	56.17
368.49	37.45
368.69	32.77
368.89	67.88
369.09	81.92
369.28	70.22
369.48	98.30
369.68	74.90
369.87	77.24
370.07	63.19
370.27	117.03
370.47	201.29
370.66	461.09
370.86	470.45
371.06	533.64
371.25	512.58
371.45	496.19
371.65	454.06
371.84	491.51
372.04	552.37
372.24	486.83
372.44	538.32
372.63	552.37
372.83	592.16
373.03	608.54
373.22	559.39
373.42	498.53
373.62	550.03
373.81	631.94
374.01	678.76
374.21	676.41
374.40	627.26
374.60	561.73
374.79	622.58
374.99	660.03
375.19	638.97
375.38	601.52
375.58	678.76
375.78	571.09
375.97	603.86
376.17	655.35
376.37	603.86
376.56	716.20
376.76	620.24
376.95	702.16
377.15	697.48
377.35	631.94
377.54	739.61
377.74	741.95
377.93	706.84
378.13	723.23
378.33	702.16
378.52	622.58
378.72	760.67
378.91	763.01
379.11	734.93
379.31	690.46
379.50	636.63
379.70	788.76
379.89	793.44
380.09	683.44
380.28	723.23
380.48	770.04
380.68	760.67
380.87	751.31
381.07	732.59
381.26	706.84
381.46	723.23
381.65	795.78
381.85	704.50
382.04	802.80
382.24	755.99
382.43	819.19
382.63	774.72
382.83	727.91
383.02	774.72
383.22	772.38
383.41	711.52
383.61	777.06
383.80	732.59
384.00	929.19
384.19	751.31
384.39	847.27
384.58	873.02
384.78	849.61
384.97	894.08
385.17	891.74
385.36	777.06
385.56	812.17
385.75	847.27
385.95	929.19
386.14	877.70
386.34	840.25
386.53	938.55
386.72	933.87
386.92	954.94
387.11	999.41
387.31	922.17
387.50	903.45
387.70	915.15
387.89	973.66
388.09	858.98
388.28	781.74
388.48	959.62
388.67	1008.77
388.86	950.26
389.06	947.92
389.25	1041.54
389.45	1111.75
389.64	952.60
389.84	1116.44
390.03	1057.92
390.22	1174.95
390.42	1050.90
390.61	964.30
390.81	1025.15
391.00	1036.86
391.19	1163.25
391.39	1125.80
391.58	1160.91
391.78	1128.14
391.97	1128.14
392.16	1109.41
392.36	1118.78
392.55	1102.39
392.75	1018.13
392.94	1020.47
393.13	1095.37
393.33	943.24
393.52	1069.62
393.71	1116.44
393.91	1193.67
394.10	1149.20
394.29	1219.42
394.49	1226.44
394.68	1289.64
394.88	1217.08
395.07	1364.53
395.26	1369.21
395.46	1275.59
395.65	1219.42
395.84	1299.00
396.04	1294.32
396.23	1245.16
396.42	1151.54
396.62	1301.34
396.81	1313.04
397.00	1277.93
397.19	1423.05
397.39	1315.38
397.58	1401.98
397.77	1488.58
397.97	1476.88
398.16	1558.80
398.35	1537.73
398.55	1579.86
398.74	1675.82
398.93	1647.74
399.12	1596.25
399.32	1607.95
399.51	1659.44
399.70	1685.19
399.90	1549.43
400.09	1696.89
400.28	1802.21
400.47	1678.16
400.67	1743.70
400.86	1764.76
401.05	1710.93
401.24	1762.42
401.44	1778.81
401.63	1839.66
401.82	1774.13
402.01	1746.04
402.21	1783.49
402.40	1792.85
402.59	1813.92
402.78	1905.20
402.97	1879.45
403.17	1886.47
403.36	1844.34
403.55	1912.22
403.74	1937.96
403.93	1881.79
404.13	1874.77
404.32	2012.86
404.51	2038.61
404.70	2108.82
404.89	1961.37
405.09	2012.86
405.28	1952.01
405.47	2150.95
405.66	2087.76
405.85	2010.52
406.05	2080.74
406.24	2069.03
406.43	2188.40
406.62	2040.95
406.81	2150.95
407.00	2094.78
407.20	2165.00
407.39	2193.08
407.58	2223.51
407.77	2303.09
407.96	2228.19
408.15	2270.32
408.34	2347.56
408.54	2340.54
408.73	2401.39
408.92	2310.11
409.11	2342.88
409.30	2392.03
409.49	2230.53
409.68	2403.73
409.87	2434.16
410.07	2485.65
410.26	2499.69
410.45	2555.86
410.64	2600.34
410.83	2574.59
411.02	2621.40
411.21	2710.34
411.40	2672.89
411.59	2719.70
411.78	2773.53
411.98	2717.36
412.17	2789.92
412.36	2703.32
412.55	2885.88
412.74	2953.76
412.93	2825.03
413.12	2850.77
413.31	2883.54
413.50	3033.33
413.69	2981.84
413.88	3019.29
414.07	3101.21
414.26	3103.55
414.45	3143.34
414.64	3045.04
414.83	3112.91
415.02	3208.87
415.22	3215.90
415.41	3215.90
415.60	3309.52
415.79	3410.16
415.98	3433.57
416.17	3503.78
416.36	3435.91
416.55	3400.80
416.74	3445.27
416.93	3337.60
417.12	3426.54
417.31	3445.27
417.50	3424.20
417.69	3700.39
417.88	3637.19
418.07	3590.38
418.26	3595.06
418.45	3679.32
418.64	3803.37
418.83	3747.20
419.02	3723.79
419.21	3826.78
419.39	3602.08
419.58	3606.77
419.77	3728.47
419.96	3749.54
420.15	3964.87
420.34	3955.51
420.53	3992.95
420.72	4042.11
420.91	3950.82
421.10	4081.89
421.29	4014.02
421.48	3971.89
421.67	3953.16
421.86	4025.72
422.05	3962.53
422.24	3784.65
422.43	3948.48
422.61	4035.08
422.80	4098.28
422.99	3929.76
423.18	4042.11
423.37	4140.41
423.56	4180.20
423.75	4018.70
423.94	4074.87
424.13	3878.27
424.32	3992.95
424.50	4133.39
424.69	4337.01
424.88	4271.48
425.07	4025.72
425.26	4039.76
425.45	4098.28
425.64	4126.36
425.83	4159.13
426.01	4138.07
426.20	4238.71
426.39	4138.07
426.58	4070.19
426.77	4198.92
426.96	3988.27
427.15	4046.79
427.33	4168.49
427.52	4131.05
427.71	4285.52
427.90	4386.16
428.09	4393.19
428.28	4348.72
428.46	4346.37
428.65	4346.37
428.84	4444.68
429.03	4360.42
429.22	4308.93
429.40	4372.12
429.59	4407.23
429.78	4119.34
429.97	3962.53
430.16	4252.75
430.34	4140.41
430.53	4533.62
430.72	4306.59
430.91	4182.54
431.10	4381.48
431.28	4671.71
431.47	4849.59
431.66	4751.29
431.85	4805.12
432.03	4795.76
432.22	4774.69
432.41	4868.31
432.60	4688.09
432.79	4961.94
432.97	4919.81
433.16	5102.37
433.35	4887.04
433.54	4870.65
433.72	4861.29
433.91	4814.48
434.10	5041.51
434.28	5114.07
434.47	4957.25
434.66	5114.07
434.85	5107.05
435.03	5132.79
435.22	5006.41
435.41	5317.70
435.59	5247.48
435.78	5207.69
435.97	5418.34
436.16	5249.82
436.34	5294.29
436.53	5387.91
436.72	5535.37
436.90	5207.69
437.09	5418.34
437.28	5430.04
437.46	5469.83
437.65	5504.94
437.84	5331.74
438.02	5350.46
438.21	5355.15
438.40	5226.42
438.58	5605.58
438.77	5628.99
438.96	5753.04
439.14	5764.74
439.33	5818.57
439.52	5849.00
439.70	5933.26
439.89	5900.49
440.08	5895.81
440.26	6087.73
440.45	5959.00
440.63	6010.50
440.82	6171.99
441.01	6104.12
441.19	6197.74
441.38	6260.93
441.57	6525.41
441.75	6300.72
441.94	6516.05
442.12	6565.20
442.31	6640.10
442.50	6509.03
442.68	6434.13
442.87	6644.78
443.05	6658.82
443.24	6843.73
443.43	6640.10
443.61	6604.99
443.80	6700.95
443.98	6803.94
444.17	6574.56
444.35	6810.96
444.54	6871.81
444.73	6717.34
444.91	6771.17
445.10	6731.38
445.28	6642.44
445.47	6658.82
445.65	6729.04
445.84	7037.99
446.02	6813.30
446.21	6747.76
446.39	6909.26
446.58	6963.09
446.77	6789.89
446.95	6815.64
447.14	6998.20
447.32	7021.61
447.51	6780.53
447.69	6965.43
447.88	6853.09
448.06	7061.40
448.25	7023.95
448.43	7077.78
448.62	7082.46
448.80	7059.06
448.99	7171.40
449.17	7178.42
449.36	7258.00
449.54	7073.10
449.73	7400.77
449.91	7339.92
450.10	7470.99
450.28	7515.46
450.46	7590.36
450.65	7417.16
450.83	7513.12
451.02	7588.02
451.20	7524.82
451.39	7576.31
451.57	7492.05
451.76	7375.03
451.94	7463.97
452.13	7571.63
452.31	7435.88
452.49	7438.22
452.68	7522.48
452.86	7559.93
453.05	7667.60
453.23	7681.64
453.42	7438.22
453.60	7470.99
453.78	7646.53
453.97	7581.00
454.15	7733.13
454.34	7571.63
454.52	7805.69
454.70	7754.19
454.89	7918.03
455.07	7831.43
455.26	7946.12
455.44	8184.85
455.62	8138.04
455.81	8147.40
455.99	8257.41
456.17	8077.19
456.36	8039.74
456.54	8266.77
456.73	8578.06
456.91	8606.15
457.09	8425.93
457.28	8456.36
457.46	8477.42
457.64	8376.78
457.83	8386.14
458.01	8430.61
458.19	8362.73
458.38	8367.42
458.56	8650.62
458.74	8718.50
458.93	8772.33
459.11	8493.80
459.29	8587.43
459.48	8730.20
459.66	8566.36
459.84	8854.25
460.03	8875.31
460.21	8772.33
460.39	8828.50
460.57	8901.06
460.76	8760.63
460.94	9025.11
461.12	8896.38
461.31	8908.08
461.49	8830.84
461.67	8982.98
461.85	9050.85
462.04	9107.02
462.22	9603.22
462.40	9104.68
462.59	9298.95
462.77	9460.45
462.95	9301.29
463.13	9423.00
463.32	9331.72
463.50	9514.28
463.68	9434.70
463.86	9385.55
464.05	9123.41
464.23	9460.45
464.41	9514.28
464.59	9221.71
464.78	9603.22
464.96	9256.82
465.14	9345.76
465.32	9425.34
465.50	9558.75
465.69	9628.96
465.87	9591.52
466.05	9605.56
466.23	9359.80
466.41	9533.00
466.60	9638.33
466.78	9394.91
466.96	9638.33
467.14	9624.28
467.32	9638.33
467.51	9774.08
467.69	9582.15
467.87	9788.12
468.05	10012.81
468.23	9827.91
468.41	9645.35
468.60	9944.94
468.78	10099.41
468.96	10073.67
469.14	10176.65
469.32	10071.33
469.50	9813.87
469.69	10181.33
469.87	10209.42
470.05	10207.08
470.23	10211.76
470.41	10073.67
470.59	10200.05
470.77	10190.69
470.95	10523.05
471.14	10478.58
471.32	10490.28
471.50	10649.44
471.68	10640.08
471.86	10743.06
472.04	10558.16
472.22	10927.96
472.40	10462.19
472.58	10696.25
472.77	10803.91
472.95	11187.76
473.13	11349.26
473.31	10906.90
473.49	10867.11
473.67	10960.73
473.85	11028.60
474.03	11328.19
474.21	11398.41
474.39	11435.86
474.57	11386.71
474.75	11499.05
474.93	11702.68
475.12	11899.28
475.30	11941.41
475.48	11499.05
475.66	11793.96
475.84	11637.14
476.02	11967.16
476.20	11730.76
476.38	12245.68
476.56	12236.32
476.74	12224.62
476.92	12241.00
477.10	12224.62
477.28	12762.94
477.46	12393.14
477.64	12695.07
477.82	12564.00
478.00	12999.34
478.18	12982.95
478.36	13144.45
478.54	13202.96
478.72	13301.26
478.90	13364.46
479.08	13523.62
479.26	13750.65
479.44	13727.24
479.62	13851.29
479.80	13823.20
479.98	14022.15
480.16	14265.57
480.34	14094.71
480.52	14274.93
480.70	14190.67
480.88	14066.62
481.06	14310.04
481.24	14223.44
481.41	14691.54
481.59	14946.66
481.77	14911.55
481.95	15187.74
482.13	15082.41
482.31	15183.06
482.49	15672.23
482.67	15435.83
482.85	15564.56
483.03	15967.13
483.21	16056.08
483.39	16074.80
483.57	16018.63
483.74	16145.02
483.92	16292.47
484.10	16236.30
484.28	16706.74
484.46	16491.41
484.64	17062.51
484.82	16538.23
485.00	16996.97
485.18	16980.59
485.35	17025.06
485.53	16650.57
485.71	17095.27
485.89	16987.61
486.07	17062.51
486.25	17116.34
486.43	17352.73
486.61	17731.90
486.78	17717.86
486.96	18139.15
487.14	18689.18
487.32	18239.79
487.50	18696.20
487.68	18300.65
487.85	18822.59
488.03	19161.97
488.21	19220.48
488.39	19262.61
488.57	19239.20
488.75	19889.87
488.92	19601.99
489.10	19882.85
489.28	20498.41
489.46	20348.62
489.64	20362.66
489.81	20882.26
489.99	20706.72
490.17	21046.10
490.35	21177.17
490.53	20966.52
490.70	21362.07
490.88	21355.05
491.06	21671.02
491.24	21951.88
491.41	21472.07
491.59	21771.66
491.77	21703.79
491.95	21766.98
492.13	21951.88
492.30	22384.88
492.48	22342.75
492.66	22429.35
492.84	22731.28
493.01	23138.54
493.19	23094.07
493.37	23131.51
493.54	23105.77
493.72	23379.61
493.90	23253.22
494.08	24032.62
494.25	23985.81
494.43	24065.39
494.61	23957.72
494.79	24435.19
494.96	24304.12
495.14	24112.20
495.32	24451.58
495.49	24840.11
495.67	24716.06
495.85	24776.91
496.02	24947.77
496.20	25256.72
496.38	24996.92
496.55	25907.39
496.73	25972.92
496.91	26010.37
497.09	26038.46
497.26	25825.47
497.44	25687.38
497.62	26302.94
497.79	26094.63
497.97	26094.63
498.14	26249.11
498.32	26312.30
498.50	26583.80
498.67	26644.66
498.85	27143.19
499.03	27096.38
499.20	26923.18
499.38	27297.67
499.56	27243.84
499.73	27351.50
499.91	27527.04
500.08	27466.19
500.26	27454.48
500.44	27435.76
500.61	27679.18
500.79	27510.66
500.97	27725.99
501.14	28243.24
501.32	28381.34
501.49	28070.04
501.67	28060.68
501.84	28121.54
502.02	28229.20
502.20	28690.29
502.37	28966.47
502.55	28732.42
502.72	29106.90
502.90	28985.19
503.07	28680.92
503.25	29069.45
503.43	28828.38
503.60	28954.77
503.78	29495.43
503.95	29324.57
504.13	29563.31
504.30	29708.42
504.48	29315.21
504.65	29961.20
504.83	29951.84
505.01	30134.40
505.18	29970.56
505.36	30803.79
505.53	30384.83
505.71	30691.44
505.88	30581.44
506.06	30658.68
506.23	30548.67
506.41	30558.03
506.58	30473.78
506.76	30855.28
506.93	31344.45
507.11	31182.96
507.28	31234.45
507.46	31189.98
507.63	31049.55
507.81	31290.62
507.98	31257.85
508.16	31894.48
508.33	31489.57
508.50	31728.30
508.68	32027.89
508.85	32004.49
509.03	31990.44
509.20	32128.53
509.38	32343.86
509.55	32542.81
509.73	32346.20
509.90	32444.51
510.08	32290.03
510.25	32723.03
510.42	32554.51
510.60	32797.93
510.77	33165.39
510.95	33139.65
511.12	32737.07
511.30	33376.04
511.47	33897.98
511.64	33628.82
511.82	33696.69
511.99	33626.48
512.17	33771.59
512.34	33179.43
512.51	33521.15
512.69	33621.80
512.86	34148.42
513.04	33944.79
513.21	34125.01
513.38	34253.74
513.56	33902.66
513.73	34038.41
513.90	34469.07
514.08	34092.24
514.25	34246.72
514.43	34258.42
514.60	34340.34
514.77	34256.08
514.95	34574.39
515.12	34277.15
515.29	34611.84
515.47	35360.81
515.64	35206.34
515.81	34756.96
515.99	34689.08
516.16	34768.66
516.33	34890.37
516.51	35316.34
516.68	34218.63
516.85	33979.90
517.03	34632.91
517.20	35339.75
517.37	35475.50
517.54	36032.55
517.72	35541.03
517.89	34829.51
518.06	35346.77
518.24	35304.64
518.41	35306.98
518.58	35674.45
518.75	35894.46
518.93	35868.71
519.10	35882.75
519.27	36575.55
519.45	36694.92
519.62	36587.25
519.79	36533.42
519.96	36453.84
520.14	37174.73
520.31	36238.51
520.48	36570.87
520.65	36732.37
520.83	36842.37
521.00	37036.64
521.17	36900.89
521.34	37062.38
521.52	37322.18
521.69	37450.91
521.86	37696.67
522.03	37275.37
522.20	37474.32
522.38	37549.21
522.55	37804.33
522.72	37621.77
522.89	37612.41
523.07	37862.85
523.24	37441.55
523.41	38124.99
523.58	37825.40
523.75	38223.29
523.92	37958.81
524.10	38382.45
524.27	38731.18
524.44	37883.91
524.61	38548.62
524.78	38733.53
524.96	38761.61
525.13	38682.03
525.30	38855.23
525.47	38962.90
525.64	38960.56
525.81	38948.85
525.98	38667.99
526.16	38124.99
526.33	38099.24
526.50	39033.11
526.67	38583.73
526.84	38593.09
527.01	38670.33
527.18	38660.97
527.36	39103.33
527.53	39351.43
527.70	39959.97
527.87	40135.51
528.04	39601.86
528.21	39913.16
528.38	39627.61
528.55	40493.61
528.72	40088.70
528.89	40453.82
529.07	40390.62
529.24	39641.65
529.41	40631.70
529.58	40198.70
529.75	39840.60
529.92	40722.98
530.09	40336.79
530.26	40381.26
530.43	40907.88
530.60	40694.89
530.77	40772.13
530.94	41024.91
531.11	40591.91
531.28	40753.41
531.46	41006.19
531.63	40219.77
531.80	40975.76
531.97	40818.94
532.14	40781.49
532.31	40509.99
532.48	40835.33
532.65	40739.36
532.82	40718.30
532.99	41221.52
533.16	40802.56
533.33	41038.95
533.50	41202.79
533.67	40987.46
533.84	41134.92
534.01	41598.34
534.18	41584.30
534.35	41860.48
534.52	41235.56
534.69	41703.67
534.86	41457.91
535.03	41813.67
535.20	42300.50
535.37	41975.17
535.54	42244.33
535.71	41947.08
535.88	42249.01
536.05	42073.47
536.22	42197.52
536.38	41963.46
536.55	41916.65
536.72	41979.85
536.89	41598.34
537.06	42139.00
537.23	42286.46
537.40	42536.90
537.57	42370.72
537.74	42110.92
537.91	42721.80
538.08	42784.99
538.25	42227.95
538.42	42574.34
538.59	42735.84
538.75	42373.06
538.92	42373.06
539.09	42454.98
539.26	42508.81
539.43	42866.91
539.60	42401.14
539.77	42536.90
539.94	42677.33
540.11	42918.40
540.28	42525.19
540.44	43009.68
540.61	43154.80
540.78	42536.90
540.95	42698.39
541.12	43124.37
541.29	43159.48
541.46	42766.27
541.62	43194.59
541.79	43608.86
541.96	42927.77
542.13	43255.44
542.30	43241.40
542.47	43061.18
542.63	43398.21
542.80	43730.57
542.97	43985.69
543.14	43959.94
543.31	43840.57
543.48	43798.44
543.64	43997.39
543.81	44378.90
543.98	44484.22
544.15	44177.61
544.32	44144.84
544.48	44516.99
544.65	44093.35
544.82	44238.47
544.99	44222.08
545.16	44774.45
545.32	44421.03
545.49	44219.74
545.66	44701.89
545.83	44355.49
546.00	44807.22
546.16	44568.48
546.33	44554.44
546.50	43964.62
546.67	44257.19
546.83	43927.17
547.00	44339.11
547.17	44367.20
547.34	44739.34
547.50	44652.74
547.67	44760.40
547.84	44451.45
548.00	45050.63
548.17	45177.02
548.34	44591.89
548.51	45443.84
548.67	45329.16
548.84	45244.90
549.01	44832.96
549.18	45067.02
549.34	45549.17
549.51	45347.88
549.68	45230.85
549.84	45261.28
550.01	45635.77
550.18	45418.10
550.34	45092.76
550.51	45076.38
550.68	45331.50
550.84	45071.70
551.01	45612.36
551.18	45457.88
551.34	45272.98
551.51	45890.88
551.68	45448.52
551.84	45874.50
552.01	45364.26
552.18	45741.09
552.34	45329.16
552.51	45603.00
552.68	45649.81
552.84	45837.05
553.01	45975.14
553.18	45933.01
553.34	45888.54
553.51	45762.15
553.67	45820.67
553.84	46124.94
554.01	46174.09
554.17	46206.86
554.34	45914.29
554.51	45902.59
554.67	46373.03
554.84	46085.15
555.00	45914.29
555.17	45867.48
555.33	46183.45
555.50	45846.41
555.67	46241.96
555.83	46663.26
556.00	46176.43
556.16	46579.00
556.33	45720.02
556.50	46206.86
556.66	46555.60
556.83	45909.61
556.99	46492.40
557.16	46506.44
557.32	46223.24
557.49	46412.82
557.65	46270.05
557.82	45989.19
557.98	46674.96
558.15	46384.74
558.32	46396.44
558.48	46171.75
558.65	46424.53
558.81	46307.50
558.98	46309.84
559.14	46595.38
559.31	46330.90
559.47	46712.41
559.64	46464.32
559.80	46689.01
559.97	46480.70
560.13	45827.69
560.30	46667.94
560.46	46595.38
560.63	46522.83
560.79	46527.51
560.96	47161.79
561.12	46803.69
561.29	47044.77
561.45	46401.12
561.61	46951.15
561.78	46820.08
561.94	46899.65
562.11	46696.03
562.27	46595.38
562.44	46649.22
562.60	46892.63
562.77	47566.71
562.93	46801.35
563.10	47278.82
563.26	46656.24
563.42	47009.66
563.59	47086.90
563.75	46899.65
563.92	46958.17
564.08	46869.23
564.24	46616.45
564.41	47056.47
564.57	47000.30
564.74	46794.33
564.90	47145.41
565.07	47058.81
565.23	46894.97
565.39	46904.34
565.56	47215.63
565.72	46684.33
565.88	46902.00
566.05	46738.16
566.21	47173.50
566.38	47189.88
566.54	46838.80
566.70	47229.67
566.87	47562.03
567.03	47194.56
567.19	47604.16
567.36	47714.16
567.52	47037.75
567.68	47217.97
567.85	47044.77
568.01	47461.38
568.17	47234.35
568.34	46972.21
568.50	46953.49
568.66	47325.63
568.83	47189.88
568.99	46829.44
569.15	47250.74
569.32	46972.21
569.48	46738.16
569.64	47791.40
569.81	47590.11
569.97	47220.31
570.13	46646.88
570.30	46752.20
570.46	46866.89
570.62	47150.09
570.78	46911.36
570.95	46756.88
571.11	47133.71
571.27	47250.74
571.43	46880.93
571.60	47646.29
571.76	47346.70
571.92	47243.71
572.09	47346.70
572.25	47253.08
572.41	47224.99
572.57	47058.81
572.74	48051.20
572.90	47632.24
573.06	47573.73
573.22	47562.03
573.38	47107.96
573.55	47194.56
573.71	47271.80
573.87	46990.94
574.03	47126.69
574.20	47398.19
574.36	47203.92
574.52	47620.54
574.68	47552.66
574.84	47122.01
575.01	47302.23
575.17	47306.91
575.33	47182.86
575.49	47105.62
575.65	47746.93
575.82	47138.39
575.98	47475.43
576.14	47629.90
576.30	47332.65
576.46	47182.86
576.62	47140.73
576.79	47072.85
576.95	46691.35
577.11	46789.65
577.27	47342.02
577.43	47709.48
577.59	47269.46
577.75	47023.70
577.92	47089.24
578.08	47143.07
578.24	46944.12
578.40	46969.87
578.56	47136.05
578.72	47386.49
578.88	47243.71
579.04	47386.49
579.21	47416.91
579.37	47096.26
579.53	47100.94
579.69	46997.96
579.85	47112.64
580.01	47309.25
580.17	47318.61
580.33	47674.37
580.49	47452.02
580.65	47491.81
580.82	47459.04
580.98	47203.92
581.14	47189.88
581.30	47566.71
581.46	47482.45
581.62	47414.57
581.78	47643.94
581.94	47487.13
582.10	47529.26
582.26	47489.47
582.42	47185.20
582.58	47540.96
582.74	47232.01
582.90	47119.66
583.06	47552.66
583.22	47753.95
583.38	47604.16
583.54	47803.10
583.70	47632.24
583.86	47482.45
584.02	47147.75
584.18	47437.98
584.34	47442.66
584.50	47657.99
584.66	47306.91
584.82	47079.88
584.98	47606.50
585.14	47756.29
585.30	47782.04
585.46	47407.55
585.62	47262.44
585.78	47515.22
585.94	47615.86
586.10	47222.65
586.26	47250.74
586.42	47791.40
586.58	47547.98
586.74	47751.61
586.90	47145.41
587.06	46934.76
587.22	47358.40
587.38	47051.79
587.54	47772.67
587.70	47679.05
587.86	47590.11
588.02	47491.81
588.18	47618.20
588.34	47267.12
588.49	47100.94
588.65	46614.11
588.81	47000.30
588.97	47271.80
589.13	47143.07
589.29	47215.63
589.45	47702.46
589.61	47515.22
589.77	47606.50
