SpectraSuite Data File
++++++++++++++++++++++++++++++++++++
Date: Fri Oct 25 11:34:30 EDT 2013
User: price-jones
Dark Spectrum Present: No
Reference Spectrum Present: No
Number of Sampled Component Spectra: 1
Spectrometers: USB2+H05261
Integration Time (usec): 100000 (USB2+H05261)
Spectra Averaged: 1 (USB2+H05261)
Boxcar Smoothing: 0 (USB2+H05261)
Correct for Electrical Dark: No (USB2+H05261)
Strobe/Lamp Enabled: No (USB2+H05261)
Correct for Detector Non-linearity: No (USB2+H05261)
Correct for Stray Light: No (USB2+H05261)
Number of Pixels in Processed Spectrum: 2048
>>>>>Begin Processed Spectral Data<<<<<
365.73	280.86
365.92	280.86
366.12	280.86
366.32	110.01
366.52	154.48
366.72	191.92
366.91	203.63
367.11	133.41
367.31	152.13
367.51	163.84
367.70	187.24
367.90	191.92
368.10	187.24
368.30	187.24
368.49	147.45
368.69	205.97
368.89	189.58
369.09	245.76
369.28	124.05
369.48	180.22
369.68	245.76
369.87	234.05
370.07	257.46
370.27	348.74
370.47	327.68
370.66	493.85
370.86	484.49
371.06	444.70
371.25	514.92
371.45	592.16
371.65	601.52
371.84	554.71
372.04	559.39
372.24	578.11
372.44	564.07
372.63	554.71
372.83	491.51
373.03	599.18
373.22	543.00
373.42	617.90
373.62	540.66
373.81	571.09
374.01	631.94
374.21	638.97
374.40	617.90
374.60	641.31
374.79	631.94
374.99	629.60
375.19	620.24
375.38	638.97
375.58	667.05
375.78	699.82
375.97	718.54
376.17	741.95
376.37	643.65
376.56	685.78
376.76	674.07
376.95	734.93
377.15	727.91
377.35	669.39
377.54	727.91
377.74	662.37
377.93	655.35
378.13	615.56
378.33	627.26
378.52	669.39
378.72	674.07
378.91	695.14
379.11	767.70
379.31	676.41
379.50	645.99
379.70	751.31
379.89	755.99
380.09	774.72
380.28	786.42
380.48	748.97
380.68	681.10
380.87	744.29
381.07	627.26
381.26	774.72
381.46	819.19
381.65	802.80
381.85	718.54
382.04	772.38
382.24	774.72
382.43	763.01
382.63	695.14
382.83	739.61
383.02	746.63
383.22	786.42
383.41	763.01
383.61	805.14
383.80	763.01
384.00	786.42
384.19	788.76
384.39	791.10
384.58	816.85
384.78	828.55
384.97	851.96
385.17	814.51
385.36	793.44
385.56	837.91
385.75	812.17
385.95	821.53
386.14	868.34
386.34	777.06
386.53	828.55
386.72	954.94
386.92	835.57
387.11	833.23
387.31	875.36
387.50	866.00
387.70	856.64
387.89	851.96
388.09	880.04
388.28	887.06
388.48	898.77
388.67	816.85
388.86	936.21
389.06	917.49
389.25	844.93
389.45	1018.13
389.64	912.81
389.84	943.24
390.03	964.30
390.22	936.21
390.42	896.43
390.61	924.51
390.81	978.34
391.00	961.96
391.19	968.98
391.39	1008.77
391.58	968.98
391.78	1015.79
391.97	940.90
392.16	917.49
392.36	1041.54
392.55	938.55
392.75	1046.22
392.94	1020.47
393.13	957.28
393.33	1008.77
393.52	1078.99
393.71	1022.81
393.91	1104.73
394.10	1053.24
394.29	1081.33
394.49	1013.45
394.68	1048.56
394.88	1156.22
395.07	1046.22
395.26	1118.78
395.46	1095.37
395.65	1090.69
395.84	1111.75
396.04	1149.20
396.23	1153.88
396.42	1107.07
396.62	1158.57
396.81	1221.76
397.00	1256.87
397.19	1217.08
397.39	1107.07
397.58	1249.85
397.77	1172.61
397.97	1181.97
398.16	1233.46
398.35	1198.35
398.55	1303.68
398.74	1324.74
398.93	1282.61
399.12	1228.78
399.32	1299.00
399.51	1240.48
399.70	1277.93
399.90	1263.89
400.09	1306.02
400.28	1458.15
400.47	1380.92
400.67	1362.19
400.86	1352.83
401.05	1336.45
401.24	1423.05
401.44	1493.26
401.63	1476.88
401.82	1476.88
402.01	1301.34
402.21	1418.36
402.40	1451.13
402.59	1362.19
402.78	1514.33
402.97	1451.13
403.17	1526.03
403.36	1521.35
403.55	1397.30
403.74	1556.46
403.93	1528.37
404.13	1387.94
404.32	1535.39
404.51	1507.30
404.70	1600.93
404.89	1549.43
405.09	1568.16
405.28	1659.44
405.47	1675.82
405.66	1624.33
405.85	1645.40
406.05	1687.53
406.24	1827.96
406.43	1720.29
406.62	1710.93
406.81	1647.74
407.00	1710.93
407.20	1659.44
407.39	1724.97
407.58	1675.82
407.77	1788.17
407.96	1818.60
408.15	1806.89
408.34	1781.15
408.54	1851.36
408.73	1790.51
408.92	1858.39
409.11	1827.96
409.30	1856.04
409.49	1963.71
409.68	1764.76
409.87	1963.71
410.07	1998.82
410.26	1942.64
410.45	1973.07
410.64	1975.41
410.83	2040.95
411.02	2073.71
411.21	2108.82
411.40	2080.74
411.59	2045.63
411.78	2059.67
411.98	2113.50
412.17	2132.23
412.36	2223.51
412.55	2272.66
412.74	2223.51
412.93	2167.34
413.12	2272.66
413.31	2434.16
413.50	2200.10
413.69	2251.60
413.88	2387.35
414.07	2394.37
414.26	2356.92
414.45	2420.11
414.64	2410.75
414.83	2431.82
415.02	2558.21
415.22	2469.27
415.41	2635.44
415.60	2569.91
415.79	2623.74
415.98	2677.57
416.17	2539.48
416.36	2572.25
416.55	2586.29
416.74	2757.15
416.93	2544.16
417.12	2663.53
417.31	2799.28
417.50	2745.45
417.69	2789.92
417.88	2722.04
418.07	2853.11
418.26	2871.84
418.45	2752.47
418.64	2864.82
418.83	2808.64
419.02	2846.09
419.21	2965.46
419.39	3089.51
419.58	2993.55
419.77	2944.39
419.96	3096.53
420.15	3002.91
420.34	3040.36
420.53	3007.59
420.72	3119.93
420.91	3059.08
421.10	3105.89
421.29	3131.64
421.48	3171.43
421.67	3164.40
421.86	3073.12
422.05	3213.56
422.24	3084.83
422.43	3283.77
422.61	3236.96
422.80	3222.92
422.99	3208.87
423.18	3197.17
423.37	3405.48
423.56	3187.81
423.75	3421.86
423.94	3265.05
424.13	3068.44
424.32	3185.47
424.50	3309.52
424.69	3309.52
424.88	3438.25
425.07	3328.24
425.26	3321.22
425.45	3316.54
425.64	3361.01
425.83	3229.94
426.01	3386.76
426.20	3318.88
426.39	3243.98
426.58	3276.75
426.77	3302.50
426.96	3445.27
427.15	3363.35
427.33	3400.80
427.52	3370.37
427.71	3431.23
427.90	3417.18
428.09	3468.67
428.28	3515.48
428.46	3466.33
428.65	3531.87
428.84	3719.11
429.03	3674.64
429.22	3574.00
429.40	3475.70
429.59	3660.60
429.78	3559.95
429.97	3531.87
430.16	3695.71
430.34	3754.22
430.53	3702.73
430.72	3737.84
430.91	3789.33
431.10	3735.50
431.28	3691.02
431.47	3779.97
431.66	3831.46
431.85	3864.22
432.03	3911.04
432.22	3918.06
432.41	3871.25
432.60	3784.65
432.79	3705.07
432.97	3948.48
433.16	4067.85
433.35	3948.48
433.54	4007.00
433.72	4119.34
433.91	4009.34
434.10	3950.82
434.28	3857.20
434.47	4056.15
434.66	4159.13
434.85	4149.77
435.03	4318.29
435.22	4175.52
435.41	4189.56
435.59	4273.82
435.78	4203.60
435.97	4332.33
436.16	4215.30
436.34	4327.65
436.53	4175.52
436.72	4337.01
436.90	4250.41
437.09	4217.65
437.28	4163.81
437.46	4285.52
437.65	4339.35
437.84	4255.09
438.02	4372.12
438.21	4521.92
438.40	4318.29
438.58	4550.00
438.77	4454.04
438.96	4538.30
439.14	4648.30
439.33	4791.08
439.52	4692.77
439.70	4737.24
439.89	4720.86
440.08	4737.24
440.26	4807.46
440.45	4709.16
440.63	4922.15
440.82	4971.30
441.01	4837.89
441.19	4919.81
441.38	4947.89
441.57	4975.98
441.75	4931.51
441.94	5069.60
442.12	5249.82
442.31	5172.58
442.50	5320.04
442.68	5214.71
442.87	5282.59
443.05	5277.91
443.24	5238.12
443.43	5357.49
443.61	5188.97
443.80	5238.12
443.98	5259.18
444.17	5254.50
444.35	5362.17
444.54	5301.31
444.73	5437.06
444.91	5284.93
445.10	5392.59
445.28	5453.45
445.47	5430.04
445.65	5378.55
445.84	5444.09
446.02	5554.09
446.21	5376.21
446.39	5310.68
446.58	5467.49
446.77	5432.38
446.95	5329.40
447.14	5703.89
447.32	5376.21
447.51	5511.96
447.69	5551.75
447.88	5406.64
448.06	5771.76
448.25	5472.17
448.43	5547.07
448.62	5605.58
448.80	5488.56
448.99	5685.16
449.17	5572.82
449.36	5628.99
449.54	5809.21
449.73	5830.27
449.91	5703.89
450.10	5724.95
450.28	5902.83
450.46	5881.77
450.65	5949.64
450.83	5877.09
451.02	5753.04
451.20	6033.90
451.39	5867.72
451.57	5949.64
451.76	5954.32
451.94	5895.81
452.13	5872.40
452.31	6113.48
452.49	5825.59
452.68	5970.71
452.86	6029.22
453.05	6202.42
453.23	6183.70
453.42	6001.13
453.60	6040.92
453.78	6235.19
453.97	6129.86
454.15	6167.31
454.34	6066.67
454.52	6209.44
454.70	6167.31
454.89	6312.42
455.07	6417.75
455.26	6253.91
455.44	6469.24
455.62	6218.80
455.81	6459.88
455.99	6509.03
456.17	6490.31
456.36	6555.84
456.54	6670.53
456.73	6527.75
456.91	6745.42
457.09	6829.68
457.28	6899.90
457.46	6579.25
457.64	6712.66
457.83	6832.02
458.01	6661.16
458.19	6874.15
458.38	6911.60
458.56	6810.96
458.74	6899.90
458.93	6939.69
459.11	6967.77
459.29	6951.39
459.48	6902.24
459.66	7080.12
459.84	7140.97
460.03	7159.70
460.21	7211.19
460.39	7007.56
460.57	7026.29
460.76	7096.50
460.94	7110.55
461.12	7201.83
461.31	7293.11
461.49	7117.57
461.67	7332.90
461.85	7466.31
462.04	7321.20
462.22	7679.30
462.40	7531.84
462.59	7412.48
462.77	7517.80
462.95	7414.82
463.13	7346.94
463.32	7492.05
463.50	7501.42
463.68	7534.18
463.86	7768.24
464.05	7522.48
464.23	7536.52
464.41	7686.32
464.59	7389.07
464.78	7726.11
464.96	7562.27
465.14	7452.27
465.32	7700.36
465.50	7775.26
465.69	7831.43
465.87	7854.84
466.05	7906.33
466.23	7777.60
466.41	7740.15
466.60	7899.31
466.78	7824.41
466.96	7765.90
467.14	7829.09
467.32	7859.52
467.51	8023.36
467.69	7896.97
467.87	8006.97
468.05	8018.68
468.23	7943.78
468.41	8084.21
468.60	8238.69
468.78	8154.43
468.96	8285.50
469.14	8315.92
469.32	8299.54
469.50	8224.64
469.69	8210.60
469.87	8472.74
470.05	8285.50
470.23	8231.66
470.41	8526.57
470.59	8683.39
470.77	8496.14
470.95	8456.36
471.14	8767.65
471.32	8306.56
471.50	8730.20
471.68	8697.43
471.86	8826.16
472.04	8737.22
472.22	8814.46
472.40	8800.41
472.58	8980.64
472.77	8837.86
472.95	9088.30
473.13	9256.82
473.31	9062.55
473.49	8980.64
473.67	9233.41
473.85	9102.34
474.03	9298.95
474.21	9287.25
474.39	9263.84
474.57	9446.40
474.75	9418.32
474.93	9415.98
475.12	9446.40
475.30	9661.73
475.48	9282.56
475.66	9701.52
475.84	9577.47
476.02	9570.45
476.20	9701.52
476.38	9958.98
476.56	10244.52
476.74	10139.20
476.92	9909.83
477.10	10026.86
477.28	10401.34
477.46	10176.65
477.64	10361.55
477.82	10614.33
478.00	10630.71
478.18	10527.73
478.36	10630.71
478.54	10724.33
478.72	10724.33
478.90	10824.98
479.08	11066.05
479.26	11026.26
479.44	11222.87
479.62	11126.91
479.80	11363.30
479.98	11335.21
480.16	11599.70
480.34	11583.31
480.52	11529.48
480.70	11714.38
480.88	11358.62
481.06	11737.79
481.24	11878.22
481.41	11962.48
481.59	12201.21
481.77	12362.71
481.95	12411.86
482.13	12226.96
482.31	12493.78
482.49	12610.81
482.67	12685.70
482.85	12734.85
483.03	12795.71
483.21	12980.61
483.39	12989.97
483.57	13179.56
483.74	13186.58
483.92	13584.47
484.10	13193.60
484.28	13404.25
484.46	13884.06
484.64	13998.74
484.82	13701.50
485.00	14073.64
485.18	14387.27
485.35	14370.89
485.53	14134.50
485.71	14342.80
485.89	14523.02
486.07	14707.93
486.25	14525.36
486.43	14799.21
486.61	15073.05
486.78	15220.50
486.96	15150.29
487.14	15449.88
487.32	15534.14
487.50	15707.34
487.68	15468.60
487.85	15955.43
488.03	15772.87
488.21	16126.29
488.39	16039.69
488.57	16475.03
488.75	16362.69
488.92	16570.99
489.10	16936.12
489.28	16713.77
489.46	17287.20
489.64	17027.40
489.81	17420.61
489.99	17305.92
490.17	17352.73
490.35	17472.10
490.53	17607.85
490.70	17790.41
490.88	17713.17
491.06	18242.14
491.24	17689.77
491.41	18394.27
491.59	18366.18
491.77	18310.01
491.95	18431.72
492.13	18740.67
492.30	18834.29
492.48	18810.89
492.66	18775.78
492.84	19047.28
493.01	19496.66
493.19	19190.05
493.37	19641.78
493.54	19484.96
493.72	19583.26
493.90	19616.03
494.08	19981.15
494.25	20203.50
494.43	20042.01
494.61	20360.32
494.79	20161.37
494.96	20453.94
495.14	20737.15
495.32	20709.06
495.49	20781.62
495.67	20830.77
495.85	20982.90
496.02	21188.87
496.20	21298.88
496.38	21233.34
496.55	21130.36
496.73	21647.61
496.91	21624.21
497.09	21591.44
497.26	21839.54
497.44	21755.28
497.62	22129.77
497.79	22415.31
497.97	21928.48
498.14	22602.55
498.32	22970.02
498.50	22572.13
498.67	22836.61
498.85	22925.55
499.03	23026.19
499.20	23143.22
499.38	22995.76
499.56	23129.17
499.73	23651.11
499.91	23491.96
500.08	23386.63
500.26	23175.98
500.44	23424.08
500.61	23536.43
500.79	23751.76
500.97	23751.76
501.14	24177.73
501.32	24041.98
501.49	24210.50
501.67	24250.29
501.84	24308.80
502.02	24624.78
502.20	24229.23
502.37	24510.09
502.55	24545.20
502.72	24687.97
502.90	24727.76
503.07	24718.40
503.25	24762.87
503.43	25081.18
503.60	24994.58
503.78	25465.03
503.95	25366.73
504.13	25291.83
504.30	25633.55
504.48	25443.96
504.65	25493.12
504.83	25479.07
505.01	25970.58
505.18	25806.75
505.36	25769.30
505.53	25958.88
505.71	26462.10
505.88	25912.07
506.06	26096.97
506.23	26368.48
506.41	26441.03
506.58	26293.58
506.76	26712.53
506.93	26637.64
507.11	26934.88
507.28	26742.96
507.46	26651.68
507.63	27051.91
507.81	26820.20
507.98	26974.67
508.16	27510.66
508.33	27051.91
508.50	27351.50
508.68	27269.58
508.85	28020.89
509.03	27576.19
509.20	27751.73
509.38	27758.75
509.55	27920.25
509.73	27821.95
509.90	28177.71
510.08	28034.94
510.25	28360.27
510.42	28180.05
510.60	28109.83
510.77	28531.13
510.95	28498.36
511.12	28652.84
511.30	28294.74
511.47	28669.22
511.64	28978.17
511.82	28769.86
511.99	28936.04
512.17	28671.56
512.34	29188.82
512.51	29556.28
512.69	29369.04
512.86	29795.02
513.04	29703.74
513.21	29432.24
513.38	29839.49
513.56	29563.31
513.73	29696.72
513.90	29687.36
514.08	29790.34
514.25	30469.09
514.43	30029.07
514.60	30298.23
514.77	30057.16
514.95	30054.82
515.12	30417.60
515.29	30569.74
515.47	30583.78
515.64	30541.65
515.81	30342.70
515.99	30480.80
516.16	30993.37
516.33	30663.36
516.51	31091.68
516.68	30962.95
516.85	30986.35
517.03	31356.16
517.20	30951.24
517.37	31115.08
517.54	31342.11
517.72	30925.50
517.89	31524.68
518.06	31248.49
518.24	31187.64
518.41	31494.25
518.58	31653.40
518.75	31459.14
518.93	31838.31
519.10	31948.31
519.27	32135.56
519.45	32098.11
519.62	31981.08
519.79	32004.49
519.96	32395.35
520.14	32624.73
520.31	32374.29
520.48	32549.83
520.65	32519.40
520.83	32774.52
521.00	32816.65
521.17	32936.02
521.34	32875.16
521.52	32912.61
521.69	33144.33
521.86	32863.46
522.03	33125.60
522.20	33462.64
522.38	33354.97
522.55	33235.61
522.72	33092.83
522.89	33366.68
523.07	33591.37
523.24	33528.17
523.41	33694.35
523.58	33638.18
523.75	33926.07
523.92	33722.44
524.10	33984.58
524.27	34003.30
524.44	33823.08
524.61	34190.55
524.78	34338.00
524.96	34363.75
525.13	34630.57
525.30	34398.85
525.47	34457.37
525.64	34375.45
525.81	34646.95
525.98	34675.04
526.16	34499.50
526.33	34995.69
526.50	34806.11
526.67	34384.81
526.84	34703.12
527.01	34974.63
527.18	34653.97
527.36	35152.51
527.53	35335.07
527.70	35913.18
527.87	35494.22
528.04	35379.54
528.21	35597.21
528.38	35196.98
528.55	35739.98
528.72	35297.62
528.89	35639.34
529.07	35566.78
529.24	35810.20
529.41	35704.87
529.58	35903.82
529.75	35976.37
529.92	35924.88
530.09	35978.72
530.26	35941.27
530.43	36510.02
530.60	36074.68
530.77	35910.84
530.94	36313.41
531.11	36135.53
531.28	36004.46
531.46	36039.57
531.63	36517.04
531.80	36456.18
531.97	36512.36
532.14	36446.82
532.31	36589.59
532.48	36741.73
532.65	36882.16
532.82	36613.00
532.99	36762.79
533.16	36762.79
533.33	37621.77
533.50	37043.66
533.67	36772.16
533.84	36882.16
534.01	36868.12
534.18	36905.57
534.35	37549.21
534.52	36989.83
534.69	37579.64
534.86	37338.57
535.03	37511.77
535.20	38204.56
535.37	37172.39
535.54	38047.75
535.71	37422.83
535.88	37481.34
536.05	38120.31
536.22	37904.98
536.38	38096.90
536.55	37633.47
536.72	37670.92
536.89	38052.43
537.06	37706.03
537.23	38452.66
537.40	37937.74
537.57	37984.55
537.74	38017.32
537.91	38679.69
538.08	38335.63
538.25	37841.78
538.42	38630.54
538.59	38382.45
538.75	38370.74
538.92	38707.78
539.09	38581.39
539.26	38885.66
539.43	38857.57
539.60	38717.14
539.77	38880.98
539.94	39445.05
540.11	39021.41
540.28	39136.10
540.44	38986.30
540.61	39192.27
540.78	38707.78
540.95	39009.71
541.12	38658.63
541.29	38806.08
541.46	39084.61
541.62	39456.75
541.79	39131.42
541.96	39042.48
542.13	39210.99
542.30	39339.72
542.47	39374.83
542.63	39496.54
542.80	39489.52
542.97	40175.30
543.14	40121.46
543.31	39777.40
543.48	39812.51
543.64	40051.25
543.81	40046.57
543.98	40065.29
544.15	39824.22
544.32	40772.13
544.48	40708.94
544.65	40271.26
544.82	40418.71
544.99	40385.94
545.16	40498.29
545.32	40116.78
545.49	41081.08
545.66	40861.07
545.83	40112.10
546.00	40624.68
546.16	40479.57
546.33	40591.91
546.50	40236.15
546.67	41001.50
546.83	40034.86
547.00	40648.08
547.17	40437.44
547.34	40978.10
547.50	40882.14
547.67	41069.38
547.84	41261.30
548.00	41504.72
548.17	41326.84
548.34	41476.63
548.51	41375.99
548.67	41514.08
548.84	41315.14
549.01	41364.29
549.18	41310.46
549.34	41352.58
549.51	42000.91
549.68	41287.05
549.84	41097.47
550.01	41837.08
550.18	41322.16
550.34	41436.84
550.51	41303.43
550.68	41790.27
550.84	41347.90
551.01	41811.33
551.18	41752.82
551.34	42213.90
551.51	41801.97
551.68	41680.26
551.84	41635.79
552.01	41453.23
552.18	42174.11
552.34	41509.40
552.51	41902.61
552.68	42012.62
552.84	41766.86
553.01	42277.10
553.18	41949.42
553.34	42064.11
553.51	42462.00
553.67	42452.64
553.84	42099.22
554.01	42796.70
554.17	42431.57
554.34	42660.94
554.51	42499.45
554.67	42635.20
554.84	42649.24
555.00	42499.45
555.17	42625.84
555.33	42836.48
555.50	42431.57
555.67	42897.34
555.83	42642.22
556.00	42672.65
556.16	43363.11
556.33	42724.14
556.50	42789.67
556.66	43199.27
556.83	42969.90
556.99	42941.81
557.16	43117.35
557.32	42946.49
557.49	43012.02
557.65	42789.67
557.82	43178.20
557.98	43185.22
558.15	43344.38
558.32	42972.24
558.48	43152.46
558.65	43667.37
558.81	43442.68
558.98	43330.34
559.14	42976.92
559.31	43267.14
559.47	43374.81
559.64	43395.87
559.80	43136.07
559.97	43590.14
560.13	43058.84
560.30	43365.45
560.46	43634.61
560.63	43971.64
560.79	43978.67
560.96	43770.36
561.12	44137.82
561.29	43599.50
561.45	43342.04
561.61	43709.50
561.78	43351.40
561.94	43604.18
562.11	43648.65
562.27	43606.52
562.44	43618.22
562.60	43737.59
562.77	43522.26
562.93	43416.94
563.10	43782.06
563.26	44039.52
563.42	44179.95
563.59	43878.02
563.75	44093.35
563.92	44016.11
564.08	43718.87
564.24	44058.24
564.41	43906.11
564.57	43550.35
564.74	43971.64
564.90	43901.43
565.07	43557.37
565.23	43632.27
565.39	43917.81
565.56	44484.22
565.72	43648.65
565.88	43854.62
566.05	44603.59
566.21	43927.17
566.38	44395.28
566.54	44184.63
566.70	44339.11
566.87	44385.92
567.03	44540.39
567.19	44315.70
567.36	44421.03
567.52	43969.30
567.68	44582.52
567.85	44282.94
568.01	44467.84
568.17	44732.32
568.34	44540.39
568.50	44648.06
568.66	44472.52
568.83	44311.02
568.99	44725.30
569.15	44617.63
569.32	44062.93
569.48	44357.83
569.64	44917.22
569.81	44605.93
569.97	44765.09
570.13	44854.03
570.30	44374.22
570.46	44814.24
570.62	44556.78
570.78	44465.50
570.95	44957.01
571.11	44954.67
571.27	44793.17
571.43	44580.18
571.60	44542.74
571.76	44694.87
571.92	44760.40
572.09	44479.54
572.25	44839.98
572.41	44711.25
572.57	44528.69
572.74	44942.97
572.90	44367.20
573.06	44914.88
573.22	44769.77
573.38	44994.46
573.55	45387.67
573.71	45158.30
573.87	45127.87
574.03	44727.64
574.20	45106.80
574.36	44751.04
574.52	44854.03
574.68	44891.48
574.84	44793.17
575.01	45324.47
575.17	45172.34
575.33	44954.67
575.49	44641.04
575.65	45113.83
575.82	45172.34
575.98	44734.66
576.14	45071.70
576.30	45399.37
576.46	44900.84
576.62	45291.71
576.79	45024.89
576.95	44765.09
577.11	45071.70
577.27	44931.26
577.43	45104.46
577.59	45750.45
577.75	44804.88
577.92	44968.71
578.08	44828.28
578.24	45151.27
578.40	45226.17
578.56	44788.49
578.72	44793.17
578.88	45029.57
579.04	45151.27
579.21	45006.16
579.37	45216.81
579.53	45146.59
579.69	44933.60
579.85	44797.85
580.01	45081.06
580.17	45118.51
580.33	45146.59
580.49	45216.81
580.65	45443.84
580.82	44971.05
580.98	44912.54
581.14	44971.05
581.30	45160.64
581.46	45013.18
581.62	45104.46
581.78	45390.01
581.94	45443.84
582.10	44996.80
582.26	45001.48
582.42	45315.11
582.58	45303.41
582.74	45727.05
582.90	45261.28
583.06	45509.38
583.22	45258.94
583.38	45254.26
583.54	45111.49
583.70	45289.37
583.86	45329.16
584.02	45242.56
584.18	45876.84
584.34	45434.48
584.50	45530.44
584.66	45397.03
584.82	45530.44
584.98	45591.30
585.14	45652.15
585.30	45387.67
585.46	45881.52
585.62	45331.50
585.78	45315.11
585.94	45191.06
586.10	45361.92
586.26	45394.69
586.42	45153.62
586.58	45230.85
586.74	44985.10
586.90	45375.97
587.06	45258.94
587.22	45535.12
587.38	45670.87
587.54	45918.97
587.70	45986.85
587.86	45914.29
588.02	45048.29
588.18	45427.46
588.34	45605.34
588.49	45333.84
588.65	45338.52
588.81	45661.51
588.97	45670.87
589.13	45434.48
589.29	45595.98
589.45	45909.61
589.61	45574.91
589.77	45921.31
589.93	45310.43
590.08	45808.96
