SpectraSuite Data File
++++++++++++++++++++++++++++++++++++
Date: Fri Oct 25 10:47:12 EDT 2013
User: price-jones
Dark Spectrum Present: No
Reference Spectrum Present: No
Number of Sampled Component Spectra: 1
Spectrometers: USB2+H05261
Integration Time (usec): 100000 (USB2+H05261)
Spectra Averaged: 1 (USB2+H05261)
Boxcar Smoothing: 0 (USB2+H05261)
Correct for Electrical Dark: No (USB2+H05261)
Strobe/Lamp Enabled: No (USB2+H05261)
Correct for Detector Non-linearity: No (USB2+H05261)
Correct for Stray Light: No (USB2+H05261)
Number of Pixels in Processed Spectrum: 2048
>>>>>Begin Processed Spectral Data<<<<<
365.73	152.13
365.92	152.13
366.12	152.13
366.32	51.49
366.52	0.00
366.72	60.85
366.91	25.75
367.11	0.00
367.31	56.17
367.51	53.83
367.70	35.11
367.90	60.85
368.10	21.06
368.30	88.94
368.49	102.98
368.69	16.38
368.89	0.00
369.09	18.72
369.28	121.71
369.48	63.19
369.68	91.28
369.87	114.69
370.07	86.60
370.27	177.88
370.47	271.50
370.66	383.85
370.86	393.21
371.06	461.09
371.25	390.87
371.45	430.66
371.65	503.22
371.84	437.68
372.04	386.19
372.24	463.43
372.44	498.53
372.63	477.47
372.83	486.83
373.03	475.13
373.22	428.32
373.42	482.15
373.62	533.64
373.81	498.53
374.01	507.90
374.21	535.98
374.40	557.05
374.60	573.43
374.79	543.00
374.99	526.62
375.19	601.52
375.38	585.13
375.58	538.32
375.78	568.75
375.97	533.64
376.17	688.12
376.37	596.84
376.56	561.73
376.76	608.54
376.95	582.79
377.15	620.24
377.35	662.37
377.54	589.82
377.74	585.13
377.93	533.64
378.13	606.20
378.33	634.29
378.52	641.31
378.72	587.47
378.91	662.37
379.11	669.39
379.31	582.79
379.50	592.16
379.70	596.84
379.89	730.25
380.09	634.29
380.28	690.46
380.48	685.78
380.68	596.84
380.87	676.41
381.07	624.92
381.26	657.69
381.46	641.31
381.65	716.20
381.85	645.99
382.04	690.46
382.24	669.39
382.43	592.16
382.63	718.54
382.83	655.35
383.02	641.31
383.22	664.71
383.41	723.23
383.61	702.16
383.80	732.59
384.00	781.74
384.19	678.76
384.39	807.48
384.58	746.63
384.78	758.33
384.97	809.83
385.17	709.18
385.36	779.40
385.56	765.36
385.75	716.20
385.95	753.65
386.14	751.31
386.34	816.85
386.53	748.97
386.72	763.01
386.92	763.01
387.11	753.65
387.31	746.63
387.50	828.55
387.70	805.14
387.89	819.19
388.09	781.74
388.28	837.91
388.48	840.25
388.67	873.02
388.86	847.27
389.06	891.74
389.25	877.70
389.45	922.17
389.64	844.93
389.84	873.02
390.03	968.98
390.22	964.30
390.42	842.59
390.61	898.77
390.81	959.62
391.00	936.21
391.19	987.71
391.39	985.37
391.58	901.11
391.78	973.66
391.97	964.30
392.16	926.85
392.36	891.74
392.55	931.53
392.75	994.73
392.94	915.15
393.13	1020.47
393.33	964.30
393.52	945.58
393.71	1020.47
393.91	1032.18
394.10	971.32
394.29	1046.22
394.49	1125.80
394.68	1071.97
394.88	1107.07
395.07	1004.09
395.26	1078.99
395.46	1151.54
395.65	1121.12
395.84	1193.67
396.04	1097.71
396.23	1172.61
396.42	1071.97
396.62	1184.31
396.81	1191.33
397.00	1125.80
397.19	1167.93
397.39	1196.01
397.58	1118.78
397.77	1268.57
397.97	1188.99
398.16	1210.06
398.35	1322.40
398.55	1287.29
398.74	1231.12
398.93	1315.38
399.12	1266.23
399.32	1198.35
399.51	1259.21
399.70	1362.19
399.90	1362.19
400.09	1383.26
400.28	1308.36
400.47	1352.83
400.67	1397.30
400.86	1458.15
401.05	1427.73
401.24	1495.60
401.44	1453.47
401.63	1509.65
401.82	1418.36
402.01	1380.92
402.21	1514.33
402.40	1490.92
402.59	1387.94
402.78	1554.12
402.97	1547.09
403.17	1444.11
403.36	1544.75
403.55	1547.09
403.74	1671.14
403.93	1591.56
404.13	1526.03
404.32	1544.75
404.51	1575.18
404.70	1657.10
404.89	1600.93
405.09	1678.16
405.28	1692.21
405.47	1710.93
405.66	1605.61
405.85	1771.79
406.05	1650.08
406.24	1746.04
406.43	1682.85
406.62	1753.06
406.81	1884.13
407.00	1792.85
407.20	1762.42
407.39	1785.83
407.58	1881.79
407.77	1968.39
407.96	1776.47
408.15	1785.83
408.34	1930.94
408.54	1935.62
408.73	1933.28
408.92	1947.33
409.11	2015.20
409.30	2024.56
409.49	1998.82
409.68	1947.33
409.87	2003.50
410.07	2054.99
410.26	2092.44
410.45	2052.65
410.64	2122.87
410.83	2134.57
411.02	2120.53
411.21	2230.53
411.40	2162.66
411.59	2064.35
411.78	2099.46
411.98	2157.97
412.17	2216.49
412.36	2263.30
412.55	2307.77
412.74	2347.56
412.93	2314.79
413.12	2349.90
413.31	2356.92
413.50	2406.07
413.69	2539.48
413.88	2523.10
414.07	2495.01
414.26	2443.52
414.45	2504.37
414.64	2593.31
414.83	2708.00
415.02	2698.64
415.22	2668.21
415.41	2626.08
415.60	2647.15
415.79	2810.98
415.98	2850.77
416.17	2754.81
416.36	2684.59
416.55	2743.11
416.74	2846.09
416.93	2757.15
417.12	2766.51
417.31	2897.58
417.50	2768.85
417.69	2951.42
417.88	2841.41
418.07	2913.97
418.26	3080.14
418.45	3084.83
418.64	3166.74
418.83	3103.55
419.02	3040.36
419.21	3162.06
419.39	3136.32
419.58	3073.12
419.77	3122.27
419.96	3133.98
420.15	3194.83
420.34	3117.59
420.53	3251.00
420.72	3375.05
420.91	3162.06
421.10	3192.49
421.29	3276.75
421.48	3258.03
421.67	3358.67
421.86	3262.71
422.05	3382.07
422.24	3164.40
422.43	3335.26
422.61	3337.60
422.80	3501.44
422.99	3393.78
423.18	3342.28
423.37	3473.36
423.56	3478.04
423.75	3452.29
423.94	3403.14
424.13	3353.99
424.32	3178.45
424.50	3585.70
424.69	3576.34
424.88	3428.88
425.07	3421.86
425.26	3370.37
425.45	3398.46
425.64	3421.86
425.83	3578.68
426.01	3480.38
426.20	3389.10
426.39	3566.98
426.58	3611.45
426.77	3461.65
426.96	3522.51
427.15	3543.57
427.33	3529.53
427.52	3529.53
427.71	3585.70
427.90	3597.40
428.09	3637.19
428.28	3700.39
428.46	3698.05
428.65	3545.91
428.84	3747.20
429.03	3772.94
429.22	3630.17
429.40	3815.07
429.59	3796.35
429.78	3564.64
429.97	3569.32
430.16	3646.55
430.34	3887.63
430.53	3868.91
430.72	3735.50
430.91	3749.54
431.10	3765.92
431.28	3955.51
431.47	4035.08
431.66	4063.17
431.85	3831.46
432.03	3981.25
432.22	4315.95
432.41	4032.74
432.60	4243.39
432.79	4072.53
432.97	4175.52
433.16	4156.79
433.35	3985.93
433.54	4152.11
433.72	4252.75
433.91	4156.79
434.10	4210.62
434.28	4170.83
434.47	4273.82
434.66	4318.29
434.85	4381.48
435.03	4315.95
435.22	4271.48
435.41	4538.30
435.59	4416.59
435.78	4505.53
435.97	4339.35
436.16	4428.29
436.34	4383.82
436.53	4442.34
436.72	4589.79
436.90	4440.00
437.09	4557.02
437.28	4449.36
437.46	4564.04
437.65	4442.34
437.84	4648.30
438.02	4648.30
438.21	4727.88
438.40	4589.79
438.58	4678.73
438.77	4734.90
438.96	4788.74
439.14	4858.95
439.33	4865.97
439.52	4865.97
439.70	4870.65
439.89	5039.17
440.08	4971.30
440.26	5224.08
440.45	4961.94
440.63	5025.13
440.82	5093.01
441.01	5359.83
441.19	5291.95
441.38	5406.64
441.57	5341.10
441.75	5404.30
441.94	5392.59
442.12	5371.53
442.31	5612.60
442.50	5373.87
442.68	5430.04
442.87	5411.32
443.05	5612.60
443.24	5605.58
443.43	5530.69
443.61	5626.65
443.80	5685.16
443.98	5547.07
444.17	5486.22
444.35	5731.97
444.54	5731.97
444.73	5673.46
444.91	5603.24
445.10	5607.92
445.28	5591.54
445.47	5654.73
445.65	5598.56
445.84	5696.86
446.02	5809.21
446.21	5783.46
446.39	5724.95
446.58	5717.93
446.77	5788.14
446.95	5589.20
447.14	5797.51
447.32	5802.19
447.51	5668.78
447.69	5816.23
447.88	5905.17
448.06	5778.78
448.25	5942.62
448.43	5926.24
448.62	5870.06
448.80	5792.83
448.99	5900.49
449.17	5926.24
449.36	5980.07
449.54	5994.11
449.73	6251.57
449.91	6319.45
450.10	6326.47
450.28	6183.70
450.46	6274.98
450.65	6232.85
450.83	6291.36
451.02	6326.47
451.20	6340.51
451.39	6284.34
451.57	6291.36
451.76	6340.51
451.94	6181.35
452.13	6272.64
452.31	6211.78
452.49	6200.08
452.68	6225.82
452.86	6349.87
453.05	6279.66
453.23	6487.96
453.42	6380.30
453.60	6347.53
453.78	6506.69
453.97	6532.44
454.15	6637.76
454.34	6331.15
454.52	6530.09
454.70	6583.93
454.89	6602.65
455.07	6654.14
455.26	6679.89
455.44	6803.94
455.62	6946.71
455.81	6736.06
455.99	6796.92
456.17	6764.15
456.36	6724.36
456.54	6972.46
456.73	6995.86
456.91	7208.85
457.09	7157.36
457.28	7208.85
457.46	7087.14
457.64	7274.38
457.83	7080.12
458.01	7103.53
458.19	7215.87
458.38	7250.98
458.56	7307.15
458.74	7328.22
458.93	7253.32
459.11	7155.02
459.29	7363.33
459.48	7232.26
459.66	7206.51
459.84	7368.01
460.03	7405.46
460.21	7485.03
460.39	7449.93
460.57	7377.37
460.76	7529.50
460.94	7543.55
461.12	7508.44
461.31	7576.31
461.49	7623.12
461.67	7382.05
461.85	7641.85
462.04	7726.11
462.22	8191.88
462.40	7929.74
462.59	7829.09
462.77	7564.61
462.95	7906.33
463.13	7611.42
463.32	7927.39
463.50	7889.95
463.68	7948.46
463.86	8037.40
464.05	7927.39
464.23	7864.20
464.41	8138.04
464.59	7922.71
464.78	8051.44
464.96	7831.43
465.14	8067.83
465.32	8194.22
465.50	8348.69
465.69	8126.34
465.87	8107.62
466.05	7997.61
466.23	8081.87
466.41	7997.61
466.60	8283.16
466.78	8301.88
466.96	8035.06
467.14	8292.52
467.32	8451.67
467.51	8428.27
467.69	8077.19
467.87	8411.89
468.05	8407.20
468.23	8280.82
468.41	8292.52
468.60	8617.85
468.78	8482.10
468.96	8311.24
469.14	8358.05
469.32	8753.60
469.50	8390.82
469.69	8592.11
469.87	8671.68
470.05	8805.10
470.23	8826.16
470.41	8826.16
470.59	8879.99
470.77	8865.95
470.95	8971.27
471.14	9111.71
471.32	8748.92
471.50	9263.84
471.68	9081.28
471.86	9165.54
472.04	9212.35
472.22	9373.85
472.40	8987.66
472.58	9114.05
472.77	9312.99
472.95	9521.30
473.13	9626.62
473.31	9671.09
473.49	9437.04
473.67	9434.70
473.85	9614.92
474.03	9710.88
474.21	9631.30
474.39	9811.53
474.57	9834.93
474.75	10008.13
474.93	10190.69
475.12	9790.46
475.30	9844.29
475.48	9970.68
475.66	10008.13
475.84	9991.75
476.02	10120.48
476.20	10200.05
476.38	10523.05
476.56	10471.56
476.74	10352.19
476.92	10466.88
477.10	10452.83
477.28	10771.15
477.46	10558.16
477.64	10600.29
477.82	10806.25
478.00	11087.12
478.18	11070.73
478.36	11307.13
478.54	11379.68
478.72	11391.39
478.90	11428.84
479.08	11833.75
479.26	11751.83
479.44	11709.70
479.62	11751.83
479.80	11833.75
479.98	11901.62
480.16	12292.49
480.34	12226.96
480.52	12184.83
480.70	12084.19
480.88	12194.19
481.06	12156.74
481.24	12472.71
481.41	12636.55
481.59	12716.13
481.77	12842.52
481.95	12697.41
482.13	12957.21
482.31	12730.17
482.49	13235.73
482.67	13116.36
482.85	13310.63
483.03	13659.37
483.21	13455.74
483.39	13823.20
483.57	13689.79
483.74	14141.52
483.92	13802.14
484.10	14211.73
484.28	14324.08
484.46	14328.76
484.64	14665.80
484.82	14150.88
485.00	14736.01
485.18	14904.53
485.35	14700.90
485.53	14799.21
485.71	14831.97
485.89	15176.03
486.07	14864.74
486.25	14991.13
486.43	15253.27
486.61	15538.82
486.78	15522.43
486.96	15679.25
487.14	16032.67
487.32	15868.83
487.50	16079.48
487.68	16189.49
487.85	16407.16
488.03	16645.89
488.21	16489.07
488.39	16786.32
488.57	16973.56
488.75	16943.14
488.92	17092.93
489.10	17535.29
489.28	17284.86
489.46	17460.40
489.64	17425.29
489.81	17858.29
489.99	17977.65
490.17	18155.54
490.35	18539.38
490.53	18249.16
490.70	18209.37
490.88	18410.65
491.06	18391.93
491.24	18640.03
491.41	18820.25
491.59	18951.32
491.77	18845.99
491.95	18986.43
492.13	19431.13
492.30	19566.88
492.48	19253.25
492.66	19456.87
492.84	19644.12
493.01	19922.64
493.19	19796.25
493.37	20074.77
493.54	20056.05
493.72	20472.67
493.90	19892.21
494.08	20280.74
494.25	20695.02
494.43	20847.15
494.61	20898.64
494.79	20968.86
494.96	20695.02
495.14	21273.13
495.32	21495.48
495.49	21628.89
495.67	21219.30
495.85	21392.50
496.02	22197.64
496.20	22008.06
496.38	22214.02
496.55	22164.87
496.73	22375.52
496.91	22480.85
497.09	22218.71
497.26	22483.19
497.44	22576.81
497.62	22604.89
497.79	23192.37
497.97	23035.55
498.14	23346.84
498.32	22932.57
498.50	23407.70
498.67	23580.90
498.85	23644.09
499.03	23618.35
499.20	23859.42
499.38	23513.02
499.56	23847.72
499.73	24182.42
499.91	23765.80
500.08	24100.50
500.26	23775.16
500.44	24367.32
500.61	24259.65
500.79	23960.06
500.97	24865.85
501.14	24577.97
501.32	24683.29
501.49	24910.32
501.67	24760.53
501.84	25057.78
502.02	24847.13
502.20	25228.63
502.37	25462.69
502.55	25481.41
502.72	25212.25
502.90	26019.74
503.07	25593.76
503.25	25617.16
503.43	25586.74
503.60	25596.10
503.78	26118.04
503.95	25778.66
504.13	25965.90
504.30	26314.64
504.48	26174.21
504.65	26302.94
504.83	26251.45
505.01	26663.38
505.18	26759.34
505.36	26883.39
505.53	26431.67
505.71	27075.32
505.88	27152.55
506.06	26815.52
506.23	26951.27
506.41	26906.80
506.58	27026.17
506.76	27555.13
506.93	27704.92
507.11	27789.18
507.28	27564.49
507.46	27410.01
507.63	27660.45
507.81	27871.10
507.98	27775.14
508.16	27875.78
508.33	28037.28
508.50	27917.91
508.68	28126.22
508.85	28140.26
509.03	28765.18
509.20	28624.75
509.38	28650.50
509.55	28400.06
509.73	28830.72
509.90	28811.99
510.08	28620.07
510.25	28460.91
510.42	28898.59
510.60	29228.61
510.77	28861.15
510.95	29432.24
511.12	29153.71
511.30	28936.04
511.47	29682.67
511.64	30000.99
511.82	29907.37
511.99	29504.79
512.17	29502.45
512.34	29832.47
512.51	30033.75
512.69	30242.06
512.86	30003.33
513.04	30274.83
513.21	30281.85
513.38	30185.89
513.56	30527.61
513.73	30190.57
513.90	30661.02
514.08	31051.89
514.25	30429.30
514.43	30637.61
514.60	30593.14
514.77	30501.86
514.95	30698.47
515.12	31166.57
515.29	30824.86
515.47	31276.58
515.64	31189.98
515.81	30752.30
515.99	31402.97
516.16	31482.55
516.33	31271.90
516.51	31484.89
516.68	30984.01
516.85	31094.02
517.03	31419.35
517.20	31269.56
517.37	31494.25
517.54	31482.55
517.72	31768.09
517.89	31824.26
518.06	31770.43
518.24	31960.02
518.41	32158.96
518.58	31578.51
518.75	32177.68
518.93	32811.97
519.10	31969.38
519.27	32407.06
519.45	32395.35
519.62	32645.79
519.79	32418.76
519.96	32772.18
520.14	33366.68
520.31	32900.91
520.48	33130.28
520.65	33266.03
520.83	33301.14
521.00	33184.12
521.17	33308.16
521.34	33371.36
521.52	33586.69
521.69	33558.60
521.86	33823.08
522.03	33560.94
522.20	33500.09
522.38	33874.57
522.55	33811.38
522.72	33792.65
522.89	33741.16
523.07	34125.01
523.24	33504.77
523.41	34223.31
523.58	34291.19
523.75	34588.44
523.92	34359.06
524.10	34473.75
524.27	34389.49
524.44	34256.08
524.61	34536.94
524.78	34719.51
524.96	34852.92
525.13	34529.92
525.30	34696.10
525.47	35271.87
525.64	35063.57
525.81	35063.57
525.98	35112.72
526.16	34843.56
526.33	34904.41
526.50	35381.88
526.67	35037.82
526.84	34920.79
527.01	35065.91
527.18	35381.88
527.36	35466.14
527.53	35599.55
527.70	35644.02
527.87	35550.40
528.04	35672.10
528.21	35805.52
528.38	35718.92
528.55	35538.69
528.72	35892.12
528.89	36121.49
529.07	36100.42
529.24	36151.91
529.41	35796.15
529.58	35927.22
529.75	36189.36
529.92	35859.35
530.09	36570.87
530.26	36521.72
530.43	36694.92
530.60	36137.87
530.77	36687.90
530.94	36510.02
531.11	36608.32
531.28	36741.73
531.46	36734.71
531.63	37141.96
531.80	36734.71
531.97	36505.34
532.14	36821.31
532.31	36769.82
532.48	37020.25
532.65	37219.20
532.82	36961.74
532.99	37116.22
533.16	36931.31
533.33	37418.14
533.50	36889.18
533.67	37654.54
533.84	37151.32
534.01	37500.06
534.18	37214.52
534.35	37804.33
534.52	37701.35
534.69	37432.19
534.86	37743.48
535.03	37521.13
535.20	38237.33
535.37	37893.27
535.54	38316.91
535.71	38143.71
535.88	38384.79
536.05	38298.19
536.22	37909.66
536.38	38139.03
536.55	38330.95
536.72	38452.66
536.89	38132.01
537.06	38422.23
537.23	38265.42
537.40	38536.92
537.57	38333.29
537.74	38419.89
537.91	38600.12
538.08	38164.78
538.25	38356.70
538.42	38696.08
538.59	39112.69
538.75	38293.50
538.92	38174.14
539.09	38857.57
539.26	38770.97
539.43	39033.11
539.60	38834.17
539.77	38897.36
539.94	39002.69
540.11	39047.16
540.28	39068.22
540.44	38740.55
540.61	39171.21
540.78	38728.84
540.95	39124.40
541.12	39243.76
541.29	38995.67
541.46	39218.02
541.62	39541.01
541.79	39262.49
541.96	39187.59
542.13	39143.12
542.30	39295.25
542.47	39278.87
542.63	39730.59
542.80	39515.26
542.97	39847.62
543.14	39899.11
543.31	40011.46
543.48	39803.15
543.64	40882.14
543.81	40182.32
543.98	39985.71
544.15	39962.31
544.32	40341.47
544.48	40652.76
544.65	40470.20
544.82	40341.47
544.99	40315.73
545.16	40266.58
545.32	40257.21
545.49	40907.88
545.66	40669.15
545.83	40652.76
546.00	40868.09
546.16	40392.97
546.33	40706.60
546.50	40531.06
546.67	40573.19
546.83	40598.93
547.00	40847.03
547.17	40650.42
547.34	40678.51
547.50	40470.20
547.67	41036.61
547.84	40875.12
548.00	41125.55
548.17	41097.47
548.34	40950.01
548.51	41390.03
548.67	41347.90
548.84	41509.40
549.01	41301.09
549.18	41200.45
549.34	41240.24
549.51	41326.84
549.68	41553.87
549.84	41799.63
550.01	41823.03
550.18	41394.71
550.34	41223.86
550.51	41230.88
550.68	41340.88
550.84	41364.29
551.01	41645.15
551.18	41832.39
551.34	41172.36
551.51	41670.90
551.68	41684.94
551.84	41879.21
552.01	42029.00
552.18	41984.53
552.34	41273.01
552.51	42195.18
552.68	41989.21
552.84	42361.36
553.01	42108.58
553.18	42113.26
553.34	41947.08
553.51	42225.60
553.67	41963.46
553.84	42359.02
554.01	42600.09
554.17	42810.74
554.34	42518.17
554.51	42412.85
554.67	42241.99
554.84	42845.85
555.00	42387.10
555.17	42000.91
555.33	42368.38
555.50	42237.31
555.67	42487.74
555.83	42642.22
556.00	42230.29
556.16	42813.08
556.33	42799.04
556.50	42295.82
556.66	43042.45
556.83	42543.92
556.99	43203.95
557.16	42756.91
557.32	43002.66
557.49	42759.25
557.65	42958.19
557.82	42651.58
557.98	42616.47
558.15	43215.65
558.32	43311.61
558.48	43243.74
558.65	43082.24
558.81	42789.67
558.98	42775.63
559.14	42501.79
559.31	43037.77
559.47	42960.53
559.64	43412.26
559.80	43278.85
559.97	43100.97
560.13	43063.52
560.30	43086.92
560.46	43124.37
560.63	43243.74
560.79	42951.17
560.96	43292.89
561.12	43154.80
561.29	43430.98
561.45	43351.40
561.61	43634.61
561.78	43199.27
561.94	43470.77
562.11	43517.58
562.27	43178.20
562.44	43559.71
562.60	43377.15
562.77	43388.85
562.93	43271.82
563.10	43599.50
563.26	43086.92
563.42	43555.03
563.59	43463.75
563.75	43636.95
563.92	44039.52
564.08	43674.40
564.24	43906.11
564.41	43723.55
564.57	44109.74
564.74	43768.02
564.90	43896.75
565.07	43524.60
565.23	43634.61
565.39	43491.83
565.56	43863.98
565.72	43679.08
565.88	43896.75
566.05	43421.62
566.21	43540.99
566.38	43700.14
566.54	43545.67
566.70	43882.70
566.87	43695.46
567.03	43828.87
567.19	44121.44
567.36	43730.57
567.52	43737.59
567.68	44046.54
567.85	43718.87
568.01	43871.00
568.17	43765.68
568.34	43721.21
568.50	43936.54
568.66	43871.00
568.83	44142.50
568.99	43744.61
569.15	43772.70
569.32	43828.87
569.48	43709.50
569.64	44264.21
569.81	44016.11
569.97	44002.07
570.13	43721.21
570.30	43770.36
570.46	43313.95
570.62	43758.66
570.78	43906.11
570.95	43973.98
571.11	44121.44
571.27	43992.71
571.43	43798.44
571.60	44364.85
571.76	44123.78
571.92	43854.62
572.09	43892.07
572.25	44058.24
572.41	44034.84
572.57	43885.04
572.74	44257.19
572.90	44069.95
573.06	44203.36
573.22	43761.00
573.38	43915.47
573.55	44137.82
573.71	44727.64
573.87	43662.69
574.03	44130.80
574.20	43826.53
574.36	43927.17
574.52	44032.50
574.68	43920.15
574.84	44217.40
575.01	43833.55
575.17	43950.58
575.33	44343.79
575.49	43880.36
575.65	44524.01
575.82	44683.17
575.98	44100.37
576.14	44741.68
576.30	44119.10
576.46	44098.03
576.62	43761.00
576.79	44409.32
576.95	43552.69
577.11	44662.10
577.27	43969.30
577.43	44385.92
577.59	44254.85
577.75	44304.00
577.92	43875.68
578.08	44296.98
578.24	43927.17
578.40	44093.35
578.56	44170.59
578.72	44343.79
578.88	44219.74
579.04	44018.46
579.21	44048.88
579.37	44299.32
579.53	44240.81
579.69	43973.98
579.85	44385.92
580.01	44282.94
580.17	44294.64
580.33	44479.54
580.49	44245.49
580.65	43929.51
580.82	44603.59
580.98	43983.35
581.14	43899.09
581.30	44137.82
581.46	44353.15
581.62	44769.77
581.78	44650.40
581.94	44744.02
582.10	44437.41
582.26	44687.85
582.42	44493.58
582.58	44460.82
582.74	44018.46
582.90	44275.91
583.06	44608.27
583.22	44442.09
583.38	44563.80
583.54	44238.47
583.70	43777.38
583.86	43943.56
584.02	43985.69
584.18	44095.69
584.34	44060.58
584.50	44421.03
584.66	44292.30
584.82	44182.29
584.98	44687.85
585.14	44556.78
585.30	44442.09
585.46	44711.25
585.62	44388.26
585.78	44514.65
585.94	43810.15
586.10	44039.52
586.26	44144.84
586.42	44329.75
586.58	44584.86
586.74	44718.28
586.90	44123.78
587.06	44549.76
587.22	44610.61
587.38	44285.28
587.54	44306.34
587.70	44722.96
587.86	44882.11
588.02	44437.41
588.18	44491.24
588.34	44390.60
588.49	44261.87
588.65	43948.24
588.81	44727.64
588.97	44320.38
589.13	44112.08
589.29	44516.99
589.45	44748.70
589.61	44662.10
589.77	44706.57
589.93	44524.01
590.08	44659.76
590.24	44727.64
590.40	45050.63
