SpectraSuite Data File
++++++++++++++++++++++++++++++++++++
Date: Fri Oct 25 11:23:10 EDT 2013
User: price-jones
Dark Spectrum Present: No
Reference Spectrum Present: No
Number of Sampled Component Spectra: 1
Spectrometers: USB2+H05261
Integration Time (usec): 100000 (USB2+H05261)
Spectra Averaged: 1 (USB2+H05261)
Boxcar Smoothing: 0 (USB2+H05261)
Correct for Electrical Dark: No (USB2+H05261)
Strobe/Lamp Enabled: No (USB2+H05261)
Correct for Detector Non-linearity: No (USB2+H05261)
Correct for Stray Light: No (USB2+H05261)
Number of Pixels in Processed Spectrum: 2048
>>>>>Begin Processed Spectral Data<<<<<
365.73	252.78
365.92	252.78
366.12	252.78
366.32	180.22
366.52	161.50
366.72	93.62
366.91	102.98
367.11	105.32
367.31	88.94
367.51	79.58
367.70	107.66
367.90	110.01
368.10	124.05
368.30	140.43
368.49	65.54
368.69	152.13
368.89	142.77
369.09	95.96
369.28	159.16
369.48	173.20
369.68	159.16
369.87	234.05
370.07	196.60
370.27	220.01
370.47	327.68
370.66	535.98
370.86	571.09
371.06	755.99
371.25	683.44
371.45	683.44
371.65	685.78
371.84	702.16
372.04	638.97
372.24	765.36
372.44	676.41
372.63	685.78
372.83	727.91
373.03	695.14
373.22	739.61
373.42	727.91
373.62	725.57
373.81	744.29
374.01	819.19
374.21	851.96
374.40	779.40
374.60	882.38
374.79	828.55
374.99	814.51
375.19	784.08
375.38	821.53
375.58	816.85
375.78	863.66
375.97	889.40
376.17	898.77
376.37	880.04
376.56	793.44
376.76	748.97
376.95	856.64
377.15	912.81
377.35	915.15
377.54	870.68
377.74	901.11
377.93	896.43
378.13	870.68
378.33	987.71
378.52	964.30
378.72	945.58
378.91	938.55
379.11	947.92
379.31	915.15
379.50	973.66
379.70	999.41
379.89	973.66
380.09	976.00
380.28	933.87
380.48	922.17
380.68	968.98
380.87	945.58
381.07	994.73
381.26	1034.52
381.46	1074.31
381.65	966.64
381.85	1074.31
382.04	938.55
382.24	1034.52
382.43	1064.94
382.63	1090.69
382.83	1074.31
383.02	1090.69
383.22	1160.91
383.41	1081.33
383.61	1064.94
383.80	1160.91
384.00	1149.20
384.19	1102.39
384.39	1165.59
384.58	1224.10
384.78	1144.52
384.97	1193.67
385.17	1137.50
385.36	1228.78
385.56	1160.91
385.75	1210.06
385.95	1163.25
386.14	1240.48
386.34	1200.69
386.53	1165.59
386.72	1163.25
386.92	1240.48
387.11	1308.36
387.31	1226.44
387.50	1221.76
387.70	1231.12
387.89	1308.36
388.09	1313.04
388.28	1390.28
388.48	1324.74
388.67	1350.49
388.86	1240.48
389.06	1366.87
389.25	1327.08
389.45	1284.95
389.64	1418.36
389.84	1401.98
390.03	1481.56
390.22	1441.77
390.42	1324.74
390.61	1362.19
390.81	1451.13
391.00	1432.41
391.19	1451.13
391.39	1453.47
391.58	1366.87
391.78	1427.73
391.97	1603.27
392.16	1486.24
392.36	1558.80
392.55	1565.82
392.75	1453.47
392.94	1523.69
393.13	1521.35
393.33	1568.16
393.52	1523.69
393.71	1624.33
393.91	1516.67
394.10	1523.69
394.29	1577.52
394.49	1584.54
394.68	1640.72
394.88	1579.86
395.07	1706.25
395.26	1717.95
395.46	1654.76
395.65	1722.63
395.84	1757.74
396.04	1717.95
396.23	1802.21
396.42	1771.79
396.62	1767.10
396.81	1893.49
397.00	1811.57
397.19	1785.83
397.39	1781.15
397.58	1881.79
397.77	1832.64
397.97	1853.70
398.16	1914.56
398.35	1928.60
398.55	1921.58
398.74	1907.54
398.93	1984.77
399.12	1961.37
399.32	1977.75
399.51	1933.28
399.70	1940.30
399.90	1827.96
400.09	2010.52
400.28	2033.93
400.47	2026.90
400.67	2059.67
400.86	2078.40
401.05	2015.20
401.24	2085.42
401.44	2216.49
401.63	2115.84
401.82	2167.34
402.01	2195.42
402.21	2260.96
402.40	2181.38
402.59	2146.27
402.78	2263.30
402.97	2347.56
403.17	2300.75
403.36	2314.79
403.55	2354.58
403.74	2431.82
403.93	2354.58
404.13	2403.73
404.32	2445.86
404.51	2417.77
404.70	2401.39
404.89	2408.41
405.09	2551.18
405.28	2415.43
405.47	2464.58
405.66	2420.11
405.85	2431.82
406.05	2516.08
406.24	2502.03
406.43	2661.19
406.62	2602.68
406.81	2649.49
407.00	2562.89
407.20	2637.78
407.39	2576.93
407.58	2726.72
407.77	2626.08
407.96	2876.52
408.15	2853.11
408.34	2717.36
408.54	2953.76
408.73	2895.24
408.92	2808.64
409.11	2913.97
409.30	2988.86
409.49	2949.08
409.68	3028.65
409.87	2799.28
410.07	2958.44
410.26	3096.53
410.45	3143.34
410.64	3033.33
410.83	3075.46
411.02	3152.70
411.21	3197.17
411.40	3005.25
411.59	3279.09
411.78	3251.00
411.98	3253.34
412.17	3318.88
412.36	3368.03
412.55	3286.11
412.74	3393.78
412.93	3454.63
413.12	3396.12
413.31	3557.61
413.50	3435.91
413.69	3541.23
413.88	3531.87
414.07	3618.47
414.26	3721.45
414.45	3768.26
414.64	3536.55
414.83	3712.09
415.02	3829.12
415.22	3815.07
415.41	3939.12
415.60	3904.01
415.79	3950.82
415.98	4065.51
416.17	4091.26
416.36	4021.04
416.55	4025.72
416.74	4145.09
416.93	4060.83
417.12	4140.41
417.31	4257.43
417.50	4091.26
417.69	4290.20
417.88	4287.86
418.07	4292.54
418.26	4383.82
418.45	4234.03
418.64	4585.11
418.83	4517.23
419.02	4454.04
419.21	4470.42
419.39	4575.75
419.58	4519.57
419.77	4432.97
419.96	4751.29
420.15	4587.45
420.34	4552.34
420.53	4620.22
420.72	4716.18
420.91	4835.55
421.10	4777.03
421.29	4793.42
421.48	4770.01
421.67	4802.78
421.86	4835.55
422.05	4643.62
422.24	4823.84
422.43	4924.49
422.61	4992.36
422.80	4992.36
422.99	4947.89
423.18	4891.72
423.37	5018.11
423.56	4922.15
423.75	5151.52
423.94	4821.50
424.13	4685.75
424.32	4692.77
424.50	5008.75
424.69	5191.31
424.88	5116.41
425.07	5064.92
425.26	4978.32
425.45	5118.75
425.64	4854.27
425.83	4999.38
426.01	5069.60
426.20	5008.75
426.39	5067.26
426.58	5107.05
426.77	5158.54
426.96	5135.14
427.15	5174.92
427.33	5231.10
427.52	5357.49
427.71	5359.83
427.90	5378.55
428.09	5289.61
428.28	5305.99
428.46	5446.43
428.65	5430.04
428.84	5790.49
429.03	5575.16
429.22	5315.36
429.40	5556.43
429.59	5483.88
429.78	5198.33
429.97	5313.02
430.16	5617.29
430.34	5579.84
430.53	5607.92
430.72	5563.45
430.91	5682.82
431.10	5760.06
431.28	5849.00
431.47	5776.44
431.66	5844.32
431.85	5764.74
432.03	5788.14
432.22	6106.46
432.41	6010.50
432.60	5933.26
432.79	5982.41
432.97	6057.31
433.16	6214.12
433.35	6115.82
433.54	6155.61
433.72	6193.06
433.91	6087.73
434.10	6127.52
434.28	6148.59
434.47	6235.19
434.66	6406.05
434.85	6298.38
435.03	6471.58
435.22	6221.14
435.41	6595.63
435.59	6431.79
435.78	6583.93
435.97	6502.01
436.16	6380.30
436.34	6293.70
436.53	6616.69
436.72	6656.48
436.90	6445.84
437.09	6604.99
437.28	6546.48
437.46	6581.59
437.65	6670.53
437.84	6850.75
438.02	6806.28
438.21	6913.94
438.40	6743.08
438.58	7000.54
438.77	7070.76
438.96	7028.63
439.14	7234.60
439.33	7155.02
439.52	7304.81
439.70	7293.11
439.89	7368.01
440.08	7566.95
440.26	7517.80
440.45	7276.73
440.63	7672.28
440.82	7688.66
441.01	7548.23
441.19	7726.11
441.38	7719.09
441.57	7915.69
441.75	7913.35
441.94	8131.02
442.12	7896.97
442.31	8156.77
442.50	8023.36
442.68	8098.25
442.87	8212.94
443.05	8276.13
443.24	8318.26
443.43	8259.75
443.61	8315.92
443.80	8486.78
443.98	8236.35
444.17	7964.84
444.35	8477.42
444.54	8280.82
444.73	8500.83
444.91	8435.29
445.10	8615.51
445.28	8437.63
445.47	8266.77
445.65	8395.50
445.84	8575.72
446.02	8454.02
446.21	8407.20
446.39	8524.23
446.58	8425.93
446.77	8456.36
446.95	8322.94
447.14	8484.44
447.32	8603.81
447.51	8542.96
447.69	8428.27
447.88	8517.21
448.06	8549.98
448.25	8414.23
448.43	8571.04
448.62	8573.38
448.80	8875.31
448.99	8645.94
449.17	8798.07
449.36	8910.42
449.54	8924.46
449.73	9153.84
449.91	9092.98
450.10	8915.10
450.28	9212.35
450.46	9210.01
450.65	8964.25
450.83	9060.21
451.02	9296.61
451.20	9411.29
451.39	9212.35
451.57	9406.61
451.76	9121.07
451.94	9289.59
452.13	9558.75
452.31	9577.47
452.49	9224.05
452.68	9514.28
452.86	9530.66
453.05	9603.22
453.23	9600.88
453.42	9448.74
453.60	9455.76
453.78	9654.71
453.97	9617.26
454.15	9479.17
454.34	9514.28
454.52	9685.14
454.70	9694.50
454.89	9844.29
455.07	9907.49
455.26	9879.40
455.44	10209.42
455.62	10118.14
455.81	10164.95
455.99	10197.71
456.17	10092.39
456.36	10171.97
456.54	10223.46
456.73	10469.22
456.91	10537.09
457.09	10494.96
457.28	10778.17
457.46	10476.24
457.64	10551.14
457.83	10565.18
458.01	10373.25
458.19	10707.95
458.38	10616.67
458.56	10574.54
458.74	10675.18
458.93	10768.80
459.11	10647.10
459.29	10885.83
459.48	11030.94
459.66	10923.28
459.84	10892.85
460.03	11084.78
460.21	10860.09
460.39	11070.73
460.57	11068.39
460.76	11229.89
460.94	11318.83
461.12	11265.00
461.31	11421.81
461.49	11382.03
461.67	11304.79
461.85	11606.72
462.04	11208.83
462.22	11726.08
462.40	11775.24
462.59	11358.62
462.77	11630.12
462.95	11969.50
463.13	11623.10
463.32	11639.48
463.50	11669.91
463.68	11868.86
463.86	11950.78
464.05	11880.56
464.23	12009.29
464.41	11836.09
464.59	11873.54
464.78	12025.67
464.96	12063.12
465.14	12023.33
465.32	12229.30
465.50	12231.64
465.69	12400.16
465.87	12456.33
466.05	12313.56
466.23	12257.39
466.41	12325.26
466.60	12456.33
466.78	12241.00
466.96	12201.21
467.14	12210.57
467.32	12379.09
467.51	12758.26
467.69	12493.78
467.87	12428.24
468.05	12556.97
468.23	12535.91
468.41	12631.87
468.60	12711.45
468.78	12800.39
468.96	12678.68
469.14	12922.10
469.32	12861.24
469.50	12786.35
469.69	13064.87
469.87	13233.39
470.05	13401.91
470.23	13345.73
470.41	13240.41
470.59	13486.17
470.77	13170.19
470.95	13570.43
471.14	13575.11
471.32	13268.50
471.50	13788.10
471.68	13809.16
471.86	13949.59
472.04	13799.80
472.22	14258.54
472.40	13738.94
472.58	13825.54
472.77	13998.74
472.95	14188.33
473.13	14668.14
473.31	14384.93
473.49	14317.06
473.67	14305.35
473.85	14579.20
474.03	14691.54
474.21	14621.33
474.39	15229.87
474.57	14782.82
474.75	15096.46
474.93	15190.08
475.12	14941.98
475.30	15330.51
475.48	15325.83
475.66	15314.13
475.84	15028.58
476.02	15349.23
476.20	15651.16
476.38	16009.26
476.56	16102.89
476.74	15974.16
476.92	16187.14
477.10	15737.76
477.28	16194.17
477.46	16343.96
477.64	16533.54
477.82	16636.53
478.00	17060.16
478.18	16746.53
478.36	17123.36
478.54	17181.87
478.72	17294.22
478.90	17249.75
479.08	17425.29
479.26	17834.88
479.44	17881.69
479.62	18207.03
479.80	18270.22
479.98	18448.10
480.16	18733.65
480.34	18654.07
480.52	18806.20
480.70	18913.87
480.88	18743.01
481.06	18899.83
481.24	19154.94
481.41	19389.00
481.59	19786.89
481.77	19592.62
481.95	19667.52
482.13	19749.44
482.31	20018.60
482.49	20636.50
482.67	20379.04
482.85	20435.22
483.03	20879.92
483.21	21209.93
483.39	20982.90
483.57	21003.97
483.74	21420.58
483.92	21352.71
484.10	21338.66
484.28	21853.58
484.46	22270.20
484.64	22501.91
484.82	22108.70
485.00	22178.92
485.18	22991.08
485.35	22993.42
485.53	23089.38
485.71	23243.86
485.89	23730.69
486.07	23627.71
486.25	23819.63
486.43	23501.32
486.61	24154.33
486.78	24084.11
486.96	24512.43
487.14	24620.10
487.32	24875.21
487.50	25137.35
487.68	25132.67
487.85	25579.71
488.03	25516.52
488.21	26174.21
488.39	26181.23
488.57	26520.61
488.75	26749.98
488.92	26728.92
489.10	26988.72
489.28	27021.48
489.46	27452.14
489.64	27424.06
489.81	27873.44
489.99	28020.89
490.17	28547.51
490.35	28334.53
490.53	28292.40
490.70	28479.64
490.88	28393.04
491.06	29074.13
491.24	29256.70
491.41	29284.78
491.59	29586.71
491.77	29675.65
491.95	29956.52
492.13	30134.40
492.30	30288.87
492.48	30441.01
492.66	30178.87
492.84	30775.70
493.01	30916.14
493.19	31117.42
493.37	31166.57
493.54	31311.69
493.72	31728.30
493.90	31594.89
494.08	32037.25
494.25	32435.14
494.43	32505.36
494.61	32573.24
494.79	32802.61
494.96	32650.47
495.14	32973.47
495.32	33766.91
495.49	33619.46
495.67	33251.99
495.85	33916.70
496.02	34132.03
496.20	34462.05
496.38	34155.44
496.55	34197.57
496.73	35082.29
496.91	34857.60
497.09	35201.66
497.26	35456.78
497.44	35751.68
497.62	35606.57
497.79	36376.61
497.97	35693.17
498.14	36418.74
498.32	36439.80
498.50	36191.70
498.67	36825.99
498.85	36744.07
499.03	36762.79
499.20	37268.35
499.38	37233.24
499.56	37233.24
499.73	37518.79
499.91	37699.01
500.08	38089.88
500.26	37820.72
500.44	38033.71
500.61	38274.78
500.79	38447.98
500.97	37958.81
501.14	39119.71
501.32	38513.52
501.49	39381.85
501.67	39133.76
501.84	39463.77
502.02	39306.96
502.20	39697.83
502.37	39466.11
502.55	39225.04
502.72	39643.99
502.90	39927.20
503.07	39854.64
503.25	40006.78
503.43	39983.37
503.60	40556.80
503.78	40320.41
503.95	40931.29
504.13	40933.63
504.30	41193.43
504.48	40835.33
504.65	41003.85
504.83	41111.51
505.01	41368.97
505.18	41448.55
505.36	41853.46
505.53	41764.52
505.71	42131.98
505.88	42396.46
506.06	41954.10
506.23	42604.77
506.41	42307.52
506.58	42291.14
506.76	42703.07
506.93	42880.95
507.11	42754.57
507.28	43278.85
507.46	43058.84
507.63	42532.22
507.81	43634.61
507.98	43220.33
508.16	43793.76
508.33	43693.12
508.50	44100.37
508.68	44268.89
508.85	44339.11
509.03	44542.74
509.20	44648.06
509.38	44498.26
509.55	44741.68
509.73	45130.21
509.90	44949.99
510.08	44802.53
510.25	44704.23
510.42	45031.91
510.60	45375.97
510.77	45500.01
510.95	45965.78
511.12	45090.42
511.30	45102.12
511.47	45759.81
511.64	45968.12
511.82	46401.12
511.99	46155.36
512.17	46433.89
512.34	46223.24
512.51	46555.60
512.69	46742.84
512.86	46827.10
513.04	46878.59
513.21	47173.50
513.38	47395.85
513.56	47086.90
513.73	46976.89
513.90	47430.96
514.08	47342.02
514.25	47758.63
514.43	48060.56
514.60	48137.80
514.77	47547.98
514.95	48502.92
515.12	48044.18
515.29	48409.30
515.47	48219.72
515.64	48470.15
515.81	48076.94
515.99	48680.80
516.16	48744.00
516.33	48875.07
516.51	48793.15
516.68	48832.94
516.85	48886.77
517.03	49104.44
517.20	49324.45
517.37	49242.53
517.54	49148.91
517.72	49455.52
517.89	49855.75
518.06	49638.08
518.24	49645.10
518.41	49469.56
518.58	49649.78
518.75	49727.02
518.93	49851.07
519.10	50092.15
519.27	50117.89
519.45	50209.17
519.62	50375.35
519.79	50302.79
519.96	49954.05
520.14	50644.51
520.31	50417.48
520.48	50546.21
520.65	50878.57
520.83	51007.29
521.00	51110.28
521.17	51004.95
521.34	50761.54
521.52	50852.82
521.69	51079.85
521.86	51306.88
522.03	51657.96
522.20	51590.09
522.38	51906.06
522.55	51742.22
522.72	51697.75
522.89	51569.02
523.07	52023.09
523.24	51760.95
523.41	52004.36
523.58	51714.14
523.75	51978.62
523.92	52044.15
524.10	52325.02
524.27	52327.36
524.44	52346.08
524.61	52292.25
524.78	52458.43
524.96	52587.16
525.13	52704.18
525.30	52802.49
525.47	52982.71
525.64	52807.17
525.81	52804.83
525.98	52949.94
526.16	52818.87
526.33	52938.24
526.50	53382.94
526.67	53165.27
526.84	53237.83
527.01	53165.27
527.18	53462.52
527.36	53202.72
527.53	53207.40
527.70	53811.26
527.87	53659.12
528.04	53661.46
528.21	53619.33
528.38	53757.42
528.55	53687.21
528.72	53605.29
528.89	54073.40
529.07	53411.02
529.24	53502.31
529.41	53862.75
529.58	53876.79
529.75	54038.29
529.92	54033.61
530.09	53942.33
530.26	54323.83
530.43	54174.04
530.60	54092.12
530.77	54183.40
530.94	54120.21
531.11	54328.52
531.28	54335.54
531.46	54642.15
531.63	54571.93
531.80	54595.34
531.97	54475.97
532.14	54742.79
532.31	54843.43
532.48	54993.23
532.65	54803.64
532.82	54834.07
532.99	55157.06
533.16	54602.36
533.33	54930.03
533.50	55103.23
533.67	55110.25
533.84	55157.06
534.01	55395.80
534.18	55112.59
534.35	55426.23
534.52	55374.73
534.69	55257.71
534.86	55451.97
535.03	55180.47
535.20	55379.42
535.37	55526.87
535.54	55601.77
535.71	55255.37
535.88	55585.38
536.05	55973.91
536.22	56006.68
536.38	55945.83
536.55	55891.99
536.72	56016.04
536.89	55875.61
537.06	55994.98
537.23	56177.54
537.40	56018.38
537.57	56060.51
537.74	55945.83
537.91	56214.99
538.08	56004.34
538.25	55756.24
538.42	56109.66
538.59	56353.08
538.75	56170.52
538.92	56156.47
539.09	56561.39
539.26	56683.09
539.43	56282.86
539.60	56669.05
539.77	56559.05
539.94	56605.86
540.11	56413.93
540.28	56364.78
540.44	56823.53
540.61	56598.83
540.78	56640.96
540.95	56746.29
541.12	56666.71
541.29	56729.90
541.46	56954.60
541.62	56963.96
541.79	57092.69
541.96	56657.35
542.13	56760.33
542.30	56961.62
542.47	56973.32
542.63	57078.64
542.80	57088.01
542.97	57366.53
543.14	57439.09
543.31	57389.94
543.48	57513.98
543.64	57586.54
543.81	57663.78
543.98	57509.30
544.15	57621.65
544.32	57586.54
544.48	57762.08
544.65	57785.49
544.82	57733.99
544.99	57364.19
545.16	57516.32
545.32	57628.67
545.49	57769.10
545.66	57968.05
545.83	58049.97
546.00	58085.07
546.16	57853.36
546.33	57914.22
546.50	57944.64
546.67	57925.92
546.83	57631.01
547.00	57923.58
547.17	58059.33
547.34	58157.63
547.50	58232.53
547.67	58234.87
547.84	58054.65
548.00	58487.65
548.17	58623.40
548.34	58347.21
548.51	58372.96
548.67	58445.52
548.84	58372.96
549.01	58286.36
549.18	58543.82
549.34	58440.84
549.51	58424.45
549.68	58557.86
549.84	58871.49
550.01	58691.27
550.18	58672.55
550.34	58707.66
550.51	58548.50
550.68	58658.51
550.84	58396.37
551.01	58883.20
551.18	58766.17
551.34	58810.64
551.51	58871.49
551.68	58887.88
551.84	58995.54
552.01	58766.17
552.18	58953.41
552.34	58960.44
552.51	58939.37
552.68	59002.56
552.84	58876.18
553.01	59119.59
553.18	59196.83
553.34	58981.50
553.51	59000.22
553.67	58937.03
553.84	59187.47
554.01	59229.60
554.17	59150.02
554.34	59168.74
554.51	58939.37
554.67	59302.15
554.84	59295.13
555.00	59203.85
555.17	59166.40
555.33	59199.17
555.50	59213.21
555.67	59171.08
555.83	59215.55
556.00	59292.79
556.16	59660.26
556.33	59618.13
556.50	59421.52
556.66	59634.51
556.83	59435.56
556.99	59803.03
557.16	59716.43
557.32	59643.87
557.49	59875.58
557.65	59543.23
557.82	59669.62
557.98	59592.38
558.15	59648.55
558.32	59646.21
558.48	59512.80
558.65	59632.17
558.81	59746.86
558.98	59805.37
559.14	59868.56
559.31	59877.93
559.47	59877.93
559.64	59924.74
559.80	59962.18
559.97	59917.71
560.13	59835.80
560.30	59973.89
560.46	59845.16
560.63	60058.15
560.79	60032.40
560.96	60090.91
561.12	59957.50
561.29	60130.70
561.45	60060.49
561.61	60055.81
561.78	60069.85
561.94	59992.61
562.11	60030.06
562.27	60374.12
562.44	60184.54
562.60	60308.58
562.77	60219.64
562.93	59941.12
563.10	60254.75
563.26	60095.60
563.42	60339.01
563.59	60221.98
563.75	60151.77
563.92	60236.03
564.08	60259.43
564.24	60488.80
564.41	60374.12
564.57	60498.17
564.74	60470.08
564.90	60280.50
565.07	60250.07
565.23	60392.84
565.39	60350.71
565.56	60320.29
565.72	60378.80
565.88	60399.86
566.05	60236.03
566.21	60353.05
566.38	60537.96
566.54	60636.26
566.70	60664.35
566.87	60495.83
567.03	60350.71
567.19	60816.48
567.36	60509.87
567.52	60191.56
567.68	60757.97
567.85	60465.40
568.01	60537.96
568.17	60568.38
568.34	60713.50
568.50	60566.04
568.66	60456.04
568.83	60594.13
568.99	60395.18
569.15	60659.66
569.32	60573.06
569.48	60472.42
569.64	60982.66
569.81	60657.32
569.97	60521.57
570.13	60605.83
570.30	60692.43
570.46	60699.45
570.62	60676.05
570.78	60654.98
570.95	60654.98
571.11	60767.33
571.27	60669.03
571.43	60757.97
571.60	61181.60
571.76	60779.03
571.92	60750.94
572.09	60743.92
572.25	60825.84
572.41	60753.29
572.57	60954.57
572.74	61052.87
572.90	60900.74
573.06	60823.50
573.22	60818.82
573.38	60907.76
573.55	60837.54
573.71	61078.62
573.87	60835.20
574.03	60966.27
574.20	60966.27
574.36	60594.13
574.52	60947.55
574.68	61141.81
574.84	60982.66
575.01	61003.72
575.17	60863.29
575.33	60933.51
575.49	60947.55
575.65	60849.25
575.82	60980.32
575.98	61144.16
576.14	61214.37
576.30	61111.39
576.46	60919.46
576.62	60921.80
576.79	60917.12
576.95	60985.00
577.11	61038.83
577.27	61272.88
577.43	60917.12
577.59	60858.61
577.75	61001.38
577.92	61024.79
578.08	60910.10
578.24	61059.90
578.40	61104.37
578.56	61216.71
578.72	61027.13
578.88	61176.92
579.04	61261.18
579.21	61195.65
579.37	61223.73
579.53	61298.63
579.69	60879.67
579.85	61050.53
580.01	61013.08
580.17	60910.10
580.33	61188.63
580.49	61357.14
580.65	61050.53
580.82	61130.11
580.98	61095.00
581.14	61097.34
581.30	61373.53
581.46	61153.52
581.62	61244.80
581.78	61083.30
581.94	61312.67
582.10	61352.46
582.26	61104.37
582.42	61293.95
582.58	61144.16
582.74	61095.00
582.90	61279.91
583.06	61254.16
583.22	61043.51
583.38	61333.74
583.54	61167.56
583.70	61085.64
583.86	61193.31
584.02	61020.11
584.18	61434.38
584.34	61265.86
584.50	61197.99
584.66	60987.34
584.82	60776.69
584.98	61427.36
585.14	61064.58
585.30	61174.58
585.46	61153.52
585.62	61382.89
585.78	61420.34
585.94	60996.70
586.10	61041.17
586.26	61078.62
586.42	61153.52
586.58	61307.99
586.74	61190.97
586.90	61254.16
587.06	61228.41
587.22	61364.17
587.38	61268.20
587.54	61380.55
587.70	61361.82
587.86	61127.77
588.02	61373.53
588.18	61488.21
588.34	61467.15
588.49	61392.25
