SpectraSuite Data File
++++++++++++++++++++++++++++++++++++
Date: Fri Oct 25 11:22:53 EDT 2013
User: price-jones
Dark Spectrum Present: No
Reference Spectrum Present: No
Number of Sampled Component Spectra: 1
Spectrometers: USB2+H05261
Integration Time (usec): 100000 (USB2+H05261)
Spectra Averaged: 1 (USB2+H05261)
Boxcar Smoothing: 0 (USB2+H05261)
Correct for Electrical Dark: No (USB2+H05261)
Strobe/Lamp Enabled: No (USB2+H05261)
Correct for Detector Non-linearity: No (USB2+H05261)
Correct for Stray Light: No (USB2+H05261)
Number of Pixels in Processed Spectrum: 2048
>>>>>Begin Processed Spectral Data<<<<<
365.73	142.77
365.92	142.77
366.12	142.77
366.32	135.75
366.52	166.18
366.72	163.84
366.91	102.98
367.11	107.66
367.31	128.73
367.51	110.01
367.70	44.47
367.90	95.96
368.10	133.41
368.30	159.16
368.49	91.28
368.69	196.60
368.89	191.92
369.09	133.41
369.28	196.60
369.48	203.63
369.68	215.33
369.87	189.58
370.07	135.75
370.27	177.88
370.47	304.27
370.66	538.32
370.86	657.69
371.06	615.56
371.25	706.84
371.45	732.59
371.65	608.54
371.84	720.88
372.04	657.69
372.24	645.99
372.44	718.54
372.63	753.65
372.83	830.89
373.03	713.86
373.22	753.65
373.42	758.33
373.62	781.74
373.81	753.65
374.01	826.21
374.21	702.16
374.40	826.21
374.60	744.29
374.79	744.29
374.99	812.17
375.19	868.34
375.38	833.23
375.58	809.83
375.78	863.66
375.97	903.45
376.17	866.00
376.37	833.23
376.56	926.85
376.76	870.68
376.95	940.90
377.15	912.81
377.35	931.53
377.54	887.06
377.74	952.60
377.93	950.26
378.13	882.38
378.33	964.30
378.52	1029.84
378.72	940.90
378.91	873.02
379.11	924.51
379.31	858.98
379.50	938.55
379.70	997.07
379.89	1039.20
380.09	968.98
380.28	992.39
380.48	1041.54
380.68	976.00
380.87	1011.11
381.07	1001.75
381.26	994.73
381.46	1069.62
381.65	1018.13
381.85	1053.24
382.04	1060.26
382.24	1041.54
382.43	976.00
382.63	1086.01
382.83	1139.84
383.02	1055.58
383.22	1036.86
383.41	994.73
383.61	1088.35
383.80	1114.10
384.00	1027.50
384.19	1093.03
384.39	1181.97
384.58	1174.95
384.78	1135.16
384.97	1172.61
385.17	1167.93
385.36	1128.14
385.56	1132.82
385.75	1207.72
385.95	1214.74
386.14	1256.87
386.34	1132.82
386.53	1263.89
386.72	1174.95
386.92	1184.31
387.11	1226.44
387.31	1296.66
387.50	1207.72
387.70	1196.01
387.89	1247.51
388.09	1261.55
388.28	1252.19
388.48	1306.02
388.67	1357.51
388.86	1306.02
389.06	1315.38
389.25	1313.04
389.45	1352.83
389.64	1409.00
389.84	1338.79
390.03	1336.45
390.22	1455.81
390.42	1385.60
390.61	1371.55
390.81	1418.36
391.00	1371.55
391.19	1469.86
391.39	1423.05
391.58	1413.68
391.78	1418.36
391.97	1481.56
392.16	1495.60
392.36	1554.12
392.55	1575.18
392.75	1448.79
392.94	1533.05
393.13	1610.29
393.33	1547.09
393.52	1537.73
393.71	1556.46
393.91	1509.65
394.10	1582.20
394.29	1596.25
394.49	1640.72
394.68	1657.10
394.88	1659.44
395.07	1577.52
395.26	1657.10
395.46	1598.59
395.65	1671.14
395.84	1659.44
396.04	1809.23
396.23	1781.15
396.42	1783.49
396.62	1774.13
396.81	1748.38
397.00	1816.26
397.19	1856.04
397.39	1823.28
397.58	1818.60
397.77	1830.30
397.97	1856.04
398.16	1893.49
398.35	1802.21
398.55	1877.11
398.74	1837.32
398.93	1895.83
399.12	1912.22
399.32	1930.94
399.51	1956.69
399.70	1968.39
399.90	2083.08
400.09	2015.20
400.28	2090.10
400.47	2094.78
400.67	2129.89
400.86	2153.29
401.05	2059.67
401.24	2221.17
401.44	2101.80
401.63	2230.53
401.82	2129.89
402.01	2181.38
402.21	2181.38
402.40	2174.36
402.59	2225.85
402.78	2209.47
402.97	2200.10
403.17	2312.45
403.36	2396.71
403.55	2319.47
403.74	2359.26
403.93	2328.83
404.13	2246.91
404.32	2267.98
404.51	2399.05
404.70	2422.45
404.89	2445.86
405.09	2588.63
405.28	2403.73
405.47	2513.74
405.66	2530.12
405.85	2558.21
406.05	2403.73
406.24	2586.29
406.43	2427.14
406.62	2590.97
406.81	2595.65
407.00	2544.16
407.20	2525.44
407.39	2682.25
407.58	2691.62
407.77	2731.41
407.96	2750.13
408.15	2668.21
408.34	2722.04
408.54	2768.85
408.73	2696.30
408.92	2778.22
409.11	2904.60
409.30	2942.05
409.49	2932.69
409.68	2839.07
409.87	2998.23
410.07	3054.40
410.26	3019.29
410.45	3148.02
410.64	2970.14
410.83	3073.12
411.02	3028.65
411.21	3253.34
411.40	3215.90
411.59	3197.17
411.78	3243.98
411.98	3236.96
412.17	3356.33
412.36	3311.86
412.55	3466.33
412.74	3449.95
412.93	3478.04
413.12	3346.97
413.31	3543.57
413.50	3489.74
413.69	3616.13
413.88	3618.47
414.07	3740.18
414.26	3777.62
414.45	3796.35
414.64	3653.58
414.83	3728.47
415.02	3786.99
415.22	3836.14
415.41	3892.31
415.60	3946.14
415.79	4021.04
415.98	4011.68
416.17	4004.66
416.36	3985.93
416.55	3950.82
416.74	4039.76
416.93	4184.88
417.12	4067.85
417.31	4180.20
417.50	4222.33
417.69	4383.82
417.88	4318.29
418.07	4149.77
418.26	4248.07
418.45	4414.25
418.64	4655.33
418.83	4442.34
419.02	4486.81
419.21	4557.02
419.39	4568.73
419.58	4652.98
419.77	4458.72
419.96	4685.75
420.15	4664.69
420.34	4641.28
420.53	4730.22
420.72	4620.22
420.91	4706.82
421.10	4819.16
421.29	4784.06
421.48	4571.07
421.67	4718.52
421.86	4746.61
422.05	4781.71
422.24	4795.76
422.43	4922.15
422.61	4786.40
422.80	5135.14
422.99	4971.30
423.18	4947.89
423.37	5088.32
423.56	4975.98
423.75	5006.41
423.94	4875.34
424.13	4795.76
424.32	4875.34
424.50	5200.67
424.69	5093.01
424.88	5254.50
425.07	5027.47
425.26	4994.70
425.45	5088.32
425.64	4947.89
425.83	5130.45
426.01	5013.43
426.20	5151.52
426.39	5184.29
426.58	5011.09
426.77	5118.75
426.96	5083.64
427.15	5142.16
427.33	5172.58
427.52	5102.37
427.71	5331.74
427.90	5291.95
428.09	5296.63
428.28	5376.21
428.46	5467.49
428.65	5305.99
428.84	5401.96
429.03	5509.62
429.22	5434.72
429.40	5397.28
429.59	5476.85
429.78	5390.25
429.97	5404.30
430.16	5516.64
430.34	5687.50
430.53	5762.40
430.72	5830.27
430.91	5600.90
431.10	5542.39
431.28	5940.28
431.47	5790.49
431.66	5891.13
431.85	5898.15
432.03	5935.60
432.22	5900.49
432.41	6078.37
432.60	6010.50
432.79	5877.09
432.97	6024.54
433.16	6059.65
433.35	5902.83
433.54	5996.45
433.72	6188.38
433.91	6073.69
434.10	6129.86
434.28	6120.50
434.47	6246.89
434.66	6328.81
434.85	6331.15
435.03	6415.41
435.22	6427.11
435.41	6635.42
435.59	6476.26
435.78	6604.99
435.97	6443.49
436.16	6478.60
436.34	6480.94
436.53	6527.75
436.72	6780.53
436.90	6464.56
437.09	6607.33
437.28	6473.92
437.46	6684.57
437.65	6614.35
437.84	6829.68
438.02	6684.57
438.21	6745.42
438.40	6890.54
438.58	7145.66
438.77	7140.97
438.96	6986.50
439.14	7227.57
439.33	7119.91
439.52	7250.98
439.70	7321.20
439.89	7433.54
440.08	7456.95
440.26	7463.97
440.45	7328.22
440.63	7360.98
440.82	7712.07
441.01	7618.44
441.19	7669.94
441.38	7674.62
441.57	8023.36
441.75	7833.77
441.94	8168.47
442.12	7864.20
442.31	8100.59
442.50	8138.04
442.68	7971.86
442.87	8215.28
443.05	8210.60
443.24	8156.77
443.43	8315.92
443.61	8318.26
443.80	8449.33
443.98	8077.19
444.17	7859.52
444.35	8154.43
444.54	8564.02
444.73	8435.29
444.91	8299.54
445.10	8402.52
445.28	8365.07
445.47	8369.76
445.65	8262.09
445.84	8538.27
446.02	8636.58
446.21	8624.87
446.39	8339.33
446.58	8411.89
446.77	8468.06
446.95	8379.12
447.14	8432.95
447.32	8557.00
447.51	8723.18
447.69	8421.25
447.88	8664.66
448.06	8587.43
448.25	8493.80
448.43	8671.68
448.62	8861.27
448.80	8578.06
448.99	8713.81
449.17	8688.07
449.36	8631.90
449.54	8910.42
449.73	8966.59
449.91	9078.94
450.10	8947.87
450.28	9165.54
450.46	9188.94
450.65	9011.06
450.83	9249.80
451.02	9146.81
451.20	9076.60
451.39	9193.62
451.57	9181.92
451.76	9057.87
451.94	9474.49
452.13	9439.38
452.31	9291.93
452.49	9366.82
452.68	9397.25
452.86	9284.91
453.05	9554.07
453.23	9525.98
453.42	9298.95
453.60	9322.35
453.78	9521.30
453.97	9507.26
454.15	9607.90
454.34	9579.81
454.52	9788.12
454.70	9802.16
454.89	9671.09
455.07	9769.40
455.26	9720.24
455.44	9839.61
455.62	9909.83
455.81	9856.00
455.99	10090.05
456.17	10026.86
456.36	10284.31
456.54	10178.99
456.73	10171.97
456.91	10352.19
457.09	10436.45
457.28	10661.14
457.46	10593.26
457.64	10602.63
457.83	10487.94
458.01	10466.88
458.19	10658.80
458.38	10675.18
458.56	10860.09
458.74	10796.89
458.93	10841.36
459.11	10986.47
459.29	10899.87
459.48	10988.82
459.66	10759.44
459.84	10782.85
460.03	11075.42
460.21	11194.78
460.39	11030.94
460.57	11124.57
460.76	10960.73
460.94	11243.93
461.12	11400.75
461.31	11330.53
461.49	11232.23
461.67	11349.26
461.85	11475.65
462.04	11269.68
462.22	11833.75
462.40	11770.55
462.59	11520.12
462.77	11550.54
462.95	11808.00
463.13	11634.80
463.32	11922.69
463.50	11882.90
463.68	11941.41
463.86	11864.18
464.05	11630.12
464.23	11744.81
464.41	12203.55
464.59	11679.27
464.78	12002.27
464.96	12056.10
465.14	12035.03
465.32	12030.35
465.50	12264.41
465.69	12365.05
465.87	12554.63
466.05	12287.81
466.23	12269.09
466.41	12343.99
466.60	12456.33
466.78	12383.77
466.96	12442.29
467.14	12311.22
467.32	12526.55
467.51	12549.95
467.69	12236.32
467.87	12533.57
468.05	12657.62
468.23	12933.80
468.41	12517.18
468.60	12732.51
468.78	12940.82
468.96	12755.92
469.14	12931.46
469.32	13139.77
469.50	13018.06
469.69	12992.31
469.87	13219.35
470.05	13303.60
470.23	13263.82
470.41	13135.09
470.59	13642.98
470.77	13128.06
470.95	13504.89
471.14	13738.94
471.32	13287.22
471.50	13572.77
471.68	13827.88
471.86	13895.76
472.04	13893.42
472.22	14291.31
472.40	13783.41
472.58	14047.90
472.77	14157.90
472.95	14471.53
473.13	14670.48
473.31	14310.04
473.49	14256.20
473.67	14267.91
473.85	14452.81
474.03	14965.39
474.21	14604.94
474.39	14700.90
474.57	14778.14
474.75	15112.84
474.93	14918.57
475.12	15199.44
475.30	15262.63
475.48	15335.19
475.66	15218.16
475.84	15035.60
476.02	15756.49
476.20	15403.07
476.38	15644.14
476.56	16280.77
476.74	16191.83
476.92	15995.22
477.10	16196.51
477.28	16458.65
477.46	16112.25
477.64	16463.33
477.82	16554.61
478.00	17132.72
478.18	16931.44
478.36	17151.45
478.54	17184.21
478.72	17521.25
478.90	17415.93
479.08	17631.26
479.26	17666.36
479.44	18024.47
479.62	18038.51
479.80	18073.62
479.98	18153.20
480.16	18764.07
480.34	18494.91
480.52	18754.71
480.70	18939.62
480.88	18384.91
481.06	18766.42
481.24	19218.14
481.41	19124.52
481.59	19611.35
481.77	19323.46
481.95	19976.47
482.13	20126.27
482.31	19714.33
482.49	20615.44
482.67	20180.10
482.85	20692.68
483.03	20994.61
483.21	21139.72
483.39	21364.41
483.57	20996.95
483.74	21427.60
483.92	21551.65
484.10	21336.32
484.28	21919.12
484.46	22235.09
484.64	22572.13
484.82	22284.24
485.00	22478.50
485.18	23115.13
485.35	23185.35
485.53	23068.32
485.71	23178.33
485.89	23604.30
486.07	23655.79
486.25	23517.70
486.43	23929.64
486.61	24357.96
486.78	23988.15
486.96	24049.00
487.14	24772.23
487.32	24725.42
487.50	25090.54
487.68	25439.28
487.85	25771.64
488.03	25797.38
488.21	25963.56
488.39	25858.24
488.57	26218.68
488.75	26520.61
488.92	27101.06
489.10	26881.05
489.28	27005.10
489.46	27297.67
489.64	27531.72
489.81	27637.05
489.99	27992.81
490.17	28074.73
490.35	28648.16
490.53	28367.29
490.70	28648.16
490.88	28685.61
491.06	28999.24
491.24	28847.10
491.41	29205.20
491.59	29312.87
491.77	29593.73
491.95	30150.78
492.13	30024.39
492.30	30834.22
492.48	30600.16
492.66	30611.87
492.84	30408.24
493.01	31079.97
493.19	30988.69
493.37	31417.01
493.54	31718.94
493.72	32032.57
493.90	31714.26
494.08	31824.26
494.25	32519.40
494.43	32416.42
494.61	33216.88
494.79	32730.05
494.96	33057.73
495.14	33479.02
495.32	33776.27
495.49	33783.29
495.67	33401.79
495.85	34045.43
496.02	33905.00
496.20	34373.11
496.38	34440.98
496.55	34778.02
496.73	35323.36
496.91	35089.31
497.09	35049.52
497.26	35299.96
497.44	35737.64
497.62	35938.93
497.79	36238.51
497.97	35545.72
498.14	36708.96
498.32	36725.35
498.50	36275.96
498.67	37179.41
498.85	36781.52
499.03	37481.34
499.20	37368.99
499.38	37141.96
499.56	37462.61
499.73	37879.23
499.91	37928.38
500.08	38340.32
500.26	37500.06
500.44	38298.19
500.61	38242.01
500.79	38089.88
500.97	38522.88
501.14	39140.78
501.32	38934.81
501.49	39033.11
501.67	39379.51
501.84	39227.38
502.02	39754.00
502.20	39278.87
502.37	39842.94
502.55	39543.35
502.72	39915.50
502.90	40311.05
503.07	39983.37
503.25	40601.27
503.43	40154.23
503.60	40566.16
503.78	40821.28
503.95	40439.78
504.13	40198.70
504.30	40844.69
504.48	40982.78
504.65	41029.59
504.83	41663.88
505.01	41535.15
505.18	41020.23
505.36	42012.62
505.53	41467.27
505.71	41902.61
505.88	41832.39
506.06	42043.04
506.23	42529.87
506.41	42387.10
506.58	42485.40
506.76	42478.38
506.93	43040.11
507.11	42988.62
507.28	43285.87
507.46	42962.87
507.63	43569.07
507.81	43491.83
507.98	43594.82
508.16	43491.83
508.33	43840.57
508.50	43955.26
508.68	44215.06
508.85	44624.65
509.03	44315.70
509.20	44346.13
509.38	45034.25
509.55	44987.44
509.73	44280.60
509.90	45305.75
510.08	44882.11
510.25	44994.46
510.42	44706.57
510.60	45148.93
510.77	45558.53
510.95	45684.92
511.12	45556.19
511.30	45684.92
511.47	45982.16
511.64	45724.71
511.82	46286.43
511.99	46408.14
512.17	46110.89
512.34	46328.56
512.51	46461.97
512.69	46810.71
512.86	47143.07
513.04	47269.46
513.21	47267.12
513.38	47304.57
513.56	47150.09
513.73	47751.61
513.90	47304.57
514.08	47445.00
514.25	47526.92
514.43	47901.40
514.60	47856.93
514.77	47913.11
514.95	48196.31
515.12	47728.20
515.29	47969.28
515.47	48346.11
515.64	48210.35
515.81	48428.02
515.99	48334.40
516.16	48966.35
516.33	48423.34
516.51	49544.46
516.68	48912.52
516.85	48481.86
517.03	48945.28
517.20	49244.87
517.37	49139.55
517.54	49144.23
517.72	49397.01
517.89	49294.02
518.06	49628.72
518.24	49514.03
518.41	49727.02
518.58	49415.73
518.75	49532.76
518.93	49855.75
519.10	49776.17
519.27	50145.98
519.45	50059.38
519.62	50478.33
519.79	50438.54
519.96	50520.46
520.14	50560.25
520.31	50522.80
520.48	50986.23
520.65	50731.11
520.83	51026.02
521.00	51100.92
521.17	50834.10
521.34	51082.19
521.52	51372.42
521.69	51147.73
521.86	51501.15
522.03	51349.01
522.20	51618.17
522.38	51655.62
522.55	51760.95
522.72	51648.60
522.89	51681.37
523.07	51969.26
523.24	52229.05
523.41	52037.13
523.58	51959.89
523.75	52526.30
523.92	51992.66
524.10	52327.36
524.27	52215.01
524.44	52369.49
524.61	52659.71
524.78	52790.78
524.96	52371.83
525.13	52626.95
525.30	52849.30
525.47	53034.20
525.64	53031.86
525.81	53172.29
525.98	52858.66
526.16	53038.88
526.33	53034.20
526.50	53277.61
526.67	53153.57
526.84	53434.43
527.01	53066.97
527.18	53282.30
527.36	53350.17
527.53	53560.82
527.70	53738.70
527.87	53867.43
528.04	53492.94
528.21	53628.69
528.38	53553.80
528.55	54007.86
528.72	53549.12
528.89	53593.59
529.07	53818.28
529.24	53827.64
529.41	54082.76
529.58	53972.75
529.75	53902.54
529.92	53965.73
530.09	54391.71
530.26	53932.96
530.43	54461.93
530.60	54160.00
530.77	54113.19
530.94	54328.52
531.11	54447.88
531.28	54450.22
531.46	54398.73
531.63	54829.39
531.80	54628.10
531.97	54728.75
532.14	54588.31
532.31	54695.98
532.48	54953.44
532.65	55011.95
532.82	54983.86
532.99	54787.26
533.16	54822.37
533.33	55114.94
533.50	55444.95
533.67	54885.56
533.84	55023.65
534.01	55192.17
534.18	55178.13
534.35	55597.09
534.52	55423.89
534.69	55508.14
534.86	55374.73
535.03	55601.77
535.20	55566.66
535.37	55796.03
535.54	55810.07
535.71	55613.47
535.88	55662.62
536.05	55597.09
536.22	55767.94
536.38	55798.37
536.55	55753.90
536.72	55901.36
536.89	55704.75
537.06	56051.15
537.23	55938.80
537.40	55826.46
537.57	55964.55
537.74	56079.24
537.91	56357.76
538.08	56034.77
538.25	55983.27
538.42	56432.66
538.59	56479.47
538.75	56233.71
538.92	56116.68
539.09	56437.34
539.26	56507.55
539.43	56535.64
539.60	56334.35
539.77	56502.87
539.94	56559.05
540.11	56545.00
540.28	56605.86
540.44	56973.32
540.61	56523.94
540.78	56594.15
540.95	56779.06
541.12	56545.00
541.29	56839.91
541.46	56973.32
541.62	56636.28
541.79	56858.63
541.96	56713.52
542.13	56992.04
542.30	57116.09
542.47	56968.64
542.63	57127.80
542.80	57092.69
542.97	57258.87
543.14	57511.64
543.31	57186.31
543.48	57345.47
543.64	57804.21
543.81	57516.32
543.98	57609.95
544.15	57588.88
544.32	57909.53
544.48	57755.06
544.65	57593.56
544.82	57748.04
544.99	57600.58
545.16	57684.84
545.32	57586.54
545.49	57923.58
545.66	57998.48
545.83	57874.43
546.00	57963.37
546.16	57993.79
546.33	58024.22
546.50	57708.25
546.67	58047.63
546.83	57663.78
547.00	57860.38
547.17	58164.65
547.34	58017.20
547.50	58244.23
547.67	58478.28
547.84	58342.53
548.00	58384.66
548.17	58487.65
548.34	58433.81
548.51	58611.70
548.67	58527.44
548.84	58387.00
549.01	58351.90
549.18	58323.81
549.34	58480.63
549.51	58527.44
549.68	58745.11
549.84	58555.52
550.01	58836.39
550.18	58457.22
550.34	58731.06
550.51	58646.80
550.68	58735.74
550.84	58651.48
551.01	59014.27
551.18	58815.32
551.34	58784.90
551.51	58822.34
551.68	58922.99
551.84	58798.94
552.01	58836.39
552.18	58969.80
552.34	58698.30
552.51	58878.52
552.68	58859.79
552.84	58983.84
553.01	59199.17
553.18	58803.62
553.34	59086.82
553.51	58820.00
553.67	59035.33
553.84	59093.85
554.01	59229.60
554.17	59398.12
554.34	59241.30
554.51	59166.40
554.67	59419.18
554.84	59075.12
555.00	59395.77
555.17	59035.33
555.33	59360.67
555.50	59196.83
555.67	59423.86
555.83	59187.47
556.00	59601.74
556.16	59576.00
556.33	59377.05
556.50	59515.14
556.66	59678.98
556.83	59465.99
556.99	59660.26
557.16	59639.19
557.32	59976.23
557.49	59777.28
557.65	59449.61
557.82	59908.35
557.98	59704.73
558.15	59414.50
558.32	59711.75
558.48	59578.34
558.65	59763.24
558.81	59646.21
558.98	59744.51
559.14	59662.60
559.31	59891.97
559.47	59999.63
559.64	59941.12
559.80	59915.37
559.97	60046.44
560.13	59564.29
560.30	60048.78
560.46	59807.71
560.63	59999.63
560.79	60023.04
560.96	60137.72
561.12	60027.72
561.29	60154.11
561.45	60046.44
561.61	59826.43
561.78	60044.10
561.94	59934.10
562.11	60079.21
562.27	60062.83
562.44	60051.12
562.60	60245.39
562.77	60109.64
562.93	60079.21
563.10	60252.41
563.26	60292.20
563.42	60500.51
563.59	60182.19
563.75	60303.90
563.92	60292.20
564.08	60301.56
564.24	60385.82
564.41	60519.23
564.57	60271.14
564.74	60566.04
564.90	60456.04
565.07	60451.36
565.23	60245.39
565.39	60327.31
565.56	60266.45
565.72	60451.36
565.88	60603.49
566.05	60257.09
566.21	60432.63
566.38	60425.61
566.54	60610.51
566.70	60622.22
566.87	60706.47
567.03	60343.69
567.19	60678.39
567.36	60383.48
567.52	60327.31
567.68	60706.47
567.85	60383.48
568.01	60701.79
568.17	60582.43
568.34	60736.90
568.50	60671.37
568.66	60528.59
568.83	60699.45
568.99	60708.82
569.15	60807.12
569.32	60477.10
569.48	60704.13
569.64	60687.75
569.81	60713.50
569.97	60662.00
570.13	60647.96
570.30	60767.33
570.46	60568.38
570.62	60767.33
570.78	60818.82
570.95	60795.42
571.11	60853.93
571.27	60825.84
571.43	60793.07
571.60	60989.68
571.76	61006.06
571.92	60828.18
572.09	60786.05
572.25	60769.67
572.41	60825.84
572.57	60720.52
572.74	60858.61
572.90	60687.75
573.06	60898.40
573.22	60851.59
573.38	60762.65
573.55	60945.21
573.71	60945.21
573.87	60924.14
574.03	60757.97
574.20	60884.36
574.36	60650.30
574.52	60816.48
574.68	60846.91
574.84	61052.87
575.01	60992.02
575.17	60980.32
575.33	60973.30
575.49	60788.39
575.65	60999.04
575.82	60985.00
575.98	61186.28
576.14	61183.94
576.30	61057.56
576.46	60814.14
576.62	60989.68
576.79	61071.60
576.95	60949.89
577.11	61134.79
577.27	61111.39
577.43	61090.32
577.59	60956.91
577.75	60947.55
577.92	60781.37
578.08	60954.57
578.24	61162.88
578.40	61230.75
578.56	61066.92
578.72	60985.00
578.88	61221.39
579.04	61141.81
579.21	61076.28
579.37	61151.18
579.53	61205.01
579.69	61069.26
579.85	61197.99
580.01	61076.28
580.17	61069.26
580.33	61261.18
580.49	61233.10
580.65	61006.06
580.82	61057.56
580.98	60905.42
581.14	61036.49
581.30	61202.67
581.46	61162.88
581.62	61188.63
581.78	61193.31
581.94	61193.31
582.10	61155.86
582.26	61261.18
582.42	61057.56
582.58	61158.20
582.74	61200.33
582.90	61233.10
583.06	61146.50
583.22	61073.94
583.38	61219.05
583.54	61160.54
583.70	61261.18
583.86	61298.63
584.02	61242.46
584.18	61457.79
584.34	61132.45
584.50	61219.05
584.66	61134.79
584.82	61085.64
584.98	61258.84
585.14	61277.57
585.30	61230.75
585.46	61277.57
585.62	61116.07
585.78	61322.04
585.94	61106.71
586.10	61385.23
586.26	61429.70
586.42	61364.17
586.58	61141.81
586.74	61401.61
586.90	61151.18
587.06	61352.46
587.22	61347.78
587.38	61422.68
587.54	61516.30
587.70	61394.59
587.86	61263.52
588.02	61448.42
588.18	61448.42
588.34	61200.33
588.49	61462.47
