SpectraSuite Data File
++++++++++++++++++++++++++++++++++++
Date: Fri Oct 25 11:34:37 EDT 2013
User: price-jones
Dark Spectrum Present: No
Reference Spectrum Present: No
Number of Sampled Component Spectra: 1
Spectrometers: USB2+H05261
Integration Time (usec): 100000 (USB2+H05261)
Spectra Averaged: 1 (USB2+H05261)
Boxcar Smoothing: 0 (USB2+H05261)
Correct for Electrical Dark: No (USB2+H05261)
Strobe/Lamp Enabled: No (USB2+H05261)
Correct for Detector Non-linearity: No (USB2+H05261)
Correct for Stray Light: No (USB2+H05261)
Number of Pixels in Processed Spectrum: 2048
>>>>>Begin Processed Spectral Data<<<<<
365.73	210.65
365.92	210.65
366.12	210.65
366.32	215.33
366.52	250.44
366.72	278.52
366.91	170.86
367.11	135.75
367.31	128.73
367.51	187.24
367.70	173.20
367.90	220.01
368.10	177.88
368.30	210.65
368.49	173.20
368.69	212.99
368.89	220.01
369.09	212.99
369.28	196.60
369.48	234.05
369.68	210.65
369.87	285.55
370.07	215.33
370.27	327.68
370.47	360.44
370.66	423.64
370.86	498.53
371.06	451.72
371.25	589.82
371.45	550.03
371.65	535.98
371.84	517.26
372.04	493.85
372.24	543.00
372.44	561.73
372.63	641.31
372.83	622.58
373.03	599.18
373.22	622.58
373.42	634.29
373.62	601.52
373.81	636.63
374.01	568.75
374.21	634.29
374.40	582.79
374.60	634.29
374.79	702.16
374.99	512.58
375.19	660.03
375.38	655.35
375.58	653.01
375.78	582.79
375.97	671.73
376.17	690.46
376.37	620.24
376.56	685.78
376.76	702.16
376.95	643.65
377.15	617.90
377.35	660.03
377.54	641.31
377.74	674.07
377.93	638.97
378.13	650.67
378.33	657.69
378.52	674.07
378.72	685.78
378.91	650.67
379.11	730.25
379.31	753.65
379.50	774.72
379.70	734.93
379.89	732.59
380.09	674.07
380.28	650.67
380.48	653.01
380.68	688.12
380.87	730.25
381.07	681.10
381.26	723.23
381.46	751.31
381.65	688.12
381.85	678.76
382.04	746.63
382.24	781.74
382.43	723.23
382.63	739.61
382.83	709.18
383.02	781.74
383.22	844.93
383.41	793.44
383.61	821.53
383.80	798.12
384.00	739.61
384.19	873.02
384.39	784.08
384.58	816.85
384.78	777.06
384.97	837.91
385.17	734.93
385.36	903.45
385.56	739.61
385.75	837.91
385.95	786.42
386.14	781.74
386.34	837.91
386.53	772.38
386.72	819.19
386.92	809.83
387.11	870.68
387.31	826.21
387.50	889.40
387.70	833.23
387.89	854.30
388.09	884.72
388.28	777.06
388.48	870.68
388.67	922.17
388.86	887.06
389.06	931.53
389.25	873.02
389.45	912.81
389.64	889.40
389.84	926.85
390.03	943.24
390.22	1001.75
390.42	978.34
390.61	947.92
390.81	940.90
391.00	999.41
391.19	1041.54
391.39	954.94
391.58	1036.86
391.78	947.92
391.97	966.64
392.16	971.32
392.36	1027.50
392.55	1011.11
392.75	1022.81
392.94	1041.54
393.13	987.71
393.33	1071.97
393.52	1050.90
393.71	1067.28
393.91	1046.22
394.10	1055.58
394.29	1050.90
394.49	1053.24
394.68	1114.10
394.88	1057.92
395.07	1109.41
395.26	1142.18
395.46	1149.20
395.65	1191.33
395.84	1128.14
396.04	1114.10
396.23	1125.80
396.42	1088.35
396.62	1167.93
396.81	1200.69
397.00	1142.18
397.19	1266.23
397.39	1221.76
397.58	1252.19
397.77	1146.86
397.97	1217.08
398.16	1277.93
398.35	1329.42
398.55	1252.19
398.74	1163.25
398.93	1280.27
399.12	1303.68
399.32	1282.61
399.51	1306.02
399.70	1341.13
399.90	1387.94
400.09	1397.30
400.28	1350.49
400.47	1275.59
400.67	1317.72
400.86	1299.00
401.05	1423.05
401.24	1345.81
401.44	1413.68
401.63	1390.28
401.82	1362.19
402.01	1455.81
402.21	1493.26
402.40	1432.41
402.59	1343.47
402.78	1474.54
402.97	1537.73
403.17	1437.09
403.36	1497.94
403.55	1427.73
403.74	1500.28
403.93	1455.81
404.13	1504.96
404.32	1474.54
404.51	1596.25
404.70	1561.14
404.89	1556.46
405.09	1645.40
405.28	1598.59
405.47	1561.14
405.66	1556.46
405.85	1607.95
406.05	1612.63
406.24	1650.08
406.43	1645.40
406.62	1689.87
406.81	1783.49
407.00	1790.51
407.20	1636.03
407.39	1715.61
407.58	1827.96
407.77	1739.02
407.96	1797.53
408.15	1748.38
408.34	1799.87
408.54	1816.26
408.73	1781.15
408.92	1804.55
409.11	1942.64
409.30	1884.13
409.49	1949.67
409.68	1898.17
409.87	1923.92
410.07	1884.13
410.26	1907.54
410.45	2071.37
410.64	2057.33
410.83	2050.31
411.02	2003.50
411.21	2087.76
411.40	2062.01
411.59	2141.59
411.78	2085.42
411.98	2115.84
412.17	2155.63
412.36	2204.78
412.55	2228.19
412.74	2293.72
412.93	2375.64
413.12	2221.17
413.31	2298.41
413.50	2251.60
413.69	2385.01
413.88	2324.15
414.07	2431.82
414.26	2363.94
414.45	2478.63
414.64	2436.50
414.83	2459.90
415.02	2480.97
415.22	2518.42
415.41	2586.29
415.60	2525.44
415.79	2672.89
415.98	2647.15
416.17	2621.40
416.36	2581.61
416.55	2642.46
416.74	2700.98
416.93	2644.81
417.12	2605.02
417.31	2846.09
417.50	2731.41
417.69	2857.79
417.88	2764.17
418.07	2836.73
418.26	2853.11
418.45	2892.90
418.64	2939.71
418.83	2981.84
419.02	2942.05
419.21	2916.31
419.39	3033.33
419.58	2862.48
419.77	2981.84
419.96	3019.29
420.15	3061.42
420.34	3133.98
420.53	2956.10
420.72	3049.72
420.91	3056.74
421.10	3166.74
421.29	2981.84
421.48	2939.71
421.67	3197.17
421.86	3091.85
422.05	3339.94
422.24	3180.79
422.43	3290.79
422.61	3185.47
422.80	3194.83
422.99	3351.65
423.18	3133.98
423.37	3335.26
423.56	3215.90
423.75	3253.34
423.94	3213.56
424.13	3066.10
424.32	3246.32
424.50	3330.58
424.69	3405.48
424.88	3300.16
425.07	3246.32
425.26	3302.50
425.45	3171.43
425.64	3332.92
425.83	3330.58
426.01	3272.07
426.20	3253.34
426.39	3358.67
426.58	3356.33
426.77	3328.24
426.96	3351.65
427.15	3391.44
427.33	3276.75
427.52	3335.26
427.71	3529.53
427.90	3475.70
428.09	3555.27
428.28	3473.36
428.46	3522.51
428.65	3552.93
428.84	3655.92
429.03	3634.85
429.22	3496.76
429.40	3604.42
429.59	3716.77
429.78	3550.59
429.97	3499.10
430.16	3676.98
430.34	3653.58
430.53	3676.98
430.72	3754.22
430.91	3843.16
431.10	3674.64
431.28	3737.84
431.47	3815.07
431.66	3761.24
431.85	3709.75
432.03	3859.54
432.22	3854.86
432.41	3857.20
432.60	3871.25
432.79	3868.91
432.97	3850.18
433.16	3999.98
433.35	3997.64
433.54	3948.48
433.72	4002.32
433.91	3992.95
434.10	3920.40
434.28	4128.70
434.47	4100.62
434.66	4128.70
434.85	4112.32
435.03	4093.60
435.22	4180.20
435.41	4238.71
435.59	4208.28
435.78	4140.41
435.97	4105.30
436.16	4196.58
436.34	4051.47
436.53	4250.41
436.72	4294.88
436.90	4177.86
437.09	4315.95
437.28	4224.67
437.46	4414.25
437.65	4353.40
437.84	4372.12
438.02	4292.54
438.21	4400.21
438.40	4283.18
438.58	4472.76
438.77	4461.06
438.96	4479.79
439.14	4582.77
439.33	4650.64
439.52	4526.60
439.70	4641.28
439.89	4634.26
440.08	4798.10
440.26	4627.24
440.45	4873.00
440.63	4854.27
440.82	4887.04
441.01	4772.35
441.19	4990.02
441.38	4973.64
441.57	5076.62
441.75	5034.49
441.94	5153.86
442.12	5235.78
442.31	5327.06
442.50	5348.12
442.68	5205.35
442.87	5289.61
443.05	5334.08
443.24	5348.12
443.43	5308.34
443.61	5432.38
443.80	5425.36
443.98	5156.20
444.17	5116.41
444.35	5296.63
444.54	5502.60
444.73	5369.19
444.91	5294.29
445.10	5439.40
445.28	5327.06
445.47	5397.28
445.65	5430.04
445.84	5474.51
446.02	5537.71
446.21	5385.57
446.39	5425.36
446.58	5397.28
446.77	5507.28
446.95	5411.32
447.14	5439.40
447.32	5556.43
447.51	5320.04
447.69	5362.17
447.88	5561.11
448.06	5516.64
448.25	5617.29
448.43	5507.28
448.62	5432.38
448.80	5479.19
448.99	5682.82
449.17	5493.24
449.36	5495.58
449.54	5720.27
449.73	5593.88
449.91	5827.93
450.10	5710.91
450.28	5689.84
450.46	5947.30
450.65	5776.44
450.83	5893.47
451.02	5785.80
451.20	5738.99
451.39	5909.85
451.57	5769.42
451.76	5959.00
451.94	5923.90
452.13	6094.76
452.31	5933.26
452.49	6052.63
452.68	6033.90
452.86	6080.71
453.05	6125.18
453.23	6106.46
453.42	6094.76
453.60	5956.66
453.78	6078.37
453.97	5982.41
454.15	5874.74
454.34	6094.76
454.52	6480.94
454.70	6174.33
454.89	6312.42
455.07	6324.13
455.26	6265.61
455.44	6441.15
455.62	6258.59
455.81	6436.47
455.99	6417.75
456.17	6338.17
456.36	6401.37
456.54	6586.27
456.73	6523.07
456.91	6738.40
457.09	6609.67
457.28	6801.60
457.46	6487.96
457.64	6661.16
457.83	6848.41
458.01	6555.84
458.19	6696.27
458.38	6574.56
458.56	6733.72
458.74	6911.60
458.93	6984.16
459.11	6796.92
459.29	6736.06
459.48	6799.26
459.66	6815.64
459.84	7035.65
460.03	6970.12
460.21	7021.61
460.39	7070.76
460.57	7208.85
460.76	7150.34
460.94	7110.55
461.12	7148.00
461.31	7047.35
461.49	6967.77
461.67	7164.38
461.85	7260.34
462.04	7321.20
462.22	7871.22
462.40	7424.18
462.59	7391.41
462.77	7396.09
462.95	7475.67
463.13	7377.37
463.32	7597.38
463.50	7440.56
463.68	7487.37
463.86	7461.63
464.05	7475.67
464.23	7330.56
464.41	7428.86
464.59	7382.05
464.78	7775.26
464.96	7510.78
465.14	7623.12
465.32	7632.49
465.50	7716.75
465.69	7576.31
465.87	7665.25
466.05	7712.07
466.23	7840.79
466.41	7728.45
466.60	7868.88
466.78	7922.71
466.96	7861.86
467.14	7967.18
467.32	7847.82
467.51	7969.52
467.69	7868.88
467.87	7850.16
468.05	8035.06
468.23	7992.93
468.41	7815.05
468.60	7922.71
468.78	7995.27
468.96	8035.06
469.14	8084.21
469.32	8021.02
469.50	8051.44
469.69	8262.09
469.87	8425.93
470.05	8430.61
470.23	8229.32
470.41	8149.75
470.59	8407.20
470.77	8428.27
470.95	8262.09
471.14	8655.30
471.32	8346.35
471.50	8470.40
471.68	8365.07
471.86	8617.85
472.04	8779.35
472.22	8826.16
472.40	8627.21
472.58	8805.10
472.77	9043.83
472.95	9032.13
473.13	9188.94
473.31	8947.87
473.49	9022.77
473.67	8968.93
473.85	9074.26
474.03	9153.84
474.21	9193.62
474.39	9362.14
474.57	9228.73
474.75	9385.55
474.93	9610.24
475.12	9235.75
475.30	9490.87
475.48	9420.66
475.66	9607.90
475.84	9568.11
476.02	9645.35
476.20	9645.35
476.38	9891.10
476.56	10181.33
476.74	9811.53
476.92	9804.50
477.10	10186.01
477.28	10132.18
477.46	10188.35
477.64	10296.02
477.82	10431.77
478.00	10588.58
478.18	10619.01
478.36	10553.48
478.54	10822.64
478.72	10780.51
478.90	10949.03
479.08	11030.94
479.26	11098.82
479.44	11030.94
479.62	11077.76
479.80	11232.23
479.98	11077.76
480.16	11726.08
480.34	11658.21
480.52	11604.38
480.70	11508.41
480.88	11267.34
481.06	11831.41
481.24	11590.33
481.41	11964.82
481.59	12294.83
481.77	12119.29
481.95	12374.41
482.13	12351.01
482.31	12276.11
482.49	12622.51
482.67	12524.21
482.85	12662.30
483.03	13083.59
483.21	12894.01
483.39	13144.45
483.57	12868.27
483.74	13235.73
483.92	13107.00
484.10	13074.23
484.28	13635.96
484.46	13827.88
484.64	13727.24
484.82	13708.52
485.00	14125.13
485.18	14197.69
485.35	14239.82
485.53	14066.62
485.71	14501.96
485.89	14490.26
486.07	14649.41
486.25	14710.27
486.43	14593.24
486.61	14970.07
486.78	15257.95
486.96	15044.96
487.14	15255.61
487.32	15307.10
487.50	15442.85
487.68	15728.40
487.85	16032.67
488.03	15960.11
488.21	16140.33
488.39	15765.85
488.57	16224.59
488.75	16222.25
488.92	16444.60
489.10	17039.10
489.28	16723.13
489.46	17149.11
489.64	16917.39
489.81	17343.37
489.99	16994.63
490.17	17380.82
490.35	17291.88
490.53	17284.86
490.70	17411.25
490.88	17525.93
491.06	17874.67
491.24	17879.35
491.41	18066.60
491.59	18302.99
491.77	18387.25
491.95	18459.81
492.13	18427.04
492.30	18710.24
492.48	18820.25
492.66	18420.02
492.84	18703.22
493.01	19178.35
493.19	19051.96
493.37	19356.23
493.54	19370.27
493.72	19426.45
493.90	19836.04
494.08	19719.01
494.25	19943.70
494.43	19824.34
494.61	20020.94
494.79	19929.66
494.96	20105.20
495.14	20783.96
495.32	20800.34
495.49	20444.58
495.67	20783.96
495.85	20992.26
496.02	20903.32
496.20	21060.14
496.38	21355.05
496.55	21322.28
496.73	21743.58
496.91	21380.79
497.09	21664.00
497.26	21598.46
497.44	21722.51
497.62	22005.72
497.79	22118.06
497.97	21982.31
498.14	22209.34
498.32	22618.94
498.50	22508.93
498.67	22394.25
498.85	22150.83
499.03	22993.42
499.20	22986.40
499.38	22923.21
499.56	23288.33
499.73	22939.59
499.91	22927.89
500.08	23321.10
500.26	23601.96
500.44	23435.78
500.61	23662.82
500.79	23159.60
500.97	23733.03
501.14	23983.47
501.32	24032.62
501.49	24098.16
501.67	24196.46
501.84	24339.23
502.02	24376.68
502.20	24325.19
502.37	24418.81
502.55	24252.63
502.72	24577.97
502.90	24491.37
503.07	24332.21
503.25	24685.63
503.43	24648.18
503.60	24922.02
503.78	24931.39
503.95	25104.59
504.13	25081.18
504.30	25207.57
504.48	25497.80
504.65	25317.57
504.83	25813.77
505.01	25652.27
505.18	25656.95
505.36	26148.46
505.53	25848.88
505.71	25848.88
505.88	26270.17
506.06	25729.51
506.23	26099.31
506.41	25874.62
506.58	26494.86
506.76	26569.76
506.93	26696.15
507.11	26661.04
507.28	26881.05
507.46	26670.40
507.63	27044.89
507.81	26869.35
507.98	26539.33
508.16	26944.25
508.33	27028.51
508.50	26988.72
508.68	27154.90
508.85	27735.35
509.03	27573.85
509.20	27419.38
509.38	27857.06
509.55	27924.93
509.73	27697.90
509.90	27639.39
510.08	27995.15
510.25	28098.13
510.42	28182.39
510.60	28336.87
510.77	28369.63
510.95	28566.24
511.12	28217.50
511.30	28114.52
511.47	28914.98
511.64	28765.18
511.82	28837.74
511.99	28484.32
512.17	28727.74
512.34	28582.62
512.51	29139.67
512.69	28870.51
512.86	29177.12
513.04	29179.46
513.21	29366.70
513.38	29408.83
513.56	29539.90
513.73	29319.89
513.90	29296.49
514.08	29619.48
514.25	30162.48
514.43	29865.24
514.60	29823.11
514.77	30080.56
514.95	30195.25
515.12	30209.29
515.29	30157.80
515.47	30609.53
515.64	30717.19
515.81	30101.63
515.99	30721.87
516.16	30780.39
516.33	30333.34
516.51	30630.59
516.68	30433.99
516.85	30995.71
517.03	31136.15
517.20	30789.75
517.37	30967.63
517.54	30787.41
517.72	30916.14
517.89	31220.41
518.06	31234.45
518.24	31388.92
518.41	31133.81
518.58	31484.89
518.75	31075.29
518.93	31702.56
519.10	31644.04
519.27	31805.54
519.45	31814.90
519.62	32041.93
519.79	32018.53
519.96	31962.36
520.14	31899.16
520.31	32126.19
520.48	32102.79
520.65	32311.10
520.83	32828.35
521.00	32577.92
521.17	32315.78
521.34	32673.88
521.52	32652.81
521.69	32758.14
521.86	33191.14
522.03	33113.90
522.20	33249.65
522.38	32968.79
522.55	33397.10
522.72	33289.44
522.89	33455.62
523.07	33619.46
523.24	33331.57
523.41	33273.06
523.58	33453.28
523.75	33675.63
523.92	33738.82
524.10	34096.92
524.27	33687.33
524.44	33888.62
524.61	33514.13
524.78	34019.69
524.96	34206.93
525.13	34160.12
525.30	34356.72
525.47	34267.78
525.64	33933.09
525.81	34644.61
525.98	34167.14
526.16	34518.22
526.33	34232.68
526.50	34546.31
526.67	34330.98
526.84	34632.91
527.01	34338.00
527.18	34703.12
527.36	34862.28
527.53	34546.31
527.70	35136.12
527.87	35229.74
528.04	35068.25
528.21	34998.03
528.38	34778.02
528.55	34895.05
528.72	35276.55
528.89	34913.77
529.07	35019.10
529.24	34934.84
529.41	35328.05
529.58	35487.20
529.75	35597.21
529.92	35686.15
530.09	35789.13
530.26	35178.25
530.43	35737.64
530.60	35871.05
530.77	35337.41
530.94	36044.25
531.11	35772.75
531.28	35686.15
531.46	36226.81
531.63	36168.30
531.80	36051.27
531.97	36114.47
532.14	37071.75
532.31	35894.46
532.48	36453.84
532.65	36243.20
532.82	36397.67
532.99	36594.28
533.16	36472.57
533.33	36723.01
533.50	36355.54
533.67	36933.65
533.84	36437.46
534.01	36701.94
534.18	36928.97
534.35	37282.39
534.52	37251.97
534.69	37340.91
534.86	37413.46
535.03	36847.05
535.20	37092.81
535.37	37703.69
535.54	37170.05
535.71	37235.58
535.88	37663.90
536.05	37343.25
536.22	37921.36
536.38	37425.17
536.55	37703.69
536.72	37748.16
536.89	37457.93
537.06	37919.02
537.23	37848.80
537.40	37710.71
537.57	37589.00
537.74	37741.14
537.91	38014.98
538.08	37937.74
538.25	37696.67
538.42	38106.26
538.59	38335.63
538.75	38384.79
538.92	38796.72
539.09	38714.80
539.26	38700.76
539.43	38937.15
539.60	38134.35
539.77	38398.83
539.94	38483.09
540.11	38366.06
540.28	38593.09
540.44	38541.60
540.61	38583.73
540.78	38829.49
540.95	38726.50
541.12	38466.70
541.29	38550.96
541.46	38866.94
541.62	38789.70
541.79	38855.23
541.96	38740.55
542.13	38747.57
542.30	39220.36
542.47	39405.26
542.63	39117.37
542.80	39077.58
542.97	39332.70
543.14	39578.46
543.31	39519.95
543.48	39283.55
543.64	40444.46
543.81	39931.88
543.98	39622.93
544.15	39906.13
544.32	40062.95
544.48	40311.05
544.65	40231.47
544.82	40011.46
544.99	39625.27
545.16	39887.41
545.32	39885.07
545.49	40701.92
545.66	40816.60
545.83	40142.53
546.00	40168.27
546.16	40208.06
546.33	39983.37
546.50	39852.30
546.67	40507.65
546.83	39789.11
547.00	40636.38
547.17	40428.07
547.34	40093.38
547.50	40744.05
547.67	41053.00
547.84	40383.60
548.00	40722.98
548.17	40802.56
548.34	41067.04
548.51	41244.92
548.67	40992.14
548.84	41048.32
549.01	40671.49
549.18	41277.69
549.34	41003.85
549.51	41013.21
549.68	41867.50
549.84	41221.52
550.01	41237.90
550.18	41214.49
550.34	41467.27
550.51	41752.82
550.68	41610.04
550.84	40954.69
551.01	41734.09
551.18	41404.08
551.34	41521.10
551.51	41771.54
551.68	41368.97
551.84	41560.89
552.01	41317.48
552.18	41846.44
552.34	41481.31
552.51	41808.99
552.68	41343.22
552.84	41876.86
553.01	42218.58
553.18	41776.22
553.34	41851.12
553.51	41535.15
553.67	42092.19
553.84	42108.58
554.01	42234.97
554.17	41996.23
554.34	42316.89
554.51	42382.42
554.67	42164.75
554.84	42260.71
555.00	41811.33
555.17	42082.83
555.33	42368.38
555.50	42082.83
555.67	42820.10
555.83	42087.51
556.00	42557.96
556.16	42663.28
556.33	42176.45
556.50	42911.38
556.66	43005.00
556.83	42361.36
556.99	42953.51
557.16	42784.99
557.32	42710.10
557.49	42834.14
557.65	42674.99
557.82	42735.84
557.98	42895.00
558.15	43035.43
558.32	43236.72
558.48	42597.75
558.65	42932.45
558.81	43016.71
558.98	43065.86
559.14	43100.97
559.31	42775.63
559.47	42923.08
559.64	43157.14
559.80	43119.69
559.97	43096.28
560.13	42588.39
560.30	43147.78
560.46	43473.11
560.63	43374.81
560.79	43409.92
560.96	43419.28
561.12	43262.46
561.29	42941.81
561.45	43676.74
561.61	43271.82
561.78	43445.02
561.94	43395.87
562.11	43632.27
562.27	43239.06
562.44	43442.68
562.60	43697.80
562.77	43550.35
562.93	43150.12
563.10	43562.05
563.26	43463.75
563.42	43779.72
563.59	43409.92
563.75	43508.22
563.92	43545.67
564.08	43501.20
564.24	43737.59
564.41	43604.18
564.57	43388.85
564.74	43639.29
564.90	43580.78
565.07	43688.44
565.23	43803.13
565.39	43634.61
565.56	44233.78
565.72	43978.67
565.88	43978.67
566.05	44168.25
566.21	43192.25
566.38	43749.29
566.54	43625.25
566.70	44154.21
566.87	44182.29
567.03	44896.16
567.19	43929.51
567.36	44069.95
567.52	43941.22
567.68	44570.82
567.85	43931.86
568.01	43746.95
568.17	43978.67
568.34	44149.53
568.50	43859.30
568.66	44219.74
568.83	44156.55
568.99	44126.12
569.15	44301.66
569.32	44156.55
569.48	43871.00
569.64	44229.10
569.81	43999.73
569.97	44545.08
570.13	44556.78
570.30	44374.22
570.46	44341.45
570.62	44444.43
570.78	43934.20
570.95	44306.34
571.11	44690.19
571.27	44364.85
571.43	44343.79
571.60	43955.26
571.76	44137.82
571.92	44364.85
572.09	44147.18
572.25	44102.71
572.41	43997.39
572.57	44622.31
572.74	44973.39
572.90	44261.87
573.06	44390.60
573.22	44746.36
573.38	44641.04
573.55	44538.05
573.71	44708.91
573.87	44629.34
574.03	44505.29
574.20	44662.10
574.36	45038.93
574.52	44680.83
574.68	44634.02
574.84	44626.99
575.01	44601.25
575.17	44493.58
575.33	44540.39
575.49	44767.43
575.65	45015.52
575.82	44924.24
575.98	45041.27
576.14	45188.72
576.30	45443.84
576.46	44926.58
576.62	44512.31
576.79	44919.56
576.95	44390.60
577.11	44423.37
577.27	44898.50
577.43	44222.08
577.59	44575.50
577.75	44629.34
577.92	44552.10
578.08	44423.37
578.24	45045.95
578.40	44978.07
578.56	44643.38
578.72	44964.03
578.88	44591.89
579.04	44804.88
579.21	44760.40
579.37	44886.79
579.53	44781.47
579.69	44596.57
579.85	44758.06
580.01	45083.40
580.17	44935.95
580.33	45130.21
580.49	44879.77
580.65	44854.03
580.82	44793.17
580.98	44673.81
581.14	44032.50
581.30	45003.82
581.46	44428.05
581.62	44975.73
581.78	44729.98
581.94	45153.62
582.10	44720.62
582.26	45017.86
582.42	44938.29
582.58	45003.82
582.74	44999.14
582.90	44755.72
583.06	44816.58
583.22	44514.65
583.38	44807.22
583.54	45045.95
583.70	44727.64
583.86	44587.21
584.02	44919.56
584.18	45387.67
584.34	44765.09
584.50	45287.03
584.66	45003.82
584.82	44713.59
584.98	45614.70
585.14	45139.57
585.30	45132.55
585.46	44999.14
585.62	44811.90
585.78	45125.53
585.94	44816.58
586.10	44952.33
586.26	44708.91
586.42	44987.44
586.58	45191.06
586.74	44814.24
586.90	44795.51
587.06	44814.24
587.22	45219.15
587.38	44692.53
587.54	45340.86
587.70	45289.37
587.86	45186.38
588.02	45291.71
588.18	45137.23
588.34	45036.59
588.49	45184.04
588.65	45294.05
588.81	44947.65
588.97	45610.02
589.13	45272.98
589.29	45095.10
589.45	45308.09
589.61	45272.98
589.77	45387.67
589.93	45244.90
590.08	45375.97
