SpectraSuite Data File
++++++++++++++++++++++++++++++++++++
Date: Fri Oct 25 11:34:09 EDT 2013
User: price-jones
Dark Spectrum Present: No
Reference Spectrum Present: No
Number of Sampled Component Spectra: 1
Spectrometers: USB2+H05261
Integration Time (usec): 100000 (USB2+H05261)
Spectra Averaged: 1 (USB2+H05261)
Boxcar Smoothing: 0 (USB2+H05261)
Correct for Electrical Dark: No (USB2+H05261)
Strobe/Lamp Enabled: No (USB2+H05261)
Correct for Detector Non-linearity: No (USB2+H05261)
Correct for Stray Light: No (USB2+H05261)
Number of Pixels in Processed Spectrum: 2048
>>>>>Begin Processed Spectral Data<<<<<
365.73	241.08
365.92	241.08
366.12	241.08
366.32	175.54
366.52	217.67
366.72	196.60
366.91	147.45
367.11	135.75
367.31	163.84
367.51	119.37
367.70	138.09
367.90	152.13
368.10	245.76
368.30	138.09
368.49	149.79
368.69	184.90
368.89	227.03
369.09	208.31
369.28	220.01
369.48	189.58
369.68	222.35
369.87	231.71
370.07	229.37
370.27	259.80
370.47	285.55
370.66	449.38
370.86	493.85
371.06	587.47
371.25	627.26
371.45	535.98
371.65	538.32
371.84	582.79
372.04	547.69
372.24	585.13
372.44	545.34
372.63	585.13
372.83	608.54
373.03	540.66
373.22	631.94
373.42	615.56
373.62	594.50
373.81	653.01
374.01	692.80
374.21	629.60
374.40	671.73
374.60	573.43
374.79	613.22
374.99	580.45
375.19	620.24
375.38	695.14
375.58	702.16
375.78	763.01
375.97	746.63
376.17	744.29
376.37	631.94
376.56	660.03
376.76	713.86
376.95	711.52
377.15	669.39
377.35	620.24
377.54	706.84
377.74	653.01
377.93	730.25
378.13	676.41
378.33	751.31
378.52	739.61
378.72	741.95
378.91	681.10
379.11	697.48
379.31	723.23
379.50	634.29
379.70	734.93
379.89	732.59
380.09	692.80
380.28	690.46
380.48	786.42
380.68	699.82
380.87	725.57
381.07	800.46
381.26	727.91
381.46	851.96
381.65	624.92
381.85	720.88
382.04	688.12
382.24	716.20
382.43	826.21
382.63	802.80
382.83	760.67
383.02	812.17
383.22	833.23
383.41	720.88
383.61	819.19
383.80	851.96
384.00	760.67
384.19	760.67
384.39	784.08
384.58	816.85
384.78	788.76
384.97	812.17
385.17	760.67
385.36	812.17
385.56	826.21
385.75	807.48
385.95	842.59
386.14	784.08
386.34	830.89
386.53	889.40
386.72	786.42
386.92	856.64
387.11	877.70
387.31	830.89
387.50	929.19
387.70	931.53
387.89	868.34
388.09	809.83
388.28	863.66
388.48	940.90
388.67	889.40
388.86	896.43
389.06	971.32
389.25	873.02
389.45	933.87
389.64	959.62
389.84	926.85
390.03	973.66
390.22	987.71
390.42	931.53
390.61	943.24
390.81	990.05
391.00	961.96
391.19	959.62
391.39	957.28
391.58	997.07
391.78	997.07
391.97	1025.15
392.16	926.85
392.36	940.90
392.55	1001.75
392.75	1001.75
392.94	1043.88
393.13	1076.65
393.33	1032.18
393.52	1121.12
393.71	1067.28
393.91	1095.37
394.10	978.34
394.29	1104.73
394.49	1083.67
394.68	1034.52
394.88	1104.73
395.07	1083.67
395.26	1071.97
395.46	1151.54
395.65	1132.82
395.84	1203.04
396.04	1207.72
396.23	1198.35
396.42	1142.18
396.62	1114.10
396.81	1245.16
397.00	1203.04
397.19	1172.61
397.39	1200.69
397.58	1247.51
397.77	1207.72
397.97	1214.74
398.16	1207.72
398.35	1301.34
398.55	1235.80
398.74	1226.44
398.93	1289.64
399.12	1261.55
399.32	1233.46
399.51	1275.59
399.70	1280.27
399.90	1322.40
400.09	1373.89
400.28	1331.76
400.47	1301.34
400.67	1287.29
400.86	1320.06
401.05	1444.11
401.24	1299.00
401.44	1401.98
401.63	1397.30
401.82	1322.40
402.01	1350.49
402.21	1383.26
402.40	1533.05
402.59	1462.83
402.78	1416.02
402.97	1423.05
403.17	1401.98
403.36	1530.71
403.55	1516.67
403.74	1523.69
403.93	1650.08
404.13	1533.05
404.32	1547.09
404.51	1659.44
404.70	1633.69
404.89	1561.14
405.09	1724.97
405.28	1612.63
405.47	1568.16
405.66	1661.78
405.85	1701.57
406.05	1734.34
406.24	1650.08
406.43	1586.88
406.62	1727.32
406.81	1720.29
407.00	1739.02
407.20	1706.25
407.39	1760.08
407.58	1865.41
407.77	1760.08
407.96	1849.02
408.15	1760.08
408.34	1825.62
408.54	1853.70
408.73	1816.26
408.92	1912.22
409.11	1963.71
409.30	1877.11
409.49	1933.28
409.68	1944.99
409.87	1926.26
410.07	1998.82
410.26	2024.56
410.45	2094.78
410.64	2054.99
410.83	1956.69
411.02	2113.50
411.21	2040.95
411.40	2090.10
411.59	2040.95
411.78	2246.91
411.98	2043.29
412.17	2143.93
412.36	2197.76
412.55	2197.76
412.74	2260.96
412.93	2321.81
413.12	2176.70
413.31	2345.22
413.50	2317.13
413.69	2417.77
413.88	2359.26
414.07	2495.01
414.26	2445.86
414.45	2408.41
414.64	2401.39
414.83	2434.16
415.02	2385.01
415.22	2595.65
415.41	2668.21
415.60	2499.69
415.79	2619.06
415.98	2647.15
416.17	2544.16
416.36	2665.87
416.55	2780.56
416.74	2689.28
416.93	2630.76
417.12	2747.79
417.31	2731.41
417.50	2745.45
417.69	2862.48
417.88	2850.77
418.07	2843.75
418.26	2916.31
418.45	2860.13
418.64	3019.29
418.83	2981.84
419.02	2916.31
419.21	2930.35
419.39	2974.82
419.58	2988.86
419.77	3030.99
419.96	3096.53
420.15	3087.17
420.34	3141.00
420.53	3096.53
420.72	3124.62
420.91	3234.62
421.10	3286.11
421.29	3288.45
421.48	3103.55
421.67	3215.90
421.86	3286.11
422.05	3141.00
422.24	3255.69
422.43	3358.67
422.61	3236.96
422.80	3419.52
422.99	3325.90
423.18	3398.46
423.37	3344.63
423.56	3286.11
423.75	3293.13
423.94	3281.43
424.13	3166.74
424.32	3288.45
424.50	3267.39
424.69	3358.67
424.88	3403.14
425.07	3241.64
425.26	3293.13
425.45	3421.86
425.64	3302.50
425.83	3262.71
426.01	3328.24
426.20	3363.35
426.39	3297.81
426.58	3449.95
426.77	3384.41
426.96	3375.05
427.15	3545.91
427.33	3452.29
427.52	3424.20
427.71	3459.31
427.90	3606.77
428.09	3599.74
428.28	3597.40
428.46	3545.91
428.65	3440.59
428.84	3712.09
429.03	3604.42
429.22	3714.43
429.40	3698.05
429.59	3667.62
429.78	3536.55
429.97	3475.70
430.16	3684.00
430.34	3737.84
430.53	3857.20
430.72	3721.45
430.91	3772.94
431.10	3847.84
431.28	3920.40
431.47	3721.45
431.66	3838.48
431.85	4030.40
432.03	3962.53
432.22	3988.27
432.41	3794.01
432.60	3868.91
432.79	4046.79
432.97	3826.78
433.16	3962.53
433.35	4009.34
433.54	4074.87
433.72	4016.36
433.91	4114.66
434.10	4215.30
434.28	4030.40
434.47	4212.96
434.66	4196.58
434.85	4105.30
435.03	4077.21
435.22	4245.73
435.41	4285.52
435.59	4243.39
435.78	4383.82
435.97	4318.29
436.16	4208.28
436.34	4215.30
436.53	4264.46
436.72	4400.21
436.90	4341.69
437.09	4404.89
437.28	4201.26
437.46	4489.15
437.65	4423.61
437.84	4568.73
438.02	4582.77
438.21	4496.17
438.40	4510.21
438.58	4582.77
438.77	4706.82
438.96	4629.58
439.14	4695.11
439.33	4844.91
439.52	4833.21
439.70	4847.25
439.89	4865.97
440.08	4875.34
440.26	4858.95
440.45	4784.06
440.63	5027.47
440.82	4980.66
441.01	4891.72
441.19	4922.15
441.38	5135.14
441.57	5132.79
441.75	5083.64
441.94	5254.50
442.12	5270.89
442.31	5390.25
442.50	5366.85
442.68	5224.08
442.87	5303.65
443.05	5301.31
443.24	5427.70
443.43	5392.59
443.61	5378.55
443.80	5554.09
443.98	5266.21
444.17	5296.63
444.35	5416.00
444.54	5582.18
444.73	5687.50
444.91	5483.88
445.10	5437.06
445.28	5420.68
445.47	5423.02
445.65	5460.47
445.84	5575.16
446.02	5568.13
446.21	5558.77
446.39	5486.22
446.58	5654.73
446.77	5792.83
446.95	5591.54
447.14	5582.18
447.32	5624.31
447.51	5687.50
447.69	5710.91
447.88	5598.56
448.06	5783.46
448.25	5521.32
448.43	5724.95
448.62	5717.93
448.80	5490.90
448.99	5575.16
449.17	5778.78
449.36	5841.98
449.54	5863.04
449.73	5891.13
449.91	5921.56
450.10	5900.49
450.28	6017.52
450.46	5863.04
450.65	5813.89
450.83	6015.18
451.02	5944.96
451.20	6024.54
451.39	6094.76
451.57	6078.37
451.76	5998.79
451.94	6146.25
452.13	6160.29
452.31	6036.24
452.49	5949.64
452.68	6188.38
452.86	6094.76
453.05	6267.95
453.23	6326.47
453.42	6164.97
453.60	6223.48
453.78	6078.37
453.97	6216.46
454.15	6270.30
454.34	6167.31
454.52	6370.94
454.70	6202.42
454.89	6349.87
455.07	6368.60
455.26	6392.00
455.44	6560.52
455.62	6424.77
455.81	6604.99
455.99	6464.56
456.17	6494.99
456.36	6602.65
456.54	6686.91
456.73	6672.87
456.91	6965.43
457.09	6698.61
457.28	6953.73
457.46	6843.73
457.64	6918.62
457.83	6888.20
458.01	6897.56
458.19	7194.81
458.38	6986.50
458.56	6937.35
458.74	7073.10
458.93	7068.42
459.11	6977.14
459.29	6918.62
459.48	7082.46
459.66	7056.72
459.84	7080.12
460.03	7166.72
460.21	7115.23
460.39	7162.04
460.57	7262.68
460.76	7194.81
460.94	7328.22
461.12	7089.48
461.31	7435.88
461.49	7428.86
461.67	7339.92
461.85	7442.90
462.04	7351.62
462.22	7873.56
462.40	7550.57
462.59	7541.21
462.77	7588.02
462.95	7531.84
463.13	7492.05
463.32	7557.59
463.50	7527.16
463.68	7733.13
463.86	7625.47
464.05	7419.50
464.23	7566.95
464.41	7742.49
464.59	7583.34
464.78	8002.29
464.96	7784.62
465.14	7772.92
465.32	7733.13
465.50	7630.15
465.69	7911.01
465.87	7751.85
466.05	7775.26
466.23	7779.94
466.41	7915.69
466.60	8081.87
466.78	8093.57
466.96	8191.88
467.14	7948.46
467.32	8084.21
467.51	8126.34
467.69	8016.33
467.87	7882.92
468.05	8051.44
468.23	8058.46
468.41	8346.35
468.60	8173.15
468.78	8243.37
468.96	8166.13
469.14	8386.14
469.32	8280.82
469.50	8175.49
469.69	8554.66
469.87	8554.66
470.05	8484.44
470.23	8573.38
470.41	8461.04
470.59	8580.40
470.77	8475.08
470.95	8477.42
471.14	8730.20
471.32	8446.99
471.50	8641.26
471.68	8716.16
471.86	8945.53
472.04	8856.59
472.22	9294.27
472.40	8709.13
472.58	8879.99
472.77	9142.13
472.95	9259.16
473.13	9322.35
473.31	9020.42
473.49	9121.07
473.67	9249.80
473.85	9359.80
474.03	9373.85
474.21	9312.99
474.39	9584.49
474.57	9547.05
474.75	9577.47
474.93	9525.98
475.12	9643.01
475.30	9750.67
475.48	9643.01
475.66	9951.96
475.84	9556.41
476.02	10043.24
476.20	9865.36
476.38	9937.91
476.56	10319.42
476.74	10253.89
476.92	10321.76
477.10	9930.89
477.28	10441.13
477.46	10408.36
477.64	10452.83
477.82	10724.33
478.00	11000.52
478.18	10682.20
478.36	10960.73
478.54	10998.18
478.72	10902.22
478.90	11056.69
479.08	11304.79
479.26	11367.98
479.44	11506.07
479.62	11473.31
479.80	11475.65
479.98	11531.82
480.16	12060.78
480.34	11777.58
480.52	11957.80
480.70	12077.16
480.88	11887.58
481.06	11859.49
481.24	12189.51
481.41	12142.70
481.59	12198.87
481.77	12549.95
481.95	12444.63
482.13	12613.15
482.31	12554.63
482.49	12908.05
482.67	12833.16
482.85	13104.66
483.03	13160.83
483.21	13221.69
483.39	13434.68
483.57	13507.23
483.74	13598.51
483.92	13884.06
484.10	13556.38
484.28	13738.94
484.46	14001.08
484.64	14333.44
484.82	13907.46
485.00	14527.71
485.18	14562.81
485.35	14747.72
485.53	14728.99
485.71	14815.59
485.89	14998.15
486.07	14984.11
486.25	15103.48
486.43	15211.14
486.61	15372.64
486.78	15286.04
486.96	15566.90
487.14	15627.76
487.32	15585.63
487.50	16065.44
487.68	15896.92
487.85	16311.19
488.03	16514.82
488.21	16468.01
488.39	16500.78
488.57	16783.98
488.75	16744.19
488.92	16961.86
489.10	16929.09
489.28	17172.51
489.46	17322.30
489.64	17111.66
489.81	17647.64
489.99	17497.84
490.17	17659.34
490.35	17752.96
490.53	17816.16
490.70	18298.31
490.88	18061.91
491.06	18429.38
491.24	18389.59
491.41	18693.86
491.59	18530.02
491.77	18504.28
491.95	19145.58
492.13	18948.98
492.30	18970.04
492.48	19126.86
492.66	19372.61
492.84	19353.89
493.01	19506.02
493.19	19604.33
493.37	19693.27
493.54	19847.74
493.72	20032.65
493.90	19775.19
494.08	20112.22
494.25	20222.23
494.43	20238.61
494.61	20725.44
494.79	20570.97
494.96	20730.12
495.14	20938.43
495.32	21025.03
495.49	21135.04
495.67	20886.94
495.85	21635.91
496.02	21289.51
496.20	21687.40
496.38	21640.59
496.55	21528.25
496.73	22204.66
496.91	22277.22
497.09	21898.05
497.26	22080.61
497.44	22211.68
497.62	22401.27
497.79	22967.68
497.97	22192.96
498.14	22640.00
498.32	23140.88
498.50	22911.50
498.67	23377.27
498.85	22986.40
499.03	23459.19
499.20	23468.55
499.38	23550.47
499.56	23449.83
499.73	23557.49
499.91	23758.78
500.08	24346.25
500.26	23742.39
500.44	24142.63
500.61	24009.22
500.79	24322.85
500.97	24489.03
501.14	24762.87
501.32	24435.19
501.49	24465.62
501.67	24470.30
501.84	24816.70
502.02	24575.62
502.20	24669.25
502.37	24851.81
502.55	24816.70
502.72	24945.43
502.90	25055.43
503.07	25238.00
503.25	25303.53
503.43	25268.42
503.60	25263.74
503.78	25481.41
503.95	26132.08
504.13	25926.11
504.30	26061.87
504.48	26274.85
504.65	25692.06
504.83	26026.76
505.01	26501.89
505.18	26239.75
505.36	26513.59
505.53	26192.94
505.71	26757.00
505.88	26948.93
506.06	26548.70
506.23	26789.77
506.41	26544.02
506.58	27250.86
506.76	27215.75
506.93	27115.11
507.11	27044.89
507.28	27211.07
507.46	27082.34
507.63	27482.57
507.81	27644.07
507.98	27470.87
508.16	27503.64
508.33	27707.26
508.50	27857.06
508.68	27723.65
508.85	28231.54
509.03	27978.76
509.20	27889.82
509.38	28542.83
509.55	28130.90
509.73	28458.57
509.90	28599.01
510.08	28470.28
510.25	28599.01
510.42	28669.22
510.60	28582.62
510.77	28760.50
510.95	29146.69
511.12	28772.21
511.30	28947.75
511.47	28996.90
511.64	29125.63
511.82	29685.01
511.99	29457.98
512.17	29411.17
512.34	29649.91
512.51	30099.29
512.69	29926.09
512.86	29923.75
513.04	29893.32
513.21	30157.80
513.38	29937.79
513.56	30174.19
513.73	29916.73
513.90	30085.25
514.08	30127.38
514.25	30476.12
514.43	30686.76
514.60	30494.84
514.77	30637.61
514.95	30340.36
515.12	30836.56
515.29	30569.74
515.47	30761.66
515.64	31204.02
515.81	30958.27
515.99	31054.23
516.16	31424.03
516.33	31108.06
516.51	31988.10
516.68	31379.56
516.85	31262.54
517.03	31529.36
517.20	31826.60
517.37	31634.68
517.54	31622.98
517.72	31854.69
517.89	31950.65
518.06	31920.23
518.24	32393.01
518.41	32009.17
518.58	31873.42
518.75	32046.62
518.93	32500.68
519.10	32451.53
519.27	32430.46
519.45	32308.76
519.62	32458.55
519.79	32561.53
519.96	32563.87
520.14	33134.96
520.31	32680.90
520.48	33312.84
520.65	33024.96
520.83	33263.69
521.00	33624.14
521.17	32968.79
521.34	33509.45
521.52	33301.14
521.69	33060.07
521.86	33661.58
522.03	33502.43
522.20	33947.13
522.38	34192.89
522.55	33848.83
522.72	34176.50
522.89	34012.66
523.07	34323.96
523.24	34286.51
523.41	34646.95
523.58	34089.90
523.75	34281.83
523.92	34457.37
524.10	34520.56
524.27	34614.18
524.44	34546.31
524.61	34789.72
524.78	34747.59
524.96	35112.72
525.13	34909.09
525.30	35159.53
525.47	35442.73
525.64	35206.34
525.81	35452.09
525.98	35180.59
526.16	35124.42
526.33	35122.08
526.50	35510.61
526.67	35367.84
526.84	35388.90
527.01	35194.64
527.18	35550.40
527.36	35742.32
527.53	35323.36
527.70	36102.76
527.87	36020.84
528.04	36254.90
528.21	35754.02
528.38	35880.41
528.55	36107.44
528.72	36184.68
528.89	35889.77
529.07	36217.45
529.24	36247.88
529.41	36680.88
529.58	36392.99
529.75	36435.12
529.92	36158.94
530.09	36673.85
530.26	36329.80
530.43	36580.23
530.60	36664.49
530.77	36776.84
530.94	36477.25
531.11	36542.78
531.28	37095.15
531.46	36720.66
531.63	37123.24
531.80	37048.34
531.97	37174.73
532.14	37036.64
532.31	37249.63
532.48	37338.57
532.65	37378.36
532.82	37418.14
532.99	37677.94
533.16	37853.48
533.33	37497.72
533.50	37591.34
533.67	37624.11
533.84	37542.19
534.01	37736.46
534.18	37514.11
534.35	38204.56
534.52	38017.32
534.69	38588.41
534.86	38272.44
535.03	37748.16
535.20	37982.21
535.37	38403.51
535.54	37865.19
535.71	38167.12
535.88	38543.94
536.05	38246.69
536.22	38749.91
536.38	38438.62
536.55	38806.08
536.72	38670.33
536.89	38487.77
537.06	38295.85
537.23	39124.40
537.40	38918.43
537.57	38628.20
537.74	38419.89
537.91	39037.80
538.08	39019.07
538.25	38789.70
538.42	39260.15
538.59	39100.99
538.75	38785.02
538.92	39686.12
539.09	39541.01
539.26	39201.63
539.43	39187.59
539.60	39346.75
539.77	39367.81
539.94	39779.74
540.11	39639.31
540.28	39754.00
540.44	39611.23
540.61	39573.78
540.78	39583.14
540.95	39606.55
541.12	39786.77
541.29	39620.59
541.46	40196.36
541.62	40081.67
541.79	40121.46
541.96	39779.74
542.13	39976.35
542.30	39833.58
542.47	40144.87
542.63	39901.45
542.80	40032.52
542.97	40266.58
543.14	40870.43
543.31	40814.26
543.48	40495.95
543.64	41006.19
543.81	40776.81
543.98	40765.11
544.15	40526.38
544.32	40903.20
544.48	41104.49
544.65	41179.39
544.82	40825.96
544.99	40760.43
545.16	41289.39
545.32	40751.07
545.49	41715.37
545.66	41443.87
545.83	41502.38
546.00	41247.26
546.16	41251.94
546.33	41387.69
546.50	41198.11
546.67	41612.38
546.83	41212.15
547.00	41544.51
547.17	41415.78
547.34	41371.31
547.50	41694.30
547.67	41846.44
547.84	41902.61
548.00	41862.82
548.17	42286.46
548.34	41970.49
548.51	42101.56
548.67	41904.95
548.84	42225.60
549.01	42071.13
549.18	41975.17
549.34	42192.84
549.51	42316.89
549.68	42377.74
549.84	42073.47
550.01	42265.39
550.18	41937.72
550.34	42567.32
550.51	42476.04
550.68	42515.83
550.84	42143.69
551.01	43107.99
551.18	42380.08
551.34	42181.13
551.51	42295.82
551.68	42677.33
551.84	42506.47
552.01	42609.45
552.18	42370.72
552.34	42443.27
552.51	42630.52
552.68	42232.63
552.84	42672.65
553.01	42911.38
553.18	42726.48
553.34	43035.43
553.51	42630.52
553.67	42815.42
553.84	42855.21
554.01	43398.21
554.17	43466.09
554.34	43370.13
554.51	43210.97
554.67	43585.46
554.84	43543.33
555.00	43037.77
555.17	43243.74
555.33	43054.15
555.50	43328.00
555.67	43414.60
555.83	43473.11
556.00	43461.41
556.16	44105.06
556.33	43587.80
556.50	43782.06
556.66	43744.61
556.83	43328.00
556.99	43901.43
557.16	43730.57
557.32	44023.14
557.49	44184.63
557.65	43466.09
557.82	43606.52
557.98	43948.24
558.15	43599.50
558.32	43791.42
558.48	44339.11
558.65	44023.14
558.81	43746.95
558.98	44126.12
559.14	43840.57
559.31	43969.30
559.47	44142.50
559.64	44130.80
559.80	43868.66
559.97	44350.81
560.13	44046.54
560.30	44343.79
560.46	44566.14
560.63	44397.62
560.79	44404.64
560.96	44638.70
561.12	44734.66
561.29	44381.24
561.45	44561.46
561.61	44472.52
561.78	44336.77
561.94	44472.52
562.11	44603.59
562.27	44191.65
562.44	43950.58
562.60	44519.33
562.77	44552.10
562.93	44636.36
563.10	44601.25
563.26	44744.02
563.42	44996.80
563.59	44641.04
563.75	44601.25
563.92	45280.00
564.08	44619.97
564.24	45074.04
564.41	44638.70
564.57	44952.33
564.74	44886.79
564.90	44940.63
565.07	44914.88
565.23	45130.21
565.39	44634.02
565.56	45055.31
565.72	44849.35
565.88	44917.22
566.05	45076.38
566.21	44947.65
566.38	45052.97
566.54	45427.46
566.70	45010.84
566.87	45123.19
567.03	44842.32
567.19	45221.49
567.36	45067.02
567.52	45242.56
567.68	45352.56
567.85	45067.02
568.01	45439.16
568.17	44514.65
568.34	45778.54
568.50	45099.78
568.66	44795.51
568.83	45382.99
568.99	45113.83
569.15	44980.42
569.32	45010.84
569.48	45303.41
569.64	45345.54
569.81	45530.44
569.97	45296.39
570.13	45925.99
570.30	45553.85
570.46	45801.94
570.62	45490.65
570.78	45193.40
570.95	45722.37
571.11	45825.35
571.27	45205.11
571.43	45537.46
571.60	45387.67
571.76	45312.77
571.92	45535.12
572.09	45120.85
572.25	45294.05
572.41	45439.16
572.57	45354.90
572.74	46134.30
572.90	45258.94
573.06	45984.51
573.22	45361.92
573.38	46087.49
573.55	45546.82
573.71	45364.26
573.87	45907.27
574.03	46113.23
574.20	46045.36
574.36	46092.17
574.52	45996.21
574.68	45729.39
574.84	45862.80
575.01	46031.32
575.17	46033.66
575.33	45743.43
575.49	45640.45
575.65	45986.85
575.82	45806.62
575.98	45694.28
576.14	46443.25
576.30	45914.29
576.46	45956.42
576.62	45724.71
576.79	45640.45
576.95	45563.21
577.11	45551.51
577.27	45385.33
577.43	45853.44
577.59	46227.92
577.75	45595.98
577.92	45495.33
578.08	45577.25
578.24	45680.24
578.40	45471.93
578.56	46181.11
578.72	45652.15
578.88	45776.20
579.04	45895.56
579.21	46155.36
579.37	45464.91
579.53	45734.07
579.69	45858.12
579.85	45661.51
580.01	46358.99
580.17	45970.46
580.33	46143.66
580.49	45883.86
580.65	46071.10
580.82	45652.15
580.98	45921.31
581.14	45689.60
581.30	45750.45
581.46	45874.50
581.62	45944.72
581.78	45902.59
581.94	45925.99
582.10	45827.69
582.26	46138.98
582.42	46157.70
582.58	46000.89
582.74	45874.50
582.90	46335.59
583.06	46412.82
583.22	45977.48
583.38	46309.84
583.54	46335.59
583.70	46401.12
583.86	46740.50
584.02	46237.28
584.18	46396.44
584.34	46190.47
584.50	46471.34
584.66	46223.24
584.82	45930.67
584.98	46667.94
585.14	46129.62
585.30	46316.86
585.46	45940.04
585.62	46129.62
585.78	46358.99
585.94	45338.52
586.10	46150.68
586.26	45970.46
586.42	45942.38
586.58	46380.06
586.74	46513.47
586.90	46129.62
587.06	46108.55
587.22	46412.82
587.38	46124.94
587.54	46192.81
587.70	46686.67
587.86	46450.27
588.02	46305.16
588.18	46501.76
588.34	46256.01
588.49	46298.14
588.65	46309.84
588.81	46424.53
588.97	46368.35
589.13	46646.88
589.29	46394.10
589.45	46366.01
589.61	46424.53
589.77	46756.88
589.93	46335.59
590.08	46438.57
