SpectraSuite Data File
++++++++++++++++++++++++++++++++++++
Date: Fri Oct 25 11:33:16 EDT 2013
User: price-jones
Dark Spectrum Present: No
Reference Spectrum Present: No
Number of Sampled Component Spectra: 1
Spectrometers: USB2+H05261
Integration Time (usec): 100000 (USB2+H05261)
Spectra Averaged: 1 (USB2+H05261)
Boxcar Smoothing: 0 (USB2+H05261)
Correct for Electrical Dark: No (USB2+H05261)
Strobe/Lamp Enabled: No (USB2+H05261)
Correct for Detector Non-linearity: No (USB2+H05261)
Correct for Stray Light: No (USB2+H05261)
Number of Pixels in Processed Spectrum: 2048
>>>>>Begin Processed Spectral Data<<<<<
365.73	294.91
365.92	294.91
366.12	294.91
366.32	229.37
366.52	196.60
366.72	198.95
366.91	142.77
367.11	180.22
367.31	163.84
367.51	100.64
367.70	208.31
367.90	121.71
368.10	128.73
368.30	138.09
368.49	198.95
368.69	170.86
368.89	212.99
369.09	128.73
369.28	212.99
369.48	222.35
369.68	231.71
369.87	269.16
370.07	245.76
370.27	222.35
370.47	325.33
370.66	437.68
370.86	465.77
371.06	557.05
371.25	599.18
371.45	510.24
371.65	592.16
371.84	603.86
372.04	575.77
372.24	601.52
372.44	601.52
372.63	486.83
372.83	613.22
373.03	564.07
373.22	606.20
373.42	528.96
373.62	653.01
373.81	650.67
374.01	631.94
374.21	638.97
374.40	660.03
374.60	704.50
374.79	692.80
374.99	543.00
375.19	610.88
375.38	634.29
375.58	580.45
375.78	662.37
375.97	688.12
376.17	739.61
376.37	617.90
376.56	685.78
376.76	727.91
376.95	585.13
377.15	664.71
377.35	655.35
377.54	758.33
377.74	695.14
377.93	664.71
378.13	683.44
378.33	755.99
378.52	711.52
378.72	709.18
378.91	748.97
379.11	692.80
379.31	718.54
379.50	706.84
379.70	660.03
379.89	802.80
380.09	702.16
380.28	730.25
380.48	732.59
380.68	723.23
380.87	798.12
381.07	755.99
381.26	706.84
381.46	777.06
381.65	695.14
381.85	798.12
382.04	856.64
382.24	863.66
382.43	774.72
382.63	812.17
382.83	751.31
383.02	786.42
383.22	791.10
383.41	791.10
383.61	755.99
383.80	870.68
384.00	760.67
384.19	805.14
384.39	795.78
384.58	851.96
384.78	905.79
384.97	823.87
385.17	807.48
385.36	828.55
385.56	849.61
385.75	746.63
385.95	858.98
386.14	926.85
386.34	922.17
386.53	861.32
386.72	959.62
386.92	894.08
387.11	870.68
387.31	896.43
387.50	926.85
387.70	870.68
387.89	830.89
388.09	915.15
388.28	931.53
388.48	884.72
388.67	889.40
388.86	1041.54
389.06	971.32
389.25	933.87
389.45	976.00
389.64	875.36
389.84	1039.20
390.03	1020.47
390.22	954.94
390.42	938.55
390.61	936.21
390.81	947.92
391.00	945.58
391.19	1011.11
391.39	1032.18
391.58	1034.52
391.78	1048.56
391.97	973.66
392.16	990.05
392.36	1093.03
392.55	1039.20
392.75	1062.60
392.94	1053.24
393.13	1069.62
393.33	1107.07
393.52	1039.20
393.71	1107.07
393.91	1149.20
394.10	987.71
394.29	1137.50
394.49	1095.37
394.68	1137.50
394.88	1116.44
395.07	1181.97
395.26	1111.75
395.46	1107.07
395.65	1184.31
395.84	1191.33
396.04	1287.29
396.23	1240.48
396.42	1198.35
396.62	1205.38
396.81	1200.69
397.00	1289.64
397.19	1174.95
397.39	1306.02
397.58	1249.85
397.77	1291.98
397.97	1254.53
398.16	1240.48
398.35	1261.55
398.55	1242.82
398.74	1270.91
398.93	1320.06
399.12	1331.76
399.32	1252.19
399.51	1338.79
399.70	1462.83
399.90	1404.32
400.09	1247.51
400.28	1434.75
400.47	1357.51
400.67	1401.98
400.86	1390.28
401.05	1380.92
401.24	1437.09
401.44	1401.98
401.63	1378.58
401.82	1490.92
402.01	1404.32
402.21	1544.75
402.40	1444.11
402.59	1493.26
402.78	1448.79
402.97	1432.41
403.17	1497.94
403.36	1561.14
403.55	1547.09
403.74	1547.09
403.93	1617.31
404.13	1610.29
404.32	1610.29
404.51	1685.19
404.70	1645.40
404.89	1577.52
405.09	1706.25
405.28	1593.90
405.47	1706.25
405.66	1720.29
405.85	1760.08
406.05	1741.36
406.24	1741.36
406.43	1720.29
406.62	1757.74
406.81	1877.11
407.00	1771.79
407.20	1734.34
407.39	1811.57
407.58	1802.21
407.77	1844.34
407.96	1916.90
408.15	1961.37
408.34	1923.92
408.54	2012.86
408.73	1937.96
408.92	2043.29
409.11	2057.33
409.30	1970.73
409.49	1928.60
409.68	1984.77
409.87	1879.45
410.07	1994.14
410.26	1970.73
410.45	2111.16
410.64	2139.25
410.83	2165.00
411.02	2085.42
411.21	2162.66
411.40	2216.49
411.59	2188.40
411.78	2190.74
411.98	2183.72
412.17	2307.77
412.36	2317.13
412.55	2291.38
412.74	2335.85
412.93	2370.96
413.12	2303.09
413.31	2422.45
413.50	2452.88
413.69	2417.77
413.88	2525.44
414.07	2427.14
414.26	2539.48
414.45	2532.46
414.64	2546.50
414.83	2642.46
415.02	2553.52
415.22	2647.15
415.41	2590.97
415.60	2679.91
415.79	2745.45
415.98	2759.49
416.17	2771.19
416.36	2771.19
416.55	2860.13
416.74	2773.53
416.93	2857.79
417.12	2920.99
417.31	2820.35
417.50	2913.97
417.69	2958.44
417.88	2991.20
418.07	2932.69
418.26	2946.73
418.45	2984.18
418.64	3159.72
418.83	3028.65
419.02	2979.50
419.21	3126.96
419.39	3251.00
419.58	3082.49
419.77	3110.57
419.96	3262.71
420.15	3143.34
420.34	3162.06
420.53	3166.74
420.72	3187.81
420.91	3272.07
421.10	3201.85
421.29	3375.05
421.48	3358.67
421.67	3361.01
421.86	3440.59
422.05	3314.20
422.24	3391.44
422.43	3197.17
422.61	3435.91
422.80	3496.76
422.99	3398.46
423.18	3391.44
423.37	3520.17
423.56	3515.48
423.75	3363.35
423.94	3332.92
424.13	3211.22
424.32	3361.01
424.50	3524.85
424.69	3438.25
424.88	3468.67
425.07	3555.27
425.26	3452.29
425.45	3482.72
425.64	3534.21
425.83	3421.86
426.01	3541.23
426.20	3562.30
426.39	3452.29
426.58	3421.86
426.77	3445.27
426.96	3515.48
427.15	3421.86
427.33	3552.93
427.52	3527.19
427.71	3676.98
427.90	3658.26
428.09	3772.94
428.28	3707.41
428.46	3655.92
428.65	3627.83
428.84	3772.94
429.03	3786.99
429.22	3772.94
429.40	3742.52
429.59	3847.84
429.78	3655.92
429.97	3747.20
430.16	3824.44
430.34	3794.01
430.53	3887.63
430.72	3817.41
430.91	3981.25
431.10	3859.54
431.28	3920.40
431.47	3889.97
431.66	4049.13
431.85	3932.10
432.03	3960.19
432.22	4091.26
432.41	4170.83
432.60	4109.98
432.79	3960.19
432.97	4306.59
433.16	4210.62
433.35	4208.28
433.54	4147.43
433.72	4196.58
433.91	3997.64
434.10	4269.14
434.28	4156.79
434.47	4299.56
434.66	4236.37
434.85	4365.10
435.03	4360.42
435.22	4255.09
435.41	4393.19
435.59	4397.87
435.78	4582.77
435.97	4283.18
436.16	4461.06
436.34	4535.96
436.53	4533.62
436.72	4610.86
436.90	4360.42
437.09	4557.02
437.28	4329.99
437.46	4533.62
437.65	4620.22
437.84	4709.16
438.02	4606.17
438.21	4674.05
438.40	4638.94
438.58	4798.10
438.77	4863.63
438.96	4873.00
439.14	4929.17
439.33	4966.62
439.52	4931.51
439.70	5013.43
439.89	5036.83
440.08	5050.88
440.26	4910.44
440.45	4992.36
440.63	5025.13
440.82	5186.63
441.01	5109.39
441.19	5233.44
441.38	5191.31
441.57	5179.61
441.75	5406.64
441.94	5427.70
442.12	5420.68
442.31	5465.15
442.50	5460.47
442.68	5446.43
442.87	5362.17
443.05	5472.17
443.24	5619.63
443.43	5568.13
443.61	5689.84
443.80	5774.10
443.98	5509.62
444.17	5397.28
444.35	5603.24
444.54	5771.76
444.73	5490.90
444.91	5722.61
445.10	5762.40
445.28	5589.20
445.47	5816.23
445.65	5643.03
445.84	5867.72
446.02	5638.35
446.21	5792.83
446.39	5781.12
446.58	5785.80
446.77	5797.51
446.95	5701.54
447.14	5827.93
447.32	5849.00
447.51	5820.91
447.69	5771.76
447.88	5652.39
448.06	5837.30
448.25	5937.94
448.43	6092.41
448.62	5865.38
448.80	5928.58
448.99	6047.94
449.17	5841.98
449.36	5921.56
449.54	6008.16
449.73	6017.52
449.91	6132.20
450.10	6094.76
450.28	6134.54
450.46	6078.37
450.65	6064.33
450.83	6284.34
451.02	6069.01
451.20	6305.40
451.39	6319.45
451.57	6171.99
451.76	6069.01
451.94	6272.64
452.13	6216.46
452.31	6312.42
452.49	6216.46
452.68	6356.90
452.86	6333.49
453.05	6445.84
453.23	6462.22
453.42	6420.09
453.60	6476.26
453.78	6663.51
453.97	6490.31
454.15	6380.30
454.34	6319.45
454.52	6607.33
454.70	6642.44
454.89	6628.40
455.07	6712.66
455.26	6682.23
455.44	6635.42
455.62	6670.53
455.81	6717.34
455.99	6593.29
456.17	6874.15
456.36	6764.15
456.54	6888.20
456.73	6867.13
456.91	6958.41
457.09	7035.65
457.28	7117.57
457.46	7040.33
457.64	7101.19
457.83	7145.66
458.01	7082.46
458.19	7478.01
458.38	7222.89
458.56	7112.89
458.74	7140.97
458.93	7236.94
459.11	7236.94
459.29	7330.56
459.48	7440.56
459.66	7400.77
459.84	7365.67
460.03	7452.27
460.21	7412.48
460.39	7328.22
460.57	7349.28
460.76	7573.97
460.94	7522.48
461.12	7688.66
461.31	7566.95
461.49	7625.47
461.67	7648.87
461.85	7840.79
462.04	7564.61
462.22	8084.21
462.40	7915.69
462.59	7843.14
462.77	7901.65
462.95	7889.95
463.13	7967.18
463.32	7878.24
463.50	7934.42
463.68	7875.90
463.86	7976.55
464.05	7765.90
464.23	8016.33
464.41	7953.14
464.59	7990.59
464.78	8114.64
464.96	8116.98
465.14	8046.76
465.32	8091.23
465.50	8091.23
465.69	8191.88
465.87	8049.10
466.05	8252.73
466.23	8219.96
466.41	8201.24
466.60	8489.12
466.78	8294.86
466.96	8030.38
467.14	8262.09
467.32	8446.99
467.51	8407.20
467.69	8416.57
467.87	8496.14
468.05	8528.91
468.23	8369.76
468.41	8376.78
468.60	8468.06
468.78	8475.08
468.96	8456.36
469.14	8500.83
469.32	8802.75
469.50	8608.49
469.69	8828.50
469.87	8952.55
470.05	8910.42
470.23	8830.84
470.41	8713.81
470.59	8938.51
470.77	8856.59
470.95	8863.61
471.14	9186.60
471.32	8952.55
471.50	9039.15
471.68	9090.64
471.86	9100.00
472.04	9081.28
472.22	9579.81
472.40	9036.81
472.58	9322.35
472.77	9320.01
472.95	9434.70
473.13	9867.70
473.31	9357.46
473.49	9476.83
473.67	9731.95
473.85	9533.00
474.03	9776.42
474.21	9542.36
474.39	9853.66
474.57	9989.41
474.75	9895.78
474.93	10076.01
475.12	10129.84
475.30	10022.17
475.48	10052.60
475.66	10246.87
475.84	10171.97
476.02	10277.29
476.20	10417.72
476.38	10485.60
476.56	10616.67
476.74	10462.19
476.92	10677.52
477.10	10494.96
477.28	10719.65
477.46	10785.19
477.64	10949.03
477.82	10984.13
478.00	11112.86
478.18	11199.46
478.36	11028.60
478.54	11337.56
478.72	11456.92
478.90	11712.04
479.08	11857.15
479.26	11789.28
479.44	11604.38
479.62	12070.14
479.80	12301.86
479.98	12020.99
480.16	12196.53
480.34	12156.74
480.52	12477.40
480.70	12315.90
480.88	12271.43
481.06	12554.63
481.24	12479.74
481.41	12674.00
481.59	13022.74
481.77	13247.43
481.95	13078.91
482.13	13156.15
482.31	12985.29
482.49	13490.85
482.67	13542.34
482.85	13411.27
483.03	13862.99
483.21	13652.34
483.39	14249.18
483.57	13776.39
483.74	14153.22
483.92	14291.31
484.10	14251.52
484.28	14277.27
484.46	14689.20
484.64	14822.61
484.82	14665.80
485.00	14703.25
485.18	15068.37
485.35	15239.23
485.53	15187.74
485.71	15269.66
485.89	15704.99
486.07	15578.61
486.25	15695.63
486.43	15667.55
486.61	16009.26
486.78	16128.63
486.96	16170.76
487.14	16271.40
487.32	15953.09
487.50	16643.55
487.68	16643.55
487.85	16748.87
488.03	16781.64
488.21	17252.09
488.39	17352.73
488.57	17334.01
488.75	17179.53
488.92	17483.80
489.10	17738.92
489.28	17619.55
489.46	17839.56
489.64	17823.18
489.81	18029.15
489.99	18398.95
490.17	18384.91
490.35	18609.60
490.53	18974.72
490.70	18710.24
490.88	18579.17
491.06	19229.84
491.24	18890.46
491.41	19297.72
491.59	19599.65
491.77	19421.77
491.95	19721.35
492.13	19784.55
492.30	20072.43
492.48	19927.32
492.66	20088.82
492.84	20243.29
493.01	20491.39
493.19	20446.92
493.37	20421.17
493.54	20561.61
493.72	20713.74
493.90	20805.02
494.08	21078.86
494.25	21085.89
494.43	21214.62
494.61	21338.66
494.79	21018.01
494.96	21432.29
495.14	21631.23
495.32	22237.43
495.49	22155.51
495.67	22155.51
495.85	22178.92
496.02	22518.29
496.20	22295.94
496.38	22841.29
496.55	22515.95
496.73	23075.34
496.91	22757.03
497.09	23028.53
497.26	23651.11
497.44	23435.78
497.62	23145.56
497.79	23477.91
497.97	23370.25
498.14	23845.38
498.32	23557.49
498.50	24287.74
498.67	24243.27
498.85	24065.39
499.03	24304.12
499.20	24229.23
499.38	24563.92
499.56	24687.97
499.73	24407.11
499.91	24978.20
500.08	25017.99
500.26	24582.65
500.44	24943.09
500.61	25090.54
500.79	24966.49
500.97	25315.23
501.14	25862.92
501.32	25605.46
501.49	25666.31
501.67	25759.94
501.84	26082.93
502.02	25696.74
502.20	26066.55
502.37	26080.59
502.55	25724.83
502.72	26284.22
502.90	25851.22
503.07	26293.58
503.25	26487.84
503.43	26225.70
503.60	26419.97
503.78	26773.39
503.95	26536.99
504.13	26654.02
504.30	26651.68
504.48	26890.41
504.65	27290.65
504.83	27255.54
505.01	27405.33
505.18	27321.07
505.36	27496.61
505.53	26923.18
505.71	27456.82
505.88	27847.69
506.06	27756.41
506.23	28224.52
506.41	28034.94
506.58	27857.06
506.76	27847.69
506.93	28140.26
507.11	28231.54
507.28	28444.53
507.46	28545.17
507.63	28713.69
507.81	28744.12
507.98	28582.62
508.16	28816.68
508.33	29223.93
508.50	29170.10
508.68	29315.21
508.85	29284.78
509.03	28987.53
509.20	28933.70
509.38	29603.10
509.55	29472.03
509.73	29788.00
509.90	29673.31
510.08	29539.90
510.25	29743.53
510.42	29759.91
510.60	30050.14
510.77	30284.19
510.95	30380.15
511.12	30288.87
511.30	30335.68
511.47	30548.67
511.64	30216.32
511.82	30471.43
511.99	30778.04
512.17	31005.08
512.34	30333.34
512.51	30953.58
512.69	31047.21
512.86	31171.25
513.04	31358.50
513.21	31433.39
513.38	31438.08
513.56	31337.43
513.73	31042.53
513.90	31440.42
514.08	31426.37
514.25	32072.36
514.43	31842.99
514.60	31875.76
514.77	31728.30
514.95	32226.84
515.12	31917.89
515.29	32229.18
515.47	32416.42
515.64	32294.71
515.81	32189.39
515.99	32329.82
516.16	32781.54
516.33	32318.12
516.51	33223.90
516.68	32453.87
516.85	33158.37
517.03	32477.27
517.20	32596.64
517.37	32786.22
517.54	32987.51
517.72	32884.53
517.89	33202.84
518.06	33177.09
518.24	33394.76
518.41	33572.64
518.58	33755.21
518.75	33509.45
518.93	34202.25
519.10	33633.50
519.27	34106.29
519.45	34094.58
519.62	33621.80
519.79	34281.83
519.96	33972.88
520.14	34148.42
520.31	33844.15
520.48	34628.23
520.65	34312.25
520.83	34827.17
521.00	34733.55
521.17	34455.03
521.34	34948.88
521.52	34719.51
521.69	34869.30
521.86	34822.49
522.03	35323.36
522.20	35470.82
522.38	35260.17
522.55	35571.46
522.72	35496.56
522.89	35384.22
523.07	35728.28
523.24	35480.18
523.41	35805.52
523.58	35470.82
523.75	35812.54
523.92	35534.01
524.10	35697.85
524.27	35817.22
524.44	35938.93
524.61	36313.41
524.78	36046.59
524.96	36088.72
525.13	35941.27
525.30	36282.98
525.47	36739.39
525.64	36634.06
525.81	36746.41
525.98	36854.08
526.16	36844.71
526.33	36589.59
526.50	37071.75
526.67	36837.69
526.84	37046.00
527.01	37092.81
527.18	36959.40
527.36	37352.61
527.53	37359.63
527.70	37268.35
527.87	37502.40
528.04	37656.88
528.21	37425.17
528.38	37474.32
528.55	37748.16
528.72	37722.41
528.89	37738.80
529.07	37626.45
529.24	37841.78
529.41	37736.46
529.58	38101.58
529.75	37631.13
529.92	37741.14
530.09	38108.60
530.26	37921.36
530.43	38321.59
530.60	38120.31
530.77	37872.21
530.94	38267.76
531.11	37851.14
531.28	38113.28
531.46	38518.20
531.63	38738.21
531.80	38518.20
531.97	38651.61
532.14	38780.34
532.31	39075.24
532.48	38923.11
532.65	38834.17
532.82	38925.45
532.99	38988.64
533.16	38960.56
533.33	39232.06
533.50	39196.95
533.67	38813.10
533.84	39143.12
534.01	39473.13
534.18	39864.00
534.35	39648.68
534.52	39484.84
534.69	39580.80
534.86	39426.32
535.03	39545.69
535.20	39709.53
535.37	39634.63
535.54	39552.71
535.71	40037.20
535.88	39590.16
536.05	40095.72
536.22	40257.21
536.38	40388.28
536.55	40058.27
536.72	40388.28
536.89	40275.94
537.06	40179.98
537.23	40594.25
537.40	40215.08
537.57	40329.77
537.74	40140.19
537.91	40610.64
538.08	40765.11
538.25	40367.22
538.42	40697.24
538.59	41045.97
538.75	40685.53
538.92	41151.30
539.09	40666.81
539.26	41001.50
539.43	40968.74
539.60	40872.78
539.77	41001.50
539.94	41535.15
540.11	40987.46
540.28	41074.06
540.44	41256.62
540.61	40987.46
540.78	41305.77
540.95	41443.87
541.12	41324.50
541.29	41071.72
541.46	41488.34
541.62	41787.92
541.79	41778.56
541.96	41406.42
542.13	41296.41
542.30	41713.03
542.47	41668.56
542.63	41635.79
542.80	41748.14
542.97	41942.40
543.14	42351.99
543.31	41787.92
543.48	42033.68
543.64	42862.23
543.81	42246.67
543.98	42443.27
544.15	42295.82
544.32	42899.68
544.48	43005.00
544.65	42588.39
544.82	42628.18
544.99	42616.47
545.16	42927.77
545.32	42799.04
545.49	43175.86
545.66	43250.76
545.83	42958.19
546.00	43215.65
546.16	42965.21
546.33	42745.20
546.50	42742.86
546.67	43119.69
546.83	42534.56
547.00	42995.64
547.17	42782.65
547.34	43363.11
547.50	42866.91
547.67	43798.44
547.84	43442.68
548.00	43543.33
548.17	43667.37
548.34	43620.56
548.51	43681.42
548.67	43674.40
548.84	43922.49
549.01	43402.89
549.18	43695.46
549.34	43711.84
549.51	43770.36
549.68	43768.02
549.84	43796.10
550.01	43889.73
550.18	43412.26
550.34	43981.01
550.51	44208.04
550.68	44039.52
550.84	43924.83
551.01	44713.59
551.18	44460.82
551.34	43999.73
551.51	44346.13
551.68	43889.73
551.84	44580.18
552.01	44430.39
552.18	44659.76
552.34	44079.31
552.51	44060.58
552.68	44411.67
552.84	44596.57
553.01	44935.95
553.18	44451.45
553.34	44896.16
553.51	44458.48
553.67	44882.11
553.84	44673.81
554.01	44949.99
554.17	44671.46
554.34	45020.20
554.51	44989.78
554.67	45216.81
554.84	45106.80
555.00	44765.09
555.17	44865.73
555.33	44935.95
555.50	44772.11
555.67	45280.00
555.83	45055.31
556.00	45106.80
556.16	45823.01
556.33	45317.45
556.50	45207.45
556.66	45319.79
556.83	45223.83
556.99	45659.17
557.16	45427.46
557.32	45298.73
557.49	45893.22
557.65	45514.06
557.82	45378.31
557.98	45373.63
558.15	45504.70
558.32	45652.15
558.48	45317.45
558.65	45799.60
558.81	45755.13
558.98	45858.12
559.14	45635.77
559.31	45867.48
559.47	45408.73
559.64	45928.33
559.80	45944.72
559.97	45998.55
560.13	45584.27
560.30	45600.66
560.46	45736.41
560.63	46085.15
560.79	45902.59
560.96	46295.80
561.12	46562.62
561.29	45680.24
561.45	46321.54
561.61	46064.08
561.78	45928.33
561.94	45806.62
562.11	46117.92
562.27	46415.16
562.44	46351.97
562.60	46316.86
562.77	46543.89
562.93	46155.36
563.10	46492.40
563.26	46298.14
563.42	46597.73
563.59	46169.41
563.75	46227.92
563.92	46356.65
564.08	46361.33
564.24	46354.31
564.41	46457.29
564.57	46600.07
564.74	46253.67
564.90	46211.54
565.07	46185.79
565.23	46398.78
565.39	46630.49
565.56	46806.03
565.72	46471.34
565.88	46405.80
566.05	46555.60
566.21	46815.40
566.38	46469.00
566.54	46504.10
566.70	46932.42
566.87	46579.00
567.03	46424.53
567.19	46703.05
567.36	46623.47
567.52	47093.92
567.68	46906.68
567.85	47091.58
568.01	47117.32
568.17	46541.55
568.34	46789.65
568.50	47173.50
568.66	46681.98
568.83	46834.12
568.99	47421.59
569.15	46791.99
569.32	46836.46
569.48	46838.80
569.64	47255.42
569.81	47096.26
569.97	47180.52
570.13	47594.79
570.30	47091.58
570.46	46883.27
570.62	47147.75
570.78	46990.94
570.95	47213.29
571.11	47550.32
571.27	46845.82
571.43	46981.57
571.60	46892.63
571.76	46845.82
571.92	47224.99
572.09	46843.48
572.25	47096.26
572.41	46885.61
572.57	46979.23
572.74	47433.30
572.90	46529.85
573.06	47571.39
573.22	47449.68
573.38	47475.43
573.55	47487.13
573.71	47503.51
573.87	47372.44
574.03	47253.08
574.20	47655.65
574.36	47456.70
574.52	47276.48
574.68	47278.82
574.84	47615.86
575.01	47751.61
575.17	47337.33
575.33	47547.98
575.49	47285.84
575.65	47529.26
575.82	47484.79
575.98	47070.51
576.14	47526.92
576.30	47615.86
576.46	47274.14
576.62	47786.72
576.79	47227.33
576.95	47040.09
577.11	47147.75
577.27	47159.45
577.43	47117.32
577.59	47342.02
577.75	47475.43
577.92	46972.21
578.08	47393.51
578.24	47559.69
578.40	47480.11
578.56	47419.25
578.72	47828.85
578.88	47922.47
579.04	47716.50
579.21	47552.66
579.37	47210.95
579.53	47922.47
579.69	47189.88
579.85	47545.64
580.01	47536.28
580.17	47847.57
580.33	47810.12
580.49	47735.23
580.65	47634.58
580.82	47758.63
580.98	47510.53
581.14	47821.83
581.30	47613.52
581.46	47423.93
581.62	47592.45
581.78	47154.77
581.94	47330.31
582.10	47833.53
582.26	47695.44
582.42	47423.93
582.58	47597.13
582.74	48058.22
582.90	47646.29
583.06	47934.17
583.22	47445.00
583.38	47473.09
583.54	47573.73
583.70	47718.84
583.86	47594.79
584.02	47615.86
584.18	47922.47
584.34	47828.85
584.50	48243.12
584.66	48306.32
584.82	47751.61
584.98	47800.76
585.14	47833.53
585.30	47765.65
585.46	47952.90
585.62	47849.91
585.78	48013.75
585.94	47725.86
586.10	48011.41
586.26	47318.61
586.42	47468.40
586.58	47828.85
586.74	47660.33
586.90	47360.74
587.06	47662.67
587.22	47962.26
587.38	47545.64
587.54	47854.59
587.70	48095.67
587.86	48039.50
588.02	47756.29
588.18	47597.13
588.34	48107.37
588.49	47866.30
588.65	47866.30
588.81	47878.00
588.97	48133.12
589.13	47849.91
589.29	47810.12
589.45	48114.39
589.61	48006.73
589.77	48053.54
589.93	47973.96
