SpectraSuite Data File
++++++++++++++++++++++++++++++++++++
Date: Fri Oct 25 11:25:44 EDT 2013
User: price-jones
Dark Spectrum Present: No
Reference Spectrum Present: No
Number of Sampled Component Spectra: 1
Spectrometers: USB2+H05261
Integration Time (usec): 100000 (USB2+H05261)
Spectra Averaged: 1 (USB2+H05261)
Boxcar Smoothing: 0 (USB2+H05261)
Correct for Electrical Dark: No (USB2+H05261)
Strobe/Lamp Enabled: No (USB2+H05261)
Correct for Detector Non-linearity: No (USB2+H05261)
Correct for Stray Light: No (USB2+H05261)
Number of Pixels in Processed Spectrum: 2048
>>>>>Begin Processed Spectral Data<<<<<
365.73	266.82
365.92	266.82
366.12	266.82
366.32	180.22
366.52	168.52
366.72	173.20
366.91	86.60
367.11	119.37
367.31	138.09
367.51	128.73
367.70	126.39
367.90	102.98
368.10	131.07
368.30	121.71
368.49	51.49
368.69	231.71
368.89	140.43
369.09	205.97
369.28	224.69
369.48	196.60
369.68	173.20
369.87	280.86
370.07	187.24
370.27	227.03
370.47	372.15
370.66	538.32
370.86	699.82
371.06	688.12
371.25	697.48
371.45	648.33
371.65	718.54
371.84	617.90
372.04	723.23
372.24	711.52
372.44	674.07
372.63	748.97
372.83	777.06
373.03	697.48
373.22	770.04
373.42	763.01
373.62	681.10
373.81	781.74
374.01	926.85
374.21	800.46
374.40	889.40
374.60	812.17
374.79	835.57
374.99	884.72
375.19	880.04
375.38	858.98
375.58	840.25
375.78	863.66
375.97	917.49
376.17	861.32
376.37	882.38
376.56	854.30
376.76	805.14
376.95	873.02
377.15	903.45
377.35	807.48
377.54	957.28
377.74	870.68
377.93	957.28
378.13	950.26
378.33	891.74
378.52	877.70
378.72	868.34
378.91	980.68
379.11	926.85
379.31	938.55
379.50	983.02
379.70	978.34
379.89	976.00
380.09	990.05
380.28	926.85
380.48	997.07
380.68	968.98
380.87	1020.47
381.07	1020.47
381.26	1029.84
381.46	1006.43
381.65	1095.37
381.85	1032.18
382.04	1086.01
382.24	1069.62
382.43	1067.28
382.63	1048.56
382.83	1043.88
383.02	1043.88
383.22	1083.67
383.41	1076.65
383.61	1043.88
383.80	1167.93
384.00	1118.78
384.19	1170.27
384.39	1053.24
384.58	1160.91
384.78	1121.12
384.97	1151.54
385.17	1090.69
385.36	1167.93
385.56	1121.12
385.75	1165.59
385.95	1200.69
386.14	1214.74
386.34	1245.16
386.53	1228.78
386.72	1217.08
386.92	1252.19
387.11	1327.08
387.31	1268.57
387.50	1146.86
387.70	1284.95
387.89	1296.66
388.09	1282.61
388.28	1287.29
388.48	1270.91
388.67	1401.98
388.86	1338.79
389.06	1313.04
389.25	1411.34
389.45	1366.87
389.64	1315.38
389.84	1409.00
390.03	1441.77
390.22	1390.28
390.42	1369.21
390.61	1308.36
390.81	1378.58
391.00	1357.51
391.19	1336.45
391.39	1434.75
391.58	1439.43
391.78	1486.24
391.97	1472.20
392.16	1383.26
392.36	1458.15
392.55	1493.26
392.75	1544.75
392.94	1507.30
393.13	1462.83
393.33	1467.52
393.52	1551.78
393.71	1624.33
393.91	1577.52
394.10	1533.05
394.29	1586.88
394.49	1467.52
394.68	1568.16
394.88	1652.42
395.07	1668.80
395.26	1650.08
395.46	1680.50
395.65	1610.29
395.84	1659.44
396.04	1809.23
396.23	1694.55
396.42	1673.48
396.62	1741.36
396.81	1863.07
397.00	1783.49
397.19	1769.44
397.39	1682.85
397.58	1844.34
397.77	1851.36
397.97	1797.53
398.16	1867.75
398.35	1973.07
398.55	1834.98
398.74	1867.75
398.93	1818.60
399.12	1914.56
399.32	1982.43
399.51	1820.94
399.70	2010.52
399.90	1919.24
400.09	1970.73
400.28	1984.77
400.47	2076.06
400.67	2073.71
400.86	2029.24
401.05	2087.76
401.24	2218.83
401.44	2111.16
401.63	2054.99
401.82	2181.38
402.01	2120.53
402.21	2195.42
402.40	2143.93
402.59	2115.84
402.78	2211.81
402.97	2216.49
403.17	2286.70
403.36	2263.30
403.55	2303.09
403.74	2352.24
403.93	2321.81
404.13	2277.34
404.32	2307.77
404.51	2401.39
404.70	2263.30
404.89	2377.98
405.09	2499.69
405.28	2434.16
405.47	2457.56
405.66	2462.24
405.85	2478.63
406.05	2502.03
406.24	2544.16
406.43	2490.33
406.62	2588.63
406.81	2775.88
407.00	2595.65
407.20	2579.27
407.39	2541.82
407.58	2612.04
407.77	2743.11
407.96	2796.94
408.15	2810.98
408.34	2761.83
408.54	2715.02
408.73	2712.68
408.92	2789.92
409.11	2759.49
409.30	2874.18
409.49	2944.39
409.68	2839.07
409.87	2932.69
410.07	2932.69
410.26	2963.12
410.45	2935.03
410.64	2946.73
410.83	3023.97
411.02	3096.53
411.21	3089.51
411.40	3239.30
411.59	3131.64
411.78	3145.68
411.98	3253.34
412.17	3283.77
412.36	3353.99
412.55	3335.26
412.74	3251.00
412.93	3400.80
413.12	3309.52
413.31	3545.91
413.50	3482.72
413.69	3606.77
413.88	3501.44
414.07	3588.04
414.26	3599.74
414.45	3623.15
414.64	3653.58
414.83	3812.73
415.02	3810.39
415.22	3822.09
415.41	3721.45
415.60	3887.63
415.79	3974.23
415.98	3971.89
416.17	3955.51
416.36	3964.87
416.55	3920.40
416.74	4105.30
416.93	3913.38
417.12	4128.70
417.31	4215.30
417.50	4145.09
417.69	4086.58
417.88	4180.20
418.07	4114.66
418.26	4320.63
418.45	4376.80
418.64	4582.77
418.83	4428.29
419.02	4449.36
419.21	4449.36
419.39	4528.94
419.58	4526.60
419.77	4498.51
419.96	4554.68
420.15	4479.79
420.34	4578.09
420.53	4599.15
420.72	4620.22
420.91	4615.54
421.10	4608.51
421.29	4795.76
421.48	4709.16
421.67	4657.67
421.86	4741.93
422.05	4681.07
422.24	4699.80
422.43	4929.17
422.61	4884.70
422.80	5121.09
422.99	4655.33
423.18	4978.32
423.37	4975.98
423.56	4873.00
423.75	5032.15
423.94	4767.67
424.13	4528.94
424.32	4882.36
424.50	5050.88
424.69	5078.96
424.88	5203.01
425.07	4961.94
425.26	4880.02
425.45	4887.04
425.64	5043.85
425.83	5043.85
426.01	4983.00
426.20	5214.71
426.39	4994.70
426.58	5006.41
426.77	5041.51
426.96	5177.26
427.15	5032.15
427.33	5261.52
427.52	5242.80
427.71	5184.29
427.90	5355.15
428.09	5259.18
428.28	5259.18
428.46	5305.99
428.65	5268.55
428.84	5430.04
429.03	5579.84
429.22	5371.53
429.40	5448.77
429.59	5345.78
429.78	5348.12
429.97	5261.52
430.16	5308.34
430.34	5582.18
430.53	5755.38
430.72	5640.69
430.91	5636.01
431.10	5584.52
431.28	5722.61
431.47	5717.93
431.66	5825.59
431.85	5722.61
432.03	5832.62
432.22	5865.38
432.41	5846.66
432.60	6052.63
432.79	5970.71
432.97	5961.34
433.16	6036.24
433.35	5989.43
433.54	6188.38
433.72	6085.39
433.91	6066.67
434.10	6092.41
434.28	6148.59
434.47	6258.59
434.66	6188.38
434.85	6237.53
435.03	6462.22
435.22	6296.04
435.41	6450.52
435.59	6384.98
435.78	6314.77
435.97	6478.60
436.16	6321.79
436.34	6431.79
436.53	6462.22
436.72	6539.46
436.90	6249.23
437.09	6682.23
437.28	6279.66
437.46	6656.48
437.65	6736.06
437.84	6532.44
438.02	6808.62
438.21	6771.17
438.40	6775.85
438.58	7026.29
438.77	7040.33
438.96	6857.77
439.14	7131.61
439.33	7012.24
439.52	7227.57
439.70	7197.15
439.89	7307.15
440.08	7323.54
440.26	7424.18
440.45	7260.34
440.63	7148.00
440.82	7454.61
441.01	7506.10
441.19	7536.52
441.38	7733.13
441.57	7595.04
441.75	7927.39
441.94	7756.54
442.12	7712.07
442.31	7978.89
442.50	7964.84
442.68	7915.69
442.87	7850.16
443.05	7918.03
443.24	8152.09
443.43	8180.17
443.61	8264.43
443.80	8648.28
443.98	8161.45
444.17	7878.24
444.35	8133.36
444.54	8341.67
444.73	8332.31
444.91	8365.07
445.10	8388.48
445.28	8255.07
445.47	8095.91
445.65	8271.45
445.84	8311.24
446.02	8358.05
446.21	8339.33
446.39	8549.98
446.58	8287.84
446.77	8463.38
446.95	8369.76
447.14	8379.12
447.32	8690.41
447.51	8355.71
447.69	8456.36
447.88	8241.03
448.06	8358.05
448.25	8472.74
448.43	8397.84
448.62	8596.79
448.80	8329.97
448.99	8772.33
449.17	8865.95
449.36	8606.15
449.54	8833.18
449.73	8858.93
449.91	8833.18
450.10	8851.91
450.28	9111.71
450.46	8837.86
450.65	9057.87
450.83	9116.39
451.02	8751.26
451.20	9062.55
451.39	9172.56
451.57	9224.05
451.76	9177.24
451.94	9357.46
452.13	9282.56
452.31	9254.48
452.49	8980.64
452.68	9310.65
452.86	9315.33
453.05	9488.53
453.23	9547.05
453.42	9172.56
453.60	9380.87
453.78	9542.36
453.97	9432.36
454.15	9549.39
454.34	9488.53
454.52	9542.36
454.70	9776.42
454.89	9729.61
455.07	9710.88
455.26	10022.17
455.44	9940.26
455.62	9926.21
455.81	9907.49
455.99	9982.38
456.17	10087.71
456.36	9870.04
456.54	10141.54
456.73	10061.96
456.91	10293.68
457.09	10303.04
457.28	10406.02
457.46	10265.59
457.64	10455.17
457.83	10576.88
458.01	10136.86
458.19	10600.29
458.38	10532.41
458.56	10518.37
458.74	10492.62
458.93	10626.03
459.11	10714.97
459.29	10712.63
459.48	10799.23
459.66	10824.98
459.84	10909.24
460.03	11215.85
460.21	10927.96
460.39	10944.34
460.57	10927.96
460.76	11283.72
460.94	11122.23
461.12	11290.74
461.31	10874.13
461.49	11232.23
461.67	11227.55
461.85	11138.61
462.04	11173.72
462.22	11679.27
462.40	11480.33
462.59	11492.03
462.77	11344.58
462.95	11550.54
463.13	11524.80
463.32	11517.78
463.50	11995.25
463.68	11576.29
463.86	11899.28
464.05	11449.90
464.23	11705.02
464.41	11964.82
464.59	11590.33
464.78	12063.12
464.96	12072.48
465.14	11800.98
465.32	12142.70
465.50	12105.25
465.69	12177.81
465.87	11997.59
466.05	12105.25
466.23	12086.53
466.41	12416.54
466.60	12346.33
466.78	12112.27
466.96	11999.93
467.14	12285.47
467.32	12341.64
467.51	12524.21
467.69	12201.21
467.87	12351.01
468.05	12699.75
468.23	12320.58
468.41	12301.86
468.60	12580.38
468.78	12802.73
468.96	12671.66
469.14	12772.30
469.32	13057.85
469.50	12723.15
469.69	12676.34
469.87	13207.64
470.05	13083.59
470.23	13158.49
470.41	13226.37
470.59	13165.51
470.77	13067.21
470.95	13111.68
471.14	13425.31
471.32	13088.28
471.50	13666.39
471.68	13668.73
471.86	13413.61
472.04	13755.33
472.22	13987.04
472.40	13596.17
472.58	13748.31
472.77	13713.20
472.95	14108.75
473.13	14466.85
473.31	13858.31
473.49	14033.85
473.67	14057.26
473.85	14277.27
474.03	14740.69
474.21	14583.88
474.39	14534.73
474.57	14448.13
474.75	14651.75
474.93	14874.10
475.12	14576.86
475.30	15061.35
475.48	14916.23
475.66	15012.20
475.84	15115.18
476.02	15499.03
476.20	15363.28
476.38	15807.98
476.56	16264.38
476.74	15714.36
476.92	15686.27
477.10	15854.79
477.28	15840.75
477.46	16027.99
477.64	16540.57
477.82	16329.92
478.00	17050.80
478.18	16563.97
478.36	16833.13
478.54	16985.27
478.72	17050.80
478.90	17132.72
479.08	17408.90
479.26	17465.08
479.44	17455.72
479.62	17809.14
479.80	17907.44
479.98	18050.21
480.16	18616.62
480.34	18183.62
480.52	18338.10
480.70	18485.55
480.88	18422.36
481.06	18654.07
481.24	18611.94
481.41	19082.39
481.59	19215.80
481.77	19482.62
481.95	19274.31
482.13	19468.58
482.31	19477.94
482.49	20313.51
482.67	19997.54
482.85	20299.47
483.03	20500.75
483.21	20587.35
483.39	20765.23
483.57	20980.56
483.74	21020.35
483.92	21310.58
484.10	21032.05
484.28	21532.93
484.46	21827.84
484.64	22256.15
484.82	21940.18
485.00	22216.36
485.18	22696.17
485.35	23028.53
485.53	22789.80
485.71	22979.38
485.89	23248.54
486.07	22857.67
486.25	23428.76
486.43	23459.19
486.61	23555.15
486.78	23772.82
486.96	23967.09
487.14	24397.74
487.32	24493.71
487.50	25010.96
487.68	24978.20
487.85	25050.75
488.03	25296.51
488.21	25949.52
488.39	25628.87
488.57	26047.82
488.75	25961.22
488.92	26125.06
489.10	26544.02
489.28	26583.80
489.46	27082.34
489.64	26448.05
489.81	27627.68
489.99	27524.70
490.17	27826.63
490.35	27920.25
490.53	28077.07
490.70	28184.73
490.88	28215.16
491.06	28531.13
491.24	28769.86
491.41	29041.37
491.59	29256.70
491.77	28961.79
491.95	29146.69
492.13	29546.92
492.30	29685.01
492.48	29628.84
492.66	30059.50
492.84	30305.26
493.01	30422.28
493.19	30225.68
493.37	30824.86
493.54	31047.21
493.72	31257.85
493.90	31428.71
494.08	31510.63
494.25	31758.73
494.43	31852.35
494.61	31868.73
494.79	31924.91
494.96	32339.18
495.14	32173.00
495.32	32987.51
495.49	32868.14
495.67	33139.65
495.85	33481.36
496.02	33472.00
496.20	34125.01
496.38	33897.98
496.55	33792.65
496.73	34817.81
496.91	34370.77
497.09	34937.18
497.26	35236.77
497.44	34749.93
497.62	35335.07
497.79	35648.70
497.97	35187.61
498.14	35784.45
498.32	35763.39
498.50	36304.05
498.67	36196.38
498.85	36109.78
499.03	36435.12
499.20	36474.91
499.38	36711.30
499.56	37148.98
499.73	36964.08
499.91	36968.76
500.08	37223.88
500.26	37322.18
500.44	37703.69
500.61	37633.47
500.79	37656.88
500.97	37872.21
501.14	38419.89
501.32	38012.64
501.49	38293.50
501.67	38447.98
501.84	39028.43
502.02	38604.80
502.20	39082.27
502.37	39168.87
502.55	39037.80
502.72	39428.66
502.90	39590.16
503.07	39573.78
503.25	39653.36
503.43	39459.09
503.60	40198.70
503.78	39959.97
503.95	40030.18
504.13	40259.55
504.30	40608.29
504.48	40144.87
504.65	40671.49
504.83	40547.44
505.01	41256.62
505.18	41385.35
505.36	40950.01
505.53	40751.07
505.71	41165.34
505.88	41436.84
506.06	41331.52
506.23	41757.50
506.41	41806.65
506.58	41909.63
506.76	42150.71
506.93	42415.19
507.11	41596.00
507.28	42335.61
507.46	42784.99
507.63	42689.03
507.81	43168.84
507.98	42625.84
508.16	42923.08
508.33	43189.91
508.50	43508.22
508.68	43629.93
508.85	43660.35
509.03	43723.55
509.20	43702.48
509.38	44275.91
509.55	44170.59
509.73	43915.47
509.90	44580.18
510.08	44348.47
510.25	44500.61
510.42	44968.71
510.60	44854.03
510.77	44741.68
510.95	44889.13
511.12	44975.73
511.30	45020.20
511.47	45530.44
511.64	45076.38
511.82	45509.38
511.99	45242.56
512.17	45853.44
512.34	45670.87
512.51	46085.15
512.69	46138.98
512.86	46092.17
513.04	46574.32
513.21	46396.44
513.38	46424.53
513.56	46705.39
513.73	46476.02
513.90	46728.80
514.08	46969.87
514.25	47075.19
514.43	47360.74
514.60	47147.75
514.77	47154.77
514.95	47751.61
515.12	47096.26
515.29	47334.99
515.47	47849.91
515.64	47950.56
515.81	47552.66
515.99	48203.33
516.16	48236.10
516.33	48404.62
516.51	48708.89
516.68	48299.30
516.85	48303.98
517.03	48472.49
517.20	48409.30
517.37	48762.72
517.54	48624.63
517.72	49017.84
517.89	48760.38
518.06	48980.39
518.24	48942.94
518.41	49265.94
518.58	48751.02
518.75	49038.90
518.93	49495.31
519.10	49092.74
519.27	49535.10
519.45	49422.75
519.62	49785.54
519.79	49991.50
519.96	49539.78
520.14	49883.84
520.31	50141.30
520.48	49818.30
520.65	50333.22
520.83	50595.36
521.00	50349.60
521.17	50504.08
521.34	50637.49
521.52	50564.93
521.69	50995.59
521.86	50717.07
522.03	50738.13
522.20	50908.99
522.38	51412.21
522.55	51253.05
522.72	51037.72
522.89	51173.47
523.07	51456.68
523.24	51409.87
523.41	51662.64
523.58	51033.04
523.75	51587.75
523.92	51550.30
524.10	51578.39
524.27	51789.03
524.44	51971.60
524.61	51892.02
524.78	52268.84
524.96	52006.70
525.13	52273.52
525.30	52210.33
525.47	52589.50
525.64	52577.79
525.81	52432.68
525.98	52739.29
526.16	52430.34
526.33	52502.90
526.50	52891.43
526.67	52680.78
526.84	52694.82
527.01	52582.48
527.18	52790.78
527.36	52856.32
527.53	52872.70
527.70	53034.20
527.87	53017.82
528.04	53055.26
528.21	53488.26
528.38	53029.52
528.55	53462.52
528.72	53041.22
528.89	53326.77
529.07	53396.98
529.24	53488.26
529.41	53364.21
529.58	53308.04
529.75	53579.54
529.92	53785.51
530.09	53586.57
530.26	53694.23
530.43	54028.93
530.60	53680.19
530.77	53790.19
530.94	53916.58
531.11	53961.05
531.28	53787.85
531.46	54213.83
531.63	54227.87
531.80	54054.67
531.97	54265.32
532.14	54248.94
532.31	54277.02
532.48	54459.58
532.65	54473.63
532.82	54447.88
532.99	54457.24
533.16	54403.41
533.33	54747.47
533.50	54735.77
533.67	54710.02
533.84	54621.08
534.01	54805.98
534.18	54782.58
534.35	55126.64
534.52	55018.97
534.69	55168.77
534.86	55145.36
535.03	54969.82
535.20	55196.85
535.37	55236.64
535.54	55285.79
535.71	55018.97
535.88	55323.24
536.05	55449.63
536.22	55526.87
536.38	55327.92
536.55	55482.40
536.72	55337.29
536.89	55398.14
537.06	55332.60
537.23	55524.53
537.40	55409.84
537.57	55688.37
537.74	55461.33
537.91	55828.80
538.08	55819.44
538.25	55601.77
538.42	55721.13
538.59	56205.62
538.75	55559.64
538.92	55545.59
539.09	55934.12
539.26	56172.86
539.43	56116.68
539.60	55992.64
539.77	56006.68
539.94	56388.19
540.11	56198.60
540.28	56137.75
540.44	56348.40
540.61	56479.47
540.78	56177.54
540.95	56395.21
541.12	56357.76
541.29	56416.27
541.46	56409.25
541.62	56285.20
541.79	56537.98
541.96	56170.52
542.13	56444.36
542.30	56647.99
542.47	56797.78
542.63	56800.12
542.80	57013.11
542.97	56954.60
543.14	56772.03
543.31	57174.61
543.48	57095.03
543.64	57663.78
543.81	57406.32
543.98	57338.44
544.15	57181.63
544.32	57293.97
544.48	57467.17
544.65	57277.59
544.82	57345.47
544.99	57158.22
545.16	57436.75
545.32	57406.32
545.49	57836.98
545.66	57626.33
545.83	57556.11
546.00	57741.02
546.16	57558.45
546.33	57558.45
546.50	57401.64
546.67	57591.22
546.83	57408.66
547.00	57741.02
547.17	57586.54
547.34	57712.93
547.50	57839.32
547.67	57872.09
547.84	57825.28
548.00	58003.16
548.17	58010.18
548.34	58066.35
548.51	58059.33
548.67	58054.65
548.84	58000.82
549.01	57886.13
549.18	58124.86
549.34	58092.10
549.51	58148.27
549.68	58099.12
549.84	58045.29
550.01	58489.99
550.18	58300.40
550.34	58342.53
550.51	58454.88
550.68	58230.19
550.84	58096.78
551.01	58344.87
551.18	58436.16
551.34	58468.92
551.51	58590.63
551.68	58515.73
551.84	58351.90
552.01	58494.67
552.18	58438.50
552.34	58344.87
552.51	58607.01
552.68	58422.11
552.84	58487.65
553.01	58880.86
553.18	58745.11
553.34	58581.27
553.51	58494.67
553.67	58698.30
553.84	58960.44
554.01	58918.31
554.17	58883.20
554.34	58911.28
554.51	58883.20
554.67	59021.29
554.84	59002.56
555.00	58969.80
555.17	59004.91
555.33	58941.71
555.50	58798.94
555.67	58698.30
555.83	58649.14
556.00	59000.22
556.16	59245.98
556.33	59194.49
556.50	59089.16
556.66	59135.98
556.83	58955.75
556.99	59339.60
557.16	59348.96
557.32	59241.30
557.49	59416.84
557.65	59199.17
557.82	59360.67
557.98	59388.75
558.15	59278.75
558.32	59550.25
558.48	59166.40
558.65	59414.50
558.81	59524.50
558.98	59271.73
559.14	59465.99
559.31	59430.88
559.47	59580.68
559.64	59573.66
559.80	59552.59
559.97	59650.89
560.13	59416.84
560.30	59552.59
560.46	59704.73
560.63	59632.17
560.79	59709.41
560.96	59688.34
561.12	59636.85
561.29	59845.16
561.45	59742.17
561.61	59788.98
561.78	59683.66
561.94	59807.71
562.11	59746.86
562.27	59714.09
562.44	59906.01
562.60	59983.25
562.77	59891.97
562.93	59788.98
563.10	59877.93
563.26	59760.90
563.42	60238.37
563.59	59997.29
563.75	59992.61
563.92	59891.97
564.08	59903.67
564.24	60041.76
564.41	60102.62
564.57	60203.26
564.74	59877.93
564.90	60121.34
565.07	60025.38
565.23	59957.50
565.39	59793.67
565.56	60224.32
565.72	60088.57
565.88	60233.69
566.05	60156.45
566.21	60088.57
566.38	60165.81
566.54	60126.02
566.70	60324.97
566.87	60210.28
567.03	60116.66
567.19	60320.29
567.36	60154.11
567.52	60175.17
567.68	60315.61
567.85	60221.98
568.01	60353.05
568.17	60376.46
568.34	60425.61
568.50	60179.85
568.66	60069.85
568.83	60329.65
568.99	60285.18
569.15	60296.88
569.32	60268.79
569.48	60233.69
569.64	60395.18
569.81	60336.67
569.97	60107.30
570.13	60451.36
570.30	60219.64
570.46	60229.01
570.62	60289.86
570.78	60626.90
570.95	60603.49
571.11	60645.62
571.27	60186.88
571.43	60397.52
571.60	60378.80
571.76	60512.21
571.92	60718.18
572.09	60704.13
572.25	60420.93
572.41	60369.44
572.57	60521.57
572.74	60729.88
572.90	60285.18
573.06	60645.62
573.22	60355.39
573.38	60495.83
573.55	60521.57
573.71	60711.16
573.87	60516.89
574.03	60292.20
574.20	60692.43
574.36	60477.10
574.52	60917.12
574.68	60662.00
574.84	60701.79
575.01	60680.73
575.17	60631.58
575.33	60624.56
575.49	60575.40
575.65	60411.57
575.82	60612.85
575.98	60364.76
576.14	60846.91
576.30	60736.90
576.46	60622.22
576.62	60626.90
576.79	60601.15
576.95	60556.68
577.11	60858.61
577.27	60882.02
577.43	60793.07
577.59	60711.16
577.75	60638.60
577.92	60722.86
578.08	60584.77
578.24	60769.67
578.40	60713.50
578.56	60734.56
578.72	60720.52
578.88	61008.40
579.04	61099.68
579.21	60823.50
579.37	60858.61
579.53	60839.89
579.69	60732.22
579.85	60364.76
580.01	60720.52
580.17	60699.45
580.33	60872.65
580.49	60924.14
580.65	60708.82
580.82	60764.99
580.98	60790.73
581.14	60779.03
581.30	60966.27
581.46	60727.54
581.62	60711.16
581.78	60577.75
581.94	60809.46
582.10	60662.00
582.26	60807.12
582.42	60933.51
582.58	60942.87
582.74	60844.57
582.90	60823.50
583.06	60893.72
583.22	60884.36
583.38	60900.74
583.54	60910.10
583.70	60851.59
583.86	60858.61
584.02	60807.12
584.18	60793.07
584.34	60743.92
584.50	60940.53
584.66	60947.55
584.82	60755.63
584.98	60874.99
585.14	61015.43
585.30	60750.94
585.46	60954.57
585.62	60987.34
585.78	61071.60
585.94	60697.11
586.10	60945.21
586.26	60863.29
586.42	60846.91
586.58	60893.72
586.74	61022.45
586.90	60832.86
587.06	60867.97
587.22	61102.03
587.38	60797.76
587.54	61158.20
587.70	60917.12
587.86	60926.49
588.02	60755.63
588.18	61073.94
588.34	61034.15
588.49	60774.35
