SpectraSuite Data File
++++++++++++++++++++++++++++++++++++
Date: Fri Oct 25 10:44:20 EDT 2013
User: price-jones
Dark Spectrum Present: No
Reference Spectrum Present: No
Number of Sampled Component Spectra: 1
Spectrometers: USB2+H05261
Integration Time (usec): 100000 (USB2+H05261)
Spectra Averaged: 1 (USB2+H05261)
Boxcar Smoothing: 0 (USB2+H05261)
Correct for Electrical Dark: No (USB2+H05261)
Strobe/Lamp Enabled: No (USB2+H05261)
Correct for Detector Non-linearity: No (USB2+H05261)
Correct for Stray Light: No (USB2+H05261)
Number of Pixels in Processed Spectrum: 2048
>>>>>Begin Processed Spectral Data<<<<<
365.73	182.56
365.92	182.56
366.12	182.56
366.32	51.49
366.52	0.00
366.72	77.24
366.91	49.15
367.11	84.26
367.31	23.41
367.51	70.22
367.70	63.19
367.90	16.38
368.10	9.36
368.30	88.94
368.49	0.00
368.69	77.24
368.89	56.17
369.09	16.38
369.28	35.11
369.48	23.41
369.68	117.03
369.87	140.43
370.07	93.62
370.27	107.66
370.47	175.54
370.66	437.68
370.86	435.34
371.06	456.40
371.25	404.91
371.45	475.13
371.65	517.26
371.84	421.30
372.04	507.90
372.24	535.98
372.44	519.60
372.63	557.05
372.83	608.54
373.03	535.98
373.22	484.49
373.42	526.62
373.62	468.11
373.81	634.29
374.01	599.18
374.21	603.86
374.40	545.34
374.60	554.71
374.79	510.24
374.99	526.62
375.19	641.31
375.38	489.17
375.58	615.56
375.78	585.13
375.97	634.29
376.17	671.73
376.37	582.79
376.56	585.13
376.76	620.24
376.95	636.63
377.15	645.99
377.35	746.63
377.54	690.46
377.74	641.31
377.93	610.88
378.13	662.37
378.33	685.78
378.52	685.78
378.72	664.71
378.91	631.94
379.11	624.92
379.31	648.33
379.50	641.31
379.70	739.61
379.89	653.01
380.09	699.82
380.28	741.95
380.48	760.67
380.68	704.50
380.87	676.41
381.07	744.29
381.26	746.63
381.46	718.54
381.65	690.46
381.85	774.72
382.04	704.50
382.24	723.23
382.43	734.93
382.63	690.46
382.83	723.23
383.02	725.57
383.22	830.89
383.41	739.61
383.61	755.99
383.80	823.87
384.00	770.04
384.19	786.42
384.39	814.51
384.58	781.74
384.78	868.34
384.97	894.08
385.17	861.32
385.36	755.99
385.56	819.19
385.75	758.33
385.95	826.21
386.14	826.21
386.34	877.70
386.53	798.12
386.72	882.38
386.92	882.38
387.11	908.13
387.31	882.38
387.50	779.40
387.70	898.77
387.89	870.68
388.09	917.49
388.28	940.90
388.48	954.94
388.67	1036.86
388.86	983.02
389.06	943.24
389.25	961.96
389.45	1001.75
389.64	954.94
389.84	1050.90
390.03	1043.88
390.22	952.60
390.42	1034.52
390.61	938.55
390.81	1071.97
391.00	1130.48
391.19	1167.93
391.39	1071.97
391.58	1036.86
391.78	1020.47
391.97	1095.37
392.16	985.37
392.36	1107.07
392.55	1083.67
392.75	1053.24
392.94	997.07
393.13	1027.50
393.33	1027.50
393.52	1107.07
393.71	1132.82
393.91	1071.97
394.10	1172.61
394.29	1069.62
394.49	1198.35
394.68	1233.46
394.88	1210.06
395.07	1221.76
395.26	1277.93
395.46	1254.53
395.65	1228.78
395.84	1280.27
396.04	1427.73
396.23	1249.85
396.42	1144.52
396.62	1193.67
396.81	1273.25
397.00	1156.22
397.19	1263.89
397.39	1362.19
397.58	1406.66
397.77	1502.62
397.97	1467.52
398.16	1511.99
398.35	1493.26
398.55	1516.67
398.74	1533.05
398.93	1568.16
399.12	1643.06
399.32	1568.16
399.51	1650.08
399.70	1643.06
399.90	1638.38
400.09	1584.54
400.28	1696.89
400.47	1696.89
400.67	1767.10
400.86	1795.19
401.05	1769.44
401.24	1652.42
401.44	1834.98
401.63	1729.66
401.82	1760.08
402.01	1783.49
402.21	1785.83
402.40	1881.79
402.59	1839.66
402.78	1853.70
402.97	1823.28
403.17	1870.09
403.36	1834.98
403.55	1952.01
403.74	1944.99
403.93	1909.88
404.13	2008.18
404.32	1970.73
404.51	1919.24
404.70	1923.92
404.89	2001.16
405.09	2090.10
405.28	2003.50
405.47	2045.63
405.66	2033.93
405.85	1980.09
406.05	2118.18
406.24	2106.48
406.43	2097.12
406.62	2160.31
406.81	2211.81
407.00	2108.82
407.20	2087.76
407.39	2193.08
407.58	2239.89
407.77	2263.30
407.96	2228.19
408.15	2429.48
408.34	2265.64
408.54	2342.88
408.73	2260.96
408.92	2427.14
409.11	2438.84
409.30	2502.03
409.49	2392.03
409.68	2328.83
409.87	2352.24
410.07	2523.10
410.26	2480.97
410.45	2434.16
410.64	2396.71
410.83	2642.46
411.02	2724.38
411.21	2672.89
411.40	2647.15
411.59	2747.79
411.78	2736.09
411.98	2626.08
412.17	2752.47
412.36	2832.05
412.55	2787.58
412.74	2979.50
412.93	2827.37
413.12	2780.56
413.31	2855.45
413.50	2972.48
413.69	2995.89
413.88	2892.90
414.07	2939.71
414.26	3115.25
414.45	3070.78
414.64	3054.40
414.83	3143.34
415.02	3262.71
415.22	3302.50
415.41	3234.62
415.60	3136.32
415.79	3363.35
415.98	3445.27
416.17	3400.80
416.36	3368.03
416.55	3222.92
416.74	3524.85
416.93	3478.04
417.12	3456.97
417.31	3485.06
417.50	3361.01
417.69	3604.42
417.88	3665.28
418.07	3541.23
418.26	3592.72
418.45	3651.24
418.64	3721.45
418.83	3681.66
419.02	3707.41
419.21	3655.92
419.39	3812.73
419.58	3606.77
419.77	3639.53
419.96	3705.07
420.15	3698.05
420.34	3803.37
420.53	3852.52
420.72	3978.91
420.91	4070.19
421.10	3789.33
421.29	4042.11
421.48	3941.46
421.67	4091.26
421.86	3939.12
422.05	4009.34
422.24	3880.61
422.43	3997.64
422.61	4063.17
422.80	4053.81
422.99	4152.11
423.18	4168.49
423.37	4079.55
423.56	4131.05
423.75	4051.47
423.94	3960.19
424.13	3822.09
424.32	4088.92
424.50	4016.36
424.69	4124.02
424.88	4259.78
425.07	4189.56
425.26	3871.25
425.45	4016.36
425.64	4070.19
425.83	3981.25
426.01	4205.94
426.20	4107.64
426.39	4208.28
426.58	4046.79
426.77	4086.58
426.96	4077.21
427.15	4088.92
427.33	4238.71
427.52	4212.96
427.71	4334.67
427.90	4259.78
428.09	4276.16
428.28	4372.12
428.46	4299.56
428.65	4301.90
428.84	4475.10
429.03	4304.25
429.22	4278.50
429.40	4348.72
429.59	4283.18
429.78	4109.98
429.97	4028.06
430.16	4109.98
430.34	4149.77
430.53	4276.16
430.72	4278.50
430.91	4395.53
431.10	4416.59
431.28	4627.24
431.47	4774.69
431.66	4919.81
431.85	4669.37
432.03	4760.65
432.22	4847.25
432.41	4816.82
432.60	4847.25
432.79	4887.04
432.97	4933.85
433.16	5156.20
433.35	4889.38
433.54	4777.03
433.72	4926.83
433.91	4875.34
434.10	4952.57
434.28	4887.04
434.47	5156.20
434.66	5039.17
434.85	5083.64
435.03	5123.43
435.22	5048.54
435.41	5203.01
435.59	5268.55
435.78	5214.71
435.97	5254.50
436.16	5317.70
436.34	5252.16
436.53	5338.76
436.72	5537.71
436.90	5167.90
437.09	5455.79
437.28	5329.40
437.46	5226.42
437.65	5322.38
437.84	5411.32
438.02	5390.25
438.21	5341.10
438.40	5329.40
438.58	5371.53
438.77	5703.89
438.96	5565.79
439.14	5668.78
439.33	5912.19
439.52	5865.38
439.70	5724.95
439.89	6024.54
440.08	5912.19
440.26	5870.06
440.45	6001.13
440.63	6136.88
440.82	6274.98
441.01	6026.88
441.19	6239.87
441.38	6249.23
441.57	6417.75
441.75	6394.34
441.94	6597.97
442.12	6679.89
442.31	6637.76
442.50	6698.61
442.68	6569.88
442.87	6441.15
443.05	6537.12
443.24	6689.25
443.43	6771.17
443.61	6876.49
443.80	6885.86
443.98	6497.33
444.17	6455.20
444.35	6810.96
444.54	6862.45
444.73	6647.12
444.91	6817.98
445.10	6703.29
445.28	6672.87
445.47	6747.76
445.65	6696.27
445.84	6761.81
446.02	6825.00
446.21	6810.96
446.39	6853.09
446.58	6848.41
446.77	6700.95
446.95	6672.87
447.14	7019.27
447.32	6970.12
447.51	6913.94
447.69	6944.37
447.88	6965.43
448.06	6946.71
448.25	7063.74
448.43	7045.01
448.62	6963.09
448.80	6792.23
448.99	6981.82
449.17	7138.63
449.36	7005.22
449.54	7187.79
449.73	7389.07
449.91	7578.65
450.10	7356.30
450.28	7569.29
450.46	7442.90
450.65	7623.12
450.83	7559.93
451.02	7307.15
451.20	7681.64
451.39	7475.67
451.57	7545.89
451.76	7323.54
451.94	7440.56
452.13	7353.96
452.31	7302.47
452.49	7269.70
452.68	7538.87
452.86	7494.40
453.05	7372.69
453.23	7599.72
453.42	7508.44
453.60	7763.56
453.78	7812.71
453.97	7480.35
454.15	7669.94
454.34	7660.57
454.52	7765.90
454.70	7887.61
454.89	7854.84
455.07	7838.45
455.26	7805.69
455.44	7976.55
455.62	8009.31
455.81	7964.84
455.99	8135.70
456.17	8131.02
456.36	8177.83
456.54	8418.91
456.73	8444.65
456.91	8435.29
457.09	8327.63
457.28	8610.83
457.46	8344.01
457.64	8437.63
457.83	8461.04
458.01	8318.26
458.19	8542.96
458.38	8404.86
458.56	8603.81
458.74	8465.72
458.93	8580.40
459.11	8734.88
459.29	8657.64
459.48	8425.93
459.66	8603.81
459.84	8727.86
460.03	8814.46
460.21	8828.50
460.39	8692.75
460.57	8812.12
460.76	8945.53
460.94	9018.08
461.12	8812.12
461.31	8975.95
461.49	8964.25
461.67	9015.74
461.85	9006.38
462.04	9102.34
462.22	9334.06
462.40	9453.42
462.59	9118.73
462.77	9160.86
462.95	9336.40
463.13	9193.62
463.32	9252.14
463.50	9324.69
463.68	9212.35
463.86	9343.42
464.05	9371.50
464.23	9441.72
464.41	9467.47
464.59	9151.49
464.78	9397.25
464.96	9406.61
465.14	9617.26
465.32	9528.32
465.50	9633.64
465.69	9647.69
465.87	9734.29
466.05	9605.56
466.23	9521.30
466.41	9832.59
466.60	9706.20
466.78	9397.25
466.96	9568.11
467.14	9617.26
467.32	9804.50
467.51	9745.99
467.69	9579.81
467.87	9696.84
468.05	9776.42
468.23	9825.57
468.41	9542.36
468.60	9888.76
468.78	9788.12
468.96	9748.33
469.14	10214.10
469.32	10139.20
469.50	9865.36
469.69	10132.18
469.87	10099.41
470.05	10221.12
470.23	10108.77
470.41	10024.51
470.59	10052.60
470.77	10223.46
470.95	10277.29
471.14	10218.78
471.32	10319.42
471.50	10736.04
471.68	10527.73
471.86	10731.36
472.04	10768.80
472.22	11246.27
472.40	10668.16
472.58	10738.38
472.77	10855.40
472.95	11052.01
473.13	11227.55
473.31	10778.17
473.49	11066.05
473.67	11232.23
473.85	11220.53
474.03	11370.32
474.21	11468.62
474.39	11325.85
474.57	11683.95
474.75	11616.08
474.93	11517.78
475.12	11489.69
475.30	11573.95
475.48	11662.89
475.66	11552.88
475.84	11719.06
476.02	11889.92
476.20	11712.04
476.38	12095.89
476.56	12332.28
476.74	12182.49
476.92	12229.30
477.10	12067.80
477.28	12383.77
477.46	12575.70
477.64	12606.13
477.82	12695.07
478.00	13020.40
478.18	12835.50
478.36	12910.40
478.54	12894.01
478.72	13046.15
478.90	13528.30
479.08	13521.27
479.26	13488.51
479.44	13764.69
479.62	13493.19
479.80	13661.71
479.98	13834.91
480.16	14178.97
480.34	14164.92
480.52	14272.59
480.70	14375.57
480.88	14087.68
481.06	14384.93
481.24	14525.36
481.41	14661.12
481.59	15091.77
481.77	14787.50
481.95	14937.30
482.13	14986.45
482.31	15133.90
482.49	15749.46
482.67	15529.45
482.85	15559.88
483.03	15934.37
483.21	15758.83
483.39	15665.21
483.57	16018.63
483.74	16191.83
483.92	16233.96
484.10	16072.46
484.28	16163.74
484.46	16908.03
484.64	16776.96
484.82	16926.75
485.00	16699.72
485.18	16926.75
485.35	16814.41
485.53	16570.99
485.71	16538.23
485.89	16985.27
486.07	16872.92
486.25	17139.74
486.43	17542.32
486.61	17518.91
486.78	17996.38
486.96	17879.35
487.14	18202.35
487.32	18682.16
487.50	18546.40
487.68	18853.02
487.85	18867.06
488.03	18820.25
488.21	19145.58
488.39	19080.05
488.57	19489.64
488.75	19288.35
488.92	19882.85
489.10	19985.83
489.28	19995.20
489.46	20421.17
489.64	20540.54
489.81	20844.81
489.99	20554.58
490.17	20877.58
490.35	21071.84
490.53	20711.40
490.70	21280.15
490.88	21266.11
491.06	21441.65
491.24	21261.43
491.41	21530.59
491.59	21291.85
491.77	21462.71
491.95	21802.09
492.13	22136.79
492.30	22412.97
492.48	22122.74
492.66	22537.02
492.84	22520.63
493.01	22728.94
493.19	22661.07
493.37	22806.18
493.54	22838.95
493.72	23393.65
493.90	23213.43
494.08	23337.48
494.25	23723.67
494.43	23695.58
494.61	24203.48
494.79	24493.71
494.96	24273.70
495.14	24091.13
495.32	24297.10
495.49	24692.65
495.67	24655.20
495.85	24718.40
496.02	24877.55
496.20	24697.33
496.38	25212.25
496.55	25303.53
496.73	25713.13
496.91	25661.63
497.09	25837.17
497.26	26005.69
497.44	25656.95
497.62	25970.58
497.79	26118.04
497.97	26024.42
498.14	26089.95
498.32	26417.63
498.50	26607.21
498.67	26721.90
498.85	27044.89
499.03	26644.66
499.20	27047.23
499.38	27267.24
499.56	27206.39
499.73	26918.50
499.91	27545.76
500.08	27564.49
500.26	26843.60
500.44	27508.32
500.61	27513.00
500.79	27211.07
500.97	27967.06
501.14	27623.00
501.32	27896.85
501.49	28079.41
501.67	27791.52
501.84	28081.75
502.02	28250.27
502.20	28444.53
502.37	28914.98
502.55	28556.88
502.72	28709.01
502.90	28774.55
503.07	28758.16
503.25	28896.25
503.43	28718.37
503.60	28727.74
503.78	28896.25
503.95	29118.60
504.13	29336.27
504.30	29406.49
504.48	29523.52
504.65	29699.06
504.83	29694.38
505.01	30209.29
505.18	29851.19
505.36	30295.89
505.53	29731.83
505.71	30246.74
505.88	30452.71
506.06	30120.35
506.23	30525.27
506.41	30614.21
506.58	30888.05
506.76	30572.08
506.93	31189.98
507.11	30841.24
507.28	31152.53
507.46	30885.71
507.63	30707.83
507.81	31344.45
507.98	31014.44
508.16	31302.32
508.33	31386.58
508.50	31793.84
508.68	31587.87
508.85	32353.23
509.03	32165.98
509.20	32137.90
509.38	31854.69
509.55	32044.27
509.73	32013.85
509.90	32231.52
510.08	32203.43
510.25	32563.87
510.42	32568.55
510.60	32905.59
510.77	33029.64
510.95	32858.78
511.12	32678.56
511.30	33294.12
511.47	33256.67
511.64	33457.96
511.82	33729.46
511.99	32975.81
512.17	33401.79
512.34	33048.36
512.51	33464.98
512.69	33792.65
512.86	33806.70
513.04	33832.44
513.21	33710.74
513.38	33457.96
513.56	33542.22
513.73	33647.54
513.90	33958.83
514.08	34071.18
514.25	33912.02
514.43	34096.92
514.60	34511.20
514.77	34220.97
514.95	34752.27
515.12	34562.69
515.29	34562.69
515.47	34806.11
515.64	35290.60
515.81	34433.96
515.99	34574.39
516.16	34607.16
516.33	34464.39
516.51	34614.18
516.68	33694.35
516.85	33748.18
517.03	34239.70
517.20	34717.17
517.37	34955.90
517.54	35379.54
517.72	34930.16
517.89	34974.63
518.06	34909.09
518.24	34885.68
518.41	35299.96
518.58	35044.84
518.75	35405.28
518.93	35164.21
519.10	35681.47
519.27	36451.50
519.45	35555.08
519.62	36133.19
519.79	36245.54
519.96	36816.63
520.14	36535.76
520.31	35747.00
520.48	36282.98
520.65	36449.16
520.83	36783.86
521.00	36769.82
521.17	37303.46
521.34	36863.44
521.52	36608.32
521.69	37130.26
521.86	37273.03
522.03	36814.29
522.20	37008.55
522.38	37258.99
522.55	37589.00
522.72	37125.58
522.89	37228.56
523.07	37383.04
523.24	37500.06
523.41	37940.08
523.58	37801.99
523.75	38424.57
523.92	38036.05
524.10	38787.36
524.27	38251.38
524.44	37986.89
524.61	38017.32
524.78	38590.75
524.96	38773.31
525.13	38775.66
525.30	38511.17
525.47	38745.23
525.64	38501.81
525.81	38756.93
525.98	38562.67
526.16	38342.66
526.33	37869.87
526.50	38333.29
526.67	37897.95
526.84	38541.60
527.01	38014.98
527.18	38576.71
527.36	39335.04
527.53	38658.63
527.70	39225.04
527.87	39323.34
528.04	39608.89
528.21	39538.67
528.38	39210.99
528.55	39756.34
528.72	39819.53
528.89	40236.15
529.07	39721.23
529.24	39686.12
529.41	39864.00
529.58	39945.92
529.75	39459.09
529.92	39636.97
530.09	40074.65
530.26	40020.82
530.43	40135.51
530.60	40039.54
530.77	40187.00
530.94	40114.44
531.11	40091.04
531.28	40512.33
531.46	40451.48
531.63	40498.29
531.80	40275.94
531.97	40865.75
532.14	40540.42
532.31	40048.91
532.48	40093.38
532.65	40779.15
532.82	40580.21
532.99	40872.78
533.16	40879.80
533.33	40875.12
533.50	40893.84
533.67	40964.06
533.84	40704.26
534.01	40772.13
534.18	41219.17
534.35	41659.20
534.52	41118.53
534.69	41516.42
534.86	41652.17
535.03	41364.29
535.20	42036.02
535.37	42188.16
535.54	42038.36
535.71	41780.90
535.88	41832.39
536.05	41457.91
536.22	41825.37
536.38	41434.50
536.55	41378.33
536.72	41811.33
536.89	41481.31
537.06	41787.92
537.23	42066.45
537.40	41628.77
537.57	42087.51
537.74	42141.35
537.91	42045.38
538.08	42176.45
538.25	42188.16
538.42	42192.84
538.59	42054.75
538.75	42139.00
538.92	42691.37
539.09	42277.10
539.26	42635.20
539.43	42277.10
539.60	42068.79
539.77	42068.79
539.94	42574.34
540.11	42394.12
540.28	42672.65
540.44	42630.52
540.61	42326.25
540.78	42632.86
540.95	42817.76
541.12	42794.36
541.29	42763.93
541.46	42906.70
541.62	42356.67
541.79	43019.05
541.96	42784.99
542.13	42848.19
542.30	43000.32
542.47	43086.92
542.63	42855.21
542.80	43049.47
542.97	43201.61
543.14	43452.05
543.31	43522.26
543.48	43744.61
543.64	43999.73
543.81	44105.06
543.98	43606.52
544.15	43571.41
544.32	43791.42
544.48	44219.74
544.65	44039.52
544.82	44137.82
544.99	43636.95
545.16	43761.00
545.32	43847.60
545.49	44430.39
545.66	44392.94
545.83	44296.98
546.00	44194.00
546.16	44147.18
546.33	43885.04
546.50	43475.45
546.67	43723.55
546.83	44336.77
547.00	44175.27
547.17	44151.87
547.34	44287.62
547.50	44013.77
547.67	44718.28
547.84	44362.51
548.00	44753.38
548.17	44828.28
548.34	44680.83
548.51	44746.36
548.67	44957.01
548.84	44807.22
549.01	44641.04
549.18	44629.34
549.34	44994.46
549.51	45289.37
549.68	44760.40
549.84	44910.20
550.01	45085.74
550.18	44673.81
550.34	44952.33
550.51	44851.69
550.68	45104.46
550.84	44659.76
551.01	45319.79
551.18	45043.61
551.34	45116.17
551.51	45226.17
551.68	45170.00
551.84	45387.67
552.01	44783.81
552.18	45375.97
552.34	44418.69
552.51	44807.22
552.68	45088.08
552.84	45193.40
553.01	45436.82
553.18	45406.39
553.34	45565.55
553.51	45017.86
553.67	45233.19
553.84	45565.55
554.01	45525.76
554.17	45787.90
554.34	45783.22
554.51	45750.45
554.67	45951.74
554.84	46040.68
555.00	45675.55
555.17	45666.19
555.33	45914.29
555.50	45399.37
555.67	45469.59
555.83	45635.77
556.00	45418.10
556.16	46497.08
556.33	45918.97
556.50	46216.22
556.66	46066.42
556.83	45338.52
556.99	45918.97
557.16	46171.75
557.32	45841.73
557.49	46167.07
557.65	45752.79
557.82	45837.05
557.98	45617.04
558.15	46183.45
558.32	46223.24
558.48	45666.19
558.65	45813.65
558.81	45890.88
558.98	45696.62
559.14	45668.53
559.31	46248.99
559.47	46073.45
559.64	46141.32
559.80	46010.25
559.97	46340.27
560.13	45982.16
560.30	45815.99
560.46	46239.62
560.63	46337.93
560.79	46394.10
560.96	46527.51
561.12	46258.35
561.29	46679.64
561.45	46078.13
561.61	46417.50
561.78	46576.66
561.94	46569.64
562.11	46251.33
562.27	46138.98
562.44	46375.37
562.60	46738.16
562.77	46653.90
562.93	46277.07
563.10	46726.46
563.26	46150.68
563.42	46738.16
563.59	46389.42
563.75	46358.99
563.92	46391.76
564.08	46550.91
564.24	46637.51
564.41	46422.19
564.57	46862.21
564.74	46127.28
564.90	46454.95
565.07	46295.80
565.23	46438.57
565.39	46438.57
565.56	46562.62
565.72	46452.61
565.88	46389.42
566.05	46679.64
566.21	46078.13
566.38	46590.70
566.54	46478.36
566.70	46967.53
566.87	46623.47
567.03	46948.81
567.19	46890.29
567.36	46831.78
567.52	46611.77
567.68	46380.06
567.85	46522.83
568.01	46976.89
568.17	46604.75
568.34	46623.47
568.50	46848.16
568.66	46382.40
568.83	46417.50
568.99	46415.16
569.15	46759.22
569.32	46597.73
569.48	46742.84
569.64	46857.52
569.81	47058.81
569.97	46852.84
570.13	47157.11
570.30	46106.21
570.46	46600.07
570.62	46237.28
570.78	46375.37
570.95	46459.63
571.11	46815.40
571.27	46703.05
571.43	46653.90
571.60	46548.57
571.76	46417.50
571.92	46930.08
572.09	47246.05
572.25	46609.43
572.41	46829.44
572.57	46703.05
572.74	46916.04
572.90	46541.55
573.06	46834.12
573.22	46897.31
573.38	46789.65
573.55	46733.48
573.71	47159.45
573.87	46560.28
574.03	46677.30
574.20	46894.97
574.36	46974.55
574.52	46993.28
574.68	47290.52
574.84	46548.57
575.01	46902.00
575.17	46918.38
575.33	46618.79
575.49	46670.28
575.65	46876.25
575.82	46855.18
575.98	46745.18
576.14	47012.00
576.30	47065.83
576.46	46857.52
576.62	46993.28
576.79	46866.89
576.95	46831.78
577.11	46609.43
577.27	46705.39
577.43	46679.64
577.59	46773.27
577.75	46527.51
577.92	46445.59
578.08	46625.81
578.24	46333.24
578.40	46564.96
578.56	47063.49
578.72	46869.23
578.88	47206.26
579.04	47004.98
579.21	46693.69
579.37	47449.68
579.53	46927.74
579.69	46614.11
579.85	46827.10
580.01	47299.89
580.17	46768.58
580.33	47215.63
580.49	47145.41
580.65	47023.70
580.82	47117.32
580.98	46824.76
581.14	46934.76
581.30	47040.09
581.46	47196.90
581.62	47512.88
581.78	46749.86
581.94	46965.19
582.10	46768.58
582.26	46974.55
582.42	47126.69
582.58	46820.08
582.74	46906.68
582.90	46946.47
583.06	46859.87
583.22	47746.93
583.38	47107.96
583.54	47292.86
583.70	46997.96
583.86	47023.70
584.02	46733.48
584.18	47126.69
584.34	46892.63
584.50	47236.69
584.66	46731.14
584.82	46667.94
584.98	47030.72
585.14	47019.02
585.30	46990.94
585.46	47257.76
585.62	46930.08
585.78	47054.13
585.94	46464.32
586.10	47152.43
586.26	47159.45
586.42	46909.02
586.58	47166.48
586.74	46827.10
586.90	46864.55
587.06	47077.54
587.22	46810.71
587.38	46686.67
587.54	47079.88
587.70	46932.42
587.86	47325.63
588.02	47063.49
588.18	47175.84
588.34	46389.42
588.49	46361.33
588.65	46546.23
588.81	46256.01
588.97	46571.98
589.13	46195.15
589.29	46616.45
589.45	46653.90
589.61	46873.91
589.77	47117.32
