SpectraSuite Data File
++++++++++++++++++++++++++++++++++++
Date: Fri Oct 25 11:25:11 EDT 2013
User: price-jones
Dark Spectrum Present: No
Reference Spectrum Present: No
Number of Sampled Component Spectra: 1
Spectrometers: USB2+H05261
Integration Time (usec): 100000 (USB2+H05261)
Spectra Averaged: 1 (USB2+H05261)
Boxcar Smoothing: 0 (USB2+H05261)
Correct for Electrical Dark: No (USB2+H05261)
Strobe/Lamp Enabled: No (USB2+H05261)
Correct for Detector Non-linearity: No (USB2+H05261)
Correct for Stray Light: No (USB2+H05261)
Number of Pixels in Processed Spectrum: 2048
>>>>>Begin Processed Spectral Data<<<<<
365.73	259.80
365.92	259.80
366.12	259.80
366.32	177.88
366.52	131.07
366.72	140.43
366.91	133.41
367.11	140.43
367.31	159.16
367.51	142.77
367.70	149.79
367.90	170.86
368.10	35.11
368.30	133.41
368.49	112.35
368.69	166.18
368.89	201.29
369.09	203.63
369.28	114.69
369.48	154.48
369.68	238.73
369.87	198.95
370.07	250.44
370.27	257.46
370.47	332.36
370.66	599.18
370.86	636.63
371.06	631.94
371.25	638.97
371.45	706.84
371.65	685.78
371.84	657.69
372.04	685.78
372.24	662.37
372.44	746.63
372.63	720.88
372.83	732.59
373.03	809.83
373.22	657.69
373.42	777.06
373.62	823.87
373.81	835.57
374.01	777.06
374.21	823.87
374.40	858.98
374.60	912.81
374.79	786.42
374.99	847.27
375.19	844.93
375.38	866.00
375.58	781.74
375.78	908.13
375.97	847.27
376.17	901.11
376.37	866.00
376.56	854.30
376.76	868.34
376.95	875.36
377.15	819.19
377.35	887.06
377.54	938.55
377.74	856.64
377.93	889.40
378.13	910.47
378.33	1006.43
378.52	873.02
378.72	954.94
378.91	968.98
379.11	940.90
379.31	905.79
379.50	896.43
379.70	882.38
379.89	1013.45
380.09	1060.26
380.28	938.55
380.48	968.98
380.68	1008.77
380.87	945.58
381.07	1020.47
381.26	1048.56
381.46	1029.84
381.65	1022.81
381.85	1109.41
382.04	1034.52
382.24	1013.45
382.43	1048.56
382.63	1006.43
382.83	980.68
383.02	1050.90
383.22	1116.44
383.41	1071.97
383.61	1153.88
383.80	1081.33
384.00	1114.10
384.19	1167.93
384.39	1151.54
384.58	1174.95
384.78	1153.88
384.97	1111.75
385.17	1177.29
385.36	1130.48
385.56	1217.08
385.75	1170.27
385.95	1104.73
386.14	1214.74
386.34	1118.78
386.53	1128.14
386.72	1186.65
386.92	1165.59
387.11	1165.59
387.31	1256.87
387.50	1231.12
387.70	1275.59
387.89	1254.53
388.09	1259.21
388.28	1261.55
388.48	1205.38
388.67	1378.58
388.86	1263.89
389.06	1352.83
389.25	1378.58
389.45	1362.19
389.64	1385.60
389.84	1324.74
390.03	1289.64
390.22	1406.66
390.42	1385.60
390.61	1355.17
390.81	1448.79
391.00	1345.81
391.19	1458.15
391.39	1420.71
391.58	1469.86
391.78	1427.73
391.97	1504.96
392.16	1432.41
392.36	1530.71
392.55	1423.05
392.75	1530.71
392.94	1399.64
393.13	1535.39
393.33	1502.62
393.52	1490.92
393.71	1575.18
393.91	1579.86
394.10	1551.78
394.29	1598.59
394.49	1441.77
394.68	1668.80
394.88	1526.03
395.07	1666.46
395.26	1619.65
395.46	1626.67
395.65	1736.68
395.84	1652.42
396.04	1790.51
396.23	1708.59
396.42	1778.81
396.62	1727.32
396.81	1776.47
397.00	1767.10
397.19	1682.85
397.39	1844.34
397.58	1785.83
397.77	1783.49
397.97	1767.10
398.16	1750.72
398.35	1851.36
398.55	1900.52
398.74	1919.24
398.93	1881.79
399.12	1839.66
399.32	1956.69
399.51	1888.81
399.70	1980.09
399.90	2012.86
400.09	1994.14
400.28	2022.22
400.47	2036.27
400.67	2167.34
400.86	2054.99
401.05	2174.36
401.24	2094.78
401.44	2265.64
401.63	2132.23
401.82	2195.42
402.01	2160.31
402.21	2162.66
402.40	2141.59
402.59	2253.94
402.78	2106.48
402.97	2225.85
403.17	2256.28
403.36	2230.53
403.55	2242.23
403.74	2338.20
403.93	2275.00
404.13	2319.47
404.32	2356.92
404.51	2352.24
404.70	2445.86
404.89	2377.98
405.09	2476.29
405.28	2436.50
405.47	2497.35
405.66	2490.33
405.85	2586.29
406.05	2480.97
406.24	2600.34
406.43	2558.21
406.62	2670.55
406.81	2712.68
407.00	2572.25
407.20	2513.74
407.39	2693.96
407.58	2705.66
407.77	2700.98
407.96	2689.28
408.15	2670.55
408.34	2691.62
408.54	2712.68
408.73	2703.32
408.92	2722.04
409.11	2829.71
409.30	2918.65
409.49	2825.03
409.68	2892.90
409.87	2862.48
410.07	3019.29
410.26	3019.29
410.45	2958.44
410.64	2953.76
410.83	3049.72
411.02	3066.10
411.21	3096.53
411.40	3105.89
411.59	3199.51
411.78	3206.53
411.98	3295.47
412.17	3215.90
412.36	3229.94
412.55	3440.59
412.74	3398.46
412.93	3302.50
413.12	3297.81
413.31	3499.10
413.50	3361.01
413.69	3393.78
413.88	3658.26
414.07	3686.34
414.26	3676.98
414.45	3625.49
414.64	3541.23
414.83	3562.30
415.02	3714.43
415.22	3742.52
415.41	3836.14
415.60	3794.01
415.79	3747.20
415.98	3932.10
416.17	4009.34
416.36	3920.40
416.55	3934.44
416.74	3983.59
416.93	4016.36
417.12	4072.53
417.31	4170.83
417.50	4142.75
417.69	4236.37
417.88	4264.46
418.07	4360.42
418.26	4196.58
418.45	4292.54
418.64	4358.08
418.83	4369.78
419.02	4301.90
419.21	4542.98
419.39	4456.38
419.58	4299.56
419.77	4477.44
419.96	4552.34
420.15	4484.47
420.34	4550.00
420.53	4550.00
420.72	4678.73
420.91	4594.47
421.10	4634.26
421.29	4770.01
421.48	4624.90
421.67	4599.15
421.86	4631.92
422.05	4627.24
422.24	4828.53
422.43	4795.76
422.61	4730.22
422.80	5006.41
422.99	4975.98
423.18	4873.00
423.37	4954.91
423.56	4805.12
423.75	4877.68
423.94	4741.93
424.13	4610.86
424.32	4720.86
424.50	4865.97
424.69	5200.67
424.88	5046.20
425.07	4896.40
425.26	4863.63
425.45	4870.65
425.64	4882.36
425.83	4833.21
426.01	5013.43
426.20	4887.04
426.39	5064.92
426.58	4919.81
426.77	5163.22
426.96	5128.11
427.15	5074.28
427.33	5296.63
427.52	5128.11
427.71	5242.80
427.90	5160.88
428.09	5322.38
428.28	5305.99
428.46	5369.19
428.65	5287.27
428.84	5404.30
429.03	5460.47
429.22	5341.10
429.40	5423.02
429.59	5406.64
429.78	5242.80
429.97	4978.32
430.16	5451.11
430.34	5521.32
430.53	5652.39
430.72	5636.01
430.91	5640.69
431.10	5380.89
431.28	5523.66
431.47	5743.67
431.66	5699.20
431.85	5724.95
432.03	5881.77
432.22	5963.68
432.41	5963.68
432.60	5970.71
432.79	5928.58
432.97	6076.03
433.16	6008.16
433.35	5996.45
433.54	6076.03
433.72	6052.63
433.91	6008.16
434.10	6092.41
434.28	6033.90
434.47	6246.89
434.66	6134.54
434.85	6209.44
435.03	6368.60
435.22	6174.33
435.41	6424.77
435.59	6553.50
435.78	6424.77
435.97	6492.65
436.16	6312.42
436.34	6335.83
436.53	6492.65
436.72	6345.19
436.90	6502.01
437.09	6473.92
437.28	6581.59
437.46	6597.97
437.65	6558.18
437.84	6689.25
438.02	6778.19
438.21	6581.59
438.40	6766.49
438.58	6939.69
438.77	6892.88
438.96	6867.13
439.14	7066.08
439.33	7047.35
439.52	6991.18
439.70	7162.04
439.89	7372.69
440.08	7318.86
440.26	7253.32
440.45	7232.26
440.63	7353.96
440.82	7499.08
441.01	7531.84
441.19	7531.84
441.38	7646.53
441.57	7616.10
441.75	7889.95
441.94	7911.01
442.12	7779.94
442.31	7971.86
442.50	8077.19
442.68	7964.84
442.87	7983.57
443.05	7936.76
443.24	8107.62
443.43	8198.90
443.61	8203.58
443.80	8393.16
443.98	7978.89
444.17	7765.90
444.35	8215.28
444.54	8435.29
444.73	8145.06
444.91	8093.57
445.10	8266.77
445.28	8262.09
445.47	8180.17
445.65	8432.95
445.84	8388.48
446.02	8465.72
446.21	8203.58
446.39	8266.77
446.58	8400.18
446.77	8339.33
446.95	8308.90
447.14	8369.76
447.32	8421.25
447.51	8322.94
447.69	8587.43
447.88	8423.59
448.06	8243.37
448.25	8465.72
448.43	8589.77
448.62	8496.14
448.80	8695.09
448.99	8627.21
449.17	8772.33
449.36	8533.59
449.54	8594.45
449.73	8968.93
449.91	9064.89
450.10	9088.30
450.28	8945.53
450.46	9064.89
450.65	8952.55
450.83	8929.14
451.02	8865.95
451.20	8971.27
451.39	9153.84
451.57	9092.98
451.76	8835.52
451.94	9055.53
452.13	9259.16
452.31	9270.86
452.49	9195.96
452.68	9277.88
452.86	9188.94
453.05	9387.89
453.23	9221.71
453.42	8985.32
453.60	9446.40
453.78	9547.05
453.97	9535.34
454.15	9331.72
454.34	9418.32
454.52	9605.56
454.70	9551.73
454.89	9657.05
455.07	9769.40
455.26	9724.93
455.44	9682.80
455.62	9851.31
455.81	9753.01
455.99	9970.68
456.17	10068.98
456.36	9874.72
456.54	10136.86
456.73	10293.68
456.91	10359.21
457.09	10506.66
457.28	10399.00
457.46	10209.42
457.64	10588.58
457.83	10501.98
458.01	10345.17
458.19	10588.58
458.38	10518.37
458.56	10710.29
458.74	10544.11
458.93	10665.82
459.11	10803.91
459.29	10677.52
459.48	10757.10
459.66	10693.91
459.84	10892.85
460.03	10853.06
460.21	10822.64
460.39	10803.91
460.57	10808.59
460.76	10724.33
460.94	11040.31
461.12	11096.48
461.31	10984.13
461.49	11089.46
461.67	10995.84
461.85	11335.21
462.04	11375.00
462.22	11681.61
462.40	11410.11
462.59	11487.35
462.77	11683.95
462.95	11349.26
463.13	11538.84
463.32	11651.19
463.50	11531.82
463.68	11763.53
463.86	11623.10
464.05	11433.52
464.23	11625.44
464.41	11808.00
464.59	11662.89
464.78	12156.74
464.96	12095.89
465.14	11793.96
465.32	11999.93
465.50	11962.48
465.69	12135.68
465.87	12138.02
466.05	11932.05
466.23	12035.03
466.41	12182.49
466.60	12360.37
466.78	11920.35
466.96	12081.85
467.14	12229.30
467.32	12311.22
467.51	12339.30
467.69	11978.86
467.87	12360.37
468.05	12381.43
468.23	12241.00
468.41	12453.99
468.60	12627.19
468.78	12652.94
468.96	12556.97
469.14	12713.79
469.32	12791.03
469.50	12718.47
469.69	12877.63
469.87	13125.72
470.05	12940.82
470.23	13043.81
470.41	13013.38
470.59	13453.40
470.77	13029.76
470.95	13090.62
471.14	13547.02
471.32	13015.72
471.50	13493.19
471.68	13523.62
471.86	13579.79
472.04	13617.24
472.22	13984.70
472.40	13542.34
472.58	13942.57
472.77	13731.92
472.95	14120.45
473.13	14565.15
473.31	13624.26
473.49	14059.60
473.67	13994.06
473.85	13867.67
474.03	14384.93
474.21	14410.68
474.39	14438.76
474.57	14768.78
474.75	14487.92
474.93	14817.93
475.12	14869.42
475.30	14993.47
475.48	14862.40
475.66	14949.00
475.84	15096.46
476.02	15208.80
476.20	15159.65
476.38	15564.56
476.56	15758.83
476.74	15878.19
476.92	15754.15
477.10	15660.52
477.28	15906.28
477.46	16058.42
477.64	16236.30
477.82	16540.57
478.00	16683.34
478.18	16737.17
478.36	16905.69
478.54	16893.99
478.72	17060.16
478.90	17231.02
479.08	17078.89
479.26	17563.38
479.44	17511.89
479.62	17785.73
479.80	17806.80
479.98	17970.63
480.16	18375.55
480.34	18052.55
480.52	18298.31
480.70	18586.19
480.88	18279.58
481.06	18616.62
481.24	18398.95
481.41	18948.98
481.59	19353.89
481.77	19335.17
481.95	19609.01
482.13	19672.20
482.31	19606.67
482.49	19988.18
482.67	19910.94
482.85	20362.66
483.03	20599.05
483.21	20421.17
483.39	21146.74
483.57	20563.95
483.74	20924.39
483.92	21399.52
484.10	21139.72
484.28	21724.85
484.46	21942.52
484.64	22216.36
484.82	21549.31
485.00	22146.15
485.18	22450.42
485.35	22644.68
485.53	22398.93
485.71	23042.57
485.89	23513.02
486.07	22995.76
486.25	23239.18
486.43	23604.30
486.61	23836.02
486.78	23847.72
486.96	23779.84
487.14	24325.19
487.32	24390.72
487.50	24671.59
487.68	24694.99
487.85	24854.15
488.03	25432.26
488.21	25654.61
488.39	25369.07
488.57	26008.03
488.75	26139.10
488.92	26370.82
489.10	26429.33
489.28	26181.23
489.46	27349.16
489.64	26780.41
489.81	27431.08
489.99	27400.65
490.17	27564.49
490.35	27953.02
490.53	27725.99
490.70	28109.83
490.88	28144.94
491.06	28606.03
491.24	28613.05
491.41	29067.11
491.59	29041.37
491.77	28746.46
491.95	29343.30
492.13	29755.23
492.30	29827.79
492.48	29895.66
492.66	29869.92
492.84	30363.77
493.01	30558.03
493.19	30188.23
493.37	30806.13
493.54	30764.00
493.72	30995.71
493.90	31159.55
494.08	31414.67
494.25	31695.53
494.43	31894.48
494.61	32151.94
494.79	32648.13
494.96	32477.27
495.14	32222.16
495.32	32816.65
495.49	33085.81
495.67	32800.27
495.85	33362.00
496.02	33516.47
496.20	34094.58
496.38	34071.18
496.55	33593.71
496.73	34649.29
496.91	34349.70
497.09	34424.60
497.26	34862.28
497.44	34843.56
497.62	35133.78
497.79	35288.26
497.97	35239.11
498.14	35924.88
498.32	35732.96
498.50	35784.45
498.67	36285.33
498.85	36371.92
499.03	36713.64
499.20	36503.00
499.38	37008.55
499.56	36290.01
499.73	37010.89
499.91	36765.14
500.08	37310.48
500.26	37158.34
500.44	37315.16
500.61	37560.92
500.79	37195.79
500.97	37820.72
501.14	38288.82
501.32	38621.18
501.49	38335.63
501.67	37993.92
501.84	38682.03
502.02	38703.10
502.20	38925.45
502.37	38653.95
502.55	39000.35
502.72	39161.84
502.90	39611.23
503.07	39236.74
503.25	39339.72
503.43	39192.27
503.60	39782.09
503.78	40325.09
503.95	40194.02
504.13	40390.62
504.30	40002.10
504.48	40009.12
504.65	40392.97
504.83	40636.38
505.01	40985.12
505.18	40889.16
505.36	41488.34
505.53	40617.66
505.71	41244.92
505.88	41666.22
506.06	41092.79
506.23	41598.34
506.41	41413.44
506.58	41516.42
506.76	41694.30
506.93	42199.86
507.11	42003.25
507.28	42494.77
507.46	41804.31
507.63	42848.19
507.81	43016.71
507.98	42705.41
508.16	43178.20
508.33	42993.30
508.50	43262.46
508.68	43150.12
508.85	43562.05
509.03	43522.26
509.20	43676.74
509.38	44119.10
509.55	43983.35
509.73	44449.11
509.90	44287.62
510.08	44332.09
510.25	44130.80
510.42	44149.53
510.60	44949.99
510.77	44854.03
510.95	45291.71
511.12	44453.79
511.30	45223.83
511.47	45368.94
511.64	45324.47
511.82	45289.37
511.99	45427.46
512.17	45734.07
512.34	45638.11
512.51	46000.89
512.69	45998.55
512.86	46183.45
513.04	46344.95
513.21	46476.02
513.38	46305.16
513.56	46862.21
513.73	46394.10
513.90	46536.87
514.08	46209.20
514.25	46993.28
514.43	46887.95
514.60	47224.99
514.77	46834.12
514.95	47117.32
515.12	46972.21
515.29	47316.27
515.47	47653.31
515.64	48009.07
515.81	47765.65
515.99	48147.16
516.16	47896.72
516.33	47899.06
516.51	48566.12
516.68	48090.99
516.85	48437.39
517.03	48566.12
517.20	48390.58
517.37	48275.89
517.54	48636.33
517.72	49050.61
517.89	48718.25
518.06	49158.27
518.24	49059.97
518.41	49413.39
518.58	49029.54
518.75	48807.19
518.93	49530.42
519.10	49118.48
519.27	49432.11
519.45	49294.02
519.62	50012.57
519.79	49954.05
519.96	49453.18
520.14	50181.09
520.31	49787.88
520.48	50274.71
520.65	50085.12
520.83	50176.40
521.00	50555.57
521.17	50377.69
521.34	50415.14
521.52	50349.60
521.69	50300.45
521.86	50536.85
522.03	50955.80
522.20	51337.31
522.38	51133.68
522.55	51100.92
522.72	51199.22
522.89	51264.75
523.07	51365.40
523.24	51154.75
523.41	51278.80
523.58	51246.03
523.75	51922.44
523.92	51250.71
524.10	51753.93
524.27	51646.26
524.44	51866.27
524.61	51758.61
524.78	52420.98
524.96	51835.84
525.13	52126.07
525.30	52191.61
525.47	52135.43
525.64	52287.57
525.81	52413.96
525.98	52549.71
526.16	52547.37
526.33	52456.09
526.50	52814.19
526.67	52533.32
526.84	52832.91
527.01	52842.27
527.18	52844.62
527.36	52704.18
527.53	52839.93
527.70	52907.81
527.87	53322.08
528.04	52837.59
528.21	53092.71
528.38	53270.59
528.55	53366.55
528.72	52999.09
528.89	53364.21
529.07	53095.05
529.24	53275.27
529.41	53411.02
529.58	53577.20
529.75	53418.05
529.92	53322.08
530.09	53539.75
530.26	53560.82
530.43	54085.10
530.60	53750.40
530.77	53425.07
530.94	53801.89
531.11	53914.24
531.28	53867.43
531.46	53907.22
531.63	53935.30
531.80	53921.26
531.97	54185.74
532.14	54262.98
532.31	54202.13
532.48	54244.26
532.65	54216.17
532.82	54085.10
532.99	54686.62
533.16	54473.63
533.33	54508.74
533.50	54824.71
533.67	54738.11
533.84	54513.42
534.01	54239.57
534.18	54913.65
534.35	54960.46
534.52	54880.88
534.69	54974.50
534.86	55117.28
535.03	54969.82
535.20	54880.88
535.37	55119.62
535.54	55103.23
535.71	55112.59
535.88	55463.67
536.05	55461.33
536.22	55257.71
536.38	55451.97
536.55	55585.38
536.72	55526.87
536.89	55618.15
537.06	55234.30
537.23	55297.50
537.40	55311.54
537.57	55585.38
537.74	55618.15
537.91	56011.36
538.08	55817.10
538.25	55554.96
538.42	55620.49
538.59	55767.94
538.75	55484.74
538.92	55929.44
539.09	56168.18
539.26	56229.03
539.43	56128.39
539.60	56023.06
539.77	56004.34
539.94	56058.17
540.11	56060.51
540.28	56226.69
540.44	56072.21
540.61	56027.74
540.78	56268.82
540.95	56182.22
541.12	56041.79
541.29	56161.15
541.46	56545.00
541.62	56259.46
541.79	56437.34
541.96	56191.58
542.13	56446.70
542.30	56453.72
542.47	56844.59
542.63	56605.86
542.80	56673.73
542.97	56868.00
543.14	56830.55
543.31	57111.41
543.48	56935.87
543.64	57474.20
543.81	57134.82
543.98	57010.77
544.15	57195.67
544.32	57317.38
544.48	57429.72
544.65	57205.03
544.82	57282.27
544.99	57174.61
545.16	57359.51
545.32	57031.83
545.49	57467.17
545.66	57345.47
545.83	57509.30
546.00	57741.02
546.16	57509.30
546.33	57254.18
546.50	57144.18
546.67	57352.49
546.83	57375.89
547.00	57427.38
547.17	57558.45
547.34	57509.30
547.50	57954.00
547.67	57890.81
547.84	57839.32
548.00	58078.05
548.17	58106.14
548.34	57724.63
548.51	57907.19
548.67	58066.35
548.84	57937.62
549.01	58284.02
549.18	58033.58
549.34	58150.61
549.51	58092.10
549.68	58075.71
549.84	58309.77
550.01	58307.43
550.18	57958.69
550.34	58410.41
550.51	58459.56
550.68	58148.27
550.84	58330.83
551.01	58370.62
551.18	58333.17
551.34	58262.96
551.51	58403.39
551.68	58592.97
551.84	58513.39
552.01	58379.98
552.18	58485.31
552.34	58494.67
552.51	58548.50
552.68	58272.32
552.84	58527.44
553.01	58766.17
553.18	58667.87
553.34	58642.12
553.51	58670.21
553.67	58677.23
553.84	58810.64
554.01	58941.71
554.17	58972.14
554.34	58876.18
554.51	59000.22
554.67	59117.25
554.84	58850.43
555.00	58857.45
555.17	58883.20
555.33	58908.94
555.50	58665.53
555.67	58997.88
555.83	58770.85
556.00	58915.96
556.16	59288.11
556.33	59105.55
556.50	59112.57
556.66	58960.44
556.83	58796.60
556.99	59178.10
557.16	59283.43
557.32	59082.14
557.49	59515.14
557.65	59096.19
557.82	59166.40
557.98	59231.94
558.15	59208.53
558.32	59161.72
558.48	59133.63
558.65	59281.09
558.81	59384.07
558.98	59465.99
559.14	59388.75
559.31	59517.48
559.47	59531.53
559.64	59639.19
559.80	59578.34
559.97	59650.89
560.13	59482.37
560.30	59669.62
560.46	59526.84
560.63	59702.38
560.79	59678.98
560.96	59749.20
561.12	59887.29
561.29	59690.68
561.45	59676.64
561.61	59519.82
561.78	59873.24
561.94	59496.42
562.11	59552.59
562.27	59639.19
562.44	59760.90
562.60	59819.41
562.77	60055.81
562.93	59704.73
563.10	60097.94
563.26	59756.22
563.42	59915.37
563.59	59702.38
563.75	59994.95
563.92	59973.89
564.08	59803.03
564.24	59994.95
564.41	60013.68
564.57	60074.53
564.74	59866.22
564.90	59894.31
565.07	60193.90
565.23	60079.21
565.39	59894.31
565.56	60095.60
565.72	60161.13
565.88	59847.50
566.05	60011.34
566.21	59957.50
566.38	60076.87
566.54	60114.32
566.70	60303.90
566.87	60189.22
567.03	59934.10
567.19	60224.32
567.36	60006.65
567.52	60126.02
567.68	60537.96
567.85	60219.64
568.01	60074.53
568.17	60156.45
568.34	60191.56
568.50	60221.98
568.66	60051.12
568.83	60385.82
568.99	60170.49
569.15	60219.64
569.32	60275.82
569.48	60156.45
569.64	60441.99
569.81	60221.98
569.97	60097.94
570.13	60360.08
570.30	60140.07
570.46	60252.41
570.62	60170.49
570.78	60322.63
570.95	60425.61
571.11	60339.01
571.27	60367.10
571.43	60453.70
571.60	60495.83
571.76	60280.50
571.92	60320.29
572.09	60470.08
572.25	60175.17
572.41	60346.03
572.57	60692.43
572.74	60575.40
572.90	60434.97
573.06	60446.68
573.22	60666.69
573.38	60535.62
573.55	60608.17
573.71	60711.16
573.87	60378.80
574.03	60282.84
574.20	60659.66
574.36	60477.10
574.52	60516.89
574.68	60549.66
574.84	60718.18
575.01	60633.92
575.17	60519.23
575.33	60369.44
575.49	60329.65
575.65	60413.91
575.82	60549.66
575.98	60437.31
576.14	60718.18
576.30	60453.70
576.46	60554.34
576.62	60516.89
576.79	60678.39
576.95	60570.72
577.11	60664.35
577.27	60498.17
577.43	60306.24
577.59	60612.85
577.75	60547.32
577.92	60472.42
578.08	60575.40
578.24	60764.99
578.40	60727.54
578.56	60725.20
578.72	60626.90
578.88	60912.44
579.04	60818.82
579.21	60587.11
579.37	60900.74
579.53	60891.38
579.69	60481.78
579.85	60467.74
580.01	60687.75
580.17	60458.38
580.33	60659.66
580.49	60739.24
580.65	60947.55
580.82	60832.86
580.98	60718.18
581.14	60584.77
581.30	60921.80
581.46	60921.80
581.62	60750.94
581.78	60601.15
581.94	60804.78
582.10	60662.00
582.26	60903.08
582.42	60844.57
582.58	60874.99
582.74	60673.71
582.90	60753.29
583.06	60654.98
583.22	60692.43
583.38	60783.71
583.54	60764.99
583.70	60718.18
583.86	60769.67
584.02	60664.35
584.18	60804.78
584.34	60790.73
584.50	60779.03
584.66	60760.31
584.82	60821.16
584.98	61010.74
585.14	60762.65
585.30	60772.01
585.46	60835.20
585.62	60741.58
585.78	61066.92
585.94	60769.67
586.10	60647.96
586.26	60942.87
586.42	60858.61
586.58	60947.55
586.74	61043.51
586.90	60760.31
587.06	60750.94
587.22	60928.83
587.38	60678.39
587.54	61013.08
587.70	61106.71
587.86	60851.59
588.02	60788.39
588.18	61125.43
588.34	60961.59
588.49	61034.15
