SpectraSuite Data File
++++++++++++++++++++++++++++++++++++
Date: Fri Oct 25 11:26:07 EDT 2013
User: price-jones
Dark Spectrum Present: No
Reference Spectrum Present: No
Number of Sampled Component Spectra: 1
Spectrometers: USB2+H05261
Integration Time (usec): 100000 (USB2+H05261)
Spectra Averaged: 1 (USB2+H05261)
Boxcar Smoothing: 0 (USB2+H05261)
Correct for Electrical Dark: No (USB2+H05261)
Strobe/Lamp Enabled: No (USB2+H05261)
Correct for Detector Non-linearity: No (USB2+H05261)
Correct for Stray Light: No (USB2+H05261)
Number of Pixels in Processed Spectrum: 2048
>>>>>Begin Processed Spectral Data<<<<<
365.73	278.52
365.92	278.52
366.12	278.52
366.32	131.07
366.52	98.30
366.72	173.20
366.91	187.24
367.11	152.13
367.31	142.77
367.51	161.50
367.70	121.71
367.90	142.77
368.10	93.62
368.30	84.26
368.49	100.64
368.69	166.18
368.89	147.45
369.09	135.75
369.28	182.56
369.48	255.12
369.68	184.90
369.87	182.56
370.07	187.24
370.27	210.65
370.47	297.25
370.66	594.50
370.86	657.69
371.06	660.03
371.25	746.63
371.45	615.56
371.65	669.39
371.84	772.38
372.04	723.23
372.24	730.25
372.44	739.61
372.63	718.54
372.83	753.65
373.03	765.36
373.22	837.91
373.42	758.33
373.62	748.97
373.81	819.19
374.01	819.19
374.21	854.30
374.40	788.76
374.60	821.53
374.79	779.40
374.99	699.82
375.19	877.70
375.38	877.70
375.58	851.96
375.78	898.77
375.97	926.85
376.17	987.71
376.37	821.53
376.56	828.55
376.76	779.40
376.95	884.72
377.15	847.27
377.35	905.79
377.54	910.47
377.74	933.87
377.93	882.38
378.13	896.43
378.33	912.81
378.52	950.26
378.72	952.60
378.91	896.43
379.11	842.59
379.31	847.27
379.50	924.51
379.70	1064.94
379.89	997.07
380.09	1013.45
380.28	917.49
380.48	968.98
380.68	936.21
380.87	1025.15
381.07	971.32
381.26	1027.50
381.46	915.15
381.65	1095.37
381.85	1022.81
382.04	1013.45
382.24	1048.56
382.43	1029.84
382.63	990.05
382.83	1020.47
383.02	1179.63
383.22	1217.08
383.41	1055.58
383.61	1130.48
383.80	1174.95
384.00	1057.92
384.19	1064.94
384.39	1231.12
384.58	1135.16
384.78	1034.52
384.97	1156.22
385.17	1179.63
385.36	1172.61
385.56	1172.61
385.75	1153.88
385.95	1139.84
386.14	1158.57
386.34	1158.57
386.53	1144.52
386.72	1259.21
386.92	1221.76
387.11	1217.08
387.31	1212.40
387.50	1245.16
387.70	1193.67
387.89	1233.46
388.09	1167.93
388.28	1270.91
388.48	1357.51
388.67	1282.61
388.86	1338.79
389.06	1306.02
389.25	1306.02
389.45	1252.19
389.64	1387.94
389.84	1327.08
390.03	1385.60
390.22	1355.17
390.42	1299.00
390.61	1364.53
390.81	1378.58
391.00	1451.13
391.19	1467.52
391.39	1469.86
391.58	1392.62
391.78	1385.60
391.97	1434.75
392.16	1362.19
392.36	1493.26
392.55	1504.96
392.75	1500.28
392.94	1448.79
393.13	1495.60
393.33	1460.49
393.52	1535.39
393.71	1631.35
393.91	1551.78
394.10	1507.30
394.29	1621.99
394.49	1535.39
394.68	1629.01
394.88	1652.42
395.07	1661.78
395.26	1675.82
395.46	1659.44
395.65	1713.27
395.84	1694.55
396.04	1767.10
396.23	1762.42
396.42	1685.19
396.62	1781.15
396.81	1839.66
397.00	1732.00
397.19	1790.51
397.39	1902.86
397.58	1863.07
397.77	1837.32
397.97	1842.00
398.16	1839.66
398.35	1923.92
398.55	1909.88
398.74	1863.07
398.93	1928.60
399.12	1902.86
399.32	1872.43
399.51	1856.04
399.70	1994.14
399.90	1968.39
400.09	1930.94
400.28	1961.37
400.47	1998.82
400.67	2062.01
400.86	2043.29
401.05	2001.16
401.24	2064.35
401.44	2106.48
401.63	2122.87
401.82	2132.23
402.01	2085.42
402.21	2165.00
402.40	2221.17
402.59	2214.15
402.78	2146.27
402.97	2216.49
403.17	2251.60
403.36	2162.66
403.55	2349.90
403.74	2424.80
403.93	2352.24
404.13	2382.67
404.32	2340.54
404.51	2296.07
404.70	2396.71
404.89	2413.09
405.09	2492.67
405.28	2495.01
405.47	2485.65
405.66	2462.24
405.85	2597.99
406.05	2595.65
406.24	2583.95
406.43	2562.89
406.62	2649.49
406.81	2722.04
407.00	2490.33
407.20	2483.31
407.39	2605.02
407.58	2612.04
407.77	2796.94
407.96	2722.04
408.15	2792.26
408.34	2799.28
408.54	2740.77
408.73	2710.34
408.92	2810.98
409.11	2834.39
409.30	2930.35
409.49	2892.90
409.68	2876.52
409.87	2906.95
410.07	3103.55
410.26	3070.78
410.45	3063.76
410.64	3061.42
410.83	3033.33
411.02	3045.04
411.21	3173.77
411.40	3080.14
411.59	3243.98
411.78	3253.34
411.98	3115.25
412.17	3251.00
412.36	3293.13
412.55	3337.60
412.74	3412.50
412.93	3442.93
413.12	3276.75
413.31	3602.08
413.50	3534.21
413.69	3609.11
413.88	3581.02
414.07	3566.98
414.26	3651.24
414.45	3669.96
414.64	3581.02
414.83	3833.80
415.02	3758.90
415.22	3669.96
415.41	3882.95
415.60	3894.65
415.79	3847.84
415.98	3983.59
416.17	3983.59
416.36	4046.79
416.55	3962.53
416.74	4102.96
416.93	4056.15
417.12	4173.18
417.31	4042.11
417.50	4121.68
417.69	4257.43
417.88	4269.14
418.07	4341.69
418.26	4315.95
418.45	4322.97
418.64	4512.55
418.83	4547.66
419.02	4388.50
419.21	4362.76
419.39	4463.40
419.58	4437.66
419.77	4451.70
419.96	4615.54
420.15	4528.94
420.34	4601.49
420.53	4566.39
420.72	4662.35
420.91	4596.81
421.10	4828.53
421.29	4648.30
421.48	4615.54
421.67	4652.98
421.86	4798.10
422.05	4910.44
422.24	4786.40
422.43	4880.02
422.61	4898.74
422.80	4868.31
422.99	5041.51
423.18	4978.32
423.37	4910.44
423.56	4889.38
423.75	4851.93
423.94	4709.16
424.13	4493.83
424.32	4835.55
424.50	4877.68
424.69	5078.96
424.88	5062.58
425.07	4798.10
425.26	4821.50
425.45	5006.41
425.64	4997.04
425.83	5064.92
426.01	5064.92
426.20	5071.94
426.39	4980.66
426.58	5067.26
426.77	5137.48
426.96	5210.03
427.15	5203.01
427.33	5195.99
427.52	4999.38
427.71	5188.97
427.90	5149.18
428.09	5249.82
428.28	5385.57
428.46	5266.21
428.65	5245.14
428.84	5479.19
429.03	5462.81
429.22	5294.29
429.40	5404.30
429.59	5322.38
429.78	5345.78
429.97	5158.54
430.16	5359.83
430.34	5671.12
430.53	5645.37
430.72	5549.41
430.91	5680.48
431.10	5549.41
431.28	5804.53
431.47	5781.12
431.66	5954.32
431.85	5841.98
432.03	5746.02
432.22	6134.54
432.41	5916.87
432.60	5792.83
432.79	5923.90
432.97	5940.28
433.16	6115.82
433.35	5942.62
433.54	6073.69
433.72	5956.66
433.91	5980.07
434.10	6036.24
434.28	6015.18
434.47	6244.55
434.66	6104.12
434.85	6300.72
435.03	6326.47
435.22	6209.44
435.41	6541.80
435.59	6427.11
435.78	6406.05
435.97	6279.66
436.16	6200.08
436.34	6506.69
436.53	6478.60
436.72	6492.65
436.90	6511.37
437.09	6574.56
437.28	6326.47
437.46	6450.52
437.65	6619.04
437.84	6682.23
438.02	6707.98
438.21	6684.57
438.40	6719.68
438.58	6963.09
438.77	6892.88
438.96	7049.69
439.14	6991.18
439.33	7267.36
439.52	7187.79
439.70	7070.76
439.89	7222.89
440.08	7351.62
440.26	7227.57
440.45	7496.74
440.63	7372.69
440.82	7541.21
441.01	7349.28
441.19	7391.41
441.38	7599.72
441.57	7719.09
441.75	7639.51
441.94	8112.30
442.12	8095.91
442.31	7955.48
442.50	8009.31
442.68	7939.10
442.87	8128.68
443.05	8084.21
443.24	8191.88
443.43	8098.25
443.61	8049.10
443.80	8468.06
443.98	8079.53
444.17	7796.32
444.35	8212.94
444.54	8425.93
444.73	8259.75
444.91	8234.00
445.10	8250.39
445.28	8226.98
445.47	8386.14
445.65	8255.07
445.84	8470.40
446.02	8388.48
446.21	8318.26
446.39	8568.70
446.58	8573.38
446.77	8344.01
446.95	8290.18
447.14	8627.21
447.32	8524.23
447.51	8184.85
447.69	8421.25
447.88	8564.02
448.06	8589.77
448.25	8304.22
448.43	8519.55
448.62	8641.26
448.80	8470.40
448.99	8568.70
449.17	8940.85
449.36	8664.66
449.54	8739.56
449.73	8968.93
449.91	8788.71
450.10	8959.57
450.28	9116.39
450.46	8809.78
450.65	8992.34
450.83	8858.93
451.02	9174.90
451.20	9144.47
451.39	9025.11
451.57	9067.24
451.76	9097.66
451.94	9198.31
452.13	9263.84
452.31	9128.09
452.49	9064.89
452.68	9263.84
452.86	9263.84
453.05	9343.42
453.23	9420.66
453.42	9233.41
453.60	9364.48
453.78	9516.62
453.97	9298.95
454.15	9317.67
454.34	9533.00
454.52	9621.94
454.70	9486.19
454.89	9774.08
455.07	9844.29
455.26	9973.02
455.44	9966.00
455.62	9724.93
455.81	9909.83
455.99	10174.31
456.17	9919.19
456.36	10057.28
456.54	10113.45
456.73	10092.39
456.91	10490.28
457.09	10265.59
457.28	10548.79
457.46	10279.63
457.64	10504.32
457.83	10509.01
458.01	10417.72
458.19	10675.18
458.38	10656.46
458.56	10654.12
458.74	10611.99
458.93	10384.96
459.11	10544.11
459.29	10775.83
459.48	10689.23
459.66	10754.76
459.84	10860.09
460.03	10963.07
460.21	11056.69
460.39	10944.34
460.57	10757.10
460.76	11126.91
460.94	11056.69
461.12	11194.78
461.31	11108.18
461.49	11084.78
461.67	11115.20
461.85	11541.18
462.04	11220.53
462.22	11833.75
462.40	11644.17
462.59	11676.93
462.77	11281.38
462.95	11557.57
463.13	11576.29
463.32	11527.14
463.50	11690.98
463.68	11742.47
463.86	11800.98
464.05	11468.62
464.23	11817.36
464.41	11683.95
464.59	11658.21
464.78	12058.44
464.96	11833.75
465.14	11651.19
465.32	11859.49
465.50	12058.44
465.69	12201.21
465.87	12233.98
466.05	12063.12
466.23	11896.94
466.41	12159.08
466.60	12461.01
466.78	12140.36
466.96	12128.66
467.14	12180.15
467.32	12376.75
467.51	12592.08
467.69	12145.04
467.87	12210.57
468.05	12472.71
468.23	12545.27
468.41	12404.84
468.60	12564.00
468.78	12690.38
468.96	12556.97
469.14	12954.87
469.32	12924.44
469.50	12477.40
469.69	12917.42
469.87	13069.55
470.05	13036.78
470.23	12961.89
470.41	12985.29
470.59	13132.75
470.77	13135.09
470.95	13174.88
471.14	13532.98
471.32	12945.50
471.50	13757.67
471.68	13589.15
471.86	13603.19
472.04	13860.65
472.22	14071.30
472.40	13666.39
472.58	13668.73
472.77	13998.74
472.95	14129.81
473.13	14335.78
473.31	14085.34
473.49	14031.51
473.67	14010.45
473.85	14525.36
474.03	14527.71
474.21	14537.07
474.39	14644.73
474.57	14663.46
474.75	14721.97
474.93	15059.01
475.12	14672.82
475.30	14803.89
475.48	14808.57
475.66	14953.68
475.84	14895.17
476.02	15328.17
476.20	15351.57
476.38	15484.98
476.56	15805.64
476.74	15845.43
476.92	15730.74
477.10	15754.15
477.28	16133.31
477.46	16273.74
477.64	16355.66
477.82	16435.24
478.00	16882.28
478.18	16875.26
478.36	16753.55
478.54	17348.05
478.72	17064.85
478.90	17186.55
479.08	17373.80
479.26	17511.89
479.44	17591.47
479.62	17713.17
479.80	17792.75
479.98	17895.74
480.16	18520.66
480.34	18279.58
480.52	18754.71
480.70	18618.96
480.88	18492.57
481.06	18555.77
481.24	18679.82
481.41	18970.04
481.59	19061.32
481.77	19499.00
481.95	19316.44
482.13	19817.32
482.31	19775.19
482.49	20095.84
482.67	19864.13
482.85	20552.24
483.03	20519.48
483.21	20697.36
483.39	20816.72
483.57	20709.06
483.74	21226.32
483.92	21165.46
484.10	21324.62
484.28	21612.51
484.46	21944.86
484.64	22239.77
484.82	22054.87
485.00	22235.09
485.18	22588.51
485.35	22813.20
485.53	22724.26
485.71	23040.23
485.89	23239.18
486.07	23096.41
486.25	23372.59
486.43	23548.13
486.61	23681.54
486.78	24189.44
486.96	24341.57
487.14	24652.86
487.32	24584.99
487.50	24755.85
487.68	24833.08
487.85	25048.41
488.03	25233.32
488.21	25720.15
488.39	25689.72
488.57	26038.46
488.75	25926.11
488.92	26113.36
489.10	26731.26
489.28	26576.78
489.46	26778.07
489.64	26705.51
489.81	27807.90
489.99	27611.30
490.17	28194.09
490.35	28063.02
490.53	28292.40
490.70	28416.44
490.88	28039.62
491.06	28510.07
491.24	28877.53
491.41	28865.83
491.59	28929.02
491.77	29071.79
491.95	29549.26
492.13	29432.24
492.30	30089.93
492.48	29816.08
492.66	29977.58
492.84	30012.69
493.01	30639.95
493.19	30782.73
493.37	30965.29
493.54	31290.62
493.72	31412.33
493.90	31328.07
494.08	31618.30
494.25	31798.52
494.43	32093.43
494.61	32451.53
494.79	32294.71
494.96	32208.11
495.14	32385.99
495.32	33027.30
495.49	32760.48
495.67	33333.91
495.85	33294.12
496.02	33631.16
496.20	33780.95
496.38	33799.68
496.55	34029.05
496.73	34862.28
496.91	34326.30
497.09	34246.72
497.26	34972.28
497.44	34911.43
497.62	35321.02
497.79	35983.40
497.97	35379.54
498.14	35849.99
498.32	35828.92
498.50	36180.00
498.67	36458.52
498.85	36041.91
499.03	36528.74
499.20	36889.18
499.38	36692.58
499.56	36964.08
499.73	37113.87
499.91	37081.11
500.08	37427.51
500.26	36856.42
500.44	37357.29
500.61	37336.23
500.79	37551.56
500.97	37642.84
501.14	38469.04
501.32	37858.17
501.49	38419.89
501.67	38565.01
501.84	38796.72
502.02	38752.25
502.20	38988.64
502.37	38953.54
502.55	38857.57
502.72	39482.50
502.90	39276.53
503.07	39557.39
503.25	39660.38
503.43	39377.17
503.60	39810.17
503.78	39990.39
503.95	39779.74
504.13	40580.21
504.30	40109.76
504.48	40465.52
504.65	40350.84
504.83	41041.29
505.01	40748.73
505.18	40683.19
505.36	41326.84
505.53	41317.48
505.71	41312.80
505.88	41383.01
506.06	41099.81
506.23	41731.75
506.41	41631.11
506.58	42225.60
506.76	41827.71
506.93	42258.37
507.11	42014.96
507.28	42054.75
507.46	42632.86
507.63	42946.49
507.81	43274.16
507.98	43000.32
508.16	43122.03
508.33	43086.92
508.50	43222.67
508.68	43536.30
508.85	43339.70
509.03	43335.02
509.20	44048.88
509.38	43922.49
509.55	43906.11
509.73	44158.89
509.90	44149.53
510.08	44577.84
510.25	44694.87
510.42	44818.92
510.60	44694.87
510.77	45155.96
510.95	45050.63
511.12	44751.04
511.30	45397.03
511.47	44959.35
511.64	45155.96
511.82	45666.19
511.99	45411.07
512.17	45525.76
512.34	45743.43
512.51	46106.21
512.69	45921.31
512.86	46234.94
513.04	46852.84
513.21	46284.09
513.38	46735.82
513.56	46522.83
513.73	46754.54
513.90	47007.32
514.08	46539.21
514.25	47079.88
514.43	46843.48
514.60	47138.39
514.77	47342.02
514.95	47208.61
515.12	47274.14
515.29	47063.49
515.47	47760.97
515.64	47854.59
515.81	47742.25
515.99	47634.58
516.16	48332.06
516.33	48023.11
516.51	48301.64
516.68	48156.52
516.85	48552.07
517.03	48676.12
517.20	48818.89
517.37	48236.10
517.54	48762.72
517.72	48678.46
517.89	48680.80
518.06	49392.33
518.24	49127.84
518.41	49078.69
518.58	49464.88
518.75	48865.70
518.93	49263.60
519.10	49366.58
519.27	49469.56
519.45	49600.63
519.62	49656.81
519.79	49961.08
519.96	49659.15
520.14	50291.09
520.31	50071.08
520.48	50071.08
520.65	50237.26
520.83	50527.48
521.00	50672.60
521.17	50515.78
521.34	50466.63
521.52	50307.47
521.69	50679.62
521.86	50721.75
522.03	50756.86
522.20	51199.22
522.38	51547.96
522.55	50930.06
522.72	51011.98
522.89	51121.98
523.07	51440.29
523.24	51526.89
523.41	51540.94
523.58	51173.47
523.75	51559.66
523.92	51643.92
524.10	52013.73
524.27	51838.18
524.44	51711.80
524.61	51765.63
524.78	52364.81
524.96	52182.24
525.13	51922.44
525.30	52336.72
525.47	52411.62
525.64	52420.98
525.81	52362.46
525.98	52521.62
526.16	52313.31
526.33	52680.78
526.50	52992.07
526.67	52835.25
526.84	52914.83
527.01	52584.82
527.18	52868.02
527.36	52980.37
527.53	53081.01
527.70	53336.13
527.87	53497.62
528.04	53200.38
528.21	53104.41
528.38	53186.33
528.55	53347.83
528.72	52914.83
528.89	53521.03
529.07	53151.23
529.24	53282.30
529.41	53312.72
529.58	53677.85
529.75	53436.77
529.92	53757.42
530.09	53654.44
530.26	53799.55
530.43	53766.79
530.60	53387.62
530.77	53563.16
530.94	54031.27
531.11	53675.51
531.28	54042.97
531.46	54246.60
531.63	54274.68
531.80	54244.26
531.97	54232.55
532.14	54515.76
532.31	54695.98
532.48	54607.04
532.65	54408.09
532.82	54529.80
532.99	54782.58
533.16	54485.33
533.33	54726.41
533.50	54745.13
533.67	54646.83
533.84	54457.24
534.01	54695.98
534.18	54798.96
534.35	55210.90
534.52	54885.56
534.69	55042.38
534.86	55189.83
535.03	54611.72
535.20	55051.74
535.37	55278.77
535.54	55253.03
535.71	55367.71
535.88	55402.82
536.05	55372.39
536.22	55484.74
536.38	55512.83
536.55	55281.11
536.72	55344.31
536.89	55634.53
537.06	55449.63
537.23	55718.79
537.40	55285.79
537.57	55655.60
537.74	55554.96
537.91	55840.50
538.08	55842.84
538.25	55564.32
538.42	56039.45
538.59	55997.32
538.75	55882.63
538.92	56076.90
539.09	56196.26
539.26	56044.13
539.43	55910.72
539.60	56245.41
539.77	56081.58
539.94	56310.95
540.11	56250.09
540.28	56203.28
540.44	56296.91
540.61	56240.73
540.78	56184.56
540.95	56236.05
541.12	56411.59
541.29	56453.72
541.46	56355.42
541.62	56502.87
541.79	56523.94
541.96	56435.00
542.13	56402.23
542.30	56533.30
542.47	56935.87
542.63	56678.41
542.80	56666.71
542.97	57015.45
543.14	57048.22
543.31	56776.72
543.48	56947.57
543.64	57368.87
543.81	57116.09
543.98	57209.71
544.15	57272.91
544.32	57186.31
544.48	57476.54
544.65	57345.47
544.82	57378.23
544.99	57198.01
545.16	57226.10
545.32	57216.74
545.49	57591.22
545.66	57509.30
545.83	57506.96
546.00	57691.86
546.16	57420.36
546.33	57406.32
546.50	57532.71
546.67	57485.90
546.83	57338.44
547.00	57506.96
547.17	57511.64
547.34	57446.11
547.50	57909.53
547.67	58042.95
547.84	57965.71
548.00	58012.52
548.17	58145.93
548.34	57946.98
548.51	58124.86
548.67	58113.16
548.84	58038.26
549.01	58157.63
549.18	58071.03
549.34	58195.08
549.51	58199.76
549.68	58181.04
549.84	58071.03
550.01	58379.98
550.18	58319.13
550.34	58183.38
550.51	58506.37
550.68	58314.45
550.84	58087.42
551.01	58511.05
551.18	58468.92
551.34	58365.94
551.51	58337.85
551.68	58356.58
551.84	58646.80
552.01	58349.56
552.18	58649.14
552.34	58328.49
552.51	58932.35
552.68	58429.13
552.84	58553.18
553.01	58773.19
553.18	58698.30
553.34	58845.75
553.51	58651.48
553.67	58735.74
553.84	58670.21
554.01	58707.66
554.17	58958.09
554.34	58939.37
554.51	58855.11
554.67	59047.04
554.84	58899.58
555.00	59011.93
555.17	58946.39
555.33	59025.97
555.50	58841.07
555.67	58810.64
555.83	58794.26
556.00	58997.88
556.16	59267.05
556.33	59091.51
556.50	59135.98
556.66	59313.86
556.83	59072.78
556.99	59311.52
557.16	59196.83
557.32	59402.80
557.49	59271.73
557.65	59285.77
557.82	59353.65
557.98	59416.84
558.15	59128.95
558.32	59180.45
558.48	59114.91
558.65	59283.43
558.81	59309.18
558.98	59377.05
559.14	59515.14
559.31	59561.95
559.47	59433.22
559.64	59348.96
559.80	59774.94
559.97	59695.36
560.13	59374.71
560.30	59793.67
560.46	59784.30
560.63	59655.57
560.79	59573.66
560.96	59646.21
561.12	59880.27
561.29	59721.11
561.45	59711.75
561.61	59597.06
561.78	59765.58
561.94	59749.20
562.11	59678.98
562.27	59648.55
562.44	59767.92
562.60	59922.40
562.77	60018.36
562.93	59863.88
563.10	59985.59
563.26	59798.35
563.42	59753.88
563.59	60044.10
563.75	59941.12
563.92	59966.87
564.08	59821.75
564.24	60156.45
564.41	59908.35
564.57	60039.42
564.74	60116.66
564.90	59931.76
565.07	60041.76
565.23	60048.78
565.39	59875.58
565.56	60037.08
565.72	60001.97
565.88	60212.62
566.05	60095.60
566.21	59969.21
566.38	60102.62
566.54	60058.15
566.70	60273.48
566.87	60184.54
567.03	60123.68
567.19	60467.74
567.36	60296.88
567.52	60264.11
567.68	60500.51
567.85	60390.50
568.01	60514.55
568.17	60273.48
568.34	60381.14
568.50	60144.75
568.66	60257.09
568.83	60282.84
568.99	60186.88
569.15	60243.05
569.32	60327.31
569.48	60245.39
569.64	60596.47
569.81	60170.49
569.97	60322.63
570.13	60411.57
570.30	60210.28
570.46	60420.93
570.62	60233.69
570.78	60378.80
570.95	60385.82
571.11	60521.57
571.27	60299.22
571.43	60301.56
571.60	60603.49
571.76	60336.67
571.92	60294.54
572.09	60472.42
572.25	60367.10
572.41	60470.08
572.57	60500.51
572.74	60764.99
572.90	60374.12
573.06	60568.38
573.22	60355.39
573.38	60516.89
573.55	60561.36
573.71	60764.99
573.87	60617.53
574.03	60563.70
574.20	60601.15
574.36	60563.70
574.52	60743.92
574.68	60783.71
574.84	60783.71
575.01	60610.51
575.17	60610.51
575.33	60514.55
575.49	60514.55
575.65	60603.49
575.82	60669.03
575.98	60790.73
576.14	60860.95
576.30	60697.11
576.46	60715.84
576.62	60619.88
576.79	60647.96
576.95	60542.64
577.11	60601.15
577.27	60849.25
577.43	60720.52
577.59	60715.84
577.75	60568.38
577.92	60640.94
578.08	60860.95
578.24	60800.10
578.40	61017.77
578.56	60842.23
578.72	60699.45
578.88	61087.98
579.04	60891.38
579.21	60874.99
579.37	60650.30
579.53	60884.36
579.69	60786.05
579.85	60671.37
580.01	60767.33
580.17	60547.32
580.33	60750.94
580.49	60825.84
580.65	60664.35
580.82	60837.54
580.98	60704.13
581.14	60734.56
581.30	60907.76
581.46	60692.43
581.62	60889.04
581.78	60502.85
581.94	61038.83
582.10	60706.47
582.26	60746.26
582.42	60659.66
582.58	60748.60
582.74	60708.82
582.90	60697.11
583.06	60870.31
583.22	60711.16
583.38	60795.42
583.54	60624.56
583.70	60692.43
583.86	60903.08
584.02	60776.69
584.18	61242.46
584.34	61090.32
584.50	60919.46
584.66	60879.67
584.82	60666.69
584.98	61027.13
585.14	60982.66
585.30	60781.37
585.46	61179.26
585.62	60767.33
585.78	60975.64
585.94	60823.50
586.10	60821.16
586.26	60830.52
586.42	60989.68
586.58	61155.86
586.74	61064.58
586.90	60825.84
587.06	60860.95
587.22	61003.72
587.38	61024.79
587.54	61130.11
587.70	61038.83
587.86	60786.05
588.02	60919.46
588.18	61158.20
588.34	60900.74
588.49	60999.04
