SpectraSuite Data File
++++++++++++++++++++++++++++++++++++
Date: Fri Oct 25 10:44:29 EDT 2013
User: price-jones
Dark Spectrum Present: No
Reference Spectrum Present: No
Number of Sampled Component Spectra: 1
Spectrometers: USB2+H05261
Integration Time (usec): 100000 (USB2+H05261)
Spectra Averaged: 1 (USB2+H05261)
Boxcar Smoothing: 0 (USB2+H05261)
Correct for Electrical Dark: No (USB2+H05261)
Strobe/Lamp Enabled: No (USB2+H05261)
Correct for Detector Non-linearity: No (USB2+H05261)
Correct for Stray Light: No (USB2+H05261)
Number of Pixels in Processed Spectrum: 2048
>>>>>Begin Processed Spectral Data<<<<<
365.73	138.09
365.92	138.09
366.12	138.09
366.32	37.45
366.52	49.15
366.72	67.88
366.91	63.19
367.11	30.43
367.31	0.00
367.51	0.00
367.70	7.02
367.90	0.00
368.10	32.77
368.30	53.83
368.49	42.13
368.69	107.66
368.89	74.90
369.09	79.58
369.28	91.28
369.48	65.54
369.68	110.01
369.87	70.22
370.07	53.83
370.27	126.39
370.47	234.05
370.66	351.08
370.86	376.83
371.06	524.28
371.25	418.96
371.45	433.00
371.65	503.22
371.84	444.70
372.04	418.96
372.24	444.70
372.44	456.40
372.63	477.47
372.83	482.15
373.03	510.24
373.22	491.51
373.42	559.39
373.62	470.45
373.81	498.53
374.01	498.53
374.21	533.64
374.40	631.94
374.60	589.82
374.79	510.24
374.99	554.71
375.19	636.63
375.38	643.65
375.58	543.00
375.78	613.22
375.97	636.63
376.17	587.47
376.37	582.79
376.56	617.90
376.76	606.20
376.95	641.31
377.15	580.45
377.35	634.29
377.54	580.45
377.74	543.00
377.93	636.63
378.13	613.22
378.33	599.18
378.52	723.23
378.72	599.18
378.91	575.77
379.11	655.35
379.31	608.54
379.50	592.16
379.70	746.63
379.89	645.99
380.09	697.48
380.28	634.29
380.48	655.35
380.68	725.57
380.87	702.16
381.07	638.97
381.26	716.20
381.46	690.46
381.65	692.80
381.85	720.88
382.04	739.61
382.24	678.76
382.43	669.39
382.63	758.33
382.83	695.14
383.02	781.74
383.22	833.23
383.41	695.14
383.61	685.78
383.80	732.59
384.00	662.37
384.19	760.67
384.39	777.06
384.58	765.36
384.78	826.21
384.97	795.78
385.17	816.85
385.36	840.25
385.56	791.10
385.75	758.33
385.95	842.59
386.14	779.40
386.34	791.10
386.53	819.19
386.72	798.12
386.92	830.89
387.11	856.64
387.31	877.70
387.50	842.59
387.70	837.91
387.89	912.81
388.09	835.57
388.28	854.30
388.48	866.00
388.67	978.34
388.86	835.57
389.06	884.72
389.25	1025.15
389.45	1015.79
389.64	896.43
389.84	1069.62
390.03	959.62
390.22	950.26
390.42	973.66
390.61	936.21
390.81	924.51
391.00	992.39
391.19	1097.71
391.39	1081.33
391.58	1041.54
391.78	971.32
391.97	1097.71
392.16	1071.97
392.36	1008.77
392.55	1018.13
392.75	952.60
392.94	983.02
393.13	940.90
393.33	1011.11
393.52	1018.13
393.71	1048.56
393.91	1020.47
394.10	1036.86
394.29	1069.62
394.49	1102.39
394.68	1081.33
394.88	1137.50
395.07	1217.08
395.26	1210.06
395.46	1214.74
395.65	1263.89
395.84	1233.46
396.04	1205.38
396.23	1172.61
396.42	1203.04
396.62	1135.16
396.81	1142.18
397.00	1256.87
397.19	1284.95
397.39	1233.46
397.58	1392.62
397.77	1282.61
397.97	1352.83
398.16	1458.15
398.35	1418.36
398.55	1411.34
398.74	1448.79
398.93	1556.46
399.12	1394.96
399.32	1385.60
399.51	1486.24
399.70	1469.86
399.90	1448.79
400.09	1500.28
400.28	1678.16
400.47	1561.14
400.67	1556.46
400.86	1488.58
401.05	1605.61
401.24	1591.56
401.44	1554.12
401.63	1746.04
401.82	1568.16
402.01	1589.22
402.21	1687.53
402.40	1750.72
402.59	1610.29
402.78	1621.99
402.97	1774.13
403.17	1736.68
403.36	1764.76
403.55	1762.42
403.74	1893.49
403.93	1877.11
404.13	1870.09
404.32	1783.49
404.51	1842.00
404.70	1886.47
404.89	1877.11
405.09	1916.90
405.28	1849.02
405.47	1757.74
405.66	1856.04
405.85	1942.64
406.05	1909.88
406.24	1914.56
406.43	1959.03
406.62	2104.14
406.81	2129.89
407.00	2083.08
407.20	1937.96
407.39	1996.48
407.58	2010.52
407.77	2167.34
407.96	2122.87
408.15	2157.97
408.34	2080.74
408.54	2190.74
408.73	2289.04
408.92	2099.46
409.11	2275.00
409.30	2312.45
409.49	2162.66
409.68	2162.66
409.87	2165.00
410.07	2211.81
410.26	2258.62
410.45	2431.82
410.64	2445.86
410.83	2450.54
411.02	2333.51
411.21	2469.27
411.40	2363.94
411.59	2623.74
411.78	2572.25
411.98	2497.35
412.17	2499.69
412.36	2455.22
412.55	2619.06
412.74	2588.63
412.93	2644.81
413.12	2595.65
413.31	2925.67
413.50	2654.17
413.69	2799.28
413.88	2731.41
414.07	2867.16
414.26	2757.15
414.45	2864.82
414.64	3075.46
414.83	2822.69
415.02	2923.33
415.22	2916.31
415.41	3049.72
415.60	3054.40
415.79	2913.97
415.98	3143.34
416.17	3082.49
416.36	3190.15
416.55	3260.37
416.74	3091.85
416.93	3026.31
417.12	3110.57
417.31	3286.11
417.50	3248.66
417.69	3279.09
417.88	3370.37
418.07	3243.98
418.26	3417.18
418.45	3393.78
418.64	3501.44
418.83	3335.26
419.02	3513.14
419.21	3480.38
419.39	3426.54
419.58	3424.20
419.77	3300.16
419.96	3569.32
420.15	3522.51
420.34	3609.11
420.53	3595.06
420.72	3791.67
420.91	3768.26
421.10	3735.50
421.29	3618.47
421.48	3693.37
421.67	3726.13
421.86	3686.34
422.05	3698.05
422.24	3602.08
422.43	3691.02
422.61	3705.07
422.80	3833.80
422.99	3758.90
423.18	3831.46
423.37	3791.67
423.56	3913.38
423.75	3866.56
423.94	3782.31
424.13	3585.70
424.32	3662.94
424.50	3784.65
424.69	3875.93
424.88	3859.54
425.07	3735.50
425.26	3768.26
425.45	3789.33
425.64	3845.50
425.83	3908.69
426.01	3875.93
426.20	3915.72
426.39	3999.98
426.58	3990.61
426.77	3992.95
426.96	3871.25
427.15	3911.04
427.33	3911.04
427.52	4004.66
427.71	3974.23
427.90	4058.49
428.09	3978.91
428.28	3985.93
428.46	4102.96
428.65	3992.95
428.84	4016.36
429.03	4124.02
429.22	4056.15
429.40	4072.53
429.59	3983.59
429.78	3796.35
429.97	3948.48
430.16	3960.19
430.34	4018.70
430.53	4067.85
430.72	4131.05
430.91	4093.60
431.10	4409.57
431.28	4386.16
431.47	4608.51
431.66	4573.41
431.85	4489.15
432.03	4491.49
432.22	4552.34
432.41	4540.64
432.60	4538.30
432.79	4440.00
432.97	4610.86
433.16	4383.82
433.35	4437.66
433.54	4418.93
433.72	4587.45
433.91	4512.55
434.10	4662.35
434.28	4634.26
434.47	4816.82
434.66	4580.43
434.85	4826.18
435.03	4802.78
435.22	4748.95
435.41	4945.55
435.59	4894.06
435.78	4983.00
435.97	5057.90
436.16	5097.69
436.34	4933.85
436.53	5064.92
436.72	5013.43
436.90	4830.87
437.09	4997.04
437.28	5001.72
437.46	5121.09
437.65	4992.36
437.84	5116.41
438.02	4961.94
438.21	5022.79
438.40	5074.28
438.58	5277.91
438.77	5109.39
438.96	5322.38
439.14	5413.66
439.33	5509.62
439.52	5446.43
439.70	5558.77
439.89	5579.84
440.08	5434.72
440.26	5612.60
440.45	5570.48
440.63	5825.59
440.82	5853.68
441.01	5762.40
441.19	5860.70
441.38	5994.11
441.57	5846.66
441.75	5874.74
441.94	6071.35
442.12	6031.56
442.31	6239.87
442.50	6305.40
442.68	6040.92
442.87	6080.71
443.05	6153.27
443.24	6232.85
443.43	6176.67
443.61	6256.25
443.80	6377.96
443.98	6317.11
444.17	6073.69
444.35	6499.67
444.54	6319.45
444.73	6265.61
444.91	6293.70
445.10	6146.25
445.28	6282.00
445.47	6132.20
445.65	6169.65
445.84	6298.38
446.02	6384.98
446.21	6331.15
446.39	6527.75
446.58	6478.60
446.77	6504.35
446.95	6382.64
447.14	6497.33
447.32	6710.32
447.51	6431.79
447.69	6401.37
447.88	6555.84
448.06	6553.50
448.25	6413.07
448.43	6502.01
448.62	6553.50
448.80	6476.26
448.99	6567.54
449.17	6792.23
449.36	6619.04
449.54	6534.78
449.73	6916.28
449.91	7005.22
450.10	6920.96
450.28	7094.16
450.46	7056.72
450.65	6958.41
450.83	6974.80
451.02	7005.22
451.20	7136.29
451.39	7002.88
451.57	6981.82
451.76	7082.46
451.94	6918.62
452.13	7087.14
452.31	6970.12
452.49	6974.80
452.68	7187.79
452.86	6855.43
453.05	7080.12
453.23	7199.49
453.42	6949.05
453.60	7112.89
453.78	7171.40
453.97	7110.55
454.15	7239.28
454.34	7070.76
454.52	7316.51
454.70	7208.85
454.89	7417.16
455.07	7419.50
455.26	7398.43
455.44	7459.29
455.62	7581.00
455.81	7489.71
455.99	7527.16
456.17	7583.34
456.36	7581.00
456.54	7871.22
456.73	7838.45
456.91	8037.40
457.09	8063.15
457.28	8004.63
457.46	7854.84
457.64	7903.99
457.83	7974.21
458.01	7803.35
458.19	7962.50
458.38	7707.38
458.56	7997.61
458.74	7939.10
458.93	8112.30
459.11	8126.34
459.29	8023.36
459.48	8222.30
459.66	8250.39
459.84	8032.72
460.03	8217.62
460.21	8318.26
460.39	8468.06
460.57	8358.05
460.76	8374.44
460.94	8444.65
461.12	8521.89
461.31	8390.82
461.49	8458.70
461.67	8390.82
461.85	8631.90
462.04	8505.51
462.22	8716.16
462.40	8617.85
462.59	8552.32
462.77	8662.32
462.95	8746.58
463.13	8482.10
463.32	8657.64
463.50	8685.73
463.68	8718.50
463.86	8793.39
464.05	8659.98
464.23	8774.67
464.41	9050.85
464.59	8608.49
464.78	8936.17
464.96	8865.95
465.14	8903.40
465.32	9083.62
465.50	9081.28
465.69	9165.54
465.87	9100.00
466.05	9039.15
466.23	8889.35
466.41	9085.96
466.60	9195.96
466.78	9095.32
466.96	8919.78
467.14	8982.98
467.32	9240.44
467.51	9465.13
467.69	8760.63
467.87	9100.00
468.05	9287.25
468.23	9404.27
468.41	9305.97
468.60	9392.57
468.78	9441.72
468.96	9425.34
469.14	9596.20
469.32	9650.03
469.50	9172.56
469.69	9589.17
469.87	9565.77
470.05	9635.99
470.23	9479.17
470.41	9701.52
470.59	9717.90
470.77	9603.22
470.95	9893.44
471.14	9738.97
471.32	9661.73
471.50	9956.64
471.68	9692.16
471.86	9944.94
472.04	9977.70
472.22	10139.20
472.40	10047.92
472.58	10125.16
472.77	10160.27
472.95	10363.89
473.13	10569.86
473.31	10333.47
473.49	10277.29
473.67	10415.38
473.85	10494.96
474.03	10836.68
474.21	10443.47
474.39	10820.30
474.57	10785.19
474.75	10719.65
474.93	10817.96
475.12	10754.76
475.30	10998.18
475.48	10899.87
475.66	10965.41
475.84	11157.33
476.02	11023.92
476.20	11014.56
476.38	11503.73
476.56	11562.25
476.74	11328.19
476.92	11803.32
477.10	11709.70
477.28	11712.04
477.46	11831.41
477.64	12030.35
477.82	12067.80
478.00	12292.49
478.18	12058.44
478.36	12386.12
478.54	12524.21
478.72	12519.53
478.90	12477.40
479.08	12788.69
479.26	13130.41
479.44	12692.73
479.62	12999.34
479.80	12952.52
479.98	13109.34
480.16	13420.63
480.34	13170.19
480.52	13294.24
480.70	13589.15
480.88	13362.12
481.06	13357.44
481.24	13694.47
481.41	13813.84
481.59	14087.68
481.77	14157.90
481.95	13909.80
482.13	14209.39
482.31	14197.69
482.49	14501.96
482.67	14443.45
482.85	14885.81
483.03	14850.70
483.21	14864.74
483.39	15089.43
483.57	15089.43
483.74	15243.91
483.92	15201.78
484.10	15410.09
484.28	15611.37
484.46	15779.89
484.64	15992.88
484.82	15499.03
485.00	15557.54
485.18	16123.95
485.35	16252.68
485.53	15777.55
485.71	15967.13
485.89	16177.78
486.07	16278.43
486.25	16358.00
486.43	16676.32
486.61	16585.04
486.78	16936.12
486.96	16690.36
487.14	17439.33
487.32	17324.65
487.50	17666.36
487.68	17614.87
487.85	18045.53
488.03	17923.82
488.21	18396.61
488.39	18377.89
488.57	18148.51
488.75	18317.03
488.92	18953.66
489.10	18951.32
489.28	18941.96
489.46	19124.52
489.64	19211.12
489.81	19583.26
489.99	19562.20
490.17	19634.75
490.35	19927.32
490.53	19969.45
490.70	19758.80
490.88	19630.07
491.06	20638.84
491.24	20252.66
491.41	20446.92
491.59	20411.81
491.77	20517.14
491.95	20587.35
492.13	21102.27
492.30	21160.78
492.48	21275.47
492.66	21348.03
492.84	21743.58
493.01	21640.59
493.19	21675.70
493.37	21724.85
493.54	21778.68
493.72	22352.12
493.90	22225.73
494.08	22373.18
494.25	22691.49
494.43	22857.67
494.61	22567.45
494.79	23094.07
494.96	22979.38
495.14	22801.50
495.32	23311.74
495.49	23227.48
495.67	23583.24
495.85	23798.57
496.02	23709.63
496.20	24032.62
496.38	23840.70
496.55	24013.90
496.73	24432.85
496.91	24290.08
497.09	24177.73
497.26	24655.20
497.44	24386.04
497.62	24643.50
497.79	24933.73
497.97	24851.81
498.14	25001.60
498.32	25345.66
498.50	24943.09
498.67	25523.54
498.85	25514.18
499.03	25804.41
499.20	25401.83
499.38	25795.04
499.56	26216.34
499.73	26384.86
499.91	26118.04
500.08	25795.04
500.26	25516.52
500.44	25972.92
500.61	26249.11
500.79	26113.36
500.97	26101.65
501.14	26548.70
501.32	26408.26
501.49	26672.74
501.67	26768.71
501.84	26913.82
502.02	27063.61
502.20	27201.71
502.37	27321.07
502.55	27424.06
502.72	27847.69
502.90	27311.71
503.07	27545.76
503.25	27953.02
503.43	27723.65
503.60	27798.54
503.78	27674.49
503.95	27683.86
504.13	27854.72
504.30	27997.49
504.48	27899.19
504.65	28088.77
504.83	28510.07
505.01	28505.38
505.18	28854.12
505.36	28582.62
505.53	28926.68
505.71	29134.99
505.88	28980.51
506.06	29085.84
506.23	29060.09
506.41	28877.53
506.58	29336.27
506.76	29151.37
506.93	29677.99
507.11	29329.25
507.28	29860.55
507.46	29614.80
507.63	29610.12
507.81	29900.34
507.98	29635.86
508.16	29813.74
508.33	29869.92
508.50	30157.80
508.68	30307.60
508.85	30630.59
509.03	30588.46
509.20	30534.63
509.38	30773.36
509.55	30925.50
509.73	30595.48
509.90	30852.94
510.08	30801.45
510.25	30904.43
510.42	31040.18
510.60	31051.89
510.77	31407.65
510.95	31620.64
511.12	31386.58
511.30	31559.78
511.47	31859.37
511.64	31962.36
511.82	32109.81
511.99	31639.36
512.17	31807.88
512.34	31943.63
512.51	32203.43
512.69	32254.92
512.86	32346.20
513.04	32463.23
513.21	32147.26
513.38	32257.26
513.56	32720.69
513.73	32210.45
513.90	32378.97
514.08	32336.84
514.25	32727.71
514.43	32313.44
514.60	32718.35
514.77	32987.51
514.95	32973.47
515.12	32861.12
515.29	33237.95
515.47	33392.42
515.64	33481.36
515.81	33450.94
515.99	33209.86
516.16	32896.23
516.33	32982.83
516.51	33345.61
516.68	32631.75
516.85	33394.76
517.03	33036.66
517.20	33518.81
517.37	33848.83
517.54	33811.38
517.72	33446.26
517.89	33757.55
518.06	33553.92
518.24	33869.89
518.41	33724.78
518.58	34108.63
518.75	33809.04
518.93	34328.64
519.10	34031.39
519.27	35061.22
519.45	34513.54
519.62	34799.08
519.79	34913.77
519.96	34962.92
520.14	35157.19
520.31	34749.93
520.48	34822.49
520.65	34923.13
520.83	35290.60
521.00	35379.54
521.17	35398.26
521.34	35894.46
521.52	35372.52
521.69	35543.38
521.86	35974.03
522.03	35896.80
522.20	35639.34
522.38	36191.70
522.55	36088.72
522.72	35810.20
522.89	35936.59
523.07	36161.28
523.24	35700.19
523.41	36320.43
523.58	36051.27
523.75	37017.91
523.92	36940.68
524.10	36840.03
524.27	36636.41
524.44	36503.00
524.61	36528.74
524.78	37090.47
524.96	36931.31
525.13	37113.87
525.30	37469.64
525.47	37429.85
525.64	37411.12
525.81	36844.71
525.98	36893.86
526.16	36966.42
526.33	36807.26
526.50	36734.71
526.67	37043.66
526.84	37301.12
527.01	37095.15
527.18	37429.85
527.36	37684.97
527.53	37614.75
527.70	37942.42
527.87	37783.27
528.04	37832.42
528.21	38122.65
528.38	37759.86
528.55	38525.22
528.72	38335.63
528.89	38911.41
529.07	38314.57
529.24	37811.35
529.41	38328.61
529.58	38249.03
529.75	37923.70
529.92	38433.94
530.09	38611.82
530.26	38384.79
530.43	38892.68
530.60	38609.48
530.77	39051.84
530.94	38890.34
531.11	39040.14
531.28	38962.90
531.46	39262.49
531.63	39105.67
531.80	38890.34
531.97	39302.28
532.14	38775.66
532.31	38644.59
532.48	39171.21
532.65	39262.49
532.82	39192.27
532.99	39494.20
533.16	39077.58
533.33	39086.95
533.50	39763.36
533.67	39269.51
533.84	39173.55
534.01	39601.86
534.18	39452.07
534.35	39693.15
534.52	39676.76
534.69	39817.19
534.86	40128.48
535.03	39470.79
535.20	40481.91
535.37	40533.40
535.54	40353.18
535.71	40416.37
535.88	39983.37
536.05	40027.84
536.22	40428.07
536.38	40130.83
536.55	40013.80
536.72	40414.03
536.89	39807.83
537.06	40598.93
537.23	40584.89
537.40	40744.05
537.57	40760.43
537.74	40491.27
537.91	41071.72
538.08	41015.55
538.25	40371.90
538.42	40680.85
538.59	40989.80
538.75	40547.44
538.92	41036.61
539.09	40732.34
539.26	40816.60
539.43	40863.41
539.60	41221.52
539.77	40793.20
539.94	41177.04
540.11	40854.05
540.28	41544.51
540.44	41273.01
540.61	40952.35
540.78	40594.25
540.95	41359.61
541.12	41074.06
541.29	41200.45
541.46	40978.10
541.62	41352.58
541.79	41717.71
541.96	41036.61
542.13	41315.14
542.30	41155.98
542.47	41347.90
542.63	41663.88
542.80	41820.69
542.97	42218.58
543.14	42146.03
543.31	42005.59
543.48	42206.88
543.64	42749.88
543.81	42136.66
543.98	42511.15
544.15	42134.32
544.32	42330.93
544.48	43068.20
544.65	42518.17
544.82	42344.97
544.99	42401.14
545.16	42541.58
545.32	42511.15
545.49	42965.21
545.66	42710.10
545.83	42799.04
546.00	42925.42
546.16	42770.95
546.33	42836.48
546.50	42532.22
546.67	43082.24
546.83	42225.60
547.00	43199.27
547.17	42581.37
547.34	42820.10
547.50	42550.94
547.67	43234.38
547.84	42796.70
548.00	43260.12
548.17	43295.23
548.34	42876.27
548.51	43234.38
548.67	43292.89
548.84	43161.82
549.01	42927.77
549.18	43091.60
549.34	43320.98
549.51	43573.75
549.68	43704.82
549.84	43435.66
550.01	43704.82
550.18	43576.09
550.34	43714.19
550.51	43599.50
550.68	43442.68
550.84	43524.60
551.01	43835.89
551.18	43395.87
551.34	43756.32
551.51	43976.33
551.68	43800.79
551.84	43756.32
552.01	43896.75
552.18	43990.37
552.34	43957.60
552.51	44018.46
552.68	43768.02
552.84	43973.98
553.01	44058.24
553.18	43922.49
553.34	43845.26
553.51	43885.04
553.67	44395.28
553.84	44156.55
554.01	44259.53
554.17	44399.96
554.34	44718.28
554.51	44638.70
554.67	44514.65
554.84	44285.28
555.00	44201.02
555.17	43838.23
555.33	44222.08
555.50	44116.76
555.67	44222.08
555.83	44336.77
556.00	44519.33
556.16	45186.38
556.33	44203.36
556.50	43999.73
556.66	44582.52
556.83	44320.38
556.99	44678.49
557.16	44542.74
557.32	44825.94
557.49	44706.57
557.65	44414.01
557.82	44851.69
557.98	44816.58
558.15	44793.17
558.32	44334.43
558.48	44502.95
558.65	44629.34
558.81	44659.76
558.98	44430.39
559.14	44732.32
559.31	44722.96
559.47	44996.80
559.64	45022.54
559.80	44933.60
559.97	45043.61
560.13	44519.33
560.30	44961.69
560.46	45017.86
560.63	45141.91
560.79	45092.76
560.96	45579.59
561.12	45067.02
561.29	45113.83
561.45	45095.10
561.61	44914.88
561.78	44999.14
561.94	45282.34
562.11	45137.23
562.27	44945.31
562.44	45275.32
562.60	45151.27
562.77	45511.72
562.93	45287.03
563.10	45399.37
563.26	44474.86
563.42	45415.76
563.59	45408.73
563.75	45343.20
563.92	45399.37
564.08	45406.39
564.24	45504.70
564.41	45387.67
564.57	45249.58
564.74	45420.44
564.90	45404.05
565.07	45242.56
565.23	45738.75
565.39	45375.97
565.56	45263.62
565.72	45324.47
565.88	45350.22
566.05	45205.11
566.21	45235.53
566.38	45038.93
566.54	45404.05
566.70	45425.12
566.87	45935.35
567.03	45429.80
567.19	45949.40
567.36	45984.51
567.52	45729.39
567.68	45471.93
567.85	45783.22
568.01	45890.88
568.17	45375.97
568.34	45633.42
568.50	45528.10
568.66	45483.63
568.83	45287.03
568.99	45235.53
569.15	45212.13
569.32	45565.55
569.48	45619.38
569.64	45488.31
569.81	45750.45
569.97	45661.51
570.13	45549.17
570.30	45261.28
570.46	45078.72
570.62	45240.21
570.78	45357.24
570.95	44844.66
571.11	45731.73
571.27	45794.92
571.43	45425.12
571.60	45741.09
571.76	45649.81
571.92	45762.15
572.09	45668.53
572.25	45729.39
572.41	45476.61
572.57	46115.58
572.74	45705.98
572.90	45918.97
573.06	46019.61
573.22	45813.65
573.38	45783.22
573.55	45666.19
573.71	46251.33
573.87	45830.03
574.03	45844.07
574.20	45621.72
574.36	45698.96
574.52	45794.92
574.68	45682.58
574.84	45933.01
575.01	45860.46
575.17	45888.54
575.33	45556.19
575.49	45848.75
575.65	45895.56
575.82	45794.92
575.98	45553.85
576.14	45729.39
576.30	45647.47
576.46	46197.49
576.62	45717.68
576.79	45560.87
576.95	45382.99
577.11	46101.53
577.27	45481.29
577.43	45769.18
577.59	45858.12
577.75	45542.14
577.92	45776.20
578.08	45565.55
578.24	45839.39
578.40	45612.36
578.56	45799.60
578.72	45504.70
578.88	46337.93
579.04	45729.39
579.21	46026.63
579.37	45476.61
579.53	45888.54
579.69	45471.93
579.85	45773.86
580.01	45879.18
580.17	45848.75
580.33	46059.40
580.49	45895.56
580.65	45881.52
580.82	45968.12
580.98	45886.20
581.14	45546.82
581.30	46220.90
581.46	46405.80
581.62	45961.10
581.78	46281.75
581.94	45830.03
582.10	45837.05
582.26	45928.33
582.42	45443.84
582.58	45830.03
582.74	45904.93
582.90	46024.29
583.06	46150.68
583.22	46129.62
583.38	46157.70
583.54	46356.65
583.70	45933.01
583.86	45776.20
584.02	45523.42
584.18	46164.73
584.34	45991.53
584.50	45961.10
584.66	45731.73
584.82	45666.19
584.98	45865.14
585.14	45862.80
585.30	46110.89
585.46	46316.86
585.62	45825.35
585.78	45862.80
585.94	45713.00
586.10	45523.42
586.26	45886.20
586.42	45954.08
586.58	46284.09
586.74	45682.58
586.90	46096.85
587.06	45968.12
587.22	46305.16
587.38	45677.90
587.54	46103.87
587.70	46054.72
587.86	46057.06
588.02	46124.94
588.18	46344.95
588.34	45687.26
588.49	45701.30
588.65	45565.55
588.81	45340.86
588.97	45787.90
589.13	45331.50
589.29	45275.32
589.45	45696.62
589.61	45837.05
589.77	45977.48
589.93	46038.34
590.08	46178.77
