SpectraSuite Data File
++++++++++++++++++++++++++++++++++++
Date: Fri Oct 25 10:44:39 EDT 2013
User: price-jones
Dark Spectrum Present: No
Reference Spectrum Present: No
Number of Sampled Component Spectra: 1
Spectrometers: USB2+H05261
Integration Time (usec): 100000 (USB2+H05261)
Spectra Averaged: 1 (USB2+H05261)
Boxcar Smoothing: 0 (USB2+H05261)
Correct for Electrical Dark: No (USB2+H05261)
Strobe/Lamp Enabled: No (USB2+H05261)
Correct for Detector Non-linearity: No (USB2+H05261)
Correct for Stray Light: No (USB2+H05261)
Number of Pixels in Processed Spectrum: 2048
>>>>>Begin Processed Spectral Data<<<<<
365.73	105.32
365.92	105.32
366.12	105.32
366.32	32.77
366.52	32.77
366.72	51.49
366.91	35.11
367.11	0.00
367.31	42.13
367.51	44.47
367.70	56.17
367.90	60.85
368.10	93.62
368.30	30.43
368.49	56.17
368.69	53.83
368.89	28.09
369.09	56.17
369.28	44.47
369.48	60.85
369.68	86.60
369.87	95.96
370.07	112.35
370.27	128.73
370.47	184.90
370.66	409.59
370.86	341.72
371.06	468.11
371.25	510.24
371.45	470.45
371.65	526.62
371.84	465.77
372.04	372.15
372.24	409.59
372.44	491.51
372.63	465.77
372.83	514.92
373.03	461.09
373.22	489.17
373.42	491.51
373.62	505.56
373.81	440.02
374.01	505.56
374.21	498.53
374.40	592.16
374.60	596.84
374.79	566.41
374.99	454.06
375.19	526.62
375.38	512.58
375.58	524.28
375.78	554.71
375.97	589.82
376.17	564.07
376.37	634.29
376.56	603.86
376.76	507.90
376.95	580.45
377.15	571.09
377.35	596.84
377.54	566.41
377.74	575.77
377.93	533.64
378.13	599.18
378.33	636.63
378.52	582.79
378.72	550.03
378.91	615.56
379.11	566.41
379.31	538.32
379.50	554.71
379.70	615.56
379.89	690.46
380.09	643.65
380.28	622.58
380.48	603.86
380.68	657.69
380.87	603.86
381.07	631.94
381.26	592.16
381.46	592.16
381.65	547.69
381.85	650.67
382.04	648.33
382.24	603.86
382.43	674.07
382.63	725.57
382.83	716.20
383.02	704.50
383.22	695.14
383.41	594.50
383.61	723.23
383.80	772.38
384.00	744.29
384.19	669.39
384.39	791.10
384.58	784.08
384.78	716.20
384.97	755.99
385.17	758.33
385.36	758.33
385.56	676.41
385.75	669.39
385.95	685.78
386.14	786.42
386.34	711.52
386.53	725.57
386.72	734.93
386.92	821.53
387.11	786.42
387.31	798.12
387.50	772.38
387.70	809.83
387.89	807.48
388.09	842.59
388.28	699.82
388.48	777.06
388.67	765.36
388.86	753.65
389.06	835.57
389.25	875.36
389.45	901.11
389.64	908.13
389.84	931.53
390.03	915.15
390.22	959.62
390.42	891.74
390.61	926.85
390.81	964.30
391.00	945.58
391.19	929.19
391.39	924.51
391.58	898.77
391.78	978.34
391.97	889.40
392.16	924.51
392.36	985.37
392.55	959.62
392.75	905.79
392.94	901.11
393.13	978.34
393.33	931.53
393.52	919.83
393.71	966.64
393.91	1020.47
394.10	1055.58
394.29	1043.88
394.49	1048.56
394.68	1062.60
394.88	1144.52
395.07	1074.31
395.26	1053.24
395.46	1086.01
395.65	1086.01
395.84	1146.86
396.04	1078.99
396.23	1050.90
396.42	1137.50
396.62	1135.16
396.81	1125.80
397.00	1116.44
397.19	1111.75
397.39	1144.52
397.58	1200.69
397.77	1228.78
397.97	1231.12
398.16	1231.12
398.35	1296.66
398.55	1219.42
398.74	1254.53
398.93	1273.25
399.12	1371.55
399.32	1261.55
399.51	1299.00
399.70	1315.38
399.90	1437.09
400.09	1371.55
400.28	1366.87
400.47	1462.83
400.67	1394.96
400.86	1324.74
401.05	1425.39
401.24	1394.96
401.44	1411.34
401.63	1476.88
401.82	1472.20
402.01	1427.73
402.21	1514.33
402.40	1406.66
402.59	1547.09
402.78	1533.05
402.97	1607.95
403.17	1556.46
403.36	1472.20
403.55	1579.86
403.74	1593.90
403.93	1607.95
404.13	1664.12
404.32	1535.39
404.51	1561.14
404.70	1694.55
404.89	1596.25
405.09	1722.63
405.28	1715.61
405.47	1753.06
405.66	1699.23
405.85	1736.68
406.05	1825.62
406.24	1764.76
406.43	1771.79
406.62	1834.98
406.81	1907.54
407.00	1741.36
407.20	1809.23
407.39	1813.92
407.58	1834.98
407.77	1907.54
407.96	1991.80
408.15	1963.71
408.34	1895.83
408.54	1989.46
408.73	1937.96
408.92	1923.92
409.11	1994.14
409.30	1987.11
409.49	1987.11
409.68	1966.05
409.87	2005.84
410.07	2101.80
410.26	2078.40
410.45	2207.13
410.64	2111.16
410.83	2148.61
411.02	2129.89
411.21	2209.47
411.40	2186.06
411.59	2335.85
411.78	2380.32
411.98	2291.38
412.17	2448.20
412.36	2338.20
412.55	2401.39
412.74	2361.60
412.93	2345.22
413.12	2380.32
413.31	2485.65
413.50	2441.18
413.69	2583.95
413.88	2581.61
414.07	2520.76
414.26	2534.80
414.45	2558.21
414.64	2593.31
414.83	2558.21
415.02	2656.51
415.22	2722.04
415.41	2850.77
415.60	2705.66
415.79	2712.68
415.98	2871.84
416.17	2832.05
416.36	2855.45
416.55	2818.00
416.74	2902.26
416.93	2918.65
417.12	2892.90
417.31	2951.42
417.50	3108.23
417.69	3009.93
417.88	3052.06
418.07	3129.30
418.26	2981.84
418.45	3098.87
418.64	3176.11
418.83	3143.34
419.02	3222.92
419.21	3183.13
419.39	3091.85
419.58	3194.83
419.77	3126.96
419.96	3204.19
420.15	3300.16
420.34	3213.56
420.53	3215.90
420.72	3346.97
420.91	3337.60
421.10	3412.50
421.29	3456.97
421.48	3243.98
421.67	3438.25
421.86	3330.58
422.05	3297.81
422.24	3405.48
422.43	3346.97
422.61	3396.12
422.80	3529.53
422.99	3536.55
423.18	3487.40
423.37	3456.97
423.56	3433.57
423.75	3651.24
423.94	3478.04
424.13	3370.37
424.32	3316.54
424.50	3440.59
424.69	3618.47
424.88	3655.92
425.07	3510.80
425.26	3520.17
425.45	3487.40
425.64	3555.27
425.83	3454.63
426.01	3485.06
426.20	3557.61
426.39	3606.77
426.58	3576.34
426.77	3543.57
426.96	3592.72
427.15	3501.44
427.33	3681.66
427.52	3634.85
427.71	3693.37
427.90	3667.62
428.09	3709.75
428.28	3772.94
428.46	3719.11
428.65	3737.84
428.84	3868.91
429.03	3871.25
429.22	3740.18
429.40	3693.37
429.59	3775.28
429.78	3527.19
429.97	3618.47
430.16	3688.68
430.34	3796.35
430.53	3681.66
430.72	3770.60
430.91	3822.09
431.10	3974.23
431.28	4217.65
431.47	4065.51
431.66	4210.62
431.85	4117.00
432.03	4067.85
432.22	4217.65
432.41	4236.37
432.60	4140.41
432.79	4159.13
432.97	4107.64
433.16	4276.16
433.35	4205.94
433.54	4124.02
433.72	4182.54
433.91	4257.43
434.10	4297.22
434.28	4245.73
434.47	4229.35
434.66	4379.14
434.85	4418.93
435.03	4421.27
435.22	4339.35
435.41	4573.41
435.59	4451.70
435.78	4540.64
435.97	4657.67
436.16	4587.45
436.34	4620.22
436.53	4587.45
436.72	4575.75
436.90	4486.81
437.09	4615.54
437.28	4582.77
437.46	4580.43
437.65	4709.16
437.84	4711.50
438.02	4662.35
438.21	4723.20
438.40	4622.56
438.58	4849.59
438.77	4828.53
438.96	4716.18
439.14	5029.81
439.33	4978.32
439.52	4959.60
439.70	5027.47
439.89	4952.57
440.08	5048.54
440.26	5076.62
440.45	5240.46
440.63	5221.74
440.82	5406.64
441.01	5261.52
441.19	5362.17
441.38	5467.49
441.57	5359.83
441.75	5542.39
441.94	5540.05
442.12	5593.88
442.31	5671.12
442.50	5792.83
442.68	5572.82
442.87	5675.80
443.05	5659.42
443.24	5682.82
443.43	5710.91
443.61	5640.69
443.80	5820.91
443.98	5607.92
444.17	5628.99
444.35	5600.90
444.54	5776.44
444.73	5813.89
444.91	5909.85
445.10	5771.76
445.28	5813.89
445.47	5769.42
445.65	5713.25
445.84	5645.37
446.02	5813.89
446.21	6078.37
446.39	5846.66
446.58	5858.36
446.77	5874.74
446.95	5823.25
447.14	5827.93
447.32	6106.46
447.51	5872.40
447.69	5888.79
447.88	5996.45
448.06	6040.92
448.25	5998.79
448.43	6057.31
448.62	5935.60
448.80	5884.11
448.99	6029.22
449.17	6113.48
449.36	6010.50
449.54	6134.54
449.73	6324.13
449.91	6345.19
450.10	6246.89
450.28	6352.21
450.46	6382.64
450.65	6377.96
450.83	6384.98
451.02	6317.11
451.20	6312.42
451.39	6459.88
451.57	6331.15
451.76	6274.98
451.94	6394.34
452.13	6382.64
452.31	6361.58
452.49	6338.17
452.68	6551.16
452.86	6471.58
453.05	6469.24
453.23	6399.02
453.42	6443.49
453.60	6530.09
453.78	6607.33
453.97	6544.14
454.15	6621.38
454.34	6333.49
454.52	6773.51
454.70	6642.44
454.89	6799.26
455.07	6612.01
455.26	6860.11
455.44	6817.98
455.62	6930.33
455.81	6857.77
455.99	7094.16
456.17	6759.47
456.36	7019.27
456.54	7077.78
456.73	6953.73
456.91	7316.51
457.09	7208.85
457.28	7412.48
457.46	6970.12
457.64	7279.07
457.83	6995.86
458.01	7049.69
458.19	7421.84
458.38	7353.96
458.56	7386.73
458.74	7197.15
458.93	7379.71
459.11	7573.97
459.29	7410.14
459.48	7473.33
459.66	7463.97
459.84	7719.09
460.03	7660.57
460.21	7527.16
460.39	7499.08
460.57	7492.05
460.76	7524.82
460.94	7545.89
461.12	7669.94
461.31	7653.55
461.49	7655.89
461.67	7541.21
461.85	7791.64
462.04	7901.65
462.22	8121.66
462.40	7974.21
462.59	7871.22
462.77	7707.38
462.95	7854.84
463.13	7941.44
463.32	7740.15
463.50	8098.25
463.68	8149.75
463.86	8119.32
464.05	7960.16
464.23	7976.55
464.41	8168.47
464.59	7943.78
464.78	8021.02
464.96	8009.31
465.14	8149.75
465.32	8086.55
465.50	8276.13
465.69	8404.86
465.87	8236.35
466.05	8322.94
466.23	8173.15
466.41	8229.32
466.60	8498.49
466.78	8290.18
466.96	8294.86
467.14	8521.89
467.32	8491.46
467.51	8475.08
467.69	8243.37
467.87	8437.63
468.05	8594.45
468.23	8334.65
468.41	8472.74
468.60	8683.39
468.78	8585.08
468.96	8414.23
469.14	8709.13
469.32	8697.43
469.50	8461.04
469.69	8730.20
469.87	8959.57
470.05	8819.14
470.23	8844.88
470.41	8802.75
470.59	8919.78
470.77	8638.92
470.95	8922.12
471.14	9111.71
471.32	8933.82
471.50	9277.88
471.68	9186.60
471.86	9202.99
472.04	9212.35
472.22	9619.60
472.40	9362.14
472.58	9364.48
472.77	9266.18
472.95	9425.34
473.13	9685.14
473.31	9504.92
473.49	9530.66
473.67	9633.64
473.85	9488.53
474.03	9816.21
474.21	9666.41
474.39	9771.74
474.57	9870.04
474.75	10038.56
474.93	10171.97
475.12	9963.66
475.30	10111.11
475.48	10050.26
475.66	10176.65
475.84	10111.11
476.02	10361.55
476.20	10370.91
476.38	10380.28
476.56	10665.82
476.74	10413.04
476.92	10558.16
477.10	10553.48
477.28	10782.85
477.46	10857.75
477.64	10824.98
477.82	10911.58
478.00	11365.64
478.18	11414.79
478.36	11321.17
478.54	11541.18
478.72	11185.42
478.90	11463.94
479.08	11695.66
479.26	11728.42
479.44	12035.03
479.62	11880.56
479.80	11999.93
479.98	11913.33
480.16	12182.49
480.34	12163.76
480.52	12512.50
480.70	12400.16
480.88	12416.54
481.06	12456.33
481.24	12503.14
481.41	12830.82
481.59	13057.85
481.77	13107.00
481.95	12882.31
482.13	13004.02
482.31	12929.12
482.49	13610.22
482.67	13490.85
482.85	13654.69
483.03	13680.43
483.21	13650.00
483.39	13912.14
483.57	13928.53
483.74	14010.45
483.92	14167.26
484.10	14202.37
484.28	14335.78
484.46	14499.62
484.64	14918.57
484.82	14658.78
485.00	14567.49
485.18	14960.70
485.35	15206.46
485.53	14712.61
485.71	14944.32
485.89	15061.35
486.07	15112.84
486.25	15288.38
486.43	15477.96
486.61	15555.20
486.78	15812.66
486.96	15704.99
487.14	16201.19
487.32	16152.04
487.50	16421.20
487.68	16350.98
487.85	16704.40
488.03	16554.61
488.21	17001.65
488.39	17158.47
488.57	17137.40
488.75	17156.13
488.92	17549.34
489.10	17809.14
489.28	17362.09
489.46	17919.14
489.64	18050.21
489.81	18288.95
489.99	18164.90
490.17	18513.64
490.35	18555.77
490.53	18209.37
490.70	18471.51
490.88	18490.23
491.06	18778.12
491.24	18794.50
491.41	18864.72
491.59	19007.49
491.77	18827.27
491.95	19208.78
492.13	19552.84
492.30	19534.11
492.48	19875.83
492.66	19861.79
492.84	19992.86
493.01	19903.92
493.19	19889.87
493.37	20247.97
493.54	20393.09
493.72	20395.43
493.90	20695.02
494.08	20917.37
494.25	20900.98
494.43	20856.51
494.61	21219.30
494.79	21298.88
494.96	21303.56
495.14	21195.89
495.32	21331.64
495.49	21762.30
495.67	21727.19
495.85	22244.45
496.02	22197.64
496.20	22204.66
496.38	21961.25
496.55	22391.91
496.73	22796.82
496.91	22731.28
497.09	22810.86
497.26	22930.23
497.44	22813.20
497.62	22845.97
497.79	23101.09
497.97	23070.66
498.14	22953.63
498.32	23449.83
498.50	23754.10
498.67	23922.62
498.85	23365.57
499.03	24154.33
499.20	23754.10
499.38	24334.55
499.56	24217.52
499.73	24446.90
499.91	24379.02
500.08	24620.10
500.26	24105.18
500.44	24254.97
500.61	24601.37
500.79	24470.30
500.97	24823.72
501.14	24790.95
501.32	25193.53
501.49	25081.18
501.67	25032.03
501.84	25245.02
502.02	25130.33
502.20	25425.24
502.37	25312.89
502.55	25507.16
502.72	25535.24
502.90	25656.95
503.07	25546.95
503.25	25872.28
503.43	26038.46
503.60	26352.09
503.78	25724.83
503.95	25961.22
504.13	26071.23
504.30	26230.38
504.48	26597.85
504.65	26298.26
504.83	26813.18
505.01	26799.13
505.18	26677.43
505.36	26616.57
505.53	26749.98
505.71	26822.54
505.88	26995.74
506.06	26986.38
506.23	27632.36
506.41	27072.98
506.58	27353.84
506.76	27208.73
506.93	27391.29
507.11	27852.38
507.28	27414.69
507.46	27824.29
507.63	27566.83
507.81	27903.87
507.98	27775.14
508.16	28100.47
508.33	28098.13
508.50	28559.22
508.68	28542.83
508.85	28407.08
509.03	28540.49
509.20	28690.29
509.38	28982.85
509.55	28835.40
509.73	28608.37
509.90	28807.31
510.08	28819.02
510.25	28912.64
510.42	29294.14
510.60	29338.62
510.77	29275.42
510.95	29191.16
511.12	29343.30
511.30	29912.05
511.47	29858.21
511.64	29858.21
511.82	30143.76
511.99	29589.05
512.17	29827.79
512.34	29865.24
512.51	30356.75
512.69	30422.28
512.86	30125.04
513.04	30532.29
513.21	30553.35
513.38	30253.76
513.56	30471.43
513.73	30452.71
513.90	30670.38
514.08	30281.85
514.25	30607.19
514.43	30567.40
514.60	30689.10
514.77	30824.86
514.95	31033.16
515.12	30953.58
515.29	30974.65
515.47	31119.76
515.64	31557.44
515.81	31307.01
515.99	31346.79
516.16	31592.55
516.33	31288.28
516.51	31435.74
516.68	31182.96
516.85	31440.42
517.03	31377.22
517.20	31557.44
517.37	31754.05
517.54	31772.77
517.72	31976.40
517.89	31908.52
518.06	31321.05
518.24	31826.60
518.41	32264.28
518.58	32231.52
518.75	31938.95
518.93	32376.63
519.10	32006.83
519.27	32437.48
519.45	32339.18
519.62	32947.72
519.79	33170.07
519.96	32350.88
520.14	32938.36
520.31	32842.40
520.48	33008.58
520.65	32985.17
520.83	33558.60
521.00	33481.36
521.17	33146.67
521.34	33251.99
521.52	33617.11
521.69	33741.16
521.86	33888.62
522.03	33741.16
522.20	33579.67
522.38	33736.48
522.55	34003.30
522.72	33649.88
522.89	34050.11
523.07	34139.05
523.24	34197.57
523.41	34333.32
523.58	34197.57
523.75	35058.88
523.92	34284.17
524.10	34560.35
524.27	34794.40
524.44	34260.76
524.61	34925.47
524.78	34792.06
524.96	34801.43
525.13	34829.51
525.30	35248.47
525.47	35299.96
525.64	35297.62
525.81	34789.72
525.98	35040.16
526.16	35061.22
526.33	34976.97
526.50	35110.38
526.67	35147.82
526.84	34899.73
527.01	35082.29
527.18	35363.15
527.36	35491.88
527.53	35892.12
527.70	36058.29
527.87	35524.65
528.04	35882.75
528.21	35611.25
528.38	35700.19
528.55	36250.22
528.72	36062.97
528.89	36484.27
529.07	36098.08
529.24	35693.17
529.41	36540.44
529.58	35821.90
529.75	36594.28
529.92	36336.82
530.09	36484.27
530.26	36865.78
530.43	36664.49
530.60	36177.66
530.77	36318.09
530.94	36921.95
531.11	36481.93
531.28	36636.41
531.46	36680.88
531.63	36985.15
531.80	36893.86
531.97	36666.83
532.14	36814.29
532.31	36910.25
532.48	37219.20
532.65	37303.46
532.82	37020.25
532.99	37460.27
533.16	36847.05
533.33	37064.72
533.50	37935.40
533.67	37331.54
533.84	37516.45
534.01	37574.96
534.18	37294.10
534.35	37942.42
534.52	37518.79
534.69	37975.19
534.86	37750.50
535.03	37996.26
535.20	38031.36
535.37	38085.20
535.54	37886.25
535.71	37773.91
535.88	38129.67
536.05	38197.54
536.22	37986.89
536.38	38073.49
536.55	38003.28
536.72	38237.33
536.89	38337.98
537.06	38279.46
537.23	38162.43
537.40	38298.19
537.57	38267.76
537.74	38738.21
537.91	38794.38
538.08	38490.11
538.25	38216.27
538.42	38284.14
538.59	38728.84
538.75	38457.34
538.92	38785.02
539.09	38880.98
539.26	39213.34
539.43	38831.83
539.60	38792.04
539.77	39021.41
539.94	39143.12
540.11	39119.71
540.28	38845.87
540.44	39239.08
540.61	38998.01
540.78	38880.98
540.95	38955.88
541.12	38960.56
541.29	39051.84
541.46	39119.71
541.62	39192.27
541.79	39438.03
541.96	39346.75
542.13	39688.46
542.30	39517.60
542.47	39765.70
542.63	39325.68
542.80	39749.32
542.97	40142.53
543.14	40144.87
543.31	40715.96
543.48	39887.41
543.64	40603.61
543.81	40289.98
543.98	40165.93
544.15	40098.06
544.32	40664.47
544.48	40971.08
544.65	40474.88
544.82	40165.93
544.99	40620.00
545.16	40327.43
545.32	40128.48
545.49	40737.02
545.66	41148.96
545.83	40877.46
546.00	41287.05
546.16	40498.29
546.33	40439.78
546.50	40453.82
546.67	40914.90
546.83	40627.02
547.00	40835.33
547.17	40828.30
547.34	40615.32
547.50	40882.14
547.67	40992.14
547.84	41064.70
548.00	41268.33
548.17	41418.12
548.34	41542.17
548.51	41249.60
548.67	41577.28
548.84	41783.24
549.01	40830.65
549.18	41319.82
549.34	41776.22
549.51	41242.58
549.68	41282.37
549.84	41474.29
550.01	41228.54
550.18	41757.50
550.34	41441.53
550.51	41743.45
550.68	41909.63
550.84	41036.61
551.01	41600.68
551.18	41633.45
551.34	41427.48
551.51	41839.42
551.68	41869.84
551.84	42117.94
552.01	41628.77
552.18	41780.90
552.34	41366.63
552.51	42211.56
552.68	42066.45
552.84	42391.78
553.01	42150.71
553.18	41937.72
553.34	41846.44
553.51	41808.99
553.67	42160.07
553.84	42225.60
554.01	42595.41
554.17	42513.49
554.34	42480.72
554.51	42398.80
554.67	42525.19
554.84	42340.29
555.00	42197.52
555.17	41858.14
555.33	42763.93
555.50	42073.47
555.67	42122.62
555.83	42529.87
556.00	42412.85
556.16	43145.44
556.33	42749.88
556.50	42288.80
556.66	42146.03
556.83	42590.73
556.99	42838.83
557.16	43084.58
557.32	42780.31
557.49	42880.95
557.65	42361.36
557.82	42759.25
557.98	42637.54
558.15	42932.45
558.32	42951.17
558.48	42754.57
558.65	42714.78
558.81	42621.16
558.98	42754.57
559.14	43012.02
559.31	42454.98
559.47	42857.55
559.64	43288.21
559.80	43157.14
559.97	43232.04
560.13	42506.47
560.30	42831.80
560.46	42831.80
560.63	42988.62
560.79	43505.88
560.96	43552.69
561.12	43573.75
561.29	43498.86
561.45	43386.51
561.61	43332.68
561.78	43505.88
561.94	42784.99
562.11	43480.13
562.27	42890.32
562.44	43452.05
562.60	43782.06
562.77	43349.06
562.93	43475.45
563.10	43566.73
563.26	43421.62
563.42	43398.21
563.59	43201.61
563.75	43058.84
563.92	43562.05
564.08	43384.17
564.24	43798.44
564.41	43517.58
564.57	43540.99
564.74	43889.73
564.90	43035.43
565.07	43704.82
565.23	43477.79
565.39	43342.04
565.56	43168.84
565.72	43599.50
565.88	43730.57
566.05	43030.75
566.21	43491.83
566.38	43735.25
566.54	43374.81
566.70	43913.13
566.87	44095.69
567.03	43491.83
567.19	44313.36
567.36	43690.78
567.52	43435.66
567.68	43805.47
567.85	44191.65
568.01	43510.56
568.17	43487.15
568.34	43737.59
568.50	43342.04
568.66	43442.68
568.83	43573.75
568.99	43498.86
569.15	43381.83
569.32	43477.79
569.48	43849.94
569.64	43721.21
569.81	43847.60
569.97	44037.18
570.13	43990.37
570.30	43477.79
570.46	43725.89
570.62	43597.16
570.78	43639.29
570.95	43728.23
571.11	43803.13
571.27	43313.95
571.43	43576.09
571.60	43482.47
571.76	43622.90
571.92	43852.28
572.09	43510.56
572.25	44067.61
572.41	44135.48
572.57	43915.47
572.74	44360.17
572.90	44168.25
573.06	43945.90
573.22	44039.52
573.38	44395.28
573.55	44006.75
573.71	44360.17
573.87	43936.54
574.03	44285.28
574.20	44130.80
574.36	44067.61
574.52	44313.36
574.68	44524.01
574.84	43775.04
575.01	44147.18
575.17	43763.34
575.33	43814.83
575.49	43810.15
575.65	43861.64
575.82	44161.23
575.98	43697.80
576.14	44406.98
576.30	44027.82
576.46	43934.20
576.62	44128.46
576.79	44346.13
576.95	43903.77
577.11	44095.69
577.27	44168.25
577.43	44128.46
577.59	44418.69
577.75	44020.80
577.92	43775.04
578.08	43899.09
578.24	43943.56
578.40	43959.94
578.56	43482.47
578.72	43606.52
578.88	44245.49
579.04	44116.76
579.21	44006.75
579.37	43924.83
579.53	44151.87
579.69	43817.17
579.85	44236.12
580.01	44374.22
580.17	43938.88
580.33	44278.25
580.49	44488.90
580.65	44446.77
580.82	44439.75
580.98	44151.87
581.14	44184.63
581.30	44540.39
581.46	44168.25
581.62	44161.23
581.78	44172.93
581.94	44224.42
582.10	44142.50
582.26	44343.79
582.42	44292.30
582.58	44074.63
582.74	43959.94
582.90	44603.59
583.06	44357.83
583.22	44737.00
583.38	44924.24
583.54	44704.23
583.70	44619.97
583.86	44278.25
584.02	44069.95
584.18	44147.18
584.34	44289.96
584.50	44074.63
584.66	44215.06
584.82	44306.34
584.98	44678.49
585.14	44116.76
585.30	43976.33
585.46	44329.75
585.62	44287.62
585.78	44182.29
585.94	43882.70
586.10	44170.59
586.26	44060.58
586.42	44151.87
586.58	44121.44
586.74	44175.27
586.90	43812.49
587.06	44020.80
587.22	44430.39
587.38	44048.88
587.54	43955.26
587.70	44811.90
587.86	44264.21
588.02	44247.83
588.18	44147.18
588.34	44584.86
588.49	44147.18
588.65	43856.96
588.81	43892.07
588.97	44233.78
589.13	44205.70
589.29	44327.41
589.45	44353.15
589.61	44524.01
589.77	44610.61
589.93	43992.71
590.08	44446.77
590.24	44641.04
