SpectraSuite Data File
++++++++++++++++++++++++++++++++++++
Date: Fri Oct 25 10:47:22 EDT 2013
User: price-jones
Dark Spectrum Present: No
Reference Spectrum Present: No
Number of Sampled Component Spectra: 1
Spectrometers: USB2+H05261
Integration Time (usec): 100000 (USB2+H05261)
Spectra Averaged: 1 (USB2+H05261)
Boxcar Smoothing: 0 (USB2+H05261)
Correct for Electrical Dark: No (USB2+H05261)
Strobe/Lamp Enabled: No (USB2+H05261)
Correct for Detector Non-linearity: No (USB2+H05261)
Correct for Stray Light: No (USB2+H05261)
Number of Pixels in Processed Spectrum: 2048
>>>>>Begin Processed Spectral Data<<<<<
365.73	98.30
365.92	98.30
366.12	98.30
366.32	133.41
366.52	51.49
366.72	56.17
366.91	16.38
367.11	124.05
367.31	0.00
367.51	46.81
367.70	30.43
367.90	63.19
368.10	4.68
368.30	0.00
368.49	46.81
368.69	53.83
368.89	60.85
369.09	0.00
369.28	84.26
369.48	95.96
369.68	152.13
369.87	110.01
370.07	149.79
370.27	60.85
370.47	159.16
370.66	400.23
370.86	447.04
371.06	374.49
371.25	442.36
371.45	472.79
371.65	475.13
371.84	442.36
372.04	430.66
372.24	430.66
372.44	475.13
372.63	505.56
372.83	552.37
373.03	500.87
373.22	468.11
373.42	493.85
373.62	545.34
373.81	543.00
374.01	573.43
374.21	491.51
374.40	557.05
374.60	624.92
374.79	512.58
374.99	540.66
375.19	573.43
375.38	657.69
375.58	608.54
375.78	564.07
375.97	578.11
376.17	589.82
376.37	587.47
376.56	594.50
376.76	533.64
376.95	566.41
377.15	660.03
377.35	634.29
377.54	582.79
377.74	566.41
377.93	587.47
378.13	676.41
378.33	627.26
378.52	608.54
378.72	554.71
378.91	587.47
379.11	571.09
379.31	683.44
379.50	624.92
379.70	739.61
379.89	727.91
380.09	660.03
380.28	706.84
380.48	617.90
380.68	636.63
380.87	622.58
381.07	688.12
381.26	704.50
381.46	624.92
381.65	653.01
381.85	748.97
382.04	669.39
382.24	692.80
382.43	688.12
382.63	674.07
382.83	720.88
383.02	767.70
383.22	744.29
383.41	709.18
383.61	676.41
383.80	758.33
384.00	667.05
384.19	774.72
384.39	795.78
384.58	755.99
384.78	732.59
384.97	765.36
385.17	812.17
385.36	784.08
385.56	678.76
385.75	819.19
385.95	730.25
386.14	784.08
386.34	739.61
386.53	763.01
386.72	716.20
386.92	760.67
387.11	840.25
387.31	816.85
387.50	823.87
387.70	826.21
387.89	833.23
388.09	819.19
388.28	837.91
388.48	816.85
388.67	844.93
388.86	744.29
389.06	833.23
389.25	891.74
389.45	851.96
389.64	868.34
389.84	882.38
390.03	957.28
390.22	858.98
390.42	866.00
390.61	924.51
390.81	945.58
391.00	1043.88
391.19	950.26
391.39	957.28
391.58	912.81
391.78	1015.79
391.97	973.66
392.16	1020.47
392.36	997.07
392.55	997.07
392.75	976.00
392.94	936.21
393.13	870.68
393.33	959.62
393.52	943.24
393.71	1050.90
393.91	1041.54
394.10	1114.10
394.29	1102.39
394.49	1174.95
394.68	1149.20
394.88	1135.16
395.07	1144.52
395.26	1116.44
395.46	1083.67
395.65	1179.63
395.84	1100.05
396.04	1170.27
396.23	1144.52
396.42	1111.75
396.62	1144.52
396.81	1231.12
397.00	1130.48
397.19	1256.87
397.39	1207.72
397.58	1196.01
397.77	1317.72
397.97	1226.44
398.16	1254.53
398.35	1329.42
398.55	1221.76
398.74	1345.81
398.93	1411.34
399.12	1362.19
399.32	1343.47
399.51	1423.05
399.70	1373.89
399.90	1341.13
400.09	1495.60
400.28	1376.24
400.47	1441.77
400.67	1441.77
400.86	1490.92
401.05	1554.12
401.24	1528.37
401.44	1511.99
401.63	1416.02
401.82	1523.69
402.01	1483.90
402.21	1521.35
402.40	1584.54
402.59	1476.88
402.78	1593.90
402.97	1572.84
403.17	1652.42
403.36	1647.74
403.55	1703.91
403.74	1586.88
403.93	1621.99
404.13	1692.21
404.32	1727.32
404.51	1607.95
404.70	1664.12
404.89	1647.74
405.09	1785.83
405.28	1647.74
405.47	1764.76
405.66	1668.80
405.85	1809.23
406.05	1760.08
406.24	1788.17
406.43	1926.26
406.62	1783.49
406.81	1909.88
407.00	1802.21
407.20	1891.15
407.39	1870.09
407.58	1989.46
407.77	1888.81
407.96	2069.03
408.15	1996.48
408.34	2015.20
408.54	1975.41
408.73	2029.24
408.92	2083.08
409.11	2047.97
409.30	2080.74
409.49	2050.31
409.68	1970.73
409.87	1973.07
410.07	2101.80
410.26	2085.42
410.45	2104.14
410.64	2132.23
410.83	2169.68
411.02	2223.51
411.21	2361.60
411.40	2296.07
411.59	2321.81
411.78	2286.70
411.98	2284.36
412.17	2345.22
412.36	2417.77
412.55	2326.49
412.74	2511.39
412.93	2448.20
413.12	2389.69
413.31	2548.84
413.50	2396.71
413.69	2551.18
413.88	2656.51
414.07	2569.91
414.26	2607.36
414.45	2733.75
414.64	2745.45
414.83	2675.23
415.02	2808.64
415.22	2923.33
415.41	2733.75
415.60	2724.38
415.79	2850.77
415.98	2843.75
416.17	2942.05
416.36	2883.54
416.55	2892.90
416.74	2920.99
416.93	2944.39
417.12	2939.71
417.31	2960.78
417.50	2979.50
417.69	3075.46
417.88	3173.77
418.07	3197.17
418.26	3040.36
418.45	3094.19
418.64	3265.05
418.83	3141.00
419.02	3302.50
419.21	3222.92
419.39	3173.77
419.58	3295.47
419.77	3178.45
419.96	3344.63
420.15	3288.45
420.34	3302.50
420.53	3370.37
420.72	3318.88
420.91	3419.52
421.10	3431.23
421.29	3552.93
421.48	3435.91
421.67	3501.44
421.86	3456.97
422.05	3473.36
422.24	3318.88
422.43	3536.55
422.61	3480.38
422.80	3468.67
422.99	3730.81
423.18	3555.27
423.37	3609.11
423.56	3581.02
423.75	3536.55
423.94	3499.10
424.13	3328.24
424.32	3468.67
424.50	3552.93
424.69	3691.02
424.88	3541.23
425.07	3562.30
425.26	3520.17
425.45	3517.83
425.64	3576.34
425.83	3566.98
426.01	3648.90
426.20	3531.87
426.39	3473.36
426.58	3660.60
426.77	3667.62
426.96	3597.40
427.15	3571.66
427.33	3705.07
427.52	3681.66
427.71	3826.78
427.90	3737.84
428.09	3637.19
428.28	3782.31
428.46	3688.68
428.65	3749.54
428.84	3962.53
429.03	3868.91
429.22	3796.35
429.40	3822.09
429.59	3744.86
429.78	3705.07
429.97	3616.13
430.16	3803.37
430.34	3772.94
430.53	3908.69
430.72	3896.99
430.91	3941.46
431.10	3911.04
431.28	4004.66
431.47	4166.15
431.66	4163.81
431.85	3978.91
432.03	4212.96
432.22	4212.96
432.41	4215.30
432.60	4252.75
432.79	4074.87
432.97	4360.42
433.16	4339.35
433.35	4259.78
433.54	4369.78
433.72	4290.20
433.91	4449.36
434.10	4498.51
434.28	4369.78
434.47	4297.22
434.66	4475.10
434.85	4442.34
435.03	4393.19
435.22	4461.06
435.41	4629.58
435.59	4587.45
435.78	4559.36
435.97	4650.64
436.16	4620.22
436.34	4648.30
436.53	4786.40
436.72	4676.39
436.90	4779.37
437.09	4620.22
437.28	4720.86
437.46	4748.95
437.65	4802.78
437.84	4657.67
438.02	4812.14
438.21	4650.64
438.40	4608.51
438.58	4863.63
438.77	4950.23
438.96	4873.00
439.14	5111.73
439.33	5165.56
439.52	5193.65
439.70	5004.07
439.89	4992.36
440.08	5261.52
440.26	5179.61
440.45	5156.20
440.63	5352.81
440.82	5352.81
441.01	5352.81
441.19	5551.75
441.38	5500.26
441.57	5514.30
441.75	5462.81
441.94	5720.27
442.12	5753.04
442.31	5551.75
442.50	5729.63
442.68	5703.89
442.87	5858.36
443.05	5832.62
443.24	5816.23
443.43	5741.33
443.61	5872.40
443.80	6129.86
443.98	5621.97
444.17	5593.88
444.35	5935.60
444.54	6094.76
444.73	5895.81
444.91	5849.00
445.10	5757.72
445.28	6019.86
445.47	5987.09
445.65	5769.42
445.84	5921.56
446.02	5928.58
446.21	5769.42
446.39	5975.39
446.58	6031.56
446.77	5933.26
446.95	5858.36
447.14	6045.60
447.32	6026.88
447.51	6104.12
447.69	6010.50
447.88	6078.37
448.06	6029.22
448.25	6071.35
448.43	6080.71
448.62	6106.46
448.80	6087.73
448.99	6160.29
449.17	6150.93
449.36	6047.94
449.54	6485.62
449.73	6265.61
449.91	6260.93
450.10	6368.60
450.28	6485.62
450.46	6567.54
450.65	6494.99
450.83	6595.63
451.02	6506.69
451.20	6562.86
451.39	6480.94
451.57	6399.02
451.76	6604.99
451.94	6614.35
452.13	6626.06
452.31	6509.03
452.49	6441.15
452.68	6551.16
452.86	6499.67
453.05	6626.06
453.23	6644.78
453.42	6604.99
453.60	6579.25
453.78	6789.89
453.97	6693.93
454.15	6745.42
454.34	6750.10
454.52	6834.36
454.70	6925.65
454.89	6677.55
455.07	6874.15
455.26	6813.30
455.44	7028.63
455.62	7026.29
455.81	6906.92
455.99	6951.39
456.17	7204.17
456.36	7056.72
456.54	7164.38
456.73	7199.49
456.91	7300.13
457.09	7433.54
457.28	7440.56
457.46	7389.07
457.64	7449.93
457.83	7377.37
458.01	7452.27
458.19	7515.46
458.38	7470.99
458.56	7611.42
458.74	7414.82
458.93	7279.07
459.11	7452.27
459.29	7449.93
459.48	7581.00
459.66	7550.57
459.84	7581.00
460.03	7826.75
460.21	7723.77
460.39	7826.75
460.57	7723.77
460.76	7693.34
460.94	8154.43
461.12	7803.35
461.31	7875.90
461.49	7686.32
461.67	7885.26
461.85	8135.70
462.04	7992.93
462.22	8603.81
462.40	8044.42
462.59	8002.29
462.77	8030.38
462.95	8077.19
463.13	8006.97
463.32	8032.72
463.50	8112.30
463.68	8102.93
463.86	8177.83
464.05	8105.28
464.23	8070.17
464.41	8278.47
464.59	8088.89
464.78	8329.97
464.96	8332.31
465.14	8238.69
465.32	8486.78
465.50	8624.87
465.69	8575.72
465.87	8428.27
466.05	8425.93
466.23	8243.37
466.41	8498.49
466.60	8557.00
466.78	8327.63
466.96	8334.65
467.14	8411.89
467.32	8645.94
467.51	8648.28
467.69	8554.66
467.87	8538.27
468.05	8704.45
468.23	8613.17
468.41	8514.87
468.60	8683.39
468.78	8638.92
468.96	8847.22
469.14	8737.22
469.32	8891.70
469.50	8643.60
469.69	8842.54
469.87	8926.80
470.05	8912.76
470.23	8992.34
470.41	9092.98
470.59	8987.66
470.77	9174.90
470.95	9210.01
471.14	9207.67
471.32	9100.00
471.50	9404.27
471.68	9172.56
471.86	9537.68
472.04	9399.59
472.22	9687.48
472.40	9329.38
472.58	9420.66
472.77	9575.13
472.95	9605.56
473.13	9895.78
473.31	9547.05
473.49	9635.99
473.67	9720.24
473.85	9710.88
474.03	9984.73
474.21	9909.83
474.39	9841.95
474.57	10143.88
474.75	10061.96
474.93	10202.40
475.12	10305.38
475.30	10150.90
475.48	10319.42
475.66	10546.45
475.84	10354.53
476.02	10399.00
476.20	10504.32
476.38	10532.41
476.56	10911.58
476.74	10932.64
476.92	10644.76
477.10	10684.55
477.28	11194.78
477.46	11218.19
477.64	11129.25
477.82	11391.39
478.00	11477.99
478.18	11466.28
478.36	11513.10
478.54	11784.60
478.72	11747.15
478.90	11695.66
479.08	11981.20
479.26	12035.03
479.44	11927.37
479.62	11950.78
479.80	12149.72
479.98	12114.61
480.16	12578.04
480.34	12334.62
480.52	12428.24
480.70	12400.16
480.88	12390.80
481.06	12828.48
481.24	12695.07
481.41	12996.99
481.59	13139.77
481.77	13121.04
481.95	13249.77
482.13	13345.73
482.31	13429.99
482.49	13781.07
482.67	13540.00
482.85	13757.67
483.03	13743.63
483.21	13947.25
483.39	14181.31
483.57	13912.14
483.74	14382.59
483.92	14527.71
484.10	14413.02
484.28	14595.58
484.46	14902.19
484.64	14785.16
484.82	14649.41
485.00	15154.97
485.18	15145.61
485.35	15192.42
485.53	15028.58
485.71	15115.18
485.89	15599.67
486.07	15400.72
486.25	15255.61
486.43	15772.87
486.61	15747.12
486.78	15967.13
486.96	16163.74
487.14	16524.18
487.32	16313.53
487.50	16587.38
487.68	16919.73
487.85	16793.34
488.03	17336.35
488.21	17235.70
488.39	17263.79
488.57	17319.96
488.75	17296.56
488.92	17502.53
489.10	17851.27
489.28	17947.23
489.46	18026.81
489.64	18160.22
489.81	18499.59
489.99	18471.51
490.17	18595.56
490.35	18892.80
490.53	19016.85
490.70	19192.39
490.88	19021.53
491.06	18958.34
491.24	19346.87
491.41	19070.68
491.59	19227.50
491.77	19576.24
491.95	19545.81
492.13	19922.64
492.30	19924.98
492.48	19927.32
492.66	20240.95
492.84	20095.84
493.01	20418.83
493.19	20355.64
493.37	20657.57
493.54	20725.44
493.72	20718.42
493.90	20917.37
494.08	21261.43
494.25	21291.85
494.43	21671.02
494.61	21701.45
494.79	21521.23
494.96	21766.98
495.14	21722.51
495.32	22302.96
495.49	22139.13
495.67	22246.79
495.85	22164.87
496.02	22473.82
496.20	22569.79
496.38	22785.12
496.55	22726.60
496.73	23372.59
496.91	23033.21
497.09	23220.45
497.26	23239.18
497.44	22974.70
497.62	23257.90
497.79	23711.97
497.97	23426.42
498.14	23693.24
498.32	23871.12
498.50	24088.79
498.67	24041.98
498.85	24070.07
499.03	24514.77
499.20	24261.99
499.38	24463.28
499.56	24428.17
499.73	24596.69
499.91	24489.03
500.08	24709.04
500.26	25034.37
500.44	24851.81
500.61	25053.09
500.79	24961.81
500.97	24915.00
501.14	25352.68
501.32	25102.25
501.49	25425.24
501.67	25333.96
501.84	25518.86
502.02	25869.94
502.20	25783.34
502.37	25862.92
502.55	25668.66
502.72	25998.67
502.90	26361.45
503.07	25696.74
503.25	26462.10
503.43	26005.69
503.60	25979.95
503.78	26658.70
503.95	26513.59
504.13	27042.55
504.30	26471.46
504.48	26462.10
504.65	26747.64
504.83	27119.79
505.01	26962.97
505.18	27143.19
505.36	27353.84
505.53	27276.60
505.71	27384.27
505.88	27702.58
506.06	27332.78
506.23	27419.38
506.41	27463.85
506.58	27580.87
506.76	27929.61
506.93	27978.76
507.11	28280.69
507.28	28278.35
507.46	28229.20
507.63	28484.32
507.81	28140.26
507.98	28257.29
508.16	28383.68
508.33	28833.06
508.50	28587.30
508.68	28966.47
508.85	29167.76
509.03	29090.52
509.20	29156.05
509.38	29076.48
509.55	29315.21
509.73	29385.43
509.90	29193.50
510.08	29116.26
510.25	29495.43
510.42	29467.34
510.60	30008.01
510.77	29633.52
510.95	29940.13
511.12	29406.49
511.30	30167.16
511.47	30522.93
511.64	30579.10
511.82	30185.89
511.99	30110.99
512.17	30527.61
512.34	30202.27
512.51	30745.28
512.69	30494.84
512.86	30558.03
513.04	31012.10
513.21	30658.68
513.38	30597.82
513.56	31063.59
513.73	30785.07
513.90	31285.94
514.08	30749.96
514.25	31005.08
514.43	31283.60
514.60	31388.92
514.77	31388.92
514.95	31683.83
515.12	31445.10
515.29	31220.41
515.47	31632.34
515.64	31679.15
515.81	31744.69
515.99	31463.82
516.16	31971.72
516.33	31920.23
516.51	32002.14
516.68	31580.85
516.85	31606.59
517.03	32011.51
517.20	31728.30
517.37	32226.84
517.54	32240.88
517.72	32219.81
517.89	32538.13
518.06	31789.16
518.24	32559.19
518.41	32423.44
518.58	32685.58
518.75	32617.71
518.93	32769.84
519.10	32692.60
519.27	33095.18
519.45	33298.80
519.62	33270.72
519.79	33490.73
519.96	33422.85
520.14	33450.94
520.31	33280.08
520.48	33453.28
520.65	33649.88
520.83	34089.90
521.00	33986.92
521.17	33668.61
521.34	34253.74
521.52	33839.47
521.69	33525.83
521.86	34251.40
522.03	34270.12
522.20	34649.29
522.38	34525.24
522.55	34410.56
522.72	34724.19
522.89	34078.20
523.07	34651.63
523.24	34665.67
523.41	34895.05
523.58	34614.18
523.75	35182.93
523.92	34899.73
524.10	35030.80
524.27	35409.96
524.44	35299.96
524.61	35271.87
524.78	35290.60
524.96	35498.91
525.13	35414.65
525.30	35658.06
525.47	35604.23
525.64	35592.53
525.81	36034.89
525.98	35409.96
526.16	35475.50
526.33	35758.70
526.50	35889.77
526.67	35548.06
526.84	35482.52
527.01	35253.15
527.18	35704.87
527.36	36156.60
527.53	36198.73
527.70	36559.17
527.87	36229.15
528.04	36313.41
528.21	36517.04
528.38	36381.29
528.55	37261.33
528.72	36964.08
528.89	36662.15
529.07	36620.02
529.24	36538.10
529.41	36821.31
529.58	36825.99
529.75	36669.17
529.92	36844.71
530.09	36889.18
530.26	37113.87
530.43	37038.98
530.60	37195.79
530.77	36980.46
530.94	37563.26
531.11	37326.86
531.28	37722.41
531.46	37404.10
531.63	37741.14
531.80	37347.93
531.97	37481.34
532.14	37378.36
532.31	37425.17
532.48	37881.57
532.65	38096.90
532.82	38265.42
532.99	37883.91
533.16	37830.08
533.33	38103.92
533.50	38380.10
533.67	38010.30
533.84	37670.92
534.01	38609.48
534.18	38019.66
534.35	38438.62
534.52	38356.70
534.69	38670.33
534.86	38600.12
535.03	38120.31
535.20	38663.31
535.37	39213.34
535.54	39023.75
535.71	38447.98
535.88	38670.33
536.05	38600.12
536.22	39154.82
536.38	38590.75
536.55	39082.27
536.72	39236.74
536.89	38405.85
537.06	38649.27
537.23	39122.05
537.40	38480.75
537.57	39100.99
537.74	39213.34
537.91	39744.64
538.08	39292.91
538.25	39056.52
538.42	39175.89
538.59	39683.78
538.75	39421.64
538.92	38946.51
539.09	39512.92
539.26	39524.63
539.43	39866.34
539.60	39519.95
539.77	39414.62
539.94	39709.53
540.11	39646.33
540.28	39222.70
540.44	39679.10
540.61	39473.13
540.78	39709.53
540.95	39948.26
541.12	39456.75
541.29	39754.00
541.46	39503.56
541.62	39805.49
541.79	40250.19
541.96	39859.32
542.13	39931.88
542.30	39955.29
542.47	40275.94
542.63	40509.99
542.80	40250.19
542.97	40687.87
543.14	40980.44
543.31	40671.49
543.48	40753.41
543.64	41481.31
543.81	40741.71
543.98	41287.05
544.15	41045.97
544.32	40882.14
544.48	41397.06
544.65	40975.76
544.82	41174.70
544.99	40844.69
545.16	41027.25
545.32	40999.16
545.49	41439.18
545.66	41635.79
545.83	41151.30
546.00	41406.42
546.16	41366.63
546.33	40994.48
546.50	41027.25
546.67	41546.85
546.83	41198.11
547.00	41043.63
547.17	41214.49
547.34	41404.08
547.50	41888.57
547.67	41769.20
547.84	41219.17
548.00	41773.88
548.17	42185.82
548.34	41879.21
548.51	42096.88
548.67	41900.27
548.84	42092.19
549.01	41584.30
549.18	41680.26
549.34	42073.47
549.51	42227.95
549.68	42670.31
549.84	41715.37
550.01	42218.58
550.18	42103.90
550.34	42272.42
550.51	42092.19
550.68	42036.02
550.84	42019.64
551.01	42548.60
551.18	42082.83
551.34	42642.22
551.51	42394.12
551.68	42323.91
551.84	42628.18
552.01	42483.06
552.18	42361.36
552.34	42780.31
552.51	42958.19
552.68	42852.87
552.84	42663.28
553.01	43133.73
553.18	42710.10
553.34	42616.47
553.51	42560.30
553.67	42473.70
553.84	42749.88
554.01	42890.32
554.17	43262.46
554.34	42993.30
554.51	43040.11
554.67	43056.50
554.84	43342.04
555.00	42836.48
555.17	42682.01
555.33	42780.31
555.50	43061.18
555.67	43484.81
555.83	43194.59
556.00	43157.14
556.16	43054.15
556.33	43433.32
556.50	43328.00
556.66	43880.36
556.83	42892.66
556.99	43203.95
557.16	43346.72
557.32	43604.18
557.49	43861.64
557.65	43208.63
557.82	43430.98
557.98	43391.19
558.15	43178.20
558.32	43533.96
558.48	43512.90
558.65	43463.75
558.81	43543.33
558.98	43594.82
559.14	43447.36
559.31	43386.51
559.47	43463.75
559.64	43653.33
559.80	43824.19
559.97	44020.80
560.13	43732.91
560.30	43807.81
560.46	43782.06
560.63	43639.29
560.79	44210.38
560.96	43496.52
561.12	44217.40
561.29	44205.70
561.45	43536.30
561.61	44268.89
561.78	43763.34
561.94	43597.16
562.11	43784.40
562.27	44023.14
562.44	43910.79
562.60	43983.35
562.77	44039.52
562.93	44048.88
563.10	43971.64
563.26	44154.21
563.42	44067.61
563.59	43765.68
563.75	44072.29
563.92	44194.00
564.08	44584.86
564.24	44186.97
564.41	44694.87
564.57	44250.17
564.74	43915.47
564.90	44292.30
565.07	44289.96
565.23	44023.14
565.39	44144.84
565.56	44390.60
565.72	44233.78
565.88	44170.59
566.05	44025.48
566.21	43833.55
566.38	44076.97
566.54	44149.53
566.70	44304.00
566.87	44458.48
567.03	44470.18
567.19	44538.05
567.36	44652.74
567.52	43693.12
567.68	44126.12
567.85	44411.67
568.01	44605.93
568.17	44196.34
568.34	44488.90
568.50	44423.37
568.66	44126.12
568.83	44414.01
568.99	44006.75
569.15	44402.30
569.32	44210.38
569.48	44488.90
569.64	44825.94
569.81	44411.67
569.97	44296.98
570.13	44612.95
570.30	44165.91
570.46	44313.36
570.62	44442.09
570.78	43704.82
570.95	44238.47
571.11	44589.55
571.27	44706.57
571.43	44966.37
571.60	44683.17
571.76	44638.70
571.92	44896.16
572.09	44397.62
572.25	44568.48
572.41	44629.34
572.57	44863.39
572.74	45155.96
572.90	44772.11
573.06	44870.41
573.22	44643.38
573.38	44362.51
573.55	44435.07
573.71	44519.33
573.87	44928.92
574.03	44170.59
574.20	44900.84
574.36	44847.00
574.52	44718.28
574.68	44362.51
574.84	45137.23
575.01	44289.96
575.17	44755.72
575.33	44554.44
575.49	44786.15
575.65	44954.67
575.82	44947.65
575.98	45151.27
576.14	44973.39
576.30	44685.51
576.46	44350.81
576.62	44533.37
576.79	44758.06
576.95	44566.14
577.11	44458.48
577.27	44987.44
577.43	45099.78
577.59	44804.88
577.75	44804.88
577.92	44531.03
578.08	44018.46
578.24	44156.55
578.40	44849.35
578.56	45104.46
578.72	44837.64
578.88	45055.31
579.04	45048.29
579.21	44832.96
579.37	44914.88
579.53	45057.65
579.69	44582.52
579.85	44744.02
580.01	45221.49
580.17	44729.98
580.33	45090.42
580.49	45343.20
580.65	44935.95
580.82	44650.40
580.98	44692.53
581.14	44435.07
581.30	45067.02
581.46	44989.78
581.62	44809.56
581.78	44856.37
581.94	45226.17
582.10	45097.44
582.26	44811.90
582.42	44921.90
582.58	45076.38
582.74	44856.37
582.90	44680.83
583.06	45006.16
583.22	45324.47
583.38	45088.08
583.54	45074.04
583.70	45067.02
583.86	44987.44
584.02	44601.25
584.18	44673.81
584.34	45223.83
584.50	44910.20
584.66	45022.54
584.82	44994.46
584.98	44926.58
585.14	44825.94
585.30	45057.65
585.46	44861.05
585.62	45375.97
585.78	44811.90
585.94	44795.51
586.10	44591.89
586.26	44896.16
586.42	45200.43
586.58	44992.12
586.74	45045.95
586.90	44690.19
587.06	44605.93
587.22	45233.19
587.38	44591.89
587.54	44924.24
587.70	45153.62
587.86	45333.84
588.02	45045.95
588.18	45099.78
588.34	45116.17
588.49	44788.49
588.65	44479.54
588.81	44116.76
588.97	45045.95
589.13	44519.33
589.29	44774.45
589.45	44847.00
589.61	45109.14
589.77	45453.20
589.93	44940.63
590.08	45415.76
590.24	45336.18
