SpectraSuite Data File
++++++++++++++++++++++++++++++++++++
Date: Fri Oct 25 11:25:07 EDT 2013
User: price-jones
Dark Spectrum Present: No
Reference Spectrum Present: No
Number of Sampled Component Spectra: 1
Spectrometers: USB2+H05261
Integration Time (usec): 100000 (USB2+H05261)
Spectra Averaged: 1 (USB2+H05261)
Boxcar Smoothing: 0 (USB2+H05261)
Correct for Electrical Dark: No (USB2+H05261)
Strobe/Lamp Enabled: No (USB2+H05261)
Correct for Detector Non-linearity: No (USB2+H05261)
Correct for Stray Light: No (USB2+H05261)
Number of Pixels in Processed Spectrum: 2048
>>>>>Begin Processed Spectral Data<<<<<
365.73	280.86
365.92	280.86
366.12	280.86
366.32	180.22
366.52	161.50
366.72	173.20
366.91	95.96
367.11	138.09
367.31	110.01
367.51	142.77
367.70	32.77
367.90	177.88
368.10	107.66
368.30	149.79
368.49	173.20
368.69	212.99
368.89	152.13
369.09	210.65
369.28	163.84
369.48	276.18
369.68	128.73
369.87	248.10
370.07	229.37
370.27	212.99
370.47	386.19
370.66	575.77
370.86	674.07
371.06	678.76
371.25	692.80
371.45	697.48
371.65	683.44
371.84	690.46
372.04	678.76
372.24	723.23
372.44	718.54
372.63	660.03
372.83	741.95
373.03	727.91
373.22	772.38
373.42	774.72
373.62	734.93
373.81	837.91
374.01	755.99
374.21	842.59
374.40	851.96
374.60	844.93
374.79	767.70
374.99	821.53
375.19	840.25
375.38	926.85
375.58	889.40
375.78	896.43
375.97	842.59
376.17	891.74
376.37	781.74
376.56	809.83
376.76	861.32
376.95	795.78
377.15	898.77
377.35	901.11
377.54	894.08
377.74	922.17
377.93	854.30
378.13	870.68
378.33	816.85
378.52	889.40
378.72	938.55
378.91	931.53
379.11	905.79
379.31	922.17
379.50	936.21
379.70	990.05
379.89	1064.94
380.09	976.00
380.28	903.45
380.48	1043.88
380.68	980.68
380.87	950.26
381.07	945.58
381.26	1018.13
381.46	971.32
381.65	1018.13
381.85	1006.43
382.04	987.71
382.24	1074.31
382.43	1100.05
382.63	1107.07
382.83	1081.33
383.02	1100.05
383.22	1118.78
383.41	1107.07
383.61	1109.41
383.80	1125.80
384.00	994.73
384.19	1121.12
384.39	1179.63
384.58	1186.65
384.78	1160.91
384.97	1205.38
385.17	1188.99
385.36	1146.86
385.56	1062.60
385.75	1132.82
385.95	1177.29
386.14	1151.54
386.34	1217.08
386.53	1132.82
386.72	1139.84
386.92	1266.23
387.11	1200.69
387.31	1151.54
387.50	1221.76
387.70	1221.76
387.89	1207.72
388.09	1301.34
388.28	1205.38
388.48	1308.36
388.67	1352.83
388.86	1306.02
389.06	1210.06
389.25	1343.47
389.45	1462.83
389.64	1385.60
389.84	1376.24
390.03	1322.40
390.22	1366.87
390.42	1301.34
390.61	1240.48
390.81	1439.43
391.00	1455.81
391.19	1462.83
391.39	1409.00
391.58	1404.32
391.78	1469.86
391.97	1486.24
392.16	1502.62
392.36	1490.92
392.55	1502.62
392.75	1631.35
392.94	1483.90
393.13	1612.63
393.33	1540.07
393.52	1624.33
393.71	1682.85
393.91	1547.09
394.10	1575.18
394.29	1577.52
394.49	1629.01
394.68	1713.27
394.88	1680.50
395.07	1657.10
395.26	1687.53
395.46	1504.96
395.65	1764.76
395.84	1760.08
396.04	1664.12
396.23	1736.68
396.42	1746.04
396.62	1797.53
396.81	1792.85
397.00	1783.49
397.19	1813.92
397.39	1802.21
397.58	1736.68
397.77	1851.36
397.97	1900.52
398.16	1853.70
398.35	1825.62
398.55	1844.34
398.74	1905.20
398.93	1891.15
399.12	1792.85
399.32	1834.98
399.51	1905.20
399.70	1877.11
399.90	1923.92
400.09	1998.82
400.28	2029.24
400.47	2031.58
400.67	2115.84
400.86	2129.89
401.05	2015.20
401.24	2134.57
401.44	2104.14
401.63	2078.40
401.82	2069.03
402.01	2193.08
402.21	2085.42
402.40	2111.16
402.59	2092.44
402.78	2169.68
402.97	2307.77
403.17	2193.08
403.36	2249.25
403.55	2242.23
403.74	2181.38
403.93	2282.02
404.13	2331.17
404.32	2471.61
404.51	2392.03
404.70	2389.69
404.89	2300.75
405.09	2448.20
405.28	2546.50
405.47	2473.95
405.66	2490.33
405.85	2450.54
406.05	2487.99
406.24	2424.80
406.43	2499.69
406.62	2665.87
406.81	2649.49
407.00	2670.55
407.20	2635.44
407.39	2675.23
407.58	2675.23
407.77	2700.98
407.96	2738.43
408.15	2700.98
408.34	2686.94
408.54	2747.79
408.73	2677.57
408.92	2839.07
409.11	2857.79
409.30	2848.43
409.49	2899.92
409.68	2883.54
409.87	2829.71
410.07	2970.14
410.26	2869.50
410.45	3021.63
410.64	3035.67
410.83	3000.57
411.02	3000.57
411.21	3201.85
411.40	3145.68
411.59	3269.73
411.78	3138.66
411.98	3213.56
412.17	3276.75
412.36	3213.56
412.55	3417.18
412.74	3461.65
412.93	3407.82
413.12	3393.78
413.31	3480.38
413.50	3414.84
413.69	3468.67
413.88	3501.44
414.07	3662.94
414.26	3550.59
414.45	3630.17
414.64	3740.18
414.83	3709.75
415.02	3836.14
415.22	3740.18
415.41	3906.35
415.60	3857.20
415.79	3815.07
415.98	3981.25
416.17	3997.64
416.36	3943.80
416.55	3964.87
416.74	4084.23
416.93	4114.66
417.12	4023.38
417.31	4175.52
417.50	4124.02
417.69	4149.77
417.88	4259.78
418.07	4212.96
418.26	4187.22
418.45	4372.12
418.64	4554.68
418.83	4304.25
419.02	4292.54
419.21	4454.04
419.39	4440.00
419.58	4463.40
419.77	4313.61
419.96	4545.32
420.15	4531.28
420.34	4622.56
420.53	4512.55
420.72	4564.04
420.91	4533.62
421.10	4858.95
421.29	4723.20
421.48	4561.70
421.67	4697.46
421.86	4620.22
422.05	4720.86
422.24	4777.03
422.43	4805.12
422.61	4795.76
422.80	4943.21
422.99	4732.56
423.18	4983.00
423.37	4896.40
423.56	4760.65
423.75	4896.40
423.94	4950.23
424.13	4578.09
424.32	4774.69
424.50	4992.36
424.69	5006.41
424.88	5078.96
425.07	4915.12
425.26	4819.16
425.45	4919.81
425.64	4891.72
425.83	4980.66
426.01	5062.58
426.20	5074.28
426.39	5008.75
426.58	5097.69
426.77	5071.94
426.96	4943.21
427.15	4973.64
427.33	5188.97
427.52	5186.63
427.71	5132.79
427.90	5280.25
428.09	5406.64
428.28	5364.51
428.46	5305.99
428.65	5320.04
428.84	5434.72
429.03	5423.02
429.22	5252.16
429.40	5425.36
429.59	5455.79
429.78	5212.37
429.97	5242.80
430.16	5451.11
430.34	5579.84
430.53	5565.79
430.72	5636.01
430.91	5650.05
431.10	5554.09
431.28	5680.48
431.47	5774.10
431.66	5631.33
431.85	5703.89
432.03	5767.08
432.22	5956.66
432.41	5851.34
432.60	5923.90
432.79	5874.74
432.97	5956.66
433.16	6033.90
433.35	5767.08
433.54	6005.81
433.72	6045.60
433.91	6153.27
434.10	6127.52
434.28	6026.88
434.47	6300.72
434.66	6179.01
434.85	6228.17
435.03	6328.81
435.22	6167.31
435.41	6417.75
435.59	6377.96
435.78	6303.06
435.97	6623.72
436.16	6251.57
436.34	6452.86
436.53	6609.67
436.72	6729.04
436.90	6511.37
437.09	6565.20
437.28	6422.43
437.46	6572.22
437.65	6586.27
437.84	6740.74
438.02	6630.74
438.21	6658.82
438.40	6771.17
438.58	7204.17
438.77	6939.69
438.96	6869.47
439.14	7063.74
439.33	7206.51
439.52	7229.91
439.70	7246.30
439.89	7180.76
440.08	7281.41
440.26	7339.92
440.45	7276.73
440.63	7384.39
440.82	7461.63
441.01	7475.67
441.19	7513.12
441.38	7700.36
441.57	7714.41
441.75	7597.38
441.94	7878.24
442.12	7782.28
442.31	7948.46
442.50	7899.31
442.68	7957.82
442.87	8018.68
443.05	8081.87
443.24	7990.59
443.43	8107.62
443.61	8241.03
443.80	8292.52
443.98	8280.82
444.17	7733.13
444.35	8201.24
444.54	8215.28
444.73	8180.17
444.91	8465.72
445.10	8400.18
445.28	8243.37
445.47	8315.92
445.65	8313.58
445.84	8374.44
446.02	8362.73
446.21	8276.13
446.39	8409.54
446.58	8491.46
446.77	8461.04
446.95	8283.16
447.14	8407.20
447.32	8336.99
447.51	8386.14
447.69	8482.10
447.88	8629.56
448.06	8547.64
448.25	8545.30
448.43	8580.40
448.62	8362.73
448.80	8498.49
448.99	8585.08
449.17	8531.25
449.36	8645.94
449.54	8706.79
449.73	8957.23
449.91	8887.01
450.10	9043.83
450.28	9090.64
450.46	8947.87
450.65	9088.30
450.83	8870.63
451.02	9104.68
451.20	9032.13
451.39	9174.90
451.57	9064.89
451.76	8959.57
451.94	9083.62
452.13	9130.43
452.31	9312.99
452.49	9107.02
452.68	9198.31
452.86	9130.43
453.05	9359.80
453.23	9572.79
453.42	9158.52
453.60	9277.88
453.78	9563.43
453.97	9312.99
454.15	9493.21
454.34	9605.56
454.52	9497.89
454.70	9626.62
454.89	9593.86
455.07	9729.61
455.26	9696.84
455.44	9860.68
455.62	9893.44
455.81	9865.36
455.99	9942.60
456.17	10083.03
456.36	9949.62
456.54	9984.73
456.73	10087.71
456.91	10375.59
457.09	10270.27
457.28	10473.90
457.46	10253.89
457.64	10649.44
457.83	10623.69
458.01	10485.60
458.19	10546.45
458.38	10277.29
458.56	10359.21
458.74	10380.28
458.93	10642.42
459.11	10733.70
459.29	10717.31
459.48	10771.15
459.66	10867.11
459.84	10916.26
460.03	11019.24
460.21	11112.86
460.39	10841.36
460.57	11037.97
460.76	11255.64
460.94	10967.75
461.12	11211.17
461.31	11096.48
461.49	11080.10
461.67	11204.14
461.85	11421.81
462.04	11234.57
462.22	12004.61
462.40	11550.54
462.59	11236.91
462.77	11283.72
462.95	11613.74
463.13	11550.54
463.32	11653.53
463.50	11784.60
463.68	11690.98
463.86	11646.51
464.05	11644.17
464.23	11414.79
464.41	11833.75
464.59	11602.04
464.78	12205.89
464.96	12053.76
465.14	11700.34
465.32	11992.90
465.50	12049.08
465.69	12030.35
465.87	12020.99
466.05	12177.81
466.23	12126.32
466.41	12147.38
466.60	12634.21
466.78	11910.99
466.96	12063.12
467.14	12259.73
467.32	12238.66
467.51	12498.46
467.69	12079.50
467.87	12390.80
468.05	12505.48
468.23	12035.03
468.41	12318.24
468.60	12526.55
468.78	12617.83
468.96	12470.37
469.14	12795.71
469.32	12833.16
469.50	12716.13
469.69	12844.86
469.87	13177.22
470.05	13121.04
470.23	13343.39
470.41	13050.83
470.59	13118.70
470.77	13205.30
470.95	13303.60
471.14	13474.46
471.32	13352.76
471.50	13635.96
471.68	13586.81
471.86	13516.59
472.04	13549.36
472.22	13809.16
472.40	13764.69
472.58	13633.62
472.77	13961.30
472.95	14029.17
473.13	14401.32
473.31	13888.74
473.49	14127.47
473.67	14253.86
473.85	14232.80
474.03	14665.80
474.21	14635.37
474.39	14661.12
474.57	14700.90
474.75	14810.91
474.93	14890.49
475.12	14750.06
475.30	14775.80
475.48	14789.85
475.66	15293.06
475.84	15171.35
476.02	15405.41
476.20	15445.20
476.38	15494.35
476.56	15990.54
476.74	16042.03
476.92	15641.80
477.10	15805.64
477.28	16116.93
477.46	16187.14
477.64	16339.28
477.82	16308.85
478.00	16886.97
478.18	16606.10
478.36	16968.88
478.54	17188.89
478.72	16872.92
478.90	16910.37
479.08	17528.27
479.26	17458.06
479.44	17444.01
479.62	17830.20
479.80	18057.23
479.98	17813.82
480.16	18480.87
480.34	18040.85
480.52	18349.80
480.70	18551.09
480.88	18211.71
481.06	18530.02
481.24	18850.67
481.41	19180.69
481.59	19239.20
481.77	19349.21
481.95	19040.26
482.13	19491.98
482.31	19613.69
482.49	20250.32
482.67	20049.03
482.85	20224.57
483.03	20390.75
483.21	20510.11
483.39	20680.97
483.57	20954.82
483.74	20889.28
483.92	21261.43
484.10	21188.87
484.28	21532.93
484.46	22068.91
484.64	22256.15
484.82	21645.27
485.00	22319.35
485.18	22457.44
485.35	22829.59
485.53	22548.72
485.71	22874.06
485.89	23360.89
486.07	23302.37
486.25	23019.17
486.43	23702.61
486.61	23396.00
486.78	24084.11
486.96	24056.03
487.14	24093.47
487.32	24676.27
487.50	24620.10
487.68	24524.13
487.85	25242.68
488.03	25656.95
488.21	25551.63
488.39	25830.15
488.57	25743.55
488.75	26260.81
488.92	26089.95
489.10	26691.47
489.28	26579.12
489.46	27007.44
489.64	26728.92
489.81	27690.88
489.99	27269.58
490.17	27772.80
490.35	27803.22
490.53	27962.38
490.70	28161.33
490.88	27938.97
491.06	28460.91
491.24	28741.78
491.41	28580.28
491.59	29350.32
491.77	29443.94
491.95	29600.76
492.13	29832.47
492.30	29876.94
492.48	29682.67
492.66	30146.10
492.84	29909.71
493.01	30314.62
493.19	30691.44
493.37	30700.81
493.54	31145.51
493.72	31517.65
493.90	31487.23
494.08	31782.13
494.25	32016.19
494.43	32009.17
494.61	32182.37
494.79	32467.91
494.96	32453.87
495.14	32362.59
495.32	32875.16
495.49	33347.95
495.67	33116.24
495.85	33598.39
496.02	33766.91
496.20	33982.24
496.38	33586.69
496.55	33638.18
496.73	34597.80
496.91	34146.08
497.09	34614.18
497.26	34644.61
497.44	34712.49
497.62	35384.22
497.79	35405.28
497.97	35337.41
498.14	35798.49
498.32	36226.81
498.50	36180.00
498.67	36641.09
498.85	35887.43
499.03	36568.53
499.20	36833.01
499.38	36657.47
499.56	36622.36
499.73	36975.78
499.91	37153.66
500.08	37102.17
500.26	37050.68
500.44	37703.69
500.61	37446.23
500.79	37315.16
500.97	37975.19
501.14	38595.43
501.32	38389.47
501.49	38377.76
501.67	38705.44
501.84	38534.58
502.02	39089.29
502.20	39012.05
502.37	39243.76
502.55	39386.54
502.72	39281.21
502.90	39414.62
503.07	39260.15
503.25	39452.07
503.43	39346.75
503.60	40292.32
503.78	39957.63
503.95	40205.72
504.13	40507.65
504.30	40830.65
504.48	40292.32
504.65	40531.06
504.83	41043.63
505.01	41123.21
505.18	41263.64
505.36	41558.55
505.53	41207.47
505.71	41570.25
505.88	41436.84
506.06	41408.76
506.23	41736.43
506.41	41612.38
506.58	41666.22
506.76	41429.82
506.93	42080.49
507.11	42094.53
507.28	42141.35
507.46	42501.79
507.63	42351.99
507.81	42909.04
507.98	42714.78
508.16	42817.76
508.33	43571.41
508.50	43386.51
508.68	43021.39
508.85	44116.76
509.03	43786.74
509.20	44037.18
509.38	44081.65
509.55	44137.82
509.73	44360.17
509.90	44294.64
510.08	44678.49
510.25	44252.51
510.42	44535.71
510.60	44992.12
510.77	44842.32
510.95	44891.48
511.12	45118.51
511.30	44870.41
511.47	45097.44
511.64	45233.19
511.82	46045.36
511.99	45778.54
512.17	45624.06
512.34	45656.83
512.51	46059.40
512.69	46120.26
512.86	45972.80
513.04	46398.78
513.21	46461.97
513.38	46787.31
513.56	46855.18
513.73	46309.84
513.90	46920.72
514.08	46635.17
514.25	47255.42
514.43	47468.40
514.60	46986.25
514.77	47171.16
514.95	47342.02
515.12	47192.22
515.29	47194.56
515.47	47660.33
515.64	47997.37
515.81	47791.40
515.99	47817.14
516.16	48254.82
516.33	47714.16
516.51	48765.06
516.68	48076.94
516.85	48177.59
517.03	48657.40
517.20	48706.55
517.37	48816.55
517.54	48549.73
517.72	48863.36
517.89	49092.74
518.06	49024.86
518.24	49064.65
518.41	48882.09
518.58	48690.16
518.75	48736.98
518.93	49464.88
519.10	49600.63
519.27	49764.47
519.45	49602.97
519.62	49827.66
519.79	49900.22
519.96	49832.35
520.14	49535.10
520.31	49865.11
520.48	50174.06
520.65	49675.53
520.83	50314.50
521.00	50211.51
521.17	50227.90
521.34	50478.33
521.52	50803.67
521.69	50490.04
521.86	50759.20
522.03	51026.02
522.20	51021.34
522.38	51466.04
522.55	51206.24
522.72	51309.22
522.89	50988.57
523.07	51349.01
523.24	51379.44
523.41	51501.15
523.58	51210.92
523.75	51641.58
523.92	51379.44
524.10	51585.41
524.27	51714.14
524.44	52025.43
524.61	51962.23
524.78	52107.35
524.96	51997.34
525.13	52002.02
525.30	52224.37
525.47	52385.87
525.64	52301.61
525.81	52582.48
525.98	52413.96
526.16	52334.38
526.33	52545.03
526.50	52692.48
526.67	52739.29
526.84	52839.93
527.01	52758.02
527.18	52701.84
527.36	52828.23
527.53	53048.24
527.70	53001.43
527.87	53251.87
528.04	53076.33
528.21	53137.18
528.38	53193.36
528.55	53282.30
528.72	52999.09
528.89	53141.86
529.07	53116.12
529.24	53226.12
529.41	53485.92
529.58	53560.82
529.75	53455.50
529.92	53464.86
530.09	53441.45
530.26	53808.92
530.43	53918.92
530.60	53530.39
530.77	53574.86
530.94	53839.34
531.11	53684.87
531.28	53939.99
531.46	54176.38
531.63	54174.04
531.80	54270.00
531.97	53956.37
532.14	54267.66
532.31	54305.11
532.48	54550.87
532.65	54372.99
532.82	54279.36
532.99	54475.97
533.16	54384.69
533.33	54541.50
533.50	54817.69
533.67	54607.04
533.84	54604.70
534.01	54684.28
534.18	54784.92
534.35	55128.98
534.52	54794.28
534.69	54941.74
534.86	55143.02
535.03	55056.42
535.20	54876.20
535.37	55051.74
535.54	55224.94
535.71	55068.12
535.88	55157.06
536.05	55388.78
536.22	55215.58
536.38	55625.17
536.55	55466.02
536.72	55337.29
536.89	55374.73
537.06	55332.60
537.23	55409.84
537.40	55304.52
537.57	55444.95
537.74	55812.41
537.91	55622.83
538.08	55662.62
538.25	55480.06
538.42	55618.15
538.59	55962.21
538.75	55636.87
538.92	56060.51
539.09	56058.17
539.26	56140.09
539.43	55936.46
539.60	55959.87
539.77	56048.81
539.94	56360.10
540.11	56254.78
540.28	56198.60
540.44	56200.94
540.61	56313.29
540.78	56481.81
540.95	56329.67
541.12	56420.95
541.29	56238.39
541.46	56549.68
541.62	56451.38
541.79	56484.15
541.96	56144.77
542.13	56404.57
542.30	56432.66
542.47	56910.13
542.63	56582.45
542.80	56760.33
542.97	56912.47
543.14	57073.96
543.31	57029.49
543.48	57066.94
543.64	57251.84
543.81	57408.66
543.98	57228.44
544.15	57106.73
544.32	57322.06
544.48	57432.07
544.65	57312.70
544.82	57176.95
544.99	56882.04
545.16	57532.71
545.32	57179.29
545.49	57392.28
545.66	57656.76
545.83	57279.93
546.00	57677.82
546.16	57518.67
546.33	57261.21
546.50	57247.16
546.67	57478.88
546.83	57235.46
547.00	57677.82
547.17	57614.63
547.34	57619.31
547.50	57759.74
547.67	57820.59
547.84	57741.02
548.00	57935.28
548.17	58035.92
548.34	58202.10
548.51	58021.88
548.67	58305.09
548.84	57862.72
549.01	57893.15
549.18	58096.78
549.34	57963.37
549.51	58253.59
549.68	58379.98
549.84	58340.19
550.01	58344.87
550.18	57965.71
550.34	58176.36
550.51	58302.74
550.68	58262.96
550.84	57970.39
551.01	58330.83
551.18	58335.51
551.34	58429.13
551.51	58714.68
551.68	58429.13
551.84	58253.59
552.01	58443.18
552.18	58438.50
552.34	58340.19
552.51	58663.19
552.68	58422.11
552.84	58616.38
553.01	58721.70
553.18	58707.66
553.34	58827.02
553.51	58590.63
553.67	58777.87
553.84	58941.71
554.01	58883.20
554.17	58770.85
554.34	58815.32
554.51	58871.49
554.67	58841.07
554.84	58925.33
555.00	58890.22
555.17	58866.81
555.33	59079.80
555.50	58838.73
555.67	59016.61
555.83	58887.88
556.00	59068.10
556.16	59236.62
556.33	59243.64
556.50	59150.02
556.66	59194.49
556.83	59009.59
556.99	59281.09
557.16	59519.82
557.32	59154.70
557.49	59517.48
557.65	59096.19
557.82	59157.04
557.98	59269.39
558.15	59299.81
558.32	59409.82
558.48	59311.52
558.65	59215.55
558.81	59292.79
558.98	59421.52
559.14	59337.26
559.31	59494.08
559.47	59599.40
559.64	59601.74
559.80	59433.22
559.97	59487.06
560.13	59545.57
560.30	59402.80
560.46	59538.55
560.63	59814.73
560.79	59650.89
560.96	59845.16
561.12	59791.33
561.29	59608.76
561.45	59810.05
561.61	59746.86
561.78	59552.59
561.94	59487.06
562.11	59721.11
562.27	59873.24
562.44	59835.80
562.60	59852.18
562.77	59854.52
562.93	59700.04
563.10	60013.68
563.26	59856.86
563.42	60088.57
563.59	59793.67
563.75	59948.14
563.92	59828.77
564.08	59700.04
564.24	60058.15
564.41	60140.07
564.57	60083.89
564.74	59763.24
564.90	60121.34
565.07	59980.91
565.23	60123.68
565.39	60051.12
565.56	60179.85
565.72	59856.86
565.88	60004.31
566.05	59941.12
566.21	59924.74
566.38	59908.35
566.54	60055.81
566.70	60189.22
566.87	60266.45
567.03	60053.47
567.19	60168.15
567.36	60257.09
567.52	60210.28
567.68	60666.69
567.85	60210.28
568.01	60385.82
568.17	59990.27
568.34	60481.78
568.50	60186.88
568.66	60067.51
568.83	60179.85
568.99	60114.32
569.15	60346.03
569.32	60285.18
569.48	60376.46
569.64	60252.41
569.81	60271.14
569.97	60250.07
570.13	60116.66
570.30	60060.49
570.46	60306.24
570.62	60350.71
570.78	60245.39
570.95	60388.16
571.11	60343.69
571.27	60357.74
571.43	60315.61
571.60	60647.96
571.76	60313.26
571.92	60376.46
572.09	60465.40
572.25	60521.57
572.41	60500.51
572.57	60353.05
572.74	60678.39
572.90	60413.91
573.06	60479.44
573.22	60528.59
573.38	60584.77
573.55	60446.68
573.71	60563.70
573.87	60437.31
574.03	60491.15
574.20	60725.20
574.36	60575.40
574.52	60474.76
574.68	60708.82
574.84	60594.13
575.01	60610.51
575.17	60640.94
575.33	60603.49
575.49	60584.77
575.65	60533.28
575.82	60825.84
575.98	60844.57
576.14	60741.58
576.30	60694.77
576.46	60331.99
576.62	60732.22
576.79	60624.56
576.95	60584.77
577.11	60549.66
577.27	60713.50
577.43	60839.89
577.59	60584.77
577.75	60750.94
577.92	60413.91
578.08	60666.69
578.24	60591.79
578.40	60858.61
578.56	60846.91
578.72	60732.22
578.88	60844.57
579.04	60949.89
579.21	60772.01
579.37	60846.91
579.53	60795.42
579.69	60617.53
579.85	60615.19
580.01	60760.31
580.17	60657.32
580.33	60921.80
580.49	60844.57
580.65	60797.76
580.82	60786.05
580.98	60910.10
581.14	60797.76
581.30	60814.14
581.46	60685.41
581.62	60647.96
581.78	60692.43
581.94	60764.99
582.10	60926.49
582.26	60669.03
582.42	60741.58
582.58	60968.61
582.74	60729.88
582.90	60694.77
583.06	60708.82
583.22	60671.37
583.38	60896.06
583.54	60858.61
583.70	60776.69
583.86	60811.80
584.02	60748.60
584.18	61092.66
584.34	60692.43
584.50	60891.38
584.66	60928.83
584.82	60809.46
584.98	61031.81
585.14	60928.83
585.30	60732.22
585.46	60992.02
585.62	60870.31
585.78	61097.34
585.94	60643.28
586.10	60898.40
586.26	60926.49
586.42	60989.68
586.58	60961.59
586.74	61041.17
586.90	60823.50
587.06	60844.57
587.22	61013.08
587.38	60884.36
587.54	61029.47
587.70	61146.50
587.86	60989.68
588.02	60942.87
588.18	61226.07
588.34	60858.61
588.49	60762.65
