SpectraSuite Data File
++++++++++++++++++++++++++++++++++++
Date: Fri Oct 25 11:26:03 EDT 2013
User: price-jones
Dark Spectrum Present: No
Reference Spectrum Present: No
Number of Sampled Component Spectra: 1
Spectrometers: USB2+H05261
Integration Time (usec): 100000 (USB2+H05261)
Spectra Averaged: 1 (USB2+H05261)
Boxcar Smoothing: 0 (USB2+H05261)
Correct for Electrical Dark: No (USB2+H05261)
Strobe/Lamp Enabled: No (USB2+H05261)
Correct for Detector Non-linearity: No (USB2+H05261)
Correct for Stray Light: No (USB2+H05261)
Number of Pixels in Processed Spectrum: 2048
>>>>>Begin Processed Spectral Data<<<<<
365.73	243.42
365.92	243.42
366.12	243.42
366.32	138.09
366.52	131.07
366.72	126.39
366.91	159.16
367.11	142.77
367.31	67.88
367.51	121.71
367.70	112.35
367.90	133.41
368.10	142.77
368.30	128.73
368.49	105.32
368.69	227.03
368.89	203.63
369.09	131.07
369.28	149.79
369.48	191.92
369.68	224.69
369.87	121.71
370.07	166.18
370.27	220.01
370.47	318.31
370.66	592.16
370.86	629.60
371.06	650.67
371.25	706.84
371.45	638.97
371.65	699.82
371.84	704.50
372.04	648.33
372.24	718.54
372.44	709.18
372.63	753.65
372.83	692.80
373.03	690.46
373.22	816.85
373.42	786.42
373.62	763.01
373.81	851.96
374.01	798.12
374.21	844.93
374.40	795.78
374.60	875.36
374.79	828.55
374.99	894.08
375.19	828.55
375.38	833.23
375.58	868.34
375.78	929.19
375.97	795.78
376.17	964.30
376.37	950.26
376.56	786.42
376.76	868.34
376.95	877.70
377.15	891.74
377.35	903.45
377.54	889.40
377.74	873.02
377.93	805.14
378.13	880.04
378.33	1004.09
378.52	912.81
378.72	840.25
378.91	887.06
379.11	833.23
379.31	891.74
379.50	919.83
379.70	983.02
379.89	968.98
380.09	1022.81
380.28	968.98
380.48	1057.92
380.68	940.90
380.87	945.58
381.07	999.41
381.26	1074.31
381.46	1041.54
381.65	1020.47
381.85	1132.82
382.04	1001.75
382.24	1039.20
382.43	1039.20
382.63	1041.54
382.83	1020.47
383.02	1156.22
383.22	1093.03
383.41	1043.88
383.61	1053.24
383.80	1123.46
384.00	1076.65
384.19	1196.01
384.39	1160.91
384.58	1090.69
384.78	1111.75
384.97	1071.97
385.17	1165.59
385.36	1132.82
385.56	1156.22
385.75	1163.25
385.95	1177.29
386.14	1144.52
386.34	1191.33
386.53	1207.72
386.72	1160.91
386.92	1266.23
387.11	1350.49
387.31	1310.70
387.50	1284.95
387.70	1345.81
387.89	1116.44
388.09	1263.89
388.28	1238.14
388.48	1200.69
388.67	1275.59
388.86	1224.10
389.06	1357.51
389.25	1345.81
389.45	1313.04
389.64	1315.38
389.84	1373.89
390.03	1373.89
390.22	1465.18
390.42	1357.51
390.61	1387.94
390.81	1376.24
391.00	1430.07
391.19	1427.73
391.39	1432.41
391.58	1437.09
391.78	1359.85
391.97	1563.48
392.16	1462.83
392.36	1516.67
392.55	1535.39
392.75	1556.46
392.94	1483.90
393.13	1493.26
393.33	1607.95
393.52	1483.90
393.71	1575.18
393.91	1582.20
394.10	1570.50
394.29	1715.61
394.49	1626.67
394.68	1671.14
394.88	1565.82
395.07	1675.82
395.26	1652.42
395.46	1732.00
395.65	1778.81
395.84	1776.47
396.04	1689.87
396.23	1682.85
396.42	1760.08
396.62	1797.53
396.81	1692.21
397.00	1687.53
397.19	1802.21
397.39	1851.36
397.58	1877.11
397.77	1809.23
397.97	1895.83
398.16	1905.20
398.35	1834.98
398.55	1914.56
398.74	1900.52
398.93	1893.49
399.12	1937.96
399.32	1830.30
399.51	1858.39
399.70	1991.80
399.90	2031.58
400.09	1874.77
400.28	1928.60
400.47	1954.35
400.67	1987.11
400.86	2090.10
401.05	2050.31
401.24	2146.27
401.44	2031.58
401.63	2108.82
401.82	2139.25
402.01	2050.31
402.21	2157.97
402.40	2083.08
402.59	2197.76
402.78	2183.72
402.97	2242.23
403.17	2232.87
403.36	2256.28
403.55	2186.06
403.74	2335.85
403.93	2366.28
404.13	2487.99
404.32	2450.54
404.51	2354.58
404.70	2452.88
404.89	2375.64
405.09	2513.74
405.28	2455.22
405.47	2413.09
405.66	2492.67
405.85	2354.58
406.05	2396.71
406.24	2579.27
406.43	2614.38
406.62	2539.48
406.81	2623.74
407.00	2590.97
407.20	2579.27
407.39	2590.97
407.58	2621.40
407.77	2621.40
407.96	2785.24
408.15	2768.85
408.34	2715.02
408.54	2710.34
408.73	2818.00
408.92	2736.09
409.11	2794.60
409.30	2867.16
409.49	2916.31
409.68	2815.66
409.87	2782.90
410.07	2946.73
410.26	3066.10
410.45	2972.48
410.64	2883.54
410.83	3009.93
411.02	3133.98
411.21	3176.11
411.40	3162.06
411.59	3288.45
411.78	3274.41
411.98	3234.62
412.17	3351.65
412.36	3211.22
412.55	3286.11
412.74	3290.79
412.93	3396.12
413.12	3208.87
413.31	3445.27
413.50	3499.10
413.69	3524.85
413.88	3550.59
414.07	3714.43
414.26	3698.05
414.45	3482.72
414.64	3765.92
414.83	3786.99
415.02	3791.67
415.22	3768.26
415.41	3676.98
415.60	3791.67
415.79	3829.12
415.98	4011.68
416.17	4070.19
416.36	4042.11
416.55	3894.65
416.74	4081.89
416.93	4002.32
417.12	4112.32
417.31	4250.41
417.50	4074.87
417.69	4208.28
417.88	4290.20
418.07	4292.54
418.26	4231.69
418.45	4301.90
418.64	4486.81
418.83	4475.10
419.02	4402.55
419.21	4521.92
419.39	4540.64
419.58	4489.15
419.77	4496.17
419.96	4643.62
420.15	4716.18
420.34	4449.36
420.53	4620.22
420.72	4753.63
420.91	4589.79
421.10	4704.48
421.29	4692.77
421.48	4748.95
421.67	4713.84
421.86	4704.48
422.05	4819.16
422.24	4781.71
422.43	4734.90
422.61	4784.06
422.80	4985.34
422.99	4952.57
423.18	5004.07
423.37	5137.48
423.56	4959.60
423.75	4917.47
423.94	4767.67
424.13	4568.73
424.32	4844.91
424.50	5102.37
424.69	5029.81
424.88	5123.43
425.07	4880.02
425.26	4868.31
425.45	5018.11
425.64	5064.92
425.83	4950.23
426.01	4992.36
426.20	5071.94
426.39	5055.56
426.58	5041.51
426.77	5018.11
426.96	5203.01
427.15	5144.50
427.33	5156.20
427.52	5170.24
427.71	5301.31
427.90	5170.24
428.09	5245.14
428.28	5439.40
428.46	5430.04
428.65	5390.25
428.84	5516.64
429.03	5542.39
429.22	5373.87
429.40	5465.15
429.59	5434.72
429.78	5294.29
429.97	5336.42
430.16	5462.81
430.34	5577.50
430.53	5589.20
430.72	5664.10
430.91	5727.29
431.10	5647.71
431.28	5853.68
431.47	5776.44
431.66	5820.91
431.85	5853.68
432.03	5984.75
432.22	5851.34
432.41	5961.34
432.60	5898.15
432.79	5989.43
432.97	5977.73
433.16	5980.07
433.35	5949.64
433.54	6043.26
433.72	6146.25
433.91	6186.04
434.10	6174.33
434.28	5982.41
434.47	6174.33
434.66	6274.98
434.85	6211.78
435.03	6232.85
435.22	6267.95
435.41	6443.49
435.59	6462.22
435.78	6448.18
435.97	6413.07
436.16	6509.03
436.34	6443.49
436.53	6518.39
436.72	6586.27
436.90	6487.96
437.09	6715.00
437.28	6384.98
437.46	6506.69
437.65	6771.17
437.84	6853.09
438.02	6715.00
438.21	6626.06
438.40	6689.25
438.58	6888.20
438.77	7073.10
438.96	6986.50
439.14	7148.00
439.33	7253.32
439.52	7119.91
439.70	7269.70
439.89	7131.61
440.08	7356.30
440.26	7274.38
440.45	7253.32
440.63	7466.31
440.82	7660.57
441.01	7552.91
441.19	7562.27
441.38	7803.35
441.57	7864.20
441.75	7868.88
441.94	7756.54
442.12	7981.23
442.31	7918.03
442.50	8140.38
442.68	7843.14
442.87	7932.08
443.05	7999.95
443.24	8320.60
443.43	7880.58
443.61	8243.37
443.80	8360.39
443.98	7941.44
444.17	7880.58
444.35	8203.58
444.54	8259.75
444.73	8149.75
444.91	8124.00
445.10	8390.82
445.28	8266.77
445.47	8208.26
445.65	8468.06
445.84	8606.15
446.02	8500.83
446.21	8439.97
446.39	8339.33
446.58	8376.78
446.77	8304.22
446.95	8098.25
447.14	8423.59
447.32	8517.21
447.51	8414.23
447.69	8458.70
447.88	8407.20
448.06	8578.06
448.25	8231.66
448.43	8552.32
448.62	8610.83
448.80	8596.79
448.99	8947.87
449.17	8706.79
449.36	8720.84
449.54	8798.07
449.73	8964.25
449.91	9240.44
450.10	9069.58
450.28	9137.45
450.46	8961.91
450.65	9092.98
450.83	8980.64
451.02	9048.51
451.20	9118.73
451.39	9334.06
451.57	9095.32
451.76	8973.61
451.94	9238.09
452.13	9486.19
452.31	9439.38
452.49	8990.00
452.68	9289.59
452.86	9415.98
453.05	9399.59
453.23	9540.02
453.42	9490.87
453.60	9472.15
453.78	9575.13
453.97	9411.29
454.15	9540.02
454.34	9575.13
454.52	9776.42
454.70	9764.72
454.89	9675.77
455.07	9764.72
455.26	9745.99
455.44	9956.64
455.62	9755.35
455.81	10019.83
455.99	10029.20
456.17	10066.64
456.36	10040.90
456.54	10438.79
456.73	10415.38
456.91	10391.98
457.09	10497.30
457.28	10506.66
457.46	10235.16
457.64	10619.01
457.83	10654.12
458.01	10232.82
458.19	10832.00
458.38	10455.17
458.56	10560.50
458.74	10656.46
458.93	10490.28
459.11	10787.53
459.29	10689.23
459.48	10757.10
459.66	10829.66
459.84	10902.22
460.03	11199.46
460.21	11037.97
460.39	11206.48
460.57	11110.52
460.76	11133.93
460.94	11176.06
461.12	11267.34
461.31	11091.80
461.49	11014.56
461.67	11140.95
461.85	11344.58
462.04	11234.57
462.22	11791.62
462.40	11702.68
462.59	11353.94
462.77	11564.59
462.95	11700.34
463.13	11468.62
463.32	11716.72
463.50	11602.04
463.68	11819.71
463.86	11915.67
464.05	11623.10
464.23	11681.61
464.41	11927.37
464.59	11604.38
464.78	12077.16
464.96	12135.68
465.14	11915.67
465.32	12074.82
465.50	12119.29
465.69	12166.10
465.87	11941.41
466.05	12189.51
466.23	12170.79
466.41	12084.19
466.60	12402.50
466.78	12121.63
466.96	12252.70
467.14	12411.86
467.32	12273.77
467.51	12468.03
467.69	12182.49
467.87	12566.34
468.05	12732.51
468.23	12362.71
468.41	12545.27
468.60	12526.55
468.78	12898.69
468.96	12699.75
469.14	12765.28
469.32	13048.49
469.50	12505.48
469.69	12943.16
469.87	13048.49
470.05	12980.61
470.23	13006.36
470.41	13315.31
470.59	13425.31
470.77	13242.75
470.95	13270.84
471.14	13568.09
471.32	13107.00
471.50	13460.42
471.68	13343.39
471.86	13528.30
472.04	13446.38
472.22	14033.85
472.40	13633.62
472.58	13760.01
472.77	13813.84
472.95	13928.53
473.13	14581.54
473.31	13905.12
473.49	14190.67
473.67	14188.33
473.85	14338.12
474.03	14516.00
474.21	14640.05
474.39	14593.24
474.57	14523.02
474.75	14855.38
474.93	14834.32
475.12	15016.88
475.30	15117.52
475.48	15103.48
475.66	15236.89
475.84	14991.13
476.02	15311.78
476.20	15342.21
476.38	15520.09
476.56	15936.71
476.74	15960.11
476.92	15847.77
477.10	16020.97
477.28	16130.97
477.46	16049.05
477.64	16299.49
477.82	16505.46
478.00	17025.06
478.18	16636.53
478.36	16802.71
478.54	17186.55
478.72	17209.96
478.90	17362.09
479.08	17483.80
479.26	17561.04
479.44	17635.94
479.62	17731.90
479.80	17991.70
479.98	18029.15
480.16	18663.43
480.34	18401.29
480.52	18780.46
480.70	18679.82
480.88	18359.16
481.06	18689.18
481.24	18909.19
481.41	19208.78
481.59	19264.95
481.77	19431.13
481.95	19400.70
482.13	19681.56
482.31	19545.81
482.49	20194.14
482.67	20449.26
482.85	20194.14
483.03	20460.96
483.21	20816.72
483.39	20950.14
483.57	20938.43
483.74	21221.64
483.92	21411.22
484.10	21380.79
484.28	21298.88
484.46	22169.55
484.64	22345.09
484.82	21710.81
485.00	22260.84
485.18	22675.11
485.35	23098.75
485.53	22864.69
485.71	23028.53
485.89	23358.55
486.07	23023.85
486.25	23480.25
486.43	23758.78
486.61	24020.92
486.78	23971.77
486.96	24250.29
487.14	24762.87
487.32	24631.80
487.50	24781.59
487.68	24912.66
487.85	25369.07
488.03	25376.09
488.21	25806.75
488.39	25834.83
488.57	26188.25
488.75	26127.40
488.92	26436.35
489.10	26817.86
489.28	26316.98
489.46	26731.26
489.64	26930.20
489.81	27445.12
489.99	27246.18
490.17	27875.78
490.35	28168.35
490.53	28140.26
490.70	28402.40
490.88	27948.34
491.06	28538.15
491.24	28713.69
491.41	28982.85
491.59	29296.49
491.77	29305.85
491.95	29769.27
492.13	29748.21
492.30	29783.32
492.48	30197.59
492.66	30209.29
492.84	29961.20
493.01	30618.89
493.19	30749.96
493.37	31257.85
493.54	31077.63
493.72	31206.36
493.90	31501.27
494.08	31704.90
494.25	32158.96
494.43	32055.98
494.61	32292.37
494.79	32453.87
494.96	32650.47
495.14	32776.86
495.32	32865.80
495.49	33127.94
495.67	33228.59
495.85	33670.95
496.02	33670.95
496.20	33666.27
496.38	33919.04
496.55	33991.60
496.73	34918.45
496.91	34408.22
497.09	34728.87
497.26	34771.00
497.44	34490.13
497.62	35131.44
497.79	35730.62
497.97	35171.23
498.14	35800.83
498.32	36079.36
498.50	36510.02
498.67	36222.13
498.85	36444.48
499.03	36662.15
499.20	36512.36
499.38	37029.62
499.56	36753.43
499.73	36903.23
499.91	37158.34
500.08	37413.46
500.26	37198.13
500.44	37406.44
500.61	37710.71
500.79	37532.83
500.97	38024.34
501.14	38618.84
501.32	38660.97
501.49	38349.68
501.67	38485.43
501.84	38969.92
502.02	38586.07
502.20	39203.97
502.37	38986.30
502.55	38946.51
502.72	39227.38
502.90	39704.85
503.07	39318.66
503.25	39643.99
503.43	39737.62
503.60	39697.83
503.78	39929.54
503.95	39702.51
504.13	40474.88
504.30	40524.04
504.48	40409.35
504.65	40837.67
504.83	41003.85
505.01	41294.07
505.18	41277.69
505.36	41535.15
505.53	41148.96
505.71	41427.48
505.88	41745.80
506.06	41275.35
506.23	41743.45
506.41	41521.10
506.58	41715.37
506.76	41951.76
506.93	42265.39
507.11	42155.39
507.28	42857.55
507.46	42646.90
507.63	43002.66
507.81	42976.92
507.98	42555.62
508.16	43227.35
508.33	43225.01
508.50	43133.73
508.68	43526.94
508.85	43681.42
509.03	44222.08
509.20	43452.05
509.38	44198.68
509.55	43945.90
509.73	44215.06
509.90	44151.87
510.08	44385.92
510.25	44395.28
510.42	44755.72
510.60	45006.16
510.77	44697.21
510.95	45350.22
511.12	45375.97
511.30	44748.70
511.47	45390.01
511.64	45347.88
511.82	45834.71
511.99	45469.59
512.17	45832.37
512.34	45954.08
512.51	46363.67
512.69	46251.33
512.86	46300.48
513.04	46576.66
513.21	46583.68
513.38	46602.41
513.56	46691.35
513.73	46281.75
513.90	46904.34
514.08	46710.07
514.25	47196.90
514.43	47224.99
514.60	47145.41
514.77	47374.78
514.95	47688.42
515.12	47646.29
515.29	47997.37
515.47	47945.87
515.64	48205.67
515.81	47683.73
515.99	48268.87
516.16	48301.64
516.33	48320.36
516.51	48746.34
516.68	48458.45
516.85	48144.82
517.03	48851.66
517.20	48641.01
517.37	48797.83
517.54	48678.46
517.72	48617.61
517.89	49074.01
518.06	48961.67
518.24	49134.87
518.41	49081.03
518.58	49368.92
518.75	49331.47
518.93	49333.81
519.10	49251.89
519.27	49773.83
519.45	49785.54
519.62	49549.14
519.79	50007.89
519.96	49818.30
520.14	50136.62
520.31	50263.00
520.48	50206.83
520.65	50073.42
520.83	50305.13
521.00	50305.13
521.17	50586.00
521.34	50897.29
521.52	50534.51
521.69	50567.27
521.86	50775.58
522.03	50887.93
522.20	51014.32
522.38	51215.60
522.55	51035.38
522.72	51229.65
522.89	51372.42
523.07	51576.04
523.24	51412.21
523.41	51849.89
523.58	51201.56
523.75	51742.22
523.92	51405.19
524.10	51915.42
524.27	51999.68
524.44	51669.67
524.61	52325.02
524.78	52048.83
524.96	51938.83
525.13	52282.89
525.30	52226.71
525.47	52699.50
525.64	52477.15
525.81	52420.98
525.98	52713.55
526.16	52538.01
526.33	52601.20
526.50	52863.34
526.67	52795.46
526.84	53127.82
527.01	52947.60
527.18	52966.32
527.36	52900.79
527.53	52954.62
527.70	53427.41
527.87	53191.01
528.04	52985.05
528.21	53294.00
528.38	53366.55
528.55	53621.67
528.72	53329.11
528.89	53174.63
529.07	53261.23
529.24	53279.96
529.41	53841.68
529.58	53570.18
529.75	53673.16
529.92	53305.70
530.09	53771.47
530.26	53956.37
530.43	54003.18
530.60	53621.67
530.77	53729.34
530.94	54078.08
531.11	53993.82
531.28	54384.69
531.46	53930.62
531.63	53996.16
531.80	54087.44
531.97	54520.44
532.14	54398.73
532.31	54372.99
532.48	54375.33
532.65	54497.03
532.82	54157.66
532.99	54663.21
533.16	54614.06
533.33	54873.86
533.50	54674.91
533.67	54787.26
533.84	54653.85
534.01	54986.21
534.18	54745.13
534.35	55157.06
534.52	54904.29
534.69	55070.46
534.86	55440.27
535.03	54976.84
535.20	55285.79
535.37	55576.02
535.54	55264.73
535.71	55222.60
535.88	55241.32
536.05	55318.56
536.22	55510.49
536.38	55835.82
536.55	55248.35
536.72	55526.87
536.89	55697.73
537.06	55468.36
537.23	55601.77
537.40	55489.42
537.57	55683.69
537.74	55711.77
537.91	55948.17
538.08	55882.63
538.25	55639.22
538.42	55917.74
538.59	56240.73
538.75	55641.56
538.92	56175.20
539.09	56296.91
539.26	56055.83
539.43	56004.34
539.60	56254.78
539.77	56069.87
539.94	56294.56
540.11	56420.95
540.28	56189.24
540.44	56336.69
540.61	56060.51
540.78	56285.20
540.95	56367.12
541.12	56371.80
541.29	56556.70
541.46	56498.19
541.62	56315.63
541.79	56636.28
541.96	55994.98
542.13	56458.40
542.30	56732.25
542.47	56903.10
542.63	56671.39
542.80	56877.36
542.97	57095.03
543.14	57179.29
543.31	57169.93
543.48	57448.45
543.64	57352.49
543.81	57572.50
543.98	57322.06
544.15	57200.35
544.32	57308.02
544.48	57513.98
544.65	57233.12
544.82	57396.96
544.99	57153.54
545.16	57518.67
545.32	57324.40
545.49	57776.12
545.66	57577.18
545.83	57694.21
546.00	57909.53
546.16	57771.44
546.33	57769.10
546.50	57249.50
546.67	57584.20
546.83	57371.21
547.00	57528.03
547.17	57638.03
547.34	57598.24
547.50	57928.26
547.67	57939.96
547.84	57911.88
548.00	57956.35
548.17	58092.10
548.34	57963.37
548.51	58033.58
548.67	58232.53
548.84	58216.14
549.01	57829.96
549.18	57982.09
549.34	58300.40
549.51	58202.10
549.68	58382.32
549.84	58452.54
550.01	58394.03
550.18	58330.83
550.34	58377.64
550.51	58571.91
550.68	58548.50
550.84	58181.04
551.01	58370.62
551.18	58370.62
551.34	58487.65
551.51	58473.60
551.68	58492.33
551.84	58499.35
552.01	58450.20
552.18	58525.10
552.34	58396.37
552.51	58754.47
552.68	58447.86
552.84	58724.04
553.01	58890.22
553.18	58646.80
553.34	58623.40
553.51	58691.27
553.67	58630.42
553.84	58937.03
554.01	58885.54
554.17	58953.41
554.34	58922.99
554.51	58951.07
554.67	59185.13
554.84	58904.26
555.00	58983.84
555.17	59014.27
555.33	58878.52
555.50	58815.32
555.67	58702.98
555.83	59126.61
556.00	58962.78
556.16	59416.84
556.33	59140.66
556.50	59051.72
556.66	59231.94
556.83	59086.82
556.99	59444.93
557.16	59524.50
557.32	59416.84
557.49	59400.46
557.65	59187.47
557.82	59327.90
557.98	59295.13
558.15	59618.13
558.32	59437.90
558.48	59292.79
558.65	59487.06
558.81	59522.16
558.98	59323.22
559.14	59576.00
559.31	59592.38
559.47	59618.13
559.64	59683.66
559.80	59636.85
559.97	59737.49
560.13	59756.22
560.30	59728.13
560.46	59604.08
560.63	59704.73
560.79	59983.25
560.96	60100.28
561.12	59716.43
561.29	59767.92
561.45	59686.00
561.61	59756.22
561.78	59810.05
561.94	59599.40
562.11	59739.83
562.27	59891.97
562.44	60102.62
562.60	60109.64
562.77	60023.04
562.93	59807.71
563.10	59929.42
563.26	59742.17
563.42	60229.01
563.59	60163.47
563.75	59973.89
563.92	59896.65
564.08	59894.31
564.24	60046.44
564.41	60027.72
564.57	60097.94
564.74	60158.79
564.90	60177.51
565.07	60100.28
565.23	60011.34
565.39	59997.29
565.56	60163.47
565.72	60037.08
565.88	59985.59
566.05	60182.19
566.21	59910.69
566.38	60212.62
566.54	60341.35
566.70	60357.74
566.87	60334.33
567.03	60107.30
567.19	60294.54
567.36	60257.09
567.52	60357.74
567.68	60486.46
567.85	60355.39
568.01	60486.46
568.17	60388.16
568.34	60374.12
568.50	60123.68
568.66	60287.52
568.83	60388.16
568.99	60324.97
569.15	60378.80
569.32	60324.97
569.48	60343.69
569.64	60502.85
569.81	60287.52
569.97	60221.98
570.13	60493.49
570.30	60313.26
570.46	60514.55
570.62	60294.54
570.78	60477.10
570.95	60275.82
571.11	60832.86
571.27	60306.24
571.43	60374.12
571.60	60610.51
571.76	60533.28
571.92	60629.24
572.09	60685.41
572.25	60512.21
572.41	60463.06
572.57	60535.62
572.74	60591.79
572.90	60364.76
573.06	60493.49
573.22	60523.91
573.38	60568.38
573.55	60498.17
573.71	60741.58
573.87	60797.76
574.03	60568.38
574.20	60692.43
574.36	60561.36
574.52	60528.59
574.68	60821.16
574.84	60669.03
575.01	60732.22
575.17	60825.84
575.33	60446.68
575.49	60390.50
575.65	60767.33
575.82	60671.37
575.98	60694.77
576.14	60928.83
576.30	60743.92
576.46	60643.28
576.62	60713.50
576.79	60643.28
576.95	60793.07
577.11	60729.88
577.27	60870.31
577.43	60739.24
577.59	60753.29
577.75	60797.76
577.92	60547.32
578.08	60830.52
578.24	60882.02
578.40	60860.95
578.56	61041.17
578.72	60835.20
578.88	60676.05
579.04	60804.78
579.21	60921.80
579.37	60764.99
579.53	60699.45
579.69	60624.56
579.85	60544.98
580.01	60729.88
580.17	60786.05
580.33	61073.94
580.49	60893.72
580.65	60720.52
580.82	60849.25
580.98	60956.91
581.14	60987.34
581.30	61188.63
581.46	60764.99
581.62	60992.02
581.78	60931.17
581.94	61050.53
582.10	60926.49
582.26	60835.20
582.42	60809.46
582.58	60931.17
582.74	60910.10
582.90	60788.39
583.06	60701.79
583.22	60741.58
583.38	60956.91
583.54	60982.66
583.70	61038.83
583.86	60821.16
584.02	60818.82
584.18	61022.45
584.34	60816.48
584.50	61017.77
584.66	60776.69
584.82	60706.47
584.98	61179.26
585.14	61113.73
585.30	60748.60
585.46	61015.43
585.62	60858.61
585.78	61001.38
585.94	60669.03
586.10	60903.08
586.26	60961.59
586.42	61104.37
586.58	61209.69
586.74	60980.32
586.90	60900.74
587.06	60846.91
587.22	61162.88
587.38	61116.07
587.54	61057.56
587.70	61240.12
587.86	60931.17
588.02	61087.98
588.18	61120.75
588.34	61092.66
