SpectraSuite Data File
++++++++++++++++++++++++++++++++++++
Date: Fri Oct 25 10:48:29 EDT 2013
User: price-jones
Dark Spectrum Present: No
Reference Spectrum Present: No
Number of Sampled Component Spectra: 1
Spectrometers: USB2+H05261
Integration Time (usec): 100000 (USB2+H05261)
Spectra Averaged: 1 (USB2+H05261)
Boxcar Smoothing: 0 (USB2+H05261)
Correct for Electrical Dark: No (USB2+H05261)
Strobe/Lamp Enabled: No (USB2+H05261)
Correct for Detector Non-linearity: No (USB2+H05261)
Correct for Stray Light: No (USB2+H05261)
Number of Pixels in Processed Spectrum: 2048
>>>>>Begin Processed Spectral Data<<<<<
365.73	131.07
365.92	131.07
366.12	131.07
366.32	42.13
366.52	9.36
366.72	51.49
366.91	86.60
367.11	88.94
367.31	49.15
367.51	32.77
367.70	16.38
367.90	77.24
368.10	84.26
368.30	79.58
368.49	95.96
368.69	72.56
368.89	16.38
369.09	67.88
369.28	44.47
369.48	65.54
369.68	124.05
369.87	100.64
370.07	95.96
370.27	124.05
370.47	224.69
370.66	470.45
370.86	444.70
371.06	521.94
371.25	486.83
371.45	524.28
371.65	510.24
371.84	547.69
372.04	491.51
372.24	531.30
372.44	528.96
372.63	543.00
372.83	519.60
373.03	463.43
373.22	498.53
373.42	479.81
373.62	559.39
373.81	561.73
374.01	524.28
374.21	629.60
374.40	559.39
374.60	624.92
374.79	580.45
374.99	627.26
375.19	601.52
375.38	615.56
375.58	599.18
375.78	636.63
375.97	554.71
376.17	697.48
376.37	653.01
376.56	587.47
376.76	627.26
376.95	634.29
377.15	589.82
377.35	699.82
377.54	730.25
377.74	622.58
377.93	631.94
378.13	634.29
378.33	730.25
378.52	655.35
378.72	610.88
378.91	676.41
379.11	671.73
379.31	685.78
379.50	702.16
379.70	758.33
379.89	758.33
380.09	688.12
380.28	753.65
380.48	732.59
380.68	718.54
380.87	709.18
381.07	706.84
381.26	727.91
381.46	657.69
381.65	786.42
381.85	758.33
382.04	716.20
382.24	737.27
382.43	734.93
382.63	765.36
382.83	744.29
383.02	777.06
383.22	791.10
383.41	844.93
383.61	821.53
383.80	889.40
384.00	767.70
384.19	816.85
384.39	854.30
384.58	800.46
384.78	807.48
384.97	823.87
385.17	835.57
385.36	835.57
385.56	929.19
385.75	816.85
385.95	828.55
386.14	823.87
386.34	842.59
386.53	866.00
386.72	931.53
386.92	880.04
387.11	898.77
387.31	936.21
387.50	940.90
387.70	854.30
387.89	873.02
388.09	905.79
388.28	926.85
388.48	957.28
388.67	994.73
388.86	976.00
389.06	961.96
389.25	1006.43
389.45	1015.79
389.64	952.60
389.84	971.32
390.03	1057.92
390.22	1001.75
390.42	964.30
390.61	1055.58
390.81	985.37
391.00	1025.15
391.19	1043.88
391.39	1053.24
391.58	1067.28
391.78	1116.44
391.97	1034.52
392.16	1039.20
392.36	1107.07
392.55	1104.73
392.75	1076.65
392.94	1020.47
393.13	1104.73
393.33	1083.67
393.52	1088.35
393.71	1097.71
393.91	1226.44
394.10	1165.59
394.29	1212.40
394.49	1177.29
394.68	1165.59
394.88	1193.67
395.07	1287.29
395.26	1224.10
395.46	1268.57
395.65	1277.93
395.84	1207.72
396.04	1256.87
396.23	1256.87
396.42	1219.42
396.62	1200.69
396.81	1268.57
397.00	1308.36
397.19	1376.24
397.39	1296.66
397.58	1380.92
397.77	1352.83
397.97	1406.66
398.16	1432.41
398.35	1519.01
398.55	1549.43
398.74	1474.54
398.93	1558.80
399.12	1411.34
399.32	1462.83
399.51	1551.78
399.70	1511.99
399.90	1549.43
400.09	1589.22
400.28	1568.16
400.47	1666.46
400.67	1689.87
400.86	1753.06
401.05	1661.78
401.24	1762.42
401.44	1675.82
401.63	1771.79
401.82	1816.26
402.01	1888.81
402.21	1727.32
402.40	1778.81
402.59	1769.44
402.78	1750.72
402.97	1870.09
403.17	1842.00
403.36	1830.30
403.55	1886.47
403.74	1886.47
403.93	1940.30
404.13	1966.05
404.32	1788.17
404.51	2029.24
404.70	1923.92
404.89	2033.93
405.09	2045.63
405.28	1989.46
405.47	2052.65
405.66	1975.41
405.85	1989.46
406.05	1963.71
406.24	1994.14
406.43	2045.63
406.62	2024.56
406.81	2218.83
407.00	2101.80
407.20	2066.69
407.39	2141.59
407.58	2200.10
407.77	2132.23
407.96	2349.90
408.15	2324.15
408.34	2296.07
408.54	2324.15
408.73	2246.91
408.92	2260.96
409.11	2349.90
409.30	2293.72
409.49	2298.41
409.68	2392.03
409.87	2375.64
410.07	2399.05
410.26	2324.15
410.45	2338.20
410.64	2478.63
410.83	2520.76
411.02	2518.42
411.21	2621.40
411.40	2616.72
411.59	2569.91
411.78	2703.32
411.98	2593.31
412.17	2675.23
412.36	2775.88
412.55	2761.83
412.74	2857.79
412.93	2736.09
413.12	2761.83
413.31	2928.01
413.50	2888.22
413.69	2853.11
413.88	2949.08
414.07	2928.01
414.26	2855.45
414.45	3026.31
414.64	3068.44
414.83	3045.04
415.02	3112.91
415.22	3112.91
415.41	3112.91
415.60	3073.12
415.79	3157.38
415.98	3281.43
416.17	3274.41
416.36	3337.60
416.55	3258.03
416.74	3496.76
416.93	3351.65
417.12	3192.49
417.31	3435.91
417.50	3403.14
417.69	3492.08
417.88	3442.93
418.07	3482.72
418.26	3669.96
418.45	3485.06
418.64	3714.43
418.83	3569.32
419.02	3543.57
419.21	3716.77
419.39	3709.75
419.58	3688.68
419.77	3536.55
419.96	3578.68
420.15	3714.43
420.34	3707.41
420.53	3756.56
420.72	3805.71
420.91	3925.08
421.10	3913.38
421.29	3950.82
421.48	3810.39
421.67	3836.14
421.86	3904.01
422.05	3833.80
422.24	3737.84
422.43	3667.62
422.61	3880.61
422.80	3953.16
422.99	3852.52
423.18	3990.61
423.37	4086.58
423.56	3981.25
423.75	4067.85
423.94	3939.12
424.13	3765.92
424.32	3744.86
424.50	4219.99
424.69	4147.43
424.88	4086.58
425.07	4016.36
425.26	3845.50
425.45	3955.51
425.64	3941.46
425.83	4009.34
426.01	4182.54
426.20	3983.59
426.39	4156.79
426.58	3964.87
426.77	4032.74
426.96	4030.40
427.15	3985.93
427.33	4002.32
427.52	4264.46
427.71	4159.13
427.90	4219.99
428.09	4168.49
428.28	4205.94
428.46	4315.95
428.65	4236.37
428.84	4313.61
429.03	4334.67
429.22	4212.96
429.40	4236.37
429.59	4175.52
429.78	3967.21
429.97	4011.68
430.16	3997.64
430.34	4070.19
430.53	4241.05
430.72	4285.52
430.91	4201.26
431.10	4379.14
431.28	4561.70
431.47	4688.09
431.66	4683.41
431.85	4634.26
432.03	4641.28
432.22	4699.80
432.41	4716.18
432.60	4688.09
432.79	4561.70
432.97	4828.53
433.16	4777.03
433.35	4718.52
433.54	4622.56
433.72	4730.22
433.91	4847.25
434.10	4695.11
434.28	4704.48
434.47	4828.53
434.66	4851.93
434.85	4891.72
435.03	5039.17
435.22	4858.95
435.41	5123.43
435.59	5296.63
435.78	5100.03
435.97	5305.99
436.16	5055.56
436.34	5167.90
436.53	5280.25
436.72	5313.02
436.90	5240.46
437.09	5224.08
437.28	5144.50
437.46	5212.37
437.65	5191.31
437.84	5303.65
438.02	5116.41
438.21	5256.84
438.40	5163.22
438.58	5329.40
438.77	5572.82
438.96	5334.08
439.14	5720.27
439.33	5647.71
439.52	5820.91
439.70	5598.56
439.89	5748.36
440.08	5792.83
440.26	5837.30
440.45	5872.40
440.63	5804.53
440.82	6202.42
441.01	5973.05
441.19	6064.33
441.38	6214.12
441.57	6122.84
441.75	6338.17
441.94	6347.53
442.12	6197.74
442.31	6441.15
442.50	6338.17
442.68	6312.42
442.87	6356.90
443.05	6502.01
443.24	6532.44
443.43	6256.25
443.61	6476.26
443.80	6588.61
443.98	6363.92
444.17	6310.08
444.35	6485.62
444.54	6700.95
444.73	6616.69
444.91	6466.90
445.10	6490.31
445.28	6450.52
445.47	6513.71
445.65	6373.28
445.84	6579.25
446.02	6700.95
446.21	6686.91
446.39	6532.44
446.58	6703.29
446.77	6635.42
446.95	6459.88
447.14	6813.30
447.32	6658.82
447.51	6745.42
447.69	6693.93
447.88	6785.21
448.06	6787.55
448.25	6712.66
448.43	6841.39
448.62	6738.40
448.80	6726.70
448.99	6722.02
449.17	6754.79
449.36	6796.92
449.54	7220.55
449.73	7265.02
449.91	7133.95
450.10	7199.49
450.28	7295.45
450.46	7445.24
450.65	7250.98
450.83	7162.04
451.02	7220.55
451.20	7438.22
451.39	7183.10
451.57	7358.64
451.76	7288.43
451.94	7356.30
452.13	7332.90
452.31	7337.58
452.49	7288.43
452.68	7222.89
452.86	7426.52
453.05	7293.11
453.23	7365.67
453.42	7281.41
453.60	7250.98
453.78	7435.88
453.97	7520.14
454.15	7283.75
454.34	7550.57
454.52	7384.39
454.70	7531.84
454.89	7648.87
455.07	7534.18
455.26	7833.77
455.44	7831.43
455.62	7831.43
455.81	7974.21
455.99	7999.95
456.17	7798.66
456.36	7955.48
456.54	7962.50
456.73	7981.23
456.91	8187.19
457.09	8173.15
457.28	8400.18
457.46	8290.18
457.64	8187.19
457.83	8241.03
458.01	8201.24
458.19	8346.35
458.38	8416.57
458.56	8362.73
458.74	8386.14
458.93	8203.58
459.11	8402.52
459.29	8444.65
459.48	8514.87
459.66	8414.23
459.84	8439.97
460.03	8552.32
460.21	8594.45
460.39	8517.21
460.57	8617.85
460.76	8690.41
460.94	8580.40
461.12	8685.73
461.31	8732.54
461.49	8711.47
461.67	8631.90
461.85	8685.73
462.04	8835.52
462.22	9385.55
462.40	9174.90
462.59	9121.07
462.77	8924.46
462.95	9247.46
463.13	9081.28
463.32	8940.85
463.50	9083.62
463.68	9071.92
463.86	9191.28
464.05	8994.68
464.23	8877.65
464.41	9022.77
464.59	8990.00
464.78	9277.88
464.96	9224.05
465.14	9092.98
465.32	9205.33
465.50	9469.81
465.69	9364.48
465.87	9465.13
466.05	9352.78
466.23	9160.86
466.41	9198.31
466.60	9291.93
466.78	9394.91
466.96	9329.38
467.14	9439.38
467.32	9568.11
467.51	9738.97
467.69	9139.79
467.87	9373.85
468.05	9666.41
468.23	9500.23
468.41	9554.07
468.60	9554.07
468.78	9514.28
468.96	9624.28
469.14	9668.75
469.32	9664.07
469.50	9500.23
469.69	9832.59
469.87	9832.59
470.05	9886.42
470.23	9753.01
470.41	9884.08
470.59	10012.81
470.77	9916.85
470.95	10169.63
471.14	10125.16
471.32	9991.75
471.50	10317.08
471.68	10560.50
471.86	10448.15
472.04	10501.98
472.22	10796.89
472.40	10331.12
472.58	10520.71
472.77	10326.44
472.95	10581.56
473.13	11194.78
473.31	10656.46
473.49	10534.75
473.67	10689.23
473.85	10707.95
474.03	11009.88
474.21	11075.42
474.39	11349.26
474.57	11246.27
474.75	11300.11
474.93	11274.36
475.12	11260.32
475.30	11534.16
475.48	11232.23
475.66	11587.99
475.84	11356.28
476.02	11391.39
476.20	11700.34
476.38	11712.04
476.56	12011.63
476.74	11857.15
476.92	11913.33
477.10	11962.48
477.28	12163.76
477.46	12070.14
477.64	12376.75
477.82	12493.78
478.00	12784.01
478.18	12599.10
478.36	12425.90
478.54	12987.63
478.72	12879.97
478.90	13008.70
479.08	13383.18
479.26	13207.64
479.44	13205.30
479.62	13069.55
479.80	13584.47
479.98	13497.87
480.16	13860.65
480.34	13879.38
480.52	13804.48
480.70	13748.31
480.88	13799.80
481.06	14012.79
481.24	14143.86
481.41	14473.87
481.59	14497.28
481.77	14384.93
481.95	14691.54
482.13	14665.80
482.31	14743.03
482.49	14979.43
482.67	15171.35
482.85	15112.84
483.03	15414.77
483.21	15506.05
483.39	15403.07
483.57	15662.86
483.74	15800.96
483.92	15988.20
484.10	15571.58
484.28	16037.35
484.46	16313.53
484.64	16519.50
484.82	16212.89
485.00	16311.19
485.18	16697.38
485.35	16683.34
485.53	16479.71
485.71	16224.59
485.89	16650.57
486.07	16493.76
486.25	16772.28
486.43	17256.77
486.61	17207.62
486.78	17259.11
486.96	17153.79
487.14	17743.60
487.32	17921.48
487.50	17991.70
487.68	18258.52
487.85	18345.12
488.03	19066.00
488.21	18766.42
488.39	19126.86
488.57	18761.73
488.75	18733.65
488.92	19108.13
489.10	19215.80
489.28	19452.19
489.46	20088.82
489.64	19506.02
489.81	20334.57
489.99	20386.07
490.17	20568.63
490.35	20545.22
490.53	20479.69
490.70	20861.19
490.88	20650.55
491.06	20954.82
491.24	20823.75
491.41	20805.02
491.59	20802.68
491.77	20973.54
491.95	21305.90
492.13	21666.34
492.30	21790.39
492.48	22246.79
492.66	22078.27
492.84	21869.97
493.01	22232.75
493.19	22384.88
493.37	22307.65
493.54	22408.29
493.72	22710.22
493.90	22565.10
494.08	23091.73
494.25	23445.15
494.43	23381.95
494.61	23674.52
494.79	23857.08
494.96	23665.16
495.14	23793.89
495.32	23955.38
495.49	24041.98
495.67	24102.84
495.85	24528.81
496.02	24575.62
496.20	24837.76
496.38	24781.59
496.55	24781.59
496.73	25338.64
496.91	25118.63
497.09	25256.72
497.26	24999.26
497.44	25238.00
497.62	25153.74
497.79	25575.03
497.97	25528.22
498.14	25509.50
498.32	25820.79
498.50	25923.77
498.67	26316.98
498.85	26541.68
499.03	26707.85
499.20	26274.85
499.38	26595.51
499.56	26775.73
499.73	27012.12
499.91	26712.53
500.08	27267.24
500.26	26637.64
500.44	26986.38
500.61	27218.09
500.79	26876.37
500.97	27213.41
501.14	27386.61
501.32	27658.11
501.49	27463.85
501.67	27197.02
501.84	27763.43
502.02	27655.77
502.20	28027.92
502.37	28027.92
502.55	27882.80
502.72	27927.27
502.90	28184.73
503.07	28261.97
503.25	28395.38
503.43	28376.66
503.60	28840.08
503.78	28709.01
503.95	28526.45
504.13	29116.26
504.30	28854.12
504.48	28910.30
504.65	29336.27
504.83	29226.27
505.01	29645.23
505.18	29879.28
505.36	29970.56
505.53	29558.63
505.71	29832.47
505.88	30431.65
506.06	29603.10
506.23	29780.98
506.41	29696.72
506.58	30473.78
506.76	29998.65
506.93	30192.91
507.11	30675.06
507.28	30785.07
507.46	30305.26
507.63	30146.10
507.81	30443.35
507.98	30567.40
508.16	30691.44
508.33	30932.52
508.50	31278.92
508.68	31220.41
508.85	31426.37
509.03	31480.21
509.20	31606.59
509.38	31676.81
509.55	31845.33
509.73	31637.02
509.90	31349.14
510.08	31622.98
510.25	31475.52
510.42	31665.11
510.60	32137.90
510.77	32121.51
510.95	32449.19
511.12	32453.87
511.30	32673.88
511.47	32606.00
511.64	32849.42
511.82	33078.79
511.99	32631.75
512.17	32847.08
512.34	32355.57
512.51	32943.04
512.69	33170.07
512.86	33144.33
513.04	33088.15
513.21	33251.99
513.38	33111.56
513.56	33439.23
513.73	33057.73
513.90	33376.04
514.08	33247.31
514.25	33570.30
514.43	33797.34
514.60	33593.71
514.77	34099.26
514.95	33736.48
515.12	33893.30
515.29	34012.66
515.47	34349.70
515.64	34398.85
515.81	34211.61
515.99	34101.61
516.16	34085.22
516.33	33830.10
516.51	34565.03
516.68	33579.67
516.85	33689.67
517.03	33827.76
517.20	34316.93
517.37	34553.33
517.54	34415.24
517.72	34700.78
517.89	34588.44
518.06	34462.05
518.24	34511.20
518.41	34340.34
518.58	34890.37
518.75	34881.00
518.93	35468.48
519.10	35138.46
519.27	35751.68
519.45	35807.86
519.62	35716.58
519.79	35751.68
519.96	35662.74
520.14	36240.86
520.31	35562.10
520.48	36123.83
520.65	35999.78
520.83	36030.21
521.00	36481.93
521.17	36514.70
521.34	36624.70
521.52	36570.87
521.69	36605.98
521.86	36708.96
522.03	36563.85
522.20	36896.20
522.38	36921.95
522.55	37027.28
522.72	36786.20
522.89	36952.38
523.07	37069.40
523.24	37017.91
523.41	37343.25
523.58	37146.64
523.75	37600.71
523.92	37682.62
524.10	37682.62
524.27	37684.97
524.44	37677.94
524.61	37902.64
524.78	38183.50
524.96	38031.36
525.13	38124.99
525.30	38333.29
525.47	38373.08
525.64	37972.85
525.81	38309.89
525.98	37792.63
526.16	37570.28
526.33	37680.28
526.50	37729.44
526.67	37862.85
526.84	38059.45
527.01	38014.98
527.18	38242.01
527.36	38569.69
527.53	38452.66
527.70	38913.75
527.87	38962.90
528.04	38948.85
528.21	38583.73
528.38	38838.85
528.55	39501.22
528.72	38979.28
528.89	39555.05
529.07	39620.59
529.24	39269.51
529.41	39332.70
529.58	39285.89
529.75	39098.65
529.92	39611.23
530.09	39171.21
530.26	39880.39
530.43	40027.84
530.60	39613.57
530.77	39922.52
530.94	39812.51
531.11	40128.48
531.28	39952.94
531.46	39812.51
531.63	40201.04
531.80	39655.70
531.97	40046.57
532.14	40102.74
532.31	39700.17
532.48	39800.81
532.65	40460.84
532.82	40095.72
532.99	40142.53
533.16	40128.48
533.33	40575.53
533.50	40514.67
533.67	40491.27
533.84	40245.51
534.01	40306.37
534.18	40622.34
534.35	40678.51
534.52	40891.50
534.69	41020.23
534.86	40928.95
535.03	40891.50
535.20	41303.43
535.37	41361.95
535.54	41460.25
535.71	41270.67
535.88	41034.27
536.05	41394.71
536.22	41221.52
536.38	41375.99
536.55	41095.13
536.72	41354.93
536.89	41001.50
537.06	41383.01
537.23	41303.43
537.40	41464.93
537.57	41446.21
537.74	41453.23
537.91	42017.30
538.08	42092.19
538.25	41645.15
538.42	42019.64
538.59	42389.44
538.75	41626.43
538.92	41883.89
539.09	41668.56
539.26	42043.04
539.43	42333.27
539.60	41818.35
539.77	41635.79
539.94	42162.41
540.11	41921.34
540.28	42031.34
540.44	41743.45
540.61	42010.28
540.78	41897.93
540.95	41918.99
541.12	41874.52
541.29	42267.73
541.46	42415.19
541.62	42527.53
541.79	42602.43
541.96	42401.14
542.13	42679.67
542.30	42433.91
542.47	42534.56
542.63	42469.02
542.80	42738.18
542.97	43203.95
543.14	43255.44
543.31	43260.12
543.48	43360.76
543.64	43550.35
543.81	43620.56
543.98	43531.62
544.15	43281.19
544.32	43536.30
544.48	43700.14
544.65	43487.15
544.82	43920.15
544.99	43096.28
545.16	43391.19
545.32	43634.61
545.49	43604.18
545.66	44074.63
545.83	43686.10
546.00	44013.77
546.16	43583.12
546.33	43952.92
546.50	43564.39
546.67	43945.90
546.83	43597.16
547.00	44196.34
547.17	43749.29
547.34	43789.08
547.50	44123.78
547.67	44271.23
547.84	44233.78
548.00	44538.05
548.17	43917.81
548.34	43901.43
548.51	44100.37
548.67	44367.20
548.84	44430.39
549.01	44198.68
549.18	44779.13
549.34	44666.78
549.51	44552.10
549.68	44786.15
549.84	44662.10
550.01	44725.30
550.18	44449.11
550.34	44240.81
550.51	44563.80
550.68	44360.17
550.84	44081.65
551.01	44587.21
551.18	44584.86
551.34	44891.48
551.51	45099.78
551.68	44964.03
551.84	44957.01
552.01	45013.18
552.18	44980.42
552.34	44601.25
552.51	45181.70
552.68	44865.73
552.84	45022.54
553.01	44964.03
553.18	45024.89
553.34	44877.43
553.51	45319.79
553.67	45010.84
553.84	45256.60
554.01	45289.37
554.17	45315.11
554.34	45514.06
554.51	45668.53
554.67	45586.61
554.84	45219.15
555.00	45406.39
555.17	44875.09
555.33	45488.31
555.50	45001.48
555.67	45387.67
555.83	45488.31
556.00	45858.12
556.16	46033.66
556.33	45427.46
556.50	45413.41
556.66	45736.41
556.83	45071.70
556.99	45848.75
557.16	45680.24
557.32	45696.62
557.49	45879.18
557.65	45846.41
557.82	45832.37
557.98	45748.11
558.15	45661.51
558.32	45642.79
558.48	45628.74
558.65	45930.67
558.81	45467.25
558.98	45848.75
559.14	45439.16
559.31	45958.76
559.47	45975.14
559.64	46248.99
559.80	46036.00
559.97	45750.45
560.13	45345.54
560.30	46447.93
560.46	45820.67
560.63	46087.49
560.79	46085.15
560.96	46197.49
561.12	46071.10
561.29	46040.68
561.45	46028.98
561.61	46071.10
561.78	46050.04
561.94	45549.17
562.11	46309.84
562.27	45549.17
562.44	46417.50
562.60	46405.80
562.77	46796.67
562.93	46021.95
563.10	46361.33
563.26	45780.88
563.42	46604.75
563.59	46358.99
563.75	45911.95
563.92	46419.84
564.08	46532.19
564.24	46679.64
564.41	46609.43
564.57	46408.14
564.74	46347.29
564.90	46546.23
565.07	46366.01
565.23	46246.65
565.39	45888.54
565.56	46445.59
565.72	46410.48
565.88	46534.53
566.05	46005.57
566.21	46057.06
566.38	46504.10
566.54	46543.89
566.70	46920.72
566.87	46902.00
567.03	46260.69
567.19	46667.94
567.36	46639.86
567.52	46536.87
567.68	46527.51
567.85	46279.41
568.01	46328.56
568.17	46017.27
568.34	46630.49
568.50	46742.84
568.66	46307.50
568.83	46316.86
568.99	46134.30
569.15	46714.75
569.32	46466.66
569.48	46450.27
569.64	46686.67
569.81	46644.54
569.97	46593.04
570.13	46450.27
570.30	46370.69
570.46	46609.43
570.62	46295.80
570.78	46389.42
570.95	46302.82
571.11	46319.20
571.27	46583.68
571.43	46658.58
571.60	46838.80
571.76	46625.81
571.92	46672.62
572.09	46670.28
572.25	47042.43
572.41	46394.10
572.57	46768.58
572.74	47196.90
572.90	46862.21
573.06	47004.98
573.22	46714.75
573.38	46461.97
573.55	46871.57
573.71	46883.27
573.87	46756.88
574.03	46291.12
574.20	46834.12
574.36	47047.11
574.52	47168.82
574.68	46955.83
574.84	47007.32
575.01	46646.88
575.17	47058.81
575.33	46410.48
575.49	46529.85
575.65	46857.52
575.82	46845.82
575.98	46513.47
576.14	46527.51
576.30	46841.14
576.46	46518.15
576.62	46440.91
576.79	46579.00
576.95	46527.51
577.11	46623.47
577.27	46773.27
577.43	46466.66
577.59	46607.09
577.75	46611.77
577.92	46199.83
578.08	46129.62
578.24	46483.04
578.40	46745.18
578.56	46351.97
578.72	46604.75
578.88	47157.11
579.04	46958.17
579.21	46344.95
579.37	46681.98
579.53	46623.47
579.69	46763.90
579.85	47004.98
580.01	46883.27
580.17	47096.26
580.33	47061.15
580.49	47091.58
580.65	46986.25
580.82	46749.86
580.98	46932.42
581.14	46653.90
581.30	47072.85
581.46	47217.97
581.62	47292.86
581.78	46799.01
581.94	47246.05
582.10	47129.03
582.26	47140.73
582.42	47161.79
582.58	46983.91
582.74	46646.88
582.90	47126.69
583.06	47194.56
583.22	47196.90
583.38	46983.91
583.54	47290.52
583.70	47002.64
583.86	46958.17
584.02	46897.31
584.18	46916.04
584.34	47253.08
584.50	47143.07
584.66	46979.23
584.82	46754.54
584.98	47325.63
585.14	47007.32
585.30	46366.01
585.46	46988.60
585.62	46724.11
585.78	46972.21
585.94	46703.05
586.10	46387.08
586.26	46693.69
586.42	47044.77
586.58	47173.50
586.74	46930.08
586.90	46887.95
587.06	47056.47
587.22	46960.51
587.38	46347.29
587.54	47023.70
587.70	46939.44
587.86	46990.94
588.02	46602.41
588.18	46918.38
588.34	46791.99
588.49	46560.28
588.65	46291.12
588.81	46408.14
588.97	46307.50
589.13	46351.97
589.29	46277.07
589.45	46775.61
589.61	46817.74
589.77	47122.01
589.93	46951.15
