SpectraSuite Data File
++++++++++++++++++++++++++++++++++++
Date: Fri Oct 25 10:48:34 EDT 2013
User: price-jones
Dark Spectrum Present: No
Reference Spectrum Present: No
Number of Sampled Component Spectra: 1
Spectrometers: USB2+H05261
Integration Time (usec): 100000 (USB2+H05261)
Spectra Averaged: 1 (USB2+H05261)
Boxcar Smoothing: 0 (USB2+H05261)
Correct for Electrical Dark: No (USB2+H05261)
Strobe/Lamp Enabled: No (USB2+H05261)
Correct for Detector Non-linearity: No (USB2+H05261)
Correct for Stray Light: No (USB2+H05261)
Number of Pixels in Processed Spectrum: 2048
>>>>>Begin Processed Spectral Data<<<<<
365.73	105.32
365.92	105.32
366.12	105.32
366.32	39.79
366.52	79.58
366.72	51.49
366.91	70.22
367.11	28.09
367.31	14.04
367.51	42.13
367.70	63.19
367.90	39.79
368.10	67.88
368.30	30.43
368.49	28.09
368.69	67.88
368.89	60.85
369.09	84.26
369.28	67.88
369.48	121.71
369.68	117.03
369.87	208.31
370.07	74.90
370.27	133.41
370.47	280.86
370.66	423.64
370.86	566.41
371.06	503.22
371.25	550.03
371.45	449.38
371.65	526.62
371.84	421.30
372.04	442.36
372.24	580.45
372.44	545.34
372.63	519.60
372.83	526.62
373.03	559.39
373.22	533.64
373.42	578.11
373.62	545.34
373.81	580.45
374.01	702.16
374.21	660.03
374.40	622.58
374.60	622.58
374.79	655.35
374.99	617.90
375.19	631.94
375.38	669.39
375.58	697.48
375.78	601.52
375.97	657.69
376.17	730.25
376.37	739.61
376.56	692.80
376.76	697.48
376.95	657.69
377.15	620.24
377.35	713.86
377.54	669.39
377.74	648.33
377.93	725.57
378.13	713.86
378.33	725.57
378.52	669.39
378.72	667.05
378.91	662.37
379.11	753.65
379.31	662.37
379.50	699.82
379.70	753.65
379.89	713.86
380.09	697.48
380.28	734.93
380.48	718.54
380.68	777.06
380.87	723.23
381.07	720.88
381.26	842.59
381.46	835.57
381.65	699.82
381.85	833.23
382.04	753.65
382.24	678.76
382.43	755.99
382.63	800.46
382.83	812.17
383.02	774.72
383.22	755.99
383.41	709.18
383.61	760.67
383.80	821.53
384.00	763.01
384.19	786.42
384.39	875.36
384.58	898.77
384.78	851.96
384.97	798.12
385.17	858.98
385.36	786.42
385.56	863.66
385.75	784.08
385.95	873.02
386.14	896.43
386.34	933.87
386.53	880.04
386.72	861.32
386.92	915.15
387.11	905.79
387.31	844.93
387.50	926.85
387.70	854.30
387.89	861.32
388.09	964.30
388.28	870.68
388.48	957.28
388.67	1034.52
388.86	968.98
389.06	1053.24
389.25	1043.88
389.45	1029.84
389.64	999.41
389.84	1128.14
390.03	1043.88
390.22	1053.24
390.42	1069.62
390.61	1081.33
390.81	1121.12
391.00	1083.67
391.19	1121.12
391.39	1050.90
391.58	1109.41
391.78	1160.91
391.97	1102.39
392.16	1139.84
392.36	1116.44
392.55	1158.57
392.75	1086.01
392.94	1032.18
393.13	1090.69
393.33	1055.58
393.52	1104.73
393.71	1067.28
393.91	1217.08
394.10	1156.22
394.29	1193.67
394.49	1214.74
394.68	1266.23
394.88	1301.34
395.07	1226.44
395.26	1322.40
395.46	1331.76
395.65	1310.70
395.84	1231.12
396.04	1249.85
396.23	1156.22
396.42	1128.14
396.62	1308.36
396.81	1289.64
397.00	1299.00
397.19	1289.64
397.39	1397.30
397.58	1537.73
397.77	1467.52
397.97	1570.50
398.16	1490.92
398.35	1554.12
398.55	1511.99
398.74	1593.90
398.93	1626.67
399.12	1589.22
399.32	1514.33
399.51	1591.56
399.70	1673.48
399.90	1533.05
400.09	1657.10
400.28	1631.35
400.47	1739.02
400.67	1699.23
400.86	1783.49
401.05	1776.47
401.24	1830.30
401.44	1743.70
401.63	1898.17
401.82	1949.67
402.01	1785.83
402.21	1849.02
402.40	1919.24
402.59	1769.44
402.78	1769.44
402.97	1877.11
403.17	1928.60
403.36	1968.39
403.55	1930.94
403.74	1909.88
403.93	1872.43
404.13	1937.96
404.32	2062.01
404.51	2031.58
404.70	2085.42
404.89	2066.69
405.09	2188.40
405.28	2031.58
405.47	2113.50
405.66	2146.27
405.85	2031.58
406.05	2005.84
406.24	2062.01
406.43	2167.34
406.62	2115.84
406.81	2202.44
407.00	2073.71
407.20	2141.59
407.39	2169.68
407.58	2260.96
407.77	2223.51
407.96	2349.90
408.15	2349.90
408.34	2356.92
408.54	2370.96
408.73	2356.92
408.92	2523.10
409.11	2424.80
409.30	2457.56
409.49	2387.35
409.68	2289.04
409.87	2429.48
410.07	2431.82
410.26	2455.22
410.45	2368.62
410.64	2483.31
410.83	2520.76
411.02	2628.42
411.21	2768.85
411.40	2682.25
411.59	2719.70
411.78	2569.91
411.98	2633.10
412.17	2789.92
412.36	2825.03
412.55	2862.48
412.74	2754.81
412.93	2832.05
413.12	2794.60
413.31	3108.23
413.50	2979.50
413.69	2897.58
413.88	3030.99
414.07	2925.67
414.26	3038.02
414.45	3073.12
414.64	3162.06
414.83	3145.68
415.02	3155.04
415.22	3178.45
415.41	3272.07
415.60	3332.92
415.79	3410.16
415.98	3454.63
416.17	3375.05
416.36	3452.29
416.55	3382.07
416.74	3323.56
416.93	3410.16
417.12	3384.41
417.31	3557.61
417.50	3473.36
417.69	3709.75
417.88	3735.50
418.07	3513.14
418.26	3571.66
418.45	3609.11
418.64	3742.52
418.83	3662.94
419.02	3726.13
419.21	3712.09
419.39	3789.33
419.58	3763.58
419.77	3728.47
419.96	3772.94
420.15	3707.41
420.34	3950.82
420.53	3908.69
420.72	3969.55
420.91	3925.08
421.10	3960.19
421.29	4081.89
421.48	3976.57
421.67	3936.78
421.86	3978.91
422.05	3901.67
422.24	3941.46
422.43	3901.67
422.61	3964.87
422.80	4063.17
422.99	3969.55
423.18	4112.32
423.37	4114.66
423.56	4124.02
423.75	4145.09
423.94	4114.66
424.13	3925.08
424.32	3922.74
424.50	4091.26
424.69	4166.15
424.88	4133.39
425.07	4084.23
425.26	3976.57
425.45	4065.51
425.64	4065.51
425.83	3969.55
426.01	4198.92
426.20	4102.96
426.39	4126.36
426.58	4159.13
426.77	4084.23
426.96	4049.13
427.15	4058.49
427.33	4304.25
427.52	4117.00
427.71	4215.30
427.90	4395.53
428.09	4362.76
428.28	4287.86
428.46	4372.12
428.65	4456.38
428.84	4561.70
429.03	4437.66
429.22	4301.90
429.40	4358.08
429.59	4227.01
429.78	4058.49
429.97	4102.96
430.16	4121.68
430.34	4255.09
430.53	4369.78
430.72	4339.35
430.91	4535.96
431.10	4374.46
431.28	4589.79
431.47	4816.82
431.66	4734.90
431.85	4667.03
432.03	4784.06
432.22	4901.08
432.41	4760.65
432.60	4723.20
432.79	5011.09
432.97	4959.60
433.16	4919.81
433.35	4865.97
433.54	4877.68
433.72	4821.50
433.91	4875.34
434.10	4912.78
434.28	4940.87
434.47	5130.45
434.66	5032.15
434.85	5041.51
435.03	5313.02
435.22	5102.37
435.41	5327.06
435.59	5238.12
435.78	5217.05
435.97	5282.59
436.16	5350.46
436.34	5331.74
436.53	5441.75
436.72	5416.00
436.90	5334.08
437.09	5418.34
437.28	5345.78
437.46	5296.63
437.65	5465.15
437.84	5378.55
438.02	5427.70
438.21	5343.44
438.40	5268.55
438.58	5593.88
438.77	5614.95
438.96	5701.54
439.14	5753.04
439.33	5809.21
439.52	5830.27
439.70	5853.68
439.89	5792.83
440.08	5806.87
440.26	5865.38
440.45	5844.32
440.63	6087.73
440.82	6195.40
441.01	6132.20
441.19	6188.38
441.38	6525.41
441.57	6282.00
441.75	6258.59
441.94	6513.71
442.12	6576.91
442.31	6562.86
442.50	6614.35
442.68	6544.14
442.87	6588.61
443.05	6558.18
443.24	6607.33
443.43	6544.14
443.61	6761.81
443.80	6846.07
443.98	6647.12
444.17	6537.12
444.35	6841.39
444.54	6953.73
444.73	6913.94
444.91	6722.02
445.10	6612.01
445.28	6647.12
445.47	6651.80
445.65	6705.63
445.84	6766.49
446.02	6839.05
446.21	6743.08
446.39	6771.17
446.58	6972.46
446.77	6782.87
446.95	6661.16
447.14	6822.66
447.32	7037.99
447.51	6794.58
447.69	6874.15
447.88	6916.28
448.06	6984.16
448.25	7023.95
448.43	6967.77
448.62	7054.37
448.80	6913.94
448.99	7129.27
449.17	7077.78
449.36	7115.23
449.54	7311.83
449.73	7150.34
449.91	7342.26
450.10	7356.30
450.28	7447.58
450.46	7302.47
450.65	7503.76
450.83	7667.60
451.02	7604.40
451.20	7620.78
451.39	7543.55
451.57	7419.50
451.76	7346.94
451.94	7379.71
452.13	7456.95
452.31	7433.54
452.49	7391.41
452.68	7744.83
452.86	7646.53
453.05	7440.56
453.23	7639.51
453.42	7609.08
453.60	7517.80
453.78	7660.57
453.97	7709.72
454.15	7700.36
454.34	7667.60
454.52	7866.54
454.70	7946.12
454.89	7878.24
455.07	7896.97
455.26	8077.19
455.44	8074.85
455.62	7983.57
455.81	7925.05
455.99	7922.71
456.17	8170.81
456.36	8042.08
456.54	8381.46
456.73	8210.60
456.91	8491.46
457.09	8423.59
457.28	8432.95
457.46	8372.10
457.64	8418.91
457.83	8449.33
458.01	8283.16
458.19	8549.98
458.38	8549.98
458.56	8545.30
458.74	8688.07
458.93	8439.97
459.11	8479.76
459.29	8657.64
459.48	8606.15
459.66	8711.47
459.84	8816.80
460.03	8879.99
460.21	8748.92
460.39	8826.16
460.57	9027.45
460.76	8854.25
460.94	8943.19
461.12	8727.86
461.31	8940.85
461.49	8837.86
461.67	9158.52
461.85	9348.10
462.04	9018.08
462.22	9640.67
462.40	9188.94
462.59	9181.92
462.77	9146.81
462.95	9195.96
463.13	9282.56
463.32	9200.65
463.50	9624.28
463.68	9301.29
463.86	9341.08
464.05	9200.65
464.23	9305.97
464.41	9451.08
464.59	9345.76
464.78	9387.89
464.96	9305.97
465.14	9401.93
465.32	9558.75
465.50	9479.17
465.69	9659.39
465.87	9570.45
466.05	9565.77
466.23	9547.05
466.41	9418.32
466.60	9811.53
466.78	9572.79
466.96	9696.84
467.14	9619.60
467.32	9778.76
467.51	9755.35
467.69	9699.18
467.87	9776.42
468.05	9844.29
468.23	9607.90
468.41	9647.69
468.60	9811.53
468.78	9823.23
468.96	9879.40
469.14	10202.40
469.32	10061.96
469.50	9729.61
469.69	9933.23
469.87	10178.99
470.05	9991.75
470.23	10099.41
470.41	10106.43
470.59	10211.76
470.77	10291.34
470.95	10321.76
471.14	10562.84
471.32	10387.30
471.50	10562.84
471.68	10569.86
471.86	10740.72
472.04	10846.04
472.22	10813.28
472.40	10614.33
472.58	10569.86
472.77	10789.87
472.95	11033.29
473.13	11286.06
473.31	10832.00
473.49	11000.52
473.67	10984.13
473.85	11169.04
474.03	11307.13
474.21	11330.53
474.39	11351.60
474.57	11485.01
474.75	11351.60
474.93	11531.82
475.12	11595.01
475.30	11894.60
475.48	11452.24
475.66	11932.05
475.84	11800.98
476.02	12056.10
476.20	11899.28
476.38	12035.03
476.56	12334.62
476.74	12400.16
476.92	12212.92
477.10	12201.21
477.28	12652.94
477.46	12329.94
477.64	12659.96
477.82	12592.08
478.00	13057.85
478.18	13050.83
478.36	13020.40
478.54	13275.52
478.72	13184.24
478.90	13312.97
479.08	13451.06
479.26	13898.10
479.44	13816.18
479.62	13848.95
479.80	13727.24
479.98	13980.02
480.16	14101.73
480.34	13860.65
480.52	14225.78
480.70	14239.82
480.88	14122.79
481.06	14328.76
481.24	14487.92
481.41	14595.58
481.59	15218.16
481.77	14813.25
481.95	14991.13
482.13	15009.86
482.31	15297.74
482.49	15426.47
482.67	15239.23
482.85	15566.90
483.03	15824.36
483.21	15775.21
483.39	15758.83
483.57	15868.83
483.74	16086.50
483.92	16219.91
484.10	16402.47
484.28	16500.78
484.46	16533.54
484.64	16695.04
484.82	16730.15
485.00	16444.60
485.18	16933.78
485.35	17226.34
485.53	16411.84
485.71	16739.51
485.89	17106.98
486.07	16767.60
486.25	17200.60
486.43	17373.80
486.61	17429.97
486.78	18068.94
486.96	18012.76
487.14	18148.51
487.32	18349.80
487.50	18630.66
487.68	18911.53
487.85	18981.74
488.03	19082.39
488.21	19094.09
488.39	19491.98
488.57	19094.09
488.75	19639.44
488.92	19623.05
489.10	19859.45
489.28	20032.65
489.46	20503.09
489.64	20409.47
489.81	20734.81
489.99	20755.87
490.17	20842.47
490.35	21282.49
490.53	21039.08
490.70	21020.35
490.88	20889.28
491.06	21589.10
491.24	21443.99
491.41	21565.70
491.59	21561.02
491.77	21755.28
491.95	21542.29
492.13	22104.02
492.30	22471.48
492.48	22054.87
492.66	22672.77
492.84	22625.96
493.01	22970.02
493.19	22562.76
493.37	22944.27
493.54	23140.88
493.72	23204.07
493.90	23557.49
494.08	23496.64
494.25	24053.69
494.43	24552.22
494.61	24304.12
494.79	24334.55
494.96	24074.75
495.14	24482.00
495.32	24472.64
495.49	24547.54
495.67	24659.88
495.85	24725.42
496.02	25198.21
496.20	25350.34
496.38	25259.06
496.55	25476.73
496.73	26038.46
496.91	25792.70
497.09	25902.71
497.26	25993.99
497.44	26029.10
497.62	25968.24
497.79	26157.83
497.97	26253.79
498.14	26412.95
498.32	26693.81
498.50	26483.16
498.67	26897.44
498.85	26909.14
499.03	27051.91
499.20	27075.32
499.38	27185.32
499.56	27440.44
499.73	27250.86
499.91	27693.22
500.08	27452.14
500.26	27428.74
500.44	27754.07
500.61	27735.35
500.79	27758.75
500.97	27892.16
501.14	27697.90
501.32	28011.53
501.49	27728.33
501.67	28025.57
501.84	28364.95
502.02	28528.79
502.20	28582.62
502.37	28840.08
502.55	28886.89
502.72	28807.31
502.90	29034.35
503.07	28912.64
503.25	28992.22
503.43	28879.87
503.60	29228.61
503.78	29261.38
503.95	29319.89
504.13	29525.86
504.30	29280.10
504.48	29605.44
504.65	29965.88
504.83	30277.17
505.01	30256.11
505.18	30368.45
505.36	30658.68
505.53	30251.42
505.71	30511.22
505.88	30642.29
506.06	30335.68
506.23	30520.59
506.41	30520.59
506.58	30796.77
506.76	31061.25
506.93	30862.30
507.11	30895.07
507.28	30969.97
507.46	31395.95
507.63	30930.18
507.81	30773.36
507.98	31402.97
508.16	31489.57
508.33	31887.46
508.50	31693.19
508.68	31828.95
508.85	32472.59
509.03	31950.65
509.20	32252.58
509.38	32168.32
509.55	32030.23
509.73	32671.54
509.90	32737.07
510.08	31768.09
510.25	32540.47
510.42	32580.26
510.60	32577.92
510.77	33156.03
510.95	32961.76
511.12	33179.43
511.30	32484.30
511.47	33378.38
511.64	33099.86
511.82	33497.75
511.99	33336.25
512.17	33518.81
512.34	33230.93
512.51	33621.80
512.69	33764.57
512.86	33804.36
513.04	33944.79
513.21	34260.76
513.38	33696.69
513.56	33858.19
513.73	33816.06
513.90	34054.79
514.08	34108.63
514.25	34384.81
514.43	34698.44
514.60	34782.70
514.77	34501.84
514.95	34583.76
515.12	34703.12
515.29	35016.75
515.47	35136.12
515.64	35082.29
515.81	35101.01
515.99	34813.13
516.16	34864.62
516.33	34579.07
516.51	34623.54
516.68	34267.78
516.85	34188.21
517.03	34600.14
517.20	35318.68
517.37	35304.64
517.54	35477.84
517.72	35484.86
517.89	34881.00
518.06	35196.98
518.24	35330.39
518.41	35398.26
518.58	35545.72
518.75	35388.90
518.93	36055.95
519.10	35751.68
519.27	36194.04
519.45	36247.88
519.62	36327.45
519.79	36617.68
519.96	36856.42
520.14	36723.01
520.31	35950.63
520.48	36783.86
520.65	36708.96
520.83	37464.96
521.00	37207.50
521.17	37034.30
521.34	37331.54
521.52	37422.83
521.69	37301.12
521.86	37268.35
522.03	37198.13
522.20	37085.79
522.38	37469.64
522.55	37743.48
522.72	37251.97
522.89	37411.12
523.07	37879.23
523.24	37511.77
523.41	38103.92
523.58	37958.81
523.75	38532.24
523.92	38426.92
524.10	38382.45
524.27	38136.69
524.44	38660.97
524.61	38527.56
524.78	38684.37
524.96	38394.15
525.13	38593.09
525.30	39096.31
525.47	38883.32
525.64	38651.61
525.81	38508.83
525.98	38801.40
526.16	38501.81
526.33	38602.46
526.50	38623.52
526.67	38789.70
526.84	38604.80
527.01	38752.25
527.18	38958.22
527.36	38934.81
527.53	39449.73
527.70	39784.43
527.87	40037.20
528.04	39543.35
528.21	40098.06
528.38	39922.52
528.55	40287.64
528.72	40144.87
528.89	39952.94
529.07	39992.73
529.24	39653.36
529.41	40367.22
529.58	39723.57
529.75	39796.13
529.92	39838.26
530.09	40444.46
530.26	40231.47
530.43	40442.12
530.60	40463.18
530.77	40280.62
530.94	40776.81
531.11	40713.62
531.28	40809.58
531.46	40898.52
531.63	40924.27
531.80	40725.32
531.97	40905.54
532.14	40500.63
532.31	40318.07
532.48	40439.78
532.65	40517.01
532.82	40732.34
532.99	41233.22
533.16	41443.87
533.33	40893.84
533.50	41495.36
533.67	41556.21
533.84	41144.28
534.01	41390.03
534.18	40865.75
534.35	41670.90
534.52	41102.15
534.69	41500.04
534.86	41827.71
535.03	41607.70
535.20	41521.10
535.37	41986.87
535.54	41949.42
535.71	41537.49
535.88	42089.85
536.05	41958.78
536.22	42213.90
536.38	42150.71
536.55	41853.46
536.72	41874.52
536.89	41371.31
537.06	41986.87
537.23	42590.73
537.40	42188.16
537.57	42148.37
537.74	42277.10
537.91	42829.46
538.08	42628.18
538.25	41860.48
538.42	42471.36
538.59	43030.75
538.75	42707.76
538.92	42473.70
539.09	42920.74
539.26	42770.95
539.43	42707.76
539.60	42712.44
539.77	42363.70
539.94	42394.12
540.11	42436.25
540.28	42595.41
540.44	42305.18
540.61	42834.14
540.78	42714.78
540.95	42305.18
541.12	42710.10
541.29	42789.67
541.46	42649.24
541.62	42848.19
541.79	43295.23
541.96	42742.86
542.13	42548.60
542.30	43068.20
542.47	43133.73
542.63	43377.15
542.80	43367.79
542.97	43863.98
543.14	44105.06
543.31	43938.88
543.48	43800.79
543.64	44392.94
543.81	44194.00
543.98	43786.74
544.15	44039.52
544.32	44465.50
544.48	44119.10
544.65	44409.32
544.82	44119.10
544.99	43592.48
545.16	44079.31
545.32	43868.66
545.49	44444.43
545.66	44397.62
545.83	44301.66
546.00	44877.43
546.16	44095.69
546.33	44168.25
546.50	43716.53
546.67	44376.56
546.83	44123.78
547.00	44142.50
547.17	44615.29
547.34	44062.93
547.50	44395.28
547.67	44882.11
547.84	44755.72
548.00	44917.22
548.17	45228.51
548.34	45212.13
548.51	45085.74
548.67	45050.63
548.84	44680.83
549.01	44933.60
549.18	44973.39
549.34	45003.82
549.51	44870.41
549.68	45198.09
549.84	45006.16
550.01	45485.97
550.18	45141.91
550.34	45095.10
550.51	45092.76
550.68	45071.70
550.84	44790.83
551.01	45193.40
551.18	45097.44
551.34	44999.14
551.51	45556.19
551.68	45490.65
551.84	45340.86
552.01	45329.16
552.18	45518.74
552.34	45116.17
552.51	45303.41
552.68	45411.07
552.84	45874.50
553.01	45818.33
553.18	45680.24
553.34	45626.40
553.51	45495.33
553.67	46185.79
553.84	46195.15
554.01	46298.14
554.17	45956.42
554.34	46394.10
554.51	46117.92
554.67	46232.60
554.84	45979.82
555.00	45642.79
555.17	45504.70
555.33	45998.55
555.50	46061.74
555.67	46143.66
555.83	45970.46
556.00	46160.05
556.16	46342.61
556.33	46047.70
556.50	46050.04
556.66	45895.56
556.83	45806.62
556.99	46213.88
557.16	46305.16
557.32	46110.89
557.49	46522.83
557.65	45909.61
557.82	46272.39
557.98	46099.19
558.15	46628.15
558.32	46532.19
558.48	46354.31
558.65	46160.05
558.81	46131.96
558.98	46340.27
559.14	46216.22
559.31	45991.53
559.47	46555.60
559.64	46569.64
559.80	46485.38
559.97	46789.65
560.13	46499.42
560.30	46183.45
560.46	46808.37
560.63	46679.64
560.79	46852.84
560.96	46646.88
561.12	46995.62
561.29	46574.32
561.45	46564.96
561.61	46653.90
561.78	46057.06
561.94	46438.57
562.11	46665.60
562.27	46916.04
562.44	46644.54
562.60	46899.65
562.77	46925.40
562.93	46656.24
563.10	47206.26
563.26	46649.22
563.42	46581.34
563.59	46852.84
563.75	46770.93
563.92	46918.38
564.08	46684.33
564.24	47049.45
564.41	46539.21
564.57	47295.21
564.74	46485.38
564.90	47079.88
565.07	46946.47
565.23	46995.62
565.39	46899.65
565.56	46988.60
565.72	46529.85
565.88	46681.98
566.05	46590.70
566.21	46899.65
566.38	46937.10
566.54	47154.77
566.70	47512.88
566.87	47189.88
567.03	47105.62
567.19	47964.60
567.36	46880.93
567.52	46681.98
567.68	47192.22
567.85	46731.14
568.01	47278.82
568.17	46787.31
568.34	47152.43
568.50	47215.63
568.66	47159.45
568.83	47157.11
568.99	47236.69
569.15	47028.38
569.32	46972.21
569.48	46735.82
569.64	47447.34
569.81	47285.84
569.97	47042.43
570.13	46784.97
570.30	46960.51
570.46	46733.48
570.62	46894.97
570.78	46862.21
570.95	46712.41
571.11	47143.07
571.27	47391.17
571.43	46946.47
571.60	47077.54
571.76	47470.75
571.92	47686.07
572.09	47342.02
572.25	47318.61
572.41	46939.44
572.57	47283.50
572.74	47604.16
572.90	47217.97
573.06	47215.63
573.22	47367.76
573.38	47117.32
573.55	46824.76
573.71	47313.93
573.87	47470.75
574.03	47346.70
574.20	47234.35
574.36	46897.31
574.52	47327.97
574.68	47407.55
574.84	47154.77
575.01	47140.73
575.17	47035.41
575.33	47056.47
575.49	46878.59
575.65	47669.69
575.82	47709.48
575.98	47220.31
576.14	47138.39
576.30	47084.56
576.46	46909.02
576.62	47007.32
576.79	47313.93
576.95	46593.04
577.11	47260.10
577.27	47447.34
577.43	47665.01
577.59	47089.24
577.75	47358.40
577.92	46902.00
578.08	47019.02
578.24	46953.49
578.40	46953.49
578.56	47449.68
578.72	47227.33
578.88	47697.78
579.04	47442.66
579.21	47274.14
579.37	47133.71
579.53	47107.96
579.69	47271.80
579.85	47019.02
580.01	47402.87
580.17	47014.34
580.33	47318.61
580.49	47339.68
580.65	47330.31
580.82	47381.80
580.98	47105.62
581.14	47133.71
581.30	47571.39
581.46	47253.08
581.62	47571.39
581.78	47725.86
581.94	47491.81
582.10	47473.09
582.26	47433.30
582.42	47290.52
582.58	47407.55
582.74	47667.35
582.90	47381.80
583.06	47833.53
583.22	47606.50
583.38	47814.80
583.54	47283.50
583.70	47571.39
583.86	47136.05
584.02	47407.55
584.18	47480.11
584.34	47353.72
584.50	47346.70
584.66	47299.89
584.82	47398.19
584.98	47454.36
585.14	47459.04
585.30	47503.51
585.46	46948.81
585.62	47082.22
585.78	47374.78
585.94	47145.41
586.10	46993.28
586.26	47402.87
586.42	47573.73
586.58	47611.18
586.74	47526.92
586.90	47241.37
587.06	47182.86
587.22	47143.07
587.38	47241.37
587.54	47583.09
587.70	47372.44
587.86	47269.46
588.02	47599.47
588.18	47686.07
588.34	47533.94
588.49	46937.10
588.65	47012.00
588.81	46899.65
588.97	47077.54
589.13	46878.59
589.29	46974.55
589.45	46880.93
589.61	47318.61
589.77	47519.90
