SpectraSuite Data File
++++++++++++++++++++++++++++++++++++
Date: Fri Oct 25 11:22:54 EDT 2013
User: price-jones
Dark Spectrum Present: No
Reference Spectrum Present: No
Number of Sampled Component Spectra: 1
Spectrometers: USB2+H05261
Integration Time (usec): 100000 (USB2+H05261)
Spectra Averaged: 1 (USB2+H05261)
Boxcar Smoothing: 0 (USB2+H05261)
Correct for Electrical Dark: No (USB2+H05261)
Strobe/Lamp Enabled: No (USB2+H05261)
Correct for Detector Non-linearity: No (USB2+H05261)
Correct for Stray Light: No (USB2+H05261)
Number of Pixels in Processed Spectrum: 2048
>>>>>Begin Processed Spectral Data<<<<<
365.73	194.26
365.92	194.26
366.12	194.26
366.32	175.54
366.52	138.09
366.72	112.35
366.91	46.81
367.11	100.64
367.31	138.09
367.51	107.66
367.70	114.69
367.90	88.94
368.10	74.90
368.30	117.03
368.49	135.75
368.69	77.24
368.89	102.98
369.09	105.32
369.28	131.07
369.48	205.97
369.68	156.82
369.87	138.09
370.07	229.37
370.27	224.69
370.47	355.76
370.66	575.77
370.86	589.82
371.06	613.22
371.25	690.46
371.45	645.99
371.65	615.56
371.84	690.46
372.04	655.35
372.24	624.92
372.44	613.22
372.63	788.76
372.83	791.10
373.03	725.57
373.22	727.91
373.42	730.25
373.62	748.97
373.81	842.59
374.01	770.04
374.21	887.06
374.40	828.55
374.60	856.64
374.79	784.08
374.99	858.98
375.19	807.48
375.38	814.51
375.58	734.93
375.78	823.87
375.97	894.08
376.17	875.36
376.37	802.80
376.56	919.83
376.76	807.48
376.95	891.74
377.15	945.58
377.35	868.34
377.54	858.98
377.74	849.61
377.93	905.79
378.13	894.08
378.33	947.92
378.52	863.66
378.72	952.60
378.91	973.66
379.11	835.57
379.31	917.49
379.50	990.05
379.70	926.85
379.89	943.24
380.09	999.41
380.28	896.43
380.48	994.73
380.68	985.37
380.87	917.49
381.07	1008.77
381.26	1011.11
381.46	1015.79
381.65	994.73
381.85	999.41
382.04	1015.79
382.24	1071.97
382.43	1029.84
382.63	1118.78
382.83	1001.75
383.02	1062.60
383.22	1139.84
383.41	1095.37
383.61	1074.31
383.80	1104.73
384.00	1114.10
384.19	1128.14
384.39	1118.78
384.58	1083.67
384.78	1125.80
384.97	1118.78
385.17	1102.39
385.36	1109.41
385.56	1146.86
385.75	1090.69
385.95	1205.38
386.14	1149.20
386.34	1142.18
386.53	1256.87
386.72	1231.12
386.92	1205.38
387.11	1233.46
387.31	1242.82
387.50	1210.06
387.70	1291.98
387.89	1299.00
388.09	1268.57
388.28	1310.70
388.48	1315.38
388.67	1338.79
388.86	1320.06
389.06	1404.32
389.25	1413.68
389.45	1383.26
389.64	1313.04
389.84	1357.51
390.03	1324.74
390.22	1444.11
390.42	1352.83
390.61	1488.58
390.81	1380.92
391.00	1439.43
391.19	1416.02
391.39	1378.58
391.58	1486.24
391.78	1497.94
391.97	1523.69
392.16	1495.60
392.36	1526.03
392.55	1409.00
392.75	1446.45
392.94	1474.54
393.13	1549.43
393.33	1511.99
393.52	1544.75
393.71	1591.56
393.91	1570.50
394.10	1650.08
394.29	1554.12
394.49	1579.86
394.68	1640.72
394.88	1629.01
395.07	1776.47
395.26	1764.76
395.46	1720.29
395.65	1753.06
395.84	1654.76
396.04	1804.55
396.23	1816.26
396.42	1739.02
396.62	1710.93
396.81	1813.92
397.00	1682.85
397.19	1797.53
397.39	1776.47
397.58	1816.26
397.77	1795.19
397.97	1891.15
398.16	1912.22
398.35	1818.60
398.55	1975.41
398.74	1825.62
398.93	1996.48
399.12	1923.92
399.32	1940.30
399.51	1975.41
399.70	2024.56
399.90	1961.37
400.09	1947.33
400.28	2104.14
400.47	1954.35
400.67	2073.71
400.86	2076.06
401.05	2062.01
401.24	2115.84
401.44	2195.42
401.63	2101.80
401.82	2153.29
402.01	2108.82
402.21	2139.25
402.40	2183.72
402.59	2172.02
402.78	2197.76
402.97	2232.87
403.17	2235.21
403.36	2340.54
403.55	2291.38
403.74	2394.37
403.93	2312.45
404.13	2401.39
404.32	2340.54
404.51	2377.98
404.70	2497.35
404.89	2473.95
405.09	2558.21
405.28	2555.86
405.47	2492.67
405.66	2422.45
405.85	2509.05
406.05	2518.42
406.24	2572.25
406.43	2633.10
406.62	2600.34
406.81	2696.30
407.00	2612.04
407.20	2626.08
407.39	2696.30
407.58	2815.66
407.77	2602.68
407.96	2773.53
408.15	2803.96
408.34	2740.77
408.54	2775.88
408.73	2946.73
408.92	2738.43
409.11	2867.16
409.30	2759.49
409.49	2949.08
409.68	2984.18
409.87	2953.76
410.07	3080.14
410.26	2988.86
410.45	3014.61
410.64	2960.78
410.83	3103.55
411.02	3075.46
411.21	3220.58
411.40	3143.34
411.59	3215.90
411.78	3239.30
411.98	3187.81
412.17	3213.56
412.36	3229.94
412.55	3372.71
412.74	3459.31
412.93	3428.88
413.12	3318.88
413.31	3545.91
413.50	3522.51
413.69	3471.01
413.88	3576.34
414.07	3583.36
414.26	3728.47
414.45	3791.67
414.64	3772.94
414.83	3733.15
415.02	3866.56
415.22	3831.46
415.41	3833.80
415.60	3927.42
415.79	3864.22
415.98	4016.36
416.17	4063.17
416.36	4018.70
416.55	4039.76
416.74	4072.53
416.93	4112.32
417.12	4175.52
417.31	4173.18
417.50	4133.39
417.69	4344.03
417.88	4212.96
418.07	4332.33
418.26	4227.01
418.45	4250.41
418.64	4449.36
418.83	4435.32
419.02	4440.00
419.21	4521.92
419.39	4557.02
419.58	4339.35
419.77	4355.74
419.96	4510.21
420.15	4601.49
420.34	4615.54
420.53	4641.28
420.72	4695.11
420.91	4779.37
421.10	4842.57
421.29	4931.51
421.48	4664.69
421.67	4809.80
421.86	4634.26
422.05	4793.42
422.24	4725.54
422.43	4868.31
422.61	5041.51
422.80	5011.09
422.99	4915.12
423.18	5011.09
423.37	5081.30
423.56	4936.19
423.75	4985.34
423.94	4858.95
424.13	4606.17
424.32	4877.68
424.50	5048.54
424.69	5177.26
424.88	5053.22
425.07	5027.47
425.26	4990.02
425.45	5116.41
425.64	4847.25
425.83	4922.15
426.01	5107.05
426.20	4975.98
426.39	4964.28
426.58	4999.38
426.77	5046.20
426.96	5090.67
427.15	5128.11
427.33	5128.11
427.52	5116.41
427.71	5401.96
427.90	5177.26
428.09	5331.74
428.28	5444.09
428.46	5467.49
428.65	5369.19
428.84	5526.00
429.03	5659.42
429.22	5413.66
429.40	5430.04
429.59	5476.85
429.78	5362.17
429.97	5186.63
430.16	5544.73
430.34	5657.07
430.53	5832.62
430.72	5699.20
430.91	5682.82
431.10	5607.92
431.28	5809.21
431.47	5818.57
431.66	5933.26
431.85	5708.57
432.03	6076.03
432.22	6061.99
432.41	6118.16
432.60	5909.85
432.79	5874.74
432.97	5963.68
433.16	6012.84
433.35	6073.69
433.54	6115.82
433.72	5966.03
433.91	6040.92
434.10	6232.85
434.28	6127.52
434.47	6146.25
434.66	6277.32
434.85	6256.25
435.03	6415.41
435.22	6473.92
435.41	6478.60
435.59	6455.20
435.78	6497.33
435.97	6539.46
436.16	6345.19
436.34	6448.18
436.53	6612.01
436.72	6677.55
436.90	6644.78
437.09	6883.52
437.28	6731.38
437.46	6759.47
437.65	6588.61
437.84	6682.23
438.02	6684.57
438.21	6794.58
438.40	6801.60
438.58	7073.10
438.77	7115.23
438.96	6939.69
439.14	7089.48
439.33	7215.87
439.52	7330.56
439.70	7337.58
439.89	7346.94
440.08	7581.00
440.26	7445.24
440.45	7255.66
440.63	7485.03
440.82	7632.49
441.01	7588.02
441.19	7599.72
441.38	7679.30
441.57	7854.84
441.75	7927.39
441.94	8072.51
442.12	7822.07
442.31	8051.44
442.50	8219.96
442.68	7946.12
442.87	7992.93
443.05	8039.74
443.24	8531.25
443.43	8100.59
443.61	8124.00
443.80	8535.93
443.98	8198.90
444.17	7903.99
444.35	8325.29
444.54	8280.82
444.73	8163.79
444.91	8313.58
445.10	8397.84
445.28	8355.71
445.47	8294.86
445.65	8421.25
445.84	8538.27
446.02	8531.25
446.21	8449.33
446.39	8414.23
446.58	8557.00
446.77	8573.38
446.95	8395.50
447.14	8650.62
447.32	8514.87
447.51	8575.72
447.69	8589.77
447.88	8622.53
448.06	8659.98
448.25	8847.22
448.43	8695.09
448.62	8730.20
448.80	8615.51
448.99	8753.60
449.17	8709.13
449.36	8833.18
449.54	9130.43
449.73	9151.49
449.91	9043.83
450.10	8997.02
450.28	9198.31
450.46	9036.81
450.65	9006.38
450.83	9039.15
451.02	8910.42
451.20	9268.52
451.39	9055.53
451.57	9226.39
451.76	8999.36
451.94	9202.99
452.13	9521.30
452.31	9420.66
452.49	9310.65
452.68	9453.42
452.86	9458.10
453.05	9561.09
453.23	9647.69
453.42	9252.14
453.60	9291.93
453.78	9568.11
453.97	9598.54
454.15	9495.55
454.34	9600.88
454.52	9853.66
454.70	9743.65
454.89	9848.97
455.07	9813.87
455.26	10108.77
455.44	10031.54
455.62	9863.02
455.81	10099.41
455.99	10249.21
456.17	10001.11
456.36	10279.63
456.54	10242.18
456.73	10455.17
456.91	10583.90
457.09	10464.54
457.28	10633.05
457.46	10326.44
457.64	10459.85
457.83	10649.44
458.01	10609.65
458.19	10785.19
458.38	10656.46
458.56	10644.76
458.74	10717.31
458.93	10867.11
459.11	10820.30
459.29	10794.55
459.48	11007.54
459.66	10918.60
459.84	11112.86
460.03	11274.36
460.21	11316.49
460.39	11115.20
460.57	10956.05
460.76	11276.70
460.94	11222.87
461.12	11218.19
461.31	11300.11
461.49	11255.64
461.67	11466.28
461.85	11688.64
462.04	11578.63
462.22	11941.41
462.40	11576.29
462.59	11571.61
462.77	11506.07
462.95	11737.79
463.13	11719.06
463.32	11901.62
463.50	11847.79
463.68	12035.03
463.86	12018.65
464.05	11578.63
464.23	11768.21
464.41	12133.34
464.59	11948.43
464.78	12439.95
464.96	12266.75
465.14	11943.75
465.32	12018.65
465.50	12334.62
465.69	12184.83
465.87	12208.23
466.05	12341.64
466.23	12142.70
466.41	12496.12
466.60	12498.46
466.78	12058.44
466.96	12123.98
467.14	12334.62
467.32	12650.60
467.51	12589.74
467.69	12514.84
467.87	12587.40
468.05	12638.89
468.23	12400.16
468.41	12484.42
468.60	12865.92
468.78	12947.84
468.96	12599.10
469.14	12931.46
469.32	12994.65
469.50	12620.17
469.69	13158.49
469.87	13224.03
470.05	13130.41
470.23	13284.88
470.41	13303.60
470.59	13291.90
470.77	13296.58
470.95	13366.80
471.14	13535.32
471.32	13242.75
471.50	13680.43
471.68	13664.05
471.86	13788.10
472.04	13987.04
472.22	14019.81
472.40	13940.23
472.58	13968.32
472.77	14314.72
472.95	14225.78
473.13	14436.42
473.31	14352.16
473.49	14225.78
473.67	14286.63
473.85	14441.11
474.03	14583.88
474.21	14792.19
474.39	14885.81
474.57	14970.07
474.75	15016.88
474.93	14881.13
475.12	15157.31
475.30	15122.20
475.48	15033.26
475.66	15332.85
475.84	15440.51
476.02	15190.08
476.20	15126.88
476.38	15620.74
476.56	16123.95
476.74	16013.95
476.92	15889.90
477.10	15922.66
477.28	16627.17
477.46	16257.36
477.64	16702.06
477.82	16386.09
478.00	17114.00
478.18	16617.80
478.36	17109.32
478.54	17418.27
478.72	17240.39
478.90	17390.18
479.08	17572.74
479.26	17771.69
479.44	17767.01
479.62	17837.22
479.80	18300.65
479.98	18279.58
480.16	18831.95
480.34	18628.32
480.52	18649.39
480.70	18845.99
480.88	18190.64
481.06	18860.04
481.24	18930.25
481.41	19337.51
481.59	19634.75
481.77	19594.96
481.95	19564.54
482.13	19948.39
482.31	19578.58
482.49	20372.02
482.67	20727.78
482.85	20547.56
483.03	20947.79
483.21	20840.13
483.39	21146.74
483.57	20910.35
483.74	21191.21
483.92	21439.31
484.10	21694.43
484.28	21769.32
484.46	21902.73
484.64	22492.55
484.82	22160.19
485.00	22359.14
485.18	22820.22
485.35	22897.46
485.53	23044.91
485.71	23180.67
485.89	23798.57
486.07	23314.08
486.25	23269.61
486.43	23775.16
486.61	23868.78
486.78	24011.56
486.96	24266.67
487.14	24409.45
487.32	24952.45
487.50	25111.61
487.68	25261.40
487.85	25532.90
488.03	25668.66
488.21	26277.19
488.39	26237.41
488.57	26068.89
488.75	26609.55
488.92	26689.13
489.10	26827.22
489.28	26700.83
489.46	27438.10
489.64	27325.75
489.81	27946.00
489.99	27489.59
490.17	27908.55
490.35	28126.22
490.53	28053.66
490.70	28788.59
490.88	28458.57
491.06	28945.41
491.24	29017.96
491.41	29340.96
491.59	29743.53
491.77	29378.40
491.95	29738.85
492.13	29778.64
492.30	30211.64
492.48	30387.18
492.66	30518.25
492.84	30361.43
493.01	31122.10
493.19	30785.07
493.37	30958.27
493.54	31498.93
493.72	31405.31
493.90	31391.26
494.08	31866.39
494.25	32357.91
494.43	32690.26
494.61	32519.40
494.79	32912.61
494.96	32755.80
495.14	33179.43
495.32	33825.42
495.49	33741.16
495.67	33986.92
495.85	33933.09
496.02	34160.12
496.20	34340.34
496.38	34703.12
496.55	34347.36
496.73	35079.95
496.91	35002.71
497.09	35145.48
497.26	35468.48
497.44	35402.94
497.62	35552.74
497.79	36070.00
497.97	35594.87
498.14	36470.23
498.32	36638.75
498.50	36411.71
498.67	36933.65
498.85	36694.92
499.03	37303.46
499.20	37151.32
499.38	36940.68
499.56	37282.39
499.73	37483.68
499.91	37713.05
500.08	37837.10
500.26	37703.69
500.44	37607.73
500.61	38281.80
500.79	38012.64
500.97	38698.42
501.14	38663.31
501.32	38871.62
501.49	38787.36
501.67	38822.47
501.84	39122.05
502.02	38899.70
502.20	39606.55
502.37	39285.89
502.55	39648.68
502.72	39840.60
502.90	39838.26
503.07	39983.37
503.25	40144.87
503.43	40135.51
503.60	40385.94
503.78	40577.87
503.95	40886.82
504.13	40865.75
504.30	40978.10
504.48	40734.68
504.65	40542.76
504.83	41441.53
505.01	41621.75
505.18	41579.62
505.36	42167.09
505.53	41635.79
505.71	42047.72
505.88	42295.82
506.06	41776.22
506.23	42188.16
506.41	42014.96
506.58	42646.90
506.76	42845.85
506.93	42923.08
507.11	43049.47
507.28	42431.57
507.46	43124.37
507.63	43250.76
507.81	43412.26
507.98	43199.27
508.16	43571.41
508.33	43543.33
508.50	43702.48
508.68	43952.92
508.85	44325.07
509.03	44137.82
509.20	44451.45
509.38	44247.83
509.55	44666.78
509.73	44552.10
509.90	44631.68
510.08	44762.75
510.25	44769.77
510.42	44924.24
510.60	45450.86
510.77	45682.58
510.95	45694.28
511.12	45357.24
511.30	45331.50
511.47	45628.74
511.64	45991.53
511.82	46199.83
511.99	45853.44
512.17	46164.73
512.34	46129.62
512.51	46550.91
512.69	46873.91
512.86	46670.28
513.04	46855.18
513.21	46639.86
513.38	46740.50
513.56	47100.94
513.73	46869.23
513.90	47374.78
514.08	47091.58
514.25	47845.23
514.43	47784.38
514.60	47643.94
514.77	47672.03
514.95	47931.83
515.12	48114.39
515.29	47875.66
515.47	48212.70
515.64	48753.36
515.81	48385.89
515.99	48502.92
516.16	48561.44
516.33	48746.34
516.51	49439.14
516.68	48872.73
516.85	49003.80
517.03	48877.41
517.20	49230.83
517.37	49291.68
517.54	49301.04
517.72	49169.97
517.89	49399.35
518.06	49476.58
518.24	49343.17
518.41	49806.60
518.58	49600.63
518.75	49715.32
518.93	49841.71
519.10	49958.73
519.27	50026.61
519.45	50010.23
519.62	50096.83
519.79	49787.88
519.96	50623.45
520.14	50787.28
520.31	50183.43
520.48	50522.80
520.65	50733.45
520.83	51016.66
521.00	51150.07
521.17	50578.98
521.34	51009.64
521.52	51058.79
521.69	51533.92
521.86	51304.54
522.03	51650.94
522.20	51592.43
522.38	51615.83
522.55	51519.87
522.72	51742.22
522.89	51426.25
523.07	51711.80
523.24	51859.25
523.41	51620.52
523.58	51908.40
523.75	52430.34
523.92	52395.23
524.10	52271.18
524.27	52545.03
524.44	52435.02
524.61	52437.36
524.78	52425.66
524.96	52416.30
525.13	52327.36
525.30	52619.92
525.47	53029.52
525.64	52713.55
525.81	52743.97
525.98	53291.66
526.16	52959.30
526.33	53043.56
526.50	53198.04
526.67	52971.00
526.84	53329.11
527.01	52935.90
527.18	53088.03
527.36	53191.01
527.53	53645.08
527.70	53645.08
527.87	53701.25
528.04	53591.25
528.21	53542.10
528.38	53649.76
528.55	54031.27
528.72	53577.20
528.89	53511.67
529.07	53764.45
529.24	53558.48
529.41	54012.54
529.58	53881.47
529.75	53900.20
529.92	53907.22
530.09	54174.04
530.26	53935.30
530.43	54239.57
530.60	54183.40
530.77	54010.20
530.94	54270.00
531.11	54057.01
531.28	54506.40
531.46	54302.77
531.63	54667.89
531.80	54522.78
531.97	54686.62
532.14	54602.36
532.31	54635.13
532.48	54965.14
532.65	54869.18
532.82	54932.37
532.99	54836.41
533.16	54974.50
533.33	54983.86
533.50	55208.56
533.67	55056.42
533.84	54803.64
534.01	55089.19
534.18	55246.00
534.35	55660.28
534.52	55276.43
534.69	55246.00
534.86	55440.27
535.03	55304.52
535.20	55470.70
535.37	55739.86
535.54	55817.10
535.71	55367.71
535.88	55735.18
536.05	55786.67
536.22	55599.43
536.38	55863.91
536.55	55709.43
536.72	55896.67
536.89	55714.11
537.06	55894.33
537.23	56030.08
537.40	55999.66
537.57	56184.56
537.74	55985.61
537.91	56364.78
538.08	56369.46
538.25	55966.89
538.42	56301.59
538.59	56271.16
538.75	56364.78
538.92	56233.71
539.09	56650.33
539.26	56402.23
539.43	56355.42
539.60	56486.49
539.77	56516.92
539.94	56664.37
540.11	56509.89
540.28	56722.88
540.44	56734.59
540.61	56610.54
540.78	56491.17
540.95	56830.55
541.12	56381.16
541.29	56809.48
541.46	56748.63
541.62	56872.68
541.79	56795.44
541.96	56673.73
542.13	56573.09
542.30	56914.81
542.47	57116.09
542.63	56809.48
542.80	57212.06
542.97	57249.50
543.14	57427.38
543.31	57284.61
543.48	57467.17
543.64	57565.48
543.81	57509.30
543.98	57516.32
544.15	57511.64
544.32	57719.95
544.48	57635.69
544.65	57455.47
544.82	57499.94
544.99	57432.07
545.16	57647.39
545.32	57513.98
545.49	57851.02
545.66	58045.29
545.83	57916.56
546.00	57923.58
546.16	57752.72
546.33	57783.15
546.50	57640.37
546.67	58035.92
546.83	57705.91
547.00	57982.09
547.17	57825.28
547.34	57783.15
547.50	58087.42
547.67	58223.17
547.84	58307.43
548.00	58234.87
548.17	58454.88
548.34	58382.32
548.51	58473.60
548.67	58422.11
548.84	58347.21
549.01	58293.38
549.18	58202.10
549.34	58670.21
549.51	58574.25
549.68	58567.23
549.84	58532.12
550.01	58588.29
550.18	58527.44
550.34	58590.63
550.51	58560.20
550.68	58695.95
550.84	58578.93
551.01	58670.21
551.18	58621.06
551.34	58635.10
551.51	58649.14
551.68	58677.23
551.84	58789.58
552.01	58714.68
552.18	59002.56
552.34	58780.21
552.51	58880.86
552.68	58803.62
552.84	59035.33
553.01	59150.02
553.18	59140.66
553.34	58993.20
553.51	58995.54
553.67	58901.92
553.84	59107.89
554.01	59194.49
554.17	59201.51
554.34	59112.57
554.51	59128.95
554.67	59360.67
554.84	59171.08
555.00	59348.96
555.17	59201.51
555.33	59526.84
555.50	59100.87
555.67	59250.66
555.83	59178.10
556.00	59234.28
556.16	59716.43
556.33	59447.27
556.50	59400.46
556.66	59440.24
556.83	59290.45
556.99	59604.08
557.16	59728.13
557.32	59751.54
557.49	59891.97
557.65	59423.86
557.82	59704.73
557.98	59674.30
558.15	59810.05
558.32	59671.96
558.48	59451.95
558.65	59470.67
558.81	59723.45
558.98	59604.08
559.14	59796.01
559.31	59772.60
559.47	59838.14
559.64	59901.33
559.80	59950.48
559.97	60058.15
560.13	59833.46
560.30	59896.65
560.46	59798.35
560.63	60121.34
560.79	60093.25
560.96	59922.40
561.12	60041.76
561.29	60191.56
561.45	60009.00
561.61	60055.81
561.78	60053.47
561.94	60034.74
562.11	59922.40
562.27	60116.66
562.44	59999.63
562.60	60111.98
562.77	60254.75
562.93	59994.95
563.10	60238.37
563.26	60219.64
563.42	60441.99
563.59	60090.91
563.75	60189.22
563.92	60306.24
564.08	60027.72
564.24	60282.84
564.41	60268.79
564.57	60273.48
564.74	60200.92
564.90	60458.38
565.07	60200.92
565.23	60388.16
565.39	60371.78
565.56	60353.05
565.72	60271.14
565.88	60367.10
566.05	60362.42
566.21	60474.76
566.38	60608.17
566.54	60505.19
566.70	60573.06
566.87	60313.26
567.03	60378.80
567.19	60692.43
567.36	60474.76
567.52	60465.40
567.68	60662.00
567.85	60467.74
568.01	60587.11
568.17	60308.58
568.34	60570.72
568.50	60472.42
568.66	60357.74
568.83	60633.92
568.99	60491.15
569.15	60596.47
569.32	60612.85
569.48	60629.24
569.64	60514.55
569.81	60640.94
569.97	60552.00
570.13	60650.30
570.30	60622.22
570.46	60659.66
570.62	60725.20
570.78	60563.70
570.95	60678.39
571.11	60832.86
571.27	60486.46
571.43	60802.44
571.60	60769.67
571.76	60772.01
571.92	60935.85
572.09	60870.31
572.25	60772.01
572.41	60683.07
572.57	60753.29
572.74	61006.06
572.90	60767.33
573.06	60809.46
573.22	60816.48
573.38	60858.61
573.55	60823.50
573.71	61029.47
573.87	60851.59
574.03	60818.82
574.20	60828.18
574.36	60772.01
574.52	60769.67
574.68	60804.78
574.84	60912.44
575.01	60816.48
575.17	60961.59
575.33	61095.00
575.49	60746.26
575.65	60966.27
575.82	60809.46
575.98	60935.85
576.14	61233.10
576.30	60966.27
576.46	60928.83
576.62	60891.38
576.79	60961.59
576.95	60872.65
577.11	60884.36
577.27	60907.76
577.43	60839.89
577.59	60912.44
577.75	60860.95
577.92	61003.72
578.08	61099.68
578.24	61010.74
578.40	61291.61
578.56	61139.47
578.72	60956.91
578.88	60961.59
579.04	61064.58
579.21	61155.86
579.37	61193.31
579.53	61083.30
579.69	60989.68
579.85	61099.68
580.01	61092.66
580.17	60863.29
580.33	61066.92
580.49	61148.84
580.65	61141.81
580.82	60977.98
580.98	61031.81
581.14	60931.17
581.30	61155.86
581.46	60952.23
581.62	61230.75
581.78	61090.32
581.94	61261.18
582.10	61172.24
582.26	61158.20
582.42	60966.27
582.58	61080.96
582.74	61132.45
582.90	61195.65
583.06	61069.26
583.22	60851.59
583.38	61333.74
583.54	61153.52
583.70	61270.54
583.86	61043.51
584.02	61095.00
584.18	61202.67
584.34	61396.93
584.50	61059.90
584.66	61062.24
584.82	60926.49
584.98	61221.39
585.14	61291.61
585.30	60966.27
585.46	61132.45
585.62	61305.65
585.78	61324.38
585.94	61017.77
586.10	61216.71
586.26	61076.28
586.42	61176.92
586.58	61265.86
586.74	61310.33
586.90	61158.20
587.06	61284.59
587.22	61319.70
587.38	61261.18
587.54	61279.91
587.70	61300.97
587.86	61254.16
588.02	61329.06
588.18	61422.68
588.34	61223.73
588.49	61155.86
