SpectraSuite Data File
++++++++++++++++++++++++++++++++++++
Date: Fri Oct 25 11:34:32 EDT 2013
User: price-jones
Dark Spectrum Present: No
Reference Spectrum Present: No
Number of Sampled Component Spectra: 1
Spectrometers: USB2+H05261
Integration Time (usec): 100000 (USB2+H05261)
Spectra Averaged: 1 (USB2+H05261)
Boxcar Smoothing: 0 (USB2+H05261)
Correct for Electrical Dark: No (USB2+H05261)
Strobe/Lamp Enabled: No (USB2+H05261)
Correct for Detector Non-linearity: No (USB2+H05261)
Correct for Stray Light: No (USB2+H05261)
Number of Pixels in Processed Spectrum: 2048
>>>>>Begin Processed Spectral Data<<<<<
365.73	315.97
365.92	315.97
366.12	315.97
366.32	212.99
366.52	161.50
366.72	227.03
366.91	224.69
367.11	126.39
367.31	198.95
367.51	163.84
367.70	173.20
367.90	203.63
368.10	168.52
368.30	194.26
368.49	236.39
368.69	191.92
368.89	187.24
369.09	250.44
369.28	191.92
369.48	236.39
369.68	217.67
369.87	173.20
370.07	224.69
370.27	311.29
370.47	294.91
370.66	489.17
370.86	533.64
371.06	498.53
371.25	550.03
371.45	559.39
371.65	533.64
371.84	550.03
372.04	545.34
372.24	564.07
372.44	552.37
372.63	566.41
372.83	571.09
373.03	575.77
373.22	606.20
373.42	620.24
373.62	580.45
373.81	608.54
374.01	671.73
374.21	660.03
374.40	540.66
374.60	713.86
374.79	688.12
374.99	589.82
375.19	594.50
375.38	688.12
375.58	697.48
375.78	664.71
375.97	671.73
376.17	765.36
376.37	622.58
376.56	648.33
376.76	720.88
376.95	678.76
377.15	676.41
377.35	690.46
377.54	713.86
377.74	695.14
377.93	678.76
378.13	704.50
378.33	767.70
378.52	706.84
378.72	727.91
378.91	711.52
379.11	650.67
379.31	662.37
379.50	695.14
379.70	664.71
379.89	683.44
380.09	662.37
380.28	706.84
380.48	704.50
380.68	718.54
380.87	683.44
381.07	692.80
381.26	713.86
381.46	748.97
381.65	739.61
381.85	802.80
382.04	718.54
382.24	732.59
382.43	777.06
382.63	739.61
382.83	711.52
383.02	741.95
383.22	746.63
383.41	788.76
383.61	730.25
383.80	880.04
384.00	760.67
384.19	781.74
384.39	805.14
384.58	847.27
384.78	828.55
384.97	770.04
385.17	854.30
385.36	809.83
385.56	774.72
385.75	755.99
385.95	938.55
386.14	844.93
386.34	784.08
386.53	821.53
386.72	882.38
386.92	830.89
387.11	952.60
387.31	880.04
387.50	802.80
387.70	835.57
387.89	837.91
388.09	805.14
388.28	826.21
388.48	905.79
388.67	863.66
388.86	910.47
389.06	861.32
389.25	847.27
389.45	940.90
389.64	877.70
389.84	926.85
390.03	858.98
390.22	929.19
390.42	966.64
390.61	940.90
390.81	971.32
391.00	994.73
391.19	933.87
391.39	1011.11
391.58	964.30
391.78	1025.15
391.97	954.94
392.16	959.62
392.36	952.60
392.55	1109.41
392.75	1006.43
392.94	1050.90
393.13	1055.58
393.33	945.58
393.52	1015.79
393.71	1034.52
393.91	1074.31
394.10	1001.75
394.29	1008.77
394.49	1114.10
394.68	1057.92
394.88	1046.22
395.07	1125.80
395.26	1111.75
395.46	1107.07
395.65	1156.22
395.84	1137.50
396.04	1200.69
396.23	1235.80
396.42	1097.71
396.62	1151.54
396.81	1104.73
397.00	1245.16
397.19	1196.01
397.39	1203.04
397.58	1231.12
397.77	1203.04
397.97	1249.85
398.16	1146.86
398.35	1245.16
398.55	1203.04
398.74	1214.74
398.93	1249.85
399.12	1291.98
399.32	1254.53
399.51	1291.98
399.70	1238.14
399.90	1282.61
400.09	1355.17
400.28	1287.29
400.47	1355.17
400.67	1327.08
400.86	1352.83
401.05	1350.49
401.24	1294.32
401.44	1357.51
401.63	1453.47
401.82	1338.79
402.01	1355.17
402.21	1322.40
402.40	1462.83
402.59	1493.26
402.78	1446.45
402.97	1373.89
403.17	1460.49
403.36	1469.86
403.55	1483.90
403.74	1565.82
403.93	1554.12
404.13	1427.73
404.32	1533.05
404.51	1568.16
404.70	1556.46
404.89	1586.88
405.09	1689.87
405.28	1685.19
405.47	1582.20
405.66	1556.46
405.85	1629.01
406.05	1685.19
406.24	1778.81
406.43	1706.25
406.62	1666.46
406.81	1748.38
407.00	1675.82
407.20	1769.44
407.39	1792.85
407.58	1741.36
407.77	1788.17
407.96	1818.60
408.15	1825.62
408.34	1856.04
408.54	1849.02
408.73	1806.89
408.92	1909.88
409.11	1909.88
409.30	1886.47
409.49	1952.01
409.68	1914.56
409.87	1975.41
410.07	1961.37
410.26	1933.28
410.45	1900.52
410.64	1970.73
410.83	2008.18
411.02	2078.40
411.21	2069.03
411.40	2012.86
411.59	2097.12
411.78	2080.74
411.98	2043.29
412.17	2165.00
412.36	2272.66
412.55	2249.25
412.74	2249.25
412.93	2300.75
413.12	2244.57
413.31	2356.92
413.50	2272.66
413.69	2291.38
413.88	2387.35
414.07	2352.24
414.26	2366.28
414.45	2363.94
414.64	2438.84
414.83	2562.89
415.02	2504.37
415.22	2588.63
415.41	2583.95
415.60	2490.33
415.79	2597.99
415.98	2684.59
416.17	2602.68
416.36	2572.25
416.55	2635.44
416.74	2796.94
416.93	2703.32
417.12	2733.75
417.31	2773.53
417.50	2759.49
417.69	2864.82
417.88	2787.58
418.07	2782.90
418.26	2827.37
418.45	2878.86
418.64	2993.55
418.83	3075.46
419.02	2759.49
419.21	2988.86
419.39	2920.99
419.58	2958.44
419.77	2928.01
419.96	3049.72
420.15	3033.33
420.34	2972.48
420.53	3054.40
420.72	3119.93
420.91	3052.06
421.10	3110.57
421.29	3171.43
421.48	3204.19
421.67	3005.25
421.86	3110.57
422.05	3141.00
422.24	3225.26
422.43	3276.75
422.61	3243.98
422.80	3255.69
422.99	3337.60
423.18	3297.81
423.37	3370.37
423.56	3335.26
423.75	3311.86
423.94	3178.45
424.13	3117.59
424.32	3164.40
424.50	3361.01
424.69	3304.84
424.88	3351.65
425.07	3176.11
425.26	3258.03
425.45	3288.45
425.64	3218.24
425.83	3300.16
426.01	3311.86
426.20	3339.94
426.39	3412.50
426.58	3349.31
426.77	3342.28
426.96	3475.70
427.15	3389.10
427.33	3431.23
427.52	3487.40
427.71	3335.26
427.90	3368.03
428.09	3452.29
428.28	3522.51
428.46	3524.85
428.65	3583.36
428.84	3782.31
429.03	3578.68
429.22	3609.11
429.40	3552.93
429.59	3665.28
429.78	3520.17
429.97	3405.48
430.16	3616.13
430.34	3599.74
430.53	3695.71
430.72	3721.45
430.91	3789.33
431.10	3623.15
431.28	3756.56
431.47	3871.25
431.66	3927.42
431.85	3836.14
432.03	3831.46
432.22	3925.08
432.41	3833.80
432.60	3911.04
432.79	3887.63
432.97	4051.47
433.16	3978.91
433.35	3803.37
433.54	3948.48
433.72	4018.70
433.91	3854.86
434.10	4011.68
434.28	3894.65
434.47	3840.82
434.66	4067.85
434.85	4102.96
435.03	4088.92
435.22	4121.68
435.41	4124.02
435.59	4184.88
435.78	4175.52
435.97	4236.37
436.16	4161.47
436.34	4215.30
436.53	4180.20
436.72	4173.18
436.90	4149.77
437.09	4351.06
437.28	4348.72
437.46	4306.59
437.65	4278.50
437.84	4344.03
438.02	4320.63
438.21	4477.44
438.40	4397.87
438.58	4540.64
438.77	4484.47
438.96	4652.98
439.14	4655.33
439.33	4655.33
439.52	4667.03
439.70	4608.51
439.89	4755.97
440.08	4725.54
440.26	4685.75
440.45	4608.51
440.63	4835.55
440.82	4910.44
441.01	4915.12
441.19	4999.38
441.38	5004.07
441.57	4891.72
441.75	5095.35
441.94	5259.18
442.12	5231.10
442.31	5090.67
442.50	5188.97
442.68	5151.52
442.87	5139.82
443.05	5289.61
443.24	5212.37
443.43	5336.42
443.61	5231.10
443.80	5605.58
443.98	5252.16
444.17	5085.98
444.35	5476.85
444.54	5378.55
444.73	5467.49
444.91	5273.23
445.10	5500.26
445.28	5460.47
445.47	5495.58
445.65	5254.50
445.84	5490.90
446.02	5376.21
446.21	5366.85
446.39	5390.25
446.58	5528.35
446.77	5509.62
446.95	5444.09
447.14	5493.24
447.32	5643.03
447.51	5418.34
447.69	5502.60
447.88	5542.39
448.06	5570.48
448.25	5481.53
448.43	5526.00
448.62	5561.11
448.80	5521.32
448.99	5528.35
449.17	5633.67
449.36	5657.07
449.54	5542.39
449.73	5678.14
449.91	5764.74
450.10	5853.68
450.28	5902.83
450.46	5888.79
450.65	5879.43
450.83	5804.53
451.02	5827.93
451.20	5867.72
451.39	5940.28
451.57	5834.96
451.76	5827.93
451.94	5895.81
452.13	6005.81
452.31	5844.32
452.49	5944.96
452.68	5832.62
452.86	5947.30
453.05	6129.86
453.23	6225.82
453.42	6061.99
453.60	5907.51
453.78	6122.84
453.97	6141.57
454.15	6132.20
454.34	5973.05
454.52	6242.21
454.70	6331.15
454.89	6305.40
455.07	6291.36
455.26	6218.80
455.44	6256.25
455.62	6263.27
455.81	6319.45
455.99	6523.07
456.17	6572.22
456.36	6506.69
456.54	6450.52
456.73	6696.27
456.91	6757.13
457.09	6775.85
457.28	6707.98
457.46	6574.56
457.64	6803.94
457.83	6782.87
458.01	6630.74
458.19	6740.74
458.38	6876.49
458.56	6949.05
458.74	6766.49
458.93	6796.92
459.11	6810.96
459.29	6719.68
459.48	6984.16
459.66	7012.24
459.84	6829.68
460.03	7122.25
460.21	6988.84
460.39	7101.19
460.57	7049.69
460.76	7117.57
460.94	7220.55
461.12	7136.29
461.31	7297.79
461.49	7068.42
461.67	7122.25
461.85	7337.58
462.04	7325.88
462.22	7667.60
462.40	7302.47
462.59	7325.88
462.77	7440.56
462.95	7417.16
463.13	7501.42
463.32	7452.27
463.50	7632.49
463.68	7536.52
463.86	7634.83
464.05	7435.88
464.23	7517.80
464.41	7492.05
464.59	7445.24
464.78	7705.04
464.96	7604.40
465.14	7566.95
465.32	7613.76
465.50	7602.06
465.69	7775.26
465.87	7901.65
466.05	7721.43
466.23	7768.24
466.41	7801.01
466.60	8002.29
466.78	7836.11
466.96	7644.19
467.14	7808.03
467.32	7882.92
467.51	8044.42
467.69	7808.03
467.87	7887.61
468.05	8135.70
468.23	7854.84
468.41	7981.23
468.60	8056.12
468.78	8238.69
468.96	8070.17
469.14	8098.25
469.32	8182.51
469.50	8119.32
469.69	8250.39
469.87	8521.89
470.05	8360.39
470.23	8437.63
470.41	8374.44
470.59	8463.38
470.77	8381.46
470.95	8369.76
471.14	8575.72
471.32	8264.43
471.50	8456.36
471.68	8692.75
471.86	8624.87
472.04	8601.47
472.22	8849.57
472.40	8730.20
472.58	8868.29
472.77	8971.27
472.95	8987.66
473.13	9097.66
473.31	8926.80
473.49	9139.79
473.67	8884.67
473.85	9242.78
474.03	9322.35
474.21	8990.00
474.39	9305.97
474.57	9282.56
474.75	9322.35
474.93	9357.46
475.12	9437.04
475.30	9720.24
475.48	9511.94
475.66	9743.65
475.84	9778.76
476.02	9877.06
476.20	9755.35
476.38	9987.07
476.56	10265.59
476.74	10221.12
476.92	9783.44
477.10	9996.43
477.28	10143.88
477.46	10293.68
477.64	10363.89
477.82	10326.44
478.00	10527.73
478.18	10572.20
478.36	10761.78
478.54	10733.70
478.72	10871.79
478.90	10974.77
479.08	10902.22
479.26	11124.57
479.44	11143.29
479.62	11260.32
479.80	11445.22
479.98	11321.17
480.16	11712.04
480.34	11562.25
480.52	11765.87
480.70	11847.79
480.88	11662.89
481.06	11793.96
481.24	11747.15
481.41	11936.73
481.59	12299.52
481.77	12390.80
481.95	12510.16
482.13	12498.46
482.31	12468.03
482.49	12711.45
482.67	12615.49
482.85	12664.64
483.03	12872.95
483.21	13172.54
483.39	13041.46
483.57	12978.27
483.74	13085.94
483.92	13261.48
484.10	13310.63
484.28	13509.57
484.46	13891.08
484.64	14047.90
484.82	13839.59
485.00	14080.66
485.18	14087.68
485.35	14324.08
485.53	14300.67
485.71	14188.33
485.89	14803.89
486.07	14572.18
486.25	14635.37
486.43	14796.87
486.61	14782.82
486.78	15082.41
486.96	15229.87
487.14	15311.78
487.32	15346.89
487.50	15447.54
487.68	15590.31
487.85	15892.24
488.03	16119.27
488.21	16229.27
488.39	16362.69
488.57	16383.75
488.75	16325.24
488.92	16545.25
489.10	16652.91
489.28	16652.91
489.46	16798.02
489.64	16793.34
489.81	17640.62
489.99	16994.63
490.17	17184.21
490.35	17406.56
490.53	17467.42
490.70	17759.98
490.88	17748.28
491.06	18200.01
491.24	17734.24
491.41	18235.11
491.59	18136.81
491.77	18239.79
491.95	18567.47
492.13	18459.81
492.30	18881.10
492.48	18838.97
492.66	18618.96
492.84	19183.03
493.01	19126.86
493.19	19208.78
493.37	19309.42
493.54	19435.81
493.72	19655.82
493.90	19442.83
494.08	19686.25
494.25	19875.83
494.43	20152.01
494.61	20325.21
494.79	20142.65
494.96	20278.40
495.14	20730.12
495.32	20732.47
495.49	20449.26
495.67	20844.81
495.85	21088.23
496.02	21032.05
496.20	21404.20
496.38	21317.60
496.55	21029.71
496.73	21764.64
496.91	21848.90
497.09	21493.14
497.26	21813.79
497.44	21708.47
497.62	22066.57
497.79	22288.92
497.97	22188.28
498.14	22415.31
498.32	22569.79
498.50	22450.42
498.67	22700.86
498.85	22419.99
499.03	23150.24
499.20	22782.77
499.38	22960.66
499.56	22937.25
499.73	23082.36
499.91	23445.15
500.08	23611.32
500.26	23264.92
500.44	23419.40
500.61	23740.05
500.79	23531.75
500.97	23583.24
501.14	24128.58
501.32	24259.65
501.49	23857.08
501.67	23810.27
501.84	24435.19
502.02	24142.63
502.20	24458.60
502.37	24498.39
502.55	24421.15
502.72	24372.00
502.90	24847.13
503.07	24510.09
503.25	24898.62
503.43	25001.60
503.60	24973.52
503.78	25226.29
503.95	25048.41
504.13	25259.06
504.30	25521.20
504.48	25586.74
504.65	25685.04
504.83	25626.53
505.01	25680.36
505.18	25530.56
505.36	25586.74
505.53	26068.89
505.71	26122.72
505.88	26148.46
506.06	26029.10
506.23	26558.06
506.41	26230.38
506.58	26302.94
506.76	26735.94
506.93	26499.55
507.11	27002.76
507.28	26944.25
507.46	26806.16
507.63	27007.44
507.81	27065.96
507.98	26906.80
508.16	27206.39
508.33	27154.90
508.50	27227.45
508.68	27484.91
508.85	27950.68
509.03	27185.32
509.20	27571.51
509.38	28011.53
509.55	27796.20
509.73	27833.65
509.90	27847.69
510.08	27782.16
510.25	27721.30
510.42	28100.47
510.60	28109.83
510.77	28320.48
510.95	28746.46
511.12	28582.62
511.30	28748.80
511.47	28795.61
511.64	28601.35
511.82	28620.07
511.99	28900.94
512.17	29132.65
512.34	28914.98
512.51	29137.33
512.69	29188.82
512.86	29317.55
513.04	29394.79
513.21	29425.22
513.38	29551.60
513.56	29460.32
513.73	29366.70
513.90	29450.96
514.08	29893.32
514.25	29991.62
514.43	30213.98
514.60	30288.87
514.77	29954.18
514.95	30396.54
515.12	30115.67
515.29	30422.28
515.47	30328.66
515.64	30841.24
515.81	30190.57
515.99	30934.86
516.16	30799.11
516.33	30820.17
516.51	30838.90
516.68	30874.01
516.85	30766.34
517.03	31358.50
517.20	31182.96
517.37	30934.86
517.54	30946.56
517.72	30808.47
517.89	31655.75
518.06	31356.16
518.24	31325.73
518.41	31414.67
518.58	31517.65
518.75	31236.79
518.93	31456.80
519.10	31608.93
519.27	31721.28
519.45	31798.52
519.62	32051.30
519.79	32233.86
519.96	32142.58
520.14	32229.18
520.31	31976.40
520.48	32320.46
520.65	32121.51
520.83	32737.07
521.00	32636.43
521.17	32514.72
521.34	33195.82
521.52	32542.81
521.69	32460.89
521.86	33006.23
522.03	33104.54
522.20	32910.27
522.38	33329.23
522.55	33284.76
522.72	33109.22
522.89	33331.57
523.07	33773.93
523.24	33270.72
523.41	33750.52
523.58	33413.49
523.75	33668.61
523.92	33429.87
524.10	33867.55
524.27	33830.10
524.44	33942.45
524.61	33979.90
524.78	34007.98
524.96	34246.72
525.13	34642.27
525.30	34558.01
525.47	34249.06
525.64	34099.26
525.81	34487.79
525.98	34740.57
526.16	34448.00
526.33	34281.83
526.50	34976.97
526.67	34146.08
526.84	34464.39
527.01	34330.98
527.18	35028.46
527.36	34988.67
527.53	35178.25
527.70	35178.25
527.87	35548.06
528.04	34946.54
528.21	35143.14
528.38	35194.64
528.55	35515.29
528.72	35112.72
528.89	35330.39
529.07	35594.87
529.24	35314.00
529.41	35882.75
529.58	35871.05
529.75	35564.44
529.92	35833.60
530.09	35896.80
530.26	36077.02
530.43	36105.10
530.60	35477.84
530.77	35697.85
530.94	36311.07
531.11	35995.10
531.28	36444.48
531.46	36301.71
531.63	36486.61
531.80	36034.89
531.97	36484.27
532.14	36264.26
532.31	36217.45
532.48	36669.17
532.65	36641.09
532.82	36488.95
532.99	36488.95
533.16	36636.41
533.33	36769.82
533.50	36776.84
533.67	36907.91
533.84	36814.29
534.01	36896.20
534.18	36891.52
534.35	37144.30
534.52	37198.13
534.69	37514.11
534.86	37729.44
535.03	37448.57
535.20	37834.76
535.37	37694.33
535.54	37523.47
535.71	37392.40
535.88	37596.03
536.05	37638.15
536.22	37874.55
536.38	37759.86
536.55	37780.93
536.72	37324.52
536.89	37319.84
537.06	38017.32
537.23	38136.69
537.40	37677.94
537.57	37834.76
537.74	38038.39
537.91	38469.04
538.08	38202.22
538.25	37991.58
538.42	38061.79
538.59	38543.94
538.75	37986.89
538.92	38340.32
539.09	38742.89
539.26	38539.26
539.43	38352.02
539.60	38412.87
539.77	38932.47
539.94	38773.31
540.11	38504.15
540.28	38728.84
540.44	38759.27
540.61	38394.15
540.78	39253.12
540.95	39002.69
541.12	38672.67
541.29	38834.17
541.46	38946.51
541.62	39049.50
541.79	39129.08
541.96	39035.45
542.13	38726.50
542.30	38988.64
542.47	39360.79
542.63	39203.97
542.80	39763.36
542.97	39711.87
543.14	40055.93
543.31	39739.96
543.48	39463.77
543.64	40130.83
543.81	39875.71
543.98	40137.85
544.15	40105.08
544.32	40287.64
544.48	40353.18
544.65	40163.59
544.82	40566.16
544.99	40397.65
545.16	40065.29
545.32	40175.30
545.49	40802.56
545.66	40631.70
545.83	40512.33
546.00	40755.75
546.16	40608.29
546.33	40095.72
546.50	40287.64
546.67	40481.91
546.83	40170.61
547.00	40605.95
547.17	40989.80
547.34	40795.54
547.50	41102.15
547.67	41354.93
547.84	40617.66
548.00	40601.27
548.17	41408.76
548.34	41163.00
548.51	41476.63
548.67	41127.89
548.84	41298.75
549.01	41216.83
549.18	41265.99
549.34	41141.94
549.51	41666.22
549.68	41415.78
549.84	41509.40
550.01	41574.94
550.18	40940.65
550.34	41413.44
550.51	41364.29
550.68	41560.89
550.84	41706.01
551.01	41874.52
551.18	41806.65
551.34	41553.87
551.51	41347.90
551.68	41340.88
551.84	41691.96
552.01	41666.22
552.18	41745.80
552.34	41528.13
552.51	42146.03
552.68	41724.73
552.84	42026.66
553.01	41940.06
553.18	41991.55
553.34	42167.09
553.51	42029.00
553.67	41844.10
553.84	42738.18
554.01	42267.73
554.17	41998.57
554.34	42412.85
554.51	42590.73
554.67	42410.51
554.84	42452.64
555.00	42590.73
555.17	42560.30
555.33	42885.64
555.50	42696.05
555.67	42457.32
555.83	42183.48
556.00	42967.55
556.16	43187.56
556.33	43093.94
556.50	43061.18
556.66	42609.45
556.83	42408.17
556.99	43171.18
557.16	43159.48
557.32	43232.04
557.49	42855.21
557.65	42705.41
557.82	42843.51
557.98	43269.48
558.15	42644.56
558.32	43215.65
558.48	42930.11
558.65	42658.60
558.81	42780.31
558.98	43295.23
559.14	43117.35
559.31	43124.37
559.47	42899.68
559.64	43124.37
559.80	43423.96
559.97	43463.75
560.13	43054.15
560.30	43412.26
560.46	43475.45
560.63	43206.29
560.79	43620.56
560.96	43789.08
561.12	43716.53
561.29	43269.48
561.45	43360.76
561.61	43728.23
561.78	43585.46
561.94	43683.76
562.11	43812.49
562.27	43414.60
562.44	43435.66
562.60	43686.10
562.77	43669.72
562.93	43601.84
563.10	43920.15
563.26	43391.19
563.42	44126.12
563.59	43856.96
563.75	43608.86
563.92	43700.14
564.08	43793.76
564.24	44154.21
564.41	43454.39
564.57	43955.26
564.74	43934.20
564.90	43824.19
565.07	43810.15
565.23	43765.68
565.39	43983.35
565.56	44058.24
565.72	43674.40
565.88	44062.93
566.05	44074.63
566.21	44495.92
566.38	44011.43
566.54	43800.79
566.70	44341.45
566.87	44196.34
567.03	44100.37
567.19	44383.58
567.36	43885.04
567.52	44343.79
567.68	44444.43
567.85	44292.30
568.01	44552.10
568.17	44147.18
568.34	44170.59
568.50	44163.57
568.66	44296.98
568.83	44472.52
568.99	44676.15
569.15	44549.76
569.32	44259.53
569.48	44978.07
569.64	44451.45
569.81	44964.03
569.97	44025.48
570.13	44854.03
570.30	44069.95
570.46	44652.74
570.62	44685.51
570.78	44573.16
570.95	44254.85
571.11	44442.09
571.27	44224.42
571.43	44189.31
571.60	44727.64
571.76	44580.18
571.92	44746.36
572.09	44524.01
572.25	44556.78
572.41	44753.38
572.57	44774.45
572.74	44715.93
572.90	45071.70
573.06	44783.81
573.22	44732.32
573.38	45010.84
573.55	44678.49
573.71	45373.63
573.87	44516.99
574.03	45155.96
574.20	44935.95
574.36	44568.48
574.52	44847.00
574.68	44491.24
574.84	44863.39
575.01	44725.30
575.17	44966.37
575.33	45029.57
575.49	44603.59
575.65	44919.56
575.82	45216.81
575.98	44839.98
576.14	45207.45
576.30	45240.21
576.46	45024.89
576.62	44947.65
576.79	44900.84
576.95	44011.43
577.11	44870.41
577.27	44753.38
577.43	44877.43
577.59	44807.22
577.75	44552.10
577.92	44495.92
578.08	44746.36
578.24	45539.80
578.40	45364.26
578.56	44905.52
578.72	44940.63
578.88	45090.42
579.04	45310.43
579.21	44959.35
579.37	45059.99
579.53	45081.06
579.69	44664.44
579.85	44605.93
580.01	45270.64
580.17	44973.39
580.33	44737.00
580.49	45258.94
580.65	45209.79
580.82	45216.81
580.98	44811.90
581.14	44685.51
581.30	44540.39
581.46	45008.50
581.62	44839.98
581.78	44545.08
581.94	45497.67
582.10	44498.26
582.26	45081.06
582.42	44767.43
582.58	45120.85
582.74	45603.00
582.90	44917.22
583.06	45090.42
583.22	45057.65
583.38	45116.17
583.54	45268.30
583.70	45144.25
583.86	45118.51
584.02	45027.23
584.18	45680.24
584.34	45205.11
584.50	45595.98
584.66	45741.09
584.82	45113.83
584.98	45684.92
585.14	45390.01
585.30	45331.50
585.46	45184.04
585.62	44914.88
585.78	45179.36
585.94	44996.80
586.10	45113.83
586.26	45057.65
586.42	44938.29
586.58	45118.51
586.74	45500.01
586.90	44952.33
587.06	45216.81
587.22	45336.18
587.38	45043.61
587.54	45797.26
587.70	45436.82
587.86	44942.97
588.02	45382.99
588.18	45221.49
588.34	45074.04
588.49	45516.40
588.65	45315.11
588.81	45825.35
588.97	45394.69
589.13	45226.17
589.29	45240.21
589.45	45748.11
589.61	45708.32
589.77	45434.48
589.93	45741.09
590.08	45408.73
