SpectraSuite Data File
++++++++++++++++++++++++++++++++++++
Date: Fri Oct 25 10:48:23 EDT 2013
User: price-jones
Dark Spectrum Present: No
Reference Spectrum Present: No
Number of Sampled Component Spectra: 1
Spectrometers: USB2+H05261
Integration Time (usec): 100000 (USB2+H05261)
Spectra Averaged: 1 (USB2+H05261)
Boxcar Smoothing: 0 (USB2+H05261)
Correct for Electrical Dark: No (USB2+H05261)
Strobe/Lamp Enabled: No (USB2+H05261)
Correct for Detector Non-linearity: No (USB2+H05261)
Correct for Stray Light: No (USB2+H05261)
Number of Pixels in Processed Spectrum: 2048
>>>>>Begin Processed Spectral Data<<<<<
365.73	131.07
365.92	131.07
366.12	131.07
366.32	147.45
366.52	58.51
366.72	58.51
366.91	0.00
367.11	28.09
367.31	46.81
367.51	74.90
367.70	124.05
367.90	49.15
368.10	112.35
368.30	28.09
368.49	77.24
368.69	37.45
368.89	93.62
369.09	117.03
369.28	126.39
369.48	56.17
369.68	65.54
369.87	138.09
370.07	79.58
370.27	212.99
370.47	133.41
370.66	409.59
370.86	447.04
371.06	470.45
371.25	496.19
371.45	402.57
371.65	543.00
371.84	606.20
372.04	390.87
372.24	465.77
372.44	545.34
372.63	496.19
372.83	479.81
373.03	594.50
373.22	489.17
373.42	517.26
373.62	519.60
373.81	582.79
374.01	627.26
374.21	545.34
374.40	503.22
374.60	613.22
374.79	557.05
374.99	550.03
375.19	566.41
375.38	627.26
375.58	599.18
375.78	606.20
375.97	603.86
376.17	615.56
376.37	571.09
376.56	629.60
376.76	561.73
376.95	699.82
377.15	599.18
377.35	629.60
377.54	650.67
377.74	664.71
377.93	608.54
378.13	702.16
378.33	690.46
378.52	725.57
378.72	807.48
378.91	695.14
379.11	650.67
379.31	645.99
379.50	674.07
379.70	667.05
379.89	650.67
380.09	676.41
380.28	671.73
380.48	755.99
380.68	711.52
380.87	737.27
381.07	697.48
381.26	763.01
381.46	706.84
381.65	748.97
381.85	746.63
382.04	770.04
382.24	702.16
382.43	732.59
382.63	720.88
382.83	784.08
383.02	763.01
383.22	793.44
383.41	653.01
383.61	760.67
383.80	835.57
384.00	828.55
384.19	830.89
384.39	781.74
384.58	788.76
384.78	788.76
384.97	896.43
385.17	807.48
385.36	819.19
385.56	898.77
385.75	809.83
385.95	856.64
386.14	940.90
386.34	821.53
386.53	840.25
386.72	868.34
386.92	851.96
387.11	877.70
387.31	833.23
387.50	826.21
387.70	875.36
387.89	940.90
388.09	901.11
388.28	919.83
388.48	943.24
388.67	905.79
388.86	950.26
389.06	912.81
389.25	1025.15
389.45	976.00
389.64	954.94
389.84	952.60
390.03	1029.84
390.22	936.21
390.42	983.02
390.61	1025.15
390.81	971.32
391.00	964.30
391.19	1060.26
391.39	1074.31
391.58	1083.67
391.78	1076.65
391.97	1071.97
392.16	954.94
392.36	1135.16
392.55	1027.50
392.75	1041.54
392.94	1027.50
393.13	1022.81
393.33	912.81
393.52	1125.80
393.71	1118.78
393.91	1104.73
394.10	1139.84
394.29	1191.33
394.49	1156.22
394.68	1146.86
394.88	1231.12
395.07	1200.69
395.26	1270.91
395.46	1235.80
395.65	1336.45
395.84	1242.82
396.04	1224.10
396.23	1163.25
396.42	1219.42
396.62	1219.42
396.81	1224.10
397.00	1273.25
397.19	1296.66
397.39	1291.98
397.58	1294.32
397.77	1324.74
397.97	1486.24
398.16	1299.00
398.35	1432.41
398.55	1387.94
398.74	1497.94
398.93	1432.41
399.12	1430.07
399.32	1439.43
399.51	1493.26
399.70	1563.48
399.90	1409.00
400.09	1579.86
400.28	1549.43
400.47	1540.07
400.67	1636.03
400.86	1661.78
401.05	1533.05
401.24	1647.74
401.44	1703.91
401.63	1673.48
401.82	1703.91
402.01	1586.88
402.21	1675.82
402.40	1757.74
402.59	1750.72
402.78	1657.10
402.97	1743.70
403.17	1813.92
403.36	1809.23
403.55	1762.42
403.74	1764.76
403.93	1832.64
404.13	1799.87
404.32	1851.36
404.51	1788.17
404.70	2010.52
404.89	2080.74
405.09	2003.50
405.28	1914.56
405.47	1872.43
405.66	1944.99
405.85	1987.11
406.05	1973.07
406.24	1900.52
406.43	2003.50
406.62	1975.41
406.81	2153.29
407.00	2040.95
407.20	1961.37
407.39	2099.46
407.58	2113.50
407.77	2136.91
407.96	2054.99
408.15	2136.91
408.34	2115.84
408.54	2291.38
408.73	2150.95
408.92	2312.45
409.11	2303.09
409.30	2335.85
409.49	2335.85
409.68	2235.21
409.87	2216.49
410.07	2258.62
410.26	2340.54
410.45	2354.58
410.64	2427.14
410.83	2403.73
411.02	2434.16
411.21	2602.68
411.40	2469.27
411.59	2492.67
411.78	2534.80
411.98	2509.05
412.17	2569.91
412.36	2670.55
412.55	2597.99
412.74	2703.32
412.93	2628.42
413.12	2754.81
413.31	2832.05
413.50	2740.77
413.69	2789.92
413.88	2810.98
414.07	2736.09
414.26	2958.44
414.45	2864.82
414.64	2930.35
414.83	2920.99
415.02	3052.06
415.22	3033.33
415.41	3012.27
415.60	3068.44
415.79	3171.43
415.98	3232.28
416.17	3176.11
416.36	3204.19
416.55	3108.23
416.74	3281.43
416.93	3241.64
417.12	3318.88
417.31	3286.11
417.50	3206.53
417.69	3543.57
417.88	3304.84
418.07	3325.90
418.26	3314.20
418.45	3363.35
418.64	3510.80
418.83	3463.99
419.02	3520.17
419.21	3552.93
419.39	3527.19
419.58	3487.40
419.77	3426.54
419.96	3454.63
420.15	3571.66
420.34	3487.40
420.53	3585.70
420.72	3751.88
420.91	3709.75
421.10	3723.79
421.29	3845.50
421.48	3754.22
421.67	3758.90
421.86	3789.33
422.05	3651.24
422.24	3840.82
422.43	3707.41
422.61	3667.62
422.80	3775.28
422.99	3770.60
423.18	3904.01
423.37	3861.88
423.56	3885.29
423.75	3784.65
423.94	3768.26
424.13	3730.81
424.32	3801.03
424.50	3918.06
424.69	3892.31
424.88	3889.97
425.07	3784.65
425.26	3896.99
425.45	3822.09
425.64	3751.88
425.83	3854.86
426.01	3955.51
426.20	3894.65
426.39	3819.75
426.58	3735.50
426.77	3908.69
426.96	3936.78
427.15	3906.35
427.33	3892.31
427.52	3941.46
427.71	4128.70
427.90	3873.59
428.09	4124.02
428.28	4119.34
428.46	4084.23
428.65	4107.64
428.84	4091.26
429.03	4067.85
429.22	3960.19
429.40	4154.45
429.59	4102.96
429.78	3857.20
429.97	3794.01
430.16	3936.78
430.34	4014.02
430.53	4196.58
430.72	4138.07
430.91	4287.86
431.10	4236.37
431.28	4411.91
431.47	4496.17
431.66	4634.26
431.85	4517.23
432.03	4505.53
432.22	4648.30
432.41	4571.07
432.60	4580.43
432.79	4634.26
432.97	4671.71
433.16	4652.98
433.35	4498.51
433.54	4582.77
433.72	4592.13
433.91	4660.01
434.10	4744.27
434.28	4751.29
434.47	4837.89
434.66	4887.04
434.85	4929.17
435.03	4940.87
435.22	4851.93
435.41	4985.34
435.59	4821.50
435.78	5027.47
435.97	5048.54
436.16	5015.77
436.34	4917.47
436.53	4997.04
436.72	5125.77
436.90	4999.38
437.09	5203.01
437.28	4971.30
437.46	5090.67
437.65	5139.82
437.84	5235.78
438.02	5027.47
438.21	4999.38
438.40	5032.15
438.58	5397.28
438.77	5320.04
438.96	5249.82
439.14	5549.41
439.33	5469.83
439.52	5355.15
439.70	5708.57
439.89	5607.92
440.08	5584.52
440.26	5685.16
440.45	5621.97
440.63	5743.67
440.82	5823.25
441.01	5816.23
441.19	5849.00
441.38	6003.47
441.57	6012.84
441.75	5996.45
441.94	6263.27
442.12	6207.10
442.31	6202.42
442.50	6111.14
442.68	6228.17
442.87	6303.06
443.05	6235.19
443.24	6366.26
443.43	6253.91
443.61	6457.54
443.80	6558.18
443.98	6296.04
444.17	6008.16
444.35	6349.87
444.54	6499.67
444.73	6511.37
444.91	6317.11
445.10	6242.21
445.28	6314.77
445.47	6237.53
445.65	6310.08
445.84	6347.53
446.02	6497.33
446.21	6485.62
446.39	6380.30
446.58	6342.85
446.77	6473.92
446.95	6511.37
447.14	6539.46
447.32	6602.65
447.51	6394.34
447.69	6520.73
447.88	6607.33
448.06	6567.54
448.25	6513.71
448.43	6686.91
448.62	6647.12
448.80	6555.84
448.99	6569.88
449.17	6675.21
449.36	6590.95
449.54	6778.19
449.73	6829.68
449.91	6913.94
450.10	7019.27
450.28	7002.88
450.46	6925.65
450.65	6967.77
450.83	7042.67
451.02	6981.82
451.20	7026.29
451.39	7101.19
451.57	6988.84
451.76	6977.14
451.94	7187.79
452.13	7190.13
452.31	7108.21
452.49	6925.65
452.68	7157.36
452.86	6956.07
453.05	7059.06
453.23	7290.77
453.42	7197.15
453.60	7155.02
453.78	7281.41
453.97	7194.81
454.15	7014.59
454.34	7248.64
454.52	7410.14
454.70	7318.86
454.89	7445.24
455.07	7363.33
455.26	7400.77
455.44	7494.40
455.62	7658.23
455.81	7552.91
455.99	7618.44
456.17	7597.38
456.36	7550.57
456.54	7714.41
456.73	7824.41
456.91	7889.95
457.09	8084.21
457.28	8203.58
457.46	7763.56
457.64	7978.89
457.83	7894.63
458.01	7791.64
458.19	8037.40
458.38	7927.39
458.56	8334.65
458.74	8217.62
458.93	7971.86
459.11	8063.15
459.29	8067.83
459.48	8051.44
459.66	8098.25
459.84	8107.62
460.03	8528.91
460.21	8241.03
460.39	8519.55
460.57	8278.47
460.76	8355.71
460.94	8535.93
461.12	8341.67
461.31	8479.76
461.49	8276.13
461.67	8507.85
461.85	8681.05
462.04	8596.79
462.22	9202.99
462.40	8737.22
462.59	8849.57
462.77	8704.45
462.95	8748.92
463.13	8863.61
463.32	8739.56
463.50	9006.38
463.68	8980.64
463.86	8725.52
464.05	8791.05
464.23	8887.01
464.41	8959.57
464.59	8678.71
464.78	8992.34
464.96	8954.89
465.14	8849.57
465.32	9078.94
465.50	9015.74
465.69	9296.61
465.87	9100.00
466.05	9048.51
466.23	8973.61
466.41	9039.15
466.60	9088.30
466.78	8985.32
466.96	9130.43
467.14	9247.46
467.32	9228.73
467.51	9376.19
467.69	9004.04
467.87	9254.48
468.05	9530.66
468.23	9188.94
468.41	9184.26
468.60	9214.69
468.78	9397.25
468.96	9334.06
469.14	9455.76
469.32	9617.26
469.50	9210.01
469.69	9423.00
469.87	9671.09
470.05	9701.52
470.23	9664.07
470.41	9682.80
470.59	9804.50
470.77	9736.63
470.95	9699.18
471.14	9905.15
471.32	9731.95
471.50	10239.84
471.68	10200.05
471.86	10001.11
472.04	10164.95
472.22	10438.79
472.40	10237.50
472.58	10225.80
472.77	10307.72
472.95	10518.37
473.13	10595.61
473.31	10387.30
473.49	10370.91
473.67	10590.92
473.85	10562.84
474.03	10668.16
474.21	10789.87
474.39	10916.26
474.57	10885.83
474.75	10848.38
474.93	10934.98
475.12	10871.79
475.30	11302.45
475.48	11101.16
475.66	11098.82
475.84	11028.60
476.02	11236.91
476.20	11096.48
476.38	11473.31
476.56	11894.60
476.74	11838.43
476.92	11899.28
477.10	11756.51
477.28	12006.95
477.46	11955.46
477.64	11892.26
477.82	12016.31
478.00	12343.99
478.18	12428.24
478.36	12318.24
478.54	12528.89
478.72	12629.53
478.90	12737.20
479.08	12800.39
479.26	12802.73
479.44	12865.92
479.62	12994.65
479.80	13109.34
479.98	13181.90
480.16	13661.71
480.34	13352.76
480.52	13446.38
480.70	13724.90
480.88	13530.64
481.06	13621.92
481.24	13659.37
481.41	14078.32
481.59	14654.09
481.77	14291.31
481.95	14073.64
482.13	14047.90
482.31	14436.42
482.49	14574.52
482.67	14436.42
482.85	14572.18
483.03	14941.98
483.21	15194.76
483.39	15367.96
483.57	15035.60
483.74	15262.63
483.92	15297.74
484.10	15360.94
484.28	15756.49
484.46	15768.19
484.64	16044.37
484.82	15714.36
485.00	16123.95
485.18	16248.00
485.35	16259.70
485.53	15660.52
485.71	16086.50
485.89	16350.98
486.07	16163.74
486.25	16524.18
486.43	16830.79
486.61	16851.86
486.78	17170.17
486.96	17109.32
487.14	17305.92
487.32	17413.59
487.50	17834.88
487.68	17741.26
487.85	18092.34
488.03	18497.25
488.21	18672.79
488.39	18366.18
488.57	18239.79
488.75	18654.07
488.92	18876.42
489.10	18972.38
489.28	19332.82
489.46	19356.23
489.64	19618.37
489.81	19843.06
489.99	19852.42
490.17	19716.67
490.35	20259.68
490.53	20074.77
490.70	20386.07
490.88	20514.80
491.06	20709.06
491.24	20446.92
491.41	20486.71
491.59	20552.24
491.77	20624.80
491.95	20844.81
492.13	21022.69
492.30	21081.21
492.48	21261.43
492.66	21458.03
492.84	21137.38
493.01	21811.45
493.19	21586.76
493.37	21905.07
493.54	22071.25
493.72	22284.24
493.90	22066.57
494.08	22546.38
494.25	22827.24
494.43	22824.90
494.61	22817.88
494.79	23068.32
494.96	23215.77
495.14	22932.57
495.32	23075.34
495.49	23754.10
495.67	23344.50
495.85	23632.39
496.02	23843.04
496.20	23943.68
496.38	24084.11
496.55	24257.31
496.73	24788.61
496.91	24404.77
497.09	24755.85
497.26	24723.08
497.44	24519.45
497.62	24882.24
497.79	24989.90
497.97	24996.92
498.14	25268.42
498.32	25055.43
498.50	25605.46
498.67	25811.43
498.85	25781.00
499.03	25628.87
499.20	25804.41
499.38	26270.17
499.56	25909.73
499.73	25984.63
499.91	26113.36
500.08	26373.16
500.26	25898.03
500.44	26412.95
500.61	26588.49
500.79	26214.00
500.97	26740.62
501.14	27058.93
501.32	26951.27
501.49	26918.50
501.67	26817.86
501.84	26881.05
502.02	27173.62
502.20	27725.99
502.37	27660.45
502.55	27723.65
502.72	27290.65
502.90	27733.01
503.07	27688.54
503.25	27419.38
503.43	27541.08
503.60	27744.71
503.78	28161.33
503.95	27953.02
504.13	28177.71
504.30	28479.64
504.48	28741.78
504.65	28613.05
504.83	28936.04
505.01	28659.86
505.18	28720.71
505.36	28879.87
505.53	29223.93
505.71	29226.27
505.88	29600.76
506.06	29024.98
506.23	29296.49
506.41	29436.92
506.58	29855.87
506.76	29584.37
506.93	29876.94
507.11	29308.19
507.28	29809.06
507.46	29647.57
507.63	29425.22
507.81	30000.99
507.98	29933.11
508.16	30249.08
508.33	30469.09
508.50	30188.23
508.68	30553.35
508.85	30881.03
509.03	30508.88
509.20	30855.28
509.38	31140.83
509.55	31094.02
509.73	31068.27
509.90	31136.15
510.08	30864.64
510.25	30801.45
510.42	31555.10
510.60	31510.63
510.77	31569.15
510.95	31569.15
511.12	31807.88
511.30	31857.03
511.47	32341.52
511.64	32435.14
511.82	32217.47
511.99	32112.15
512.17	31716.60
512.34	31707.24
512.51	32629.41
512.69	32650.47
512.86	32144.92
513.04	32425.78
513.21	32858.78
513.38	32617.71
513.56	32900.91
513.73	32701.96
513.90	32437.48
514.08	32477.27
514.25	32842.40
514.43	32732.39
514.60	32905.59
514.77	32811.97
514.95	33462.64
515.12	33062.41
515.29	33532.86
515.47	33755.21
515.64	33949.47
515.81	33315.19
515.99	33771.59
516.16	33799.68
516.33	33701.37
516.51	33752.87
516.68	33268.37
516.85	33048.36
517.03	33706.05
517.20	33823.08
517.37	33989.26
517.54	34024.37
517.72	34405.88
517.89	33699.03
518.06	34209.27
518.24	33937.77
518.41	33837.12
518.58	34398.85
518.75	34307.57
518.93	34534.60
519.10	34513.54
519.27	34363.75
519.45	34803.77
519.62	34799.08
519.79	35178.25
519.96	35269.53
520.14	35295.28
520.31	35192.30
520.48	35569.12
520.65	35569.12
520.83	35599.55
521.00	36074.68
521.17	35562.10
521.34	35686.15
521.52	36093.40
521.69	35859.35
521.86	36348.52
522.03	35732.96
522.20	35917.86
522.38	36208.09
522.55	36428.10
522.72	36465.55
522.89	35997.44
523.07	36320.43
523.24	36336.82
523.41	36589.59
523.58	36657.47
523.75	36919.61
523.92	37163.03
524.10	37050.68
524.27	37134.94
524.44	36905.57
524.61	36935.99
524.78	36966.42
524.96	37448.57
525.13	36996.85
525.30	37710.71
525.47	37883.91
525.64	37979.87
525.81	36931.31
525.98	37329.20
526.16	37083.45
526.33	37251.97
526.50	37549.21
526.67	37254.31
526.84	37392.40
527.01	37172.39
527.18	37785.61
527.36	37680.28
527.53	38038.39
527.70	38082.86
527.87	38272.44
528.04	38384.79
528.21	38340.32
528.38	38508.83
528.55	38574.37
528.72	38089.88
528.89	39019.07
529.07	38579.05
529.24	38440.96
529.41	38932.47
529.58	38731.18
529.75	38560.33
529.92	39030.77
530.09	39276.53
530.26	38866.94
530.43	38934.81
530.60	38719.48
530.77	38878.64
530.94	39328.02
531.11	39232.06
531.28	39473.13
531.46	39321.00
531.63	39606.55
531.80	39627.61
531.97	39192.27
532.14	39400.58
532.31	39035.45
532.48	39229.72
532.65	39475.48
532.82	39470.79
532.99	39538.67
533.16	39566.76
533.33	39613.57
533.50	39906.13
533.67	39920.18
533.84	39276.53
534.01	39859.32
534.18	40144.87
534.35	40416.37
534.52	40219.77
534.69	40100.40
534.86	40175.30
535.03	40191.68
535.20	40182.32
535.37	40524.04
535.54	40612.98
535.71	40699.58
535.88	40507.65
536.05	40187.00
536.22	40596.59
536.38	40968.74
536.55	40746.39
536.72	40891.50
536.89	40737.02
537.06	40631.70
537.23	40708.94
537.40	40463.18
537.57	40760.43
537.74	40821.28
537.91	41141.94
538.08	41347.90
538.25	40711.28
538.42	41148.96
538.59	41691.96
538.75	41345.56
538.92	41371.31
539.09	41123.21
539.26	41556.21
539.43	41333.86
539.60	41364.29
539.77	41139.60
539.94	41567.91
540.11	40870.43
540.28	41280.03
540.44	41333.86
540.61	41432.16
540.78	41165.34
540.95	41205.13
541.12	41708.35
541.29	41783.24
541.46	41940.06
541.62	41570.25
541.79	42326.25
541.96	41668.56
542.13	41724.73
542.30	42103.90
542.47	42010.28
542.63	41916.65
542.80	42092.19
542.97	42251.35
543.14	42436.25
543.31	42569.66
543.48	42213.90
543.64	43276.51
543.81	42691.37
543.98	42564.98
544.15	42630.52
544.32	42986.28
544.48	43309.27
544.65	43271.82
544.82	43129.05
544.99	42480.72
545.16	42768.61
545.32	42763.93
545.49	43430.98
545.66	43117.35
545.83	42782.65
546.00	43126.71
546.16	43281.19
546.33	42876.27
546.50	42721.80
546.67	43147.78
546.83	42625.84
547.00	43330.34
547.17	42857.55
547.34	43075.22
547.50	43470.77
547.67	43250.76
547.84	43690.78
548.00	43709.50
548.17	43496.52
548.34	43349.06
548.51	43899.09
548.67	44079.31
548.84	43798.44
549.01	43674.40
549.18	43791.42
549.34	43922.49
549.51	43992.71
549.68	44158.89
549.84	44535.71
550.01	43969.30
550.18	43452.05
550.34	43803.13
550.51	44142.50
550.68	44023.14
550.84	43388.85
551.01	44079.31
551.18	44254.85
551.34	44067.61
551.51	44634.02
551.68	44292.30
551.84	44121.44
552.01	43885.04
552.18	43842.92
552.34	43992.71
552.51	44257.19
552.68	44140.16
552.84	44446.77
553.01	44591.89
553.18	44692.53
553.34	44418.69
553.51	44449.11
553.67	44479.54
553.84	45036.59
554.01	44491.24
554.17	45055.31
554.34	44617.63
554.51	44575.50
554.67	45008.50
554.84	44957.01
555.00	44414.01
555.17	44989.78
555.33	44928.92
555.50	45235.53
555.67	44673.81
555.83	44835.30
556.00	45069.36
556.16	45141.91
556.33	44966.37
556.50	44849.35
556.66	45050.63
556.83	44804.88
556.99	45298.73
557.16	45331.50
557.32	45184.04
557.49	45029.57
557.65	44727.64
557.82	45261.28
557.98	44662.10
558.15	45181.70
558.32	45326.81
558.48	45078.72
558.65	45219.15
558.81	45310.43
558.98	45111.49
559.14	44882.11
559.31	44823.60
559.47	45647.47
559.64	45551.51
559.80	45567.89
559.97	45563.21
560.13	45443.84
560.30	45289.37
560.46	45801.94
560.63	45310.43
560.79	45862.80
560.96	45652.15
561.12	45624.06
561.29	45212.13
561.45	45315.11
561.61	45846.41
561.78	45598.32
561.94	45193.40
562.11	45401.71
562.27	45244.90
562.44	45717.68
562.60	45979.82
562.77	45944.72
562.93	45773.86
563.10	45909.61
563.26	45471.93
563.42	45610.02
563.59	45581.93
563.75	45918.97
563.92	45944.72
564.08	45745.77
564.24	46216.22
564.41	46045.36
564.57	45841.73
564.74	45916.63
564.90	46005.57
565.07	46148.34
565.23	45799.60
565.39	45741.09
565.56	45806.62
565.72	45897.91
565.88	45806.62
566.05	45860.46
566.21	45881.52
566.38	45815.99
566.54	45989.19
566.70	45787.90
566.87	46426.87
567.03	46344.95
567.19	45970.46
567.36	45883.86
567.52	46122.60
567.68	46033.66
567.85	45797.26
568.01	45766.84
568.17	45785.56
568.34	45928.33
568.50	45982.16
568.66	45975.14
568.83	45787.90
568.99	45949.40
569.15	45542.14
569.32	45652.15
569.48	45984.51
569.64	46377.72
569.81	45881.52
569.97	45839.39
570.13	46241.96
570.30	45940.04
570.46	45783.22
570.62	45581.93
570.78	45925.99
570.95	45944.72
571.11	46012.59
571.27	45918.97
571.43	46321.54
571.60	46096.85
571.76	46553.26
571.92	46312.18
572.09	45539.80
572.25	46333.24
572.41	46356.65
572.57	46241.96
572.74	47098.60
572.90	46237.28
573.06	46405.80
573.22	46248.99
573.38	45984.51
573.55	46230.26
573.71	46445.59
573.87	45670.87
574.03	46136.64
574.20	45986.85
574.36	45839.39
574.52	46314.52
574.68	46256.01
574.84	46321.54
575.01	46110.89
575.17	46148.34
575.33	45516.40
575.49	46045.36
575.65	46450.27
575.82	46293.46
575.98	46646.88
576.14	46340.27
576.30	46176.43
576.46	46351.97
576.62	46270.05
576.79	46433.89
576.95	45881.52
577.11	46232.60
577.27	46494.74
577.43	46155.36
577.59	46021.95
577.75	46174.09
577.92	45713.00
578.08	45682.58
578.24	45844.07
578.40	46110.89
578.56	46192.81
578.72	45933.01
578.88	46155.36
579.04	46363.67
579.21	46087.49
579.37	45944.72
579.53	46117.92
579.69	46330.90
579.85	46160.05
580.01	46593.04
580.17	46522.83
580.33	46487.72
580.49	46595.38
580.65	46373.03
580.82	46745.18
580.98	46536.87
581.14	46445.59
581.30	46494.74
581.46	46576.66
581.62	46518.15
581.78	46408.14
581.94	46576.66
582.10	46349.63
582.26	46571.98
582.42	46319.20
582.58	46351.97
582.74	46323.88
582.90	46216.22
583.06	46637.51
583.22	46227.92
583.38	46763.90
583.54	46452.61
583.70	46967.53
583.86	46218.56
584.02	46164.73
584.18	46356.65
584.34	46150.68
584.50	46431.55
584.66	45977.48
584.82	46373.03
584.98	46761.56
585.14	46616.45
585.30	46887.95
585.46	46513.47
585.62	46246.65
585.78	46256.01
585.94	45956.42
586.10	46206.86
586.26	46248.99
586.42	46595.38
586.58	46377.72
586.74	46192.81
586.90	46300.48
587.06	46288.77
587.22	46089.83
587.38	46581.34
587.54	46567.30
587.70	46749.86
587.86	46557.94
588.02	46459.63
588.18	46686.67
588.34	46302.82
588.49	46120.26
588.65	45560.87
588.81	45720.02
588.97	46330.90
589.13	45584.27
589.29	46424.53
589.45	46520.49
589.61	46178.77
589.77	46391.76
589.93	46239.62
