SpectraSuite Data File
++++++++++++++++++++++++++++++++++++
Date: Fri Oct 25 11:23:06 EDT 2013
User: price-jones
Dark Spectrum Present: No
Reference Spectrum Present: No
Number of Sampled Component Spectra: 1
Spectrometers: USB2+H05261
Integration Time (usec): 100000 (USB2+H05261)
Spectra Averaged: 1 (USB2+H05261)
Boxcar Smoothing: 0 (USB2+H05261)
Correct for Electrical Dark: No (USB2+H05261)
Strobe/Lamp Enabled: No (USB2+H05261)
Correct for Detector Non-linearity: No (USB2+H05261)
Correct for Stray Light: No (USB2+H05261)
Number of Pixels in Processed Spectrum: 2048
>>>>>Begin Processed Spectral Data<<<<<
365.73	220.01
365.92	220.01
366.12	220.01
366.32	147.45
366.52	147.45
366.72	81.92
366.91	70.22
367.11	91.28
367.31	107.66
367.51	91.28
367.70	145.11
367.90	142.77
368.10	110.01
368.30	81.92
368.49	140.43
368.69	166.18
368.89	135.75
369.09	98.30
369.28	65.54
369.48	58.51
369.68	187.24
369.87	210.65
370.07	203.63
370.27	243.42
370.47	330.02
370.66	596.84
370.86	575.77
371.06	704.50
371.25	713.86
371.45	648.33
371.65	744.29
371.84	622.58
372.04	631.94
372.24	695.14
372.44	751.31
372.63	786.42
372.83	814.51
373.03	765.36
373.22	767.70
373.42	772.38
373.62	746.63
373.81	791.10
374.01	851.96
374.21	868.34
374.40	866.00
374.60	779.40
374.79	763.01
374.99	835.57
375.19	844.93
375.38	849.61
375.58	821.53
375.78	868.34
375.97	767.70
376.17	896.43
376.37	882.38
376.56	866.00
376.76	854.30
376.95	884.72
377.15	842.59
377.35	905.79
377.54	863.66
377.74	929.19
377.93	943.24
378.13	945.58
378.33	917.49
378.52	884.72
378.72	835.57
378.91	924.51
379.11	858.98
379.31	1025.15
379.50	851.96
379.70	968.98
379.89	987.71
380.09	978.34
380.28	966.64
380.48	1083.67
380.68	978.34
380.87	936.21
381.07	947.92
381.26	978.34
381.46	1022.81
381.65	1062.60
381.85	1046.22
382.04	1095.37
382.24	1069.62
382.43	1064.94
382.63	1020.47
382.83	1116.44
383.02	1200.69
383.22	1109.41
383.41	1235.80
383.61	1186.65
383.80	1062.60
384.00	1224.10
384.19	1174.95
384.39	1088.35
384.58	1107.07
384.78	1137.50
384.97	1170.27
385.17	1137.50
385.36	1137.50
385.56	1181.97
385.75	1139.84
385.95	1203.04
386.14	1212.40
386.34	1252.19
386.53	1203.04
386.72	1193.67
386.92	1193.67
387.11	1277.93
387.31	1366.87
387.50	1203.04
387.70	1350.49
387.89	1263.89
388.09	1284.95
388.28	1256.87
388.48	1270.91
388.67	1327.08
388.86	1306.02
389.06	1284.95
389.25	1303.68
389.45	1338.79
389.64	1287.29
389.84	1427.73
390.03	1352.83
390.22	1430.07
390.42	1411.34
390.61	1336.45
390.81	1364.53
391.00	1355.17
391.19	1411.34
391.39	1409.00
391.58	1500.28
391.78	1369.21
391.97	1453.47
392.16	1488.58
392.36	1579.86
392.55	1514.33
392.75	1465.18
392.94	1647.74
393.13	1565.82
393.33	1540.07
393.52	1586.88
393.71	1607.95
393.91	1659.44
394.10	1575.18
394.29	1645.40
394.49	1678.16
394.68	1556.46
394.88	1549.43
395.07	1692.21
395.26	1652.42
395.46	1678.16
395.65	1706.25
395.84	1654.76
396.04	1743.70
396.23	1736.68
396.42	1685.19
396.62	1849.02
396.81	1778.81
397.00	1930.94
397.19	1755.40
397.39	1790.51
397.58	1886.47
397.77	1834.98
397.97	1809.23
398.16	1746.04
398.35	1849.02
398.55	1944.99
398.74	1914.56
398.93	1949.67
399.12	1905.20
399.32	1919.24
399.51	1987.11
399.70	1961.37
399.90	1961.37
400.09	1998.82
400.28	2078.40
400.47	2026.90
400.67	2071.37
400.86	2045.63
401.05	2026.90
401.24	2122.87
401.44	2148.61
401.63	2125.21
401.82	2113.50
402.01	2174.36
402.21	2143.93
402.40	2047.97
402.59	2260.96
402.78	2225.85
402.97	2267.98
403.17	2317.13
403.36	2228.19
403.55	2207.13
403.74	2289.04
403.93	2324.15
404.13	2361.60
404.32	2389.69
404.51	2263.30
404.70	2370.96
404.89	2380.32
405.09	2450.54
405.28	2504.37
405.47	2581.61
405.66	2616.72
405.85	2541.82
406.05	2532.46
406.24	2628.42
406.43	2628.42
406.62	2715.02
406.81	2700.98
407.00	2623.74
407.20	2569.91
407.39	2637.78
407.58	2715.02
407.77	2715.02
407.96	2733.75
408.15	2761.83
408.34	2818.00
408.54	2897.58
408.73	2768.85
408.92	2808.64
409.11	2958.44
409.30	2981.84
409.49	2878.86
409.68	2925.67
409.87	3082.49
410.07	3063.76
410.26	2974.82
410.45	3166.74
410.64	3096.53
410.83	2963.12
411.02	3201.85
411.21	3049.72
411.40	3211.22
411.59	3365.69
411.78	3229.94
411.98	3265.05
412.17	3337.60
412.36	3351.65
412.55	3330.58
412.74	3442.93
412.93	3468.67
413.12	3449.95
413.31	3667.62
413.50	3466.33
413.69	3435.91
413.88	3585.70
414.07	3634.85
414.26	3810.39
414.45	3754.22
414.64	3733.15
414.83	3808.05
415.02	3779.97
415.22	3836.14
415.41	3896.99
415.60	3927.42
415.79	3934.44
415.98	3962.53
416.17	3988.27
416.36	4109.98
416.55	3967.21
416.74	4105.30
416.93	4161.47
417.12	4191.90
417.31	4187.22
417.50	4114.66
417.69	4210.62
417.88	4212.96
418.07	4280.84
418.26	4372.12
418.45	4447.02
418.64	4479.79
418.83	4311.27
419.02	4337.01
419.21	4428.29
419.39	4461.06
419.58	4617.88
419.77	4411.91
419.96	4678.73
420.15	4571.07
420.34	4550.00
420.53	4554.68
420.72	4830.87
420.91	4718.52
421.10	4798.10
421.29	4809.80
421.48	4788.74
421.67	4805.12
421.86	4791.08
422.05	4896.40
422.24	4877.68
422.43	5011.09
422.61	4779.37
422.80	4968.96
422.99	4884.70
423.18	4971.30
423.37	4924.49
423.56	4936.19
423.75	4858.95
423.94	4786.40
424.13	4592.13
424.32	4774.69
424.50	5081.30
424.69	5207.69
424.88	5048.54
425.07	4929.17
425.26	5078.96
425.45	4868.31
425.64	4978.32
425.83	4975.98
426.01	5064.92
426.20	5132.79
426.39	5046.20
426.58	5060.24
426.77	5158.54
426.96	5214.71
427.15	5142.16
427.33	5221.74
427.52	5207.69
427.71	5210.03
427.90	5114.07
428.09	5305.99
428.28	5455.79
428.46	5427.70
428.65	5320.04
428.84	5671.12
429.03	5589.20
429.22	5444.09
429.40	5575.16
429.59	5490.90
429.78	5427.70
429.97	5352.81
430.16	5305.99
430.34	5561.11
430.53	5774.10
430.72	5694.52
430.91	5493.24
431.10	5769.42
431.28	5731.97
431.47	5806.87
431.66	5933.26
431.85	5858.36
432.03	5996.45
432.22	6150.93
432.41	6108.80
432.60	6066.67
432.79	5996.45
432.97	5891.13
433.16	6146.25
433.35	5968.37
433.54	6080.71
433.72	6155.61
433.91	6148.59
434.10	6216.46
434.28	6258.59
434.47	6347.53
434.66	6211.78
434.85	6331.15
435.03	6415.41
435.22	6244.55
435.41	6586.27
435.59	6392.00
435.78	6583.93
435.97	6553.50
436.16	6352.21
436.34	6719.68
436.53	6628.40
436.72	6703.29
436.90	6581.59
437.09	6609.67
437.28	6609.67
437.46	6726.70
437.65	6665.85
437.84	7131.61
438.02	6745.42
438.21	6649.46
438.40	6743.08
438.58	7021.61
438.77	7246.30
438.96	7068.42
439.14	7077.78
439.33	7424.18
439.52	7321.20
439.70	7211.19
439.89	7417.16
440.08	7459.29
440.26	7578.65
440.45	7393.75
440.63	7463.97
440.82	7651.21
441.01	7527.16
441.19	7911.01
441.38	7721.43
441.57	7784.62
441.75	7796.32
441.94	8102.93
442.12	8013.99
442.31	8156.77
442.50	8234.00
442.68	8116.98
442.87	8161.45
443.05	8093.57
443.24	8278.47
443.43	8318.26
443.61	8231.66
443.80	8383.80
443.98	8053.78
444.17	7932.08
444.35	8308.90
444.54	8390.82
444.73	8374.44
444.91	8411.89
445.10	8573.38
445.28	8458.70
445.47	8446.99
445.65	8320.60
445.84	8496.14
446.02	8568.70
446.21	8526.57
446.39	8486.78
446.58	8678.71
446.77	8585.08
446.95	8631.90
447.14	8652.96
447.32	8807.44
447.51	8552.32
447.69	8592.11
447.88	8566.36
448.06	8437.63
448.25	8760.63
448.43	8711.47
448.62	8491.46
448.80	8580.40
448.99	8856.59
449.17	8784.03
449.36	8746.58
449.54	9027.45
449.73	8933.82
449.91	9144.47
450.10	9032.13
450.28	9181.92
450.46	9102.34
450.65	9069.58
450.83	9170.22
451.02	8990.00
451.20	9235.75
451.39	9177.24
451.57	9125.75
451.76	8968.93
451.94	9270.86
452.13	9430.02
452.31	9348.10
452.49	9315.33
452.68	9390.23
452.86	9439.38
453.05	9500.23
453.23	9685.14
453.42	9542.36
453.60	9301.29
453.78	9605.56
453.97	9687.48
454.15	9661.73
454.34	9378.53
454.52	9736.63
454.70	9764.72
454.89	9919.19
455.07	9802.16
455.26	9891.10
455.44	10235.16
455.62	9973.02
455.81	9949.62
455.99	10153.24
456.17	9944.94
456.36	9968.34
456.54	10139.20
456.73	10298.36
456.91	10396.66
457.09	10450.49
457.28	10665.82
457.46	10375.59
457.64	10574.54
457.83	10574.54
458.01	10616.67
458.19	10656.46
458.38	10614.33
458.56	10726.68
458.74	10750.08
458.93	10869.45
459.11	10883.49
459.29	10906.90
459.48	11044.99
459.66	10839.02
459.84	11133.93
460.03	11255.64
460.21	11222.87
460.39	10927.96
460.57	11021.58
460.76	11211.17
460.94	11054.35
461.12	11487.35
461.31	11288.40
461.49	11365.64
461.67	11138.61
461.85	11456.92
462.04	11482.67
462.22	11644.17
462.40	11571.61
462.59	11698.00
462.77	11548.20
462.95	11751.83
463.13	11789.28
463.32	11819.71
463.50	11726.08
463.68	11564.59
463.86	12074.82
464.05	11864.18
464.23	11819.71
464.41	12037.38
464.59	11829.07
464.78	12133.34
464.96	12182.49
465.14	11974.18
465.32	12102.91
465.50	12320.58
465.69	12322.92
465.87	12196.53
466.05	12346.33
466.23	12409.52
466.41	12484.42
466.60	12629.53
466.78	12362.71
466.96	12187.17
467.14	12411.86
467.32	12444.63
467.51	12643.57
467.69	12432.93
467.87	12430.59
468.05	12685.70
468.23	12645.91
468.41	12725.49
468.60	12830.82
468.78	12582.72
468.96	12573.36
469.14	12837.84
469.32	13212.32
469.50	12634.21
469.69	13067.21
469.87	13284.88
470.05	12985.29
470.23	13329.35
470.41	13308.29
470.59	13530.64
470.77	13497.87
470.95	13439.36
471.14	13785.76
471.32	13282.54
471.50	13837.25
471.68	13741.29
471.86	13947.25
472.04	13680.43
472.22	14340.46
472.40	13806.82
472.58	13935.55
472.77	14167.26
472.95	14427.06
473.13	14827.29
473.31	14335.78
473.49	14281.95
473.67	14338.12
473.85	14508.98
474.03	14895.17
474.21	14724.31
474.39	14939.64
474.57	14878.79
474.75	14902.19
474.93	15201.78
475.12	15054.33
475.30	15154.97
475.48	15166.67
475.66	15293.06
475.84	15424.13
476.02	15487.32
476.20	15735.42
476.38	16086.50
476.56	16187.14
476.74	16163.74
476.92	15967.13
477.10	16102.89
477.28	16163.74
477.46	16540.57
477.64	16528.86
477.82	16975.91
478.00	17188.89
478.18	16957.18
478.36	17287.20
478.54	16994.63
478.72	17502.53
478.90	17715.51
479.08	17724.88
479.26	18031.49
479.44	17790.41
479.62	17907.44
479.80	18267.88
479.98	18410.65
480.16	18740.67
480.34	18473.85
480.52	18633.00
480.70	18745.35
480.88	18490.23
481.06	18864.72
481.24	19054.30
481.41	19194.73
481.59	19562.20
481.77	19569.22
481.95	19784.55
482.13	20098.18
482.31	19899.23
482.49	20538.20
482.67	20283.08
482.85	20470.33
483.03	20624.80
483.21	20833.11
483.39	21146.74
483.57	21195.89
483.74	21397.18
483.92	21350.37
484.10	21659.32
484.28	21855.92
484.46	22118.06
484.64	22263.18
484.82	21757.62
485.00	22314.67
485.18	22537.02
485.35	23192.37
485.53	23403.02
485.71	23482.59
485.89	23543.45
486.07	23723.67
486.25	23676.86
486.43	24070.07
486.61	24020.92
486.78	24339.23
486.96	24526.47
487.14	24875.21
487.32	24805.00
487.50	25191.19
487.68	25181.82
487.85	25525.88
488.03	25846.54
488.21	25956.54
488.39	26321.66
488.57	26434.01
488.75	26539.33
488.92	26431.67
489.10	27061.27
489.28	27061.27
489.46	27505.98
489.64	27608.96
489.81	27395.97
489.99	27875.78
490.17	28048.98
490.35	28414.10
490.53	28694.97
490.70	28816.68
490.88	28402.40
491.06	28830.72
491.24	29261.38
491.41	29256.70
491.59	29467.34
491.77	29682.67
491.95	29717.78
492.13	30096.95
492.30	30501.86
492.48	30527.61
492.66	30590.80
492.84	30625.91
493.01	30848.26
493.19	31068.27
493.37	31192.32
493.54	31552.76
493.72	32243.22
493.90	31920.23
494.08	31824.26
494.25	32381.31
494.43	32463.23
494.61	32793.25
494.79	32556.85
494.96	32591.96
495.14	33226.24
495.32	33394.76
495.49	33888.62
495.67	33589.03
495.85	33991.60
496.02	34075.86
496.20	34438.64
496.38	33820.74
496.55	34672.70
496.73	35318.68
496.91	35028.46
497.09	35037.82
497.26	35246.13
497.44	35328.05
497.62	35555.08
497.79	36088.72
497.97	35503.59
498.14	36224.47
498.32	36467.89
498.50	36514.70
498.67	36697.26
498.85	36912.59
499.03	37291.76
499.20	36945.36
499.38	37282.39
499.56	37734.12
499.73	37345.59
499.91	37736.46
500.08	37937.74
500.26	37509.43
500.44	37830.08
500.61	38096.90
500.79	37900.29
500.97	38649.27
501.14	38962.90
501.32	38920.77
501.49	38492.45
501.67	39498.88
501.84	39182.91
502.02	39243.76
502.20	39505.90
502.37	39840.60
502.55	39641.65
502.72	39541.01
502.90	40233.81
503.07	40119.12
503.25	40158.91
503.43	40287.64
503.60	40369.56
503.78	40950.01
503.95	40645.74
504.13	40353.18
504.30	40957.03
504.48	41055.34
504.65	41392.37
504.83	41516.42
505.01	41600.68
505.18	41567.91
505.36	41820.69
505.53	42101.56
505.71	41794.95
505.88	42497.11
506.06	41944.74
506.23	42197.52
506.41	42169.43
506.58	42359.02
506.76	42649.24
506.93	43168.84
507.11	42698.39
507.28	43154.80
507.46	42958.19
507.63	43325.66
507.81	43590.14
507.98	43119.69
508.16	43643.97
508.33	44004.41
508.50	43849.94
508.68	44289.96
508.85	43892.07
509.03	43962.28
509.20	44095.69
509.38	44643.38
509.55	44650.40
509.73	44753.38
509.90	45151.27
510.08	44582.52
510.25	45024.89
510.42	45155.96
510.60	45418.10
510.77	45830.03
510.95	45771.52
511.12	45366.60
511.30	45364.26
511.47	45808.96
511.64	46085.15
511.82	46185.79
511.99	46211.54
512.17	45902.59
512.34	46012.59
512.51	46887.95
512.69	46691.35
512.86	46426.87
513.04	47096.26
513.21	47065.83
513.38	46909.02
513.56	47180.52
513.73	47269.46
513.90	47501.17
514.08	47379.46
514.25	47805.44
514.43	47742.25
514.60	47887.36
514.77	47571.39
514.95	47990.34
515.12	47906.08
515.29	47908.43
515.47	48133.12
515.64	48306.32
515.81	48236.10
515.99	48744.00
516.16	48645.69
516.33	48856.34
516.51	49127.84
516.68	48896.13
516.85	49139.55
517.03	49357.22
517.20	49158.27
517.37	49191.04
517.54	49207.42
517.72	49184.02
517.89	49132.53
518.06	49446.16
518.24	49649.78
518.41	49904.90
518.58	49507.01
518.75	49649.78
518.93	49865.11
519.10	49614.68
519.27	50057.04
519.45	50281.73
519.62	50232.58
519.79	50349.60
519.96	50234.92
520.14	50457.27
520.31	50169.38
520.48	50731.11
520.65	50422.16
520.83	50707.71
521.00	51049.42
521.17	50969.85
521.34	51133.68
521.52	51283.48
521.69	50937.08
521.86	51487.10
522.03	51463.70
522.20	51681.37
522.38	51613.49
522.55	51896.70
522.72	51718.82
522.89	51330.29
523.07	51943.51
523.24	51966.91
523.41	51793.71
523.58	51798.40
523.75	52198.63
523.92	52238.42
524.10	52481.83
524.27	52231.40
524.44	52449.06
524.61	52257.14
524.78	52456.09
524.96	52570.77
525.13	52512.26
525.30	52821.21
525.47	53006.11
525.64	52610.56
525.81	52842.27
525.98	52818.87
526.16	52893.77
526.33	52821.21
526.50	53183.99
526.67	53127.82
526.84	53277.61
527.01	53088.03
527.18	53289.32
527.36	53265.91
527.53	53404.00
527.70	53598.27
527.87	53432.09
528.04	53464.86
528.21	53691.89
528.38	53605.29
528.55	53914.24
528.72	53642.74
528.89	53673.16
529.07	53755.08
529.24	53888.49
529.41	53792.53
529.58	53785.51
529.75	53947.01
529.92	54096.80
530.09	53797.21
530.26	54202.13
530.43	54136.59
530.60	54277.02
530.77	54461.93
530.94	54492.35
531.11	54443.20
531.28	54223.19
531.46	54597.68
531.63	54653.85
531.80	54461.93
531.97	54775.56
532.14	54726.41
532.31	54944.08
532.48	54667.89
532.65	55037.70
532.82	54808.32
532.99	55304.52
533.16	55063.44
533.33	55222.60
533.50	55140.68
533.67	55206.22
533.84	54981.52
534.01	55285.79
534.18	55423.89
534.35	55597.09
534.52	55290.48
534.69	55229.62
534.86	55636.87
535.03	55416.86
535.20	55398.14
535.37	55522.19
535.54	55480.06
535.71	55529.21
535.88	55559.64
536.05	55873.27
536.22	56065.19
536.38	55634.53
536.55	55969.23
536.72	55896.67
536.89	55859.23
537.06	55845.18
537.23	56261.80
537.40	56002.00
537.57	56055.83
537.74	55936.46
537.91	56222.01
538.08	55938.80
538.25	56116.68
538.42	56112.00
538.59	56481.81
538.75	56289.88
538.92	56090.94
539.09	56809.48
539.26	56413.93
539.43	56367.12
539.60	56575.43
539.77	56451.38
539.94	56633.94
540.11	56605.86
540.28	56533.30
540.44	56893.74
540.61	56718.20
540.78	56949.92
540.95	56837.57
541.12	56779.06
541.29	56587.13
541.46	56818.84
541.62	56561.39
541.79	56839.91
541.96	56853.95
542.13	56788.42
542.30	56774.37
542.47	57116.09
542.63	57209.71
542.80	57200.35
542.97	57279.93
543.14	57464.83
543.31	57411.00
543.48	57195.67
543.64	57516.32
543.81	57563.14
543.98	57481.22
544.15	57556.11
544.32	57661.44
544.48	57748.04
544.65	57572.50
544.82	57616.97
544.99	57464.83
545.16	57832.30
545.32	57860.38
545.49	57827.62
545.66	57975.07
545.83	57911.88
546.00	57848.68
546.16	57951.66
546.33	57687.18
546.50	57792.51
546.67	58108.48
546.83	57956.35
547.00	58028.90
547.17	58061.67
547.34	58120.18
547.50	58113.16
547.67	58391.68
547.84	58319.13
548.00	58403.39
548.17	58630.42
548.34	58485.31
548.51	58387.00
548.67	58415.09
548.84	58370.62
549.01	58298.06
549.18	58408.07
549.34	58269.98
549.51	58506.37
549.68	58621.06
549.84	58628.08
550.01	58623.40
550.18	58391.68
550.34	58649.14
550.51	58632.76
550.68	58702.98
550.84	58457.22
551.01	59032.99
551.18	58876.18
551.34	58754.47
551.51	58841.07
551.68	58712.34
551.84	58885.54
552.01	58939.37
552.18	58962.78
552.34	58777.87
552.51	58969.80
552.68	58852.77
552.84	58719.36
553.01	59025.97
553.18	58986.18
553.34	59018.95
553.51	58857.45
553.67	59229.60
553.84	59461.31
554.01	59138.32
554.17	59105.55
554.34	59262.36
554.51	59086.82
554.67	59477.69
554.84	59238.96
555.00	59274.07
555.17	59269.39
555.33	59234.28
555.50	59238.96
555.67	59428.54
555.83	59355.99
556.00	59313.86
556.16	59587.70
556.33	59585.36
556.50	59564.29
556.66	59611.10
556.83	59213.21
556.99	59449.61
557.16	59760.90
557.32	59693.02
557.49	59898.99
557.65	59489.40
557.82	59498.76
557.98	59615.79
558.15	59688.34
558.32	59814.73
558.48	59503.44
558.65	59660.26
558.81	59683.66
558.98	59758.56
559.14	59952.82
559.31	59870.90
559.47	59906.01
559.64	59990.27
559.80	59845.16
559.97	60041.76
560.13	59945.80
560.30	59936.44
560.46	59994.95
560.63	60081.55
560.79	60107.30
560.96	60088.57
561.12	60126.02
561.29	59943.46
561.45	60203.26
561.61	59943.46
561.78	60142.41
561.94	60090.91
562.11	60048.78
562.27	60083.89
562.44	60257.09
562.60	60404.55
562.77	60306.24
562.93	60065.17
563.10	60404.55
563.26	60126.02
563.42	60416.25
563.59	60334.33
563.75	60282.84
563.92	60287.52
564.08	60081.55
564.24	60430.29
564.41	60207.94
564.57	60252.41
564.74	60303.90
564.90	60495.83
565.07	60322.63
565.23	60432.63
565.39	60353.05
565.56	60355.39
565.72	60369.44
565.88	60364.76
566.05	60392.84
566.21	60622.22
566.38	60507.53
566.54	60395.18
566.70	60460.72
566.87	60381.14
567.03	60463.06
567.19	60652.64
567.36	60722.86
567.52	60456.04
567.68	60790.73
567.85	60715.84
568.01	60502.85
568.17	60580.09
568.34	60650.30
568.50	60498.17
568.66	60608.17
568.83	60472.42
568.99	60507.53
569.15	60360.08
569.32	60514.55
569.48	60673.71
569.64	60762.65
569.81	60722.86
569.97	60477.10
570.13	60566.04
570.30	60507.53
570.46	60692.43
570.62	60800.10
570.78	60673.71
570.95	60783.71
571.11	60786.05
571.27	60603.49
571.43	60699.45
571.60	61048.19
571.76	60912.44
571.92	60739.24
572.09	60750.94
572.25	60933.51
572.41	60757.97
572.57	60516.89
572.74	60959.25
572.90	60917.12
573.06	60795.42
573.22	60739.24
573.38	60877.33
573.55	60762.65
573.71	60999.04
573.87	60942.87
574.03	60767.33
574.20	60816.48
574.36	60921.80
574.52	60795.42
574.68	60664.35
574.84	61083.30
575.01	60926.49
575.17	60774.35
575.33	61118.41
575.49	60844.57
575.65	60963.93
575.82	60970.96
575.98	61036.49
576.14	61223.73
576.30	61062.24
576.46	60940.53
576.62	60832.86
576.79	60924.14
576.95	60725.20
577.11	61087.98
577.27	61073.94
577.43	61160.54
577.59	60999.04
577.75	61024.79
577.92	60750.94
578.08	61085.64
578.24	61127.77
578.40	61130.11
578.56	61183.94
578.72	60999.04
578.88	61151.18
579.04	61148.84
579.21	61282.25
579.37	61275.22
579.53	61315.01
579.69	60921.80
579.85	61162.88
580.01	61172.24
580.17	61050.53
580.33	61181.60
580.49	61104.37
580.65	61076.28
580.82	61078.62
580.98	61055.21
581.14	61118.41
581.30	61226.07
581.46	61078.62
581.62	61162.88
581.78	61148.84
581.94	61226.07
582.10	61045.85
582.26	61151.18
582.42	61193.31
582.58	61333.74
582.74	61132.45
582.90	61193.31
583.06	61106.71
583.22	60992.02
583.38	61113.73
583.54	61319.70
583.70	61197.99
583.86	61298.63
584.02	61132.45
584.18	61389.91
584.34	61251.82
584.50	61155.86
584.66	61003.72
584.82	60898.40
584.98	61338.42
585.14	61319.70
585.30	61057.56
585.46	61216.71
585.62	61214.37
585.78	61490.55
585.94	61050.53
586.10	61209.69
586.26	61286.93
586.42	61460.13
586.58	61361.82
586.74	61226.07
586.90	61326.72
587.06	61268.20
587.22	61457.79
587.38	61371.19
587.54	61523.32
587.70	61315.01
587.86	61174.58
588.02	61319.70
588.18	61249.48
588.34	61312.67
588.49	61385.23
