SpectraSuite Data File
++++++++++++++++++++++++++++++++++++
Date: Fri Oct 25 10:47:14 EDT 2013
User: price-jones
Dark Spectrum Present: No
Reference Spectrum Present: No
Number of Sampled Component Spectra: 1
Spectrometers: USB2+H05261
Integration Time (usec): 100000 (USB2+H05261)
Spectra Averaged: 1 (USB2+H05261)
Boxcar Smoothing: 0 (USB2+H05261)
Correct for Electrical Dark: No (USB2+H05261)
Strobe/Lamp Enabled: No (USB2+H05261)
Correct for Detector Non-linearity: No (USB2+H05261)
Correct for Stray Light: No (USB2+H05261)
Number of Pixels in Processed Spectrum: 2048
>>>>>Begin Processed Spectral Data<<<<<
365.73	159.16
365.92	159.16
366.12	159.16
366.32	21.06
366.52	56.17
366.72	131.07
366.91	9.36
367.11	0.00
367.31	112.35
367.51	88.94
367.70	16.38
367.90	0.00
368.10	53.83
368.30	72.56
368.49	35.11
368.69	25.75
368.89	58.51
369.09	46.81
369.28	53.83
369.48	70.22
369.68	70.22
369.87	105.32
370.07	84.26
370.27	112.35
370.47	208.31
370.66	311.29
370.86	386.19
371.06	463.43
371.25	393.21
371.45	418.96
371.65	454.06
371.84	397.89
372.04	456.40
372.24	465.77
372.44	440.02
372.63	461.09
372.83	514.92
373.03	472.79
373.22	589.82
373.42	519.60
373.62	489.17
373.81	524.28
374.01	575.77
374.21	580.45
374.40	552.37
374.60	521.94
374.79	554.71
374.99	545.34
375.19	538.32
375.38	587.47
375.58	568.75
375.78	657.69
375.97	606.20
376.17	631.94
376.37	510.24
376.56	571.09
376.76	557.05
376.95	524.28
377.15	596.84
377.35	512.58
377.54	603.86
377.74	587.47
377.93	554.71
378.13	720.88
378.33	622.58
378.52	599.18
378.72	622.58
378.91	678.76
379.11	552.37
379.31	648.33
379.50	554.71
379.70	615.56
379.89	650.67
380.09	655.35
380.28	676.41
380.48	573.43
380.68	575.77
380.87	596.84
381.07	594.50
381.26	608.54
381.46	596.84
381.65	711.52
381.85	650.67
382.04	727.91
382.24	706.84
382.43	643.65
382.63	674.07
382.83	657.69
383.02	681.10
383.22	702.16
383.41	650.67
383.61	697.48
383.80	716.20
384.00	760.67
384.19	711.52
384.39	781.74
384.58	667.05
384.78	725.57
384.97	746.63
385.17	849.61
385.36	730.25
385.56	730.25
385.75	711.52
385.95	835.57
386.14	858.98
386.34	774.72
386.53	770.04
386.72	741.95
386.92	746.63
387.11	760.67
387.31	751.31
387.50	812.17
387.70	800.46
387.89	755.99
388.09	723.23
388.28	847.27
388.48	856.64
388.67	851.96
388.86	887.06
389.06	849.61
389.25	830.89
389.45	861.32
389.64	863.66
389.84	919.83
390.03	891.74
390.22	931.53
390.42	905.79
390.61	844.93
390.81	905.79
391.00	826.21
391.19	917.49
391.39	875.36
391.58	957.28
391.78	882.38
391.97	980.68
392.16	821.53
392.36	966.64
392.55	940.90
392.75	1039.20
392.94	866.00
393.13	1029.84
393.33	1025.15
393.52	990.05
393.71	1074.31
393.91	1043.88
394.10	961.96
394.29	1083.67
394.49	1001.75
394.68	1093.03
394.88	1018.13
395.07	1041.54
395.26	1043.88
395.46	1121.12
395.65	1153.88
395.84	1060.26
396.04	1151.54
396.23	1032.18
396.42	1135.16
396.62	1142.18
396.81	1158.57
397.00	1078.99
397.19	1146.86
397.39	1170.27
397.58	1181.97
397.77	1224.10
397.97	1221.76
398.16	1266.23
398.35	1221.76
398.55	1282.61
398.74	1261.55
398.93	1315.38
399.12	1317.72
399.32	1254.53
399.51	1322.40
399.70	1338.79
399.90	1427.73
400.09	1380.92
400.28	1437.09
400.47	1378.58
400.67	1334.11
400.86	1409.00
401.05	1399.64
401.24	1350.49
401.44	1416.02
401.63	1444.11
401.82	1432.41
402.01	1392.62
402.21	1455.81
402.40	1366.87
402.59	1469.86
402.78	1537.73
402.97	1479.22
403.17	1467.52
403.36	1568.16
403.55	1509.65
403.74	1544.75
403.93	1610.29
404.13	1603.27
404.32	1551.78
404.51	1682.85
404.70	1666.46
404.89	1521.35
405.09	1715.61
405.28	1727.32
405.47	1640.72
405.66	1685.19
405.85	1638.38
406.05	1645.40
406.24	1764.76
406.43	1638.38
406.62	1827.96
406.81	1839.66
407.00	1827.96
407.20	1757.74
407.39	1863.07
407.58	1870.09
407.77	1776.47
407.96	1853.70
408.15	1858.39
408.34	1806.89
408.54	1944.99
408.73	1921.58
408.92	1851.36
409.11	1959.03
409.30	1881.79
409.49	2015.20
409.68	1952.01
409.87	2043.29
410.07	1977.75
410.26	1966.05
410.45	2073.71
410.64	2146.27
410.83	2076.06
411.02	2176.70
411.21	2179.04
411.40	2150.95
411.59	2132.23
411.78	2127.55
411.98	2193.08
412.17	2324.15
412.36	2331.17
412.55	2289.04
412.74	2427.14
412.93	2445.86
413.12	2321.81
413.31	2389.69
413.50	2375.64
413.69	2469.27
413.88	2555.86
414.07	2462.24
414.26	2480.97
414.45	2511.39
414.64	2466.92
414.83	2700.98
415.02	2654.17
415.22	2642.46
415.41	2764.17
415.60	2656.51
415.79	2590.97
415.98	2787.58
416.17	2808.64
416.36	2775.88
416.55	2778.22
416.74	2935.03
416.93	2747.79
417.12	2843.75
417.31	2850.77
417.50	2736.09
417.69	2967.80
417.88	2963.12
418.07	2913.97
418.26	2984.18
418.45	2993.55
418.64	2986.52
418.83	3133.98
419.02	2991.20
419.21	3145.68
419.39	3073.12
419.58	3045.04
419.77	3098.87
419.96	3063.76
420.15	3187.81
420.34	3232.28
420.53	3241.64
420.72	3234.62
420.91	3330.58
421.10	3272.07
421.29	3349.31
421.48	3243.98
421.67	3328.24
421.86	3435.91
422.05	3274.41
422.24	3323.56
422.43	3447.61
422.61	3262.71
422.80	3391.44
422.99	3309.52
423.18	3445.27
423.37	3370.37
423.56	3431.23
423.75	3365.69
423.94	3323.56
424.13	3070.78
424.32	3239.30
424.50	3492.08
424.69	3389.10
424.88	3466.33
425.07	3307.18
425.26	3384.41
425.45	3346.97
425.64	3361.01
425.83	3482.72
426.01	3515.48
426.20	3480.38
426.39	3424.20
426.58	3433.57
426.77	3438.25
426.96	3435.91
427.15	3520.17
427.33	3595.06
427.52	3571.66
427.71	3583.36
427.90	3538.89
428.09	3665.28
428.28	3648.90
428.46	3712.09
428.65	3637.19
428.84	3761.24
429.03	3719.11
429.22	3597.40
429.40	3644.21
429.59	3716.77
429.78	3574.00
429.97	3545.91
430.16	3620.81
430.34	3660.60
430.53	3815.07
430.72	3810.39
430.91	3625.49
431.10	3763.58
431.28	4051.47
431.47	4051.47
431.66	4011.68
431.85	3885.29
432.03	4091.26
432.22	3950.82
432.41	4112.32
432.60	4182.54
432.79	4007.00
432.97	4091.26
433.16	4138.07
433.35	4051.47
433.54	3960.19
433.72	4119.34
433.91	4102.96
434.10	4252.75
434.28	4063.17
434.47	3946.14
434.66	4311.27
434.85	4376.80
435.03	4243.39
435.22	4287.86
435.41	4400.21
435.59	4372.12
435.78	4393.19
435.97	4454.04
436.16	4346.37
436.34	4255.09
436.53	4365.10
436.72	4449.36
436.90	4552.34
437.09	4411.91
437.28	4561.70
437.46	4444.68
437.65	4435.32
437.84	4606.17
438.02	4575.75
438.21	4620.22
438.40	4531.28
438.58	4568.73
438.77	4671.71
438.96	4805.12
439.14	4765.33
439.33	4891.72
439.52	4959.60
439.70	4917.47
439.89	5121.09
440.08	4992.36
440.26	5123.43
440.45	5039.17
440.63	5104.71
440.82	5149.18
441.01	5266.21
441.19	5186.63
441.38	5174.92
441.57	5289.61
441.75	5310.68
441.94	5493.24
442.12	5364.51
442.31	5514.30
442.50	5647.71
442.68	5460.47
442.87	5692.18
443.05	5643.03
443.24	5593.88
443.43	5549.41
443.61	5537.71
443.80	5846.66
443.98	5390.25
444.17	5462.81
444.35	5610.26
444.54	5722.61
444.73	5680.48
444.91	5619.63
445.10	5610.26
445.28	5572.82
445.47	5619.63
445.65	5743.67
445.84	5647.71
446.02	5743.67
446.21	5720.27
446.39	5572.82
446.58	5783.46
446.77	5645.37
446.95	5650.05
447.14	5783.46
447.32	5746.02
447.51	5790.49
447.69	5727.29
447.88	5687.50
448.06	5734.31
448.25	5853.68
448.43	5870.06
448.62	5781.12
448.80	5666.44
448.99	5809.21
449.17	5921.56
449.36	5980.07
449.54	5916.87
449.73	6001.13
449.91	6167.31
450.10	6069.01
450.28	6303.06
450.46	6090.07
450.65	6155.61
450.83	6176.67
451.02	6174.33
451.20	6207.10
451.39	6209.44
451.57	6244.55
451.76	6338.17
451.94	6312.42
452.13	6359.24
452.31	6087.73
452.49	6176.67
452.68	6153.27
452.86	6347.53
453.05	6347.53
453.23	6399.02
453.42	6370.94
453.60	6368.60
453.78	6640.10
453.97	6352.21
454.15	6356.90
454.34	6525.41
454.52	6558.18
454.70	6609.67
454.89	6619.04
455.07	6579.25
455.26	6572.22
455.44	6745.42
455.62	6881.18
455.81	6581.59
455.99	6806.28
456.17	6740.74
456.36	6661.16
456.54	6822.66
456.73	6946.71
456.91	7049.69
457.09	7007.56
457.28	7063.74
457.46	6848.41
457.64	7178.42
457.83	7028.63
458.01	7073.10
458.19	7311.83
458.38	7229.91
458.56	7382.05
458.74	7346.94
458.93	7183.10
459.11	7138.63
459.29	7311.83
459.48	7262.68
459.66	7253.32
459.84	7145.66
460.03	7485.03
460.21	7478.01
460.39	7428.86
460.57	7332.90
460.76	7391.41
460.94	7353.96
461.12	7478.01
461.31	7641.85
461.49	7459.29
461.67	7382.05
461.85	7576.31
462.04	7520.14
462.22	8283.16
462.40	7875.90
462.59	7775.26
462.77	7737.81
462.95	7740.15
463.13	7595.04
463.32	7894.63
463.50	7990.59
463.68	8032.72
463.86	7730.79
464.05	7749.51
464.23	7705.04
464.41	7887.61
464.59	7950.80
464.78	7999.95
464.96	7857.18
465.14	7801.01
465.32	8065.49
465.50	7995.27
465.69	8086.55
465.87	7880.58
466.05	8035.06
466.23	8079.53
466.41	8154.43
466.60	8224.64
466.78	7880.58
466.96	7922.71
467.14	8032.72
467.32	8383.80
467.51	8381.46
467.69	7955.48
467.87	8280.82
468.05	8273.79
468.23	8306.56
468.41	8283.16
468.60	8306.56
468.78	8463.38
468.96	8339.33
469.14	8498.49
469.32	8472.74
469.50	8290.18
469.69	8407.20
469.87	8748.92
470.05	8875.31
470.23	8624.87
470.41	8554.66
470.59	8645.94
470.77	8709.13
470.95	8954.89
471.14	8833.18
471.32	8805.10
471.50	8994.68
471.68	8966.59
471.86	8959.57
472.04	9268.52
472.22	9198.31
472.40	8954.89
472.58	9043.83
472.77	9128.09
472.95	9654.71
473.13	9596.20
473.31	9245.12
473.49	9308.31
473.67	9247.46
473.85	9586.83
474.03	9614.92
474.21	9551.73
474.39	9624.28
474.57	9544.70
474.75	9830.25
474.93	9748.33
475.12	9809.19
475.30	9970.68
475.48	10003.45
475.66	9839.61
475.84	10010.47
476.02	10101.75
476.20	10068.98
476.38	10312.40
476.56	10281.97
476.74	10244.52
476.92	10317.08
477.10	10377.94
477.28	10836.68
477.46	10513.69
477.64	10869.45
477.82	10953.71
478.00	11136.27
478.18	10960.73
478.36	11143.29
478.54	11377.34
478.72	11272.02
478.90	11173.72
479.08	11459.26
479.26	11587.99
479.44	11674.59
479.62	11831.41
479.80	11648.85
479.98	11770.55
480.16	11894.60
480.34	11840.77
480.52	12257.39
480.70	12114.61
480.88	12114.61
481.06	12315.90
481.24	12304.20
481.41	12402.50
481.59	12510.16
481.77	12851.88
481.95	12765.28
482.13	12697.41
482.31	12755.92
482.49	13083.59
482.67	13011.04
482.85	13341.05
483.03	13240.41
483.21	13530.64
483.39	13694.47
483.57	13544.68
483.74	13558.72
483.92	14010.45
484.10	13905.12
484.28	14061.94
484.46	14132.15
484.64	14665.80
484.82	14068.96
485.00	14195.35
485.18	14616.65
485.35	14766.44
485.53	14726.65
485.71	14696.22
485.89	15110.50
486.07	14834.32
486.25	14853.04
486.43	15264.97
486.61	15321.15
486.78	15316.47
486.96	15552.86
487.14	15791.59
487.32	16002.24
487.50	16266.72
487.68	16112.25
487.85	16432.90
488.03	16760.58
488.21	16821.43
488.39	16585.04
488.57	16788.66
488.75	16816.75
488.92	17095.27
489.10	17376.14
489.28	16973.56
489.46	17289.54
489.64	17420.61
489.81	17879.35
489.99	17678.07
490.17	18047.87
490.35	18398.95
490.53	17958.93
490.70	18483.21
490.88	18223.41
491.06	18977.06
491.24	18335.76
491.41	18637.69
491.59	18913.87
491.77	18932.59
491.95	18897.49
492.13	19019.19
492.30	19316.44
492.48	19286.01
492.66	19456.87
492.84	19501.34
493.01	19503.68
493.19	19524.75
493.37	20023.28
493.54	19997.54
493.72	20208.19
493.90	20191.80
494.08	20519.48
494.25	20638.84
494.43	20470.33
494.61	20973.54
494.79	21043.76
494.96	20776.94
495.14	21338.66
495.32	21338.66
495.49	21333.98
495.67	21280.15
495.85	21425.26
496.02	21724.85
496.20	21867.63
496.38	21500.16
496.55	21745.92
496.73	21834.86
496.91	22003.38
497.09	22218.71
497.26	22242.11
497.44	22539.36
497.62	22644.68
497.79	22843.63
497.97	22988.74
498.14	22979.38
498.32	23035.55
498.50	22700.86
498.67	23271.95
498.85	23229.82
499.03	23398.34
499.20	23548.13
499.38	23850.06
499.56	23498.98
499.73	23981.13
499.91	24009.22
500.08	24116.88
500.26	24009.22
500.44	23770.48
500.61	23990.49
500.79	24271.36
500.97	24306.46
501.14	24470.30
501.32	24372.00
501.49	24369.66
501.67	24805.00
501.84	24879.89
502.02	24919.68
502.20	25212.25
502.37	25137.35
502.55	25008.62
502.72	25376.09
502.90	25551.63
503.07	25394.81
503.25	25458.01
503.43	25266.08
503.60	25624.18
503.78	25649.93
503.95	25432.26
504.13	26111.02
504.30	26148.46
504.48	25876.96
504.65	26431.67
504.83	26483.16
505.01	26223.36
505.18	26169.53
505.36	26401.24
505.53	26555.72
505.71	26925.52
505.88	27063.61
506.06	26345.07
506.23	26930.20
506.41	26749.98
506.58	26764.03
506.76	26951.27
506.93	27304.69
507.11	27140.85
507.28	27583.21
507.46	27700.24
507.63	27243.84
507.81	27594.92
507.98	27442.78
508.16	27566.83
508.33	27702.58
508.50	27810.25
508.68	27840.67
508.85	27976.42
509.03	28161.33
509.20	27908.55
509.38	28294.74
509.55	28638.80
509.73	28233.88
509.90	28442.19
510.08	28463.25
510.25	28556.88
510.42	28648.16
510.60	28299.42
510.77	28865.83
510.95	29289.46
511.12	28893.91
511.30	29275.42
511.47	28952.43
511.64	29628.84
511.82	29331.59
511.99	29083.50
512.17	29298.83
512.34	29113.92
512.51	30103.97
512.69	29818.42
512.86	30000.99
513.04	30129.72
513.21	29769.27
513.38	29720.12
513.56	30218.66
513.73	29989.28
513.90	30181.21
514.08	30199.93
514.25	30700.81
514.43	30375.47
514.60	30663.36
514.77	30724.21
514.95	30855.28
515.12	30810.81
515.29	30565.06
515.47	30911.46
515.64	30951.24
515.81	30583.78
515.99	31328.07
516.16	31232.11
516.33	31257.85
516.51	31161.89
516.68	30836.56
516.85	31068.27
517.03	31145.51
517.20	31304.67
517.37	31400.63
517.54	31487.23
517.72	31536.38
517.89	31501.27
518.06	31489.57
518.24	31541.06
518.41	31620.64
518.58	31599.57
518.75	31681.49
518.93	32025.55
519.10	32334.50
519.27	32278.33
519.45	32283.01
519.62	32669.20
519.79	33078.79
519.96	32528.77
520.14	32638.77
520.31	32421.10
520.48	32222.16
520.65	32704.31
520.83	33371.36
521.00	32683.24
521.17	32723.03
521.34	33017.94
521.52	33029.64
521.69	33535.20
521.86	33565.62
522.03	33439.23
522.20	33773.93
522.38	33296.46
522.55	33331.57
522.72	33703.71
522.89	33624.14
523.07	33839.47
523.24	34033.73
523.41	34073.52
523.58	34096.92
523.75	34232.68
523.92	34419.92
524.10	34258.42
524.27	34352.04
524.44	34335.66
524.61	34253.74
524.78	34581.42
524.96	34464.39
525.13	34373.11
525.30	34401.19
525.47	35075.27
525.64	34946.54
525.81	34806.11
525.98	35093.99
526.16	34726.53
526.33	34455.03
526.50	35075.27
526.67	34852.92
526.84	34754.61
527.01	35014.41
527.18	34841.21
527.36	35126.76
527.53	35541.03
527.70	35644.02
527.87	35735.30
528.04	35299.96
528.21	35538.69
528.38	35206.34
528.55	35812.54
528.72	35756.36
528.89	35997.44
529.07	35952.97
529.24	36044.25
529.41	35782.11
529.58	35887.43
529.75	35384.22
529.92	36161.28
530.09	36224.47
530.26	36474.91
530.43	36343.84
530.60	35653.38
530.77	36119.15
530.94	36491.29
531.11	36364.90
531.28	36172.98
531.46	36542.78
531.63	37184.09
531.80	36608.32
531.97	36479.59
532.14	37053.02
532.31	36840.03
532.48	36774.50
532.65	36589.59
532.82	37057.70
532.99	36889.18
533.16	36631.72
533.33	37038.98
533.50	37443.89
533.67	37605.39
533.84	37301.12
534.01	37027.28
534.18	37350.27
534.35	37500.06
534.52	37352.61
534.69	37319.84
534.86	37668.58
535.03	37228.56
535.20	37577.30
535.37	37729.44
535.54	37766.88
535.71	37502.40
535.88	37626.45
536.05	37668.58
536.22	38007.96
536.38	38183.50
536.55	38403.51
536.72	37879.23
536.89	37736.46
537.06	38066.47
537.23	38040.73
537.40	38148.39
537.57	38164.78
537.74	38064.13
537.91	38375.42
538.08	38572.03
538.25	38216.27
538.42	38319.25
538.59	38691.40
538.75	38291.16
538.92	38686.71
539.09	38876.30
539.26	38724.16
539.43	38532.24
539.60	38583.73
539.77	38660.97
539.94	38749.91
540.11	38934.81
540.28	38700.76
540.44	38726.50
540.61	38628.20
540.78	38635.22
540.95	38518.20
541.12	38953.54
541.29	38862.26
541.46	38995.67
541.62	38960.56
541.79	39512.92
541.96	39016.73
542.13	39093.97
542.30	39129.08
542.47	39393.56
542.63	39517.60
542.80	39033.11
542.97	39910.82
543.14	40062.95
543.31	39323.34
543.48	40144.87
543.64	40194.02
543.81	39784.43
543.98	40072.31
544.15	39805.49
544.32	40158.91
544.48	40273.60
544.65	40470.20
544.82	40058.27
544.99	39945.92
545.16	40076.99
545.32	40109.76
545.49	40657.45
545.66	40512.33
545.83	40643.40
546.00	40053.59
546.16	40435.10
546.33	40507.65
546.50	39995.07
546.67	40556.80
546.83	40140.19
547.00	40769.79
547.17	40502.97
547.34	40184.66
547.50	40502.97
547.67	41284.71
547.84	40664.47
548.00	40629.36
548.17	41083.42
548.34	41008.53
548.51	41387.69
548.67	41069.38
548.84	41401.74
549.01	41050.66
549.18	41153.64
549.34	41242.58
549.51	41062.36
549.68	41464.93
549.84	41153.64
550.01	41186.41
550.18	41380.67
550.34	41464.93
550.51	40942.99
550.68	40935.97
550.84	41074.06
551.01	41626.43
551.18	40978.10
551.34	41282.37
551.51	41808.99
551.68	41490.68
551.84	41731.75
552.01	41500.04
552.18	41799.63
552.34	41095.13
552.51	41560.89
552.68	41469.61
552.84	41624.09
553.01	41996.23
553.18	41649.83
553.34	41652.17
553.51	41546.85
553.67	41673.24
553.84	42127.30
554.01	42314.55
554.17	42260.71
554.34	41968.15
554.51	42038.36
554.67	41874.52
554.84	42148.37
555.00	41907.29
555.17	42363.70
555.33	42593.07
555.50	42424.55
555.67	42305.18
555.83	42136.66
556.00	42527.53
556.16	42543.92
556.33	42705.41
556.50	42457.32
556.66	42607.11
556.83	42672.65
556.99	42586.05
557.16	42628.18
557.32	42866.91
557.49	42873.93
557.65	42117.94
557.82	42106.24
557.98	42232.63
558.15	42665.63
558.32	42663.28
558.48	42876.27
558.65	42916.06
558.81	42770.95
558.98	42471.36
559.14	42649.24
559.31	42726.48
559.47	42927.77
559.64	42939.47
559.80	42937.13
559.97	43122.03
560.13	42593.07
560.30	42410.51
560.46	42902.02
560.63	43068.20
560.79	42878.61
560.96	43271.82
561.12	43157.14
561.29	42916.06
561.45	42682.01
561.61	43040.11
561.78	43168.84
561.94	42850.53
562.11	43484.81
562.27	42794.36
562.44	43217.99
562.60	43178.20
562.77	43356.08
562.93	43255.44
563.10	43290.55
563.26	43306.93
563.42	43632.27
563.59	43276.51
563.75	43374.81
563.92	43695.46
564.08	43454.39
564.24	43920.15
564.41	43377.15
564.57	43597.16
564.74	43435.66
564.90	43262.46
565.07	43430.98
565.23	43440.34
565.39	43548.01
565.56	43550.35
565.72	43377.15
565.88	43395.87
566.05	43414.60
566.21	43732.91
566.38	43660.35
566.54	43660.35
566.70	43531.62
566.87	43761.00
567.03	43538.65
567.19	43910.79
567.36	43597.16
567.52	43655.67
567.68	43861.64
567.85	43557.37
568.01	43487.15
568.17	43791.42
568.34	43660.35
568.50	43615.88
568.66	43629.93
568.83	43852.28
568.99	43529.28
569.15	43519.92
569.32	43676.74
569.48	43374.81
569.64	43803.13
569.81	43885.04
569.97	43910.79
570.13	43995.05
570.30	43414.60
570.46	43445.02
570.62	43002.66
570.78	43679.08
570.95	43332.68
571.11	43761.00
571.27	43824.19
571.43	43824.19
571.60	43737.59
571.76	43714.19
571.92	43505.88
572.09	43353.74
572.25	44123.78
572.41	43693.12
572.57	44098.03
572.74	44282.94
572.90	44158.89
573.06	43824.19
573.22	43929.51
573.38	43849.94
573.55	43426.30
573.71	44170.59
573.87	44025.48
574.03	44186.97
574.20	43903.77
574.36	43615.88
574.52	44037.18
574.68	43854.62
574.84	43936.54
575.01	43948.24
575.17	44023.14
575.33	43952.92
575.49	43753.97
575.65	44470.18
575.82	44542.74
575.98	43992.71
576.14	44502.95
576.30	44191.65
576.46	43662.69
576.62	43540.99
576.79	43791.42
576.95	44065.27
577.11	44238.47
577.27	44023.14
577.43	43854.62
577.59	43690.78
577.75	44259.53
577.92	43840.57
578.08	43849.94
578.24	43896.75
578.40	44257.19
578.56	44163.57
578.72	44121.44
578.88	44371.88
579.04	44051.22
579.21	43887.39
579.37	44051.22
579.53	44009.09
579.69	43903.77
579.85	43849.94
580.01	44044.20
580.17	44292.30
580.33	44238.47
580.49	44357.83
580.65	44240.81
580.82	44339.11
580.98	44296.98
581.14	43962.28
581.30	44325.07
581.46	44158.89
581.62	43995.05
581.78	44294.64
581.94	44634.02
582.10	44172.93
582.26	44271.23
582.42	43995.05
582.58	44304.00
582.74	43842.92
582.90	44030.16
583.06	44507.63
583.22	44243.15
583.38	44144.84
583.54	44194.00
583.70	44179.95
583.86	43885.04
584.02	43821.85
584.18	44289.96
584.34	44198.68
584.50	44177.61
584.66	44189.31
584.82	44140.16
584.98	44100.37
585.14	44292.30
585.30	44023.14
585.46	44032.50
585.62	43945.90
585.78	44247.83
585.94	43423.96
586.10	43814.83
586.26	44500.61
586.42	44287.62
586.58	44109.74
586.74	44065.27
586.90	44205.70
587.06	44112.08
587.22	44786.15
587.38	44514.65
587.54	44509.97
587.70	44528.69
587.86	44018.46
588.02	44327.41
588.18	44182.29
588.34	44369.54
588.49	44004.41
588.65	43854.62
588.81	44238.47
588.97	43924.83
589.13	43995.05
589.29	43847.60
589.45	44404.64
589.61	44514.65
589.77	44278.25
589.93	44701.89
590.08	44516.99
590.24	45099.78
590.40	44428.05
