SpectraSuite Data File
++++++++++++++++++++++++++++++++++++
Date: Fri Oct 25 11:26:32 EDT 2013
User: price-jones
Dark Spectrum Present: No
Reference Spectrum Present: No
Number of Sampled Component Spectra: 1
Spectrometers: USB2+H05261
Integration Time (usec): 100000 (USB2+H05261)
Spectra Averaged: 1 (USB2+H05261)
Boxcar Smoothing: 0 (USB2+H05261)
Correct for Electrical Dark: No (USB2+H05261)
Strobe/Lamp Enabled: No (USB2+H05261)
Correct for Detector Non-linearity: No (USB2+H05261)
Correct for Stray Light: No (USB2+H05261)
Number of Pixels in Processed Spectrum: 2048
>>>>>Begin Processed Spectral Data<<<<<
365.73	276.18
365.92	276.18
366.12	276.18
366.32	138.09
366.52	107.66
366.72	194.26
366.91	77.24
367.11	161.50
367.31	95.96
367.51	98.30
367.70	205.97
367.90	93.62
368.10	156.82
368.30	133.41
368.49	166.18
368.69	227.03
368.89	180.22
369.09	98.30
369.28	159.16
369.48	56.17
369.68	234.05
369.87	145.11
370.07	210.65
370.27	283.20
370.47	346.40
370.66	557.05
370.86	629.60
371.06	725.57
371.25	638.97
371.45	706.84
371.65	674.07
371.84	657.69
372.04	720.88
372.24	676.41
372.44	662.37
372.63	746.63
372.83	688.12
373.03	788.76
373.22	828.55
373.42	774.72
373.62	819.19
373.81	791.10
374.01	737.27
374.21	903.45
374.40	851.96
374.60	842.59
374.79	819.19
374.99	781.74
375.19	837.91
375.38	798.12
375.58	807.48
375.78	915.15
375.97	851.96
376.17	896.43
376.37	858.98
376.56	959.62
376.76	854.30
376.95	830.89
377.15	919.83
377.35	947.92
377.54	863.66
377.74	851.96
377.93	971.32
378.13	910.47
378.33	945.58
378.52	898.77
378.72	1004.09
378.91	990.05
379.11	945.58
379.31	940.90
379.50	929.19
379.70	1029.84
379.89	978.34
380.09	936.21
380.28	964.30
380.48	1011.11
380.68	985.37
380.87	980.68
381.07	1064.94
381.26	1088.35
381.46	1090.69
381.65	1102.39
381.85	957.28
382.04	1001.75
382.24	1034.52
382.43	1036.86
382.63	1093.03
382.83	987.71
383.02	1146.86
383.22	1081.33
383.41	1095.37
383.61	1121.12
383.80	1153.88
384.00	1149.20
384.19	1144.52
384.39	1128.14
384.58	1165.59
384.78	1247.51
384.97	1214.74
385.17	1163.25
385.36	1142.18
385.56	1242.82
385.75	1247.51
385.95	1252.19
386.14	1252.19
386.34	1296.66
386.53	1287.29
386.72	1200.69
386.92	1268.57
387.11	1266.23
387.31	1238.14
387.50	1252.19
387.70	1228.78
387.89	1289.64
388.09	1299.00
388.28	1247.51
388.48	1336.45
388.67	1287.29
388.86	1345.81
389.06	1338.79
389.25	1334.11
389.45	1266.23
389.64	1397.30
389.84	1394.96
390.03	1336.45
390.22	1383.26
390.42	1287.29
390.61	1423.05
390.81	1315.38
391.00	1490.92
391.19	1418.36
391.39	1411.34
391.58	1507.30
391.78	1490.92
391.97	1495.60
392.16	1521.35
392.36	1511.99
392.55	1533.05
392.75	1495.60
392.94	1516.67
393.13	1565.82
393.33	1549.43
393.52	1596.25
393.71	1514.33
393.91	1472.20
394.10	1568.16
394.29	1633.69
394.49	1600.93
394.68	1577.52
394.88	1643.06
395.07	1600.93
395.26	1675.82
395.46	1806.89
395.65	1652.42
395.84	1732.00
396.04	1832.64
396.23	1720.29
396.42	1783.49
396.62	1799.87
396.81	1778.81
397.00	1844.34
397.19	1636.03
397.39	1816.26
397.58	1849.02
397.77	1757.74
397.97	1816.26
398.16	1898.17
398.35	1940.30
398.55	1884.13
398.74	1933.28
398.93	2001.16
399.12	1923.92
399.32	1919.24
399.51	1959.03
399.70	2057.33
399.90	2064.35
400.09	2066.69
400.28	2101.80
400.47	2019.88
400.67	2036.27
400.86	2083.08
401.05	2139.25
401.24	2193.08
401.44	2146.27
401.63	2186.06
401.82	2155.63
402.01	2069.03
402.21	2143.93
402.40	2237.55
402.59	2139.25
402.78	2195.42
402.97	2296.07
403.17	2242.23
403.36	2338.20
403.55	2270.32
403.74	2361.60
403.93	2415.43
404.13	2487.99
404.32	2356.92
404.51	2333.51
404.70	2401.39
404.89	2527.78
405.09	2630.76
405.28	2478.63
405.47	2413.09
405.66	2518.42
405.85	2619.06
406.05	2544.16
406.24	2553.52
406.43	2612.04
406.62	2562.89
406.81	2759.49
407.00	2602.68
407.20	2672.89
407.39	2576.93
407.58	2635.44
407.77	2782.90
407.96	2761.83
408.15	2686.94
408.34	2679.91
408.54	2860.13
408.73	2775.88
408.92	2909.29
409.11	2897.58
409.30	2906.95
409.49	2860.13
409.68	3040.36
409.87	2846.09
410.07	2963.12
410.26	3000.57
410.45	2974.82
410.64	2963.12
410.83	3098.87
411.02	3145.68
411.21	3166.74
411.40	3190.15
411.59	3346.97
411.78	3199.51
411.98	3169.09
412.17	3358.67
412.36	3304.84
412.55	3344.63
412.74	3424.20
412.93	3417.18
413.12	3527.19
413.31	3517.83
413.50	3365.69
413.69	3588.04
413.88	3576.34
414.07	3620.81
414.26	3616.13
414.45	3719.11
414.64	3662.94
414.83	3782.31
415.02	3803.37
415.22	3838.48
415.41	3920.40
415.60	3887.63
415.79	3901.67
415.98	4058.49
416.17	4004.66
416.36	3997.64
416.55	4060.83
416.74	4088.92
416.93	4063.17
417.12	4021.04
417.31	4184.88
417.50	4128.70
417.69	4320.63
417.88	4128.70
418.07	4255.09
418.26	4344.03
418.45	4414.25
418.64	4521.92
418.83	4351.06
419.02	4423.61
419.21	4505.53
419.39	4634.26
419.58	4428.29
419.77	4458.72
419.96	4594.47
420.15	4643.62
420.34	4739.58
420.53	4528.94
420.72	4692.77
420.91	4683.41
421.10	4683.41
421.29	4784.06
421.48	4765.33
421.67	4842.57
421.86	4645.96
422.05	4786.40
422.24	4718.52
422.43	4809.80
422.61	4966.62
422.80	4985.34
422.99	4903.42
423.18	4931.51
423.37	5055.56
423.56	4987.68
423.75	4901.08
423.94	4908.10
424.13	4531.28
424.32	4746.61
424.50	5062.58
424.69	5055.56
424.88	5226.42
425.07	5046.20
425.26	4863.63
425.45	4926.83
425.64	4919.81
425.83	4943.21
426.01	5067.26
426.20	5167.90
426.39	5025.13
426.58	5088.32
426.77	5095.35
426.96	5179.61
427.15	5064.92
427.33	5287.27
427.52	5186.63
427.71	5329.40
427.90	5153.86
428.09	5273.23
428.28	5591.54
428.46	5263.86
428.65	5465.15
428.84	5605.58
429.03	5638.35
429.22	5266.21
429.40	5540.05
429.59	5605.58
429.78	5488.56
429.97	5305.99
430.16	5558.77
430.34	5734.31
430.53	5753.04
430.72	5710.91
430.91	5720.27
431.10	5666.44
431.28	5750.70
431.47	5923.90
431.66	5928.58
431.85	5849.00
432.03	5980.07
432.22	5963.68
432.41	5905.17
432.60	6005.81
432.79	6118.16
432.97	6132.20
433.16	6061.99
433.35	6015.18
433.54	6066.67
433.72	6150.93
433.91	6232.85
434.10	6057.31
434.28	5973.05
434.47	6171.99
434.66	6143.91
434.85	6342.85
435.03	6335.83
435.22	6370.94
435.41	6502.01
435.59	6502.01
435.78	6413.07
435.97	6614.35
436.16	6438.81
436.34	6387.32
436.53	6511.37
436.72	6588.61
436.90	6331.15
437.09	6612.01
437.28	6452.86
437.46	6640.10
437.65	6764.15
437.84	6658.82
438.02	6675.21
438.21	6935.01
438.40	6789.89
438.58	6991.18
438.77	7220.55
438.96	6899.90
439.14	7297.79
439.33	7110.55
439.52	7129.27
439.70	7325.88
439.89	7412.48
440.08	7412.48
440.26	7466.31
440.45	7360.98
440.63	7520.14
440.82	7630.15
441.01	7461.63
441.19	7616.10
441.38	7810.37
441.57	7709.72
441.75	7808.03
441.94	7871.22
442.12	8135.70
442.31	8145.06
442.50	8098.25
442.68	7943.78
442.87	8121.66
443.05	7997.61
443.24	8301.88
443.43	8212.94
443.61	8205.92
443.80	8393.16
443.98	8257.41
444.17	7901.65
444.35	8336.99
444.54	8311.24
444.73	8226.98
444.91	8208.26
445.10	8472.74
445.28	8496.14
445.47	8379.12
445.65	8217.62
445.84	8477.42
446.02	8545.30
446.21	8374.44
446.39	8535.93
446.58	8393.16
446.77	8475.08
446.95	8404.86
447.14	8606.15
447.32	8641.26
447.51	8601.47
447.69	8589.77
447.88	8603.81
448.06	8521.89
448.25	8575.72
448.43	8732.54
448.62	8732.54
448.80	8765.31
448.99	8741.90
449.17	8926.80
449.36	8573.38
449.54	8802.75
449.73	8884.67
449.91	9135.11
450.10	9074.26
450.28	9200.65
450.46	9181.92
450.65	9149.15
450.83	9172.56
451.02	9226.39
451.20	9167.88
451.39	9104.68
451.57	9184.26
451.76	8887.01
451.94	9217.03
452.13	9331.72
452.31	9284.91
452.49	9118.73
452.68	9420.66
452.86	9401.93
453.05	9486.19
453.23	9572.79
453.42	9329.38
453.60	9298.95
453.78	9406.61
453.97	9455.76
454.15	9617.26
454.34	9427.68
454.52	9867.70
454.70	9596.20
454.89	9753.01
455.07	9858.34
455.26	9996.43
455.44	10101.75
455.62	9874.72
455.81	9940.26
455.99	9947.28
456.17	10057.28
456.36	10218.78
456.54	10274.95
456.73	10401.34
456.91	10401.34
457.09	10228.14
457.28	10485.60
457.46	10354.53
457.64	10494.96
457.83	10359.21
458.01	10516.03
458.19	10640.08
458.38	10349.85
458.56	10857.75
458.74	10782.85
458.93	10768.80
459.11	10586.24
459.29	10934.98
459.48	11119.89
459.66	10850.72
459.84	11056.69
460.03	11075.42
460.21	11002.86
460.39	11087.12
460.57	10974.77
460.76	11267.34
460.94	11241.59
461.12	11276.70
461.31	11077.76
461.49	11169.04
461.67	11246.27
461.85	11466.28
462.04	11318.83
462.22	11393.73
462.40	11543.52
462.59	11585.65
462.77	11548.20
462.95	11655.87
463.13	11852.47
463.32	11672.25
463.50	11810.34
463.68	11934.39
463.86	11651.19
464.05	11688.64
464.23	11826.73
464.41	11936.73
464.59	11882.90
464.78	12329.94
464.96	12102.91
465.14	11775.24
465.32	11969.50
465.50	11976.52
465.69	12145.04
465.87	12351.01
466.05	12194.19
466.23	12353.35
466.41	12313.56
466.60	12339.30
466.78	12189.51
466.96	12283.13
467.14	12376.75
467.32	12510.16
467.51	12688.04
467.69	12351.01
467.87	12458.67
468.05	12608.47
468.23	12542.93
468.41	12484.42
468.60	12727.83
468.78	12758.26
468.96	12416.54
469.14	12842.52
469.32	13102.32
469.50	12666.98
469.69	12987.63
469.87	13060.19
470.05	13294.24
470.23	13128.06
470.41	13472.12
470.59	13516.59
470.77	13259.13
470.95	13434.68
471.14	13572.77
471.32	13263.82
471.50	13605.53
471.68	13722.56
471.86	13547.02
472.04	13701.50
472.22	14120.45
472.40	14050.24
472.58	13893.42
472.77	13919.17
472.95	14331.10
473.13	14459.83
473.31	14286.63
473.49	14080.66
473.67	14125.13
473.85	14216.41
474.03	14628.35
474.21	14448.13
474.39	14986.45
474.57	14820.27
474.75	14834.32
474.93	14878.79
475.12	15056.67
475.30	15330.51
475.48	15108.16
475.66	15169.01
475.84	15131.56
476.02	15325.83
476.20	15414.77
476.38	15772.87
476.56	15983.52
476.74	15927.35
476.92	15609.03
477.10	15796.28
477.28	16255.02
477.46	16397.79
477.64	16439.92
477.82	16699.72
478.00	17018.04
478.18	16751.21
478.36	16776.96
478.54	17092.93
478.72	17050.80
478.90	17249.75
479.08	17469.76
479.26	17867.65
479.44	17825.52
479.62	18043.19
479.80	18064.25
479.98	18155.54
480.16	18698.54
480.34	18321.71
480.52	18689.18
480.70	18714.92
480.88	18778.12
481.06	19080.05
481.24	18937.27
481.41	19243.88
481.59	19466.24
481.77	19711.99
481.95	19576.24
482.13	19843.06
482.31	19683.91
482.49	20269.04
482.67	20437.56
482.85	20435.22
483.03	20699.70
483.21	20753.53
483.39	21081.21
483.57	20908.01
483.74	21282.49
483.92	21289.51
484.10	21584.42
484.28	21586.76
484.46	22209.34
484.64	22408.29
484.82	22057.21
485.00	22232.75
485.18	22775.75
485.35	23215.77
485.53	22668.09
485.71	23351.52
485.89	23613.66
486.07	23470.89
486.25	23749.42
486.43	23721.33
486.61	23957.72
486.78	24231.57
486.96	24517.11
487.14	24460.94
487.32	24453.92
487.50	25048.41
487.68	25186.50
487.85	25521.20
488.03	25362.04
488.21	25804.41
488.39	25577.37
488.57	26101.65
488.75	26396.56
488.92	26466.78
489.10	26972.33
489.28	26665.72
489.46	27040.21
489.64	26913.82
489.81	27351.50
489.99	27658.11
490.17	27988.13
490.35	28151.96
490.53	28276.01
490.70	28624.75
490.88	28250.27
491.06	28858.81
491.24	29062.43
491.41	29310.53
491.59	29362.02
491.77	29453.30
491.95	29780.98
492.13	29830.13
492.30	29958.86
492.48	30085.25
492.66	30429.30
492.84	30345.05
493.01	30918.48
493.19	30665.70
493.37	31225.09
493.54	31381.90
493.72	31569.15
493.90	31353.82
494.08	31667.45
494.25	31744.69
494.43	32112.15
494.61	32388.33
494.79	32332.16
494.96	32554.51
495.14	32826.01
495.32	33331.57
495.49	33366.68
495.67	33137.30
495.85	33968.19
496.02	34148.42
496.20	34309.91
496.38	33820.74
496.55	34272.46
496.73	34941.86
496.91	34527.58
497.09	35117.40
497.26	35049.52
497.44	34848.24
497.62	35447.41
497.79	35962.33
497.97	35351.45
498.14	35882.75
498.32	36180.00
498.50	36474.91
498.67	36762.79
498.85	36905.57
499.03	37003.87
499.20	36877.48
499.38	36730.03
499.56	37020.25
499.73	37481.34
499.91	37612.41
500.08	37919.02
500.26	37614.75
500.44	38150.73
500.61	37839.44
500.79	37773.91
500.97	38345.00
501.14	38543.94
501.32	38684.37
501.49	38913.75
501.67	39138.44
501.84	39115.03
502.02	38967.58
502.20	39152.48
502.37	39248.44
502.55	39260.15
502.72	39674.42
502.90	39651.02
503.07	39601.86
503.25	39948.26
503.43	39810.17
503.60	40086.36
503.78	40430.41
503.95	40526.38
504.13	40734.68
504.30	40524.04
504.48	40781.49
504.65	41216.83
504.83	40921.93
505.01	41296.41
505.18	41076.40
505.36	41385.35
505.53	41607.70
505.71	41628.77
505.88	41989.21
506.06	41991.55
506.23	42272.42
506.41	41914.31
506.58	42113.26
506.76	42412.85
506.93	42667.97
507.11	42494.77
507.28	42799.04
507.46	42777.97
507.63	43154.80
507.81	43189.91
507.98	42988.62
508.16	43232.04
508.33	43461.41
508.50	44069.95
508.68	43683.76
508.85	44245.49
509.03	43981.01
509.20	44395.28
509.38	44392.94
509.55	44390.60
509.73	44697.21
509.90	44964.03
510.08	44949.99
510.25	44772.11
510.42	45064.67
510.60	45237.87
510.77	44933.60
510.95	45797.26
511.12	45352.56
511.30	45043.61
511.47	45607.68
511.64	45970.46
511.82	45937.69
511.99	45668.53
512.17	46024.29
512.34	46021.95
512.51	46642.20
512.69	46597.73
512.86	46267.71
513.04	46937.10
513.21	46700.71
513.38	46742.84
513.56	46787.31
513.73	46890.29
513.90	47278.82
514.08	47555.00
514.25	47285.84
514.43	47611.18
514.60	47814.80
514.77	47358.40
514.95	48039.50
515.12	47580.75
515.29	47955.24
515.47	47985.66
515.64	48133.12
515.81	47842.89
515.99	48128.44
516.16	48425.68
516.33	48437.39
516.51	48563.78
516.68	48746.34
516.85	48573.14
517.03	49308.07
517.20	49078.69
517.37	48713.57
517.54	48971.03
517.72	49240.19
517.89	49092.74
518.06	49268.28
518.24	49469.56
518.41	49368.92
518.58	49766.81
518.75	49223.81
518.93	49783.19
519.10	49530.42
519.27	49890.86
519.45	49705.96
519.62	50068.74
519.79	50202.15
519.96	50438.54
520.14	50103.85
520.31	50232.58
520.48	50885.59
520.65	50216.19
520.83	50777.92
521.00	50824.73
521.17	50831.75
521.34	50857.50
521.52	51049.42
521.69	51227.31
521.86	51206.24
522.03	51477.74
522.20	51498.81
522.38	51580.73
522.55	51398.16
522.72	51667.33
522.89	51442.63
523.07	51753.93
523.24	51601.79
523.41	51590.09
523.58	51632.22
523.75	52065.22
523.92	51800.74
524.10	52315.65
524.27	52009.04
524.44	52278.21
524.61	52353.10
524.78	52294.59
524.96	52369.49
525.13	52037.13
525.30	52617.58
525.47	52884.40
525.64	52367.15
525.81	52861.00
525.98	52734.61
526.16	52626.95
526.33	52800.15
526.50	53183.99
526.67	52938.24
526.84	53169.95
527.01	53116.12
527.18	52638.65
527.36	53069.31
527.53	53162.93
527.70	53581.88
527.87	53439.11
528.04	53186.33
528.21	53682.53
528.38	53523.37
528.55	53631.04
528.72	53375.92
528.89	53722.32
529.07	53649.76
529.24	53560.82
529.41	53612.31
529.58	53865.09
529.75	53942.33
529.92	53745.72
530.09	53949.35
530.26	54148.29
530.43	54272.34
530.60	53944.67
530.77	53935.30
530.94	54185.74
531.11	54031.27
531.28	54113.19
531.46	54312.13
531.63	54382.35
531.80	54356.60
531.97	54536.82
532.14	54593.00
532.31	54562.57
532.48	54539.16
532.65	54494.69
532.82	54649.17
532.99	54798.96
533.16	54726.41
533.33	55028.34
533.50	55269.41
533.67	55290.48
533.84	54791.94
534.01	55037.70
534.18	54908.97
534.35	54944.08
534.52	55262.39
534.69	55243.66
534.86	55482.40
535.03	55260.05
535.20	55487.08
535.37	55253.03
535.54	55253.03
535.71	55348.99
535.88	55676.66
536.05	55723.47
536.22	55714.11
536.38	55580.70
536.55	55826.46
536.72	55503.46
536.89	55559.64
537.06	55770.28
537.23	55828.80
537.40	55686.03
537.57	55943.48
537.74	55781.99
537.91	56067.53
538.08	56044.13
538.25	55779.65
538.42	56025.40
538.59	56343.72
538.75	56095.62
538.92	56163.50
539.09	56123.71
539.26	56086.26
539.43	56303.93
539.60	56444.36
539.77	56540.32
539.94	56591.81
540.11	56577.77
540.28	56474.79
540.44	56530.96
540.61	56596.49
540.78	56301.59
540.95	56647.99
541.12	56463.08
541.29	56430.32
541.46	56500.53
541.62	56636.28
541.79	56640.96
541.96	56420.95
542.13	56626.92
542.30	56970.98
542.47	56966.30
542.63	57041.20
542.80	56896.08
542.97	57263.55
543.14	57401.64
543.31	57296.31
543.48	57298.65
543.64	57591.22
543.81	57476.54
543.98	57270.57
544.15	57626.33
544.32	57659.10
544.48	57907.19
544.65	57691.86
544.82	57607.61
544.99	57275.25
545.16	57766.76
545.32	57368.87
545.49	57846.34
545.66	57855.70
545.83	57780.81
546.00	57841.66
546.16	57712.93
546.33	57691.86
546.50	57609.95
546.67	57844.00
546.83	57654.42
547.00	57759.74
547.17	57855.70
547.34	58047.63
547.50	58148.27
547.67	58202.10
547.84	58059.33
548.00	58284.02
548.17	58295.72
548.34	58176.36
548.51	58152.95
548.67	58438.50
548.84	58302.74
549.01	58071.03
549.18	58267.64
549.34	58211.46
549.51	58511.05
549.68	58258.27
549.84	58445.52
550.01	58578.93
550.18	58417.43
550.34	58756.81
550.51	58410.41
550.68	58546.16
550.84	58272.32
551.01	58546.16
551.18	58464.24
551.34	58419.77
551.51	58735.74
551.68	58714.68
551.84	58508.71
552.01	58518.07
552.18	58747.45
552.34	58583.61
552.51	58724.04
552.68	58452.54
552.84	58707.66
553.01	59011.93
553.18	58946.39
553.34	59035.33
553.51	58766.17
553.67	58805.96
553.84	59131.29
554.01	59002.56
554.17	59224.92
554.34	59304.49
554.51	59018.95
554.67	59323.22
554.84	58906.60
555.00	58972.14
555.17	59121.93
555.33	59178.10
555.50	59175.76
555.67	58967.46
555.83	59126.61
556.00	59124.27
556.16	59585.36
556.33	59505.78
556.50	59264.70
556.66	59414.50
556.83	59056.40
556.99	59554.93
557.16	59807.71
557.32	59482.37
557.49	59674.30
557.65	59292.79
557.82	59475.35
557.98	59381.73
558.15	59503.44
558.32	59615.79
558.48	59718.77
558.65	59669.62
558.81	59730.47
558.98	59552.59
559.14	59695.36
559.31	59503.44
559.47	59737.49
559.64	59901.33
559.80	59711.75
559.97	59737.49
560.13	59859.20
560.30	59852.18
560.46	59868.56
560.63	59884.95
560.79	59753.88
560.96	60018.36
561.12	59964.52
561.29	59913.03
561.45	59994.95
561.61	60076.87
561.78	59943.46
561.94	59910.69
562.11	59814.73
562.27	60051.12
562.44	59987.93
562.60	60191.56
562.77	60233.69
562.93	59849.84
563.10	60231.35
563.26	60259.43
563.42	60177.51
563.59	60130.70
563.75	60151.77
563.92	60163.47
564.08	60130.70
564.24	60224.32
564.41	60355.39
564.57	60191.56
564.74	60044.10
564.90	60149.43
565.07	60224.32
565.23	60151.77
565.39	60348.37
565.56	60252.41
565.72	60289.86
565.88	60278.16
566.05	60210.28
566.21	60191.56
566.38	60301.56
566.54	60151.77
566.70	60463.06
566.87	60601.15
567.03	60205.60
567.19	60631.58
567.36	60334.33
567.52	60203.26
567.68	60685.41
567.85	60250.07
568.01	60420.93
568.17	60315.61
568.34	60671.37
568.50	60313.26
568.66	60552.00
568.83	60537.96
568.99	60430.29
569.15	60514.55
569.32	60488.80
569.48	60425.61
569.64	60800.10
569.81	60542.64
569.97	60275.82
570.13	60500.51
570.30	60526.25
570.46	60549.66
570.62	60491.15
570.78	60456.04
570.95	60760.31
571.11	60816.48
571.27	60446.68
571.43	60678.39
571.60	60715.84
571.76	60589.45
571.92	60549.66
572.09	60680.73
572.25	60598.81
572.41	60495.83
572.57	60537.96
572.74	60666.69
572.90	60643.28
573.06	60645.62
573.22	60584.77
573.38	60666.69
573.55	60779.03
573.71	60952.23
573.87	60832.86
574.03	60629.24
574.20	60636.26
574.36	60582.43
574.52	60889.04
574.68	60685.41
574.84	60935.85
575.01	60783.71
575.17	60891.38
575.33	60676.05
575.49	60619.88
575.65	60645.62
575.82	60949.89
575.98	60760.31
576.14	60865.63
576.30	60903.08
576.46	60659.66
576.62	60781.37
576.79	60907.76
576.95	60781.37
577.11	60961.59
577.27	60839.89
577.43	60825.84
577.59	60980.32
577.75	60879.67
577.92	60832.86
578.08	60818.82
578.24	60863.29
578.40	61125.43
578.56	61188.63
578.72	60963.93
578.88	60811.80
579.04	61190.97
579.21	61118.41
579.37	61127.77
579.53	61043.51
579.69	60898.40
579.85	60973.30
580.01	60989.68
580.17	60842.23
580.33	61141.81
580.49	61062.24
580.65	60933.51
580.82	60982.66
580.98	60921.80
581.14	60933.51
581.30	61050.53
581.46	61125.43
581.62	60912.44
581.78	61097.34
581.94	61083.30
582.10	60844.57
582.26	61038.83
582.42	60928.83
582.58	61172.24
582.74	60858.61
582.90	60994.36
583.06	60959.25
583.22	60907.76
583.38	60933.51
583.54	61090.32
583.70	60889.04
583.86	61092.66
584.02	61167.56
584.18	61352.46
584.34	61008.40
584.50	60989.68
584.66	61071.60
584.82	61064.58
584.98	61092.66
585.14	61235.44
585.30	60992.02
585.46	61134.79
585.62	61078.62
585.78	61237.78
585.94	61022.45
586.10	61087.98
586.26	61174.58
586.42	61034.15
586.58	61146.50
586.74	61270.54
586.90	61020.11
587.06	61020.11
587.22	61310.33
587.38	61064.58
587.54	61254.16
587.70	61289.27
587.86	61153.52
588.02	61151.18
588.18	61338.42
588.34	61209.69
588.49	61132.45
