SpectraSuite Data File
++++++++++++++++++++++++++++++++++++
Date: Fri Oct 25 11:33:43 EDT 2013
User: price-jones
Dark Spectrum Present: No
Reference Spectrum Present: No
Number of Sampled Component Spectra: 1
Spectrometers: USB2+H05261
Integration Time (usec): 100000 (USB2+H05261)
Spectra Averaged: 1 (USB2+H05261)
Boxcar Smoothing: 0 (USB2+H05261)
Correct for Electrical Dark: No (USB2+H05261)
Strobe/Lamp Enabled: No (USB2+H05261)
Correct for Detector Non-linearity: No (USB2+H05261)
Correct for Stray Light: No (USB2+H05261)
Number of Pixels in Processed Spectrum: 2048
>>>>>Begin Processed Spectral Data<<<<<
365.73	311.29
365.92	311.29
366.12	311.29
366.32	187.24
366.52	67.88
366.72	262.14
366.91	205.97
367.11	175.54
367.31	184.90
367.51	131.07
367.70	131.07
367.90	152.13
368.10	184.90
368.30	135.75
368.49	177.88
368.69	170.86
368.89	166.18
369.09	196.60
369.28	161.50
369.48	212.99
369.68	269.16
369.87	212.99
370.07	290.23
370.27	180.22
370.47	311.29
370.66	416.62
370.86	477.47
371.06	582.79
371.25	589.82
371.45	575.77
371.65	589.82
371.84	564.07
372.04	580.45
372.24	547.69
372.44	559.39
372.63	610.88
372.83	554.71
373.03	573.43
373.22	629.60
373.42	648.33
373.62	617.90
373.81	606.20
374.01	629.60
374.21	599.18
374.40	643.65
374.60	674.07
374.79	678.76
374.99	627.26
375.19	587.47
375.38	596.84
375.58	634.29
375.78	706.84
375.97	606.20
376.17	695.14
376.37	702.16
376.56	653.01
376.76	739.61
376.95	695.14
377.15	636.63
377.35	671.73
377.54	699.82
377.74	763.01
377.93	704.50
378.13	734.93
378.33	751.31
378.52	763.01
378.72	744.29
378.91	720.88
379.11	650.67
379.31	671.73
379.50	751.31
379.70	704.50
379.89	765.36
380.09	767.70
380.28	767.70
380.48	690.46
380.68	725.57
380.87	755.99
381.07	795.78
381.26	755.99
381.46	800.46
381.65	720.88
381.85	657.69
382.04	748.97
382.24	709.18
382.43	695.14
382.63	697.48
382.83	814.51
383.02	816.85
383.22	875.36
383.41	788.76
383.61	807.48
383.80	826.21
384.00	814.51
384.19	809.83
384.39	814.51
384.58	830.89
384.78	856.64
384.97	903.45
385.17	767.70
385.36	774.72
385.56	709.18
385.75	882.38
385.95	863.66
386.14	816.85
386.34	847.27
386.53	915.15
386.72	884.72
386.92	856.64
387.11	842.59
387.31	877.70
387.50	905.79
387.70	870.68
387.89	959.62
388.09	802.80
388.28	985.37
388.48	891.74
388.67	926.85
388.86	938.55
389.06	968.98
389.25	856.64
389.45	901.11
389.64	891.74
389.84	990.05
390.03	1027.50
390.22	1006.43
390.42	1008.77
390.61	919.83
390.81	985.37
391.00	957.28
391.19	980.68
391.39	936.21
391.58	997.07
391.78	959.62
391.97	1046.22
392.16	1001.75
392.36	1111.75
392.55	1036.86
392.75	978.34
392.94	999.41
393.13	1123.46
393.33	1093.03
393.52	1027.50
393.71	1107.07
393.91	1107.07
394.10	1053.24
394.29	1135.16
394.49	1076.65
394.68	1170.27
394.88	1114.10
395.07	1125.80
395.26	1114.10
395.46	1240.48
395.65	1193.67
395.84	1219.42
396.04	1226.44
396.23	1163.25
396.42	1088.35
396.62	1291.98
396.81	1179.63
397.00	1137.50
397.19	1219.42
397.39	1310.70
397.58	1348.15
397.77	1226.44
397.97	1263.89
398.16	1179.63
398.35	1249.85
398.55	1282.61
398.74	1238.14
398.93	1322.40
399.12	1294.32
399.32	1359.85
399.51	1313.04
399.70	1336.45
399.90	1313.04
400.09	1364.53
400.28	1373.89
400.47	1469.86
400.67	1474.54
400.86	1366.87
401.05	1502.62
401.24	1397.30
401.44	1406.66
401.63	1455.81
401.82	1460.49
402.01	1458.15
402.21	1451.13
402.40	1409.00
402.59	1490.92
402.78	1540.07
402.97	1439.43
403.17	1582.20
403.36	1535.39
403.55	1554.12
403.74	1533.05
403.93	1500.28
404.13	1687.53
404.32	1621.99
404.51	1621.99
404.70	1636.03
404.89	1607.95
405.09	1680.50
405.28	1682.85
405.47	1652.42
405.66	1746.04
405.85	1739.02
406.05	1715.61
406.24	1652.42
406.43	1792.85
406.62	1741.36
406.81	1844.34
407.00	1753.06
407.20	1778.81
407.39	1764.76
407.58	1820.94
407.77	1886.47
407.96	1909.88
408.15	1842.00
408.34	1863.07
408.54	1872.43
408.73	1849.02
408.92	1937.96
409.11	2040.95
409.30	1947.33
409.49	1956.69
409.68	1956.69
409.87	1994.14
410.07	2118.18
410.26	2040.95
410.45	1982.43
410.64	2094.78
410.83	2099.46
411.02	2078.40
411.21	2172.02
411.40	2136.91
411.59	2193.08
411.78	2167.34
411.98	2242.23
412.17	2218.83
412.36	2221.17
412.55	2218.83
412.74	2300.75
412.93	2335.85
413.12	2349.90
413.31	2464.58
413.50	2363.94
413.69	2429.48
413.88	2478.63
414.07	2471.61
414.26	2523.10
414.45	2417.77
414.64	2415.43
414.83	2480.97
415.02	2572.25
415.22	2672.89
415.41	2588.63
415.60	2609.70
415.79	2628.42
415.98	2747.79
416.17	2888.22
416.36	2686.94
416.55	2700.98
416.74	2855.45
416.93	2818.00
417.12	2785.24
417.31	2885.88
417.50	2766.51
417.69	2939.71
417.88	2953.76
418.07	2916.31
418.26	2848.43
418.45	3059.08
418.64	3084.83
418.83	3073.12
419.02	2993.55
419.21	3059.08
419.39	3091.85
419.58	3173.77
419.77	3038.02
419.96	3082.49
420.15	3190.15
420.34	3190.15
420.53	3112.91
420.72	3281.43
420.91	3332.92
421.10	3325.90
421.29	3295.47
421.48	3253.34
421.67	3314.20
421.86	3131.64
422.05	3283.77
422.24	3307.18
422.43	3382.07
422.61	3295.47
422.80	3431.23
422.99	3396.12
423.18	3449.95
423.37	3487.40
423.56	3365.69
423.75	3393.78
423.94	3412.50
424.13	3176.11
424.32	3297.81
424.50	3468.67
424.69	3471.01
424.88	3447.61
425.07	3499.10
425.26	3398.46
425.45	3555.27
425.64	3407.82
425.83	3349.31
426.01	3524.85
426.20	3461.65
426.39	3489.74
426.58	3485.06
426.77	3541.23
426.96	3513.14
427.15	3541.23
427.33	3566.98
427.52	3478.04
427.71	3585.70
427.90	3611.45
428.09	3679.32
428.28	3609.11
428.46	3744.86
428.65	3641.87
428.84	3803.37
429.03	3918.06
429.22	3651.24
429.40	3705.07
429.59	3833.80
429.78	3688.68
429.97	3702.73
430.16	3840.82
430.34	3850.18
430.53	3854.86
430.72	3882.95
430.91	3819.75
431.10	3875.93
431.28	3962.53
431.47	4117.00
431.66	3985.93
431.85	4086.58
432.03	3971.89
432.22	4105.30
432.41	4030.40
432.60	4205.94
432.79	4065.51
432.97	4119.34
433.16	4229.35
433.35	4044.45
433.54	3978.91
433.72	4119.34
433.91	4203.60
434.10	4196.58
434.28	4196.58
434.47	4287.86
434.66	4231.69
434.85	4348.72
435.03	4376.80
435.22	4231.69
435.41	4491.49
435.59	4470.42
435.78	4311.27
435.97	4297.22
436.16	4262.12
436.34	4400.21
436.53	4365.10
436.72	4533.62
436.90	4444.68
437.09	4690.43
437.28	4418.93
437.46	4524.26
437.65	4613.20
437.84	4634.26
438.02	4636.60
438.21	4655.33
438.40	4573.41
438.58	4851.93
438.77	4849.59
438.96	4746.61
439.14	4828.53
439.33	4994.70
439.52	5032.15
439.70	4910.44
439.89	5022.79
440.08	5078.96
440.26	4922.15
440.45	5071.94
440.63	4978.32
440.82	5188.97
441.01	5153.86
441.19	5181.95
441.38	5172.58
441.57	5268.55
441.75	5364.51
441.94	5476.85
442.12	5416.00
442.31	5186.63
442.50	5392.59
442.68	5504.94
442.87	5533.03
443.05	5654.73
443.24	5661.76
443.43	5572.82
443.61	5640.69
443.80	5654.73
443.98	5523.66
444.17	5303.65
444.35	5598.56
444.54	5570.48
444.73	5746.02
444.91	5724.95
445.10	5621.97
445.28	5724.95
445.47	5680.48
445.65	5724.95
445.84	5729.63
446.02	5731.97
446.21	5666.44
446.39	5720.27
446.58	5905.17
446.77	5764.74
446.95	5619.63
447.14	5748.36
447.32	5746.02
447.51	5886.45
447.69	5591.54
447.88	5813.89
448.06	5811.55
448.25	5863.04
448.43	5867.72
448.62	5886.45
448.80	5652.39
448.99	5717.93
449.17	5895.81
449.36	5942.62
449.54	6153.27
449.73	6031.56
449.91	6190.72
450.10	5961.34
450.28	6214.12
450.46	6104.12
450.65	6150.93
450.83	6001.13
451.02	6232.85
451.20	6237.53
451.39	6272.64
451.57	6181.35
451.76	6169.65
451.94	6127.52
452.13	6237.53
452.31	6429.45
452.49	6321.79
452.68	6387.32
452.86	6200.08
453.05	6413.07
453.23	6471.58
453.42	6279.66
453.60	6392.00
453.78	6494.99
453.97	6415.41
454.15	6511.37
454.34	6438.81
454.52	6593.29
454.70	6525.41
454.89	6539.46
455.07	6476.26
455.26	6691.59
455.44	6466.90
455.62	6799.26
455.81	6712.66
455.99	6815.64
456.17	6782.87
456.36	6778.19
456.54	6707.98
456.73	6892.88
456.91	7148.00
457.09	7138.63
457.28	7096.50
457.46	7021.61
457.64	7119.91
457.83	6848.41
458.01	6857.77
458.19	7243.96
458.38	7105.87
458.56	7225.23
458.74	7103.53
458.93	7150.34
459.11	7103.53
459.29	7180.76
459.48	7316.51
459.66	7171.40
459.84	7194.81
460.03	7407.80
460.21	7552.91
460.39	7227.57
460.57	7449.93
460.76	7557.59
460.94	7447.58
461.12	7447.58
461.31	7307.15
461.49	7368.01
461.67	7648.87
461.85	7798.66
462.04	7691.00
462.22	7960.16
462.40	7709.72
462.59	7777.60
462.77	7543.55
462.95	7662.91
463.13	7758.88
463.32	7887.61
463.50	7932.08
463.68	7971.86
463.86	8013.99
464.05	7777.60
464.23	7911.01
464.41	7899.31
464.59	7878.24
464.78	8145.06
464.96	7871.22
465.14	7918.03
465.32	7845.48
465.50	8166.13
465.69	8308.90
465.87	8039.74
466.05	7981.23
466.23	8138.04
466.41	8325.29
466.60	8336.99
466.78	8046.76
466.96	8166.13
467.14	8217.62
467.32	8327.63
467.51	8463.38
467.69	8161.45
467.87	8203.58
468.05	8269.11
468.23	8269.11
468.41	8313.58
468.60	8517.21
468.78	8521.89
468.96	8503.17
469.14	8557.00
469.32	8706.79
469.50	8538.27
469.69	8463.38
469.87	8697.43
470.05	8777.01
470.23	8727.86
470.41	8762.97
470.59	8975.95
470.77	8915.10
470.95	8915.10
471.14	9015.74
471.32	8826.16
471.50	9210.01
471.68	9149.15
471.86	9039.15
472.04	9188.94
472.22	9331.72
472.40	9013.40
472.58	9252.14
472.77	9294.27
472.95	9432.36
473.13	9495.55
473.31	9312.99
473.49	9495.55
473.67	9497.89
473.85	9500.23
474.03	9628.96
474.21	9633.64
474.39	9736.63
474.57	9839.61
474.75	9727.27
474.93	9977.70
475.12	10029.20
475.30	9926.21
475.48	10143.88
475.66	9893.44
475.84	10029.20
476.02	10209.42
476.20	10036.22
476.38	10317.08
476.56	10600.29
476.74	10530.07
476.92	10628.37
477.10	10527.73
477.28	10581.56
477.46	10689.23
477.64	10813.28
477.82	10967.75
478.00	11279.04
478.18	11033.29
478.36	11253.30
478.54	11421.81
478.72	11449.90
478.90	11360.96
479.08	11463.94
479.26	11356.28
479.44	11728.42
479.62	11913.33
479.80	11770.55
479.98	12119.29
480.16	12219.94
480.34	11791.62
480.52	12283.13
480.70	12299.52
480.88	12166.10
481.06	12297.17
481.24	12437.61
481.41	12655.28
481.59	12980.61
481.77	12851.88
481.95	13256.79
482.13	13097.64
482.31	13032.10
482.49	13158.49
482.67	13387.86
482.85	13570.43
483.03	13671.07
483.21	13614.90
483.39	13867.67
483.57	13640.64
483.74	13860.65
483.92	14005.77
484.10	14132.15
484.28	14347.48
484.46	14546.43
484.64	14736.01
484.82	14415.36
485.00	14743.03
485.18	15000.49
485.35	15136.24
485.53	14820.27
485.71	15215.82
485.89	15269.66
486.07	15009.86
486.25	15564.56
486.43	15304.76
486.61	15494.35
486.78	15864.15
486.96	15932.03
487.14	16107.57
487.32	16210.55
487.50	16058.42
487.68	16395.45
487.85	16432.90
488.03	16594.40
488.21	16816.75
488.39	16926.75
488.57	17322.30
488.75	17064.85
488.92	17362.09
489.10	17507.21
489.28	17586.79
489.46	17912.12
489.64	17631.26
489.81	17694.45
489.99	18111.07
490.17	18427.04
490.35	18520.66
490.53	18422.36
490.70	18707.90
490.88	18544.06
491.06	18703.22
491.24	18902.17
491.41	19042.60
491.59	19143.24
491.77	19150.26
491.95	19091.75
492.13	19566.88
492.30	19513.05
492.48	19665.18
492.66	19859.45
492.84	19807.95
493.01	19903.92
493.19	20086.48
493.37	20493.73
493.54	20273.72
493.72	20374.36
493.90	20486.71
494.08	20783.96
494.25	21029.71
494.43	20989.92
494.61	21289.51
494.79	21418.24
494.96	21238.02
495.14	21874.65
495.32	21851.24
495.49	21582.08
495.67	22015.08
495.85	21799.75
496.02	22118.06
496.20	22036.14
496.38	22368.50
496.55	22356.80
496.73	22670.43
496.91	22618.94
497.09	22661.07
497.26	22981.72
497.44	22761.71
497.62	23295.35
497.79	23620.69
497.97	23370.25
498.14	23543.45
498.32	23534.09
498.50	23475.57
498.67	24011.56
498.85	24025.60
499.03	24156.67
499.20	23854.74
499.38	24084.11
499.56	24233.91
499.73	24416.47
499.91	24629.46
500.08	24636.48
500.26	24812.02
500.44	24842.45
500.61	24580.31
500.79	24650.52
500.97	24760.53
501.14	25207.57
501.32	25539.93
501.49	25109.27
501.67	25090.54
501.84	25558.65
502.02	25841.85
502.20	25626.53
502.37	25575.03
502.55	25577.37
502.72	26019.74
502.90	26284.22
503.07	25511.84
503.25	26045.48
503.43	25972.92
503.60	26412.95
503.78	26405.92
503.95	26302.94
504.13	26291.24
504.30	26455.08
504.48	26843.60
504.65	26607.21
504.83	26822.54
505.01	27225.11
505.18	27281.28
505.36	27182.98
505.53	27325.75
505.71	27250.86
505.88	27672.15
506.06	27246.18
506.23	27508.32
506.41	27412.35
506.58	27824.29
506.76	27983.44
506.93	28119.20
507.11	27737.69
507.28	27828.97
507.46	27892.16
507.63	28182.39
507.81	28297.08
507.98	28301.76
508.16	28840.08
508.33	28545.17
508.50	28889.23
508.68	28779.23
508.85	29151.37
509.03	28554.54
509.20	28996.90
509.38	29385.43
509.55	29352.66
509.73	29041.37
509.90	29193.50
510.08	29195.84
510.25	29472.03
510.42	29502.45
510.60	29975.24
510.77	30075.88
510.95	30560.37
511.12	29701.40
511.30	29930.77
511.47	29659.27
511.64	29977.58
511.82	30403.56
511.99	30235.04
512.17	30340.36
512.34	30284.19
512.51	30677.40
512.69	30635.27
512.86	30836.56
513.04	30923.16
513.21	30817.83
513.38	31122.10
513.56	30962.95
513.73	31246.15
513.90	31323.39
514.08	30979.33
514.25	31344.45
514.43	31419.35
514.60	31931.93
514.77	31299.98
514.95	31924.91
515.12	31983.42
515.29	32093.43
515.47	31859.37
515.64	32231.52
515.81	31772.77
515.99	32250.24
516.16	31983.42
516.33	32308.76
516.51	32072.36
516.68	32142.58
516.85	32496.00
517.03	32568.55
517.20	32999.21
517.37	32835.38
517.54	32566.21
517.72	32641.11
517.89	32730.05
518.06	32943.04
518.24	32821.33
518.41	33081.13
518.58	32952.40
518.75	32982.83
518.93	33085.81
519.10	33490.73
519.27	33556.26
519.45	33411.15
519.62	33570.30
519.79	33689.67
519.96	33305.82
520.14	34169.48
520.31	33930.75
520.48	34141.39
520.65	34174.16
520.83	34139.05
521.00	34565.03
521.17	34270.12
521.34	34429.28
521.52	34377.79
521.69	34586.10
521.86	34810.79
522.03	34815.47
522.20	35012.07
522.38	34974.63
522.55	34820.15
522.72	34794.40
522.89	35140.80
523.07	35386.56
523.24	35117.40
523.41	35171.23
523.58	35014.41
523.75	35372.52
523.92	35498.91
524.10	35449.75
524.27	35550.40
524.44	35751.68
524.61	35959.99
524.78	35611.25
524.96	35812.54
525.13	36294.69
525.30	35931.90
525.47	36058.29
525.64	35955.31
525.81	36013.82
525.98	36498.31
526.16	36341.50
526.33	36402.35
526.50	36332.14
526.67	36219.79
526.84	36435.12
527.01	36208.09
527.18	36687.90
527.36	36818.97
527.53	36598.96
527.70	36959.40
527.87	37006.21
528.04	36634.06
528.21	37120.90
528.38	37038.98
528.55	37436.87
528.72	37109.19
528.89	37174.73
529.07	37102.17
529.24	37345.59
529.41	37427.51
529.58	37635.81
529.75	37717.73
529.92	37268.35
530.09	37481.34
530.26	37851.14
530.43	37682.62
530.60	36933.65
530.77	37806.67
530.94	37869.87
531.11	37984.55
531.28	37724.75
531.46	38319.25
531.63	38195.20
531.80	37961.15
531.97	38174.14
532.14	38237.33
532.31	38312.23
532.48	38462.02
532.65	38684.37
532.82	38635.22
532.99	38621.18
533.16	38349.68
533.33	38230.31
533.50	38714.80
533.67	38719.48
533.84	38466.70
534.01	38574.37
534.18	38553.30
534.35	39431.01
534.52	38969.92
534.69	39576.12
534.86	39035.45
535.03	39129.08
535.20	39545.69
535.37	39302.28
535.54	39707.19
535.71	39466.11
535.88	39751.66
536.05	39426.32
536.22	39810.17
536.38	39421.64
536.55	39700.17
536.72	39728.25
536.89	39838.26
537.06	39742.30
537.23	39931.88
537.40	39758.68
537.57	39643.99
537.74	39456.75
537.91	40016.14
538.08	40493.61
538.25	40294.66
538.42	39655.70
538.59	40203.38
538.75	40098.06
538.92	40215.08
539.09	40989.80
539.26	40542.76
539.43	40676.17
539.60	40332.11
539.77	40772.13
539.94	41020.23
540.11	40795.54
540.28	40933.63
540.44	40931.29
540.61	40809.58
540.78	40769.79
540.95	40847.03
541.12	41053.00
541.29	40858.73
541.46	41132.57
541.62	41340.88
541.79	41179.39
541.96	41294.07
542.13	41179.39
542.30	41137.26
542.47	40900.86
542.63	40959.38
542.80	41287.05
542.97	41406.42
543.14	41654.51
543.31	41537.49
543.48	41963.46
543.64	42082.83
543.81	41825.37
543.98	41867.50
544.15	41799.63
544.32	41935.38
544.48	42635.20
544.65	41911.97
544.82	42099.22
544.99	42064.11
545.16	42391.78
545.32	41986.87
545.49	42796.70
545.66	43098.62
545.83	42630.52
546.00	42773.29
546.16	42923.08
546.33	42452.64
546.50	42288.80
546.67	42855.21
546.83	42597.75
547.00	42384.76
547.17	42476.04
547.34	42714.78
547.50	43225.01
547.67	43152.46
547.84	42756.91
548.00	42887.98
548.17	43480.13
548.34	43159.48
548.51	43267.14
548.67	43393.53
548.84	43381.83
549.01	42934.79
549.18	43428.64
549.34	43384.17
549.51	43688.44
549.68	43466.09
549.84	43119.69
550.01	43557.37
550.18	43182.88
550.34	43442.68
550.51	43786.74
550.68	43768.02
550.84	43288.21
551.01	44079.31
551.18	43709.50
551.34	43519.92
551.51	43660.35
551.68	43758.66
551.84	43590.14
552.01	43463.75
552.18	43803.13
552.34	43725.89
552.51	43606.52
552.68	43742.27
552.84	44149.53
553.01	44353.15
553.18	43920.15
553.34	44428.05
553.51	44076.97
553.67	43973.98
553.84	44301.66
554.01	44217.40
554.17	44470.18
554.34	44526.35
554.51	44563.80
554.67	44657.42
554.84	44486.56
555.00	44540.39
555.17	44540.39
555.33	45022.54
555.50	44346.13
555.67	45081.06
555.83	44573.16
556.00	44891.48
556.16	45113.83
556.33	44877.43
556.50	45059.99
556.66	45043.61
556.83	44856.37
556.99	44790.83
557.16	45198.09
557.32	45256.60
557.49	45605.34
557.65	44280.60
557.82	45027.23
557.98	44957.01
558.15	45270.64
558.32	45418.10
558.48	44961.69
558.65	45495.33
558.81	45422.78
558.98	45043.61
559.14	45015.52
559.31	44989.78
559.47	45067.02
559.64	45481.29
559.80	45420.44
559.97	45385.33
560.13	44851.69
560.30	45317.45
560.46	45787.90
560.63	45806.62
560.79	46164.73
560.96	45745.77
561.12	45588.95
561.29	45382.99
561.45	45848.75
561.61	45226.17
561.78	45272.98
561.94	45572.57
562.11	45521.08
562.27	45717.68
562.44	45399.37
562.60	45738.75
562.77	46150.68
562.93	45766.84
563.10	46174.09
563.26	45778.54
563.42	46115.58
563.59	46043.02
563.75	45736.41
563.92	46157.70
564.08	45837.05
564.24	46206.86
564.41	45865.14
564.57	46007.91
564.74	46204.52
564.90	45645.13
565.07	45986.85
565.23	45787.90
565.39	45860.46
565.56	46562.62
565.72	45745.77
565.88	45778.54
566.05	46419.84
566.21	46038.34
566.38	46021.95
566.54	46295.80
566.70	46234.94
566.87	46153.02
567.03	46288.77
567.19	46045.36
567.36	46281.75
567.52	46082.81
567.68	46138.98
567.85	46038.34
568.01	46157.70
568.17	46452.61
568.34	46747.52
568.50	46380.06
568.66	46089.83
568.83	46122.60
568.99	46508.79
569.15	46469.00
569.32	46260.69
569.48	46513.47
569.64	46974.55
569.81	46803.69
569.97	46719.43
570.13	46747.52
570.30	46429.21
570.46	46801.35
570.62	46445.59
570.78	46749.86
570.95	46850.50
571.11	46623.47
571.27	46632.83
571.43	46497.08
571.60	46724.11
571.76	46225.58
571.92	46579.00
572.09	46951.15
572.25	46469.00
572.41	46616.45
572.57	46960.51
572.74	47618.20
572.90	46866.89
573.06	46777.95
573.22	46712.41
573.38	46782.63
573.55	47082.22
573.71	47267.12
573.87	46831.78
574.03	46934.76
574.20	47323.29
574.36	46784.97
574.52	46899.65
574.68	47007.32
574.84	47192.22
575.01	46677.30
575.17	46791.99
575.33	46848.16
575.49	46981.57
575.65	47152.43
575.82	47143.07
575.98	46717.09
576.14	46948.81
576.30	47217.97
576.46	46808.37
576.62	46838.80
576.79	46864.55
576.95	46543.89
577.11	46784.97
577.27	47026.04
577.43	47021.36
577.59	47030.72
577.75	46944.12
577.92	46710.07
578.08	46974.55
578.24	47196.90
578.40	47257.76
578.56	47037.75
578.72	47241.37
578.88	47365.42
579.04	47316.27
579.21	47332.65
579.37	46871.57
579.53	47384.15
579.69	46983.91
579.85	47143.07
580.01	47068.17
580.17	47114.98
580.33	47262.44
580.49	47480.11
580.65	47522.24
580.82	47192.22
580.98	47342.02
581.14	47014.34
581.30	47395.85
581.46	47112.64
581.62	46937.10
581.78	47342.02
581.94	47639.26
582.10	47047.11
582.26	47232.01
582.42	47033.07
582.58	47063.49
582.74	47227.33
582.90	47292.86
583.06	47112.64
583.22	47239.03
583.38	47349.04
583.54	47751.61
583.70	47269.46
583.86	47990.34
584.02	47889.70
584.18	47524.58
584.34	47737.57
584.50	47136.05
584.66	47428.62
584.82	47828.85
584.98	47798.42
585.14	47477.77
585.30	47426.28
585.46	47337.33
585.62	47107.96
585.78	47452.02
585.94	47033.07
586.10	47470.75
586.26	46848.16
586.42	47688.42
586.58	47615.86
586.74	47285.84
586.90	47117.32
587.06	47180.52
587.22	47124.35
587.38	47468.40
587.54	47229.67
587.70	47370.10
587.86	47332.65
588.02	47569.05
588.18	47346.70
588.34	47416.91
588.49	47449.68
588.65	47618.20
588.81	47330.31
588.97	48016.09
589.13	47311.59
589.29	47342.02
589.45	47749.27
589.61	47381.80
589.77	47388.83
589.93	47824.17
590.08	47810.12
