SpectraSuite Data File
++++++++++++++++++++++++++++++++++++
Date: Fri Oct 25 11:22:53 EDT 2013
User: price-jones
Dark Spectrum Present: No
Reference Spectrum Present: No
Number of Sampled Component Spectra: 1
Spectrometers: USB2+H05261
Integration Time (usec): 100000 (USB2+H05261)
Spectra Averaged: 1 (USB2+H05261)
Boxcar Smoothing: 0 (USB2+H05261)
Correct for Electrical Dark: No (USB2+H05261)
Strobe/Lamp Enabled: No (USB2+H05261)
Correct for Detector Non-linearity: No (USB2+H05261)
Correct for Stray Light: No (USB2+H05261)
Number of Pixels in Processed Spectrum: 2048
>>>>>Begin Processed Spectral Data<<<<<
365.73	273.84
365.92	273.84
366.12	273.84
366.32	215.33
366.52	135.75
366.72	112.35
366.91	88.94
367.11	21.06
367.31	51.49
367.51	65.54
367.70	138.09
367.90	107.66
368.10	128.73
368.30	67.88
368.49	23.41
368.69	114.69
368.89	95.96
369.09	208.31
369.28	138.09
369.48	156.82
369.68	191.92
369.87	205.97
370.07	152.13
370.27	217.67
370.47	276.18
370.66	592.16
370.86	627.26
371.06	636.63
371.25	709.18
371.45	622.58
371.65	629.60
371.84	624.92
372.04	723.23
372.24	631.94
372.44	755.99
372.63	720.88
372.83	772.38
373.03	748.97
373.22	753.65
373.42	788.76
373.62	763.01
373.81	833.23
374.01	814.51
374.21	765.36
374.40	734.93
374.60	851.96
374.79	821.53
374.99	781.74
375.19	840.25
375.38	807.48
375.58	751.31
375.78	863.66
375.97	793.44
376.17	915.15
376.37	863.66
376.56	866.00
376.76	875.36
376.95	894.08
377.15	940.90
377.35	833.23
377.54	807.48
377.74	915.15
377.93	894.08
378.13	971.32
378.33	957.28
378.52	922.17
378.72	931.53
378.91	936.21
379.11	952.60
379.31	896.43
379.50	964.30
379.70	938.55
379.89	1062.60
380.09	915.15
380.28	976.00
380.48	1029.84
380.68	1069.62
380.87	957.28
381.07	1006.43
381.26	980.68
381.46	1011.11
381.65	964.30
381.85	976.00
382.04	961.96
382.24	1043.88
382.43	1055.58
382.63	985.37
382.83	1060.26
383.02	1128.14
383.22	1078.99
383.41	1048.56
383.61	1107.07
383.80	1235.80
384.00	1170.27
384.19	1151.54
384.39	1081.33
384.58	1170.27
384.78	1146.86
384.97	1137.50
385.17	1076.65
385.36	1160.91
385.56	1167.93
385.75	1228.78
385.95	1165.59
386.14	1308.36
386.34	1196.01
386.53	1203.04
386.72	1252.19
386.92	1174.95
387.11	1221.76
387.31	1235.80
387.50	1294.32
387.70	1139.84
387.89	1165.59
388.09	1341.13
388.28	1280.27
388.48	1280.27
388.67	1320.06
388.86	1317.72
389.06	1380.92
389.25	1362.19
389.45	1378.58
389.64	1277.93
389.84	1394.96
390.03	1390.28
390.22	1376.24
390.42	1406.66
390.61	1376.24
390.81	1434.75
391.00	1418.36
391.19	1387.94
391.39	1409.00
391.58	1526.03
391.78	1387.94
391.97	1455.81
392.16	1467.52
392.36	1549.43
392.55	1528.37
392.75	1547.09
392.94	1565.82
393.13	1530.71
393.33	1378.58
393.52	1495.60
393.71	1540.07
393.91	1603.27
394.10	1617.31
394.29	1614.97
394.49	1647.74
394.68	1640.72
394.88	1729.66
395.07	1734.34
395.26	1685.19
395.46	1654.76
395.65	1556.46
395.84	1813.92
396.04	1750.72
396.23	1748.38
396.42	1788.17
396.62	1846.68
396.81	1795.19
397.00	1795.19
397.19	1806.89
397.39	1743.70
397.58	1769.44
397.77	1909.88
397.97	1816.26
398.16	1914.56
398.35	1853.70
398.55	1832.64
398.74	1968.39
398.93	2069.03
399.12	1961.37
399.32	1977.75
399.51	1984.77
399.70	2001.16
399.90	2022.22
400.09	2062.01
400.28	1940.30
400.47	2022.22
400.67	2057.33
400.86	2050.31
401.05	2069.03
401.24	2193.08
401.44	2094.78
401.63	2129.89
401.82	2143.93
402.01	2214.15
402.21	2146.27
402.40	2312.45
402.59	2253.94
402.78	2338.20
402.97	2232.87
403.17	2275.00
403.36	2331.17
403.55	2249.25
403.74	2354.58
403.93	2321.81
404.13	2282.02
404.32	2352.24
404.51	2406.07
404.70	2424.80
404.89	2359.26
405.09	2455.22
405.28	2530.12
405.47	2546.50
405.66	2497.35
405.85	2413.09
406.05	2436.50
406.24	2487.99
406.43	2654.17
406.62	2560.55
406.81	2595.65
407.00	2686.94
407.20	2576.93
407.39	2661.19
407.58	2705.66
407.77	2731.41
407.96	2827.37
408.15	2691.62
408.34	2700.98
408.54	2726.72
408.73	2862.48
408.92	2825.03
409.11	2869.50
409.30	2951.42
409.49	2932.69
409.68	2843.75
409.87	3054.40
410.07	3023.97
410.26	3138.66
410.45	3096.53
410.64	3103.55
410.83	3091.85
411.02	3173.77
411.21	3260.37
411.40	3159.72
411.59	3276.75
411.78	3190.15
411.98	3136.32
412.17	3403.14
412.36	3349.31
412.55	3403.14
412.74	3473.36
412.93	3398.46
413.12	3412.50
413.31	3576.34
413.50	3513.14
413.69	3398.46
413.88	3616.13
414.07	3646.55
414.26	3494.42
414.45	3782.31
414.64	3702.73
414.83	3754.22
415.02	3866.56
415.22	3906.35
415.41	3688.68
415.60	3829.12
415.79	3911.04
415.98	4039.76
416.17	3992.95
416.36	3992.95
416.55	4053.81
416.74	4095.94
416.93	4032.74
417.12	4065.51
417.31	4166.15
417.50	4201.26
417.69	4407.23
417.88	4299.56
418.07	4180.20
418.26	4531.28
418.45	4360.42
418.64	4542.98
418.83	4428.29
419.02	4568.73
419.21	4540.64
419.39	4545.32
419.58	4526.60
419.77	4381.48
419.96	4699.80
420.15	4676.39
420.34	4479.79
420.53	4643.62
420.72	4606.17
420.91	4784.06
421.10	4828.53
421.29	4861.29
421.48	4695.11
421.67	4798.10
421.86	4854.27
422.05	4828.53
422.24	4884.70
422.43	4823.84
422.61	4922.15
422.80	4936.19
422.99	4896.40
423.18	4905.76
423.37	5184.29
423.56	4961.94
423.75	4922.15
423.94	4805.12
424.13	4695.11
424.32	4697.46
424.50	5081.30
424.69	5083.64
424.88	5203.01
425.07	4980.66
425.26	4777.03
425.45	5034.49
425.64	5018.11
425.83	5071.94
426.01	5118.75
426.20	5083.64
426.39	5060.24
426.58	4922.15
426.77	5097.69
426.96	5188.97
427.15	4954.91
427.33	5139.82
427.52	5200.67
427.71	5334.08
427.90	5210.03
428.09	5465.15
428.28	5479.19
428.46	5394.93
428.65	5397.28
428.84	5385.57
429.03	5554.09
429.22	5366.85
429.40	5390.25
429.59	5570.48
429.78	5399.62
429.97	5369.19
430.16	5441.75
430.34	5678.14
430.53	5685.16
430.72	5746.02
430.91	5783.46
431.10	5727.29
431.28	5809.21
431.47	5760.06
431.66	5956.66
431.85	5888.79
432.03	5963.68
432.22	6029.22
432.41	5919.21
432.60	5966.03
432.79	6054.97
432.97	6125.18
433.16	6153.27
433.35	5905.17
433.54	6153.27
433.72	6197.74
433.91	6101.78
434.10	6209.44
434.28	6036.24
434.47	6216.46
434.66	6260.93
434.85	6333.49
435.03	6345.19
435.22	6417.75
435.41	6619.04
435.59	6352.21
435.78	6471.58
435.97	6480.94
436.16	6455.20
436.34	6595.63
436.53	6354.55
436.72	6623.72
436.90	6413.07
437.09	6787.55
437.28	6452.86
437.46	6789.89
437.65	6576.91
437.84	6766.49
438.02	6953.73
438.21	6642.44
438.40	6883.52
438.58	6998.20
438.77	7159.70
438.96	7054.37
439.14	7187.79
439.33	7368.01
439.52	7323.54
439.70	7368.01
439.89	7548.23
440.08	7391.41
440.26	7494.40
440.45	7452.27
440.63	7641.85
440.82	7758.88
441.01	7571.63
441.19	7630.15
441.38	7824.41
441.57	7815.05
441.75	7765.90
441.94	7878.24
442.12	7845.48
442.31	7957.82
442.50	8093.57
442.68	8030.38
442.87	8065.49
443.05	8259.75
443.24	8327.63
443.43	8168.47
443.61	8184.85
443.80	8475.08
443.98	8205.92
444.17	7922.71
444.35	8226.98
444.54	8395.50
444.73	8299.54
444.91	8439.97
445.10	8341.67
445.28	8329.97
445.47	8304.22
445.65	8336.99
445.84	8652.96
446.02	8568.70
446.21	8332.31
446.39	8486.78
446.58	8514.87
446.77	8634.24
446.95	8404.86
447.14	8491.46
447.32	8512.53
447.51	8603.81
447.69	8585.08
447.88	8561.68
448.06	8589.77
448.25	8610.83
448.43	8840.20
448.62	8643.60
448.80	8674.03
448.99	8936.17
449.17	8823.82
449.36	8709.13
449.54	9025.11
449.73	9121.07
449.91	9240.44
450.10	9036.81
450.28	9355.12
450.46	9046.17
450.65	9078.94
450.83	8994.68
451.02	9172.56
451.20	9289.59
451.39	9219.37
451.57	9053.19
451.76	9149.15
451.94	9310.65
452.13	9303.63
452.31	9399.59
452.49	9041.49
452.68	9591.52
452.86	9500.23
453.05	9439.38
453.23	9540.02
453.42	9621.94
453.60	9586.83
453.78	9710.88
453.97	9713.22
454.15	9490.87
454.34	9633.64
454.52	9877.06
454.70	9638.33
454.89	10059.62
455.07	9657.05
455.26	9851.31
455.44	9900.47
455.62	9902.81
455.81	9699.18
455.99	10085.37
456.17	9994.09
456.36	10010.47
456.54	10377.94
456.73	10232.82
456.91	10588.58
457.09	10441.13
457.28	10630.71
457.46	10565.18
457.64	10434.11
457.83	10642.42
458.01	10422.41
458.19	10939.66
458.38	10686.89
458.56	10885.83
458.74	10773.49
458.93	10761.78
459.11	10757.10
459.29	11087.12
459.48	10869.45
459.66	10843.70
459.84	11040.31
460.03	11171.38
460.21	10913.92
460.39	11040.31
460.57	11227.55
460.76	11131.59
460.94	11213.51
461.12	11487.35
461.31	11309.47
461.49	11005.20
461.67	11192.44
461.85	11454.58
462.04	11239.25
462.22	11768.21
462.40	11765.87
462.59	11499.05
462.77	11756.51
462.95	11836.09
463.13	11655.87
463.32	11892.26
463.50	11854.81
463.68	12037.38
463.86	12107.59
464.05	11690.98
464.23	11719.06
464.41	12025.67
464.59	11882.90
464.78	12365.05
464.96	12147.38
465.14	11840.77
465.32	12343.99
465.50	12152.06
465.69	12170.79
465.87	12367.39
466.05	12568.68
466.23	12208.23
466.41	12365.05
466.60	12629.53
466.78	12145.04
466.96	12262.07
467.14	12219.94
467.32	12461.01
467.51	12793.37
467.69	12238.66
467.87	12463.35
468.05	12662.30
468.23	12334.62
468.41	12662.30
468.60	12648.26
468.78	12840.18
468.96	12751.24
469.14	12847.20
469.32	13123.38
469.50	12842.52
469.69	13298.92
469.87	13053.17
470.05	13240.41
470.23	13198.28
470.41	13322.33
470.59	13518.93
470.77	13247.43
470.95	13352.76
471.14	13521.27
471.32	13329.35
471.50	13760.01
471.68	13795.12
471.86	14066.62
472.04	13895.76
472.22	14080.66
472.40	13888.74
472.58	13923.85
472.77	14015.13
472.95	14129.81
473.13	14562.81
473.31	14288.97
473.49	14324.08
473.67	14118.11
473.85	14464.51
474.03	14457.49
474.21	14642.39
474.39	14532.39
474.57	14450.47
474.75	15201.78
474.93	15117.52
475.12	15056.67
475.30	15180.71
475.48	15421.79
475.66	15515.41
475.84	15400.72
476.02	15740.10
476.20	15749.46
476.38	15812.66
476.56	16301.83
476.74	15981.18
476.92	16283.11
477.10	15910.96
477.28	16266.72
477.46	16203.53
477.64	16489.07
477.82	16875.26
478.00	17399.54
478.18	17165.49
478.36	17074.21
478.54	17025.06
478.72	17289.54
478.90	17324.65
479.08	17717.86
479.26	17884.03
479.44	17799.77
479.62	18129.79
479.80	18073.62
479.98	18249.16
480.16	18843.65
480.34	18387.25
480.52	18775.78
480.70	19073.03
480.88	18649.39
481.06	19063.66
481.24	18850.67
481.41	19126.86
481.59	19597.31
481.77	19761.14
481.95	19744.76
482.13	19932.00
482.31	19758.80
482.49	20573.31
482.67	20308.83
482.85	20617.78
483.03	20776.94
483.21	21053.12
483.39	21301.22
483.57	21041.42
483.74	21088.23
483.92	21750.60
484.10	21348.03
484.28	22129.77
484.46	22066.57
484.64	22483.19
484.82	21841.88
485.00	22338.07
485.18	23051.94
485.35	22958.31
485.53	22946.61
485.71	22906.82
485.89	23686.22
486.07	23646.43
486.25	23974.11
486.43	23967.09
486.61	24407.11
486.78	24292.42
486.96	24283.06
487.14	24922.02
487.32	24947.77
487.50	25198.21
487.68	25261.40
487.85	25310.55
488.03	25769.30
488.21	26366.13
488.39	26368.48
488.57	26415.29
488.75	26321.66
488.92	26597.85
489.10	26845.94
489.28	26824.88
489.46	27557.47
489.64	27117.45
489.81	27807.90
489.99	27882.80
490.17	28189.41
490.35	28240.90
490.53	28271.33
490.70	28503.04
490.88	28444.53
491.06	29017.96
491.24	29186.48
491.41	29343.30
491.59	29706.08
491.77	29460.32
491.95	30129.72
492.13	30068.86
492.30	30068.86
492.48	30309.94
492.66	30698.47
492.84	30590.80
493.01	31129.12
493.19	30747.62
493.37	31278.92
493.54	31241.47
493.72	31562.12
493.90	31541.06
494.08	32346.20
494.25	32744.09
494.43	32308.76
494.61	32283.01
494.79	32369.61
494.96	33074.11
495.14	32933.68
495.32	33689.67
495.49	33338.59
495.67	33797.34
495.85	33741.16
496.02	34005.64
496.20	34338.00
496.38	34235.02
496.55	34127.35
496.73	35033.14
496.91	34698.44
497.09	34499.50
497.26	35178.25
497.44	35379.54
497.62	35328.05
497.79	36147.23
497.97	35707.21
498.14	36402.35
498.32	36133.19
498.50	36320.43
498.67	36921.95
498.85	36704.28
499.03	36968.76
499.20	37202.82
499.38	37464.96
499.56	37310.48
499.73	37572.62
499.91	37659.22
500.08	37825.40
500.26	37865.19
500.44	37975.19
500.61	38309.89
500.79	38045.41
500.97	38625.86
501.14	38686.71
501.32	38995.67
501.49	38756.93
501.67	38990.98
501.84	39370.15
502.02	39353.77
502.20	39414.62
502.37	39758.68
502.55	39658.04
502.72	39938.90
502.90	40006.78
503.07	39665.06
503.25	40086.36
503.43	39952.94
503.60	40783.83
503.78	40671.49
503.95	40725.32
504.13	40935.97
504.30	41036.61
504.48	40591.91
504.65	41013.21
504.83	41504.72
505.01	41713.03
505.18	41478.97
505.36	41914.31
505.53	41462.59
505.71	41933.04
505.88	42190.50
506.06	41926.02
506.23	42185.82
506.41	42354.33
506.58	42562.64
506.76	42440.93
506.93	42733.50
507.11	42775.63
507.28	43112.67
507.46	42962.87
507.63	43023.73
507.81	43737.59
507.98	43512.90
508.16	43730.57
508.33	43782.06
508.50	44034.84
508.68	43824.19
508.85	44119.10
509.03	44128.46
509.20	44011.43
509.38	44706.57
509.55	44638.70
509.73	45036.59
509.90	44823.60
510.08	45130.21
510.25	44945.31
510.42	45270.64
510.60	45242.56
510.77	45736.41
510.95	45879.18
511.12	45525.76
511.30	45645.13
511.47	45411.07
511.64	46059.40
511.82	46248.99
511.99	46424.53
512.17	46143.66
512.34	46248.99
512.51	47037.75
512.69	47100.94
512.86	46986.25
513.04	47145.41
513.21	46885.61
513.38	46852.84
513.56	47065.83
513.73	47192.22
513.90	47522.24
514.08	47208.61
514.25	47749.27
514.43	47695.44
514.60	47765.65
514.77	47763.31
514.95	48135.46
515.12	47767.99
515.29	47945.87
515.47	48051.20
515.64	48673.78
515.81	48364.83
515.99	48605.91
516.16	48989.75
516.33	48718.25
516.51	48980.39
516.68	49024.86
516.85	48996.77
517.03	49261.26
517.20	49251.89
517.37	49137.21
517.54	49315.09
517.72	49322.11
517.89	49521.05
518.06	49474.24
518.24	49619.36
518.41	49745.75
518.58	49881.50
518.75	49233.17
518.93	49811.28
519.10	49537.44
519.27	50190.45
519.45	50131.93
519.62	50368.33
519.79	50251.30
519.96	50054.70
520.14	50714.73
520.31	50415.14
520.48	51019.00
520.65	50806.01
520.83	51021.34
521.00	51068.15
521.17	51082.19
521.34	51061.13
521.52	51171.13
521.69	51065.81
521.86	51454.34
522.03	51388.80
522.20	51866.27
522.38	51657.96
522.55	51381.78
522.72	52081.60
522.89	51653.28
523.07	52215.01
523.24	51955.21
523.41	52200.97
523.58	51543.28
523.75	52156.50
523.92	52095.64
524.10	52648.01
524.27	52406.94
524.44	52474.81
524.61	52238.42
524.78	52341.40
524.96	52196.29
525.13	52608.22
525.30	52933.56
525.47	52903.13
525.64	52750.99
525.81	53052.92
525.98	53153.57
526.16	52903.13
526.33	53020.16
526.50	53406.34
526.67	52919.51
526.84	53394.64
527.01	53066.97
527.18	53277.61
527.36	53357.19
527.53	53279.96
527.70	53347.83
527.87	53411.02
528.04	53078.67
528.21	53696.57
528.38	53815.94
528.55	53794.87
528.72	53595.93
528.89	53591.25
529.07	53595.93
529.24	53832.32
529.41	54012.54
529.58	53925.94
529.75	54052.33
529.92	54038.29
530.09	54057.01
530.26	54396.39
530.43	54618.74
530.60	54314.47
530.77	54241.92
530.94	54417.46
531.11	54272.34
531.28	54628.10
531.46	54445.54
531.63	54571.93
531.80	54707.68
531.97	54672.57
532.14	54848.11
532.31	54585.97
532.48	54953.44
532.65	55014.29
532.82	54602.36
532.99	54920.67
533.16	54939.39
533.33	55079.83
533.50	55208.56
533.67	54990.89
533.84	55058.76
534.01	55229.62
534.18	55332.60
534.35	55547.93
534.52	55224.94
534.69	55428.57
534.86	55540.91
535.03	55442.61
535.20	55711.77
535.37	55379.42
535.54	55622.83
535.71	55604.11
535.88	55756.24
536.05	55735.18
536.22	55889.65
536.38	55908.38
536.55	56004.34
536.72	55842.84
536.89	55700.07
537.06	56121.37
537.23	56009.02
537.40	55772.63
537.57	55943.48
537.74	55936.46
537.91	56074.55
538.08	56044.13
538.25	55868.59
538.42	56104.98
538.59	56477.13
538.75	56210.31
538.92	56233.71
539.09	56643.30
539.26	56144.77
539.43	56240.73
539.60	56645.65
539.77	56439.68
539.94	56849.27
540.11	56802.46
540.28	56676.07
540.44	56832.89
540.61	56760.33
540.78	56591.81
540.95	56790.76
541.12	56650.33
541.29	56542.66
541.46	56828.21
541.62	56727.56
541.79	56917.15
541.96	56619.90
542.13	56889.06
542.30	57088.01
542.47	57099.71
542.63	57153.54
542.80	57125.46
542.97	57513.98
543.14	57502.28
543.31	57258.87
543.48	57457.81
543.64	57497.60
543.81	57621.65
543.98	57682.50
544.15	57680.16
544.32	57703.57
544.48	57865.06
544.65	57513.98
544.82	57698.89
544.99	57399.30
545.16	57822.93
545.32	57467.17
545.49	57904.85
545.66	57965.71
545.83	57832.30
546.00	58012.52
546.16	57986.77
546.33	57741.02
546.50	57607.61
546.67	58258.27
546.83	57862.72
547.00	58021.88
547.17	58099.12
547.34	58134.23
547.50	58164.65
547.67	58103.80
547.84	58419.77
548.00	58478.28
548.17	58321.47
548.34	58452.54
548.51	58560.20
548.67	58323.81
548.84	58314.45
549.01	58232.53
549.18	58454.88
549.34	58590.63
549.51	58518.07
549.68	58417.43
549.84	58679.57
550.01	58401.05
550.18	58396.37
550.34	58478.28
550.51	58663.19
550.68	58841.07
550.84	58520.41
551.01	58784.90
551.18	58525.10
551.34	58738.08
551.51	58829.37
551.68	58873.84
551.84	58768.51
552.01	58595.31
552.18	58857.45
552.34	58901.92
552.51	58946.39
552.68	58890.22
552.84	59114.91
553.01	59302.15
553.18	59131.29
553.34	59040.01
553.51	58979.16
553.67	59075.12
553.84	59093.85
554.01	59285.77
554.17	59178.10
554.34	59260.02
554.51	59168.74
554.67	59372.37
554.84	59304.49
555.00	59363.01
555.17	59257.68
555.33	59297.47
555.50	59243.64
555.67	59224.92
555.83	59227.26
556.00	59238.96
556.16	59564.29
556.33	59524.50
556.50	59587.70
556.66	59735.15
556.83	59337.26
556.99	59728.13
557.16	59847.50
557.32	59784.30
557.49	59767.92
557.65	59494.08
557.82	59678.98
557.98	59545.57
558.15	59716.43
558.32	59554.93
558.48	59519.82
558.65	59632.17
558.81	59744.51
558.98	59781.96
559.14	59863.88
559.31	59959.84
559.47	60137.72
559.64	59964.52
559.80	59917.71
559.97	60053.47
560.13	59915.37
560.30	60097.94
560.46	60074.53
560.63	59952.82
560.79	59922.40
560.96	60100.28
561.12	59973.89
561.29	60048.78
561.45	60186.88
561.61	60158.79
561.78	60067.51
561.94	59896.65
562.11	60083.89
562.27	60072.19
562.44	60252.41
562.60	60205.60
562.77	60346.03
562.93	60126.02
563.10	60140.07
563.26	60006.65
563.42	60437.31
563.59	60196.24
563.75	60287.52
563.92	60308.58
564.08	60257.09
564.24	60453.70
564.41	60472.42
564.57	60514.55
564.74	60116.66
564.90	60636.26
565.07	60214.96
565.23	60238.37
565.39	60355.39
565.56	60341.35
565.72	60301.56
565.88	60392.84
566.05	60336.67
566.21	60364.76
566.38	60568.38
566.54	60392.84
566.70	60804.78
566.87	60814.14
567.03	60390.50
567.19	60645.62
567.36	60622.22
567.52	60371.78
567.68	60603.49
567.85	60580.09
568.01	60484.12
568.17	60720.52
568.34	60772.01
568.50	60662.00
568.66	60549.66
568.83	60664.35
568.99	60573.06
569.15	60622.22
569.32	60542.64
569.48	60746.26
569.64	60893.72
569.81	60596.47
569.97	60589.45
570.13	60748.60
570.30	60570.72
570.46	60652.64
570.62	60629.24
570.78	60828.18
570.95	60687.75
571.11	60910.10
571.27	60669.03
571.43	60802.44
571.60	60996.70
571.76	60678.39
571.92	60863.29
572.09	60818.82
572.25	60839.89
572.41	60673.71
572.57	60795.42
572.74	61024.79
572.90	61010.74
573.06	60987.34
573.22	60734.56
573.38	60814.14
573.55	60952.23
573.71	60947.55
573.87	60945.21
574.03	61006.06
574.20	61003.72
574.36	60673.71
574.52	60921.80
574.68	60893.72
574.84	61256.50
575.01	60954.57
575.17	60891.38
575.33	60926.49
575.49	60975.64
575.65	61031.81
575.82	61010.74
575.98	61013.08
576.14	61076.28
576.30	61167.56
576.46	60825.84
576.62	61034.15
576.79	61179.26
576.95	60832.86
577.11	61055.21
577.27	61162.88
577.43	61062.24
577.59	61141.81
577.75	61066.92
577.92	60795.42
578.08	61006.06
578.24	61137.13
578.40	61254.16
578.56	61160.54
578.72	61174.58
578.88	61195.65
579.04	61235.44
579.21	61141.81
579.37	61298.63
579.53	61116.07
579.69	60954.57
579.85	61268.20
580.01	61099.68
580.17	61073.94
580.33	60961.59
580.49	61186.28
580.65	61174.58
580.82	61116.07
580.98	60973.30
581.14	60903.08
581.30	61045.85
581.46	61090.32
581.62	60849.25
581.78	61073.94
581.94	61343.10
582.10	61029.47
582.26	61179.26
582.42	61197.99
582.58	61137.13
582.74	61123.09
582.90	61176.92
583.06	61181.60
583.22	61064.58
583.38	61127.77
583.54	61197.99
583.70	61130.11
583.86	61319.70
584.02	61045.85
584.18	61312.67
584.34	61258.84
584.50	61181.60
584.66	60982.66
584.82	60975.64
584.98	61134.79
585.14	61380.55
585.30	61307.99
585.46	61282.25
585.62	61317.35
585.78	61406.30
585.94	61062.24
586.10	61298.63
586.26	61205.01
586.42	61254.16
586.58	61307.99
586.74	61352.46
586.90	61233.10
587.06	61111.39
587.22	61490.55
587.38	61443.74
587.54	61460.13
587.70	61446.08
587.86	61282.25
588.02	61441.40
588.18	61446.08
588.34	61233.10
588.49	61371.19
