SpectraSuite Data File
++++++++++++++++++++++++++++++++++++
Date: Fri Oct 25 11:25:42 EDT 2013
User: price-jones
Dark Spectrum Present: No
Reference Spectrum Present: No
Number of Sampled Component Spectra: 1
Spectrometers: USB2+H05261
Integration Time (usec): 100000 (USB2+H05261)
Spectra Averaged: 1 (USB2+H05261)
Boxcar Smoothing: 0 (USB2+H05261)
Correct for Electrical Dark: No (USB2+H05261)
Strobe/Lamp Enabled: No (USB2+H05261)
Correct for Detector Non-linearity: No (USB2+H05261)
Correct for Stray Light: No (USB2+H05261)
Number of Pixels in Processed Spectrum: 2048
>>>>>Begin Processed Spectral Data<<<<<
365.73	198.95
365.92	198.95
366.12	198.95
366.32	147.45
366.52	140.43
366.72	140.43
366.91	91.28
367.11	166.18
367.31	77.24
367.51	135.75
367.70	91.28
367.90	168.52
368.10	112.35
368.30	159.16
368.49	149.79
368.69	194.26
368.89	163.84
369.09	107.66
369.28	152.13
369.48	142.77
369.68	142.77
369.87	238.73
370.07	168.52
370.27	229.37
370.47	306.61
370.66	479.81
370.86	648.33
371.06	678.76
371.25	716.20
371.45	711.52
371.65	746.63
371.84	690.46
372.04	681.10
372.24	706.84
372.44	676.41
372.63	662.37
372.83	758.33
373.03	784.08
373.22	753.65
373.42	767.70
373.62	812.17
373.81	758.33
374.01	812.17
374.21	734.93
374.40	833.23
374.60	819.19
374.79	814.51
374.99	819.19
375.19	891.74
375.38	814.51
375.58	847.27
375.78	800.46
375.97	858.98
376.17	938.55
376.37	884.72
376.56	880.04
376.76	833.23
376.95	882.38
377.15	919.83
377.35	891.74
377.54	905.79
377.74	922.17
377.93	901.11
378.13	894.08
378.33	929.19
378.52	959.62
378.72	1078.99
378.91	950.26
379.11	1008.77
379.31	950.26
379.50	945.58
379.70	973.66
379.89	999.41
380.09	954.94
380.28	945.58
380.48	973.66
380.68	973.66
380.87	985.37
381.07	938.55
381.26	1029.84
381.46	1076.65
381.65	1027.50
381.85	1039.20
382.04	980.68
382.24	1128.14
382.43	1008.77
382.63	1018.13
382.83	1116.44
383.02	1076.65
383.22	1102.39
383.41	1069.62
383.61	1039.20
383.80	1081.33
384.00	1181.97
384.19	1043.88
384.39	1128.14
384.58	1123.46
384.78	1142.18
384.97	1062.60
385.17	1137.50
385.36	1130.48
385.56	1196.01
385.75	1097.71
385.95	1081.33
386.14	1139.84
386.34	1254.53
386.53	1151.54
386.72	1193.67
386.92	1296.66
387.11	1228.78
387.31	1289.64
387.50	1228.78
387.70	1289.64
387.89	1336.45
388.09	1327.08
388.28	1364.53
388.48	1329.42
388.67	1273.25
388.86	1376.24
389.06	1359.85
389.25	1329.42
389.45	1322.40
389.64	1306.02
389.84	1331.76
390.03	1392.62
390.22	1359.85
390.42	1446.45
390.61	1343.47
390.81	1432.41
391.00	1413.68
391.19	1437.09
391.39	1479.22
391.58	1462.83
391.78	1469.86
391.97	1472.20
392.16	1516.67
392.36	1563.48
392.55	1423.05
392.75	1497.94
392.94	1533.05
393.13	1511.99
393.33	1490.92
393.52	1678.16
393.71	1540.07
393.91	1570.50
394.10	1619.65
394.29	1626.67
394.49	1610.29
394.68	1675.82
394.88	1645.40
395.07	1703.91
395.26	1689.87
395.46	1633.69
395.65	1671.14
395.84	1664.12
396.04	1675.82
396.23	1746.04
396.42	1750.72
396.62	1734.34
396.81	1781.15
397.00	1741.36
397.19	1661.78
397.39	1762.42
397.58	1853.70
397.77	1832.64
397.97	1877.11
398.16	1863.07
398.35	1818.60
398.55	1844.34
398.74	1895.83
398.93	1982.43
399.12	1863.07
399.32	1912.22
399.51	1902.86
399.70	1966.05
399.90	1937.96
400.09	2125.21
400.28	2026.90
400.47	1973.07
400.67	2024.56
400.86	2078.40
401.05	2019.88
401.24	2120.53
401.44	2216.49
401.63	2167.34
401.82	2183.72
402.01	2019.88
402.21	2111.16
402.40	2125.21
402.59	2181.38
402.78	2253.94
402.97	2263.30
403.17	2321.81
403.36	2225.85
403.55	2200.10
403.74	2389.69
403.93	2375.64
404.13	2333.51
404.32	2333.51
404.51	2338.20
404.70	2321.81
404.89	2382.67
405.09	2457.56
405.28	2410.75
405.47	2438.84
405.66	2408.41
405.85	2387.35
406.05	2392.03
406.24	2387.35
406.43	2537.14
406.62	2661.19
406.81	2682.25
407.00	2684.59
407.20	2551.18
407.39	2609.70
407.58	2644.81
407.77	2686.94
407.96	2722.04
408.15	2736.09
408.34	2619.06
408.54	2684.59
408.73	2689.28
408.92	2759.49
409.11	2766.51
409.30	2892.90
409.49	2839.07
409.68	3019.29
409.87	2904.60
410.07	2993.55
410.26	2970.14
410.45	2876.52
410.64	3096.53
410.83	3005.25
411.02	3199.51
411.21	3169.09
411.40	3087.17
411.59	3166.74
411.78	3201.85
411.98	3126.96
412.17	3227.60
412.36	3225.26
412.55	3325.90
412.74	3365.69
412.93	3356.33
413.12	3382.07
413.31	3524.85
413.50	3494.42
413.69	3471.01
413.88	3522.51
414.07	3630.17
414.26	3616.13
414.45	3648.90
414.64	3700.39
414.83	3702.73
415.02	3796.35
415.22	3866.56
415.41	3840.82
415.60	3840.82
415.79	3929.76
415.98	3974.23
416.17	3953.16
416.36	3896.99
416.55	3845.50
416.74	4093.60
416.93	3922.74
417.12	3974.23
417.31	4191.90
417.50	4098.28
417.69	4196.58
417.88	4138.07
418.07	4219.99
418.26	4184.88
418.45	4259.78
418.64	4521.92
418.83	4423.61
419.02	4451.70
419.21	4404.89
419.39	4465.74
419.58	4414.25
419.77	4442.34
419.96	4468.08
420.15	4568.73
420.34	4655.33
420.53	4599.15
420.72	4561.70
420.91	4695.11
421.10	4711.50
421.29	4828.53
421.48	4681.07
421.67	4840.23
421.86	4809.80
422.05	4814.48
422.24	4692.77
422.43	4868.31
422.61	4992.36
422.80	4681.07
422.99	4980.66
423.18	4926.83
423.37	4915.12
423.56	4959.60
423.75	4774.69
423.94	4795.76
424.13	4667.03
424.32	4723.20
424.50	4905.76
424.69	5039.17
424.88	5083.64
425.07	4889.38
425.26	4844.91
425.45	4901.08
425.64	4901.08
425.83	4968.96
426.01	5036.83
426.20	5083.64
426.39	5074.28
426.58	5015.77
426.77	4983.00
426.96	4968.96
427.15	5027.47
427.33	5067.26
427.52	5149.18
427.71	5055.56
427.90	5277.91
428.09	5195.99
428.28	5139.82
428.46	5348.12
428.65	5364.51
428.84	5486.22
429.03	5467.49
429.22	5289.61
429.40	5465.15
429.59	5481.53
429.78	5167.90
429.97	5254.50
430.16	5416.00
430.34	5570.48
430.53	5598.56
430.72	5607.92
430.91	5565.79
431.10	5537.71
431.28	5788.14
431.47	5727.29
431.66	5750.70
431.85	5760.06
432.03	5823.25
432.22	5837.30
432.41	5827.93
432.60	5863.04
432.79	5991.77
432.97	6012.84
433.16	5851.34
433.35	5891.13
433.54	6005.81
433.72	5926.24
433.91	5982.41
434.10	6066.67
434.28	6045.60
434.47	6263.27
434.66	6209.44
434.85	6136.88
435.03	6279.66
435.22	6143.91
435.41	6485.62
435.59	6307.74
435.78	6274.98
435.97	6406.05
436.16	6420.09
436.34	6274.98
436.53	6410.73
436.72	6626.06
436.90	6473.92
437.09	6558.18
437.28	6443.49
437.46	6614.35
437.65	6593.29
437.84	6630.74
438.02	6649.46
438.21	6747.76
438.40	6518.39
438.58	6946.71
438.77	6904.58
438.96	6825.00
439.14	7009.90
439.33	7009.90
439.52	7208.85
439.70	7049.69
439.89	7349.28
440.08	7281.41
440.26	7250.98
440.45	7337.58
440.63	7433.54
440.82	7611.42
441.01	7454.61
441.19	7599.72
441.38	7714.41
441.57	7578.65
441.75	7658.23
441.94	7911.01
442.12	7845.48
442.31	7735.47
442.50	8077.19
442.68	8035.06
442.87	7981.23
443.05	8056.12
443.24	8004.63
443.43	8039.74
443.61	8035.06
443.80	8400.18
443.98	7967.18
444.17	7796.32
444.35	8121.66
444.54	8166.13
444.73	8168.47
444.91	8102.93
445.10	8184.85
445.28	8329.97
445.47	8276.13
445.65	8355.71
445.84	8528.91
446.02	8290.18
446.21	8472.74
446.39	8255.07
446.58	8510.19
446.77	8458.70
446.95	8189.53
447.14	8351.03
447.32	8503.17
447.51	8414.23
447.69	8580.40
447.88	8388.48
448.06	8458.70
448.25	8505.51
448.43	8439.97
448.62	8564.02
448.80	8629.56
448.99	8571.04
449.17	8620.19
449.36	8732.54
449.54	8777.01
449.73	8985.32
449.91	8840.20
450.10	8823.82
450.28	9041.49
450.46	9029.79
450.65	9090.64
450.83	9132.77
451.02	8959.57
451.20	9107.02
451.39	9067.24
451.57	9210.01
451.76	8997.02
451.94	9060.21
452.13	9247.46
452.31	9324.69
452.49	9256.82
452.68	9254.48
452.86	9287.25
453.05	9432.36
453.23	9322.35
453.42	9163.20
453.60	9247.46
453.78	9383.21
453.97	9575.13
454.15	9467.47
454.34	9266.18
454.52	9617.26
454.70	9652.37
454.89	9776.42
455.07	9776.42
455.26	9736.63
455.44	9818.55
455.62	9827.91
455.81	9762.37
455.99	9813.87
456.17	9916.85
456.36	9973.02
456.54	10064.30
456.73	10188.35
456.91	10216.44
457.09	10274.95
457.28	10448.15
457.46	10265.59
457.64	10567.52
457.83	10296.02
458.01	10429.43
458.19	10431.77
458.38	10452.83
458.56	10691.57
458.74	10399.00
458.93	10436.45
459.11	10403.68
459.29	10576.88
459.48	10846.04
459.66	10548.79
459.84	10829.66
460.03	11014.56
460.21	10841.36
460.39	10806.25
460.57	10958.39
460.76	10857.75
460.94	11122.23
461.12	11061.37
461.31	11150.31
461.49	11028.60
461.67	11119.89
461.85	11206.48
462.04	11262.66
462.22	11672.25
462.40	11487.35
462.59	11449.90
462.77	11384.37
462.95	11702.68
463.13	11482.67
463.32	11669.91
463.50	11606.72
463.68	11847.79
463.86	11719.06
464.05	11454.58
464.23	11506.07
464.41	11726.08
464.59	11775.24
464.78	11943.75
464.96	12119.29
465.14	11878.22
465.32	12126.32
465.50	11953.12
465.69	11901.62
465.87	11936.73
466.05	11969.50
466.23	11880.56
466.41	11974.18
466.60	12266.75
466.78	11995.25
466.96	11997.59
467.14	12248.02
467.32	12245.68
467.51	12372.07
467.69	12231.64
467.87	12659.96
468.05	12259.73
468.23	12238.66
468.41	12437.61
468.60	12435.27
468.78	12573.36
468.96	12334.62
469.14	12638.89
469.32	12791.03
469.50	12615.49
469.69	12723.15
469.87	13008.70
470.05	12849.54
470.23	13284.88
470.41	12746.56
470.59	13315.31
470.77	13263.82
470.95	13174.88
471.14	13392.55
471.32	13149.13
471.50	13415.95
471.68	13352.76
471.86	13514.25
472.04	13668.73
472.22	14054.92
472.40	13877.04
472.58	13654.69
472.77	13547.02
472.95	13968.32
473.13	14579.20
473.31	13965.98
473.49	14052.58
473.67	13989.38
473.85	14307.69
474.03	14452.81
474.21	14436.42
474.39	14558.13
474.57	14817.93
474.75	14380.25
474.93	14820.27
475.12	14831.97
475.30	15243.91
475.48	14867.08
475.66	15140.93
475.84	15066.03
476.02	15307.10
476.20	15351.57
476.38	15604.35
476.56	15910.96
476.74	15735.42
476.92	15824.36
477.10	15896.92
477.28	16498.44
477.46	16020.97
477.64	16180.12
477.82	16414.18
478.00	16821.43
478.18	16744.19
478.36	16856.54
478.54	16994.63
478.72	17160.81
478.90	17132.72
479.08	17575.08
479.26	17872.33
479.44	17649.98
479.62	17851.27
479.80	18153.20
479.98	18085.32
480.16	18146.17
480.34	18003.40
480.52	18471.51
480.70	18457.46
480.88	18244.48
481.06	18565.13
481.24	18787.48
481.41	19002.81
481.59	19365.59
481.77	19147.92
481.95	19592.62
482.13	19599.65
482.31	19487.30
482.49	20226.91
482.67	19971.79
482.85	20149.67
483.03	20236.27
483.21	20723.10
483.39	20702.04
483.57	20402.45
483.74	21015.67
483.92	21298.88
484.10	20823.75
484.28	21544.63
484.46	21830.18
484.64	22111.04
484.82	22022.10
485.00	22258.49
485.18	22508.93
485.35	22911.50
485.53	22553.40
485.71	22754.69
485.89	23531.75
486.07	23143.22
486.25	23190.03
486.43	23194.71
486.61	23309.40
486.78	23852.40
486.96	23871.12
487.14	25039.05
487.32	24037.30
487.50	24702.01
487.68	25158.42
487.85	25130.33
488.03	25266.08
488.21	25287.15
488.39	25816.11
488.57	25869.94
488.75	26251.45
488.92	26473.80
489.10	26848.29
489.28	26597.85
489.46	26981.70
489.64	26962.97
489.81	26906.80
489.99	27566.83
490.17	27662.79
490.35	28077.07
490.53	27854.72
490.70	28456.23
490.88	28266.65
491.06	28666.88
491.24	28587.30
491.41	28929.02
491.59	29242.65
491.77	29137.33
491.95	29556.28
492.13	29263.72
492.30	29818.42
492.48	29881.62
492.66	30024.39
492.84	30300.58
493.01	30614.21
493.19	30471.43
493.37	30789.75
493.54	30885.71
493.72	31250.83
493.90	31168.91
494.08	31587.87
494.25	31527.02
494.43	31702.56
494.61	31857.03
494.79	32507.70
494.96	32357.91
495.14	32311.10
495.32	33113.90
495.49	32818.99
495.67	33205.18
495.85	33413.49
496.02	33656.90
496.20	34132.03
496.38	33895.64
496.55	33893.30
496.73	34616.52
496.91	34312.25
497.09	34895.05
497.26	34820.15
497.44	34838.87
497.62	34972.28
497.79	35276.55
497.97	35337.41
498.14	35681.47
498.32	35550.40
498.50	36102.76
498.67	36561.51
498.85	36329.80
499.03	36463.21
499.20	36430.44
499.38	36608.32
499.56	36636.41
499.73	37078.77
499.91	36811.95
500.08	37731.78
500.26	37055.36
500.44	37488.36
500.61	37539.85
500.79	37504.74
500.97	37787.95
501.14	37930.72
501.32	38258.40
501.49	38148.39
501.67	38387.13
501.84	38602.46
502.02	38611.82
502.20	39007.37
502.37	38787.36
502.55	39260.15
502.72	39129.08
502.90	39220.36
503.07	39374.83
503.25	39550.37
503.43	39587.82
503.60	39861.66
503.78	40023.16
503.95	40217.43
504.13	40325.09
504.30	40737.02
504.48	40147.21
504.65	40545.10
504.83	40765.11
505.01	40907.88
505.18	41113.85
505.36	41600.68
505.53	40992.14
505.71	41429.82
505.88	41574.94
506.06	41287.05
506.23	42148.37
506.41	41486.00
506.58	42225.60
506.76	41893.25
506.93	42382.42
507.11	41933.04
507.28	42356.67
507.46	42492.43
507.63	42541.58
507.81	42951.17
507.98	42586.05
508.16	42595.41
508.33	42810.74
508.50	43157.14
508.68	43435.66
508.85	43512.90
509.03	43693.12
509.20	43573.75
509.38	43995.05
509.55	44250.17
509.73	43791.42
509.90	44133.14
510.08	44142.50
510.25	44329.75
510.42	44535.71
510.60	44631.68
510.77	44919.56
510.95	45059.99
511.12	44673.81
511.30	44872.75
511.47	45268.30
511.64	45432.14
511.82	45188.72
511.99	45109.14
512.17	45734.07
512.34	45551.51
512.51	45729.39
512.69	45890.88
512.86	46518.15
513.04	46241.96
513.21	46080.47
513.38	46464.32
513.56	46569.64
513.73	46689.01
513.90	47049.45
514.08	46410.48
514.25	46770.93
514.43	46696.03
514.60	47058.81
514.77	47178.18
514.95	47400.53
515.12	47150.09
515.29	47084.56
515.47	47599.47
515.64	47819.49
515.81	47051.79
515.99	48048.86
516.16	47976.30
516.33	48041.84
516.51	48147.16
516.68	48090.99
516.85	47831.19
517.03	48706.55
517.20	48582.50
517.37	48388.24
517.54	48406.96
517.72	48601.22
517.89	48795.49
518.06	48954.64
518.24	49024.86
518.41	48910.17
518.58	49207.42
518.75	49326.79
518.93	48942.94
519.10	49165.29
519.27	49801.92
519.45	49385.30
519.62	49677.87
519.79	49443.82
519.96	49815.96
520.14	49900.22
520.31	49705.96
520.48	49979.80
520.65	50363.65
520.83	50508.76
521.00	50356.63
521.17	50361.31
521.34	50506.42
521.52	50630.47
521.69	50672.60
521.86	50674.94
522.03	50965.17
522.20	50901.97
522.38	51157.09
522.55	50911.33
522.72	51253.05
522.89	51306.88
523.07	51299.86
523.24	51285.82
523.41	51578.39
523.58	51196.88
523.75	51751.59
523.92	51517.53
524.10	51657.96
524.27	51707.12
524.44	51877.97
524.61	52025.43
524.78	52170.54
524.96	51480.08
525.13	52060.54
525.30	52168.20
525.47	52437.36
525.64	52055.85
525.81	52339.06
525.98	52528.64
526.16	52289.91
526.33	52519.28
526.50	52882.06
526.67	52626.95
526.84	52538.01
527.01	52439.70
527.18	52692.48
527.36	52671.42
527.53	52762.70
527.70	53207.40
527.87	53048.24
528.04	52851.64
528.21	53048.24
528.38	52954.62
528.55	53399.32
528.72	52804.83
528.89	52978.03
529.07	53277.61
529.24	53317.40
529.41	53530.39
529.58	53626.35
529.75	53457.84
529.92	53499.97
530.09	53516.35
530.26	53404.00
530.43	53694.23
530.60	53558.48
530.77	53638.06
530.94	53785.51
531.11	54026.59
531.28	53909.56
531.46	54204.47
531.63	53914.24
531.80	54244.26
531.97	54244.26
532.14	54391.71
532.31	54482.99
532.48	54234.89
532.65	54438.52
532.82	54370.64
532.99	54492.35
533.16	54644.49
533.33	54574.27
533.50	54597.68
533.67	54527.46
533.84	54557.89
534.01	54656.19
534.18	54485.33
534.35	55075.15
534.52	54890.24
534.69	54787.26
534.86	55267.07
535.03	54766.20
535.20	55255.37
535.37	55114.94
535.54	55292.82
535.71	55018.97
535.88	55114.94
536.05	55236.64
536.22	55196.85
536.38	55306.86
536.55	55671.98
536.72	55267.07
536.89	55440.27
537.06	55627.51
537.23	55576.02
537.40	55229.62
537.57	55569.00
537.74	55571.34
537.91	55845.18
538.08	55664.96
538.25	55412.18
538.42	55468.36
538.59	56034.77
538.75	55749.22
538.92	55814.76
539.09	55987.95
539.26	55760.92
539.43	55889.65
539.60	56252.44
539.77	55873.27
539.94	56259.46
540.11	56217.33
540.28	56200.94
540.44	56317.97
540.61	56156.47
540.78	56313.29
540.95	56456.06
541.12	56322.65
541.29	56121.37
541.46	56371.80
541.62	56411.59
541.79	56498.19
541.96	56233.71
542.13	56306.27
542.30	56371.80
542.47	56638.62
542.63	56603.52
542.80	56669.05
542.97	56907.79
543.14	57240.14
543.31	57024.81
543.48	56949.92
543.64	57167.58
543.81	57315.04
543.98	57076.30
544.15	57237.80
544.32	57364.19
544.48	57169.93
544.65	57226.10
544.82	57153.54
544.99	57193.33
545.16	57350.15
545.32	57013.11
545.49	57373.55
545.66	57408.66
545.83	57420.36
546.00	57579.52
546.16	57394.62
546.33	57289.29
546.50	57385.25
546.67	57476.54
546.83	57244.82
547.00	57490.58
547.17	57586.54
547.34	57532.71
547.50	57703.57
547.67	57811.23
547.84	57921.24
548.00	57640.37
548.17	58134.23
548.34	57726.97
548.51	57797.19
548.67	58056.99
548.84	57923.58
549.01	58061.67
549.18	58143.59
549.34	58110.82
549.51	58244.23
549.68	58258.27
549.84	58319.13
550.01	58202.10
550.18	58218.49
550.34	58471.26
550.51	58422.11
550.68	58333.17
550.84	58155.29
551.01	58368.28
551.18	58361.26
551.34	58365.94
551.51	58518.07
551.68	58475.94
551.84	58501.69
552.01	58232.53
552.18	58487.65
552.34	58382.32
552.51	58576.59
552.68	58508.71
552.84	58562.54
553.01	58990.86
553.18	58581.27
553.34	58967.46
553.51	58614.04
553.67	58745.11
553.84	58791.92
554.01	58887.88
554.17	58721.70
554.34	58747.45
554.51	58834.05
554.67	58979.16
554.84	58773.19
555.00	58714.68
555.17	58866.81
555.33	58782.55
555.50	58602.33
555.67	58997.88
555.83	58894.90
556.00	58960.44
556.16	59505.78
556.33	59032.99
556.50	58934.69
556.66	59276.41
556.83	58843.41
556.99	59185.13
557.16	59353.65
557.32	59379.39
557.49	59540.89
557.65	59281.09
557.82	59337.26
557.98	59255.34
558.15	59206.19
558.32	59428.54
558.48	59112.57
558.65	59288.11
558.81	59192.15
558.98	59295.13
559.14	59428.54
559.31	59473.01
559.47	59395.77
559.64	59484.72
559.80	59643.87
559.97	59512.80
560.13	59454.29
560.30	59435.56
560.46	59718.77
560.63	59526.84
560.79	59398.12
560.96	59524.50
561.12	59800.69
561.29	59660.26
561.45	59688.34
561.61	59693.02
561.78	59536.21
561.94	59721.11
562.11	59777.28
562.27	59887.29
562.44	59737.49
562.60	59934.10
562.77	59716.43
562.93	59526.84
563.10	59875.58
563.26	59749.20
563.42	59983.25
563.59	59817.07
563.75	59917.71
563.92	59894.31
564.08	60032.40
564.24	60006.65
564.41	60062.83
564.57	60114.32
564.74	59994.95
564.90	59990.27
565.07	59948.14
565.23	59779.62
565.39	59945.80
565.56	60013.68
565.72	59793.67
565.88	60009.00
566.05	59969.21
566.21	60016.02
566.38	59990.27
566.54	60126.02
566.70	60189.22
566.87	60062.83
567.03	60142.41
567.19	60182.19
567.36	60116.66
567.52	60147.09
567.68	60360.08
567.85	60172.83
568.01	60306.24
568.17	60095.60
568.34	60123.68
568.50	60175.17
568.66	60062.83
568.83	60416.25
568.99	60397.52
569.15	60217.30
569.32	60229.01
569.48	60161.13
569.64	60303.90
569.81	60430.29
569.97	60322.63
570.13	60341.35
570.30	59973.89
570.46	60168.15
570.62	60411.57
570.78	60182.19
570.95	60299.22
571.11	60477.10
571.27	60238.37
571.43	60367.10
571.60	60519.23
571.76	60317.95
571.92	60294.54
572.09	60289.86
572.25	60369.44
572.41	60341.35
572.57	60444.33
572.74	60477.10
572.90	60474.76
573.06	60420.93
573.22	60495.83
573.38	60598.81
573.55	60477.10
573.71	60512.21
573.87	60559.02
574.03	60441.99
574.20	60535.62
574.36	60348.37
574.52	60591.79
574.68	60720.52
574.84	60376.46
575.01	60774.35
575.17	60547.32
575.33	60650.30
575.49	60479.44
575.65	60767.33
575.82	60638.60
575.98	60788.39
576.14	61003.72
576.30	60764.99
576.46	60788.39
576.62	60610.51
576.79	60636.26
576.95	60523.91
577.11	60598.81
577.27	60566.04
577.43	60629.24
577.59	60568.38
577.75	60540.30
577.92	60479.44
578.08	60678.39
578.24	60582.43
578.40	60900.74
578.56	60624.56
578.72	60767.33
578.88	60802.44
579.04	60643.28
579.21	60690.09
579.37	60678.39
579.53	60968.61
579.69	60638.60
579.85	60741.58
580.01	60720.52
580.17	60802.44
580.33	60823.50
580.49	60933.51
580.65	60821.16
580.82	60743.92
580.98	60746.26
581.14	60615.19
581.30	60968.61
581.46	60694.77
581.62	60680.73
581.78	60631.58
581.94	60704.13
582.10	60727.54
582.26	60596.47
582.42	60678.39
582.58	60769.67
582.74	60774.35
582.90	60736.90
583.06	60746.26
583.22	60654.98
583.38	60825.84
583.54	60711.16
583.70	60753.29
583.86	60846.91
584.02	60795.42
584.18	60711.16
584.34	60825.84
584.50	60788.39
584.66	60764.99
584.82	60598.81
584.98	60975.64
585.14	60940.53
585.30	60638.60
585.46	60849.25
585.62	60851.59
585.78	61134.79
585.94	60687.75
586.10	60832.86
586.26	60987.34
586.42	60928.83
586.58	60982.66
586.74	60963.93
586.90	60942.87
587.06	60814.14
587.22	60959.25
587.38	60884.36
587.54	61017.77
587.70	60973.30
587.86	60884.36
588.02	61015.43
588.18	61087.98
588.34	60676.05
588.49	60893.72
