SpectraSuite Data File
++++++++++++++++++++++++++++++++++++
Date: Fri Oct 25 10:44:46 EDT 2013
User: price-jones
Dark Spectrum Present: No
Reference Spectrum Present: No
Number of Sampled Component Spectra: 1
Spectrometers: USB2+H05261
Integration Time (usec): 100000 (USB2+H05261)
Spectra Averaged: 1 (USB2+H05261)
Boxcar Smoothing: 0 (USB2+H05261)
Correct for Electrical Dark: No (USB2+H05261)
Strobe/Lamp Enabled: No (USB2+H05261)
Correct for Detector Non-linearity: No (USB2+H05261)
Correct for Stray Light: No (USB2+H05261)
Number of Pixels in Processed Spectrum: 2048
>>>>>Begin Processed Spectral Data<<<<<
365.73	100.64
365.92	100.64
366.12	100.64
366.32	56.17
366.52	25.75
366.72	58.51
366.91	65.54
367.11	28.09
367.31	9.36
367.51	0.00
367.70	0.00
367.90	58.51
368.10	11.70
368.30	18.72
368.49	42.13
368.69	77.24
368.89	58.51
369.09	11.70
369.28	56.17
369.48	98.30
369.68	86.60
369.87	63.19
370.07	121.71
370.27	93.62
370.47	170.86
370.66	421.30
370.86	386.19
371.06	390.87
371.25	484.49
371.45	442.36
371.65	451.72
371.84	362.78
372.04	463.43
372.24	428.32
372.44	461.09
372.63	477.47
372.83	482.15
373.03	557.05
373.22	458.74
373.42	510.24
373.62	564.07
373.81	491.51
374.01	582.79
374.21	491.51
374.40	484.49
374.60	519.60
374.79	465.77
374.99	545.34
375.19	587.47
375.38	543.00
375.58	526.62
375.78	547.69
375.97	482.15
376.17	648.33
376.37	596.84
376.56	664.71
376.76	573.43
376.95	505.56
377.15	601.52
377.35	538.32
377.54	653.01
377.74	648.33
377.93	543.00
378.13	550.03
378.33	692.80
378.52	641.31
378.72	580.45
378.91	613.22
379.11	631.94
379.31	671.73
379.50	573.43
379.70	697.48
379.89	613.22
380.09	688.12
380.28	636.63
380.48	650.67
380.68	559.39
380.87	653.01
381.07	582.79
381.26	723.23
381.46	753.65
381.65	648.33
381.85	683.44
382.04	641.31
382.24	683.44
382.43	683.44
382.63	655.35
382.83	575.77
383.02	727.91
383.22	688.12
383.41	662.37
383.61	634.29
383.80	737.27
384.00	655.35
384.19	720.88
384.39	711.52
384.58	720.88
384.78	648.33
384.97	725.57
385.17	774.72
385.36	704.50
385.56	844.93
385.75	706.84
385.95	716.20
386.14	739.61
386.34	844.93
386.53	741.95
386.72	727.91
386.92	760.67
387.11	755.99
387.31	870.68
387.50	725.57
387.70	744.29
387.89	842.59
388.09	809.83
388.28	978.34
388.48	887.06
388.67	854.30
388.86	851.96
389.06	858.98
389.25	908.13
389.45	929.19
389.64	952.60
389.84	1001.75
390.03	947.92
390.22	987.71
390.42	896.43
390.61	866.00
390.81	889.40
391.00	926.85
391.19	987.71
391.39	936.21
391.58	863.66
391.78	896.43
391.97	997.07
392.16	924.51
392.36	1001.75
392.55	971.32
392.75	983.02
392.94	905.79
393.13	870.68
393.33	968.98
393.52	999.41
393.71	990.05
393.91	940.90
394.10	1025.15
394.29	1001.75
394.49	1083.67
394.68	1067.28
394.88	1048.56
395.07	1118.78
395.26	1203.04
395.46	1235.80
395.65	1247.51
395.84	1156.22
396.04	1217.08
396.23	1125.80
396.42	1100.05
396.62	1086.01
396.81	1163.25
397.00	1172.61
397.19	1146.86
397.39	1200.69
397.58	1228.78
397.77	1184.31
397.97	1261.55
398.16	1299.00
398.35	1320.06
398.55	1217.08
398.74	1287.29
398.93	1397.30
399.12	1315.38
399.32	1334.11
399.51	1427.73
399.70	1458.15
399.90	1357.51
400.09	1336.45
400.28	1458.15
400.47	1481.56
400.67	1451.13
400.86	1378.58
401.05	1441.77
401.24	1511.99
401.44	1563.48
401.63	1420.71
401.82	1462.83
402.01	1530.71
402.21	1533.05
402.40	1561.14
402.59	1603.27
402.78	1600.93
402.97	1572.84
403.17	1621.99
403.36	1572.84
403.55	1542.41
403.74	1685.19
403.93	1619.65
404.13	1645.40
404.32	1652.42
404.51	1603.27
404.70	1795.19
404.89	1724.97
405.09	1753.06
405.28	1722.63
405.47	1706.25
405.66	1802.21
405.85	1820.94
406.05	1717.95
406.24	1858.39
406.43	1764.76
406.62	1809.23
406.81	1853.70
407.00	1778.81
407.20	1743.70
407.39	1881.79
407.58	1886.47
407.77	1947.33
407.96	2012.86
408.15	2043.29
408.34	1907.54
408.54	1987.11
408.73	1966.05
408.92	1984.77
409.11	1994.14
409.30	1984.77
409.49	2029.24
409.68	2150.95
409.87	2062.01
410.07	2099.46
410.26	2136.91
410.45	2120.53
410.64	2148.61
410.83	2235.21
411.02	2186.06
411.21	2363.94
411.40	2335.85
411.59	2310.11
411.78	2293.72
411.98	2310.11
412.17	2443.52
412.36	2375.64
412.55	2403.73
412.74	2462.24
412.93	2462.24
413.12	2401.39
413.31	2546.50
413.50	2583.95
413.69	2408.41
413.88	2651.83
414.07	2555.86
414.26	2682.25
414.45	2682.25
414.64	2722.04
414.83	2743.11
415.02	2717.36
415.22	2717.36
415.41	2785.24
415.60	2808.64
415.79	2792.26
415.98	2895.24
416.17	2906.95
416.36	3012.27
416.55	2818.00
416.74	3087.17
416.93	2892.90
417.12	2991.20
417.31	2972.48
417.50	2998.23
417.69	3119.93
417.88	3126.96
418.07	3068.44
418.26	3131.64
418.45	3164.40
418.64	3180.79
418.83	3325.90
419.02	3194.83
419.21	3225.26
419.39	3119.93
419.58	3148.02
419.77	3110.57
419.96	3239.30
420.15	3353.99
420.34	3330.58
420.53	3321.22
420.72	3421.86
420.91	3379.73
421.10	3581.02
421.29	3583.36
421.48	3426.54
421.67	3428.88
421.86	3454.63
422.05	3412.50
422.24	3433.57
422.43	3510.80
422.61	3452.29
422.80	3478.04
422.99	3545.91
423.18	3543.57
423.37	3632.51
423.56	3585.70
423.75	3545.91
423.94	3581.02
424.13	3330.58
424.32	3478.04
424.50	3599.74
424.69	3602.08
424.88	3634.85
425.07	3545.91
425.26	3492.08
425.45	3489.74
425.64	3538.89
425.83	3604.42
426.01	3735.50
426.20	3667.62
426.39	3569.32
426.58	3581.02
426.77	3543.57
426.96	3559.95
427.15	3653.58
427.33	3627.83
427.52	3686.34
427.71	3744.86
427.90	3777.62
428.09	3904.01
428.28	3854.86
428.46	3808.05
428.65	3798.69
428.84	4074.87
429.03	3997.64
429.22	3861.88
429.40	3852.52
429.59	3758.90
429.78	3660.60
429.97	3595.06
430.16	3819.75
430.34	3885.29
430.53	3983.59
430.72	3880.61
430.91	4081.89
431.10	3978.91
431.28	4133.39
431.47	4147.43
431.66	4154.45
431.85	4049.13
432.03	4046.79
432.22	4257.43
432.41	4018.70
432.60	4098.28
432.79	4217.65
432.97	4262.12
433.16	4430.63
433.35	4154.45
433.54	4332.33
433.72	4311.27
433.91	4294.88
434.10	4332.33
434.28	4411.91
434.47	4465.74
434.66	4517.23
434.85	4517.23
435.03	4547.66
435.22	4386.16
435.41	4739.58
435.59	4720.86
435.78	4657.67
435.97	4706.82
436.16	4580.43
436.34	4498.51
436.53	4741.93
436.72	4791.08
436.90	4664.69
437.09	4629.58
437.28	4631.92
437.46	4770.01
437.65	4723.20
437.84	4861.29
438.02	4695.11
438.21	4704.48
438.40	4540.64
438.58	4835.55
438.77	5006.41
438.96	4861.29
439.14	5114.07
439.33	4994.70
439.52	5172.58
439.70	5036.83
439.89	5165.56
440.08	5093.01
440.26	5174.92
440.45	5259.18
440.63	5254.50
440.82	5423.02
441.01	5322.38
441.19	5280.25
441.38	5401.96
441.57	5479.19
441.75	5509.62
441.94	5692.18
442.12	5771.76
442.31	5680.48
442.50	5778.78
442.68	5605.58
442.87	5533.03
443.05	5659.42
443.24	5825.59
443.43	5809.21
443.61	5849.00
443.80	5937.94
443.98	5713.25
444.17	5523.66
444.35	5776.44
444.54	5996.45
444.73	5994.11
444.91	5872.40
445.10	5909.85
445.28	5797.51
445.47	5895.81
445.65	5949.64
445.84	5827.93
446.02	6073.69
446.21	5898.15
446.39	5944.96
446.58	6092.41
446.77	5991.77
446.95	5977.73
447.14	6162.63
447.32	6225.82
447.51	6019.86
447.69	6008.16
447.88	6129.86
448.06	5865.38
448.25	6005.81
448.43	6085.39
448.62	6001.13
448.80	5919.21
448.99	6111.14
449.17	6298.38
449.36	6235.19
449.54	6277.32
449.73	6338.17
449.91	6296.04
450.10	6422.43
450.28	6576.91
450.46	6410.73
450.65	6497.33
450.83	6361.58
451.02	6413.07
451.20	6338.17
451.39	6626.06
451.57	6408.39
451.76	6698.61
451.94	6392.00
452.13	6619.04
452.31	6420.09
452.49	6354.55
452.68	6445.84
452.86	6551.16
453.05	6506.69
453.23	6670.53
453.42	6537.12
453.60	6630.74
453.78	6583.93
453.97	6562.86
454.15	6452.86
454.34	6651.80
454.52	6974.80
454.70	6789.89
454.89	6927.99
455.07	6986.50
455.26	6972.46
455.44	7187.79
455.62	7098.84
455.81	7030.97
455.99	7075.44
456.17	7042.67
456.36	6991.18
456.54	7272.04
456.73	7204.17
456.91	7428.86
457.09	7398.43
457.28	7489.71
457.46	7279.07
457.64	7463.97
457.83	7487.37
458.01	7368.01
458.19	7571.63
458.38	7363.33
458.56	7611.42
458.74	7576.31
458.93	7716.75
459.11	7463.97
459.29	7510.78
459.48	7632.49
459.66	7393.75
459.84	7658.23
460.03	7889.95
460.21	7859.52
460.39	7712.07
460.57	7735.47
460.76	7651.21
460.94	7854.84
461.12	7770.58
461.31	7896.97
461.49	7779.94
461.67	7611.42
461.85	8032.72
462.04	8004.63
462.22	8255.07
462.40	7922.71
462.59	8121.66
462.77	8074.85
462.95	8222.30
463.13	8067.83
463.32	8124.00
463.50	8056.12
463.68	8262.09
463.86	8051.44
464.05	8065.49
464.23	8002.29
464.41	8241.03
464.59	8067.83
464.78	8348.69
464.96	8269.11
465.14	8154.43
465.32	8266.77
465.50	8339.33
465.69	8477.42
465.87	8475.08
466.05	8369.76
466.23	8547.64
466.41	8276.13
466.60	8615.51
466.78	8318.26
466.96	8376.78
467.14	8425.93
467.32	8645.94
467.51	8730.20
467.69	8278.47
467.87	8648.28
468.05	8526.57
468.23	8699.77
468.41	8669.34
468.60	8830.84
468.78	8830.84
468.96	8746.58
469.14	8784.03
469.32	8840.20
469.50	8849.57
469.69	8872.97
469.87	8821.48
470.05	8889.35
470.23	9315.33
470.41	9050.85
470.59	9160.86
470.77	9200.65
470.95	9064.89
471.14	9277.88
471.32	9146.81
471.50	9427.68
471.68	9530.66
471.86	9280.22
472.04	9570.45
472.22	9439.38
472.40	9130.43
472.58	9514.28
472.77	9516.62
472.95	9671.09
473.13	9867.70
473.31	9673.43
473.49	9643.01
473.67	9612.58
473.85	9745.99
474.03	10036.22
474.21	9949.62
474.39	10263.25
474.57	10066.64
474.75	10012.81
474.93	10202.40
475.12	10146.22
475.30	10305.38
475.48	10094.73
475.66	10359.21
475.84	10197.71
476.02	10263.25
476.20	10527.73
476.38	10876.47
476.56	10789.87
476.74	10883.49
476.92	10626.03
477.10	10801.57
477.28	11075.42
477.46	11007.54
477.64	11169.04
477.82	11349.26
478.00	11583.31
478.18	11585.65
478.36	11332.87
478.54	11599.70
478.72	11602.04
478.90	11681.61
479.08	12002.27
479.26	11992.90
479.44	11976.52
479.62	12287.81
479.80	12210.57
479.98	12362.71
480.16	12493.78
480.34	12421.22
480.52	12758.26
480.70	12531.23
480.88	12650.60
481.06	12685.70
481.24	12657.62
481.41	12912.74
481.59	13483.83
481.77	13228.71
481.95	12917.42
482.13	13315.31
482.31	13270.84
482.49	13642.98
482.67	13628.94
482.85	13638.30
483.03	13830.23
483.21	13799.80
483.39	14075.98
483.57	14029.17
483.74	14242.16
483.92	14277.27
484.10	14207.05
484.28	14609.62
484.46	14855.38
484.64	14979.43
484.82	14839.00
485.00	14813.25
485.18	14876.44
485.35	15393.70
485.53	14883.47
485.71	15187.74
485.89	15463.92
486.07	15243.91
486.25	15569.24
486.43	15700.31
486.61	15784.57
486.78	16093.52
486.96	16238.64
487.14	16444.60
487.32	16210.55
487.50	16524.18
487.68	16669.30
487.85	17064.85
488.03	17060.16
488.21	17322.30
488.39	17191.23
488.57	17029.74
488.75	17774.03
488.92	17432.31
489.10	17816.16
489.28	18071.28
489.46	18106.38
489.64	18274.90
489.81	18441.08
489.99	18677.48
490.17	18827.27
490.35	18717.26
490.53	18553.43
490.70	18923.23
490.88	18963.02
491.06	19346.87
491.24	19328.14
491.41	19580.92
491.59	19475.60
491.77	19470.92
491.95	19571.56
492.13	19850.08
492.30	19817.32
492.48	20088.82
492.66	19814.98
492.84	20236.27
493.01	20304.15
493.19	20325.21
493.37	20421.17
493.54	20812.04
493.72	20964.18
493.90	20659.91
494.08	21333.98
494.25	21422.92
494.43	21411.22
494.61	21561.02
494.79	21715.49
494.96	21469.73
495.14	21748.26
495.32	22134.45
495.49	22029.12
495.67	21968.27
495.85	22354.46
496.02	22429.35
496.20	22455.10
496.38	22544.04
496.55	22637.66
496.73	22892.78
496.91	22787.46
497.09	22993.42
497.26	23311.74
497.44	23007.47
497.62	23311.74
497.79	23138.54
497.97	23665.16
498.14	23569.19
498.32	23501.32
498.50	23798.57
498.67	24180.07
498.85	24217.52
499.03	24135.60
499.20	24456.26
499.38	24334.55
499.56	24435.19
499.73	24641.16
499.91	24519.45
500.08	24580.31
500.26	24196.46
500.44	24898.62
500.61	24641.16
500.79	24772.23
500.97	24931.39
501.14	25376.09
501.32	25142.03
501.49	25413.54
501.67	25336.30
501.84	25647.59
502.02	25579.71
502.20	25614.82
502.37	25781.00
502.55	26169.53
502.72	25970.58
502.90	26368.48
503.07	25996.33
503.25	26101.65
503.43	26005.69
503.60	26174.21
503.78	26237.41
503.95	26349.75
504.13	26408.26
504.30	26602.53
504.48	26600.19
504.65	26569.76
504.83	27211.07
505.01	26962.97
505.18	27225.11
505.36	27433.42
505.53	27365.54
505.71	27285.97
505.88	27644.07
506.06	27136.17
506.23	27592.58
506.41	27639.39
506.58	27882.80
506.76	27817.27
506.93	27807.90
507.11	28056.00
507.28	27843.01
507.46	27819.61
507.63	28130.90
507.81	28240.90
507.98	28231.54
508.16	28568.58
508.33	28554.54
508.50	28458.57
508.68	28594.32
508.85	28807.31
509.03	28713.69
509.20	28996.90
509.38	29158.39
509.55	28826.04
509.73	28978.17
509.90	29158.39
510.08	29177.12
510.25	28933.70
510.42	29549.26
510.60	29724.80
510.77	29659.27
510.95	30075.88
511.12	29692.04
511.30	29914.39
511.47	30340.36
511.64	30363.77
511.82	30501.86
511.99	30192.91
512.17	30366.11
512.34	29982.26
512.51	30155.46
512.69	30771.02
512.86	30602.50
513.04	30665.70
513.21	30726.55
513.38	30749.96
513.56	30808.47
513.73	31147.85
513.90	31016.78
514.08	30787.41
514.25	31044.87
514.43	31154.87
514.60	31164.23
514.77	31419.35
514.95	31550.42
515.12	31541.06
515.29	31697.88
515.47	31737.66
515.64	31763.41
515.81	31653.40
515.99	31578.51
516.16	31850.01
516.33	31747.03
516.51	31910.86
516.68	31487.23
516.85	31459.14
517.03	31934.27
517.20	32271.31
517.37	32184.71
517.54	32222.16
517.72	32210.45
517.89	31974.06
518.06	32144.92
518.24	32364.93
518.41	32610.68
518.58	32407.06
518.75	32367.27
518.93	32842.40
519.10	32327.48
519.27	32924.32
519.45	32929.00
519.62	33198.16
519.79	33076.45
519.96	33500.09
520.14	33493.07
520.31	33017.94
520.48	33036.66
520.65	33436.89
520.83	33748.18
521.00	33970.54
521.17	33867.55
521.34	33923.72
521.52	33949.47
521.69	34029.05
521.86	33872.23
522.03	33825.42
522.20	33975.22
522.38	33713.08
522.55	34237.36
522.72	34094.58
522.89	34038.41
523.07	34644.61
523.24	34164.80
523.41	35117.40
523.58	34881.00
523.75	35419.33
523.92	35082.29
524.10	34934.84
524.27	34698.44
524.44	34745.25
524.61	35751.68
524.78	35541.03
524.96	35353.79
525.13	35356.13
525.30	35629.98
525.47	35569.12
525.64	35367.84
525.81	35096.33
525.98	35496.56
526.16	34906.75
526.33	35491.88
526.50	35688.49
526.67	35353.79
526.84	35447.41
527.01	35428.69
527.18	35763.39
527.36	36048.93
527.53	36247.88
527.70	36385.97
527.87	36287.67
528.04	36055.95
528.21	36343.84
528.38	36196.38
528.55	36842.37
528.72	36605.98
528.89	36863.44
529.07	36730.03
529.24	36250.22
529.41	36407.03
529.58	36720.66
529.75	36650.45
529.92	36793.22
530.09	37013.23
530.26	37053.02
530.43	37640.50
530.60	37111.53
530.77	37305.80
530.94	37441.55
531.11	37158.34
531.28	37247.29
531.46	37408.78
531.63	37422.83
531.80	37392.40
531.97	37322.18
532.14	37336.23
532.31	37268.35
532.48	37329.20
532.65	37415.80
532.82	37720.07
532.99	37809.01
533.16	37589.00
533.33	37975.19
533.50	37900.29
533.67	37523.47
533.84	37825.40
534.01	38092.22
534.18	37893.27
534.35	38380.10
534.52	37806.67
534.69	38183.50
534.86	38293.50
535.03	38029.02
535.20	38686.71
535.37	38417.55
535.54	38735.87
535.71	38553.30
535.88	38838.85
536.05	38433.94
536.22	38471.39
536.38	38129.67
536.55	38733.53
536.72	38726.50
536.89	38431.60
537.06	38740.55
537.23	38932.47
537.40	39201.63
537.57	38693.74
537.74	38892.68
537.91	39339.72
538.08	39248.44
538.25	38808.42
538.42	39000.35
538.59	39000.35
538.75	38803.74
538.92	39112.69
539.09	39138.44
539.26	39466.11
539.43	39381.85
539.60	38888.00
539.77	39318.66
539.94	39166.52
540.11	39498.88
540.28	39526.97
540.44	39283.55
540.61	39899.11
540.78	39496.54
540.95	39510.58
541.12	39512.92
541.29	39545.69
541.46	39688.46
541.62	39950.60
541.79	39957.63
541.96	39728.25
542.13	39868.69
542.30	39924.86
542.47	40346.15
542.63	39934.22
542.80	40100.40
542.97	40243.17
543.14	40655.11
543.31	40552.12
543.48	40341.47
543.64	41006.19
543.81	40907.88
543.98	40928.95
544.15	40776.81
544.32	40741.71
544.48	40779.15
544.65	40950.01
544.82	40776.81
544.99	40711.28
545.16	40783.83
545.32	41022.57
545.49	41226.20
545.66	41502.38
545.83	41221.52
546.00	41558.55
546.16	40999.16
546.33	40582.55
546.50	40863.41
546.67	41256.62
546.83	40769.79
547.00	41301.09
547.17	41237.90
547.34	41202.79
547.50	41399.40
547.67	41579.62
547.84	41663.88
548.00	41663.88
548.17	41858.14
548.34	41502.38
548.51	41425.14
548.67	41956.44
548.84	41715.37
549.01	41724.73
549.18	41338.54
549.34	41806.65
549.51	42038.36
549.68	42012.62
549.84	41691.96
550.01	41860.48
550.18	41844.10
550.34	42218.58
550.51	42014.96
550.68	41956.44
550.84	41762.18
551.01	42272.42
551.18	42094.53
551.34	41984.53
551.51	42501.79
551.68	42497.11
551.84	42347.31
552.01	41839.42
552.18	42305.18
552.34	42146.03
552.51	42183.48
552.68	42485.40
552.84	42611.79
553.01	42768.61
553.18	42417.53
553.34	42396.46
553.51	42073.47
553.67	42279.44
553.84	42983.94
554.01	42792.01
554.17	42586.05
554.34	42677.33
554.51	43063.52
554.67	42777.97
554.84	42731.16
555.00	42829.46
555.17	42696.05
555.33	42616.47
555.50	42492.43
555.67	43217.99
555.83	42885.64
556.00	43019.05
556.16	43262.46
556.33	43047.13
556.50	42827.12
556.66	42993.30
556.83	43023.73
556.99	43285.87
557.16	43061.18
557.32	43012.02
557.49	43164.16
557.65	43140.75
557.82	43068.20
557.98	43449.70
558.15	43473.11
558.32	43454.39
558.48	43325.66
558.65	42707.76
558.81	43068.20
558.98	43416.94
559.14	43103.31
559.31	43126.71
559.47	43400.55
559.64	43749.29
559.80	43679.08
559.97	43445.02
560.13	43566.73
560.30	43072.88
560.46	43665.03
560.63	43868.66
560.79	44037.18
560.96	43721.21
561.12	43468.43
561.29	43365.45
561.45	43899.09
561.61	43735.25
561.78	43346.72
561.94	43466.09
562.11	43941.22
562.27	43597.16
562.44	43791.42
562.60	43817.17
562.77	43924.83
562.93	43756.32
563.10	43920.15
563.26	43629.93
563.42	43552.69
563.59	43454.39
563.75	43868.66
563.92	43761.00
564.08	43732.91
564.24	43798.44
564.41	43679.08
564.57	44002.07
564.74	43320.98
564.90	44378.90
565.07	44058.24
565.23	43863.98
565.39	43819.51
565.56	44210.38
565.72	43751.63
565.88	43730.57
566.05	43758.66
566.21	43892.07
566.38	44189.31
566.54	44128.46
566.70	44224.42
566.87	44481.88
567.03	44215.06
567.19	44638.70
567.36	44011.43
567.52	43426.30
567.68	44065.27
567.85	43798.44
568.01	44208.04
568.17	44313.36
568.34	44315.70
568.50	43704.82
568.66	44030.16
568.83	44350.81
568.99	43959.94
569.15	43943.56
569.32	43966.96
569.48	43999.73
569.64	44236.12
569.81	44009.09
569.97	44069.95
570.13	44315.70
570.30	44154.21
570.46	43693.12
570.62	44123.78
570.78	44203.36
570.95	43950.58
571.11	44605.93
571.27	44531.03
571.43	44552.10
571.60	44116.76
571.76	44231.44
571.92	44196.34
572.09	44161.23
572.25	44137.82
572.41	44488.90
572.57	44175.27
572.74	44697.21
572.90	44416.35
573.06	44432.73
573.22	44112.08
573.38	44512.31
573.55	43938.88
573.71	44376.56
573.87	44060.58
574.03	44182.29
574.20	44334.43
574.36	44430.39
574.52	44378.90
574.68	44685.51
574.84	44474.86
575.01	44566.14
575.17	44203.36
575.33	44137.82
575.49	44404.64
575.65	44524.01
575.82	44570.82
575.98	44095.69
576.14	44715.93
576.30	44409.32
576.46	44699.55
576.62	44311.02
576.79	44378.90
576.95	43803.13
577.11	44353.15
577.27	44559.12
577.43	44858.71
577.59	44596.57
577.75	44421.03
577.92	44107.40
578.08	44275.91
578.24	44355.49
578.40	44065.27
578.56	44367.20
578.72	44254.85
578.88	44898.50
579.04	44680.83
579.21	44444.43
579.37	44425.71
579.53	44212.72
579.69	43852.28
579.85	44594.23
580.01	44421.03
580.17	44580.18
580.33	44582.52
580.49	44273.57
580.65	44378.90
580.82	44772.11
580.98	44701.89
581.14	44432.73
581.30	44774.45
581.46	44645.72
581.62	44521.67
581.78	44526.35
581.94	45151.27
582.10	44112.08
582.26	44753.38
582.42	44554.44
582.58	44554.44
582.74	44739.34
582.90	44673.81
583.06	44589.55
583.22	44435.07
583.38	45141.91
583.54	44992.12
583.70	44369.54
583.86	44491.24
584.02	44360.17
584.18	44982.76
584.34	44687.85
584.50	44643.38
584.66	44673.81
584.82	44254.85
584.98	44671.46
585.14	44744.02
585.30	43995.05
585.46	44397.62
585.62	44542.74
585.78	44669.12
585.94	44397.62
586.10	44142.50
586.26	44430.39
586.42	44542.74
586.58	45261.28
586.74	44287.62
586.90	44404.64
587.06	44711.25
587.22	44437.41
587.38	44598.91
587.54	44634.02
587.70	45038.93
587.86	44512.31
588.02	44556.78
588.18	44821.26
588.34	44711.25
588.49	44397.62
588.65	44376.56
588.81	44184.63
588.97	44189.31
589.13	44573.16
589.29	44903.18
589.45	44767.43
589.61	44435.07
589.77	44788.49
589.93	44512.31
590.08	44863.39
590.24	44900.84
