SpectraSuite Data File
++++++++++++++++++++++++++++++++++++
Date: Fri Oct 25 11:25:13 EDT 2013
User: price-jones
Dark Spectrum Present: No
Reference Spectrum Present: No
Number of Sampled Component Spectra: 1
Spectrometers: USB2+H05261
Integration Time (usec): 100000 (USB2+H05261)
Spectra Averaged: 1 (USB2+H05261)
Boxcar Smoothing: 0 (USB2+H05261)
Correct for Electrical Dark: No (USB2+H05261)
Strobe/Lamp Enabled: No (USB2+H05261)
Correct for Detector Non-linearity: No (USB2+H05261)
Correct for Stray Light: No (USB2+H05261)
Number of Pixels in Processed Spectrum: 2048
>>>>>Begin Processed Spectral Data<<<<<
365.73	203.63
365.92	203.63
366.12	203.63
366.32	72.56
366.52	133.41
366.72	114.69
366.91	184.90
367.11	138.09
367.31	79.58
367.51	159.16
367.70	119.37
367.90	81.92
368.10	98.30
368.30	112.35
368.49	46.81
368.69	159.16
368.89	180.22
369.09	187.24
369.28	163.84
369.48	205.97
369.68	180.22
369.87	227.03
370.07	128.73
370.27	306.61
370.47	325.33
370.66	547.69
370.86	641.31
371.06	695.14
371.25	697.48
371.45	664.71
371.65	692.80
371.84	678.76
372.04	676.41
372.24	753.65
372.44	734.93
372.63	734.93
372.83	781.74
373.03	702.16
373.22	781.74
373.42	746.63
373.62	791.10
373.81	716.20
374.01	854.30
374.21	772.38
374.40	807.48
374.60	819.19
374.79	791.10
374.99	873.02
375.19	863.66
375.38	917.49
375.58	877.70
375.78	802.80
375.97	842.59
376.17	821.53
376.37	877.70
376.56	894.08
376.76	819.19
376.95	887.06
377.15	912.81
377.35	875.36
377.54	901.11
377.74	1004.09
377.93	922.17
378.13	957.28
378.33	931.53
378.52	1015.79
378.72	938.55
378.91	917.49
379.11	983.02
379.31	954.94
379.50	973.66
379.70	1022.81
379.89	1029.84
380.09	973.66
380.28	964.30
380.48	999.41
380.68	933.87
380.87	1039.20
381.07	957.28
381.26	1062.60
381.46	968.98
381.65	945.58
381.85	1076.65
382.04	1029.84
382.24	1078.99
382.43	1027.50
382.63	1064.94
382.83	1118.78
383.02	1020.47
383.22	1097.71
383.41	1100.05
383.61	1107.07
383.80	1036.86
384.00	1104.73
384.19	1095.37
384.39	1086.01
384.58	1116.44
384.78	1151.54
384.97	1163.25
385.17	1172.61
385.36	1078.99
385.56	1086.01
385.75	1067.28
385.95	1104.73
386.14	1247.51
386.34	1132.82
386.53	1111.75
386.72	1235.80
386.92	1252.19
387.11	1184.31
387.31	1252.19
387.50	1221.76
387.70	1329.42
387.89	1324.74
388.09	1282.61
388.28	1252.19
388.48	1291.98
388.67	1355.17
388.86	1345.81
389.06	1366.87
389.25	1345.81
389.45	1413.68
389.64	1383.26
389.84	1441.77
390.03	1362.19
390.22	1308.36
390.42	1380.92
390.61	1331.76
390.81	1343.47
391.00	1458.15
391.19	1493.26
391.39	1432.41
391.58	1462.83
391.78	1446.45
391.97	1561.14
392.16	1523.69
392.36	1526.03
392.55	1568.16
392.75	1511.99
392.94	1413.68
393.13	1535.39
393.33	1493.26
393.52	1458.15
393.71	1638.38
393.91	1526.03
394.10	1547.09
394.29	1636.03
394.49	1511.99
394.68	1582.20
394.88	1540.07
395.07	1605.61
395.26	1568.16
395.46	1640.72
395.65	1746.04
395.84	1661.78
396.04	1757.74
396.23	1727.32
396.42	1673.48
396.62	1771.79
396.81	1769.44
397.00	1713.27
397.19	1757.74
397.39	1743.70
397.58	1806.89
397.77	1788.17
397.97	1886.47
398.16	1811.57
398.35	1874.77
398.55	1865.41
398.74	1937.96
398.93	1914.56
399.12	1973.07
399.32	1909.88
399.51	1947.33
399.70	1989.46
399.90	2019.88
400.09	2033.93
400.28	2083.08
400.47	2052.65
400.67	2085.42
400.86	1926.26
401.05	2094.78
401.24	1973.07
401.44	2139.25
401.63	2162.66
401.82	2024.56
402.01	2172.02
402.21	2099.46
402.40	2148.61
402.59	2172.02
402.78	2237.55
402.97	2202.44
403.17	2326.49
403.36	2326.49
403.55	2207.13
403.74	2321.81
403.93	2352.24
404.13	2363.94
404.32	2424.80
404.51	2429.48
404.70	2452.88
404.89	2333.51
405.09	2576.93
405.28	2445.86
405.47	2443.52
405.66	2476.29
405.85	2487.99
406.05	2586.29
406.24	2597.99
406.43	2506.71
406.62	2518.42
406.81	2670.55
407.00	2506.71
407.20	2588.63
407.39	2623.74
407.58	2565.23
407.77	2792.26
407.96	2738.43
408.15	2796.94
408.34	2768.85
408.54	2710.34
408.73	2841.41
408.92	2775.88
409.11	2827.37
409.30	2930.35
409.49	2846.09
409.68	2794.60
409.87	2883.54
410.07	2857.79
410.26	2923.33
410.45	2967.80
410.64	3145.68
410.83	3089.51
411.02	3049.72
411.21	3089.51
411.40	3063.76
411.59	3089.51
411.78	3014.61
411.98	3262.71
412.17	3318.88
412.36	3293.13
412.55	3424.20
412.74	3288.45
412.93	3300.16
413.12	3325.90
413.31	3449.95
413.50	3449.95
413.69	3463.99
413.88	3590.38
414.07	3559.95
414.26	3555.27
414.45	3658.26
414.64	3632.51
414.83	3779.97
415.02	3747.20
415.22	3719.11
415.41	3761.24
415.60	3822.09
415.79	3817.41
415.98	3899.33
416.17	3866.56
416.36	3953.16
416.55	3911.04
416.74	4079.55
416.93	4100.62
417.12	4098.28
417.31	4025.72
417.50	4133.39
417.69	4355.74
417.88	4285.52
418.07	4201.26
418.26	4252.75
418.45	4346.37
418.64	4432.97
418.83	4344.03
419.02	4332.33
419.21	4379.14
419.39	4566.39
419.58	4329.99
419.77	4461.06
419.96	4594.47
420.15	4493.83
420.34	4496.17
420.53	4550.00
420.72	4678.73
420.91	4753.63
421.10	4695.11
421.29	4662.35
421.48	4550.00
421.67	4716.18
421.86	4669.37
422.05	4779.37
422.24	4744.27
422.43	4873.00
422.61	4961.94
422.80	4910.44
422.99	4868.31
423.18	4814.48
423.37	4990.02
423.56	4840.23
423.75	4826.18
423.94	4720.86
424.13	4627.24
424.32	4617.88
424.50	4952.57
424.69	5036.83
424.88	4983.00
425.07	4936.19
425.26	4840.23
425.45	5050.88
425.64	4884.70
425.83	5013.43
426.01	5001.72
426.20	5093.01
426.39	5104.71
426.58	4978.32
426.77	4919.81
426.96	5184.29
427.15	5064.92
427.33	5144.50
427.52	5151.52
427.71	5165.56
427.90	5160.88
428.09	5191.31
428.28	5247.48
428.46	5359.83
428.65	5205.35
428.84	5425.36
429.03	5554.09
429.22	5280.25
429.40	5474.51
429.59	5406.64
429.78	5296.63
429.97	5252.16
430.16	5385.57
430.34	5582.18
430.53	5731.97
430.72	5717.93
430.91	5621.97
431.10	5741.33
431.28	5720.27
431.47	5731.97
431.66	5856.02
431.85	5720.27
432.03	5888.79
432.22	5933.26
432.41	5827.93
432.60	5921.56
432.79	5926.24
432.97	5891.13
433.16	5963.68
433.35	5968.37
433.54	6115.82
433.72	6059.65
433.91	6218.80
434.10	6085.39
434.28	6113.48
434.47	6157.95
434.66	6253.91
434.85	6244.55
435.03	6242.21
435.22	6232.85
435.41	6307.74
435.59	6239.87
435.78	6415.41
435.97	6413.07
436.16	6211.78
436.34	6431.79
436.53	6300.72
436.72	6619.04
436.90	6230.51
437.09	6476.26
437.28	6326.47
437.46	6520.73
437.65	6654.14
437.84	6853.09
438.02	6782.87
438.21	6813.30
438.40	6705.63
438.58	6981.82
438.77	6906.92
438.96	6839.05
439.14	6977.14
439.33	7155.02
439.52	7047.35
439.70	7288.43
439.89	7288.43
440.08	7339.92
440.26	7215.87
440.45	7325.88
440.63	7445.24
440.82	7506.10
441.01	7351.62
441.19	7590.36
441.38	7581.00
441.57	7754.19
441.75	7658.23
441.94	7962.50
442.12	7911.01
442.31	7997.61
442.50	7948.46
442.68	7936.76
442.87	7810.37
443.05	8105.28
443.24	8210.60
443.43	8159.11
443.61	8180.17
443.80	8325.29
443.98	8030.38
444.17	8002.29
444.35	8126.34
444.54	8248.05
444.73	8196.56
444.91	8131.02
445.10	8381.46
445.28	8177.83
445.47	8056.12
445.65	8276.13
445.84	8344.01
446.02	8500.83
446.21	8367.42
446.39	8367.42
446.58	8245.71
446.77	8372.10
446.95	8219.96
447.14	8336.99
447.32	8629.56
447.51	8322.94
447.69	8428.27
447.88	8241.03
448.06	8379.12
448.25	8498.49
448.43	8493.80
448.62	8369.76
448.80	8468.06
448.99	8465.72
449.17	8594.45
449.36	8369.76
449.54	8587.43
449.73	8901.06
449.91	8851.91
450.10	8922.12
450.28	8938.51
450.46	9020.42
450.65	8926.80
450.83	8936.17
451.02	8819.14
451.20	9146.81
451.39	8875.31
451.57	9064.89
451.76	9081.28
451.94	9008.72
452.13	9266.18
452.31	9212.35
452.49	9018.08
452.68	9273.20
452.86	9139.79
453.05	9369.16
453.23	9327.03
453.42	9413.63
453.60	9231.07
453.78	9357.46
453.97	9345.76
454.15	9366.82
454.34	9427.68
454.52	9729.61
454.70	9818.55
454.89	9554.07
455.07	9839.61
455.26	9750.67
455.44	9863.02
455.62	9797.48
455.81	9846.63
455.99	9947.28
456.17	10052.60
456.36	9923.87
456.54	10134.52
456.73	10178.99
456.91	10326.44
457.09	10223.46
457.28	10422.41
457.46	10200.05
457.64	10408.36
457.83	10415.38
458.01	10340.49
458.19	10494.96
458.38	10394.32
458.56	10752.42
458.74	10817.96
458.93	10452.83
459.11	10689.23
459.29	10647.10
459.48	10565.18
459.66	10609.65
459.84	10726.68
460.03	10979.45
460.21	10909.24
460.39	10841.36
460.57	10960.73
460.76	10974.77
460.94	10995.84
461.12	11110.52
461.31	11269.68
461.49	11087.12
461.67	11073.07
461.85	11187.76
462.04	11225.21
462.22	11606.72
462.40	11569.27
462.59	11496.71
462.77	11445.22
462.95	11562.25
463.13	11396.07
463.32	11321.17
463.50	11541.18
463.68	11639.48
463.86	11721.40
464.05	11459.26
464.23	11536.50
464.41	11800.98
464.59	11651.19
464.78	12095.89
464.96	11918.01
465.14	11686.29
465.32	11733.11
465.50	12028.01
465.69	12123.98
465.87	12074.82
466.05	12180.15
466.23	12102.91
466.41	12067.80
466.60	12222.28
466.78	12088.87
466.96	12131.00
467.14	12266.75
467.32	12381.43
467.51	12468.03
467.69	12243.34
467.87	12292.49
468.05	12521.87
468.23	12498.46
468.41	12512.50
468.60	12498.46
468.78	12826.14
468.96	12414.20
469.14	12608.47
469.32	12821.45
469.50	12547.61
469.69	13207.64
469.87	12760.60
470.05	12973.59
470.23	13083.59
470.41	12807.41
470.59	13296.58
470.77	13039.12
470.95	13174.88
471.14	13310.63
471.32	13067.21
471.50	13437.02
471.68	13425.31
471.86	13373.82
472.04	13420.63
472.22	13874.70
472.40	13680.43
472.58	13888.74
472.77	13797.46
472.95	14040.87
473.13	14317.06
473.31	13944.91
473.49	14328.76
473.67	14188.33
473.85	14349.82
474.03	14483.24
474.21	14448.13
474.39	14876.44
474.57	14642.39
474.75	14530.05
474.93	14726.65
475.12	14738.35
475.30	14822.61
475.48	14794.53
475.66	15019.22
475.84	15075.39
476.02	15330.51
476.20	15269.66
476.38	15796.28
476.56	15894.58
476.74	15999.90
476.92	15667.55
477.10	15630.10
477.28	16112.25
477.46	15988.20
477.64	16156.72
477.82	16388.43
478.00	16847.18
478.18	16561.63
478.36	16851.86
478.54	17242.73
478.72	16992.29
478.90	17301.24
479.08	17539.97
479.26	17532.95
479.44	17703.81
479.62	17633.60
479.80	17797.43
479.98	18155.54
480.16	18263.20
480.34	18263.20
480.52	18288.95
480.70	18410.65
480.88	18099.36
481.06	18604.92
481.24	18829.61
481.41	18768.76
481.59	19229.84
481.77	19176.01
481.95	19243.88
482.13	19707.31
482.31	19503.68
482.49	19819.66
482.67	20039.67
482.85	20044.35
483.03	20257.34
483.21	20643.52
483.39	20692.68
483.57	20893.96
483.74	20865.88
483.92	21123.33
484.10	20826.09
484.28	21523.57
484.46	21549.31
484.64	22092.32
484.82	21722.51
485.00	21869.97
485.18	22724.26
485.35	22733.62
485.53	22888.10
485.71	22616.60
485.89	23166.62
486.07	23065.98
486.25	23484.94
486.43	23339.82
486.61	23580.90
486.78	24023.26
486.96	24049.00
487.14	24528.81
487.32	24278.38
487.50	24940.75
487.68	24734.78
487.85	24886.92
488.03	25472.05
488.21	25486.09
488.39	25474.39
488.57	25776.32
488.75	26045.48
488.92	26237.41
489.10	26562.74
489.28	26298.26
489.46	26717.22
489.64	26677.43
489.81	27377.25
489.99	27442.78
490.17	27768.12
490.35	27896.85
490.53	28013.87
490.70	27887.48
490.88	27840.67
491.06	28280.69
491.24	28713.69
491.41	28840.08
491.59	29118.60
491.77	29085.84
491.95	29261.38
492.13	29614.80
492.30	29577.35
492.48	29778.64
492.66	29991.62
492.84	30305.26
493.01	30483.14
493.19	30281.85
493.37	30698.47
493.54	30789.75
493.72	30848.26
493.90	30878.69
494.08	31489.57
494.25	32041.93
494.43	31730.64
494.61	31880.44
494.79	32121.51
494.96	32053.64
495.14	32676.22
495.32	33010.92
495.49	32575.58
495.67	33191.14
495.85	33198.16
496.02	33074.11
496.20	33890.96
496.38	33912.02
496.55	33895.64
496.73	34522.90
496.91	34347.36
497.09	34710.14
497.26	34644.61
497.44	34553.33
497.62	34651.63
497.79	35480.18
497.97	34789.72
498.14	35798.49
498.32	35679.13
498.50	36123.83
498.67	36280.64
498.85	36189.36
499.03	36608.32
499.20	36362.56
499.38	36505.34
499.56	36748.75
499.73	36648.11
499.91	37298.78
500.08	37371.33
500.26	37308.14
500.44	37794.97
500.61	37696.67
500.79	37600.71
500.97	37663.90
501.14	38356.70
501.32	38122.65
501.49	38195.20
501.67	38199.88
501.84	38731.18
502.02	38667.99
502.20	38710.12
502.37	38576.71
502.55	39100.99
502.72	39175.89
502.90	39533.99
503.07	39419.30
503.25	39246.10
503.43	39449.73
503.60	39475.48
503.78	40107.42
503.95	39798.47
504.13	40439.78
504.30	39976.35
504.48	40203.38
504.65	40465.52
504.83	40655.11
505.01	41020.23
505.18	40917.25
505.36	41296.41
505.53	40542.76
505.71	41120.87
505.88	41450.89
506.06	41301.09
506.23	41823.03
506.41	41312.80
506.58	41645.15
506.76	41656.85
506.93	42021.98
507.11	42382.42
507.28	42286.46
507.46	42387.10
507.63	42712.44
507.81	43194.59
507.98	42731.16
508.16	42773.29
508.33	42642.22
508.50	43356.08
508.68	43313.95
508.85	43723.55
509.03	43220.33
509.20	43896.75
509.38	43751.63
509.55	43924.83
509.73	44219.74
509.90	44098.03
510.08	44575.50
510.25	44182.29
510.42	44383.58
510.60	44910.20
510.77	44528.69
510.95	45062.33
511.12	45015.52
511.30	44947.65
511.47	45275.32
511.64	45095.10
511.82	45815.99
511.99	45680.24
512.17	45340.86
512.34	45661.51
512.51	45734.07
512.69	45961.10
512.86	46110.89
513.04	45972.80
513.21	46153.02
513.38	46492.40
513.56	46574.32
513.73	46354.31
513.90	46653.90
514.08	46541.55
514.25	46759.22
514.43	47246.05
514.60	47334.99
514.77	46918.38
514.95	47620.54
515.12	47253.08
515.29	47367.76
515.47	47498.83
515.64	47920.13
515.81	47346.70
515.99	47707.14
516.16	48074.60
516.33	47573.73
516.51	48301.64
516.68	47983.32
516.85	48252.48
517.03	48273.55
517.20	48736.98
517.37	48465.47
517.54	49043.59
517.72	48313.34
517.89	48917.20
518.06	48846.98
518.24	48594.20
518.41	49144.23
518.58	48846.98
518.75	48856.34
518.93	49233.17
519.10	49074.01
519.27	49366.58
519.45	49560.84
519.62	49677.87
519.79	49602.97
519.96	49830.01
520.14	49764.47
520.31	50073.42
520.48	50080.44
520.65	50026.61
520.83	50501.74
521.00	50328.54
521.17	50291.09
521.34	50272.37
521.52	50583.66
521.69	50803.67
521.86	51089.21
522.03	50848.14
522.20	51091.55
522.38	50946.44
522.55	50972.19
522.72	50794.31
522.89	51187.52
523.07	51213.26
523.24	51253.05
523.41	51360.72
523.58	51351.35
523.75	51440.29
523.92	51669.67
524.10	51723.50
524.27	51648.60
524.44	51716.48
524.61	51831.16
524.78	51767.97
524.96	52081.60
525.13	52116.71
525.30	52051.17
525.47	52217.35
525.64	52261.82
525.81	52238.42
525.98	52521.62
526.16	52240.76
526.33	52619.92
526.50	52708.86
526.67	52603.54
526.84	52725.25
527.01	52680.78
527.18	52626.95
527.36	52666.73
527.53	52568.43
527.70	53160.59
527.87	53017.82
528.04	52861.00
528.21	53088.03
528.38	52952.28
528.55	53471.88
528.72	53228.46
528.89	53181.65
529.07	53240.17
529.24	53305.70
529.41	53727.00
529.58	53504.65
529.75	53137.18
529.92	53357.19
530.09	53312.72
530.26	53675.51
530.43	53523.37
530.60	53535.07
530.77	53525.71
530.94	53888.49
531.11	53727.00
531.28	53881.47
531.46	53879.13
531.63	54094.46
531.80	53879.13
531.97	54216.17
532.14	53991.48
532.31	54307.45
532.48	54281.70
532.65	54007.86
532.82	54195.10
532.99	54251.28
533.16	54405.75
533.33	54539.16
533.50	54578.95
533.67	54541.50
533.84	54457.24
534.01	54494.69
534.18	54724.07
534.35	55112.59
534.52	54906.63
534.69	55061.10
534.86	55047.06
535.03	54974.50
535.20	54995.57
535.37	54988.55
535.54	55093.87
535.71	54899.61
535.88	55145.36
536.05	55206.22
536.22	55318.56
536.38	55494.10
536.55	55332.60
536.72	55433.25
536.89	55126.64
537.06	55269.41
537.23	55430.91
537.40	55437.93
537.57	55243.66
537.74	55269.41
537.91	55552.62
538.08	55664.96
538.25	55468.36
538.42	55828.80
538.59	56076.90
538.75	55784.33
538.92	55697.73
539.09	55999.66
539.26	55826.46
539.43	55931.78
539.60	55950.51
539.77	56006.68
539.94	56219.67
540.11	56135.41
540.28	56039.45
540.44	56002.00
540.61	56109.66
540.78	56200.94
540.95	56217.33
541.12	56165.84
541.29	56128.39
541.46	56065.19
541.62	56495.85
541.79	56437.34
541.96	56247.75
542.13	56226.69
542.30	56596.49
542.47	56746.29
542.63	56570.75
542.80	56708.84
542.97	56762.67
543.14	56830.55
543.31	57062.26
543.48	57078.64
543.64	57144.18
543.81	57296.31
543.98	57118.43
544.15	57057.58
544.32	57073.96
544.48	57326.74
544.65	57120.77
544.82	57256.53
544.99	57006.09
545.16	57127.80
545.32	56980.34
545.49	57598.24
545.66	57490.58
545.83	57378.23
546.00	57560.79
546.16	57453.13
546.33	57326.74
546.50	57275.25
546.67	57595.90
546.83	57228.44
547.00	57469.51
547.17	57528.03
547.34	57612.29
547.50	57677.82
547.67	57689.52
547.84	57836.98
548.00	57806.55
548.17	57876.77
548.34	57965.71
548.51	58073.37
548.67	57991.45
548.84	57801.87
549.01	57939.96
549.18	57797.19
549.34	58014.86
549.51	58033.58
549.68	58342.53
549.84	58085.07
550.01	58291.04
550.18	58216.14
550.34	58438.50
550.51	58211.46
550.68	58166.99
550.84	58061.67
551.01	58323.81
551.18	58106.14
551.34	58401.05
551.51	58506.37
551.68	58389.34
551.84	58377.64
552.01	58422.11
552.18	58426.79
552.34	58459.56
552.51	58564.88
552.68	58347.21
552.84	58375.30
553.01	58637.44
553.18	58665.53
553.34	58625.74
553.51	58401.05
553.67	58560.20
553.84	58733.40
554.01	58745.11
554.17	58628.08
554.34	58878.52
554.51	58948.73
554.67	58930.01
554.84	58852.77
555.00	58562.54
555.17	58759.15
555.33	58700.64
555.50	58721.70
555.67	58824.68
555.83	58848.09
556.00	58920.65
556.16	59274.07
556.33	59004.91
556.50	59030.65
556.66	59285.77
556.83	58796.60
556.99	59253.00
557.16	59440.24
557.32	59187.47
557.49	59639.19
557.65	59021.29
557.82	59049.38
557.98	59196.83
558.15	59243.64
558.32	59264.70
558.48	59229.60
558.65	59346.62
558.81	59487.06
558.98	59461.31
559.14	59210.87
559.31	59496.42
559.47	59346.62
559.64	59489.40
559.80	59299.81
559.97	59620.47
560.13	59316.20
560.30	59419.18
560.46	59435.56
560.63	59657.91
560.79	59648.55
560.96	59526.84
561.12	59543.23
561.29	59625.15
561.45	59660.26
561.61	59681.32
561.78	59648.55
561.94	59559.61
562.11	59746.86
562.27	59807.71
562.44	59779.62
562.60	59767.92
562.77	59906.01
562.93	59730.47
563.10	59943.46
563.26	59718.77
563.42	60081.55
563.59	59784.30
563.75	59910.69
563.92	59898.99
564.08	59697.70
564.24	60189.22
564.41	59831.11
564.57	59936.44
564.74	60072.19
564.90	59936.44
565.07	59917.71
565.23	59929.42
565.39	59767.92
565.56	59976.23
565.72	59882.61
565.88	59908.35
566.05	59987.93
566.21	59854.52
566.38	60114.32
566.54	60233.69
566.70	60102.62
566.87	60278.16
567.03	59753.88
567.19	60196.24
567.36	60041.76
567.52	60093.25
567.68	60416.25
567.85	60250.07
568.01	60207.94
568.17	60238.37
568.34	60245.39
568.50	60128.36
568.66	60221.98
568.83	60374.12
568.99	60048.78
569.15	59973.89
569.32	60327.31
569.48	60392.84
569.64	60275.82
569.81	60271.14
569.97	60076.87
570.13	60278.16
570.30	60119.00
570.46	60184.54
570.62	60072.19
570.78	60346.03
570.95	60184.54
571.11	60521.57
571.27	60289.86
571.43	60315.61
571.60	60465.40
571.76	60285.18
571.92	60458.38
572.09	60451.36
572.25	60397.52
572.41	60289.86
572.57	60271.14
572.74	60619.88
572.90	60261.77
573.06	60509.87
573.22	60472.42
573.38	60364.76
573.55	60374.12
573.71	60626.90
573.87	60460.72
574.03	60341.35
574.20	60488.80
574.36	60477.10
574.52	60652.64
574.68	60647.96
574.84	60566.04
575.01	60385.82
575.17	60631.58
575.33	60488.80
575.49	60413.91
575.65	60645.62
575.82	60863.29
575.98	60449.02
576.14	60673.71
576.30	60683.07
576.46	60741.58
576.62	60570.72
576.79	60559.02
576.95	60580.09
577.11	60533.28
577.27	60605.83
577.43	60566.04
577.59	60495.83
577.75	60519.23
577.92	60530.93
578.08	60432.63
578.24	60764.99
578.40	60638.60
578.56	60828.18
578.72	60788.39
578.88	60729.88
579.04	60973.30
579.21	60647.96
579.37	60537.96
579.53	60757.97
579.69	60685.41
579.85	60505.19
580.01	60760.31
580.17	60556.68
580.33	60772.01
580.49	60919.46
580.65	60743.92
580.82	60643.28
580.98	60596.47
581.14	60701.79
581.30	60865.63
581.46	60619.88
581.62	60640.94
581.78	60615.19
581.94	60816.48
582.10	60690.09
582.26	60804.78
582.42	60662.00
582.58	60657.32
582.74	60879.67
582.90	60879.67
583.06	60528.59
583.22	60383.48
583.38	60772.01
583.54	60685.41
583.70	60783.71
583.86	60793.07
584.02	60659.66
584.18	60776.69
584.34	60788.39
584.50	60832.86
584.66	60774.35
584.82	60762.65
584.98	60945.21
585.14	61034.15
585.30	60582.43
585.46	61006.06
585.62	60636.26
585.78	60753.29
585.94	60919.46
586.10	60877.33
586.26	60896.06
586.42	60942.87
586.58	60940.53
586.74	60882.02
586.90	60863.29
587.06	61043.51
587.22	60959.25
587.38	60851.59
587.54	61052.87
587.70	61050.53
587.86	61043.51
588.02	60928.83
588.18	60980.32
588.34	60856.27
588.49	60874.99
