SpectraSuite Data File
++++++++++++++++++++++++++++++++++++
Date: Fri Oct 25 10:43:52 EDT 2013
User: price-jones
Dark Spectrum Present: No
Reference Spectrum Present: No
Number of Sampled Component Spectra: 1
Spectrometers: USB2+H05261
Integration Time (usec): 100000 (USB2+H05261)
Spectra Averaged: 1 (USB2+H05261)
Boxcar Smoothing: 0 (USB2+H05261)
Correct for Electrical Dark: No (USB2+H05261)
Strobe/Lamp Enabled: No (USB2+H05261)
Correct for Detector Non-linearity: No (USB2+H05261)
Correct for Stray Light: No (USB2+H05261)
Number of Pixels in Processed Spectrum: 2048
>>>>>Begin Processed Spectral Data<<<<<
365.73	49.15
365.92	49.15
366.12	49.15
366.32	35.11
366.52	0.00
366.72	35.11
366.91	16.38
367.11	0.00
367.31	60.85
367.51	44.47
367.70	72.56
367.90	86.60
368.10	49.15
368.30	2.34
368.49	11.70
368.69	79.58
368.89	0.00
369.09	16.38
369.28	4.68
369.48	63.19
369.68	58.51
369.87	58.51
370.07	72.56
370.27	98.30
370.47	154.48
370.66	360.44
370.86	447.04
371.06	479.81
371.25	454.06
371.45	500.87
371.65	465.77
371.84	407.25
372.04	510.24
372.24	465.77
372.44	498.53
372.63	528.96
372.83	458.74
373.03	489.17
373.22	430.66
373.42	535.98
373.62	521.94
373.81	603.86
374.01	559.39
374.21	519.60
374.40	517.26
374.60	599.18
374.79	575.77
374.99	557.05
375.19	641.31
375.38	596.84
375.58	545.34
375.78	594.50
375.97	526.62
376.17	662.37
376.37	615.56
376.56	603.86
376.76	564.07
376.95	629.60
377.15	795.78
377.35	657.69
377.54	636.63
377.74	653.01
377.93	667.05
378.13	636.63
378.33	697.48
378.52	683.44
378.72	716.20
378.91	678.76
379.11	681.10
379.31	690.46
379.50	660.03
379.70	753.65
379.89	706.84
380.09	664.71
380.28	718.54
380.48	704.50
380.68	697.48
380.87	720.88
381.07	725.57
381.26	788.76
381.46	723.23
381.65	732.59
381.85	807.48
382.04	720.88
382.24	730.25
382.43	692.80
382.63	688.12
382.83	816.85
383.02	704.50
383.22	786.42
383.41	805.14
383.61	702.16
383.80	866.00
384.00	753.65
384.19	734.93
384.39	760.67
384.58	823.87
384.78	866.00
384.97	870.68
385.17	763.01
385.36	781.74
385.56	905.79
385.75	777.06
385.95	823.87
386.14	873.02
386.34	837.91
386.53	912.81
386.72	856.64
386.92	837.91
387.11	931.53
387.31	908.13
387.50	830.89
387.70	880.04
387.89	819.19
388.09	917.49
388.28	950.26
388.48	919.83
388.67	919.83
388.86	940.90
389.06	992.39
389.25	1048.56
389.45	1102.39
389.64	997.07
389.84	971.32
390.03	1057.92
390.22	1067.28
390.42	964.30
390.61	1013.45
390.81	994.73
391.00	1102.39
391.19	1088.35
391.39	1078.99
391.58	1086.01
391.78	1032.18
391.97	1100.05
392.16	1060.26
392.36	1062.60
392.55	1053.24
392.75	922.17
392.94	1032.18
393.13	992.39
393.33	997.07
393.52	1146.86
393.71	1128.14
393.91	1139.84
394.10	1100.05
394.29	1146.86
394.49	1214.74
394.68	1153.88
394.88	1245.16
395.07	1329.42
395.26	1284.95
395.46	1273.25
395.65	1158.57
395.84	1238.14
396.04	1266.23
396.23	1210.06
396.42	1177.29
396.62	1160.91
396.81	1261.55
397.00	1322.40
397.19	1242.82
397.39	1310.70
397.58	1418.36
397.77	1479.22
397.97	1378.58
398.16	1528.37
398.35	1507.30
398.55	1420.71
398.74	1528.37
398.93	1589.22
399.12	1526.03
399.32	1530.71
399.51	1526.03
399.70	1692.21
399.90	1603.27
400.09	1624.33
400.28	1605.61
400.47	1659.44
400.67	1783.49
400.86	1621.99
401.05	1769.44
401.24	1743.70
401.44	1776.47
401.63	1785.83
401.82	1734.34
402.01	1792.85
402.21	1778.81
402.40	1750.72
402.59	1717.95
402.78	1727.32
402.97	1825.62
403.17	1856.04
403.36	1867.75
403.55	1839.66
403.74	1970.73
403.93	2012.86
404.13	1935.62
404.32	1952.01
404.51	1989.46
404.70	1914.56
404.89	2015.20
405.09	2038.61
405.28	1970.73
405.47	2125.21
405.66	1919.24
405.85	2045.63
406.05	2019.88
406.24	2052.65
406.43	2064.35
406.62	2193.08
406.81	2256.28
407.00	2076.06
407.20	2113.50
407.39	2087.76
407.58	2223.51
407.77	2195.42
407.96	2258.62
408.15	2352.24
408.34	2244.57
408.54	2389.69
408.73	2424.80
408.92	2459.90
409.11	2396.71
409.30	2443.52
409.49	2270.32
409.68	2399.05
409.87	2317.13
410.07	2289.04
410.26	2410.75
410.45	2544.16
410.64	2490.33
410.83	2516.08
411.02	2647.15
411.21	2588.63
411.40	2677.57
411.59	2588.63
411.78	2750.13
411.98	2686.94
412.17	2736.09
412.36	2794.60
412.55	2677.57
412.74	2686.94
412.93	2832.05
413.12	2864.82
413.31	3030.99
413.50	2899.92
413.69	2949.08
413.88	3014.61
414.07	2902.26
414.26	3028.65
414.45	3141.00
414.64	3112.91
414.83	3169.09
415.02	3124.62
415.22	3141.00
415.41	3108.23
415.60	3225.26
415.79	3269.73
415.98	3449.95
416.17	3386.76
416.36	3197.17
416.55	3258.03
416.74	3492.08
416.93	3368.03
417.12	3314.20
417.31	3440.59
417.50	3215.90
417.69	3648.90
417.88	3578.68
418.07	3445.27
418.26	3426.54
418.45	3487.40
418.64	3709.75
418.83	3641.87
419.02	3744.86
419.21	3679.32
419.39	3651.24
419.58	3616.13
419.77	3578.68
419.96	3655.92
420.15	3843.16
420.34	3826.78
420.53	3695.71
420.72	3908.69
420.91	3920.40
421.10	3920.40
421.29	4107.64
421.48	3943.80
421.67	3896.99
421.86	4009.34
422.05	3817.41
422.24	3861.88
422.43	3925.08
422.61	3985.93
422.80	3988.27
422.99	4039.76
423.18	3964.87
423.37	4093.60
423.56	3976.57
423.75	4088.92
423.94	3971.89
424.13	3871.25
424.32	3904.01
424.50	4084.23
424.69	4030.40
424.88	4166.15
425.07	3995.29
425.26	3913.38
425.45	3957.85
425.64	3997.64
425.83	4009.34
426.01	4154.45
426.20	4177.86
426.39	4201.26
426.58	3969.55
426.77	4023.38
426.96	4037.42
427.15	4189.56
427.33	4063.17
427.52	4152.11
427.71	4304.25
427.90	4337.01
428.09	4173.18
428.28	4278.50
428.46	4297.22
428.65	4126.36
428.84	4409.57
429.03	4463.40
429.22	4194.24
429.40	4184.88
429.59	4248.07
429.78	4126.36
429.97	3943.80
430.16	4152.11
430.34	4088.92
430.53	4201.26
430.72	4299.56
430.91	4227.01
431.10	4407.23
431.28	4629.58
431.47	4849.59
431.66	4873.00
431.85	4760.65
432.03	4568.73
432.22	4741.93
432.41	4734.90
432.60	4915.12
432.79	4912.78
432.97	4779.37
433.16	4814.48
433.35	4744.27
433.54	4643.62
433.72	4760.65
433.91	4681.07
434.10	4865.97
434.28	4931.51
434.47	4744.27
434.66	5025.13
434.85	4983.00
435.03	5181.95
435.22	4943.21
435.41	5224.08
435.59	5238.12
435.78	5205.35
435.97	5195.99
436.16	5247.48
436.34	5392.59
436.53	5172.58
436.72	5350.46
436.90	5135.14
437.09	5338.76
437.28	5231.10
437.46	5308.34
437.65	5203.01
437.84	5259.18
438.02	5338.76
438.21	5186.63
438.40	5331.74
438.58	5488.56
438.77	5504.94
438.96	5411.32
439.14	5774.10
439.33	5795.17
439.52	5825.59
439.70	5722.61
439.89	5820.91
440.08	5902.83
440.26	6073.69
440.45	5944.96
440.63	5912.19
440.82	6069.01
441.01	6036.24
441.19	6069.01
441.38	6209.44
441.57	6188.38
441.75	6195.40
441.94	6366.26
442.12	6448.18
442.31	6436.47
442.50	6377.96
442.68	6352.21
442.87	6504.35
443.05	6478.60
443.24	6494.99
443.43	6607.33
443.61	6649.46
443.80	6738.40
443.98	6569.88
444.17	6326.47
444.35	6541.80
444.54	6562.86
444.73	6719.68
444.91	6499.67
445.10	6604.99
445.28	6527.75
445.47	6612.01
445.65	6506.69
445.84	6871.81
446.02	6827.34
446.21	6724.36
446.39	6752.45
446.58	6782.87
446.77	6839.05
446.95	6764.15
447.14	6810.96
447.32	6869.47
447.51	6773.51
447.69	6703.29
447.88	6862.45
448.06	6944.37
448.25	6853.09
448.43	6927.99
448.62	6883.52
448.80	6916.28
448.99	7119.91
449.17	7124.59
449.36	6883.52
449.54	7262.68
449.73	7286.09
449.91	7403.11
450.10	7548.23
450.28	7405.46
450.46	7265.02
450.65	7489.71
450.83	7438.22
451.02	7339.92
451.20	7339.92
451.39	7255.66
451.57	7307.15
451.76	7463.97
451.94	7417.16
452.13	7316.51
452.31	7494.40
452.49	7232.26
452.68	7529.50
452.86	7344.60
453.05	7426.52
453.23	7672.28
453.42	7508.44
453.60	7510.78
453.78	7838.45
453.97	7449.93
454.15	7548.23
454.34	7524.82
454.52	7798.66
454.70	7632.49
454.89	7761.22
455.07	7744.83
455.26	7859.52
455.44	7985.91
455.62	8016.33
455.81	8049.10
455.99	8051.44
456.17	7960.16
456.36	8030.38
456.54	7962.50
456.73	8292.52
456.91	8388.48
457.09	8297.20
457.28	8557.00
457.46	8112.30
457.64	8451.67
457.83	8360.39
458.01	8191.88
458.19	8360.39
458.38	8187.19
458.56	8386.14
458.74	8376.78
458.93	8432.95
459.11	8484.44
459.29	8446.99
459.48	8594.45
459.66	8566.36
459.84	8655.30
460.03	8788.71
460.21	8585.08
460.39	8718.50
460.57	8713.81
460.76	8772.33
460.94	8842.54
461.12	8865.95
461.31	8854.25
461.49	8643.60
461.67	8767.65
461.85	9139.79
462.04	8952.55
462.22	9151.49
462.40	9312.99
462.59	9022.77
462.77	9179.58
462.95	9296.61
463.13	9294.27
463.32	9088.30
463.50	9233.41
463.68	9277.88
463.86	9343.42
464.05	9029.79
464.23	9287.25
464.41	9032.13
464.59	8992.34
464.78	9380.87
464.96	9472.15
465.14	9329.38
465.32	9376.19
465.50	9561.09
465.69	9673.43
465.87	9385.55
466.05	9418.32
466.23	9467.47
466.41	9298.95
466.60	9638.33
466.78	9277.88
466.96	9324.69
467.14	9446.40
467.32	9518.96
467.51	9799.82
467.69	9572.79
467.87	9628.96
468.05	9727.27
468.23	9760.03
468.41	9678.12
468.60	9921.53
468.78	9827.91
468.96	9645.35
469.14	10064.30
469.32	10003.45
469.50	9785.78
469.69	9851.31
469.87	10045.58
470.05	10108.77
470.23	9811.53
470.41	9951.96
470.59	10186.01
470.77	10171.97
470.95	10298.36
471.14	10380.28
471.32	10097.07
471.50	10607.31
471.68	10413.04
471.86	10621.35
472.04	10616.67
472.22	10857.75
472.40	10445.81
472.58	10740.72
472.77	10752.42
472.95	10766.46
473.13	11255.64
473.31	10939.66
473.49	10967.75
473.67	11040.31
473.85	10949.03
474.03	11379.68
474.21	11342.24
474.39	11138.61
474.57	11384.37
474.75	11410.11
474.93	11424.15
475.12	11246.27
475.30	11499.05
475.48	11632.46
475.66	11506.07
475.84	11559.91
476.02	11805.66
476.20	11573.95
476.38	11712.04
476.56	12386.12
476.74	12208.23
476.92	11939.07
477.10	12156.74
477.28	12542.93
477.46	12353.35
477.64	12634.21
477.82	12746.56
478.00	12702.09
478.18	12629.53
478.36	13011.04
478.54	12924.44
478.72	13041.46
478.90	13022.74
479.08	13287.22
479.26	13570.43
479.44	13493.19
479.62	13544.68
479.80	13668.73
479.98	13940.23
480.16	13984.70
480.34	13682.77
480.52	13902.78
480.70	13769.37
480.88	13877.04
481.06	14288.97
481.24	14230.46
481.41	14534.73
481.59	14902.19
481.77	14565.15
481.95	14829.63
482.13	14731.33
482.31	14986.45
482.49	15321.15
482.67	14988.79
482.85	15234.55
483.03	15515.41
483.21	15719.04
483.39	15693.29
483.57	15690.95
483.74	15962.45
483.92	16065.44
484.10	15667.55
484.28	16203.53
484.46	16388.43
484.64	16779.30
484.82	16339.28
485.00	16112.25
485.18	16748.87
485.35	16837.81
485.53	16568.65
485.71	16224.59
485.89	16812.07
486.07	16456.31
486.25	17060.16
486.43	17055.48
486.61	17518.91
486.78	17783.39
486.96	17767.01
487.14	18202.35
487.32	18417.68
487.50	18504.28
487.68	18492.57
487.85	18743.01
488.03	18890.46
488.21	19005.15
488.39	18827.27
488.57	18904.51
488.75	19264.95
488.92	19374.95
489.10	19824.34
489.28	19714.33
489.46	20327.55
489.64	20060.73
489.81	20278.40
489.99	20528.84
490.17	20702.04
490.35	20755.87
490.53	20624.80
490.70	20734.81
490.88	20737.15
491.06	21076.52
491.24	21195.89
491.41	21050.78
491.59	21284.83
491.77	21041.42
491.95	21399.52
492.13	21912.10
492.30	21596.12
492.48	22010.40
492.66	22209.34
492.84	22654.05
493.01	22534.68
493.19	22309.99
493.37	22724.26
493.54	23122.15
493.72	22764.05
493.90	23033.21
494.08	23222.80
494.25	23358.55
494.43	23683.88
494.61	23735.37
494.79	23840.70
494.96	23723.67
495.14	23950.70
495.32	24271.36
495.49	24077.09
495.67	24423.49
495.85	24596.69
496.02	24790.95
496.20	24814.36
496.38	24807.34
496.55	25032.03
496.73	25621.84
496.91	25591.42
497.09	25369.07
497.26	25752.91
497.44	25633.55
497.62	25785.68
497.79	25867.60
497.97	25649.93
498.14	25937.82
498.32	25900.37
498.50	26019.74
498.67	26469.12
498.85	26684.45
499.03	26780.41
499.20	26808.50
499.38	26661.04
499.56	26981.70
499.73	27033.19
499.91	26969.99
500.08	27070.64
500.26	27168.94
500.44	26918.50
500.61	27168.94
500.79	26733.60
500.97	27197.02
501.14	27644.07
501.32	27433.42
501.49	27651.09
501.67	27470.87
501.84	27857.06
502.02	27669.81
502.20	28144.94
502.37	28407.08
502.55	28222.18
502.72	28346.23
502.90	28652.84
503.07	28371.97
503.25	28830.72
503.43	28624.75
503.60	28910.30
503.78	28524.11
503.95	28456.23
504.13	28907.96
504.30	29200.52
504.48	29385.43
504.65	29443.94
504.83	29289.46
505.01	29844.17
505.18	29776.30
505.36	29813.74
505.53	29832.47
505.71	30487.82
505.88	30457.39
506.06	29893.32
506.23	30445.69
506.41	30057.16
506.58	30206.95
506.76	30380.15
506.93	30719.53
507.11	30735.92
507.28	30771.02
507.46	30401.22
507.63	30551.01
507.81	30646.97
507.98	30462.07
508.16	30906.77
508.33	31309.35
508.50	31232.11
508.68	31433.39
508.85	31842.99
509.03	31332.75
509.20	31555.10
509.38	31555.10
509.55	31702.56
509.73	32137.90
509.90	31847.67
510.08	31838.31
510.25	32205.77
510.42	32137.90
510.60	32378.97
510.77	32322.80
510.95	32706.65
511.12	32383.65
511.30	32809.63
511.47	32856.44
511.64	33104.54
511.82	33046.02
511.99	32842.40
512.17	33488.38
512.34	32776.86
512.51	32917.29
512.69	33528.17
512.86	33319.87
513.04	34024.37
513.21	33699.03
513.38	33701.37
513.56	33069.43
513.73	33347.95
513.90	33511.79
514.08	33453.28
514.25	33785.63
514.43	33567.96
514.60	34106.29
514.77	33881.60
514.95	34005.64
515.12	33944.79
515.29	33670.95
515.47	34595.46
515.64	34651.63
515.81	34345.02
515.99	34204.59
516.16	34246.72
516.33	34251.40
516.51	34202.25
516.68	34075.86
516.85	33853.51
517.03	34136.71
517.20	34197.57
517.37	34817.81
517.54	35218.04
517.72	34850.58
517.89	34345.02
518.06	34319.28
518.24	34555.67
518.41	34600.14
518.58	34941.86
518.75	35124.42
518.93	35494.22
519.10	35454.44
519.27	35763.39
519.45	35512.95
519.62	35896.80
519.79	35978.72
519.96	35873.39
520.14	36385.97
520.31	35597.21
520.48	36222.13
520.65	36041.91
520.83	36449.16
521.00	36446.82
521.17	36863.44
521.34	36774.50
521.52	36683.22
521.69	36552.15
521.86	36739.39
522.03	37354.95
522.20	36825.99
522.38	37013.23
522.55	36861.10
522.72	36933.65
522.89	37092.81
523.07	37258.99
523.24	37249.63
523.41	37359.63
523.58	37277.71
523.75	37916.68
523.92	38024.34
524.10	38031.36
524.27	37977.53
524.44	37902.64
524.61	38436.28
524.78	38377.76
524.96	37942.42
525.13	38115.62
525.30	38433.94
525.47	38211.59
525.64	38234.99
525.81	38146.05
525.98	38075.84
526.16	37937.74
526.33	37890.93
526.50	38052.43
526.67	37684.97
526.84	38087.54
527.01	38232.65
527.18	38199.88
527.36	38820.13
527.53	38993.32
527.70	39072.90
527.87	38880.98
528.04	38897.36
528.21	38588.41
528.38	38967.58
528.55	39271.85
528.72	39810.17
528.89	39885.07
529.07	39435.69
529.24	39566.76
529.41	39842.94
529.58	39236.74
529.75	39625.27
529.92	39744.64
530.09	39899.11
530.26	39739.96
530.43	40105.08
530.60	39997.41
530.77	39728.25
530.94	40154.23
531.11	40055.93
531.28	40247.85
531.46	40369.56
531.63	40257.21
531.80	40114.44
531.97	40392.97
532.14	40004.44
532.31	39627.61
532.48	40676.17
532.65	40694.89
532.82	40016.14
532.99	40105.08
533.16	40229.13
533.33	40219.77
533.50	40205.72
533.67	40701.92
533.84	40353.18
534.01	40460.84
534.18	40802.56
534.35	40966.40
534.52	40514.67
534.69	41092.79
534.86	41013.21
535.03	41387.69
535.20	41610.04
535.37	41633.45
535.54	41626.43
535.71	41170.02
535.88	41123.21
536.05	41158.32
536.22	41383.01
536.38	41500.04
536.55	41127.89
536.72	40596.59
536.89	41331.52
537.06	41008.53
537.23	41434.50
537.40	41553.87
537.57	41808.99
537.74	42281.78
537.91	42120.28
538.08	41839.42
538.25	41909.63
538.42	41914.31
538.59	41930.70
538.75	41661.54
538.92	41661.54
539.09	42071.13
539.26	42604.77
539.43	42178.79
539.60	42024.32
539.77	41935.38
539.94	42033.68
540.11	41766.86
540.28	41933.04
540.44	42164.75
540.61	42014.96
540.78	41647.49
540.95	42234.97
541.12	42363.70
541.29	42370.72
541.46	42249.01
541.62	42426.89
541.79	42770.95
541.96	42368.38
542.13	42110.92
542.30	42595.41
542.47	42363.70
542.63	42494.77
542.80	42904.36
542.97	43377.15
543.14	43447.36
543.31	43405.23
543.48	43201.61
543.64	43484.81
543.81	43260.12
543.98	43384.17
544.15	43342.04
544.32	43599.50
544.48	44041.86
544.65	43882.70
544.82	44027.82
544.99	43950.58
545.16	43789.08
545.32	43021.39
545.49	43669.72
545.66	43875.68
545.83	44133.14
546.00	44053.56
546.16	44170.59
546.33	43761.00
546.50	43494.18
546.67	43915.47
546.83	44123.78
547.00	44254.85
547.17	43920.15
547.34	43952.92
547.50	43995.05
547.67	44477.20
547.84	44296.98
548.00	44414.01
548.17	44364.85
548.34	44355.49
548.51	44451.45
548.67	44418.69
548.84	44598.91
549.01	43985.69
549.18	44282.94
549.34	44596.57
549.51	44519.33
549.68	44486.56
549.84	44163.57
550.01	44907.86
550.18	44704.23
550.34	44996.80
550.51	44369.54
550.68	44055.90
550.84	44308.68
551.01	45296.39
551.18	44360.17
551.34	44437.41
551.51	45141.91
551.68	44954.67
551.84	45289.37
552.01	44631.68
552.18	44655.08
552.34	44402.30
552.51	44418.69
552.68	44594.23
552.84	45198.09
553.01	44975.73
553.18	45027.23
553.34	44891.48
553.51	44711.25
553.67	45179.36
553.84	45565.55
554.01	45633.42
554.17	45031.91
554.34	45528.10
554.51	45603.00
554.67	45476.61
554.84	45280.00
555.00	45368.94
555.17	44926.58
555.33	45132.55
555.50	45331.50
555.67	45539.80
555.83	45045.95
556.00	45731.73
556.16	45832.37
556.33	45591.30
556.50	45523.42
556.66	44875.09
556.83	45287.03
556.99	45991.53
557.16	45448.52
557.32	45464.91
557.49	45656.83
557.65	45600.66
557.82	45500.01
557.98	45577.25
558.15	45380.65
558.32	45839.39
558.48	45401.71
558.65	45425.12
558.81	45848.75
558.98	45612.36
559.14	46176.43
559.31	45900.25
559.47	45694.28
559.64	45921.31
559.80	45743.43
559.97	45820.67
560.13	45642.79
560.30	45743.43
560.46	45216.81
560.63	45485.97
560.79	45867.48
560.96	46270.05
561.12	46066.42
561.29	45638.11
561.45	45755.13
561.61	45876.84
561.78	45731.73
561.94	46012.59
562.11	46171.75
562.27	45993.87
562.44	46082.81
562.60	46209.20
562.77	46370.69
562.93	45921.31
563.10	46106.21
563.26	45930.67
563.42	46220.90
563.59	46092.17
563.75	45947.06
563.92	46162.39
564.08	46206.86
564.24	46260.69
564.41	46031.32
564.57	46251.33
564.74	46167.07
564.90	46000.89
565.07	45858.12
565.23	46036.00
565.39	45998.55
565.56	46333.24
565.72	45811.31
565.88	45958.76
566.05	45916.63
566.21	46251.33
566.38	46036.00
566.54	46443.25
566.70	46653.90
566.87	46569.64
567.03	46564.96
567.19	46794.33
567.36	46333.24
567.52	46143.66
567.68	46595.38
567.85	46185.79
568.01	46562.62
568.17	46487.72
568.34	46440.91
568.50	46232.60
568.66	46394.10
568.83	46293.46
568.99	45947.06
569.15	46082.81
569.32	46087.49
569.48	45918.97
569.64	46784.97
569.81	46366.01
569.97	46005.57
570.13	46382.40
570.30	45874.50
570.46	45764.49
570.62	46057.06
570.78	46225.58
570.95	46026.63
571.11	46569.64
571.27	46440.91
571.43	46256.01
571.60	46513.47
571.76	46080.47
571.92	46450.27
572.09	46714.75
572.25	46239.62
572.41	46543.89
572.57	46801.35
572.74	46831.78
572.90	46667.94
573.06	46920.72
573.22	46747.52
573.38	46494.74
573.55	46504.10
573.71	46476.02
573.87	46717.09
574.03	46380.06
574.20	47016.68
574.36	46405.80
574.52	46714.75
574.68	46234.94
574.84	46721.77
575.01	46384.74
575.17	46024.29
575.33	46539.21
575.49	46452.61
575.65	46438.57
575.82	46597.73
575.98	46562.62
576.14	46525.17
576.30	46677.30
576.46	46649.22
576.62	46007.91
576.79	46525.17
576.95	46749.86
577.11	46906.68
577.27	46726.46
577.43	46419.84
577.59	46583.68
577.75	46267.71
577.92	46583.68
578.08	46176.43
578.24	46000.89
578.40	46527.51
578.56	46567.30
578.72	46707.73
578.88	46820.08
579.04	47040.09
579.21	46443.25
579.37	46401.12
579.53	46417.50
579.69	46424.53
579.85	45925.99
580.01	46335.59
580.17	46571.98
580.33	46681.98
580.49	46705.39
580.65	46981.57
580.82	46623.47
580.98	46546.23
581.14	46274.73
581.30	46656.24
581.46	46733.48
581.62	46717.09
581.78	46768.58
581.94	46885.61
582.10	47042.43
582.26	46525.17
582.42	46548.57
582.58	46932.42
582.74	46916.04
582.90	46511.13
583.06	46630.49
583.22	46429.21
583.38	47068.17
583.54	46869.23
583.70	46665.60
583.86	46777.95
584.02	46351.97
584.18	46953.49
584.34	46586.02
584.50	46696.03
584.66	46740.50
584.82	46869.23
584.98	47213.29
585.14	46944.12
585.30	46684.33
585.46	46780.29
585.62	46550.91
585.78	46473.68
585.94	46234.94
586.10	46667.94
586.26	46539.21
586.42	46850.50
586.58	46674.96
586.74	46848.16
586.90	46632.83
587.06	46740.50
587.22	46859.87
587.38	46789.65
587.54	46948.81
587.70	46768.58
587.86	46843.48
588.02	46651.56
588.18	46925.40
588.34	46120.26
588.49	46167.07
588.65	46150.68
588.81	45918.97
588.97	46506.44
589.13	46216.22
589.29	46185.79
589.45	46529.85
589.61	46410.48
589.77	46731.14
589.93	46990.94
