SpectraSuite Data File
++++++++++++++++++++++++++++++++++++
Date: Fri Oct 25 11:34:07 EDT 2013
User: price-jones
Dark Spectrum Present: No
Reference Spectrum Present: No
Number of Sampled Component Spectra: 1
Spectrometers: USB2+H05261
Integration Time (usec): 100000 (USB2+H05261)
Spectra Averaged: 1 (USB2+H05261)
Boxcar Smoothing: 0 (USB2+H05261)
Correct for Electrical Dark: No (USB2+H05261)
Strobe/Lamp Enabled: No (USB2+H05261)
Correct for Detector Non-linearity: No (USB2+H05261)
Correct for Stray Light: No (USB2+H05261)
Number of Pixels in Processed Spectrum: 2048
>>>>>Begin Processed Spectral Data<<<<<
365.73	250.44
365.92	250.44
366.12	250.44
366.32	180.22
366.52	184.90
366.72	194.26
366.91	184.90
367.11	241.08
367.31	145.11
367.51	133.41
367.70	175.54
367.90	154.48
368.10	229.37
368.30	203.63
368.49	201.29
368.69	250.44
368.89	159.16
369.09	107.66
369.28	173.20
369.48	163.84
369.68	236.39
369.87	297.25
370.07	220.01
370.27	215.33
370.47	334.70
370.66	482.15
370.86	486.83
371.06	519.60
371.25	601.52
371.45	493.85
371.65	510.24
371.84	538.32
372.04	575.77
372.24	566.41
372.44	552.37
372.63	601.52
372.83	617.90
373.03	596.84
373.22	573.43
373.42	603.86
373.62	645.99
373.81	643.65
374.01	653.01
374.21	622.58
374.40	645.99
374.60	650.67
374.79	627.26
374.99	596.84
375.19	641.31
375.38	688.12
375.58	653.01
375.78	674.07
375.97	631.94
376.17	704.50
376.37	699.82
376.56	741.95
376.76	718.54
376.95	664.71
377.15	599.18
377.35	662.37
377.54	683.44
377.74	727.91
377.93	636.63
378.13	695.14
378.33	667.05
378.52	629.60
378.72	725.57
378.91	692.80
379.11	678.76
379.31	723.23
379.50	688.12
379.70	711.52
379.89	730.25
380.09	692.80
380.28	751.31
380.48	730.25
380.68	709.18
380.87	678.76
381.07	678.76
381.26	727.91
381.46	772.38
381.65	814.51
381.85	741.95
382.04	739.61
382.24	793.44
382.43	791.10
382.63	758.33
382.83	753.65
383.02	809.83
383.22	826.21
383.41	748.97
383.61	786.42
383.80	910.47
384.00	784.08
384.19	725.57
384.39	805.14
384.58	772.38
384.78	837.91
384.97	819.19
385.17	800.46
385.36	826.21
385.56	847.27
385.75	908.13
385.95	809.83
386.14	894.08
386.34	819.19
386.53	826.21
386.72	842.59
386.92	849.61
387.11	830.89
387.31	880.04
387.50	816.85
387.70	943.24
387.89	814.51
388.09	851.96
388.28	837.91
388.48	828.55
388.67	938.55
388.86	884.72
389.06	978.34
389.25	896.43
389.45	819.19
389.64	828.55
389.84	985.37
390.03	1053.24
390.22	929.19
390.42	968.98
390.61	950.26
390.81	983.02
391.00	924.51
391.19	985.37
391.39	931.53
391.58	1015.79
391.78	952.60
391.97	1015.79
392.16	978.34
392.36	1050.90
392.55	1011.11
392.75	1039.20
392.94	1057.92
393.13	1083.67
393.33	1011.11
393.52	1114.10
393.71	1139.84
393.91	1032.18
394.10	1069.62
394.29	1118.78
394.49	999.41
394.68	1179.63
394.88	1111.75
395.07	1116.44
395.26	1128.14
395.46	1165.59
395.65	1111.75
395.84	1203.04
396.04	1249.85
396.23	1146.86
396.42	1174.95
396.62	1167.93
396.81	1156.22
397.00	1200.69
397.19	1212.40
397.39	1210.06
397.58	1306.02
397.77	1210.06
397.97	1294.32
398.16	1200.69
398.35	1282.61
398.55	1289.64
398.74	1252.19
398.93	1242.82
399.12	1338.79
399.32	1303.68
399.51	1214.74
399.70	1334.11
399.90	1303.68
400.09	1334.11
400.28	1350.49
400.47	1371.55
400.67	1336.45
400.86	1348.15
401.05	1331.76
401.24	1455.81
401.44	1479.22
401.63	1371.55
401.82	1401.98
402.01	1425.39
402.21	1317.72
402.40	1476.88
402.59	1502.62
402.78	1444.11
402.97	1528.37
403.17	1474.54
403.36	1465.18
403.55	1575.18
403.74	1626.67
403.93	1554.12
404.13	1540.07
404.32	1586.88
404.51	1514.33
404.70	1607.95
404.89	1621.99
405.09	1659.44
405.28	1591.56
405.47	1605.61
405.66	1680.50
405.85	1645.40
406.05	1614.97
406.24	1678.16
406.43	1741.36
406.62	1778.81
406.81	1802.21
407.00	1778.81
407.20	1696.89
407.39	1788.17
407.58	1762.42
407.77	1746.04
407.96	1832.64
408.15	1888.81
408.34	1823.28
408.54	1900.52
408.73	1909.88
408.92	1851.36
409.11	1919.24
409.30	1937.96
409.49	1952.01
409.68	2010.52
409.87	1996.48
410.07	2059.67
410.26	1966.05
410.45	1987.11
410.64	1947.33
410.83	2120.53
411.02	2085.42
411.21	2064.35
411.40	2066.69
411.59	2209.47
411.78	2012.86
411.98	2129.89
412.17	2176.70
412.36	2253.94
412.55	2272.66
412.74	2319.47
412.93	2370.96
413.12	2216.49
413.31	2401.39
413.50	2345.22
413.69	2324.15
413.88	2417.77
414.07	2438.84
414.26	2471.61
414.45	2345.22
414.64	2466.92
414.83	2485.65
415.02	2502.03
415.22	2647.15
415.41	2502.03
415.60	2612.04
415.79	2661.19
415.98	2581.61
416.17	2787.58
416.36	2605.02
416.55	2855.45
416.74	2752.47
416.93	2729.06
417.12	2768.85
417.31	2787.58
417.50	2841.41
417.69	2881.20
417.88	2869.50
418.07	2876.52
418.26	2892.90
418.45	2932.69
418.64	3014.61
418.83	2953.76
419.02	3080.14
419.21	3047.38
419.39	2958.44
419.58	2925.67
419.77	3026.31
419.96	3145.68
420.15	3066.10
420.34	2946.73
420.53	3265.05
420.72	3293.13
420.91	3262.71
421.10	3199.51
421.29	3220.58
421.48	3185.47
421.67	3265.05
421.86	3143.34
422.05	3262.71
422.24	3194.83
422.43	3229.94
422.61	3283.77
422.80	3325.90
422.99	3356.33
423.18	3351.65
423.37	3391.44
423.56	3255.69
423.75	3337.60
423.94	3281.43
424.13	3152.70
424.32	3269.73
424.50	3314.20
424.69	3314.20
424.88	3552.93
425.07	3363.35
425.26	3461.65
425.45	3391.44
425.64	3225.26
425.83	3407.82
426.01	3463.99
426.20	3485.06
426.39	3335.26
426.58	3426.54
426.77	3449.95
426.96	3496.76
427.15	3440.59
427.33	3508.46
427.52	3524.85
427.71	3576.34
427.90	3513.14
428.09	3602.08
428.28	3588.04
428.46	3578.68
428.65	3571.66
428.84	3906.35
429.03	3686.34
429.22	3562.30
429.40	3623.15
429.59	3751.88
429.78	3499.10
429.97	3590.38
430.16	3712.09
430.34	3733.15
430.53	3679.32
430.72	4016.36
430.91	3742.52
431.10	3829.12
431.28	3908.69
431.47	3758.90
431.66	4039.76
431.85	3913.38
432.03	3866.56
432.22	4004.66
432.41	3861.88
432.60	4011.68
432.79	3971.89
432.97	3969.55
433.16	4067.85
433.35	3964.87
433.54	4002.32
433.72	4002.32
433.91	4098.28
434.10	4159.13
434.28	4021.04
434.47	4147.43
434.66	4217.65
434.85	4072.53
435.03	4241.05
435.22	4285.52
435.41	4344.03
435.59	4273.82
435.78	4285.52
435.97	4306.59
436.16	4362.76
436.34	4248.07
436.53	4236.37
436.72	4432.97
436.90	4311.27
437.09	4477.44
437.28	4294.88
437.46	4517.23
437.65	4585.11
437.84	4725.54
438.02	4552.34
438.21	4519.57
438.40	4355.74
438.58	4552.34
438.77	4676.39
438.96	4758.31
439.14	4716.18
439.33	4730.22
439.52	4842.57
439.70	4793.42
439.89	4854.27
440.08	4957.25
440.26	5027.47
440.45	4943.21
440.63	4968.96
440.82	5135.14
441.01	5142.16
441.19	5109.39
441.38	5165.56
441.57	5043.85
441.75	5146.84
441.94	5313.02
442.12	5378.55
442.31	5411.32
442.50	5291.95
442.68	5350.46
442.87	5390.25
443.05	5430.04
443.24	5343.44
443.43	5231.10
443.61	5406.64
443.80	5579.84
443.98	5500.26
444.17	5228.76
444.35	5430.04
444.54	5528.35
444.73	5507.28
444.91	5502.60
445.10	5406.64
445.28	5437.06
445.47	5542.39
445.65	5659.42
445.84	5647.71
446.02	5526.00
446.21	5701.54
446.39	5551.75
446.58	5746.02
446.77	5657.07
446.95	5535.37
447.14	5558.77
447.32	5624.31
447.51	5549.41
447.69	5600.90
447.88	5792.83
448.06	5643.03
448.25	5554.09
448.43	5710.91
448.62	5664.10
448.80	5699.20
448.99	5846.66
449.17	5806.87
449.36	5694.52
449.54	5790.49
449.73	5888.79
449.91	5907.51
450.10	5909.85
450.28	5970.71
450.46	6050.28
450.65	5961.34
450.83	5933.26
451.02	5851.34
451.20	6230.51
451.39	6078.37
451.57	5982.41
451.76	6267.95
451.94	6115.82
452.13	6193.06
452.31	5984.75
452.49	6092.41
452.68	6160.29
452.86	6188.38
453.05	6232.85
453.23	6263.27
453.42	6270.30
453.60	6132.20
453.78	6352.21
453.97	6104.12
454.15	6289.02
454.34	6190.72
454.52	6420.09
454.70	6420.09
454.89	6464.56
455.07	6551.16
455.26	6455.20
455.44	6373.28
455.62	6539.46
455.81	6445.84
455.99	6640.10
456.17	6612.01
456.36	6600.31
456.54	6633.08
456.73	6780.53
456.91	6696.27
457.09	6956.07
457.28	6988.84
457.46	6722.02
457.64	6864.79
457.83	6817.98
458.01	6944.37
458.19	7089.48
458.38	7096.50
458.56	7082.46
458.74	7059.06
458.93	7211.19
459.11	7164.38
459.29	7042.67
459.48	7052.03
459.66	7199.49
459.84	7136.29
460.03	7199.49
460.21	7501.42
460.39	7283.75
460.57	7180.76
460.76	7279.07
460.94	7260.34
461.12	7428.86
461.31	7412.48
461.49	7218.21
461.67	7246.30
461.85	7480.35
462.04	7438.22
462.22	7992.93
462.40	7573.97
462.59	7555.25
462.77	7475.67
462.95	7772.92
463.13	7522.48
463.32	7541.21
463.50	7709.72
463.68	7702.70
463.86	7833.77
464.05	7744.83
464.23	7779.94
464.41	7756.54
464.59	7702.70
464.78	8004.63
464.96	7777.60
465.14	7737.81
465.32	7845.48
465.50	8004.63
465.69	7992.93
465.87	7819.73
466.05	7974.21
466.23	7836.11
466.41	7934.42
466.60	8028.04
466.78	7892.29
466.96	7929.74
467.14	8042.08
467.32	8161.45
467.51	8280.82
467.69	8023.36
467.87	7983.57
468.05	8229.32
468.23	8175.49
468.41	8023.36
468.60	8219.96
468.78	8362.73
468.96	8226.98
469.14	8442.31
469.32	8428.27
469.50	8166.13
469.69	8435.29
469.87	8493.80
470.05	8650.62
470.23	8683.39
470.41	8704.45
470.59	8617.85
470.77	8500.83
470.95	8786.37
471.14	8875.31
471.32	8624.87
471.50	8671.68
471.68	8823.82
471.86	8692.75
472.04	8765.31
472.22	9149.15
472.40	8997.02
472.58	9128.09
472.77	9102.34
472.95	9245.12
473.13	9692.16
473.31	9289.59
473.49	9158.52
473.67	9172.56
473.85	9341.08
474.03	9558.75
474.21	9525.98
474.39	9687.48
474.57	9699.18
474.75	9589.17
474.93	9767.06
475.12	9832.59
475.30	9703.86
475.48	9767.06
475.66	9937.91
475.84	9753.01
476.02	9729.61
476.20	10036.22
476.38	10068.98
476.56	10492.62
476.74	10431.77
476.92	10242.18
477.10	10038.56
477.28	10457.51
477.46	10406.02
477.64	10684.55
477.82	10806.25
478.00	10876.47
478.18	10806.25
478.36	10890.51
478.54	11077.76
478.72	11122.23
478.90	11227.55
479.08	11344.58
479.26	11363.30
479.44	11515.44
479.62	11510.75
479.80	11646.51
479.98	11587.99
480.16	12079.50
480.34	11864.18
480.52	12283.13
480.70	12044.40
480.88	11559.91
481.06	12116.95
481.24	12161.42
481.41	12140.36
481.59	12638.89
481.77	12351.01
481.95	12592.08
482.13	12631.87
482.31	12664.64
482.49	12910.40
482.67	12999.34
482.85	13202.96
483.03	13219.35
483.21	13451.06
483.39	13500.21
483.57	13558.72
483.74	13441.70
483.92	13862.99
484.10	13673.41
484.28	13877.04
484.46	13982.36
484.64	14354.51
484.82	14265.57
485.00	14202.37
485.18	14600.26
485.35	14853.04
485.53	14637.71
485.71	14792.19
485.89	14923.26
486.07	15059.01
486.25	15201.78
486.43	15103.48
486.61	15365.62
486.78	15616.05
486.96	15536.48
487.14	15506.05
487.32	15824.36
487.50	16135.65
487.68	16210.55
487.85	16376.73
488.03	16250.34
488.21	16739.51
488.39	16828.45
488.57	16645.89
488.75	17099.95
488.92	16837.81
489.10	17207.62
489.28	17055.48
489.46	17191.23
489.64	17453.37
489.81	17825.52
489.99	17816.16
490.17	17699.13
490.35	17968.29
490.53	18038.51
490.70	18211.71
490.88	17991.70
491.06	18359.16
491.24	18328.74
491.41	18630.66
491.59	18878.76
491.77	18845.99
491.95	19166.65
492.13	18937.27
492.30	18885.78
492.48	19138.56
492.66	19517.73
492.84	19262.61
493.01	19576.24
493.19	19728.38
493.37	19744.76
493.54	19922.64
493.72	19948.39
493.90	19779.87
494.08	20233.93
494.25	20379.04
494.43	20379.04
494.61	21069.50
494.79	20842.47
494.96	20521.82
495.14	21022.69
495.32	21324.62
495.49	21177.17
495.67	21252.06
495.85	21659.32
496.02	21668.68
496.20	21593.78
496.38	21834.86
496.55	21699.11
496.73	22492.55
496.91	22031.46
497.09	22480.85
497.26	22319.35
497.44	22370.84
497.62	22506.59
497.79	22895.12
497.97	22815.54
498.14	23321.10
498.32	22991.08
498.50	22972.36
498.67	23641.75
498.85	23080.02
499.03	23445.15
499.20	23662.82
499.38	23646.43
499.56	23482.59
499.73	24109.86
499.91	24114.54
500.08	24046.66
500.26	24065.39
500.44	24107.52
500.61	24283.06
500.79	24201.14
500.97	24238.59
501.14	24711.38
501.32	24783.93
501.49	24704.35
501.67	24751.17
501.84	24987.56
502.02	24634.14
502.20	24893.94
502.37	24840.11
502.55	25336.30
502.72	25242.68
502.90	25465.03
503.07	25312.89
503.25	25481.41
503.43	25064.80
503.60	25539.93
503.78	25778.66
503.95	25626.53
504.13	25757.60
504.30	26448.05
504.48	26199.96
504.65	26429.33
504.83	26862.33
505.01	26691.47
505.18	26251.45
505.36	26574.44
505.53	26450.39
505.71	26752.32
505.88	26820.20
506.06	26984.04
506.23	27063.61
506.41	26965.31
506.58	26871.69
506.76	26902.12
506.93	27143.19
507.11	27222.77
507.28	27594.92
507.46	27424.06
507.63	27536.40
507.81	27957.70
507.98	27335.12
508.16	27784.50
508.33	27950.68
508.50	27679.18
508.68	27695.56
508.85	28362.61
509.03	28107.49
509.20	28039.62
509.38	28503.04
509.55	28680.92
509.73	28617.73
509.90	28893.91
510.08	28638.80
510.25	28903.28
510.42	28790.93
510.60	29153.71
510.77	28683.27
510.95	29905.02
511.12	29326.91
511.30	29242.65
511.47	29172.44
511.64	29633.52
511.82	29661.61
511.99	29874.60
512.17	29575.01
512.34	29811.40
512.51	29797.36
512.69	30190.57
512.86	29947.15
513.04	30492.50
513.21	30354.41
513.38	30071.20
513.56	30590.80
513.73	30302.92
513.90	30164.82
514.08	30333.34
514.25	30885.71
514.43	30852.94
514.60	31246.15
514.77	31117.42
514.95	31147.85
515.12	30618.89
515.29	31101.04
515.47	31356.16
515.64	31648.72
515.81	31297.64
515.99	31358.50
516.16	31426.37
516.33	31789.16
516.51	31845.33
516.68	31599.57
516.85	31601.91
517.03	31826.60
517.20	31992.78
517.37	32006.83
517.54	32109.81
517.72	32395.35
517.89	32367.27
518.06	31929.59
518.24	32287.69
518.41	32357.91
518.58	32123.85
518.75	32294.71
518.93	32821.33
519.10	32371.95
519.27	32734.73
519.45	32561.53
519.62	32730.05
519.79	32905.59
519.96	32727.71
520.14	32783.88
520.31	32624.73
520.48	33170.07
520.65	33390.08
520.83	33787.97
521.00	33694.35
521.17	33507.11
521.34	33560.94
521.52	33830.10
521.69	33881.60
521.86	33930.75
522.03	33647.54
522.20	34361.40
522.38	34682.06
522.55	34366.09
522.72	34139.05
522.89	34199.91
523.07	34265.44
523.24	34813.13
523.41	34471.41
523.58	34738.23
523.75	35035.48
523.92	34642.27
524.10	35140.80
524.27	34747.59
524.44	35332.73
524.61	35234.42
524.78	35082.29
524.96	35175.91
525.13	35274.21
525.30	35445.07
525.47	35372.52
525.64	35510.61
525.81	35590.19
525.98	35335.07
526.16	35519.97
526.33	35344.43
526.50	35730.62
526.67	35683.81
526.84	35393.58
527.01	35765.73
527.18	35402.94
527.36	36184.68
527.53	35735.30
527.70	36311.07
527.87	36280.64
528.04	35992.76
528.21	36392.99
528.38	36404.69
528.55	36500.65
528.72	36165.96
528.89	36414.05
529.07	36243.20
529.24	36400.01
529.41	36535.76
529.58	36601.30
529.75	36580.23
529.92	36715.98
530.09	36996.85
530.26	37008.55
530.43	36715.98
530.60	36830.67
530.77	36875.14
530.94	37099.83
531.11	37249.63
531.28	36877.48
531.46	37275.37
531.63	36842.37
531.80	37441.55
531.97	37193.45
532.14	37366.65
532.31	37509.43
532.48	37371.33
532.65	37420.48
532.82	37275.37
532.99	37593.68
533.16	37205.16
533.33	37755.18
533.50	37776.25
533.67	37921.36
533.84	37869.87
534.01	38232.65
534.18	38284.14
534.35	38522.88
534.52	38251.38
534.69	38773.31
534.86	38265.42
535.03	38192.86
535.20	38567.35
535.37	38611.82
535.54	38377.76
535.71	38710.12
535.88	38658.63
536.05	38717.14
536.22	38675.01
536.38	38763.95
536.55	38946.51
536.72	38735.87
536.89	38658.63
537.06	38693.74
537.23	39367.81
537.40	39208.65
537.57	38799.06
537.74	38717.14
537.91	39124.40
538.08	39122.05
538.25	39262.49
538.42	39086.95
538.59	39721.23
538.75	39070.56
538.92	39889.75
539.09	39908.47
539.26	39313.98
539.43	39957.63
539.60	39739.96
539.77	39349.09
539.94	39622.93
540.11	39812.51
540.28	39730.59
540.44	40158.91
540.61	39526.97
540.78	40325.09
540.95	39828.90
541.12	40081.67
541.29	40105.08
541.46	40395.31
541.62	39957.63
541.79	40446.80
541.96	40348.50
542.13	40318.07
542.30	40339.13
542.47	40161.25
542.63	40388.28
542.80	40746.39
542.97	40994.48
543.14	40903.20
543.31	40528.72
543.48	40849.37
543.64	41177.04
543.81	40945.33
543.98	40886.82
544.15	40856.39
544.32	41181.73
544.48	41645.15
544.65	41429.82
544.82	41357.27
544.99	41228.54
545.16	41240.24
545.32	41230.88
545.49	41577.28
545.66	41766.86
545.83	41918.99
546.00	41698.98
546.16	41518.76
546.33	41282.37
546.50	41010.87
546.67	41656.85
546.83	41303.43
547.00	41413.44
547.17	41504.72
547.34	41743.45
547.50	42211.56
547.67	42019.64
547.84	41869.84
548.00	42192.84
548.17	42148.37
548.34	42134.32
548.51	42225.60
548.67	42246.67
548.84	42548.60
549.01	42651.58
549.18	42080.49
549.34	42611.79
549.51	42813.08
549.68	43026.07
549.84	42506.47
550.01	42923.08
550.18	42218.58
550.34	42359.02
550.51	42878.61
550.68	42885.64
550.84	42438.59
551.01	42993.30
551.18	42672.65
551.34	42885.64
551.51	43442.68
551.68	42883.30
551.84	42532.22
552.01	42726.48
552.18	42892.66
552.34	42951.17
552.51	43339.70
552.68	43199.27
552.84	43145.44
553.01	43271.82
553.18	42955.85
553.34	43126.71
553.51	42490.09
553.67	43061.18
553.84	43728.23
554.01	43725.89
554.17	43484.81
554.34	43484.81
554.51	43716.53
554.67	43728.23
554.84	44032.50
555.00	43386.51
555.17	43496.52
555.33	43496.52
555.50	43433.32
555.67	43508.22
555.83	43924.83
556.00	43735.25
556.16	44177.61
556.33	43789.08
556.50	43784.40
556.66	43660.35
556.83	43943.56
556.99	44598.91
557.16	44217.40
557.32	44081.65
557.49	44147.18
557.65	44252.51
557.82	44226.76
557.98	44100.37
558.15	44385.92
558.32	44336.77
558.48	43768.02
558.65	44282.94
558.81	44004.41
558.98	44126.12
559.14	44046.54
559.31	44140.16
559.47	43906.11
559.64	44189.31
559.80	44423.37
559.97	44327.41
560.13	44383.58
560.30	44605.93
560.46	44678.49
560.63	44402.30
560.79	44598.91
560.96	44999.14
561.12	44575.50
561.29	44849.35
561.45	44933.60
561.61	44790.83
561.78	44914.88
561.94	44381.24
562.11	44767.43
562.27	44924.24
562.44	44683.17
562.60	45177.02
562.77	44737.00
562.93	44744.02
563.10	44835.30
563.26	44825.94
563.42	44982.76
563.59	44849.35
563.75	44495.92
563.92	45024.89
564.08	45268.30
564.24	44758.06
564.41	45174.68
564.57	45081.06
564.74	44933.60
564.90	45167.66
565.07	44818.92
565.23	45148.93
565.39	44858.71
565.56	45762.15
565.72	45069.36
565.88	45198.09
566.05	45467.25
566.21	45221.49
566.38	45308.09
566.54	45537.46
566.70	45167.66
566.87	45076.38
567.03	45170.00
567.19	45256.60
567.36	45694.28
567.52	45123.19
567.68	45518.74
567.85	45368.94
568.01	45654.49
568.17	45081.06
568.34	45343.20
568.50	45593.64
568.66	45174.68
568.83	45535.12
568.99	45504.70
569.15	45502.35
569.32	45478.95
569.48	45593.64
569.64	45600.66
569.81	45446.18
569.97	45202.77
570.13	45757.47
570.30	45411.07
570.46	45830.03
570.62	45972.80
570.78	45626.40
570.95	45148.93
571.11	45900.25
571.27	45776.20
571.43	45476.61
571.60	45827.69
571.76	45406.39
571.92	45675.55
572.09	45954.08
572.25	45478.95
572.41	45511.72
572.57	45731.73
572.74	45954.08
572.90	45886.20
573.06	45565.55
573.22	45911.95
573.38	46344.95
573.55	45921.31
573.71	46344.95
573.87	46021.95
574.03	46071.10
574.20	45872.16
574.36	45652.15
574.52	46237.28
574.68	45872.16
574.84	46213.88
575.01	46099.19
575.17	45876.84
575.33	46003.23
575.49	45900.25
575.65	46052.38
575.82	45715.34
575.98	46054.72
576.14	45993.87
576.30	46412.82
576.46	46078.13
576.62	46087.49
576.79	46080.47
576.95	45928.33
577.11	46143.66
577.27	45921.31
577.43	46227.92
577.59	46260.69
577.75	45982.16
577.92	45418.10
578.08	46092.17
578.24	46113.23
578.40	46373.03
578.56	46483.04
578.72	45937.69
578.88	46356.65
579.04	46230.26
579.21	46319.20
579.37	45965.78
579.53	46450.27
579.69	46183.45
579.85	45954.08
580.01	46143.66
580.17	46204.52
580.33	46316.86
580.49	46190.47
580.65	46515.81
580.82	46167.07
580.98	46124.94
581.14	46127.28
581.30	46361.33
581.46	46270.05
581.62	46246.65
581.78	46227.92
581.94	46581.34
582.10	46328.56
582.26	46660.92
582.42	45942.38
582.58	46230.26
582.74	46403.46
582.90	46106.21
583.06	46609.43
583.22	45642.79
583.38	46396.44
583.54	46391.76
583.70	46471.34
583.86	46375.37
584.02	46522.83
584.18	46497.08
584.34	46450.27
584.50	46686.67
584.66	46642.20
584.82	46279.41
584.98	46485.38
585.14	46656.24
585.30	46387.08
585.46	46204.52
585.62	46366.01
585.78	46373.03
585.94	45928.33
586.10	46181.11
586.26	46211.54
586.42	46401.12
586.58	46309.84
586.74	46433.89
586.90	46532.19
587.06	46045.36
587.22	46494.74
587.38	45961.10
587.54	46796.67
587.70	46684.33
587.86	46604.75
588.02	46239.62
588.18	46639.86
588.34	46354.31
588.49	46384.74
588.65	46330.90
588.81	46248.99
588.97	46726.46
589.13	46335.59
589.29	46464.32
589.45	46724.11
589.61	47033.07
589.77	46766.24
589.93	46588.36
590.08	46703.05
