SpectraSuite Data File
++++++++++++++++++++++++++++++++++++
Date: Fri Oct 25 10:43:23 EDT 2013
User: price-jones
Dark Spectrum Present: No
Reference Spectrum Present: No
Number of Sampled Component Spectra: 1
Spectrometers: USB2+H05261
Integration Time (usec): 100000 (USB2+H05261)
Spectra Averaged: 1 (USB2+H05261)
Boxcar Smoothing: 0 (USB2+H05261)
Correct for Electrical Dark: No (USB2+H05261)
Strobe/Lamp Enabled: No (USB2+H05261)
Correct for Detector Non-linearity: No (USB2+H05261)
Correct for Stray Light: No (USB2+H05261)
Number of Pixels in Processed Spectrum: 2048
>>>>>Begin Processed Spectral Data<<<<<
365.73	51.49
365.92	51.49
366.12	51.49
366.32	49.15
366.52	37.45
366.72	0.00
366.91	0.00
367.11	100.64
367.31	65.54
367.51	42.13
367.70	14.04
367.90	37.45
368.10	32.77
368.30	14.04
368.49	44.47
368.69	11.70
368.89	0.00
369.09	60.85
369.28	72.56
369.48	11.70
369.68	35.11
369.87	77.24
370.07	58.51
370.27	107.66
370.47	194.26
370.66	360.44
370.86	362.78
371.06	482.15
371.25	531.30
371.45	423.64
371.65	433.00
371.84	447.04
372.04	402.57
372.24	514.92
372.44	482.15
372.63	491.51
372.83	514.92
373.03	500.87
373.22	470.45
373.42	512.58
373.62	531.30
373.81	648.33
374.01	643.65
374.21	575.77
374.40	524.28
374.60	571.09
374.79	491.51
374.99	617.90
375.19	617.90
375.38	545.34
375.58	571.09
375.78	540.66
375.97	589.82
376.17	641.31
376.37	608.54
376.56	645.99
376.76	585.13
376.95	566.41
377.15	671.73
377.35	676.41
377.54	678.76
377.74	601.52
377.93	601.52
378.13	650.67
378.33	685.78
378.52	627.26
378.72	596.84
378.91	662.37
379.11	653.01
379.31	636.63
379.50	697.48
379.70	634.29
379.89	699.82
380.09	699.82
380.28	709.18
380.48	657.69
380.68	725.57
380.87	685.78
381.07	699.82
381.26	711.52
381.46	725.57
381.65	725.57
381.85	620.24
382.04	662.37
382.24	702.16
382.43	767.70
382.63	692.80
382.83	741.95
383.02	716.20
383.22	795.78
383.41	777.06
383.61	720.88
383.80	758.33
384.00	774.72
384.19	837.91
384.39	753.65
384.58	765.36
384.78	798.12
384.97	835.57
385.17	863.66
385.36	798.12
385.56	765.36
385.75	812.17
385.95	830.89
386.14	842.59
386.34	795.78
386.53	851.96
386.72	830.89
386.92	823.87
387.11	767.70
387.31	826.21
387.50	884.72
387.70	770.04
387.89	837.91
388.09	840.25
388.28	880.04
388.48	894.08
388.67	938.55
388.86	908.13
389.06	926.85
389.25	945.58
389.45	905.79
389.64	926.85
389.84	952.60
390.03	1071.97
390.22	1004.09
390.42	1055.58
390.61	945.58
390.81	938.55
391.00	1128.14
391.19	1090.69
391.39	1055.58
391.58	1027.50
391.78	968.98
391.97	992.39
392.16	1022.81
392.36	1069.62
392.55	929.19
392.75	978.34
392.94	954.94
393.13	1001.75
393.33	978.34
393.52	1093.03
393.71	978.34
393.91	1135.16
394.10	1050.90
394.29	1076.65
394.49	1046.22
394.68	1196.01
394.88	1270.91
395.07	1210.06
395.26	1203.04
395.46	1242.82
395.65	1273.25
395.84	1193.67
396.04	1252.19
396.23	1207.72
396.42	1076.65
396.62	1263.89
396.81	1242.82
397.00	1200.69
397.19	1282.61
397.39	1355.17
397.58	1392.62
397.77	1423.05
397.97	1455.81
398.16	1313.04
398.35	1455.81
398.55	1521.35
398.74	1523.69
398.93	1474.54
399.12	1535.39
399.32	1523.69
399.51	1509.65
399.70	1561.14
399.90	1516.67
400.09	1605.61
400.28	1724.97
400.47	1561.14
400.67	1675.82
400.86	1671.14
401.05	1600.93
401.24	1661.78
401.44	1659.44
401.63	1739.02
401.82	1746.04
402.01	1643.06
402.21	1701.57
402.40	1753.06
402.59	1654.76
402.78	1783.49
402.97	1717.95
403.17	1764.76
403.36	1806.89
403.55	1834.98
403.74	1795.19
403.93	1809.23
404.13	1867.75
404.32	1923.92
404.51	1900.52
404.70	1959.03
404.89	1816.26
405.09	1970.73
405.28	2064.35
405.47	1856.04
405.66	2001.16
405.85	1949.67
406.05	1989.46
406.24	1968.39
406.43	2047.97
406.62	2036.27
406.81	2155.63
407.00	1980.09
407.20	1937.96
407.39	2125.21
407.58	2228.19
407.77	2139.25
407.96	2251.60
408.15	2270.32
408.34	2190.74
408.54	2370.96
408.73	2342.88
408.92	2349.90
409.11	2230.53
409.30	2396.71
409.49	2218.83
409.68	2223.51
409.87	2284.36
410.07	2228.19
410.26	2359.26
410.45	2399.05
410.64	2347.56
410.83	2483.31
411.02	2448.20
411.21	2581.61
411.40	2551.18
411.59	2647.15
411.78	2642.46
411.98	2574.59
412.17	2729.06
412.36	2726.72
412.55	2682.25
412.74	2775.88
412.93	2717.36
413.12	2759.49
413.31	2864.82
413.50	2932.69
413.69	2944.39
413.88	2970.14
414.07	2951.42
414.26	2946.73
414.45	2942.05
414.64	2993.55
414.83	3009.93
415.02	2923.33
415.22	3105.89
415.41	3173.77
415.60	3267.39
415.79	3316.54
415.98	3283.77
416.17	3157.38
416.36	3096.53
416.55	3183.13
416.74	3293.13
416.93	3243.98
417.12	3417.18
417.31	3351.65
417.50	3365.69
417.69	3543.57
417.88	3585.70
418.07	3424.20
418.26	3522.51
418.45	3468.67
418.64	3632.51
418.83	3662.94
419.02	3585.70
419.21	3660.60
419.39	3672.30
419.58	3548.25
419.77	3517.83
419.96	3653.58
420.15	3667.62
420.34	3812.73
420.53	3627.83
420.72	3824.44
420.91	3815.07
421.10	3815.07
421.29	3716.77
421.48	3794.01
421.67	3946.14
421.86	3754.22
422.05	3908.69
422.24	3786.99
422.43	3789.33
422.61	3859.54
422.80	4077.21
422.99	4046.79
423.18	3847.84
423.37	3786.99
423.56	4023.38
423.75	3976.57
423.94	3911.04
424.13	3653.58
424.32	3646.55
424.50	4046.79
424.69	3960.19
424.88	4051.47
425.07	3974.23
425.26	3812.73
425.45	3941.46
425.64	3974.23
425.83	4018.70
426.01	4112.32
426.20	3929.76
426.39	4037.42
426.58	4014.02
426.77	4135.73
426.96	3967.21
427.15	4021.04
427.33	3950.82
427.52	4091.26
427.71	4187.22
427.90	4248.07
428.09	4184.88
428.28	4065.51
428.46	4124.02
428.65	4124.02
428.84	4194.24
429.03	4276.16
429.22	4117.00
429.40	4152.11
429.59	4149.77
429.78	3906.35
429.97	3992.95
430.16	4039.76
430.34	4168.49
430.53	4208.28
430.72	4184.88
430.91	4250.41
431.10	4329.99
431.28	4470.42
431.47	4652.98
431.66	4648.30
431.85	4505.53
432.03	4718.52
432.22	4823.84
432.41	4636.60
432.60	4753.63
432.79	4685.75
432.97	4816.82
433.16	4629.58
433.35	4695.11
433.54	4650.64
433.72	4624.90
433.91	4650.64
434.10	4702.14
434.28	4676.39
434.47	4985.34
434.66	4929.17
434.85	4992.36
435.03	4950.23
435.22	4919.81
435.41	5029.81
435.59	5149.18
435.78	4992.36
435.97	5242.80
436.16	5224.08
436.34	5275.57
436.53	5172.58
436.72	5228.76
436.90	4952.57
437.09	5366.85
437.28	5184.29
437.46	5109.39
437.65	5048.54
437.84	5259.18
438.02	5022.79
438.21	5181.95
438.40	5050.88
438.58	5280.25
438.77	5401.96
438.96	5500.26
439.14	5657.07
439.33	5720.27
439.52	5654.73
439.70	5668.78
439.89	5575.16
440.08	5563.45
440.26	5750.70
440.45	5764.74
440.63	5909.85
440.82	5926.24
441.01	5956.66
441.19	6017.52
441.38	6008.16
441.57	6083.05
441.75	6171.99
441.94	6249.23
442.12	6298.38
442.31	6279.66
442.50	6272.64
442.68	6167.31
442.87	6352.21
443.05	6354.55
443.24	6310.08
443.43	6431.79
443.61	6609.67
443.80	6656.48
443.98	6560.52
444.17	6249.23
444.35	6450.52
444.54	6642.44
444.73	6506.69
444.91	6420.09
445.10	6478.60
445.28	6392.00
445.47	6394.34
445.65	6338.17
445.84	6607.33
446.02	6707.98
446.21	6478.60
446.39	6604.99
446.58	6747.76
446.77	6693.93
446.95	6635.42
447.14	6825.00
447.32	6895.22
447.51	6759.47
447.69	6392.00
447.88	6684.57
448.06	6623.72
448.25	6633.08
448.43	6738.40
448.62	6850.75
448.80	6731.38
448.99	6782.87
449.17	6750.10
449.36	6621.38
449.54	6890.54
449.73	7124.59
449.91	7030.97
450.10	7248.64
450.28	7169.06
450.46	7262.68
450.65	7157.36
450.83	7166.72
451.02	7094.16
451.20	7356.30
451.39	7283.75
451.57	7225.23
451.76	7218.21
451.94	7211.19
452.13	7215.87
452.31	7286.09
452.49	7140.97
452.68	7059.06
452.86	7265.02
453.05	7232.26
453.23	7424.18
453.42	7178.42
453.60	7468.65
453.78	7424.18
453.97	7253.32
454.15	7274.38
454.34	7405.46
454.52	7611.42
454.70	7559.93
454.89	7527.16
455.07	7620.78
455.26	7499.08
455.44	7707.38
455.62	7845.48
455.81	7929.74
455.99	7878.24
456.17	7971.86
456.36	7964.84
456.54	8030.38
456.73	7922.71
456.91	8470.40
457.09	8154.43
457.28	8346.35
457.46	7995.27
457.64	8177.83
457.83	8201.24
458.01	7999.95
458.19	8184.85
458.38	8116.98
458.56	8248.05
458.74	8290.18
458.93	8175.49
459.11	8311.24
459.29	8290.18
459.48	8393.16
459.66	8355.71
459.84	8264.43
460.03	8519.55
460.21	8528.91
460.39	8812.12
460.57	8547.64
460.76	8758.28
460.94	8648.28
461.12	8933.82
461.31	8795.73
461.49	8648.28
461.67	8549.98
461.85	8945.53
462.04	8641.26
462.22	9252.14
462.40	8842.54
462.59	8985.32
462.77	8966.59
462.95	9102.34
463.13	8875.31
463.32	8966.59
463.50	8999.36
463.68	8779.35
463.86	8917.44
464.05	9083.62
464.23	8917.44
464.41	9097.66
464.59	8858.93
464.78	9055.53
464.96	9132.77
465.14	9039.15
465.32	9186.60
465.50	9172.56
465.69	9322.35
465.87	9320.01
466.05	9081.28
466.23	9076.60
466.41	9055.53
466.60	9357.46
466.78	9111.71
466.96	9298.95
467.14	9107.02
467.32	9446.40
467.51	9472.15
467.69	9373.85
467.87	9481.51
468.05	9425.34
468.23	9502.58
468.41	9572.79
468.60	9596.20
468.78	9734.29
468.96	9383.21
469.14	9675.77
469.32	9694.50
469.50	9352.78
469.69	9825.57
469.87	9813.87
470.05	9762.37
470.23	9703.86
470.41	9769.40
470.59	9912.17
470.77	10068.98
470.95	10066.64
471.14	10132.18
471.32	9834.93
471.50	10111.11
471.68	10375.59
471.86	10394.32
472.04	10431.77
472.22	10504.32
472.40	10321.76
472.58	10530.07
472.77	10534.75
472.95	10628.37
473.13	10691.57
473.31	10485.60
473.49	10682.20
473.67	10520.71
473.85	10574.54
474.03	10958.39
474.21	10967.75
474.39	11096.48
474.57	10965.41
474.75	11199.46
474.93	11030.94
475.12	11087.12
475.30	11375.00
475.48	11475.65
475.66	11438.20
475.84	11239.25
476.02	11468.62
476.20	11513.10
476.38	11613.74
476.56	11810.34
476.74	11789.28
476.92	11861.84
477.10	11913.33
477.28	12107.59
477.46	12196.53
477.64	12189.51
477.82	12491.44
478.00	12662.30
478.18	12571.02
478.36	12681.02
478.54	12547.61
478.72	12870.61
478.90	13081.25
479.08	12858.90
479.26	13188.92
479.44	13273.18
479.62	13128.06
479.80	13111.68
479.98	13453.40
480.16	13582.13
480.34	13425.31
480.52	13947.25
480.70	14139.18
480.88	13635.96
481.06	14104.07
481.24	14059.60
481.41	14202.37
481.59	14434.08
481.77	14593.24
481.95	14501.96
482.13	14516.00
482.31	14380.25
482.49	14934.96
482.67	15028.58
482.85	14991.13
483.03	15506.05
483.21	15056.67
483.39	15536.48
483.57	15480.30
483.74	15480.30
483.92	15557.54
484.10	15386.68
484.28	16077.14
484.46	16020.97
484.64	16381.41
484.82	16210.55
485.00	16121.61
485.18	16479.71
485.35	16556.95
485.53	16301.83
485.71	16229.27
485.89	16648.23
486.07	16070.12
486.25	16542.91
486.43	16648.23
486.61	17071.87
486.78	17198.26
486.96	17455.72
487.14	17685.09
487.32	17666.36
487.50	18272.56
487.68	18024.47
487.85	18445.76
488.03	18438.74
488.21	18492.57
488.39	18410.65
488.57	18452.78
488.75	18862.38
488.92	19150.26
489.10	19225.16
489.28	19499.00
489.46	19971.79
489.64	20084.14
489.81	20247.97
489.99	20395.43
490.17	20210.53
490.35	20365.00
490.53	20458.62
490.70	20524.16
490.88	20444.58
491.06	20821.41
491.24	20585.01
491.41	20718.42
491.59	20587.35
491.77	20751.19
491.95	21163.12
492.13	21359.73
492.30	21392.50
492.48	21708.47
492.66	21750.60
492.84	21797.41
493.01	22366.16
493.19	22075.93
493.37	22256.15
493.54	22272.54
493.72	22672.77
493.90	22693.83
494.08	22841.29
494.25	23065.98
494.43	23239.18
494.61	23381.95
494.79	23091.73
494.96	23459.19
495.14	23384.29
495.32	23358.55
495.49	23686.22
495.67	23894.53
495.85	23779.84
496.02	24231.57
496.20	24336.89
496.38	24301.78
496.55	24004.53
496.73	25429.92
496.91	24781.59
497.09	25050.75
497.26	25130.33
497.44	25158.42
497.62	25137.35
497.79	25586.74
497.97	25017.99
498.14	25198.21
498.32	25893.35
498.50	25582.06
498.67	26157.83
498.85	25792.70
499.03	26230.38
499.20	26015.05
499.38	26333.37
499.56	26473.80
499.73	26237.41
499.91	26639.98
500.08	26799.13
500.26	26387.20
500.44	26567.42
500.61	26939.57
500.79	26471.46
500.97	26817.86
501.14	27126.81
501.32	27159.58
501.49	27133.83
501.67	27349.16
501.84	27414.69
502.02	27646.41
502.20	27768.12
502.37	27798.54
502.55	27660.45
502.72	28161.33
502.90	28002.17
503.07	28219.84
503.25	28027.92
503.43	28032.60
503.60	28098.13
503.78	28395.38
503.95	28051.32
504.13	28491.34
504.30	28734.76
504.48	28472.62
504.65	28699.65
504.83	29024.98
505.01	29113.92
505.18	29357.34
505.36	29560.97
505.53	29827.79
505.71	29853.53
505.88	30103.97
506.06	29385.43
506.23	29933.11
506.41	29661.61
506.58	29890.98
506.76	30192.91
506.93	29682.67
507.11	29951.84
507.28	30143.76
507.46	30045.46
507.63	30052.48
507.81	30546.33
507.98	30382.49
508.16	30471.43
508.33	30106.31
508.50	30843.58
508.68	30874.01
508.85	31307.01
509.03	30974.65
509.20	31358.50
509.38	31527.02
509.55	31248.49
509.73	30937.20
509.90	31487.23
510.08	31381.90
510.25	31498.93
510.42	31442.76
510.60	31597.23
510.77	31524.68
510.95	31859.37
511.12	31737.66
511.30	32088.74
511.47	32657.49
511.64	32257.26
511.82	32554.51
511.99	32219.81
512.17	32121.51
512.34	32252.58
512.51	32828.35
512.69	32891.55
512.86	32467.91
513.04	32929.00
513.21	32701.96
513.38	32954.74
513.56	32620.05
513.73	32830.69
513.90	33333.91
514.08	33099.86
514.25	33186.46
514.43	33362.00
514.60	33387.74
514.77	33359.66
514.95	33584.35
515.12	33530.51
515.29	33649.88
515.47	34375.45
515.64	33895.64
515.81	33858.19
515.99	33916.70
516.16	33937.77
516.33	33780.95
516.51	33675.63
516.68	33270.72
516.85	33186.46
517.03	33787.97
517.20	34059.48
517.37	34258.42
517.54	34338.00
517.72	34050.11
517.89	33949.47
518.06	34178.84
518.24	34258.42
518.41	34213.95
518.58	34455.03
518.75	34569.71
518.93	34934.84
519.10	34731.21
519.27	34960.58
519.45	34878.66
519.62	35391.24
519.79	35213.36
519.96	35601.89
520.14	35414.65
520.31	35480.18
520.48	35440.39
520.65	35367.84
520.83	35711.89
521.00	36205.75
521.17	36114.47
521.34	35674.45
521.52	36355.54
521.69	36037.23
521.86	36147.23
522.03	36273.62
522.20	36395.33
522.38	36449.16
522.55	36788.54
522.72	36510.02
522.89	36180.00
523.07	37088.13
523.24	36559.17
523.41	37132.60
523.58	37027.28
523.75	37343.25
523.92	37450.91
524.10	37366.65
524.27	37055.36
524.44	37535.17
524.61	37399.42
524.78	37474.32
524.96	37722.41
525.13	37254.31
525.30	38059.45
525.47	37787.95
525.64	37380.70
525.81	37574.96
525.98	37546.87
526.16	37266.01
526.33	37563.26
526.50	37427.51
526.67	37099.83
526.84	37076.43
527.01	37205.16
527.18	38237.33
527.36	38412.87
527.53	38026.68
527.70	38120.31
527.87	38789.70
528.04	38525.22
528.21	38583.73
528.38	38307.55
528.55	38569.69
528.72	38969.92
528.89	38911.41
529.07	38993.32
529.24	38869.28
529.41	38969.92
529.58	38455.00
529.75	38735.87
529.92	38789.70
530.09	38787.36
530.26	38693.74
530.43	39178.23
530.60	39028.43
530.77	39246.10
530.94	39728.25
531.11	39407.60
531.28	39196.95
531.46	38958.22
531.63	39353.77
531.80	39168.87
531.97	39552.71
532.14	39098.65
532.31	38897.36
532.48	39281.21
532.65	39627.61
532.82	39068.22
532.99	39639.31
533.16	39651.02
533.33	40392.97
533.50	40271.26
533.67	39866.34
533.84	39555.05
534.01	39931.88
534.18	40465.52
534.35	40521.69
534.52	40165.93
534.69	40102.74
534.86	40294.66
535.03	40835.33
535.20	41095.13
535.37	40842.35
535.54	40797.88
535.71	40528.72
535.88	40535.74
536.05	40739.36
536.22	40484.25
536.38	40652.76
536.55	40713.62
536.72	40781.49
536.89	40760.43
537.06	41043.63
537.23	40914.90
537.40	40816.60
537.57	41076.40
537.74	41010.87
537.91	41284.71
538.08	41202.79
538.25	40994.48
538.42	41071.72
538.59	40905.54
538.75	40954.69
538.92	41394.71
539.09	41336.20
539.26	41600.68
539.43	41563.23
539.60	41448.55
539.77	40856.39
539.94	41186.41
540.11	41221.52
540.28	41478.97
540.44	41319.82
540.61	41694.30
540.78	41539.83
540.95	41420.46
541.12	41345.56
541.29	41408.76
541.46	41523.44
541.62	41907.29
541.79	42249.01
541.96	41471.95
542.13	41429.82
542.30	41848.78
542.47	41860.48
542.63	41970.49
542.80	42043.04
542.97	42674.99
543.14	42504.13
543.31	42745.20
543.48	42562.64
543.64	42721.80
543.81	42962.87
543.98	42775.63
544.15	42415.19
544.32	43100.97
544.48	43110.33
544.65	42789.67
544.82	42813.08
544.99	42794.36
545.16	42777.97
545.32	42735.84
545.49	43452.05
545.66	43262.46
545.83	43386.51
546.00	42897.34
546.16	43379.49
546.33	43292.89
546.50	42735.84
546.67	43365.45
546.83	42801.38
547.00	43140.75
547.17	43061.18
547.34	42749.88
547.50	43239.06
547.67	43915.47
547.84	43702.48
548.00	43459.07
548.17	43906.11
548.34	43885.04
548.51	43959.94
548.67	43789.08
548.84	43545.67
549.01	43395.87
549.18	43732.91
549.34	43800.79
549.51	43587.80
549.68	44109.74
549.84	43791.42
550.01	43775.04
550.18	43838.23
550.34	43959.94
550.51	44240.81
550.68	43782.06
550.84	43318.64
551.01	44016.11
551.18	44156.55
551.34	43854.62
551.51	44189.31
551.68	44203.36
551.84	43721.21
552.01	44027.82
552.18	44156.55
552.34	43861.64
552.51	44205.70
552.68	44289.96
552.84	44512.31
553.01	44694.87
553.18	44634.02
553.34	44549.76
553.51	44650.40
553.67	44451.45
553.84	44795.51
554.01	45177.02
554.17	44463.16
554.34	44776.79
554.51	44278.25
554.67	44701.89
554.84	44236.12
555.00	44641.04
555.17	44580.18
555.33	44921.90
555.50	44797.85
555.67	44767.43
555.83	44727.64
556.00	44783.81
556.16	45322.13
556.33	45024.89
556.50	44442.09
556.66	45024.89
556.83	44849.35
556.99	44844.66
557.16	45137.23
557.32	45034.25
557.49	44741.68
557.65	44865.73
557.82	44933.60
557.98	44615.29
558.15	45085.74
558.32	45268.30
558.48	44975.73
558.65	44980.42
558.81	44566.14
558.98	44666.78
559.14	45265.96
559.31	44802.53
559.47	45558.53
559.64	45272.98
559.80	45228.51
559.97	45048.29
560.13	44505.29
560.30	45378.31
560.46	45095.10
560.63	45523.42
560.79	45666.19
560.96	45408.73
561.12	45284.68
561.29	44870.41
561.45	45450.86
561.61	44973.39
561.78	45544.48
561.94	45385.33
562.11	45289.37
562.27	45886.20
562.44	45755.13
562.60	45544.48
562.77	45289.37
562.93	45305.75
563.10	45851.09
563.26	44996.80
563.42	45600.66
563.59	45443.84
563.75	45825.35
563.92	45858.12
564.08	45610.02
564.24	45858.12
564.41	45694.28
564.57	45745.77
564.74	45425.12
564.90	45207.45
565.07	45600.66
565.23	45586.61
565.39	44865.73
565.56	45359.58
565.72	45333.84
565.88	45794.92
566.05	45261.28
566.21	45610.02
566.38	45422.78
566.54	45736.41
566.70	45689.60
566.87	46281.75
567.03	45759.81
567.19	46333.24
567.36	45617.04
567.52	46043.02
567.68	45909.61
567.85	45347.88
568.01	45710.66
568.17	45535.12
568.34	45979.82
568.50	45956.42
568.66	45663.85
568.83	45563.21
568.99	45251.92
569.15	45308.09
569.32	45759.81
569.48	45441.50
569.64	45975.14
569.81	46122.60
569.97	46115.58
570.13	45783.22
570.30	45640.45
570.46	45724.71
570.62	45595.98
570.78	45244.90
570.95	45441.50
571.11	45240.21
571.27	45603.00
571.43	45633.42
571.60	46071.10
571.76	45628.74
571.92	45900.25
572.09	45965.78
572.25	45947.06
572.41	46169.41
572.57	46464.32
572.74	46693.69
572.90	45890.88
573.06	45652.15
573.22	45954.08
573.38	45724.71
573.55	45925.99
573.71	46368.35
573.87	46440.91
574.03	45853.44
574.20	45886.20
574.36	46000.89
574.52	45986.85
574.68	45717.68
574.84	45801.94
575.01	46050.04
575.17	45654.49
575.33	45937.69
575.49	45783.22
575.65	46169.41
575.82	46134.30
575.98	45888.54
576.14	45830.03
576.30	45876.84
576.46	45937.69
576.62	45352.56
576.79	46096.85
576.95	45860.46
577.11	45844.07
577.27	46113.23
577.43	46036.00
577.59	45574.91
577.75	45696.62
577.92	45397.03
578.08	45577.25
578.24	45743.43
578.40	45764.49
578.56	45825.35
578.72	45694.28
578.88	45951.74
579.04	46192.81
579.21	45612.36
579.37	45696.62
579.53	46204.52
579.69	46017.27
579.85	45839.39
580.01	46129.62
580.17	46113.23
580.33	45776.20
580.49	46188.13
580.65	45977.48
580.82	45911.95
580.98	45652.15
581.14	46258.35
581.30	46232.60
581.46	46115.58
581.62	46248.99
581.78	45776.20
581.94	46452.61
582.10	46024.29
582.26	46054.72
582.42	46209.20
582.58	45722.37
582.74	46080.47
582.90	45954.08
583.06	46361.33
583.22	46263.03
583.38	46134.30
583.54	46087.49
583.70	46452.61
583.86	46113.23
584.02	46043.02
584.18	46241.96
584.34	46068.76
584.50	45965.78
584.66	45951.74
584.82	45888.54
584.98	45769.18
585.14	46354.31
585.30	46045.36
585.46	45759.81
585.62	46045.36
585.78	46043.02
585.94	45918.97
586.10	45923.65
586.26	46171.75
586.42	46300.48
586.58	46309.84
586.74	46066.42
586.90	45729.39
587.06	46089.83
587.22	46277.07
587.38	45818.33
587.54	46234.94
587.70	45998.55
587.86	45986.85
588.02	46129.62
588.18	45963.44
588.34	45563.21
588.49	45574.91
588.65	45399.37
588.81	45813.65
588.97	45900.25
589.13	45382.99
589.29	45462.57
589.45	45925.99
589.61	46085.15
589.77	46663.26
589.93	46288.77
590.08	46089.83
