SpectraSuite Data File
++++++++++++++++++++++++++++++++++++
Date: Fri Oct 25 11:26:11 EDT 2013
User: price-jones
Dark Spectrum Present: No
Reference Spectrum Present: No
Number of Sampled Component Spectra: 1
Spectrometers: USB2+H05261
Integration Time (usec): 100000 (USB2+H05261)
Spectra Averaged: 1 (USB2+H05261)
Boxcar Smoothing: 0 (USB2+H05261)
Correct for Electrical Dark: No (USB2+H05261)
Strobe/Lamp Enabled: No (USB2+H05261)
Correct for Detector Non-linearity: No (USB2+H05261)
Correct for Stray Light: No (USB2+H05261)
Number of Pixels in Processed Spectrum: 2048
>>>>>Begin Processed Spectral Data<<<<<
365.73	257.46
365.92	257.46
366.12	257.46
366.32	128.73
366.52	147.45
366.72	114.69
366.91	135.75
367.11	161.50
367.31	182.56
367.51	177.88
367.70	159.16
367.90	166.18
368.10	170.86
368.30	156.82
368.49	142.77
368.69	152.13
368.89	135.75
369.09	110.01
369.28	117.03
369.48	191.92
369.68	121.71
369.87	259.80
370.07	215.33
370.27	241.08
370.47	330.02
370.66	636.63
370.86	702.16
371.06	657.69
371.25	620.24
371.45	592.16
371.65	704.50
371.84	709.18
372.04	674.07
372.24	730.25
372.44	718.54
372.63	730.25
372.83	730.25
373.03	674.07
373.22	737.27
373.42	753.65
373.62	755.99
373.81	858.98
374.01	870.68
374.21	826.21
374.40	823.87
374.60	802.80
374.79	816.85
374.99	922.17
375.19	868.34
375.38	884.72
375.58	842.59
375.78	880.04
375.97	898.77
376.17	990.05
376.37	826.21
376.56	933.87
376.76	833.23
376.95	870.68
377.15	858.98
377.35	844.93
377.54	894.08
377.74	887.06
377.93	947.92
378.13	826.21
378.33	947.92
378.52	912.81
378.72	990.05
378.91	891.74
379.11	957.28
379.31	952.60
379.50	933.87
379.70	1060.26
379.89	961.96
380.09	943.24
380.28	973.66
380.48	1020.47
380.68	1008.77
380.87	968.98
381.07	990.05
381.26	1022.81
381.46	1022.81
381.65	1060.26
381.85	1008.77
382.04	1008.77
382.24	1086.01
382.43	1032.18
382.63	1013.45
382.83	1083.67
383.02	1142.18
383.22	1181.97
383.41	1025.15
383.61	1196.01
383.80	1071.97
384.00	1116.44
384.19	1128.14
384.39	1179.63
384.58	1086.01
384.78	1151.54
384.97	1158.57
385.17	1170.27
385.36	1191.33
385.56	1226.44
385.75	1064.94
385.95	1193.67
386.14	1249.85
386.34	1210.06
386.53	1137.50
386.72	1217.08
386.92	1273.25
387.11	1371.55
387.31	1219.42
387.50	1282.61
387.70	1240.48
387.89	1338.79
388.09	1343.47
388.28	1334.11
388.48	1401.98
388.67	1303.68
388.86	1284.95
389.06	1301.34
389.25	1329.42
389.45	1373.89
389.64	1296.66
389.84	1301.34
390.03	1423.05
390.22	1437.09
390.42	1369.21
390.61	1301.34
390.81	1404.32
391.00	1345.81
391.19	1411.34
391.39	1439.43
391.58	1439.43
391.78	1392.62
391.97	1448.79
392.16	1467.52
392.36	1430.07
392.55	1455.81
392.75	1617.31
392.94	1479.22
393.13	1544.75
393.33	1535.39
393.52	1572.84
393.71	1572.84
393.91	1521.35
394.10	1535.39
394.29	1556.46
394.49	1593.90
394.68	1626.67
394.88	1624.33
395.07	1647.74
395.26	1654.76
395.46	1659.44
395.65	1689.87
395.84	1631.35
396.04	1701.57
396.23	1846.68
396.42	1671.14
396.62	1741.36
396.81	1755.40
397.00	1739.02
397.19	1870.09
397.39	1816.26
397.58	1790.51
397.77	1930.94
397.97	1832.64
398.16	1788.17
398.35	1923.92
398.55	1820.94
398.74	1928.60
398.93	1933.28
399.12	1867.75
399.32	1921.58
399.51	1853.70
399.70	2008.18
399.90	1959.03
400.09	1991.80
400.28	2047.97
400.47	2047.97
400.67	2066.69
400.86	1937.96
401.05	2045.63
401.24	2064.35
401.44	2073.71
401.63	2045.63
401.82	2010.52
402.01	2092.44
402.21	2108.82
402.40	2155.63
402.59	2209.47
402.78	2167.34
402.97	2277.34
403.17	2354.58
403.36	2342.88
403.55	2342.88
403.74	2317.13
403.93	2413.09
404.13	2368.62
404.32	2366.28
404.51	2342.88
404.70	2403.73
404.89	2317.13
405.09	2487.99
405.28	2429.48
405.47	2382.67
405.66	2558.21
405.85	2492.67
406.05	2349.90
406.24	2504.37
406.43	2497.35
406.62	2635.44
406.81	2518.42
407.00	2703.32
407.20	2635.44
407.39	2623.74
407.58	2658.85
407.77	2658.85
407.96	2710.34
408.15	2810.98
408.34	2600.34
408.54	2773.53
408.73	2857.79
408.92	2796.94
409.11	2902.26
409.30	2974.82
409.49	2906.95
409.68	2937.37
409.87	2860.13
410.07	2988.86
410.26	3005.25
410.45	2937.37
410.64	2993.55
410.83	3014.61
411.02	3077.80
411.21	3190.15
411.40	3112.91
411.59	3204.19
411.78	3075.46
411.98	3101.21
412.17	3382.07
412.36	3265.05
412.55	3234.62
412.74	3403.14
412.93	3323.56
413.12	3417.18
413.31	3487.40
413.50	3485.06
413.69	3515.48
413.88	3662.94
414.07	3574.00
414.26	3541.23
414.45	3562.30
414.64	3641.87
414.83	3686.34
415.02	3794.01
415.22	3873.59
415.41	3812.73
415.60	3861.88
415.79	3908.69
415.98	3936.78
416.17	3894.65
416.36	3967.21
416.55	3985.93
416.74	4037.42
416.93	3971.89
417.12	4051.47
417.31	4098.28
417.50	4159.13
417.69	4402.55
417.88	4234.03
418.07	4243.39
418.26	4297.22
418.45	4252.75
418.64	4500.85
418.83	4437.66
419.02	4365.10
419.21	4521.92
419.39	4442.34
419.58	4552.34
419.77	4540.64
419.96	4606.17
420.15	4617.88
420.34	4615.54
420.53	4667.03
420.72	4650.64
420.91	4643.62
421.10	4758.31
421.29	4835.55
421.48	4627.24
421.67	4788.74
421.86	4697.46
422.05	4695.11
422.24	4788.74
422.43	4868.31
422.61	4795.76
422.80	5013.43
422.99	4786.40
423.18	4940.87
423.37	4940.87
423.56	4990.02
423.75	4983.00
423.94	4751.29
424.13	4491.49
424.32	4777.03
424.50	4854.27
424.69	5011.09
424.88	5074.28
425.07	4968.96
425.26	4858.95
425.45	4983.00
425.64	4840.23
425.83	4943.21
426.01	5107.05
426.20	5100.03
426.39	5043.85
426.58	5039.17
426.77	5083.64
426.96	5217.05
427.15	5214.71
427.33	5074.28
427.52	5146.84
427.71	5217.05
427.90	5327.06
428.09	5245.14
428.28	5472.17
428.46	5387.91
428.65	5266.21
428.84	5465.15
429.03	5490.90
429.22	5334.08
429.40	5605.58
429.59	5458.13
429.78	5219.39
429.97	5305.99
430.16	5521.32
430.34	5437.06
430.53	5598.56
430.72	5610.26
430.91	5652.39
431.10	5511.96
431.28	5671.12
431.47	5846.66
431.66	5802.19
431.85	5743.67
432.03	5947.30
432.22	5853.68
432.41	5928.58
432.60	5816.23
432.79	5886.45
432.97	5919.21
433.16	5949.64
433.35	5895.81
433.54	6008.16
433.72	6221.14
433.91	6087.73
434.10	6211.78
434.28	5900.49
434.47	6113.48
434.66	6211.78
434.85	6328.81
435.03	6312.42
435.22	6160.29
435.41	6441.15
435.59	6384.98
435.78	6525.41
435.97	6377.96
436.16	6282.00
436.34	6424.77
436.53	6502.01
436.72	6773.51
436.90	6499.67
437.09	6326.47
437.28	6338.17
437.46	6546.48
437.65	6651.80
437.84	6839.05
438.02	6789.89
438.21	6853.09
438.40	6527.75
438.58	6771.17
438.77	6981.82
438.96	6974.80
439.14	6986.50
439.33	7110.55
439.52	7054.37
439.70	6956.07
439.89	7274.38
440.08	7183.10
440.26	7197.15
440.45	7335.24
440.63	7419.50
440.82	7606.74
441.01	7562.27
441.19	7681.64
441.38	7548.23
441.57	7597.38
441.75	7826.75
441.94	8095.91
442.12	7960.16
442.31	7866.54
442.50	7803.35
442.68	7957.82
442.87	8002.29
443.05	7988.25
443.24	8198.90
443.43	8182.51
443.61	8173.15
443.80	8456.36
443.98	8023.36
444.17	7824.41
444.35	8336.99
444.54	8439.97
444.73	8189.53
444.91	8205.92
445.10	8189.53
445.28	8255.07
445.47	8372.10
445.65	8259.75
445.84	8531.25
446.02	8362.73
446.21	8404.86
446.39	8308.90
446.58	8610.83
446.77	8542.96
446.95	8236.35
447.14	8311.24
447.32	8526.57
447.51	8327.63
447.69	8334.65
447.88	8397.84
448.06	8458.70
448.25	8514.87
448.43	8465.72
448.62	8549.98
448.80	8603.81
448.99	8643.60
449.17	8582.74
449.36	8477.42
449.54	8755.94
449.73	8816.80
449.91	8819.14
450.10	8854.25
450.28	8865.95
450.46	8985.32
450.65	8980.64
450.83	9013.40
451.02	9034.47
451.20	9165.54
451.39	9064.89
451.57	9331.72
451.76	8952.55
451.94	9153.84
452.13	9350.44
452.31	9184.26
452.49	8950.21
452.68	9235.75
452.86	9041.49
453.05	9500.23
453.23	9434.70
453.42	9198.31
453.60	9427.68
453.78	9380.87
453.97	9301.29
454.15	9493.21
454.34	9341.08
454.52	9502.58
454.70	9537.68
454.89	9694.50
455.07	9825.57
455.26	9783.44
455.44	9856.00
455.62	9888.76
455.81	9860.68
455.99	9863.02
456.17	9966.00
456.36	10120.48
456.54	9832.59
456.73	10300.70
456.91	10424.75
457.09	10569.86
457.28	10523.05
457.46	10136.86
457.64	10607.31
457.83	10284.31
458.01	10169.63
458.19	10436.45
458.38	10714.97
458.56	10691.57
458.74	10656.46
458.93	10345.17
459.11	10789.87
459.29	10537.09
459.48	10796.89
459.66	10541.77
459.84	10939.66
460.03	10911.58
460.21	10752.42
460.39	10986.47
460.57	10986.47
460.76	10892.85
460.94	11157.33
461.12	11295.43
461.31	11040.31
461.49	10949.03
461.67	11206.48
461.85	11307.13
462.04	11288.40
462.22	11527.14
462.40	11517.78
462.59	11323.51
462.77	11405.43
462.95	11716.72
463.13	11559.91
463.32	11515.44
463.50	11639.48
463.68	11522.46
463.86	11730.76
464.05	11730.76
464.23	11726.08
464.41	11873.54
464.59	11693.32
464.78	11779.92
464.96	11992.90
465.14	11735.45
465.32	11995.25
465.50	11932.05
465.69	12023.33
465.87	12250.36
466.05	11901.62
466.23	12269.09
466.41	12191.85
466.60	12358.03
466.78	12018.65
466.96	12163.76
467.14	12236.32
467.32	12341.64
467.51	12479.74
467.69	12208.23
467.87	12493.78
468.05	12287.81
468.23	12231.64
468.41	12287.81
468.60	12720.81
468.78	12769.96
468.96	12594.42
469.14	12882.31
469.32	12884.65
469.50	12671.66
469.69	12835.50
469.87	13214.66
470.05	13034.44
470.23	12950.18
470.41	13029.76
470.59	13296.58
470.77	13123.38
470.95	13252.11
471.14	13500.21
471.32	13107.00
471.50	13453.40
471.68	13444.04
471.86	13488.51
472.04	13652.34
472.22	13713.20
472.40	13509.57
472.58	13818.52
472.77	13809.16
472.95	14129.81
473.13	14448.13
473.31	14068.96
473.49	14281.95
473.67	14085.34
473.85	14328.76
474.03	14553.45
474.21	14462.17
474.39	14506.64
474.57	14396.64
474.75	14876.44
474.93	15091.77
475.12	14750.06
475.30	15187.74
475.48	14958.36
475.66	14970.07
475.84	15082.41
476.02	15206.46
476.20	15173.69
476.38	15459.24
476.56	15765.85
476.74	15871.17
476.92	15892.24
477.10	15496.69
477.28	16027.99
477.46	16273.74
477.64	16280.77
477.82	16362.69
478.00	16872.92
478.18	16622.48
478.36	16706.74
478.54	17076.55
478.72	17046.12
478.90	17280.18
479.08	17422.95
479.26	17762.33
479.44	17532.95
479.62	17614.87
479.80	17778.71
479.98	18190.64
480.16	18485.55
480.34	18284.26
480.52	18661.09
480.70	18436.40
480.88	18462.15
481.06	18630.66
481.24	18649.39
481.41	19012.17
481.59	19260.27
481.77	19538.79
481.95	19309.42
482.13	19489.64
482.31	19810.29
482.49	20166.06
482.67	20229.25
482.85	20182.44
483.03	20304.15
483.21	20692.68
483.39	20931.41
483.57	20739.49
483.74	20727.78
483.92	21198.23
484.10	21235.68
484.28	21907.41
484.46	21633.57
484.64	22089.98
484.82	21909.75
485.00	22349.78
485.18	22668.09
485.35	22930.23
485.53	22403.61
485.71	22974.70
485.89	23232.16
486.07	23131.51
486.25	23269.61
486.43	23793.89
486.61	23594.94
486.78	24002.19
486.96	24304.12
487.14	24418.81
487.32	24458.60
487.50	24865.85
487.68	25186.50
487.85	25111.61
488.03	25394.81
488.21	26068.89
488.39	25586.74
488.57	26033.78
488.75	26061.87
488.92	26223.36
489.10	26387.20
489.28	26731.26
489.46	27042.55
489.64	26740.62
489.81	27480.23
489.99	27503.64
490.17	27541.08
490.35	28032.60
490.53	28107.49
490.70	28350.91
490.88	28135.58
491.06	28547.51
491.24	28891.57
491.41	28849.44
491.59	28781.57
491.77	29076.48
491.95	29462.66
492.13	29565.65
492.30	29605.44
492.48	29867.58
492.66	30031.41
492.84	30010.35
493.01	30628.25
493.19	30354.41
493.37	30848.26
493.54	30993.37
493.72	31487.23
493.90	31452.12
494.08	31580.85
494.25	31922.57
494.43	32147.26
494.61	31864.05
494.79	32290.03
494.96	32350.88
495.14	33195.82
495.32	33345.61
495.49	32638.77
495.67	33188.80
495.85	33539.88
496.02	33797.34
496.20	33993.94
496.38	34052.45
496.55	34052.45
496.73	34621.20
496.91	34464.39
497.09	34679.72
497.26	34866.96
497.44	34433.96
497.62	35049.52
497.79	35477.84
497.97	35381.88
498.14	35618.27
498.32	35857.01
498.50	35985.74
498.67	36292.35
498.85	36517.04
499.03	36306.39
499.20	36641.09
499.38	36751.09
499.56	36680.88
499.73	36964.08
499.91	37057.70
500.08	37198.13
500.26	37266.01
500.44	37539.85
500.61	37677.94
500.79	37455.59
500.97	37790.29
501.14	38363.72
501.32	38195.20
501.49	38342.66
501.67	38707.78
501.84	38462.02
502.02	38740.55
502.20	38845.87
502.37	38951.20
502.55	39136.10
502.72	39473.13
502.90	39164.18
503.07	39433.35
503.25	39487.18
503.43	39351.43
503.60	39917.84
503.78	40048.91
503.95	40053.59
504.13	40905.54
504.30	40617.66
504.48	40041.88
504.65	40428.07
504.83	40954.69
505.01	40954.69
505.18	40795.54
505.36	41226.20
505.53	40779.15
505.71	41209.81
505.88	41258.96
506.06	41125.55
506.23	42080.49
506.41	42124.96
506.58	42106.24
506.76	41729.41
506.93	42188.16
507.11	42291.14
507.28	42649.24
507.46	42380.08
507.63	42520.51
507.81	43239.06
507.98	42307.52
508.16	42937.13
508.33	43136.07
508.50	43629.93
508.68	43187.56
508.85	43641.63
509.03	43014.37
509.20	43466.09
509.38	44039.52
509.55	44292.30
509.73	44107.40
509.90	44285.28
510.08	44505.29
510.25	44271.23
510.42	44570.82
510.60	44921.90
510.77	45092.76
510.95	45336.18
511.12	45031.91
511.30	44905.52
511.47	45663.85
511.64	45593.64
511.82	45876.84
511.99	45214.47
512.17	45617.04
512.34	45745.77
512.51	45921.31
512.69	46560.28
512.86	46454.95
513.04	46604.75
513.21	46127.28
513.38	46459.63
513.56	46738.16
513.73	46351.97
513.90	47054.13
514.08	46883.27
514.25	46934.76
514.43	47178.18
514.60	47283.50
514.77	47784.38
514.95	47606.50
515.12	47536.28
515.29	47606.50
515.47	47760.97
515.64	47697.78
515.81	47447.34
515.99	48406.96
516.16	48282.91
516.33	48339.08
516.51	48147.16
516.68	48376.53
516.85	48413.98
517.03	48547.39
517.20	48952.30
517.37	48383.55
517.54	48472.49
517.72	48814.21
517.89	48612.93
518.06	49083.37
518.24	49216.78
518.41	48886.77
518.58	49244.87
518.75	49050.61
518.93	49385.30
519.10	49256.57
519.27	49675.53
519.45	49715.32
519.62	49944.69
519.79	49965.76
519.96	49825.32
520.14	50218.53
520.31	49656.81
520.48	50082.78
520.65	50487.70
520.83	50499.40
521.00	50480.67
521.17	50356.63
521.34	50777.92
521.52	50806.01
521.69	50724.09
521.86	50768.56
522.03	50986.23
522.20	51423.91
522.38	51260.07
522.55	51161.77
522.72	51180.49
522.89	51463.70
523.07	51309.22
523.24	51543.28
523.41	51473.06
523.58	51185.18
523.75	51908.40
523.92	51664.99
524.10	51828.82
524.27	51683.71
524.44	52182.24
524.61	51772.65
524.78	52121.39
524.96	51877.97
525.13	52093.30
525.30	52226.71
525.47	52231.40
525.64	52196.29
525.81	52652.69
525.98	52774.40
526.16	52491.19
526.33	52563.75
526.50	53127.82
526.67	52423.32
526.84	52610.56
527.01	52743.97
527.18	52629.29
527.36	52940.58
527.53	52832.91
527.70	53120.80
527.87	53272.93
528.04	53034.20
528.21	53141.86
528.38	53340.81
528.55	53275.27
528.72	53347.83
528.89	53254.21
529.07	53212.08
529.24	53418.05
529.41	53689.55
529.58	53682.53
529.75	53448.47
529.92	53382.94
530.09	53677.85
530.26	53755.08
530.43	54014.88
530.60	53736.36
530.77	53951.69
530.94	54169.36
531.11	53666.14
531.28	53918.92
531.46	53923.60
531.63	54199.79
531.80	53982.12
531.97	54277.02
532.14	54169.36
532.31	54447.88
532.48	54293.41
532.65	54527.46
532.82	54272.34
532.99	54679.60
533.16	54539.16
533.33	54351.92
533.50	54738.11
533.67	54614.06
533.84	54368.30
534.01	54939.39
534.18	54878.54
534.35	55047.06
534.52	54864.50
534.69	55306.86
534.86	55388.78
535.03	54824.71
535.20	55140.68
535.37	55234.30
535.54	55243.66
535.71	55217.92
535.88	55430.91
536.05	55484.74
536.22	55323.24
536.38	55468.36
536.55	55444.95
536.72	55559.64
536.89	55281.11
537.06	55587.72
537.23	55503.46
537.40	55377.08
537.57	55510.49
537.74	55917.74
537.91	55763.26
538.08	55442.61
538.25	55517.51
538.42	55643.90
538.59	55730.50
538.75	55671.98
538.92	55959.87
539.09	56104.98
539.26	55945.83
539.43	55831.14
539.60	56292.22
539.77	56133.07
539.94	56261.80
540.11	55938.80
540.28	56011.36
540.44	56264.14
540.61	56254.78
540.78	56264.14
540.95	56306.27
541.12	56481.81
541.29	56282.86
541.46	56519.26
541.62	56449.04
541.79	56711.18
541.96	56140.09
542.13	56313.29
542.30	56643.30
542.47	56706.50
542.63	56839.91
542.80	56753.31
542.97	57010.77
543.14	57008.43
543.31	57013.11
543.48	57183.97
543.64	57254.18
543.81	57418.02
543.98	57174.61
544.15	57270.57
544.32	57490.58
544.48	57537.39
544.65	57293.97
544.82	57481.22
544.99	57193.33
545.16	57443.77
545.32	57511.64
545.49	57525.69
545.66	57710.59
545.83	57464.83
546.00	57525.69
546.16	57506.96
546.33	57310.36
546.50	57324.40
546.67	57661.44
546.83	57251.84
547.00	57626.33
547.17	57647.39
547.34	57663.78
547.50	57750.38
547.67	57961.03
547.84	58085.07
548.00	57736.34
548.17	58239.55
548.34	57752.72
548.51	58094.44
548.67	58155.29
548.84	58000.82
549.01	57930.60
549.18	58166.99
549.34	58379.98
549.51	58206.78
549.68	58211.46
549.84	58225.51
550.01	58089.76
550.18	58096.78
550.34	58101.46
550.51	58106.14
550.68	58365.94
550.84	58087.42
551.01	58372.96
551.18	58291.04
551.34	58267.64
551.51	58501.69
551.68	58560.20
551.84	58422.11
552.01	58248.91
552.18	58382.32
552.34	58295.72
552.51	58525.10
552.68	58419.77
552.84	58646.80
553.01	58684.25
553.18	58499.35
553.34	58775.53
553.51	58958.09
553.67	58653.82
553.84	58747.45
554.01	58871.49
554.17	58670.21
554.34	58904.26
554.51	58796.60
554.67	59161.72
554.84	58740.42
555.00	58719.36
555.17	58866.81
555.33	59047.04
555.50	58951.07
555.67	58869.15
555.83	58887.88
556.00	59051.72
556.16	59297.47
556.33	59145.34
556.50	59327.90
556.66	59440.24
556.83	58890.22
556.99	59437.90
557.16	59414.50
557.32	59311.52
557.49	59449.61
557.65	59040.01
557.82	59461.31
557.98	59213.21
558.15	59512.80
558.32	59311.52
558.48	59075.12
558.65	59531.53
558.81	59370.03
558.98	59379.39
559.14	59430.88
559.31	59526.84
559.47	59576.00
559.64	59491.74
559.80	59884.95
559.97	59884.95
560.13	59611.10
560.30	59480.03
560.46	59533.87
560.63	59447.27
560.79	59744.51
560.96	59728.13
561.12	59620.47
561.29	59480.03
561.45	59636.85
561.61	59646.21
561.78	59678.98
561.94	59697.70
562.11	59781.96
562.27	59690.68
562.44	59870.90
562.60	60156.45
562.77	59693.02
562.93	59681.32
563.10	59990.27
563.26	59709.41
563.42	60109.64
563.59	60023.04
563.75	59812.39
563.92	60102.62
564.08	59774.94
564.24	59943.46
564.41	60221.98
564.57	59983.25
564.74	59901.33
564.90	60072.19
565.07	60051.12
565.23	60032.40
565.39	59971.55
565.56	60243.05
565.72	59931.76
565.88	60198.58
566.05	60119.00
566.21	60137.72
566.38	59959.84
566.54	60100.28
566.70	60303.90
566.87	60229.01
567.03	60072.19
567.19	60378.80
567.36	60219.64
567.52	60371.78
567.68	60397.52
567.85	60245.39
568.01	60493.49
568.17	60135.38
568.34	60207.94
568.50	60203.26
568.66	60413.91
568.83	60186.88
568.99	60018.36
569.15	60392.84
569.32	60175.17
569.48	60233.69
569.64	60409.23
569.81	60310.92
569.97	60189.22
570.13	60252.41
570.30	60266.45
570.46	60416.25
570.62	60587.11
570.78	60346.03
570.95	60425.61
571.11	60566.04
571.27	60374.12
571.43	60645.62
571.60	60570.72
571.76	60317.95
571.92	60383.48
572.09	60399.86
572.25	60467.74
572.41	60350.71
572.57	60449.02
572.74	60514.55
572.90	60409.23
573.06	60449.02
573.22	60570.72
573.38	60530.93
573.55	60460.72
573.71	60823.50
573.87	60757.97
574.03	60552.00
574.20	60720.52
574.36	60493.49
574.52	60662.00
574.68	60748.60
574.84	60872.65
575.01	60650.30
575.17	60725.20
575.33	60472.42
575.49	60409.23
575.65	60666.69
575.82	60722.86
575.98	60732.22
576.14	60734.56
576.30	60764.99
576.46	60526.25
576.62	60690.09
576.79	60591.79
576.95	60498.17
577.11	60750.94
577.27	60816.48
577.43	60800.10
577.59	60800.10
577.75	60645.62
577.92	60427.95
578.08	60692.43
578.24	60650.30
578.40	60692.43
578.56	60790.73
578.72	60732.22
578.88	60884.36
579.04	60886.70
579.21	60622.22
579.37	60884.36
579.53	60907.76
579.69	60584.77
579.85	60715.84
580.01	60650.30
580.17	60568.38
580.33	60762.65
580.49	60865.63
580.65	60912.44
580.82	60818.82
580.98	60725.20
581.14	60844.57
581.30	60809.46
581.46	60727.54
581.62	60886.70
581.78	60818.82
581.94	60802.44
582.10	60584.77
582.26	60732.22
582.42	60699.45
582.58	60650.30
582.74	60807.12
582.90	60774.35
583.06	60762.65
583.22	60795.42
583.38	60772.01
583.54	60711.16
583.70	60853.93
583.86	60816.48
584.02	60701.79
584.18	60994.36
584.34	60673.71
584.50	60654.98
584.66	60851.59
584.82	60797.76
584.98	61080.96
585.14	60905.42
585.30	60732.22
585.46	60853.93
585.62	60713.50
585.78	61020.11
585.94	60720.52
586.10	61022.45
586.26	60863.29
586.42	61162.88
586.58	61036.49
586.74	61020.11
586.90	60844.57
587.06	60853.93
587.22	61116.07
587.38	61076.28
587.54	61123.09
587.70	61059.90
587.86	61106.71
588.02	61139.47
588.18	60968.61
588.34	60809.46
588.49	60795.42
