SpectraSuite Data File
++++++++++++++++++++++++++++++++++++
Date: Fri Oct 25 11:26:07 EDT 2013
User: price-jones
Dark Spectrum Present: No
Reference Spectrum Present: No
Number of Sampled Component Spectra: 1
Spectrometers: USB2+H05261
Integration Time (usec): 100000 (USB2+H05261)
Spectra Averaged: 1 (USB2+H05261)
Boxcar Smoothing: 0 (USB2+H05261)
Correct for Electrical Dark: No (USB2+H05261)
Strobe/Lamp Enabled: No (USB2+H05261)
Correct for Detector Non-linearity: No (USB2+H05261)
Correct for Stray Light: No (USB2+H05261)
Number of Pixels in Processed Spectrum: 2048
>>>>>Begin Processed Spectral Data<<<<<
365.73	241.08
365.92	241.08
366.12	241.08
366.32	212.99
366.52	159.16
366.72	180.22
366.91	117.03
367.11	117.03
367.31	133.41
367.51	184.90
367.70	163.84
367.90	110.01
368.10	107.66
368.30	156.82
368.49	102.98
368.69	163.84
368.89	184.90
369.09	168.52
369.28	140.43
369.48	187.24
369.68	180.22
369.87	241.08
370.07	243.42
370.27	220.01
370.47	299.59
370.66	606.20
370.86	603.86
371.06	650.67
371.25	765.36
371.45	641.31
371.65	751.31
371.84	622.58
372.04	662.37
372.24	676.41
372.44	770.04
372.63	709.18
372.83	788.76
373.03	688.12
373.22	713.86
373.42	777.06
373.62	744.29
373.81	828.55
374.01	828.55
374.21	847.27
374.40	739.61
374.60	814.51
374.79	767.70
374.99	826.21
375.19	887.06
375.38	894.08
375.58	854.30
375.78	847.27
375.97	851.96
376.17	917.49
376.37	840.25
376.56	919.83
376.76	891.74
376.95	828.55
377.15	924.51
377.35	926.85
377.54	833.23
377.74	793.44
377.93	830.89
378.13	905.79
378.33	1015.79
378.52	924.51
378.72	971.32
378.91	917.49
379.11	919.83
379.31	950.26
379.50	940.90
379.70	1022.81
379.89	957.28
380.09	1025.15
380.28	964.30
380.48	959.62
380.68	1004.09
380.87	957.28
381.07	1050.90
381.26	1029.84
381.46	1078.99
381.65	1078.99
381.85	1055.58
382.04	1022.81
382.24	1107.07
382.43	1064.94
382.63	994.73
382.83	987.71
383.02	1102.39
383.22	1172.61
383.41	992.39
383.61	1100.05
383.80	1050.90
384.00	1174.95
384.19	1188.99
384.39	1109.41
384.58	1137.50
384.78	1158.57
384.97	1144.52
385.17	1109.41
385.36	1207.72
385.56	1163.25
385.75	1139.84
385.95	1193.67
386.14	1299.00
386.34	1210.06
386.53	1341.13
386.72	1219.42
386.92	1282.61
387.11	1224.10
387.31	1324.74
387.50	1245.16
387.70	1224.10
387.89	1327.08
388.09	1287.29
388.28	1320.06
388.48	1247.51
388.67	1299.00
388.86	1263.89
389.06	1299.00
389.25	1284.95
389.45	1401.98
389.64	1383.26
389.84	1331.76
390.03	1387.94
390.22	1451.13
390.42	1446.45
390.61	1401.98
390.81	1418.36
391.00	1357.51
391.19	1462.83
391.39	1394.96
391.58	1458.15
391.78	1380.92
391.97	1453.47
392.16	1593.90
392.36	1549.43
392.55	1516.67
392.75	1579.86
392.94	1631.35
393.13	1535.39
393.33	1420.71
393.52	1643.06
393.71	1617.31
393.91	1533.05
394.10	1600.93
394.29	1558.80
394.49	1572.84
394.68	1673.48
394.88	1516.67
395.07	1624.33
395.26	1652.42
395.46	1629.01
395.65	1743.70
395.84	1652.42
396.04	1750.72
396.23	1713.27
396.42	1629.01
396.62	1666.46
396.81	1767.10
397.00	1654.76
397.19	1785.83
397.39	1799.87
397.58	1816.26
397.77	1874.77
397.97	1898.17
398.16	1865.41
398.35	1912.22
398.55	1792.85
398.74	1891.15
398.93	1937.96
399.12	1963.71
399.32	1959.03
399.51	1947.33
399.70	2017.54
399.90	1944.99
400.09	1944.99
400.28	1968.39
400.47	2120.53
400.67	2033.93
400.86	2069.03
401.05	2080.74
401.24	2225.85
401.44	2150.95
401.63	2127.55
401.82	2106.48
402.01	2085.42
402.21	2200.10
402.40	2239.89
402.59	2127.55
402.78	2218.83
402.97	2221.17
403.17	2214.15
403.36	2200.10
403.55	2228.19
403.74	2448.20
403.93	2415.43
404.13	2394.37
404.32	2375.64
404.51	2410.75
404.70	2497.35
404.89	2403.73
405.09	2469.27
405.28	2497.35
405.47	2459.90
405.66	2495.01
405.85	2427.14
406.05	2476.29
406.24	2509.05
406.43	2576.93
406.62	2635.44
406.81	2715.02
407.00	2616.72
407.20	2483.31
407.39	2546.50
407.58	2733.75
407.77	2766.51
407.96	2740.77
408.15	2754.81
408.34	2682.25
408.54	2792.26
408.73	2745.45
408.92	2787.58
409.11	2867.16
409.30	2951.42
409.49	2862.48
409.68	3005.25
409.87	2970.14
410.07	2972.48
410.26	2960.78
410.45	2972.48
410.64	2923.33
410.83	3016.95
411.02	3103.55
411.21	3211.22
411.40	3007.59
411.59	3220.58
411.78	3183.13
411.98	3066.10
412.17	3293.13
412.36	3232.28
412.55	3440.59
412.74	3471.01
412.93	3344.63
413.12	3417.18
413.31	3520.17
413.50	3529.53
413.69	3412.50
413.88	3463.99
414.07	3595.06
414.26	3581.02
414.45	3630.17
414.64	3810.39
414.83	3623.15
415.02	3669.96
415.22	3831.46
415.41	3726.13
415.60	3754.22
415.79	3812.73
415.98	4030.40
416.17	3974.23
416.36	3866.56
416.55	4044.45
416.74	4074.87
416.93	3990.61
417.12	4093.60
417.31	4219.99
417.50	4217.65
417.69	4212.96
417.88	4273.82
418.07	4416.59
418.26	4257.43
418.45	4320.63
418.64	4456.38
418.83	4372.12
419.02	4318.29
419.21	4440.00
419.39	4517.23
419.58	4526.60
419.77	4257.43
419.96	4512.55
420.15	4531.28
420.34	4589.79
420.53	4606.17
420.72	4730.22
420.91	4807.46
421.10	4690.43
421.29	4770.01
421.48	4573.41
421.67	4903.42
421.86	4765.33
422.05	4779.37
422.24	4887.04
422.43	4945.55
422.61	4929.17
422.80	4938.53
422.99	4929.17
423.18	4819.16
423.37	5078.96
423.56	4919.81
423.75	4887.04
423.94	4800.44
424.13	4652.98
424.32	4762.99
424.50	5032.15
424.69	5078.96
424.88	4992.36
425.07	5008.75
425.26	5011.09
425.45	4894.06
425.64	4973.64
425.83	4915.12
426.01	4997.04
426.20	5123.43
426.39	5071.94
426.58	5008.75
426.77	5090.67
426.96	5053.22
427.15	5102.37
427.33	5242.80
427.52	5032.15
427.71	5247.48
427.90	5343.44
428.09	5362.17
428.28	5338.76
428.46	5460.47
428.65	5350.46
428.84	5516.64
429.03	5479.19
429.22	5336.42
429.40	5572.82
429.59	5472.17
429.78	5289.61
429.97	5287.27
430.16	5474.51
430.34	5596.22
430.53	5444.09
430.72	5729.63
430.91	5427.70
431.10	5685.16
431.28	5720.27
431.47	5654.73
431.66	5799.85
431.85	5764.74
432.03	5809.21
432.22	5912.19
432.41	5895.81
432.60	5804.53
432.79	5937.94
432.97	6015.18
433.16	5980.07
433.35	5792.83
433.54	5935.60
433.72	6015.18
433.91	6202.42
434.10	6244.55
434.28	6061.99
434.47	6153.27
434.66	6171.99
434.85	6239.87
435.03	6413.07
435.22	6216.46
435.41	6539.46
435.59	6569.88
435.78	6427.11
435.97	6485.62
436.16	6331.15
436.34	6384.98
436.53	6541.80
436.72	6640.10
436.90	6326.47
437.09	6672.87
437.28	6626.06
437.46	6630.74
437.65	6635.42
437.84	6665.85
438.02	6768.83
438.21	6918.62
438.40	6766.49
438.58	6864.79
438.77	7094.16
438.96	6937.35
439.14	7052.03
439.33	7138.63
439.52	7276.73
439.70	7171.40
439.89	7414.82
440.08	7166.72
440.26	7325.88
440.45	7274.38
440.63	7527.16
440.82	7644.19
441.01	7564.61
441.19	7517.80
441.38	7712.07
441.57	7639.51
441.75	7641.85
441.94	7906.33
442.12	8039.74
442.31	8002.29
442.50	7857.18
442.68	8004.63
442.87	7854.84
443.05	8002.29
443.24	8133.36
443.43	8098.25
443.61	8210.60
443.80	8367.42
443.98	7990.59
444.17	7840.79
444.35	8166.13
444.54	8421.25
444.73	8315.92
444.91	8189.53
445.10	8238.69
445.28	8159.11
445.47	8194.22
445.65	8432.95
445.84	8564.02
446.02	8489.12
446.21	8430.61
446.39	8287.84
446.58	8418.91
446.77	8402.52
446.95	8334.65
447.14	8369.76
447.32	8507.85
447.51	8425.93
447.69	8346.35
447.88	8636.58
448.06	8552.32
448.25	8432.95
448.43	8444.65
448.62	8601.47
448.80	8402.52
448.99	8662.32
449.17	8723.18
449.36	8603.81
449.54	8760.63
449.73	8856.59
449.91	8987.66
450.10	9057.87
450.28	9341.08
450.46	8961.91
450.65	9020.42
450.83	9001.70
451.02	9090.64
451.20	9085.96
451.39	9221.71
451.57	9205.33
451.76	8975.95
451.94	9102.34
452.13	9352.78
452.31	9156.18
452.49	8997.02
452.68	9310.65
452.86	9242.78
453.05	9586.83
453.23	9465.13
453.42	9294.27
453.60	9312.99
453.78	9507.26
453.97	9338.74
454.15	9455.76
454.34	9207.67
454.52	9694.50
454.70	9582.15
454.89	9802.16
455.07	9687.48
455.26	9724.93
455.44	9666.41
455.62	10017.49
455.81	10003.45
455.99	9914.51
456.17	10207.08
456.36	10178.99
456.54	10073.67
456.73	10012.81
456.91	10511.35
457.09	10228.14
457.28	10558.16
457.46	10361.55
457.64	10574.54
457.83	10609.65
458.01	10391.98
458.19	10757.10
458.38	10525.39
458.56	10773.49
458.74	10434.11
458.93	10705.61
459.11	10918.60
459.29	10761.78
459.48	10782.85
459.66	10796.89
459.84	10780.51
460.03	10881.15
460.21	10803.91
460.39	10953.71
460.57	10726.68
460.76	11351.60
460.94	11049.67
461.12	11098.82
461.31	11143.29
461.49	11150.31
461.67	11124.57
461.85	11269.68
462.04	11068.39
462.22	11688.64
462.40	11583.31
462.59	11232.23
462.77	11344.58
462.95	11651.19
463.13	11440.54
463.32	11557.57
463.50	11646.51
463.68	11688.64
463.86	11840.77
464.05	11454.58
464.23	11632.46
464.41	11906.31
464.59	11793.96
464.78	12138.02
464.96	12051.42
465.14	11653.53
465.32	12037.38
465.50	11754.17
465.69	12135.68
465.87	12285.47
466.05	12210.57
466.23	12161.42
466.41	12271.43
466.60	12383.77
466.78	12222.28
466.96	12191.85
467.14	12210.57
467.32	12458.67
467.51	12559.31
467.69	11974.18
467.87	12271.43
468.05	12695.07
468.23	12517.18
468.41	12636.55
468.60	12432.93
468.78	12805.07
468.96	12552.29
469.14	12952.52
469.32	13057.85
469.50	12505.48
469.69	12807.41
469.87	13270.84
470.05	13008.70
470.23	13099.98
470.41	12992.31
470.59	13139.77
470.77	13069.55
470.95	13151.47
471.14	13511.91
471.32	12952.52
471.50	13476.80
471.68	13425.31
471.86	13586.81
472.04	13671.07
472.22	14054.92
472.40	13668.73
472.58	14038.53
472.77	13727.24
472.95	14083.00
473.13	14377.91
473.31	14045.55
473.49	14300.67
473.67	13977.68
473.85	14305.35
474.03	14492.60
474.21	14366.21
474.39	14679.84
474.57	14796.87
474.75	14766.44
474.93	15044.96
475.12	14885.81
475.30	15243.91
475.48	15131.56
475.66	15098.80
475.84	15080.07
476.02	15222.84
476.20	15344.55
476.38	15749.46
476.56	16088.84
476.74	15719.04
476.92	15939.05
477.10	15627.76
477.28	16016.29
477.46	16313.53
477.64	16353.32
477.82	16484.39
478.00	17025.06
478.18	16805.05
478.36	17046.12
478.54	16779.30
478.72	17392.52
478.90	17467.42
479.08	17369.12
479.26	17493.16
479.44	17649.98
479.62	17694.45
479.80	17771.69
479.98	17926.16
480.16	18391.93
480.34	18176.60
480.52	18665.77
480.70	18361.50
480.88	18284.26
481.06	18775.78
481.24	18836.63
481.41	18948.98
481.59	19405.38
481.77	19346.87
481.95	19307.08
482.13	19711.99
482.31	19508.37
482.49	20217.55
482.67	20259.68
482.85	20524.16
483.03	20482.03
483.21	20638.84
483.39	21207.59
483.57	21032.05
483.74	21350.37
483.92	21268.45
484.10	21235.68
484.28	21694.43
484.46	21813.79
484.64	22300.62
484.82	21699.11
485.00	22419.99
485.18	22724.26
485.35	23049.60
485.53	22897.46
485.71	23026.19
485.89	23508.34
486.07	23180.67
486.25	23264.92
486.43	23447.49
486.61	23716.65
486.78	23824.31
486.96	24383.70
487.14	24273.70
487.32	24421.15
487.50	24587.33
487.68	24849.47
487.85	25333.96
488.03	25661.63
488.21	25881.64
488.39	25469.71
488.57	26265.49
488.75	25640.57
488.92	26333.37
489.10	26469.12
489.28	26719.56
489.46	27009.78
489.64	26916.16
489.81	27344.48
489.99	27590.24
490.17	27723.65
490.35	28266.65
490.53	28301.76
490.70	28173.03
490.88	28175.37
491.06	28929.02
491.24	28683.27
491.41	28666.88
491.59	29340.96
491.77	29261.38
491.95	29600.76
492.13	29666.29
492.30	30075.88
492.48	29968.22
492.66	29942.47
492.84	30183.55
493.01	30424.62
493.19	30443.35
493.37	30801.45
493.54	31065.93
493.72	31747.03
493.90	31491.91
494.08	31742.35
494.25	31805.54
494.43	32084.06
494.61	32046.62
494.79	32346.20
494.96	32666.86
495.14	32451.53
495.32	33046.02
495.49	33195.82
495.67	33261.35
495.85	33411.15
496.02	34148.42
496.20	33965.85
496.38	34059.48
496.55	34050.11
496.73	34831.85
496.91	34195.23
497.09	34665.67
497.26	34707.80
497.44	34609.50
497.62	35218.04
497.79	35835.94
497.97	35550.40
498.14	35915.52
498.32	36282.98
498.50	35934.24
498.67	36851.73
498.85	36655.13
499.03	36699.60
499.20	36655.13
499.38	37123.24
499.56	36900.89
499.73	36992.17
499.91	37364.31
500.08	37710.71
500.26	37551.56
500.44	37794.97
500.61	37708.37
500.79	37528.15
500.97	37703.69
501.14	38513.52
501.32	38284.14
501.49	38188.18
501.67	38349.68
501.84	39131.42
502.02	38642.24
502.20	39054.18
502.37	38925.45
502.55	39166.52
502.72	39566.76
502.90	39562.08
503.07	39201.63
503.25	39367.81
503.43	39267.17
503.60	40093.38
503.78	40051.25
503.95	40463.18
504.13	40360.20
504.30	40669.15
504.48	40172.96
504.65	40751.07
504.83	40884.48
505.01	41436.84
505.18	41064.70
505.36	41701.32
505.53	41205.13
505.71	41544.51
505.88	41710.69
506.06	41441.53
506.23	41785.58
506.41	41907.29
506.58	42403.49
506.76	42349.65
506.93	42487.74
507.11	42110.92
507.28	42700.73
507.46	42698.39
507.63	43363.11
507.81	43250.76
507.98	42911.38
508.16	43203.95
508.33	44079.31
508.50	43318.64
508.68	43615.88
508.85	43592.48
509.03	43758.66
509.20	43906.11
509.38	44392.94
509.55	44383.58
509.73	44189.31
509.90	44598.91
510.08	44306.34
510.25	44687.85
510.42	44737.00
510.60	44568.48
510.77	45261.28
510.95	45406.39
511.12	45254.26
511.30	44954.67
511.47	45488.31
511.64	44884.45
511.82	45820.67
511.99	45514.06
512.17	45918.97
512.34	45500.01
512.51	45942.38
512.69	46307.50
512.86	45858.12
513.04	46597.73
513.21	46539.21
513.38	47012.00
513.56	46969.87
513.73	46630.49
513.90	46972.21
514.08	46904.34
514.25	47250.74
514.43	47171.16
514.60	47440.32
514.77	47192.22
514.95	47767.99
515.12	47519.90
515.29	47732.89
515.47	47868.64
515.64	47910.77
515.81	47885.02
515.99	48399.94
516.16	48231.42
516.33	48210.35
516.51	48818.89
516.68	48603.56
516.85	48505.26
517.03	48711.23
517.20	48811.87
517.37	48807.19
517.54	48533.35
517.72	48678.46
517.89	49041.24
518.06	49563.18
518.24	49195.72
518.41	49347.86
518.58	49254.23
518.75	49172.31
518.93	49301.04
519.10	49602.97
519.27	49581.91
519.45	49457.86
519.62	49773.83
519.79	49965.76
519.96	50389.39
520.14	50274.71
520.31	50199.81
520.48	50082.78
520.65	50241.94
520.83	50604.72
521.00	50389.39
521.17	50604.72
521.34	50705.37
521.52	50988.57
521.69	50735.79
521.86	50504.08
522.03	50740.47
522.20	51014.32
522.38	51276.46
522.55	51026.02
522.72	51487.10
522.89	51213.26
523.07	51283.48
523.24	51601.79
523.41	51611.15
523.58	51250.71
523.75	51945.85
523.92	51517.53
524.10	51906.06
524.27	51770.31
524.44	51995.00
524.61	52114.37
524.78	52116.71
524.96	51927.13
525.13	52266.50
525.30	52617.58
525.47	52360.12
525.64	52561.41
525.81	52514.60
525.98	52863.34
526.16	52317.99
526.33	52308.63
526.50	52975.69
526.67	52568.43
526.84	52942.92
527.01	52758.02
527.18	52931.22
527.36	53097.39
527.53	53249.53
527.70	53244.85
527.87	53411.02
528.04	53160.59
528.21	53525.71
528.38	53422.73
528.55	53492.94
528.72	53411.02
528.89	53268.25
529.07	53279.96
529.24	53642.74
529.41	53394.64
529.58	53441.45
529.75	53741.04
529.92	53525.71
530.09	53736.36
530.26	53907.22
530.43	53956.37
530.60	53588.91
530.77	53801.89
530.94	53979.78
531.11	53935.30
531.28	53932.96
531.46	54010.20
531.63	54295.75
531.80	54082.76
531.97	54377.67
532.14	54447.88
532.31	54089.78
532.48	54490.01
532.65	54742.79
532.82	54307.45
532.99	54707.68
533.16	54693.64
533.33	54670.23
533.50	54862.16
533.67	54749.81
533.84	54571.93
534.01	54908.97
534.18	54925.35
534.35	55370.05
534.52	54880.88
534.69	55124.30
534.86	55152.38
535.03	55126.64
535.20	55253.03
535.37	55554.96
535.54	55264.73
535.71	55236.64
535.88	55353.67
536.05	55451.97
536.22	55325.58
536.38	55477.72
536.55	55550.27
536.72	55161.75
536.89	55512.83
537.06	55353.67
537.23	55515.17
537.40	55557.30
537.57	55976.25
537.74	55576.02
537.91	55955.19
538.08	55695.39
538.25	55533.89
538.42	56104.98
538.59	56271.16
538.75	55859.23
538.92	55992.64
539.09	56236.05
539.26	56095.62
539.43	55971.57
539.60	55994.98
539.77	56245.41
539.94	56552.02
540.11	56200.94
540.28	56264.14
540.44	56514.58
540.61	56390.53
540.78	56247.75
540.95	56477.13
541.12	56222.01
541.29	56432.66
541.46	56601.18
541.62	56715.86
541.79	56537.98
541.96	56439.68
542.13	56355.42
542.30	56530.96
542.47	56804.80
542.63	56959.28
542.80	57020.13
542.97	56992.04
543.14	57123.11
543.31	57237.80
543.48	57109.07
543.64	57413.34
543.81	57190.99
543.98	57343.12
544.15	57502.28
544.32	57378.23
544.48	57460.15
544.65	57581.86
544.82	57429.72
544.99	57193.33
545.16	57411.00
545.32	57422.70
545.49	57701.23
545.66	57757.40
545.83	57448.45
546.00	57715.27
546.16	57492.92
546.33	57691.86
546.50	57427.38
546.67	57750.38
546.83	57336.10
547.00	57785.49
547.17	57790.17
547.34	57663.78
547.50	57982.09
547.67	58040.60
547.84	57939.96
548.00	58031.24
548.17	58017.20
548.34	57757.40
548.51	58286.36
548.67	58026.56
548.84	57925.92
549.01	58071.03
549.18	58188.06
549.34	58269.98
549.51	58211.46
549.68	58398.71
549.84	58394.03
550.01	58412.75
550.18	58312.11
550.34	58326.15
550.51	58518.07
550.68	58464.24
550.84	58272.32
551.01	58712.34
551.18	58314.45
551.34	58342.53
551.51	58571.91
551.68	58653.82
551.84	58546.16
552.01	58265.30
552.18	58480.63
552.34	58412.75
552.51	58679.57
552.68	58557.86
552.84	58581.27
553.01	58908.94
553.18	58817.66
553.34	58794.26
553.51	58609.35
553.67	58672.55
553.84	59035.33
554.01	58763.83
554.17	59213.21
554.34	59126.61
554.51	58951.07
554.67	59009.59
554.84	59091.51
555.00	59140.66
555.17	58841.07
555.33	59058.74
555.50	58794.26
555.67	59023.63
555.83	59082.14
556.00	59077.46
556.16	59320.88
556.33	59096.19
556.50	59405.14
556.66	59330.24
556.83	59018.95
556.99	59292.79
557.16	59536.21
557.32	59400.46
557.49	59786.64
557.65	59400.46
557.82	59503.44
557.98	59222.58
558.15	59491.74
558.32	59360.67
558.48	59386.41
558.65	59550.25
558.81	59288.11
558.98	59526.84
559.14	59458.97
559.31	59639.19
559.47	59667.28
559.64	59812.39
559.80	59545.57
559.97	59657.91
560.13	59384.07
560.30	59451.95
560.46	59810.05
560.63	59835.80
560.79	59550.25
560.96	59760.90
561.12	59882.61
561.29	59674.30
561.45	59833.46
561.61	59774.94
561.78	59655.57
561.94	59700.04
562.11	59538.55
562.27	59894.31
562.44	60011.34
562.60	60111.98
562.77	60013.68
562.93	59798.35
563.10	59964.52
563.26	59880.27
563.42	60093.25
563.59	59854.52
563.75	59913.03
563.92	59945.80
564.08	59915.37
564.24	60041.76
564.41	59882.61
564.57	60009.00
564.74	60151.77
564.90	60163.47
565.07	60135.38
565.23	60090.91
565.39	59906.01
565.56	60126.02
565.72	60140.07
565.88	60100.28
566.05	60018.36
566.21	59838.14
566.38	60191.56
566.54	60324.97
566.70	60280.50
566.87	60294.54
567.03	60097.94
567.19	60423.27
567.36	60289.86
567.52	60140.07
567.68	60603.49
567.85	60294.54
568.01	60362.42
568.17	60343.69
568.34	60388.16
568.50	60128.36
568.66	60294.54
568.83	60458.38
568.99	60179.85
569.15	60460.72
569.32	60369.44
569.48	60271.14
569.64	60430.29
569.81	60479.44
569.97	60327.31
570.13	60378.80
570.30	60252.41
570.46	60315.61
570.62	60427.95
570.78	60561.36
570.95	60467.74
571.11	60451.36
571.27	60172.83
571.43	60432.63
571.60	60596.47
571.76	60528.59
571.92	60743.92
572.09	60612.85
572.25	60409.23
572.41	60559.02
572.57	60456.04
572.74	60713.50
572.90	60610.51
573.06	60348.37
573.22	60467.74
573.38	60512.21
573.55	60528.59
573.71	60879.67
573.87	60561.36
574.03	60477.10
574.20	60701.79
574.36	60549.66
574.52	60762.65
574.68	60825.84
574.84	60835.20
575.01	60559.02
575.17	60762.65
575.33	60470.08
575.49	60615.19
575.65	60844.57
575.82	60760.31
575.98	60823.50
576.14	60767.33
576.30	60891.38
576.46	60699.45
576.62	60729.88
576.79	60549.66
576.95	60355.39
577.11	60715.84
577.27	60872.65
577.43	60753.29
577.59	60612.85
577.75	60750.94
577.92	60636.26
578.08	60640.94
578.24	60905.42
578.40	60818.82
578.56	61008.40
578.72	60757.97
578.88	61008.40
579.04	60797.76
579.21	60832.86
579.37	61172.24
579.53	60856.27
579.69	60645.62
579.85	60734.56
580.01	60790.73
580.17	60755.63
580.33	60931.17
580.49	60926.49
580.65	60690.09
580.82	60842.23
580.98	60659.66
581.14	60842.23
581.30	60889.04
581.46	60652.64
581.62	60762.65
581.78	60713.50
581.94	60985.00
582.10	60636.26
582.26	60802.44
582.42	60788.39
582.58	60975.64
582.74	60743.92
582.90	60905.42
583.06	60975.64
583.22	60556.68
583.38	60886.70
583.54	60935.85
583.70	60980.32
583.86	60973.30
584.02	60900.74
584.18	60956.91
584.34	60837.54
584.50	61027.13
584.66	60905.42
584.82	60685.41
584.98	61132.45
585.14	61034.15
585.30	61059.90
585.46	60933.51
585.62	60982.66
585.78	61045.85
585.94	60662.00
586.10	61034.15
586.26	60996.70
586.42	61174.58
586.58	61069.26
586.74	61069.26
586.90	60879.67
587.06	60973.30
587.22	61041.17
587.38	60860.95
587.54	61013.08
587.70	61275.22
587.86	61207.35
588.02	60961.59
588.18	60961.59
588.34	60942.87
