SpectraSuite Data File
++++++++++++++++++++++++++++++++++++
Date: Fri Oct 25 10:43:26 EDT 2013
User: price-jones
Dark Spectrum Present: No
Reference Spectrum Present: No
Number of Sampled Component Spectra: 1
Spectrometers: USB2+H05261
Integration Time (usec): 100000 (USB2+H05261)
Spectra Averaged: 1 (USB2+H05261)
Boxcar Smoothing: 0 (USB2+H05261)
Correct for Electrical Dark: No (USB2+H05261)
Strobe/Lamp Enabled: No (USB2+H05261)
Correct for Detector Non-linearity: No (USB2+H05261)
Correct for Stray Light: No (USB2+H05261)
Number of Pixels in Processed Spectrum: 2048
>>>>>Begin Processed Spectral Data<<<<<
365.73	128.73
365.92	128.73
366.12	128.73
366.32	79.58
366.52	23.41
366.72	18.72
366.91	14.04
367.11	7.02
367.31	25.75
367.51	37.45
367.70	77.24
367.90	0.00
368.10	110.01
368.30	28.09
368.49	0.00
368.69	0.00
368.89	95.96
369.09	58.51
369.28	56.17
369.48	112.35
369.68	53.83
369.87	49.15
370.07	72.56
370.27	191.92
370.47	184.90
370.66	376.83
370.86	437.68
371.06	442.36
371.25	517.26
371.45	360.44
371.65	393.21
371.84	407.25
372.04	505.56
372.24	503.22
372.44	510.24
372.63	521.94
372.83	456.40
373.03	470.45
373.22	496.19
373.42	491.51
373.62	510.24
373.81	545.34
374.01	543.00
374.21	526.62
374.40	449.38
374.60	519.60
374.79	564.07
374.99	645.99
375.19	580.45
375.38	601.52
375.58	631.94
375.78	608.54
375.97	697.48
376.17	692.80
376.37	608.54
376.56	566.41
376.76	550.03
376.95	615.56
377.15	592.16
377.35	613.22
377.54	585.13
377.74	585.13
377.93	535.98
378.13	688.12
378.33	613.22
378.52	660.03
378.72	592.16
378.91	608.54
379.11	606.20
379.31	564.07
379.50	674.07
379.70	711.52
379.89	657.69
380.09	662.37
380.28	641.31
380.48	669.39
380.68	688.12
380.87	664.71
381.07	741.95
381.26	697.48
381.46	690.46
381.65	741.95
381.85	599.18
382.04	709.18
382.24	634.29
382.43	695.14
382.63	624.92
382.83	664.71
383.02	746.63
383.22	767.70
383.41	638.97
383.61	734.93
383.80	723.23
384.00	763.01
384.19	744.29
384.39	706.84
384.58	842.59
384.78	814.51
384.97	779.40
385.17	784.08
385.36	798.12
385.56	788.76
385.75	805.14
385.95	741.95
386.14	844.93
386.34	929.19
386.53	842.59
386.72	823.87
386.92	873.02
387.11	835.57
387.31	917.49
387.50	772.38
387.70	847.27
387.89	844.93
388.09	887.06
388.28	933.87
388.48	908.13
388.67	905.79
388.86	954.94
389.06	999.41
389.25	950.26
389.45	1008.77
389.64	931.53
389.84	973.66
390.03	1001.75
390.22	1013.45
390.42	968.98
390.61	957.28
390.81	976.00
391.00	973.66
391.19	994.73
391.39	1055.58
391.58	1029.84
391.78	999.41
391.97	1027.50
392.16	1041.54
392.36	1060.26
392.55	1032.18
392.75	990.05
392.94	1025.15
393.13	1025.15
393.33	983.02
393.52	999.41
393.71	1137.50
393.91	1036.86
394.10	1039.20
394.29	1083.67
394.49	1102.39
394.68	1163.25
394.88	1217.08
395.07	1320.06
395.26	1167.93
395.46	1151.54
395.65	1320.06
395.84	1151.54
396.04	1249.85
396.23	1146.86
396.42	1177.29
396.62	1151.54
396.81	1203.04
397.00	1259.21
397.19	1196.01
397.39	1275.59
397.58	1348.15
397.77	1282.61
397.97	1392.62
398.16	1380.92
398.35	1380.92
398.55	1472.20
398.74	1439.43
398.93	1526.03
399.12	1467.52
399.32	1507.30
399.51	1446.45
399.70	1537.73
399.90	1530.71
400.09	1547.09
400.28	1544.75
400.47	1556.46
400.67	1591.56
400.86	1500.28
401.05	1629.01
401.24	1694.55
401.44	1640.72
401.63	1671.14
401.82	1638.38
402.01	1633.69
402.21	1809.23
402.40	1657.10
402.59	1657.10
402.78	1762.42
402.97	1666.46
403.17	1753.06
403.36	1739.02
403.55	1706.25
403.74	1741.36
403.93	1872.43
404.13	1776.47
404.32	1781.15
404.51	1816.26
404.70	1893.49
404.89	1858.39
405.09	1867.75
405.28	1872.43
405.47	1926.26
405.66	1856.04
405.85	2047.97
406.05	1933.28
406.24	1989.46
406.43	2024.56
406.62	2083.08
406.81	1998.82
407.00	2019.88
407.20	1989.46
407.39	1959.03
407.58	2024.56
407.77	1989.46
407.96	2148.61
408.15	2115.84
408.34	2284.36
408.54	2211.81
408.73	2246.91
408.92	2289.04
409.11	2179.04
409.30	2244.57
409.49	2195.42
409.68	2190.74
409.87	2228.19
410.07	2258.62
410.26	2338.20
410.45	2253.94
410.64	2452.88
410.83	2502.03
411.02	2476.29
411.21	2506.71
411.40	2548.84
411.59	2518.42
411.78	2502.03
411.98	2574.59
412.17	2626.08
412.36	2574.59
412.55	2619.06
412.74	2712.68
412.93	2670.55
413.12	2647.15
413.31	2722.04
413.50	2679.91
413.69	2747.79
413.88	2825.03
414.07	2883.54
414.26	2932.69
414.45	2911.63
414.64	2874.18
414.83	2839.07
415.02	2920.99
415.22	3016.95
415.41	2984.18
415.60	3052.06
415.79	3110.57
415.98	3103.55
416.17	3141.00
416.36	3089.51
416.55	3143.34
416.74	3265.05
416.93	3330.58
417.12	3157.38
417.31	3248.66
417.50	3211.22
417.69	3368.03
417.88	3389.10
418.07	3403.14
418.26	3311.86
418.45	3534.21
418.64	3524.85
418.83	3499.10
419.02	3496.76
419.21	3581.02
419.39	3508.46
419.58	3407.82
419.77	3466.33
419.96	3646.55
420.15	3630.17
420.34	3555.27
420.53	3665.28
420.72	3637.19
420.91	3676.98
421.10	3810.39
421.29	3885.29
421.48	3611.45
421.67	3882.95
421.86	3581.02
422.05	3646.55
422.24	3726.13
422.43	3786.99
422.61	3791.67
422.80	3859.54
422.99	3737.84
423.18	3798.69
423.37	3833.80
423.56	3843.16
423.75	3882.95
423.94	3740.18
424.13	3616.13
424.32	3740.18
424.50	3765.92
424.69	3955.51
424.88	3707.41
425.07	3852.52
425.26	3772.94
425.45	3815.07
425.64	3843.16
425.83	3779.97
426.01	3901.67
426.20	3833.80
426.39	3840.82
426.58	3801.03
426.77	3789.33
426.96	3850.18
427.15	3901.67
427.33	3861.88
427.52	3887.63
427.71	4016.36
427.90	4023.38
428.09	3953.16
428.28	4009.34
428.46	3985.93
428.65	4105.30
428.84	4079.55
429.03	4241.05
429.22	4056.15
429.40	4145.09
429.59	4053.81
429.78	3936.78
429.97	3803.37
430.16	3875.93
430.34	3957.85
430.53	4053.81
430.72	4114.66
430.91	4098.28
431.10	4273.82
431.28	4491.49
431.47	4566.39
431.66	4676.39
431.85	4454.04
432.03	4540.64
432.22	4376.80
432.41	4428.29
432.60	4561.70
432.79	4540.64
432.97	4667.03
433.16	4589.79
433.35	4512.55
433.54	4423.61
433.72	4561.70
433.91	4496.17
434.10	4648.30
434.28	4674.05
434.47	4613.20
434.66	4688.09
434.85	4828.53
435.03	4889.38
435.22	4828.53
435.41	5018.11
435.59	4985.34
435.78	4919.81
435.97	5060.24
436.16	4952.57
436.34	4936.19
436.53	5085.98
436.72	5336.42
436.90	5064.92
437.09	4917.47
437.28	4992.36
437.46	5039.17
437.65	5011.09
437.84	5060.24
438.02	5029.81
438.21	5050.88
438.40	5057.90
438.58	5259.18
438.77	5172.58
438.96	5357.49
439.14	5240.46
439.33	5392.59
439.52	5397.28
439.70	5514.30
439.89	5570.48
440.08	5383.23
440.26	5591.54
440.45	5673.46
440.63	5750.70
440.82	5872.40
441.01	5675.80
441.19	5959.00
441.38	6050.28
441.57	5963.68
441.75	5984.75
441.94	6057.31
442.12	6101.78
442.31	6069.01
442.50	6214.12
442.68	6148.59
442.87	6195.40
443.05	6174.33
443.24	6230.51
443.43	6146.25
443.61	6333.49
443.80	6375.62
443.98	6286.68
444.17	6157.95
444.35	6296.04
444.54	6558.18
444.73	6394.34
444.91	6314.77
445.10	6354.55
445.28	6370.94
445.47	6171.99
445.65	6293.70
445.84	6431.79
446.02	6452.86
446.21	6356.90
446.39	6466.90
446.58	6401.37
446.77	6410.73
446.95	6282.00
447.14	6576.91
447.32	6534.78
447.51	6347.53
447.69	6583.93
447.88	6403.71
448.06	6441.15
448.25	6525.41
448.43	6532.44
448.62	6370.94
448.80	6392.00
448.99	6588.61
449.17	6745.42
449.36	6715.00
449.54	6665.85
449.73	6846.07
449.91	7049.69
450.10	6846.07
450.28	6932.67
450.46	6998.20
450.65	6963.09
450.83	6991.18
451.02	7019.27
451.20	7152.68
451.39	7021.61
451.57	7180.76
451.76	7042.67
451.94	7030.97
452.13	7157.36
452.31	7054.37
452.49	6885.86
452.68	7105.87
452.86	6965.43
453.05	7124.59
453.23	7098.84
453.42	6895.22
453.60	7080.12
453.78	7281.41
453.97	7190.13
454.15	7089.48
454.34	7098.84
454.52	7243.96
454.70	7276.73
454.89	7304.81
455.07	7449.93
455.26	7269.70
455.44	7639.51
455.62	7616.10
455.81	7613.76
455.99	7527.16
456.17	7529.50
456.36	7559.93
456.54	7597.38
456.73	7754.19
456.91	8009.31
457.09	7875.90
457.28	8035.06
457.46	7793.98
457.64	7969.52
457.83	8037.40
458.01	7864.20
458.19	7957.82
458.38	7934.42
458.56	7976.55
458.74	7962.50
458.93	8070.17
459.11	8105.28
459.29	7831.43
459.48	8023.36
459.66	8189.53
459.84	8177.83
460.03	8344.01
460.21	8411.89
460.39	8266.77
460.57	8245.71
460.76	8329.97
460.94	8418.91
461.12	8336.99
461.31	8435.29
461.49	8641.26
461.67	8252.73
461.85	8568.70
462.04	8479.76
462.22	9064.89
462.40	8674.03
462.59	8596.79
462.77	8540.61
462.95	8725.52
463.13	8620.19
463.32	8718.50
463.50	8933.82
463.68	8830.84
463.86	8781.69
464.05	8652.96
464.23	8762.97
464.41	8795.73
464.59	8706.79
464.78	8978.30
464.96	8870.63
465.14	8812.12
465.32	9144.47
465.50	9151.49
465.69	9118.73
465.87	9006.38
466.05	8929.14
466.23	8959.57
466.41	8865.95
466.60	9062.55
466.78	9088.30
466.96	9071.92
467.14	9167.88
467.32	8894.04
467.51	9188.94
467.69	8950.21
467.87	9273.20
468.05	9467.47
468.23	9184.26
468.41	9238.09
468.60	9284.91
468.78	9570.45
468.96	9256.82
469.14	9453.42
469.32	9458.10
469.50	9137.45
469.69	9755.35
469.87	9598.54
470.05	9369.16
470.23	9645.35
470.41	9544.70
470.59	9727.27
470.77	9472.15
470.95	9795.14
471.14	9942.60
471.32	9778.76
471.50	10272.61
471.68	10019.83
471.86	9984.73
472.04	10106.43
472.22	10338.15
472.40	9874.72
472.58	10120.48
472.77	10015.15
472.95	10333.47
473.13	10537.09
473.31	10387.30
473.49	10244.52
473.67	10696.25
473.85	10527.73
474.03	10609.65
474.21	10780.51
474.39	10806.25
474.57	10684.55
474.75	10773.49
474.93	10834.34
475.12	10869.45
475.30	11002.86
475.48	11052.01
475.66	11131.59
475.84	11005.20
476.02	11077.76
476.20	11260.32
476.38	11513.10
476.56	11494.37
476.74	11344.58
476.92	11375.00
477.10	11566.93
477.28	11756.51
477.46	11627.78
477.64	12222.28
477.82	12032.69
478.00	12086.53
478.18	12264.41
478.36	12332.28
478.54	12381.43
478.72	12641.23
478.90	12634.21
479.08	12725.49
479.26	12765.28
479.44	12882.31
479.62	12849.54
479.80	12741.88
479.98	13053.17
480.16	13242.75
480.34	13404.25
480.52	13364.46
480.70	13511.91
480.88	13624.26
481.06	13858.31
481.24	13774.05
481.41	13778.73
481.59	14157.90
481.77	13764.69
481.95	14225.78
482.13	14291.31
482.31	14284.29
482.49	14370.89
482.67	14506.64
482.85	14766.44
483.03	14888.15
483.21	15068.37
483.39	14998.15
483.57	15154.97
483.74	14923.26
483.92	15316.47
484.10	15410.09
484.28	15829.04
484.46	15768.19
484.64	16294.81
484.82	15747.12
485.00	15936.71
485.18	16018.63
485.35	16149.70
485.53	15716.70
485.71	15618.39
485.89	16201.19
486.07	16465.67
486.25	16306.51
486.43	16322.90
486.61	16540.57
486.78	16809.73
486.96	16844.84
487.14	17085.91
487.32	17401.88
487.50	17240.39
487.68	17855.95
487.85	17909.78
488.03	17727.22
488.21	18078.30
488.39	18085.32
488.57	18221.07
488.75	18174.26
488.92	18464.49
489.10	18799.18
489.28	18845.99
489.46	19166.65
489.64	18827.27
489.81	19829.02
489.99	19836.04
490.17	19742.42
490.35	19864.13
490.53	19594.96
490.70	19924.98
490.88	19810.29
491.06	20252.66
491.24	20121.59
491.41	20594.37
491.59	20372.02
491.77	20613.10
491.95	20713.74
492.13	20936.09
492.30	20973.54
492.48	21071.84
492.66	21284.83
492.84	21528.25
493.01	21664.00
493.19	21359.73
493.37	21825.50
493.54	21860.60
493.72	22033.80
493.90	22258.49
494.08	22134.45
494.25	22801.50
494.43	22391.91
494.61	22625.96
494.79	23175.98
494.96	23012.15
495.14	23051.94
495.32	23342.16
495.49	23246.20
495.67	23344.50
495.85	23344.50
496.02	23782.18
496.20	23655.79
496.38	23601.96
496.55	24133.26
496.73	24404.77
496.91	24479.66
497.09	24673.93
497.26	24723.08
497.44	24624.78
497.62	24767.55
497.79	24783.93
497.97	24622.44
498.14	25127.99
498.32	25153.74
498.50	25078.84
498.67	25769.30
498.85	25579.71
499.03	25867.60
499.20	26031.44
499.38	25619.50
499.56	26148.46
499.73	25975.27
499.91	25963.56
500.08	26361.45
500.26	25610.14
500.44	25898.03
500.61	25940.16
500.79	25968.24
500.97	26277.19
501.14	26628.27
501.32	26471.46
501.49	26462.10
501.67	26663.38
501.84	26932.54
502.02	26829.56
502.20	27126.81
502.37	27445.12
502.55	27005.10
502.72	26745.30
502.90	27800.88
503.07	27407.67
503.25	27520.02
503.43	27590.24
503.60	27559.81
503.78	27901.53
503.95	27407.67
504.13	27704.92
504.30	28063.02
504.48	27983.44
504.65	28217.50
504.83	28439.85
505.01	28701.99
505.18	28458.57
505.36	28802.63
505.53	29106.90
505.71	29355.00
505.88	29193.50
506.06	28716.03
506.23	29083.50
506.41	28905.62
506.58	29076.48
506.76	29350.32
506.93	29376.06
507.11	29125.63
507.28	29371.38
507.46	28943.06
507.63	29465.00
507.81	29200.52
507.98	29692.04
508.16	29638.20
508.33	29521.18
508.50	30181.21
508.68	30089.93
508.85	30450.37
509.03	30602.50
509.20	30066.52
509.38	30618.89
509.55	30452.71
509.73	30820.17
509.90	30623.57
510.08	30899.75
510.25	30974.65
510.42	30862.30
510.60	31412.33
510.77	31138.49
510.95	31615.96
511.12	31232.11
511.30	31433.39
511.47	31812.56
511.64	31744.69
511.82	31889.80
511.99	31482.55
512.17	32098.11
512.34	31409.99
512.51	31948.31
512.69	31768.09
512.86	31917.89
513.04	31906.18
513.21	32547.49
513.38	32161.30
513.56	32376.63
513.73	32119.17
513.90	32088.74
514.08	32168.32
514.25	32257.26
514.43	32416.42
514.60	32594.30
514.77	32613.02
514.95	32687.92
515.12	33057.73
515.29	33130.28
515.47	33020.28
515.64	33635.84
515.81	33455.62
515.99	33413.49
516.16	33228.59
516.33	33111.56
516.51	33102.20
516.68	32879.85
516.85	32692.60
517.03	33141.99
517.20	33172.41
517.37	33497.75
517.54	33876.91
517.72	33956.49
517.89	32811.97
518.06	33439.23
518.24	33282.42
518.41	33551.58
518.58	34136.71
518.75	34195.23
518.93	34146.08
519.10	33956.49
519.27	34227.99
519.45	34651.63
519.62	34712.49
519.79	35023.78
519.96	34855.26
520.14	34864.62
520.31	34593.12
520.48	34960.58
520.65	34969.94
520.83	34981.65
521.00	35201.66
521.17	34913.77
521.34	35213.36
521.52	35386.56
521.69	35559.76
521.86	35550.40
522.03	35613.59
522.20	35669.76
522.38	35604.23
522.55	35470.82
522.72	35950.63
522.89	35578.48
523.07	36299.37
523.24	35964.67
523.41	36371.92
523.58	35983.40
523.75	37043.66
523.92	36631.72
524.10	36306.39
524.27	36746.41
524.44	36378.95
524.61	36760.45
524.78	36804.92
524.96	36900.89
525.13	37233.24
525.30	37008.55
525.47	37090.47
525.64	36713.64
525.81	36624.70
525.98	36875.14
526.16	36676.19
526.33	36463.21
526.50	36999.19
526.67	36795.56
526.84	37053.02
527.01	37048.34
527.18	36994.51
527.36	37476.66
527.53	37486.02
527.70	37926.04
527.87	37640.50
528.04	37404.10
528.21	37614.75
528.38	37586.66
528.55	38197.54
528.72	38155.41
528.89	38185.84
529.07	37942.42
529.24	37565.60
529.41	38469.04
529.58	38113.28
529.75	37970.51
529.92	38263.08
530.09	38761.61
530.26	38459.68
530.43	38394.15
530.60	38153.07
530.77	38476.07
530.94	39037.80
531.11	38888.00
531.28	38637.56
531.46	39084.61
531.63	38888.00
531.80	38770.97
531.97	38410.53
532.14	38679.69
532.31	38756.93
532.48	38546.28
532.65	39000.35
532.82	39047.16
532.99	39248.44
533.16	38899.70
533.33	39386.54
533.50	39629.95
533.67	39276.53
533.84	39278.87
534.01	39370.15
534.18	39711.87
534.35	39842.94
534.52	39377.17
534.69	39894.43
534.86	40147.21
535.03	39590.16
535.20	39555.05
535.37	40247.85
535.54	40076.99
535.71	40224.45
535.88	39768.04
536.05	40126.14
536.22	40299.34
536.38	40140.19
536.55	40011.46
536.72	40165.93
536.89	39948.26
537.06	40201.04
537.23	40512.33
537.40	40491.27
537.57	40498.29
537.74	40486.59
537.91	40250.19
538.08	40521.69
538.25	40556.80
538.42	40790.86
538.59	40849.37
538.75	40313.39
538.92	40858.73
539.09	40582.55
539.26	40236.15
539.43	40753.41
539.60	40297.00
539.77	40610.64
539.94	40615.32
540.11	40727.66
540.28	40847.03
540.44	40982.78
540.61	40458.50
540.78	40603.61
540.95	40751.07
541.12	40722.98
541.29	40928.95
541.46	41333.86
541.62	41652.17
541.79	41177.04
541.96	40971.08
542.13	41280.03
542.30	41383.01
542.47	41556.21
542.63	41109.17
542.80	41312.80
542.97	41914.31
543.14	42092.19
543.31	41474.29
543.48	41820.69
543.64	42071.13
543.81	42307.52
543.98	42127.30
544.15	42272.42
544.32	42249.01
544.48	42389.44
544.65	42117.94
544.82	42237.31
544.99	42113.26
545.16	42043.04
545.32	42124.96
545.49	41909.63
545.66	42670.31
545.83	42504.13
546.00	42656.26
546.16	41942.40
546.33	42431.57
546.50	42213.90
546.67	42408.17
546.83	41883.89
547.00	42705.41
547.17	42876.27
547.34	42050.06
547.50	42621.16
547.67	43248.42
547.84	42426.89
548.00	43257.78
548.17	43220.33
548.34	42920.74
548.51	43005.00
548.67	43239.06
548.84	42799.04
549.01	43150.12
549.18	42986.28
549.34	43016.71
549.51	43138.41
549.68	43264.80
549.84	43344.38
550.01	43349.06
550.18	43033.09
550.34	43096.28
550.51	43508.22
550.68	43131.39
550.84	42976.92
551.01	43234.38
551.18	43576.09
551.34	43065.86
551.51	43768.02
551.68	43335.02
551.84	43377.15
552.01	43318.64
552.18	43573.75
552.34	43629.93
552.51	44009.09
552.68	43592.48
552.84	43768.02
553.01	44051.22
553.18	43817.17
553.34	43880.36
553.51	43903.77
553.67	43992.71
553.84	44156.55
554.01	44102.71
554.17	44006.75
554.34	43985.69
554.51	43922.49
554.67	43910.79
554.84	43849.94
555.00	43833.55
555.17	43929.51
555.33	43992.71
555.50	44046.54
555.67	44144.84
555.83	44243.15
556.00	44250.17
556.16	44334.43
556.33	44250.17
556.50	44123.78
556.66	44748.70
556.83	44098.03
556.99	44224.42
557.16	44463.16
557.32	44142.50
557.49	44657.42
557.65	44165.91
557.82	44161.23
557.98	44397.62
558.15	44594.23
558.32	44502.95
558.48	44362.51
558.65	44598.91
558.81	44100.37
558.98	44245.49
559.14	44198.68
559.31	44144.84
559.47	44430.39
559.64	44673.81
559.80	44570.82
559.97	44479.54
560.13	44294.64
560.30	44732.32
560.46	44383.58
560.63	44648.06
560.79	44776.79
560.96	44924.24
561.12	44605.93
561.29	44720.62
561.45	44605.93
561.61	44563.80
561.78	44931.26
561.94	44631.68
562.11	44531.03
562.27	44325.07
562.44	45123.19
562.60	45326.81
562.77	45338.52
562.93	45001.48
563.10	45214.47
563.26	44390.60
563.42	45160.64
563.59	44978.07
563.75	44924.24
563.92	45104.46
564.08	44966.37
564.24	45301.07
564.41	45038.93
564.57	44818.92
564.74	45242.56
564.90	44631.68
565.07	45280.00
565.23	45457.88
565.39	44830.62
565.56	44683.17
565.72	44486.56
565.88	44809.56
566.05	44776.79
566.21	45029.57
566.38	45092.76
566.54	45464.91
566.70	45308.09
566.87	45385.33
567.03	45502.35
567.19	45556.19
567.36	45411.07
567.52	45015.52
567.68	45390.01
567.85	44725.30
568.01	44954.67
568.17	44975.73
568.34	45471.93
568.50	45041.27
568.66	45057.65
568.83	45237.87
568.99	45148.93
569.15	45310.43
569.32	45387.67
569.48	45127.87
569.64	45371.28
569.81	45422.78
569.97	45509.38
570.13	45280.00
570.30	44975.73
570.46	44954.67
570.62	45092.76
570.78	44868.07
570.95	45074.04
571.11	45233.19
571.27	44863.39
571.43	45123.19
571.60	44938.29
571.76	45270.64
571.92	45497.67
572.09	45752.79
572.25	45397.03
572.41	45476.61
572.57	45794.92
572.74	45797.26
572.90	45207.45
573.06	45303.41
573.22	45221.49
573.38	45464.91
573.55	45752.79
573.71	45572.57
573.87	45198.09
574.03	45270.64
574.20	45184.04
574.36	45113.83
574.52	45272.98
574.68	45265.96
574.84	45284.68
575.01	45448.52
575.17	45317.45
575.33	45031.91
575.49	45017.86
575.65	45563.21
575.82	45759.81
575.98	45301.07
576.14	45748.11
576.30	46010.25
576.46	45167.66
576.62	45331.50
576.79	45460.23
576.95	45207.45
577.11	45214.47
577.27	45294.05
577.43	45289.37
577.59	45544.48
577.75	45287.03
577.92	45081.06
578.08	44907.86
578.24	45188.72
578.40	45017.86
578.56	45373.63
578.72	45230.85
578.88	45481.29
579.04	45450.86
579.21	45275.32
579.37	45336.18
579.53	45603.00
579.69	45366.60
579.85	45787.90
580.01	45766.84
580.17	45331.50
580.33	45525.76
580.49	45586.61
580.65	45621.72
580.82	45347.88
580.98	45673.21
581.14	45116.17
581.30	45179.36
581.46	45074.04
581.62	45429.80
581.78	45097.44
581.94	45916.63
582.10	45755.13
582.26	45607.68
582.42	45621.72
582.58	45542.14
582.74	45544.48
582.90	45811.31
583.06	46120.26
583.22	45666.19
583.38	45537.46
583.54	46064.08
583.70	45598.32
583.86	45745.77
584.02	45324.47
584.18	45633.42
584.34	45937.69
584.50	45661.51
584.66	45834.71
584.82	45268.30
584.98	45869.82
585.14	45441.50
585.30	45387.67
585.46	45392.35
585.62	45099.78
585.78	45408.73
585.94	45010.84
586.10	45083.40
586.26	45097.44
586.42	45935.35
586.58	46057.06
586.74	45500.01
586.90	45483.63
587.06	45832.37
587.22	45722.37
587.38	45689.60
587.54	45815.99
587.70	45600.66
587.86	45762.15
588.02	45305.75
588.18	45546.82
588.34	45708.32
588.49	45071.70
588.65	45181.70
588.81	44961.69
588.97	45078.72
589.13	44849.35
589.29	45064.67
589.45	45319.79
589.61	45172.34
589.77	45806.62
589.93	45818.33
590.08	45703.64
