SpectraSuite Data File
++++++++++++++++++++++++++++++++++++
Date: Fri Oct 25 10:47:13 EDT 2013
User: price-jones
Dark Spectrum Present: No
Reference Spectrum Present: No
Number of Sampled Component Spectra: 1
Spectrometers: USB2+H05261
Integration Time (usec): 100000 (USB2+H05261)
Spectra Averaged: 1 (USB2+H05261)
Boxcar Smoothing: 0 (USB2+H05261)
Correct for Electrical Dark: No (USB2+H05261)
Strobe/Lamp Enabled: No (USB2+H05261)
Correct for Detector Non-linearity: No (USB2+H05261)
Correct for Stray Light: No (USB2+H05261)
Number of Pixels in Processed Spectrum: 2048
>>>>>Begin Processed Spectral Data<<<<<
365.73	86.60
365.92	86.60
366.12	86.60
366.32	51.49
366.52	0.00
366.72	35.11
366.91	53.83
367.11	58.51
367.31	39.79
367.51	42.13
367.70	42.13
367.90	102.98
368.10	30.43
368.30	0.00
368.49	16.38
368.69	25.75
368.89	93.62
369.09	58.51
369.28	65.54
369.48	93.62
369.68	79.58
369.87	168.52
370.07	105.32
370.27	161.50
370.47	138.09
370.66	376.83
370.86	379.17
371.06	428.32
371.25	465.77
371.45	409.59
371.65	444.70
371.84	442.36
372.04	362.78
372.24	498.53
372.44	458.74
372.63	454.06
372.83	489.17
373.03	498.53
373.22	461.09
373.42	496.19
373.62	491.51
373.81	528.96
374.01	496.19
374.21	587.47
374.40	489.17
374.60	528.96
374.79	482.15
374.99	571.09
375.19	514.92
375.38	664.71
375.58	489.17
375.78	531.30
375.97	521.94
376.17	641.31
376.37	608.54
376.56	550.03
376.76	514.92
376.95	582.79
377.15	599.18
377.35	528.96
377.54	557.05
377.74	615.56
377.93	657.69
378.13	503.22
378.33	636.63
378.52	540.66
378.72	704.50
378.91	664.71
379.11	582.79
379.31	622.58
379.50	596.84
379.70	653.01
379.89	650.67
380.09	629.60
380.28	648.33
380.48	678.76
380.68	690.46
380.87	594.50
381.07	688.12
381.26	660.03
381.46	650.67
381.65	645.99
381.85	592.16
382.04	671.73
382.24	638.97
382.43	674.07
382.63	716.20
382.83	676.41
383.02	660.03
383.22	667.05
383.41	699.82
383.61	730.25
383.80	777.06
384.00	781.74
384.19	648.33
384.39	753.65
384.58	744.29
384.78	702.16
384.97	788.76
385.17	744.29
385.36	704.50
385.56	781.74
385.75	791.10
385.95	723.23
386.14	739.61
386.34	741.95
386.53	727.91
386.72	758.33
386.92	784.08
387.11	837.91
387.31	767.70
387.50	781.74
387.70	800.46
387.89	870.68
388.09	851.96
388.28	819.19
388.48	856.64
388.67	868.34
388.86	795.78
389.06	772.38
389.25	814.51
389.45	854.30
389.64	847.27
389.84	1011.11
390.03	868.34
390.22	922.17
390.42	905.79
390.61	870.68
390.81	959.62
391.00	912.81
391.19	866.00
391.39	978.34
391.58	917.49
391.78	889.40
391.97	894.08
392.16	933.87
392.36	945.58
392.55	978.34
392.75	1018.13
392.94	851.96
393.13	938.55
393.33	947.92
393.52	905.79
393.71	1032.18
393.91	1025.15
394.10	976.00
394.29	1055.58
394.49	1135.16
394.68	1137.50
394.88	1104.73
395.07	1060.26
395.26	1128.14
395.46	1067.28
395.65	1121.12
395.84	1132.82
396.04	1123.46
396.23	1008.77
396.42	1118.78
396.62	1050.90
396.81	1191.33
397.00	1151.54
397.19	1181.97
397.39	1069.62
397.58	1256.87
397.77	1156.22
397.97	1179.63
398.16	1139.84
398.35	1385.60
398.55	1249.85
398.74	1233.46
398.93	1320.06
399.12	1186.65
399.32	1252.19
399.51	1254.53
399.70	1373.89
399.90	1315.38
400.09	1394.96
400.28	1432.41
400.47	1394.96
400.67	1345.81
400.86	1404.32
401.05	1441.77
401.24	1465.18
401.44	1430.07
401.63	1535.39
401.82	1507.30
402.01	1486.24
402.21	1465.18
402.40	1373.89
402.59	1430.07
402.78	1441.77
402.97	1521.35
403.17	1490.92
403.36	1617.31
403.55	1483.90
403.74	1523.69
403.93	1598.59
404.13	1607.95
404.32	1528.37
404.51	1582.20
404.70	1696.89
404.89	1502.62
405.09	1629.01
405.28	1652.42
405.47	1647.74
405.66	1661.78
405.85	1638.38
406.05	1760.08
406.24	1792.85
406.43	1849.02
406.62	1778.81
406.81	1867.75
407.00	1867.75
407.20	1729.66
407.39	1806.89
407.58	1832.64
407.77	1886.47
407.96	1900.52
408.15	1792.85
408.34	1977.75
408.54	1893.49
408.73	1919.24
408.92	1977.75
409.11	1928.60
409.30	1916.90
409.49	1914.56
409.68	1966.05
409.87	1916.90
410.07	2033.93
410.26	2122.87
410.45	2085.42
410.64	2090.10
410.83	2106.48
411.02	2132.23
411.21	2127.55
411.40	2267.98
411.59	2284.36
411.78	2272.66
411.98	2174.36
412.17	2307.77
412.36	2279.68
412.55	2352.24
412.74	2342.88
412.93	2382.67
413.12	2275.00
413.31	2370.96
413.50	2352.24
413.69	2490.33
413.88	2438.84
414.07	2445.86
414.26	2504.37
414.45	2637.78
414.64	2497.35
414.83	2567.57
415.02	2605.02
415.22	2581.61
415.41	2745.45
415.60	2757.15
415.79	2773.53
415.98	2818.00
416.17	2799.28
416.36	2696.30
416.55	2747.79
416.74	2785.24
416.93	2803.96
417.12	2689.28
417.31	2836.73
417.50	2825.03
417.69	2991.20
417.88	3063.76
418.07	2876.52
418.26	2913.97
418.45	3117.59
418.64	3030.99
418.83	3150.36
419.02	2932.69
419.21	3070.78
419.39	3148.02
419.58	3033.33
419.77	3028.65
419.96	3173.77
420.15	3180.79
420.34	3124.62
420.53	3234.62
420.72	3220.58
420.91	3279.09
421.10	3300.16
421.29	3302.50
421.48	3262.71
421.67	3241.64
421.86	3269.73
422.05	3396.12
422.24	3272.07
422.43	3358.67
422.61	3382.07
422.80	3550.59
422.99	3379.73
423.18	3588.04
423.37	3349.31
423.56	3332.92
423.75	3485.06
423.94	3396.12
424.13	3253.34
424.32	3375.05
424.50	3410.16
424.69	3445.27
424.88	3543.57
425.07	3456.97
425.26	3260.37
425.45	3447.61
425.64	3365.69
425.83	3510.80
426.01	3403.14
426.20	3496.76
426.39	3569.32
426.58	3499.10
426.77	3421.86
426.96	3417.18
427.15	3524.85
427.33	3653.58
427.52	3613.79
427.71	3698.05
427.90	3548.25
428.09	3508.46
428.28	3590.38
428.46	3719.11
428.65	3578.68
428.84	3803.37
429.03	3887.63
429.22	3648.90
429.40	3756.56
429.59	3688.68
429.78	3592.72
429.97	3574.00
430.16	3658.26
430.34	3613.79
430.53	3826.78
430.72	3702.73
430.91	3744.86
431.10	3875.93
431.28	4016.36
431.47	4074.87
431.66	4058.49
431.85	3971.89
432.03	4004.66
432.22	4056.15
432.41	3992.95
432.60	3939.12
432.79	4070.19
432.97	4133.39
433.16	4166.15
433.35	4119.34
433.54	4060.83
433.72	4210.62
433.91	4011.68
434.10	4175.52
434.28	4133.39
434.47	4257.43
434.66	4430.63
434.85	4358.08
435.03	4353.40
435.22	4397.87
435.41	4524.26
435.59	4383.82
435.78	4393.19
435.97	4493.83
436.16	4376.80
436.34	4489.15
436.53	4456.38
436.72	4526.60
436.90	4479.79
437.09	4500.85
437.28	4348.72
437.46	4557.02
437.65	4484.47
437.84	4599.15
438.02	4596.81
438.21	4734.90
438.40	4613.20
438.58	4873.00
438.77	4755.97
438.96	4716.18
439.14	4961.94
439.33	4741.93
439.52	5032.15
439.70	4961.94
439.89	4910.44
440.08	5039.17
440.26	4835.55
440.45	4973.64
440.63	5245.14
440.82	5191.31
441.01	5301.31
441.19	4992.36
441.38	5280.25
441.57	5373.87
441.75	5444.09
441.94	5645.37
442.12	5444.09
442.31	5591.54
442.50	5568.13
442.68	5336.42
442.87	5359.83
443.05	5495.58
443.24	5783.46
443.43	5636.01
443.61	5666.44
443.80	5797.51
443.98	5572.82
444.17	5430.04
444.35	5654.73
444.54	5764.74
444.73	5680.48
444.91	5628.99
445.10	5685.16
445.28	5509.62
445.47	5760.06
445.65	5612.60
445.84	5785.80
446.02	5865.38
446.21	5844.32
446.39	5584.52
446.58	5905.17
446.77	5738.99
446.95	5621.97
447.14	5846.66
447.32	5881.77
447.51	5750.70
447.69	5743.67
447.88	5870.06
448.06	5816.23
448.25	5769.42
448.43	5809.21
448.62	5731.97
448.80	5844.32
448.99	5970.71
449.17	5874.74
449.36	5804.53
449.54	5951.98
449.73	6256.25
449.91	6008.16
450.10	6127.52
450.28	6157.95
450.46	6207.10
450.65	6307.74
450.83	6242.21
451.02	6207.10
451.20	6370.94
451.39	6462.22
451.57	6169.65
451.76	6202.42
451.94	6239.87
452.13	6342.85
452.31	6303.06
452.49	6415.41
452.68	6293.70
452.86	6352.21
453.05	6457.54
453.23	6335.83
453.42	6347.53
453.60	6413.07
453.78	6590.95
453.97	6300.72
454.15	6565.20
454.34	6593.29
454.52	6729.04
454.70	6546.48
454.89	6637.76
455.07	6572.22
455.26	6703.29
455.44	6616.69
455.62	6764.15
455.81	6731.38
455.99	6909.26
456.17	6857.77
456.36	6813.30
456.54	7037.99
456.73	6960.75
456.91	7108.21
457.09	6995.86
457.28	7045.01
457.46	7150.34
457.64	7021.61
457.83	7007.56
458.01	6906.92
458.19	7279.07
458.38	6949.05
458.56	7274.38
458.74	7077.78
458.93	7171.40
459.11	7119.91
459.29	7342.26
459.48	7382.05
459.66	7304.81
459.84	7365.67
460.03	7555.25
460.21	7417.16
460.39	7410.14
460.57	7405.46
460.76	7433.54
460.94	7473.33
461.12	7595.04
461.31	7445.24
461.49	7581.00
461.67	7452.27
461.85	7751.85
462.04	7667.60
462.22	8196.56
462.40	7756.54
462.59	7840.79
462.77	7810.37
462.95	7929.74
463.13	7728.45
463.32	7915.69
463.50	7875.90
463.68	7885.26
463.86	7971.86
464.05	7618.44
464.23	7822.07
464.41	7920.37
464.59	7854.84
464.78	8180.17
464.96	8091.23
465.14	7918.03
465.32	8004.63
465.50	8285.50
465.69	8191.88
465.87	7995.27
466.05	8201.24
466.23	8004.63
466.41	8184.85
466.60	8376.78
466.78	8215.28
466.96	8039.74
467.14	8163.79
467.32	8131.02
467.51	8173.15
467.69	7978.89
467.87	8255.07
468.05	8500.83
468.23	8390.82
468.41	8430.61
468.60	8514.87
468.78	8676.37
468.96	8439.97
469.14	8620.19
469.32	8643.60
469.50	8578.06
469.69	8592.11
469.87	8608.49
470.05	8568.70
470.23	8702.11
470.41	8519.55
470.59	8856.59
470.77	8830.84
470.95	8727.86
471.14	8889.35
471.32	8685.73
471.50	9219.37
471.68	9191.28
471.86	9071.92
472.04	9184.26
472.22	9518.96
472.40	9163.20
472.58	9200.65
472.77	9303.63
472.95	9303.63
473.13	9635.99
473.31	9551.73
473.49	9378.53
473.67	9598.54
473.85	9495.55
474.03	9741.31
474.21	9598.54
474.39	9694.50
474.57	9603.22
474.75	9928.55
474.93	9689.82
475.12	9827.91
475.30	9907.49
475.48	9954.30
475.66	9951.96
475.84	10008.13
476.02	10270.27
476.20	10038.56
476.38	10218.78
476.56	10497.30
476.74	10387.30
476.92	10492.62
477.10	10494.96
477.28	10642.42
477.46	10743.06
477.64	10843.70
477.82	10960.73
478.00	11220.53
478.18	11115.20
478.36	11061.37
478.54	11358.62
478.72	11283.72
478.90	11595.01
479.08	11585.65
479.26	11754.17
479.44	11480.33
479.62	11826.73
479.80	11719.06
479.98	11880.56
480.16	12245.68
480.34	12105.25
480.52	12138.02
480.70	12107.59
480.88	12105.25
481.06	12526.55
481.24	12442.29
481.41	12512.50
481.59	12643.57
481.77	12915.08
481.95	12709.11
482.13	12870.61
482.31	12826.14
482.49	13235.73
482.67	13191.26
482.85	13331.69
483.03	13427.65
483.21	13652.34
483.39	13570.43
483.57	13874.70
483.74	13834.91
483.92	13858.31
484.10	13706.18
484.28	14267.91
484.46	14406.00
484.64	14609.62
484.82	14342.80
485.00	14410.68
485.18	14867.08
485.35	14944.32
485.53	14867.08
485.71	14895.17
485.89	14867.08
486.07	14789.85
486.25	15080.07
486.43	15283.70
486.61	15169.01
486.78	15534.14
486.96	15695.63
487.14	16018.63
487.32	16025.65
487.50	15906.28
487.68	16219.91
487.85	16348.64
488.03	16695.04
488.21	16769.94
488.39	16594.40
488.57	16748.87
488.75	17130.38
488.92	16982.93
489.10	17329.33
489.28	17507.21
489.46	17696.79
489.64	17352.73
489.81	18113.41
489.99	18118.09
490.17	18059.57
490.35	18178.94
490.53	17958.93
490.70	18548.75
490.88	18307.67
491.06	18717.26
491.24	18656.41
491.41	18581.51
491.59	18806.20
491.77	18668.11
491.95	19309.42
492.13	19213.46
492.30	19480.28
492.48	19452.19
492.66	19428.79
492.84	19463.90
493.01	19798.59
493.19	19833.70
493.37	20039.67
493.54	20271.38
493.72	20210.53
493.90	20540.54
494.08	20662.25
494.25	21046.10
494.43	20650.55
494.61	20996.95
494.79	21158.44
494.96	20940.77
495.14	21060.14
495.32	21357.39
495.49	21226.32
495.67	21308.24
495.85	21692.08
496.02	21954.22
496.20	21799.75
496.38	21916.78
496.55	22202.32
496.73	22654.05
496.91	22307.65
497.09	22256.15
497.26	22480.85
497.44	22284.24
497.62	22927.89
497.79	22944.27
497.97	22878.74
498.14	22885.76
498.32	23201.73
498.50	23119.81
498.67	23370.25
498.85	23463.87
499.03	23915.59
499.20	23723.67
499.38	23833.68
499.56	23758.78
499.73	24020.92
499.91	23983.47
500.08	24098.16
500.26	23943.68
500.44	24308.80
500.61	24503.07
500.79	24095.82
500.97	24449.24
501.14	25048.41
501.32	24704.35
501.49	24381.36
501.67	24769.89
501.84	25053.09
502.02	25135.01
502.20	25081.18
502.37	25324.60
502.55	25273.10
502.72	25458.01
502.90	25575.03
503.07	25188.85
503.25	25542.27
503.43	25558.65
503.60	25834.83
503.78	25558.65
503.95	26005.69
504.13	26125.06
504.30	26082.93
504.48	26150.81
504.65	26455.08
504.83	26221.02
505.01	26401.24
505.18	26560.40
505.36	26654.02
505.53	26443.37
505.71	27175.96
505.88	26761.69
506.06	26665.72
506.23	27250.86
506.41	27070.64
506.58	27110.43
506.76	27332.78
506.93	27545.76
507.11	27583.21
507.28	27461.51
507.46	27421.72
507.63	27274.26
507.81	27908.55
507.98	27201.71
508.16	27683.86
508.33	27995.15
508.50	27871.10
508.68	27981.10
508.85	28332.18
509.03	28395.38
509.20	28259.63
509.38	28652.84
509.55	28622.41
509.73	28566.24
509.90	28388.36
510.08	28891.57
510.25	28278.35
510.42	28493.68
510.60	28961.79
510.77	29057.75
510.95	29259.04
511.12	29291.80
511.30	29055.41
511.47	29539.90
511.64	29277.76
511.82	29680.33
511.99	28996.90
512.17	29703.74
512.34	29750.55
512.51	29331.59
512.69	30008.01
512.86	29958.86
513.04	30532.29
513.21	30380.15
513.38	29942.47
513.56	30312.28
513.73	30029.07
513.90	30506.54
514.08	30082.91
514.25	30586.12
514.43	30834.22
514.60	30363.77
514.77	30338.02
514.95	31068.27
515.12	30934.86
515.29	30586.12
515.47	31044.87
515.64	31501.27
515.81	31246.15
515.99	31136.15
516.16	31051.89
516.33	31222.75
516.51	31370.20
516.68	30986.35
516.85	31194.66
517.03	31133.81
517.20	31611.28
517.37	31498.93
517.54	31667.45
517.72	31842.99
517.89	31599.57
518.06	31559.78
518.24	31899.16
518.41	31908.52
518.58	31681.49
518.75	31768.09
518.93	32381.31
519.10	32336.84
519.27	32304.07
519.45	32636.43
519.62	32627.07
519.79	32432.80
519.96	32811.97
520.14	33284.76
520.31	32697.28
520.48	32648.13
520.65	32891.55
520.83	33029.64
521.00	33312.84
521.17	33120.92
521.34	33497.75
521.52	33242.63
521.69	33359.66
521.86	33457.96
522.03	33612.43
522.20	33244.97
522.38	33799.68
522.55	33682.65
522.72	34113.31
522.89	33387.74
523.07	33427.53
523.24	33392.42
523.41	33947.13
523.58	34185.86
523.75	34536.94
523.92	34403.53
524.10	34300.55
524.27	34323.96
524.44	34466.73
524.61	34506.52
524.78	34227.99
524.96	34920.79
525.13	34721.85
525.30	34440.98
525.47	34934.84
525.64	34803.77
525.81	35232.08
525.98	35049.52
526.16	35122.08
526.33	35002.71
526.50	35283.58
526.67	34965.26
526.84	35152.51
527.01	35009.73
527.18	34677.38
527.36	35351.45
527.53	35737.64
527.70	35470.82
527.87	35536.35
528.04	35187.61
528.21	35503.59
528.38	35379.54
528.55	35859.35
528.72	35658.06
528.89	36074.68
529.07	36194.04
529.24	36065.31
529.41	36025.53
529.58	36004.46
529.75	36196.38
529.92	35702.53
530.09	36346.18
530.26	36779.18
530.43	36470.23
530.60	36250.22
530.77	36402.35
530.94	36804.92
531.11	36833.01
531.28	36465.55
531.46	36851.73
531.63	36449.16
531.80	36556.83
531.97	36781.52
532.14	36465.55
532.31	36336.82
532.48	37078.77
532.65	36966.42
532.82	36732.37
532.99	37177.07
533.16	36933.65
533.33	37031.96
533.50	37148.98
533.67	37312.82
533.84	37233.24
534.01	36980.46
534.18	37146.64
534.35	37736.46
534.52	37516.45
534.69	37577.30
534.86	37450.91
535.03	37476.66
535.20	38227.97
535.37	37598.37
535.54	38132.01
535.71	37944.76
535.88	38012.64
536.05	37745.82
536.22	38099.24
536.38	38141.37
536.55	38347.34
536.72	38143.71
536.89	37832.42
537.06	37703.69
537.23	38260.74
537.40	38211.59
537.57	38616.50
537.74	38127.33
537.91	39068.22
538.08	38646.93
538.25	37825.40
538.42	38101.58
538.59	38553.30
538.75	38127.33
538.92	38171.80
539.09	38431.60
539.26	38527.56
539.43	38939.49
539.60	38614.16
539.77	39002.69
539.94	39108.01
540.11	38878.64
540.28	39030.77
540.44	38595.43
540.61	39028.43
540.78	39124.40
540.95	39229.72
541.12	38831.83
541.29	39129.08
541.46	39150.14
541.62	39117.37
541.79	39302.28
541.96	39218.02
542.13	39416.96
542.30	39613.57
542.47	39735.27
542.63	39166.52
542.80	39412.28
542.97	39955.29
543.14	39950.60
543.31	40268.92
543.48	39557.39
543.64	40622.34
543.81	39971.67
543.98	39814.85
544.15	40320.41
544.32	40552.12
544.48	40533.40
544.65	40212.74
544.82	40294.66
544.99	40004.44
545.16	40727.66
545.32	40013.80
545.49	40463.18
545.66	41240.24
545.83	40685.53
546.00	40772.13
546.16	40634.04
546.33	40577.87
546.50	40027.84
546.67	40781.49
546.83	40280.62
547.00	40760.43
547.17	40694.89
547.34	40605.95
547.50	40706.60
547.67	41368.97
547.84	40748.73
548.00	41228.54
548.17	41191.09
548.34	40905.54
548.51	41404.08
548.67	41160.66
548.84	41130.23
549.01	41158.32
549.18	40779.15
549.34	40830.65
549.51	41106.83
549.68	41654.51
549.84	41759.84
550.01	41825.37
550.18	41422.80
550.34	41493.02
550.51	41294.07
550.68	40889.16
550.84	40910.22
551.01	41881.55
551.18	41329.18
551.34	41525.78
551.51	41949.42
551.68	41965.81
551.84	42024.32
552.01	41270.67
552.18	41528.13
552.34	41808.99
552.51	41656.85
552.68	41858.14
552.84	41588.98
553.01	41830.05
553.18	41944.74
553.34	41926.02
553.51	41982.19
553.67	42155.39
553.84	42368.38
554.01	42190.50
554.17	42143.69
554.34	42703.07
554.51	42300.50
554.67	42738.18
554.84	42822.44
555.00	42120.28
555.17	42326.25
555.33	42621.16
555.50	42895.00
555.67	42590.73
555.83	42717.12
556.00	42546.26
556.16	43063.52
556.33	43026.07
556.50	42508.81
556.66	42761.59
556.83	42719.46
556.99	42897.34
557.16	43407.58
557.32	42742.86
557.49	42689.03
557.65	42490.09
557.82	42469.02
557.98	42621.16
558.15	42770.95
558.32	43295.23
558.48	42801.38
558.65	42440.93
558.81	42457.32
558.98	43100.97
559.14	43171.18
559.31	42831.80
559.47	42719.46
559.64	43438.00
559.80	42855.21
559.97	43229.69
560.13	42691.37
560.30	43005.00
560.46	43136.07
560.63	42960.53
560.79	43395.87
560.96	43328.00
561.12	43304.59
561.29	43814.83
561.45	43168.84
561.61	43248.42
561.78	43393.53
561.94	43344.38
562.11	43407.58
562.27	42871.59
562.44	43381.83
562.60	43220.33
562.77	43264.80
562.93	43182.88
563.10	43721.21
563.26	42967.55
563.42	43749.29
563.59	43452.05
563.75	43452.05
563.92	43599.50
564.08	43676.74
564.24	43730.57
564.41	43278.85
564.57	43543.33
564.74	43512.90
564.90	43758.66
565.07	43791.42
565.23	43449.70
565.39	43629.93
565.56	43730.57
565.72	43409.92
565.88	43643.97
566.05	43629.93
566.21	43271.82
566.38	43522.26
566.54	43768.02
566.70	43992.71
566.87	44320.38
567.03	43578.43
567.19	43674.40
567.36	44186.97
567.52	43807.81
567.68	43992.71
567.85	43929.51
568.01	43885.04
568.17	44126.12
568.34	43824.19
568.50	43948.24
568.66	43777.38
568.83	43697.80
568.99	43601.84
569.15	43613.54
569.32	43920.15
569.48	44032.50
569.64	44025.48
569.81	43519.92
569.97	43658.01
570.13	43643.97
570.30	44289.96
570.46	43344.38
570.62	43246.08
570.78	43625.25
570.95	43548.01
571.11	43941.22
571.27	44069.95
571.43	43594.82
571.60	44126.12
571.76	43470.77
571.92	43849.94
572.09	43863.98
572.25	43962.28
572.41	43952.92
572.57	43889.73
572.74	44512.31
572.90	44076.97
573.06	44055.90
573.22	44336.77
573.38	43913.13
573.55	43995.05
573.71	44081.65
573.87	43854.62
574.03	43693.12
574.20	43861.64
574.36	43887.39
574.52	44016.11
574.68	43735.25
574.84	44491.24
575.01	43899.09
575.17	44114.42
575.33	43587.80
575.49	44257.19
575.65	44334.43
575.82	44172.93
575.98	44116.76
576.14	44587.21
576.30	44315.70
576.46	44044.20
576.62	44210.38
576.79	44006.75
576.95	43938.88
577.11	44301.66
577.27	44325.07
577.43	44332.09
577.59	44144.84
577.75	43959.94
577.92	43786.74
578.08	43562.05
578.24	43793.76
578.40	43695.46
578.56	44336.77
578.72	44470.18
578.88	44065.27
579.04	44245.49
579.21	43749.29
579.37	43988.03
579.53	44156.55
579.69	43751.63
579.85	44037.18
580.01	44280.60
580.17	44257.19
580.33	44186.97
580.49	44622.31
580.65	44154.21
580.82	44252.51
580.98	44224.42
581.14	44025.48
581.30	44065.27
581.46	44186.97
581.62	44601.25
581.78	44322.72
581.94	44701.89
582.10	44062.93
582.26	44732.32
582.42	44238.47
582.58	44339.11
582.74	43995.05
582.90	44304.00
583.06	44355.49
583.22	44615.29
583.38	44479.54
583.54	44369.54
583.70	44179.95
583.86	44371.88
584.02	43786.74
584.18	44418.69
584.34	44456.14
584.50	44402.30
584.66	44313.36
584.82	44158.89
584.98	44458.48
585.14	44491.24
585.30	44236.12
585.46	44336.77
585.62	44210.38
585.78	44739.34
585.94	44119.10
586.10	43999.73
586.26	44182.29
586.42	43976.33
586.58	44175.27
586.74	44416.35
586.90	44371.88
587.06	44245.49
587.22	44250.17
587.38	44133.14
587.54	44573.16
587.70	44559.12
587.86	44797.85
588.02	44570.82
588.18	45045.95
588.34	44348.47
588.49	43981.01
588.65	44100.37
588.81	44287.62
588.97	44245.49
589.13	44002.07
589.29	44179.95
589.45	44666.78
589.61	44383.58
589.77	44692.53
589.93	44638.70
590.08	44690.19
590.24	44711.25
590.40	44456.14
