SpectraSuite Data File
++++++++++++++++++++++++++++++++++++
Date: Fri Oct 25 10:44:44 EDT 2013
User: price-jones
Dark Spectrum Present: No
Reference Spectrum Present: No
Number of Sampled Component Spectra: 1
Spectrometers: USB2+H05261
Integration Time (usec): 100000 (USB2+H05261)
Spectra Averaged: 1 (USB2+H05261)
Boxcar Smoothing: 0 (USB2+H05261)
Correct for Electrical Dark: No (USB2+H05261)
Strobe/Lamp Enabled: No (USB2+H05261)
Correct for Detector Non-linearity: No (USB2+H05261)
Correct for Stray Light: No (USB2+H05261)
Number of Pixels in Processed Spectrum: 2048
>>>>>Begin Processed Spectral Data<<<<<
365.73	208.31
365.92	208.31
366.12	208.31
366.32	42.13
366.52	7.02
366.72	100.64
366.91	70.22
367.11	79.58
367.31	4.68
367.51	42.13
367.70	9.36
367.90	28.09
368.10	0.00
368.30	11.70
368.49	0.00
368.69	23.41
368.89	77.24
369.09	0.00
369.28	25.75
369.48	7.02
369.68	0.00
369.87	170.86
370.07	93.62
370.27	128.73
370.47	224.69
370.66	388.53
370.86	400.23
371.06	383.85
371.25	470.45
371.45	444.70
371.65	477.47
371.84	393.21
372.04	472.79
372.24	442.36
372.44	458.74
372.63	451.72
372.83	418.96
373.03	402.57
373.22	512.58
373.42	519.60
373.62	451.72
373.81	535.98
374.01	704.50
374.21	594.50
374.40	470.45
374.60	557.05
374.79	505.56
374.99	554.71
375.19	540.66
375.38	585.13
375.58	561.73
375.78	624.92
375.97	538.32
376.17	645.99
376.37	547.69
376.56	585.13
376.76	552.37
376.95	608.54
377.15	587.47
377.35	580.45
377.54	543.00
377.74	641.31
377.93	575.77
378.13	603.86
378.33	648.33
378.52	573.43
378.72	552.37
378.91	683.44
379.11	636.63
379.31	617.90
379.50	561.73
379.70	594.50
379.89	671.73
380.09	540.66
380.28	662.37
380.48	524.28
380.68	594.50
380.87	627.26
381.07	603.86
381.26	692.80
381.46	798.12
381.65	657.69
381.85	669.39
382.04	615.56
382.24	704.50
382.43	676.41
382.63	615.56
382.83	615.56
383.02	657.69
383.22	779.40
383.41	645.99
383.61	615.56
383.80	578.11
384.00	683.44
384.19	741.95
384.39	692.80
384.58	758.33
384.78	711.52
384.97	706.84
385.17	763.01
385.36	767.70
385.56	807.48
385.75	767.70
385.95	758.33
386.14	809.83
386.34	758.33
386.53	763.01
386.72	704.50
386.92	858.98
387.11	856.64
387.31	805.14
387.50	777.06
387.70	821.53
387.89	828.55
388.09	805.14
388.28	744.29
388.48	821.53
388.67	861.32
388.86	968.98
389.06	849.61
389.25	887.06
389.45	912.81
389.64	887.06
389.84	917.49
390.03	891.74
390.22	950.26
390.42	936.21
390.61	842.59
390.81	1004.09
391.00	926.85
391.19	973.66
391.39	926.85
391.58	1034.52
391.78	1086.01
391.97	1036.86
392.16	994.73
392.36	1046.22
392.55	987.71
392.75	964.30
392.94	980.68
393.13	933.87
393.33	1015.79
393.52	1022.81
393.71	1025.15
393.91	1060.26
394.10	1078.99
394.29	966.64
394.49	1064.94
394.68	1200.69
394.88	1086.01
395.07	1177.29
395.26	1165.59
395.46	1196.01
395.65	1121.12
395.84	1149.20
396.04	1181.97
396.23	1193.67
396.42	1123.46
396.62	1034.52
396.81	1104.73
397.00	1128.14
397.19	1123.46
397.39	1170.27
397.58	1282.61
397.77	1198.35
397.97	1303.68
398.16	1343.47
398.35	1263.89
398.55	1273.25
398.74	1345.81
398.93	1448.79
399.12	1369.21
399.32	1439.43
399.51	1451.13
399.70	1420.71
399.90	1380.92
400.09	1465.18
400.28	1352.83
400.47	1514.33
400.67	1437.09
400.86	1345.81
401.05	1474.54
401.24	1427.73
401.44	1490.92
401.63	1441.77
401.82	1570.50
402.01	1523.69
402.21	1502.62
402.40	1535.39
402.59	1565.82
402.78	1551.78
402.97	1563.48
403.17	1558.80
403.36	1596.25
403.55	1617.31
403.74	1661.78
403.93	1570.50
404.13	1598.59
404.32	1598.59
404.51	1519.01
404.70	1767.10
404.89	1694.55
405.09	1788.17
405.28	1673.48
405.47	1771.79
405.66	1804.55
405.85	1727.32
406.05	1743.70
406.24	1767.10
406.43	1760.08
406.62	1846.68
406.81	1937.96
407.00	1919.24
407.20	1802.21
407.39	1802.21
407.58	1984.77
407.77	1881.79
407.96	1886.47
408.15	2010.52
408.34	1905.20
408.54	1989.46
408.73	2001.16
408.92	2080.74
409.11	2059.67
409.30	2036.27
409.49	2120.53
409.68	2092.44
409.87	1956.69
410.07	2122.87
410.26	2078.40
410.45	2045.63
410.64	2111.16
410.83	2366.28
411.02	2417.77
411.21	2258.62
411.40	2410.75
411.59	2230.53
411.78	2279.68
411.98	2349.90
412.17	2429.48
412.36	2434.16
412.55	2380.32
412.74	2441.18
412.93	2436.50
413.12	2483.31
413.31	2605.02
413.50	2490.33
413.69	2567.57
413.88	2600.34
414.07	2574.59
414.26	2635.44
414.45	2502.03
414.64	2665.87
414.83	2785.24
415.02	2740.77
415.22	2810.98
415.41	2761.83
415.60	2813.32
415.79	2878.86
415.98	2951.42
416.17	2874.18
416.36	2944.39
416.55	2981.84
416.74	2956.10
416.93	2913.97
417.12	2946.73
417.31	2981.84
417.50	2967.80
417.69	3265.05
417.88	3220.58
418.07	3103.55
418.26	3204.19
418.45	3152.70
418.64	3330.58
418.83	3314.20
419.02	3325.90
419.21	3342.28
419.39	3307.18
419.58	3295.47
419.77	3185.47
419.96	3375.05
420.15	3239.30
420.34	3316.54
420.53	3342.28
420.72	3377.39
420.91	3445.27
421.10	3515.48
421.29	3508.46
421.48	3459.31
421.67	3492.08
421.86	3435.91
422.05	3522.51
422.24	3426.54
422.43	3426.54
422.61	3449.95
422.80	3424.20
422.99	3552.93
423.18	3676.98
423.37	3564.64
423.56	3686.34
423.75	3564.64
423.94	3480.38
424.13	3290.79
424.32	3590.38
424.50	3595.06
424.69	3658.26
424.88	3763.58
425.07	3592.72
425.26	3555.27
425.45	3543.57
425.64	3632.51
425.83	3667.62
426.01	3634.85
426.20	3702.73
426.39	3562.30
426.58	3548.25
426.77	3531.87
426.96	3613.79
427.15	3810.39
427.33	3644.21
427.52	3662.94
427.71	3728.47
427.90	3712.09
428.09	3901.67
428.28	3831.46
428.46	3695.71
428.65	3810.39
428.84	3955.51
429.03	3812.73
429.22	3770.60
429.40	3857.20
429.59	3803.37
429.78	3644.21
429.97	3686.34
430.16	3779.97
430.34	3850.18
430.53	3892.31
430.72	3794.01
430.91	3976.57
431.10	4025.72
431.28	4095.94
431.47	4182.54
431.66	4276.16
431.85	4229.35
432.03	4292.54
432.22	4369.78
432.41	4198.92
432.60	4182.54
432.79	4205.94
432.97	4301.90
433.16	4414.25
433.35	4325.31
433.54	4297.22
433.72	4313.61
433.91	4208.28
434.10	4379.14
434.28	4351.06
434.47	4362.76
434.66	4662.35
434.85	4524.26
435.03	4535.96
435.22	4592.13
435.41	4753.63
435.59	4606.17
435.78	4585.11
435.97	4596.81
436.16	4678.73
436.34	4486.81
436.53	4706.82
436.72	4938.53
436.90	4807.46
437.09	4772.35
437.28	4606.17
437.46	4718.52
437.65	4608.51
437.84	4809.80
438.02	4702.14
438.21	4882.36
438.40	4592.13
438.58	4833.21
438.77	5116.41
438.96	4772.35
439.14	5107.05
439.33	4919.81
439.52	5097.69
439.70	5109.39
439.89	5135.14
440.08	5121.09
440.26	5078.96
440.45	5151.52
440.63	5451.11
440.82	5490.90
441.01	5392.59
441.19	5348.12
441.38	5612.60
441.57	5554.09
441.75	5645.37
441.94	5671.12
442.12	5680.48
442.31	5837.30
442.50	5563.45
442.68	5753.04
442.87	5652.39
443.05	5832.62
443.24	5900.49
443.43	5713.25
443.61	5884.11
443.80	5989.43
443.98	5902.83
444.17	5750.70
444.35	5919.21
444.54	5982.41
444.73	6015.18
444.91	5841.98
445.10	5856.02
445.28	5762.40
445.47	5809.21
445.65	5987.09
445.84	6005.81
446.02	5923.90
446.21	5888.79
446.39	5891.13
446.58	5830.27
446.77	6071.35
446.95	5912.19
447.14	6085.39
447.32	6155.61
447.51	5902.83
447.69	6092.41
447.88	6036.24
448.06	6094.76
448.25	6111.14
448.43	6314.77
448.62	6085.39
448.80	6001.13
448.99	6239.87
449.17	6277.32
449.36	6024.54
449.54	6310.08
449.73	6377.96
449.91	6462.22
450.10	6314.77
450.28	6410.73
450.46	6443.49
450.65	6504.35
450.83	6342.85
451.02	6415.41
451.20	6354.55
451.39	6459.88
451.57	6534.78
451.76	6392.00
451.94	6579.25
452.13	6583.93
452.31	6506.69
452.49	6464.56
452.68	6583.93
452.86	6518.39
453.05	6710.32
453.23	6656.48
453.42	6464.56
453.60	6469.24
453.78	6855.43
453.97	6537.12
454.15	6956.07
454.34	6731.38
454.52	6913.94
454.70	6796.92
454.89	6787.55
455.07	6883.52
455.26	6977.14
455.44	7108.21
455.62	7101.19
455.81	6951.39
455.99	7274.38
456.17	6946.71
456.36	7126.93
456.54	7419.50
456.73	7262.68
456.91	7368.01
457.09	7571.63
457.28	7585.68
457.46	7384.39
457.64	7559.93
457.83	7473.33
458.01	7382.05
458.19	7269.70
458.38	7403.11
458.56	7529.50
458.74	7442.90
458.93	7435.88
459.11	7581.00
459.29	7566.95
459.48	7660.57
459.66	7660.57
459.84	7585.68
460.03	7768.24
460.21	7714.41
460.39	7852.50
460.57	7836.11
460.76	7779.94
460.94	7728.45
461.12	7978.89
461.31	7751.85
461.49	7913.35
461.67	7740.15
461.85	8135.70
462.04	7864.20
462.22	8070.17
462.40	8184.85
462.59	8182.51
462.77	8142.72
462.95	8119.32
463.13	7957.82
463.32	8126.34
463.50	8329.97
463.68	8170.81
463.86	8285.50
464.05	8100.59
464.23	8241.03
464.41	8332.31
464.59	8212.94
464.78	8379.12
464.96	8489.12
465.14	8238.69
465.32	8489.12
465.50	8528.91
465.69	8418.91
465.87	8418.91
466.05	8514.87
466.23	8437.63
466.41	8248.05
466.60	8692.75
466.78	8442.31
466.96	8514.87
467.14	8442.31
467.32	8580.40
467.51	8585.08
467.69	8557.00
467.87	8547.64
468.05	8615.51
468.23	8692.75
468.41	8587.43
468.60	8814.46
468.78	8631.90
468.96	8723.18
469.14	9064.89
469.32	8943.19
469.50	8765.31
469.69	8812.12
469.87	9053.19
470.05	9060.21
470.23	8884.67
470.41	8992.34
470.59	9172.56
470.77	8933.82
470.95	9179.58
471.14	9327.03
471.32	8931.48
471.50	9228.73
471.68	9413.63
471.86	9387.89
472.04	9357.46
472.22	9568.11
472.40	9469.81
472.58	9521.30
472.77	9582.15
472.95	9650.03
473.13	9769.40
473.31	9523.64
473.49	9755.35
473.67	9781.10
473.85	9858.34
474.03	9891.10
474.21	9989.41
474.39	9816.21
474.57	10059.62
474.75	10118.14
474.93	10176.65
475.12	10174.31
475.30	10293.68
475.48	10307.72
475.66	10321.76
475.84	10408.36
476.02	10427.09
476.20	10190.69
476.38	10511.35
476.56	10862.43
476.74	10934.98
476.92	10850.72
477.10	10913.92
477.28	11098.82
477.46	10888.17
477.64	11339.90
477.82	11325.85
478.00	11548.20
478.18	11590.33
478.36	11599.70
478.54	11679.27
478.72	11569.27
478.90	12042.06
479.08	11859.49
479.26	12079.50
479.44	11978.86
479.62	12058.44
479.80	12339.30
479.98	12393.14
480.16	12470.37
480.34	12320.58
480.52	12542.93
480.70	12695.07
480.88	12603.78
481.06	12802.73
481.24	12898.69
481.41	13090.62
481.59	13102.32
481.77	13331.69
481.95	13114.02
482.13	13329.35
482.31	13329.35
482.49	13434.68
482.67	13874.70
482.85	13713.20
483.03	13982.36
483.21	13853.63
483.39	14108.75
483.57	14253.86
483.74	14214.07
483.92	14300.67
484.10	14164.92
484.28	14487.92
484.46	15101.14
484.64	15030.92
484.82	14761.76
485.00	14979.43
485.18	15321.15
485.35	15129.22
485.53	14953.68
485.71	14984.11
485.89	15616.05
486.07	15365.62
486.25	15440.51
486.43	15644.14
486.61	15775.21
486.78	16081.82
486.96	16004.58
487.14	16388.43
487.32	16259.70
487.50	16498.44
487.68	16622.48
487.85	16781.64
488.03	17078.89
488.21	17397.20
488.39	17149.11
488.57	17055.48
488.75	17645.30
488.92	17837.22
489.10	17991.70
489.28	17942.55
489.46	18401.29
489.64	18202.35
489.81	18663.43
489.99	18504.28
490.17	18838.97
490.35	18944.30
490.53	18647.05
490.70	19033.24
490.88	18785.14
491.06	19264.95
491.24	19096.43
491.41	19370.27
491.59	19255.59
491.77	19494.32
491.95	19477.94
492.13	19833.70
492.30	19957.75
492.48	20109.88
492.66	20285.42
492.84	20159.03
493.01	20294.79
493.19	20514.80
493.37	20765.23
493.54	20720.76
493.72	21221.64
493.90	21172.49
494.08	21106.95
494.25	21439.31
494.43	21472.07
494.61	21446.33
494.79	21516.54
494.96	21867.63
495.14	21764.64
495.32	21921.46
495.49	21989.33
495.67	22092.32
495.85	22225.73
496.02	22721.92
496.20	22537.02
496.38	22576.81
496.55	22497.23
496.73	22955.97
496.91	23101.09
497.09	22822.56
497.26	23335.14
497.44	23159.60
497.62	23393.65
497.79	23585.58
497.97	23330.46
498.14	23569.19
498.32	23754.10
498.50	23466.21
498.67	23845.38
498.85	24147.31
499.03	24056.03
499.20	24173.05
499.38	24065.39
499.56	24322.85
499.73	24484.34
499.91	24425.83
500.08	25062.46
500.26	24503.07
500.44	24828.40
500.61	24723.08
500.79	25256.72
500.97	24961.81
501.14	25530.56
501.32	25165.44
501.49	25132.67
501.67	25179.48
501.84	25893.35
502.02	25558.65
502.20	26408.26
502.37	25956.54
502.55	25820.79
502.72	25905.05
502.90	26043.14
503.07	25788.02
503.25	26441.03
503.43	26396.56
503.60	26277.19
503.78	26349.75
503.95	26541.68
504.13	26752.32
504.30	26651.68
504.48	26841.26
504.65	27161.92
504.83	27250.86
505.01	27461.51
505.18	26808.50
505.36	27402.99
505.53	27222.77
505.71	27564.49
505.88	27473.21
506.06	27433.42
506.23	27269.58
506.41	27819.61
506.58	27992.81
506.76	27728.33
506.93	28114.52
507.11	27754.07
507.28	27740.03
507.46	28004.51
507.63	28133.24
507.81	28332.18
507.98	28095.79
508.16	28416.44
508.33	28748.80
508.50	28603.69
508.68	28900.94
508.85	29099.88
509.03	28907.96
509.20	29174.78
509.38	28835.40
509.55	29174.78
509.73	29291.80
509.90	29216.91
510.08	29193.50
510.25	29240.31
510.42	29401.81
510.60	29486.07
510.77	29780.98
510.95	30169.51
511.12	29467.34
511.30	30281.85
511.47	30103.97
511.64	30253.76
511.82	30492.50
511.99	30335.68
512.17	30632.93
512.34	30476.12
512.51	30749.96
512.69	30960.61
512.86	30377.81
513.04	31042.53
513.21	30764.00
513.38	30923.16
513.56	30483.14
513.73	30476.12
513.90	30981.67
514.08	31445.10
514.25	31030.82
514.43	31021.46
514.60	31007.42
514.77	31248.49
514.95	32072.36
515.12	31672.13
515.29	31527.02
515.47	31927.25
515.64	31690.85
515.81	31683.83
515.99	31800.86
516.16	31501.27
516.33	31754.05
516.51	31754.05
516.68	31550.42
516.85	31351.48
517.03	32081.72
517.20	32084.06
517.37	31826.60
517.54	32577.92
517.72	32428.12
517.89	32151.94
518.06	32121.51
518.24	32266.63
518.41	32503.02
518.58	32690.26
518.75	32559.19
518.93	32648.13
519.10	32943.04
519.27	33039.00
519.45	33024.96
519.62	32865.80
519.79	33209.86
519.96	33221.56
520.14	33640.52
520.31	33422.85
520.48	33544.56
520.65	33399.44
520.83	33855.85
521.00	34033.73
521.17	33661.58
521.34	33797.34
521.52	34129.69
521.69	33806.70
521.86	34188.21
522.03	34146.08
522.20	34202.25
522.38	34335.66
522.55	34536.94
522.72	34293.53
522.89	34087.56
523.07	34761.64
523.24	34483.11
523.41	34740.57
523.58	34693.76
523.75	35419.33
523.92	34873.98
524.10	34677.38
524.27	34869.30
524.44	35124.42
524.61	35400.60
524.78	35178.25
524.96	35416.99
525.13	35494.22
525.30	35196.98
525.47	35950.63
525.64	35660.40
525.81	35702.53
525.98	35571.46
526.16	35620.61
526.33	35445.07
526.50	35651.04
526.67	35103.35
526.84	35943.61
527.01	35508.27
527.18	35782.11
527.36	36219.79
527.53	36168.30
527.70	36301.71
527.87	36547.47
528.04	36233.83
528.21	36526.40
528.38	36570.87
528.55	36505.34
528.72	36809.61
528.89	36952.38
529.07	36582.57
529.24	36327.45
529.41	36737.05
529.58	36456.18
529.75	36540.44
529.92	37027.28
530.09	37062.38
530.26	37170.05
530.43	37303.46
530.60	36840.03
530.77	37095.15
530.94	37357.29
531.11	37214.52
531.28	37214.52
531.46	37532.83
531.63	37301.12
531.80	37343.25
531.97	37727.10
532.14	37027.28
532.31	37544.53
532.48	37439.21
532.65	37656.88
532.82	37797.31
532.99	37710.71
533.16	37511.77
533.33	37989.24
533.50	37942.42
533.67	38040.73
533.84	37624.11
534.01	37581.98
534.18	37794.97
534.35	38171.80
534.52	37745.82
534.69	38377.76
534.86	38501.81
535.03	38270.10
535.20	38494.79
535.37	38859.91
535.54	38803.74
535.71	38600.12
535.88	38490.11
536.05	38342.66
536.22	38787.36
536.38	38967.58
536.55	38485.43
536.72	38761.61
536.89	38937.15
537.06	38792.04
537.23	39299.94
537.40	38693.74
537.57	38593.09
537.74	38969.92
537.91	38866.94
538.08	39276.53
538.25	39077.58
538.42	38883.32
538.59	39253.12
538.75	39187.59
538.92	39098.65
539.09	39496.54
539.26	39264.83
539.43	39723.57
539.60	39433.35
539.77	39234.40
539.94	39150.14
540.11	39295.25
540.28	39431.01
540.44	39482.50
540.61	39690.80
540.78	39938.90
540.95	39686.12
541.12	39358.45
541.29	39475.48
541.46	39604.20
541.62	39831.24
541.79	39702.51
541.96	39618.25
542.13	39629.95
542.30	39990.39
542.47	39651.02
542.63	39718.89
542.80	40189.34
542.97	40507.65
543.14	40994.48
543.31	40877.46
543.48	40643.40
543.64	41060.02
543.81	41031.93
543.98	41273.01
544.15	40713.62
544.32	40940.65
544.48	41109.17
544.65	40811.92
544.82	41092.79
544.99	40662.13
545.16	41319.82
545.32	40926.61
545.49	40919.59
545.66	41261.30
545.83	41207.47
546.00	41392.37
546.16	41067.04
546.33	41155.98
546.50	40893.84
546.67	41284.71
546.83	41090.44
547.00	41134.92
547.17	41053.00
547.34	41324.50
547.50	41354.93
547.67	41574.94
547.84	41460.25
548.00	41659.20
548.17	41865.16
548.34	41921.34
548.51	41963.46
548.67	41652.17
548.84	41497.70
549.01	41762.18
549.18	41469.61
549.34	41860.48
549.51	42019.64
549.68	41563.23
549.84	41684.94
550.01	42197.52
550.18	41392.37
550.34	42171.77
550.51	42134.32
550.68	41954.10
550.84	41776.22
551.01	42134.32
551.18	42284.12
551.34	42143.69
551.51	42384.76
551.68	42157.73
551.84	42155.39
552.01	42043.04
552.18	42529.87
552.34	41874.52
552.51	42593.07
552.68	42417.53
552.84	42541.58
553.01	42642.22
553.18	42689.03
553.34	42181.13
553.51	42370.72
553.67	42754.57
553.84	42511.15
554.01	42993.30
554.17	42862.23
554.34	42803.72
554.51	42728.82
554.67	42794.36
554.84	42944.15
555.00	42560.30
555.17	42506.47
555.33	42763.93
555.50	42579.03
555.67	42934.79
555.83	43049.47
556.00	42993.30
556.16	43215.65
556.33	43220.33
556.50	43105.65
556.66	42988.62
556.83	43082.24
556.99	43203.95
557.16	43557.37
557.32	43311.61
557.49	43250.76
557.65	43248.42
557.82	43180.54
557.98	43288.21
558.15	43313.95
558.32	43707.16
558.48	43171.18
558.65	43239.06
558.81	42740.52
558.98	43276.51
559.14	43126.71
559.31	43206.29
559.47	43339.70
559.64	43838.23
559.80	43503.54
559.97	43391.19
560.13	43484.81
560.30	43503.54
560.46	43728.23
560.63	43496.52
560.79	43470.77
560.96	43807.81
561.12	43648.65
561.29	43426.30
561.45	43674.40
561.61	43646.31
561.78	43629.93
561.94	43842.92
562.11	43852.28
562.27	43447.36
562.44	43910.79
562.60	43791.42
562.77	43927.17
562.93	43990.37
563.10	44023.14
563.26	43517.58
563.42	43786.74
563.59	43409.92
563.75	43828.87
563.92	43915.47
564.08	44058.24
564.24	43892.07
564.41	44243.15
564.57	43978.67
564.74	43643.97
564.90	43941.22
565.07	43875.68
565.23	43763.34
565.39	43690.78
565.56	43936.54
565.72	44002.07
565.88	43924.83
566.05	43952.92
566.21	43878.02
566.38	44137.82
566.54	43786.74
566.70	44215.06
566.87	44809.56
567.03	44463.16
567.19	44179.95
567.36	44105.06
567.52	43988.03
567.68	44254.85
567.85	44179.95
568.01	44016.11
568.17	43875.68
568.34	44243.15
568.50	44278.25
568.66	44189.31
568.83	44449.11
568.99	43913.13
569.15	43910.79
569.32	44186.97
569.48	44130.80
569.64	44411.67
569.81	44547.42
569.97	43810.15
570.13	44271.23
570.30	44170.59
570.46	43625.25
570.62	44144.84
570.78	43721.21
570.95	44067.61
571.11	44947.65
571.27	44339.11
571.43	44133.14
571.60	44107.40
571.76	44245.49
571.92	44278.25
572.09	44224.42
572.25	44643.38
572.41	44011.43
572.57	44308.68
572.74	44425.71
572.90	44474.86
573.06	44306.34
573.22	44435.07
573.38	44250.17
573.55	44144.84
573.71	44257.19
573.87	44156.55
574.03	44409.32
574.20	44329.75
574.36	44535.71
574.52	44793.17
574.68	44493.58
574.84	44652.74
575.01	44069.95
575.17	44378.90
575.33	44060.58
575.49	44376.56
575.65	44488.90
575.82	44528.69
575.98	44741.68
576.14	44470.18
576.30	44589.55
576.46	44722.96
576.62	44549.76
576.79	44477.20
576.95	44652.74
577.11	44734.66
577.27	44900.84
577.43	44467.84
577.59	44257.19
577.75	44329.75
577.92	43901.43
578.08	44388.26
578.24	44079.31
578.40	44547.42
578.56	44645.72
578.72	44685.51
578.88	44460.82
579.04	44903.18
579.21	44322.72
579.37	44353.15
579.53	44348.47
579.69	44559.12
579.85	44442.09
580.01	44729.98
580.17	44645.72
580.33	44261.87
580.49	44498.26
580.65	44854.03
580.82	44521.67
580.98	44399.96
581.14	44823.60
581.30	44655.08
581.46	44772.11
581.62	44694.87
581.78	44821.26
581.94	44542.74
582.10	44514.65
582.26	44629.34
582.42	44547.42
582.58	44601.25
582.74	44701.89
582.90	44516.99
583.06	44858.71
583.22	44423.37
583.38	45069.36
583.54	44701.89
583.70	44872.75
583.86	44542.74
584.02	44713.59
584.18	44978.07
584.34	44594.23
584.50	44549.76
584.66	44566.14
584.82	44591.89
584.98	44587.21
585.14	44996.80
585.30	44774.45
585.46	44746.36
585.62	44388.26
585.78	44680.83
585.94	44098.03
586.10	44732.32
586.26	44378.90
586.42	44744.02
586.58	44729.98
586.74	44458.48
586.90	44446.77
587.06	44584.86
587.22	44847.00
587.38	44748.70
587.54	44910.20
587.70	44804.88
587.86	44800.19
588.02	44676.15
588.18	45111.49
588.34	44493.58
588.49	43690.78
588.65	44341.45
588.81	44226.76
588.97	44570.82
589.13	44442.09
589.29	44608.27
589.45	44849.35
589.61	44671.46
589.77	44879.77
589.93	44996.80
590.08	44954.67
590.24	45146.59
