SpectraSuite Data File
++++++++++++++++++++++++++++++++++++
Date: Fri Oct 25 11:23:24 EDT 2013
User: price-jones
Dark Spectrum Present: No
Reference Spectrum Present: No
Number of Sampled Component Spectra: 1
Spectrometers: USB2+H05261
Integration Time (usec): 100000 (USB2+H05261)
Spectra Averaged: 1 (USB2+H05261)
Boxcar Smoothing: 0 (USB2+H05261)
Correct for Electrical Dark: No (USB2+H05261)
Strobe/Lamp Enabled: No (USB2+H05261)
Correct for Detector Non-linearity: No (USB2+H05261)
Correct for Stray Light: No (USB2+H05261)
Number of Pixels in Processed Spectrum: 2048
>>>>>Begin Processed Spectral Data<<<<<
365.73	236.39
365.92	236.39
366.12	236.39
366.32	191.92
366.52	142.77
366.72	79.58
366.91	79.58
367.11	184.90
367.31	138.09
367.51	93.62
367.70	72.56
367.90	135.75
368.10	86.60
368.30	128.73
368.49	140.43
368.69	140.43
368.89	67.88
369.09	126.39
369.28	182.56
369.48	177.88
369.68	205.97
369.87	205.97
370.07	196.60
370.27	184.90
370.47	327.68
370.66	594.50
370.86	578.11
371.06	624.92
371.25	730.25
371.45	678.76
371.65	711.52
371.84	660.03
372.04	608.54
372.24	713.86
372.44	688.12
372.63	699.82
372.83	683.44
373.03	763.01
373.22	833.23
373.42	840.25
373.62	713.86
373.81	812.17
374.01	868.34
374.21	821.53
374.40	751.31
374.60	800.46
374.79	828.55
374.99	795.78
375.19	884.72
375.38	812.17
375.58	816.85
375.78	835.57
375.97	849.61
376.17	849.61
376.37	828.55
376.56	926.85
376.76	870.68
376.95	905.79
377.15	866.00
377.35	826.21
377.54	910.47
377.74	922.17
377.93	856.64
378.13	938.55
378.33	1039.20
378.52	875.36
378.72	964.30
378.91	968.98
379.11	924.51
379.31	999.41
379.50	959.62
379.70	961.96
379.89	1006.43
380.09	987.71
380.28	943.24
380.48	954.94
380.68	1027.50
380.87	1022.81
381.07	985.37
381.26	999.41
381.46	978.34
381.65	1086.01
381.85	1018.13
382.04	994.73
382.24	1053.24
382.43	1135.16
382.63	1050.90
382.83	1022.81
383.02	1050.90
383.22	1128.14
383.41	1142.18
383.61	1121.12
383.80	1156.22
384.00	1104.73
384.19	1142.18
384.39	1008.77
384.58	1153.88
384.78	1160.91
384.97	1151.54
385.17	1198.35
385.36	1128.14
385.56	1191.33
385.75	1177.29
385.95	1174.95
386.14	1219.42
386.34	1177.29
386.53	1235.80
386.72	1205.38
386.92	1240.48
387.11	1282.61
387.31	1217.08
387.50	1263.89
387.70	1191.33
387.89	1203.04
388.09	1245.16
388.28	1301.34
388.48	1315.38
388.67	1306.02
388.86	1224.10
389.06	1287.29
389.25	1352.83
389.45	1263.89
389.64	1308.36
389.84	1329.42
390.03	1397.30
390.22	1392.62
390.42	1301.34
390.61	1380.92
390.81	1434.75
391.00	1404.32
391.19	1483.90
391.39	1329.42
391.58	1486.24
391.78	1437.09
391.97	1401.98
392.16	1416.02
392.36	1444.11
392.55	1591.56
392.75	1488.58
392.94	1582.20
393.13	1561.14
393.33	1458.15
393.52	1469.86
393.71	1530.71
393.91	1589.22
394.10	1540.07
394.29	1547.09
394.49	1544.75
394.68	1631.35
394.88	1511.99
395.07	1565.82
395.26	1755.40
395.46	1685.19
395.65	1755.40
395.84	1650.08
396.04	1708.59
396.23	1645.40
396.42	1724.97
396.62	1746.04
396.81	1799.87
397.00	1802.21
397.19	1811.57
397.39	1884.13
397.58	1783.49
397.77	1849.02
397.97	1811.57
398.16	1858.39
398.35	1832.64
398.55	1797.53
398.74	1947.33
398.93	1940.30
399.12	1914.56
399.32	1797.53
399.51	1930.94
399.70	1975.41
399.90	2036.27
400.09	1982.43
400.28	2050.31
400.47	2008.18
400.67	2033.93
400.86	1996.48
401.05	2047.97
401.24	2118.18
401.44	2223.51
401.63	2083.08
401.82	2174.36
402.01	2127.55
402.21	2174.36
402.40	2141.59
402.59	2249.25
402.78	2335.85
402.97	2239.89
403.17	2284.36
403.36	2296.07
403.55	2347.56
403.74	2464.58
403.93	2354.58
404.13	2246.91
404.32	2338.20
404.51	2462.24
404.70	2417.77
404.89	2483.31
405.09	2345.22
405.28	2572.25
405.47	2387.35
405.66	2518.42
405.85	2469.27
406.05	2490.33
406.24	2581.61
406.43	2483.31
406.62	2626.08
406.81	2677.57
407.00	2609.70
407.20	2637.78
407.39	2480.97
407.58	2722.04
407.77	2764.17
407.96	2778.22
408.15	2818.00
408.34	2855.45
408.54	2832.05
408.73	2843.75
408.92	2813.32
409.11	2904.60
409.30	2827.37
409.49	2939.71
409.68	2928.01
409.87	2984.18
410.07	2970.14
410.26	3009.93
410.45	3087.17
410.64	2995.89
410.83	3077.80
411.02	3089.51
411.21	3155.04
411.40	3164.40
411.59	3265.05
411.78	3222.92
411.98	3180.79
412.17	3253.34
412.36	3215.90
412.55	3222.92
412.74	3461.65
412.93	3321.22
413.12	3428.88
413.31	3672.30
413.50	3365.69
413.69	3335.26
413.88	3611.45
414.07	3499.10
414.26	3686.34
414.45	3698.05
414.64	3695.71
414.83	3730.81
415.02	3749.54
415.22	3831.46
415.41	3782.31
415.60	3936.78
415.79	3899.33
415.98	4011.68
416.17	4053.81
416.36	3948.48
416.55	4030.40
416.74	4079.55
416.93	4180.20
417.12	4234.03
417.31	4250.41
417.50	4156.79
417.69	4152.11
417.88	4278.50
418.07	4248.07
418.26	4372.12
418.45	4325.31
418.64	4519.57
418.83	4362.76
419.02	4329.99
419.21	4456.38
419.39	4582.77
419.58	4585.11
419.77	4514.89
419.96	4596.81
420.15	4636.60
420.34	4734.90
420.53	4575.75
420.72	4814.48
420.91	4842.57
421.10	4755.97
421.29	4889.38
421.48	4631.92
421.67	4828.53
421.86	4732.56
422.05	4840.23
422.24	4779.37
422.43	4851.93
422.61	5006.41
422.80	4957.25
422.99	4903.42
423.18	5097.69
423.37	5167.90
423.56	4868.31
423.75	4908.10
423.94	4812.14
424.13	4514.89
424.32	4966.62
424.50	4898.74
424.69	5015.77
424.88	5036.83
425.07	5011.09
425.26	4922.15
425.45	5022.79
425.64	5085.98
425.83	5046.20
426.01	5233.44
426.20	5104.71
426.39	5116.41
426.58	4952.57
426.77	5214.71
426.96	5212.37
427.15	5125.77
427.33	5188.97
427.52	5210.03
427.71	5289.61
427.90	5284.93
428.09	5352.81
428.28	5479.19
428.46	5383.23
428.65	5355.15
428.84	5554.09
429.03	5565.79
429.22	5502.60
429.40	5540.05
429.59	5675.80
429.78	5446.43
429.97	5294.29
430.16	5413.66
430.34	5582.18
430.53	5734.31
430.72	5685.16
430.91	5614.95
431.10	5701.54
431.28	5769.42
431.47	5905.17
431.66	5944.96
431.85	5788.14
432.03	6108.80
432.22	6097.10
432.41	6036.24
432.60	5996.45
432.79	5881.77
432.97	6150.93
433.16	6122.84
433.35	6045.60
433.54	6108.80
433.72	6188.38
433.91	6303.06
434.10	6148.59
434.28	6160.29
434.47	6333.49
434.66	6167.31
434.85	6399.02
435.03	6314.77
435.22	6349.87
435.41	6455.20
435.59	6546.48
435.78	6513.71
435.97	6452.86
436.16	6626.06
436.34	6415.41
436.53	6403.71
436.72	6733.72
436.90	6490.31
437.09	6729.04
437.28	6593.29
437.46	6736.06
437.65	6626.06
437.84	6806.28
438.02	6780.53
438.21	6834.36
438.40	6857.77
438.58	7073.10
438.77	7089.48
438.96	6984.16
439.14	7054.37
439.33	7218.21
439.52	7112.89
439.70	7431.20
439.89	7342.26
440.08	7400.77
440.26	7482.69
440.45	7538.87
440.63	7417.16
440.82	7569.29
441.01	7648.87
441.19	7606.74
441.38	7747.17
441.57	7728.45
441.75	7714.41
441.94	7999.95
442.12	7756.54
442.31	8210.60
442.50	8269.11
442.68	8009.31
442.87	8226.98
443.05	8245.71
443.24	8318.26
443.43	8191.88
443.61	8154.43
443.80	8592.11
443.98	8006.97
444.17	8063.15
444.35	8271.45
444.54	8533.59
444.73	8482.10
444.91	8161.45
445.10	8603.81
445.28	8444.65
445.47	8201.24
445.65	8133.36
445.84	8416.57
446.02	8589.77
446.21	8482.10
446.39	8390.82
446.58	8549.98
446.77	8500.83
446.95	8411.89
447.14	8489.12
447.32	8713.81
447.51	8678.71
447.69	8596.79
447.88	8519.55
448.06	8814.46
448.25	8652.96
448.43	8786.37
448.62	8549.98
448.80	8336.99
448.99	8634.24
449.17	8617.85
449.36	8674.03
449.54	8723.18
449.73	9060.21
449.91	9050.85
450.10	9240.44
450.28	9128.09
450.46	9195.96
450.65	9202.99
450.83	9088.30
451.02	9071.92
451.20	9385.55
451.39	9109.36
451.57	9235.75
451.76	9177.24
451.94	9053.19
452.13	9355.12
452.31	9495.55
452.49	9202.99
452.68	9509.60
452.86	9465.13
453.05	9497.89
453.23	9493.21
453.42	9259.16
453.60	9593.86
453.78	9561.09
453.97	9364.48
454.15	9481.51
454.34	9554.07
454.52	9654.71
454.70	9776.42
454.89	9790.46
455.07	9771.74
455.26	10019.83
455.44	10024.51
455.62	10108.77
455.81	10076.01
455.99	10003.45
456.17	10036.22
456.36	9970.68
456.54	10256.23
456.73	10296.02
456.91	10436.45
457.09	10523.05
457.28	10513.69
457.46	10417.72
457.64	10581.56
457.83	10771.15
458.01	10616.67
458.19	10661.14
458.38	10710.29
458.56	10707.95
458.74	10717.31
458.93	10738.38
459.11	10934.98
459.29	10932.64
459.48	11049.67
459.66	10813.28
459.84	10986.47
460.03	11248.61
460.21	11143.29
460.39	11056.69
460.57	11070.73
460.76	11335.21
460.94	11243.93
461.12	11176.06
461.31	11360.96
461.49	11166.70
461.67	11040.31
461.85	11838.43
462.04	11353.94
462.22	11686.29
462.40	11786.94
462.59	11470.97
462.77	11829.07
462.95	11662.89
463.13	11906.31
463.32	11892.26
463.50	12053.76
463.68	11651.19
463.86	12154.40
464.05	11819.71
464.23	11833.75
464.41	12025.67
464.59	11709.70
464.78	12264.41
464.96	12020.99
465.14	12093.55
465.32	12074.82
465.50	12035.03
465.69	12428.24
465.87	12067.80
466.05	12311.22
466.23	12142.70
466.41	12510.16
466.60	12575.70
466.78	12266.75
466.96	12196.53
467.14	12262.07
467.32	12695.07
467.51	12676.34
467.69	12030.35
467.87	12243.34
468.05	12776.98
468.23	12617.83
468.41	12535.91
468.60	12608.47
468.78	12844.86
468.96	12617.83
469.14	12786.35
469.32	13013.38
469.50	12795.71
469.69	13015.72
469.87	13221.69
470.05	12980.61
470.23	13104.66
470.41	13247.43
470.59	13385.52
470.77	13060.19
470.95	13301.26
471.14	13404.25
471.32	13144.45
471.50	13734.26
471.68	13479.15
471.86	13685.11
472.04	13767.03
472.22	14101.73
472.40	13764.69
472.58	13720.22
472.77	14310.04
472.95	13973.00
473.13	14558.13
473.31	14326.42
473.49	14422.38
473.67	14204.71
473.85	14618.99
474.03	14721.97
474.21	14895.17
474.39	14689.20
474.57	14736.01
474.75	15098.80
474.93	15176.03
475.12	15000.49
475.30	15332.85
475.48	15253.27
475.66	15398.38
475.84	15157.31
476.02	15510.73
476.20	15658.18
476.38	15925.00
476.56	16240.98
476.74	16102.89
476.92	16142.67
477.10	15908.62
477.28	16255.02
477.46	16210.55
477.64	16599.08
477.82	16718.45
478.00	17090.59
478.18	16816.75
478.36	16952.50
478.54	16994.63
478.72	17413.59
478.90	17626.57
479.08	17900.42
479.26	17666.36
479.44	17722.54
479.62	17987.02
479.80	18256.18
479.98	18223.41
480.16	18661.09
480.34	18410.65
480.52	18885.78
480.70	18583.85
480.88	18532.36
481.06	18785.14
481.24	18913.87
481.41	19288.35
481.59	19611.35
481.77	19644.12
481.95	19529.43
482.13	19789.23
482.31	19646.46
482.49	20432.88
482.67	20507.77
482.85	20386.07
483.03	20788.64
483.21	20741.83
483.39	21357.39
483.57	20805.02
483.74	21312.92
483.92	21397.18
484.10	21502.50
484.28	21607.83
484.46	22239.77
484.64	22593.19
484.82	22185.94
485.00	22586.17
485.18	22799.16
485.35	23183.01
485.53	23000.44
485.71	23178.33
485.89	23367.91
486.07	23454.51
486.25	23679.20
486.43	23768.14
486.61	24004.53
486.78	24049.00
486.96	24238.59
487.14	24734.78
487.32	24823.72
487.50	24936.07
487.68	25017.99
487.85	25638.23
488.03	25703.76
488.21	25722.49
488.39	26139.10
488.57	25984.63
488.75	26286.56
488.92	26663.38
489.10	27047.23
489.28	26862.33
489.46	27229.79
489.64	27503.64
489.81	28084.09
489.99	28058.34
490.17	27527.04
490.35	27955.36
490.53	28273.67
490.70	28388.36
490.88	28437.51
491.06	29277.76
491.24	29191.16
491.41	29149.03
491.59	29387.77
491.77	29551.60
491.95	29895.66
492.13	30267.81
492.30	30637.61
492.48	29895.66
492.66	30572.08
492.84	30677.40
493.01	31129.12
493.19	30651.66
493.37	31421.69
493.54	31201.68
493.72	31686.17
493.90	31662.77
494.08	31964.70
494.25	32168.32
494.43	32203.43
494.61	32388.33
494.79	32465.57
494.96	32652.81
495.14	32921.98
495.32	33132.62
495.49	33467.32
495.67	33397.10
495.85	33780.95
496.02	34183.52
496.20	34455.03
496.38	34150.76
496.55	34281.83
496.73	35316.34
496.91	34754.61
497.09	34789.72
497.26	35227.40
497.44	35222.72
497.62	35306.98
497.79	35962.33
497.97	35367.84
498.14	36268.94
498.32	36538.10
498.50	36535.76
498.67	36966.42
498.85	36519.38
499.03	36943.02
499.20	36804.92
499.38	37188.77
499.56	37586.66
499.73	37371.33
499.91	37467.30
500.08	37764.54
500.26	37537.51
500.44	38305.21
500.61	37696.67
500.79	37855.82
500.97	38623.52
501.14	38962.90
501.32	39063.54
501.49	38904.38
501.67	38761.61
501.84	39316.32
502.02	39161.84
502.20	39592.50
502.37	39728.25
502.55	39693.15
502.72	39660.38
502.90	39826.56
503.07	39416.96
503.25	39981.03
503.43	40072.31
503.60	40079.33
503.78	40147.21
503.95	40449.14
504.13	40472.54
504.30	41020.23
504.48	40978.10
504.65	40889.16
504.83	41228.54
505.01	41841.76
505.18	41383.01
505.36	41911.97
505.53	41577.28
505.71	41876.86
505.88	42361.36
506.06	41605.36
506.23	42216.24
506.41	42085.17
506.58	42412.85
506.76	42366.04
506.93	42621.16
507.11	42693.71
507.28	42593.07
507.46	42981.60
507.63	43173.52
507.81	43658.01
507.98	43262.46
508.16	43189.91
508.33	43938.88
508.50	44179.95
508.68	44067.61
508.85	44395.28
509.03	43922.49
509.20	44252.51
509.38	44594.23
509.55	44694.87
509.73	45209.79
509.90	44870.41
510.08	44577.84
510.25	44612.95
510.42	45160.64
510.60	45738.75
510.77	45961.10
510.95	45549.17
511.12	45387.67
511.30	45298.73
511.47	45954.08
511.64	45469.59
511.82	46305.16
511.99	46087.49
512.17	46007.91
512.34	45949.40
512.51	46892.63
512.69	46724.11
512.86	46366.01
513.04	47012.00
513.21	47040.09
513.38	46728.80
513.56	47004.98
513.73	47337.33
513.90	47297.55
514.08	47334.99
514.25	47339.68
514.43	47208.61
514.60	47831.19
514.77	47728.20
514.95	47779.70
515.12	47618.20
515.29	47875.66
515.47	48254.82
515.64	48397.60
515.81	48163.54
515.99	48486.54
516.16	48821.23
516.33	48631.65
516.51	48875.07
516.68	48666.76
516.85	48966.35
517.03	49368.92
517.20	48924.22
517.37	48975.71
517.54	49020.18
517.72	49804.26
517.89	49507.01
518.06	49680.21
518.24	49612.34
518.41	49244.87
518.58	49869.79
518.75	49876.82
518.93	49687.23
519.10	49647.44
519.27	49925.97
519.45	49787.88
519.62	50110.87
519.79	50227.90
519.96	50188.11
520.14	50314.50
520.31	50160.02
520.48	50693.66
520.65	50604.72
520.83	50993.25
521.00	50852.82
521.17	50789.62
521.34	51026.02
521.52	51033.04
521.69	51026.02
521.86	51203.90
522.03	51262.41
522.20	51672.01
522.38	51959.89
522.55	51735.20
522.72	51880.31
522.89	51557.32
523.07	52130.75
523.24	51730.52
523.41	51856.91
523.58	51826.48
523.75	52252.46
523.92	51753.93
524.10	52217.35
524.27	52374.17
524.44	52320.34
524.61	52121.39
524.78	52545.03
524.96	52371.83
525.13	52495.88
525.30	52526.30
525.47	52612.90
525.64	52720.57
525.81	52659.71
525.98	52931.22
526.16	52978.03
526.33	52844.62
526.50	53340.81
526.67	52882.06
526.84	53399.32
527.01	53375.92
527.18	53312.72
527.36	53172.29
527.53	53216.76
527.70	53757.42
527.87	53614.65
528.04	53418.05
528.21	53509.33
528.38	53380.60
528.55	53663.80
528.72	53553.80
528.89	53818.28
529.07	53602.95
529.24	53923.60
529.41	54073.40
529.58	53827.64
529.75	53942.33
529.92	54167.02
530.09	53897.86
530.26	54092.12
530.43	53932.96
530.60	53954.03
530.77	53860.41
530.94	54412.77
531.11	54120.21
531.28	54253.62
531.46	54300.43
531.63	54293.41
531.80	54302.77
531.97	54515.76
532.14	54913.65
532.31	54752.15
532.48	54735.77
532.65	54798.96
532.82	54798.96
532.99	54920.67
533.16	54848.11
533.33	55056.42
533.50	54953.44
533.67	55089.19
533.84	54988.55
534.01	55161.75
534.18	54894.92
534.35	55412.18
534.52	55187.49
534.69	55643.90
534.86	55569.00
535.03	55327.92
535.20	55421.55
535.37	55522.19
535.54	55891.99
535.71	55519.85
535.88	55753.90
536.05	55524.53
536.22	55669.64
536.38	55821.78
536.55	55683.69
536.72	55899.01
536.89	55627.51
537.06	55774.97
537.23	55927.10
537.40	55793.69
537.57	55945.83
537.74	56072.21
537.91	56097.96
538.08	56053.49
538.25	55746.88
538.42	56168.18
538.59	56170.52
538.75	55973.91
538.92	56343.72
539.09	56662.03
539.26	56343.72
539.43	56128.39
539.60	56320.31
539.77	56392.87
539.94	56605.86
540.11	56442.02
540.28	56645.65
540.44	56704.16
540.61	56575.43
540.78	56662.03
540.95	56626.92
541.12	56559.05
541.29	56718.20
541.46	56697.14
541.62	56921.83
541.79	56704.16
541.96	56554.36
542.13	56786.08
542.30	56912.47
542.47	56956.94
542.63	57120.77
542.80	57102.05
542.97	57256.53
543.14	57432.07
543.31	57425.04
543.48	57638.03
543.64	57649.74
543.81	57539.73
543.98	57357.17
544.15	57352.49
544.32	57818.25
544.48	57925.92
544.65	57434.41
544.82	57755.06
544.99	57551.43
545.16	57542.07
545.32	57621.65
545.49	57869.75
545.66	58026.56
545.83	57944.64
546.00	57993.79
546.16	57895.49
546.33	57865.06
546.50	57827.62
546.67	58000.82
546.83	57621.65
547.00	57762.08
547.17	58056.99
547.34	57808.89
547.50	58185.72
547.67	58368.28
547.84	58099.12
548.00	58354.24
548.17	58482.97
548.34	58164.65
548.51	58398.71
548.67	58405.73
548.84	58408.07
549.01	58068.69
549.18	58375.30
549.34	58277.00
549.51	58447.86
549.68	58562.54
549.84	58466.58
550.01	58691.27
550.18	58464.24
550.34	58501.69
550.51	58717.02
550.68	58698.30
550.84	58578.93
551.01	58934.69
551.18	58700.64
551.34	58822.34
551.51	58745.11
551.68	58773.19
551.84	58775.53
552.01	58707.66
552.18	58871.49
552.34	58714.68
552.51	59007.25
552.68	58752.13
552.84	58995.54
553.01	59145.34
553.18	58922.99
553.34	58979.16
553.51	58850.43
553.67	58941.71
553.84	59180.45
554.01	59002.56
554.17	59194.49
554.34	59168.74
554.51	59131.29
554.67	59217.89
554.84	59042.35
555.00	59131.29
555.17	59196.83
555.33	59395.77
555.50	59079.80
555.67	59145.34
555.83	59009.59
556.00	59323.22
556.16	59540.89
556.33	59524.50
556.50	59384.07
556.66	59756.22
556.83	59234.28
556.99	59592.38
557.16	59653.23
557.32	59613.44
557.49	59987.93
557.65	59667.28
557.82	59552.59
557.98	59641.53
558.15	59543.23
558.32	59760.90
558.48	59578.34
558.65	59667.28
558.81	59533.87
558.98	59774.94
559.14	59730.47
559.31	59889.63
559.47	59812.39
559.64	59901.33
559.80	59725.79
559.97	59840.48
560.13	59632.17
560.30	59915.37
560.46	59920.05
560.63	59894.31
560.79	60037.08
560.96	59978.57
561.12	60095.60
561.29	60156.45
561.45	60025.38
561.61	59959.84
561.78	60165.81
561.94	60023.04
562.11	60154.11
562.27	60135.38
562.44	60142.41
562.60	60355.39
562.77	60236.03
562.93	60001.97
563.10	60142.41
563.26	60037.08
563.42	60243.05
563.59	60053.47
563.75	60193.90
563.92	60114.32
564.08	60095.60
564.24	60214.96
564.41	60287.52
564.57	60261.77
564.74	60116.66
564.90	60184.54
565.07	60329.65
565.23	60198.58
565.39	60392.84
565.56	60516.89
565.72	60205.60
565.88	60327.31
566.05	60090.91
566.21	60385.82
566.38	60362.42
566.54	60411.57
566.70	60439.65
566.87	60502.85
567.03	60390.50
567.19	60659.66
567.36	60339.01
567.52	60495.83
567.68	60612.85
567.85	60580.09
568.01	60729.88
568.17	60580.09
568.34	60563.70
568.50	60580.09
568.66	60495.83
568.83	60636.26
568.99	60348.37
569.15	60694.77
569.32	60477.10
569.48	60528.59
569.64	60573.06
569.81	60413.91
569.97	60617.53
570.13	60711.16
570.30	60336.67
570.46	60631.58
570.62	60734.56
570.78	60741.58
570.95	60748.60
571.11	61066.92
571.27	60544.98
571.43	60779.03
571.60	60952.23
571.76	60816.48
571.92	60676.05
572.09	60914.78
572.25	60804.78
572.41	60570.72
572.57	60741.58
572.74	60919.46
572.90	60886.70
573.06	60879.67
573.22	60924.14
573.38	60811.80
573.55	60809.46
573.71	61038.83
573.87	60860.95
574.03	60713.50
574.20	60811.80
574.36	60849.25
574.52	60856.27
574.68	61015.43
574.84	60783.71
575.01	60856.27
575.17	61085.64
575.33	60956.91
575.49	60804.78
575.65	61001.38
575.82	60844.57
575.98	60992.02
576.14	61197.99
576.30	61106.71
576.46	60926.49
576.62	60823.50
576.79	60832.86
576.95	61066.92
577.11	61085.64
577.27	61181.60
577.43	60786.05
577.59	60952.23
577.75	61113.73
577.92	60797.76
578.08	61073.94
578.24	60907.76
578.40	61160.54
578.56	60987.34
578.72	60898.40
578.88	61052.87
579.04	61235.44
579.21	61066.92
579.37	61338.42
579.53	61336.08
579.69	60821.16
579.85	60970.96
580.01	61242.46
580.17	61050.53
580.33	61162.88
580.49	61151.18
580.65	60977.98
580.82	60968.61
580.98	61050.53
581.14	61085.64
581.30	61137.13
581.46	61141.81
581.62	61010.74
581.78	61078.62
581.94	61116.07
582.10	61162.88
582.26	61111.39
582.42	60959.25
582.58	61219.05
582.74	61015.43
582.90	61050.53
583.06	61059.90
583.22	61141.81
583.38	61258.84
583.54	61322.04
583.70	61326.72
583.86	61319.70
584.02	61064.58
584.18	61303.31
584.34	61106.71
584.50	61158.20
584.66	61050.53
584.82	61008.40
584.98	61116.07
585.14	61251.82
585.30	60860.95
585.46	61162.88
585.62	61289.27
585.78	61336.08
585.94	61006.06
586.10	61102.03
586.26	61151.18
586.42	61331.40
586.58	61319.70
586.74	61212.03
586.90	61106.71
587.06	61244.80
587.22	61322.04
587.38	61249.48
587.54	61265.86
587.70	61506.94
587.86	61228.41
588.02	61251.82
588.18	61378.21
588.34	61457.79
588.49	61197.99
