SpectraSuite Data File
++++++++++++++++++++++++++++++++++++
Date: Fri Oct 25 11:25:26 EDT 2013
User: price-jones
Dark Spectrum Present: No
Reference Spectrum Present: No
Number of Sampled Component Spectra: 1
Spectrometers: USB2+H05261
Integration Time (usec): 100000 (USB2+H05261)
Spectra Averaged: 1 (USB2+H05261)
Boxcar Smoothing: 0 (USB2+H05261)
Correct for Electrical Dark: No (USB2+H05261)
Strobe/Lamp Enabled: No (USB2+H05261)
Correct for Detector Non-linearity: No (USB2+H05261)
Correct for Stray Light: No (USB2+H05261)
Number of Pixels in Processed Spectrum: 2048
>>>>>Begin Processed Spectral Data<<<<<
365.73	227.03
365.92	227.03
366.12	227.03
366.32	159.16
366.52	70.22
366.72	154.48
366.91	74.90
367.11	149.79
367.31	159.16
367.51	180.22
367.70	79.58
367.90	100.64
368.10	126.39
368.30	168.52
368.49	149.79
368.69	210.65
368.89	177.88
369.09	145.11
369.28	168.52
369.48	231.71
369.68	243.42
369.87	215.33
370.07	156.82
370.27	250.44
370.47	348.74
370.66	552.37
370.86	709.18
371.06	617.90
371.25	653.01
371.45	620.24
371.65	669.39
371.84	692.80
372.04	681.10
372.24	695.14
372.44	741.95
372.63	765.36
372.83	648.33
373.03	706.84
373.22	763.01
373.42	725.57
373.62	770.04
373.81	770.04
374.01	807.48
374.21	723.23
374.40	737.27
374.60	767.70
374.79	821.53
374.99	856.64
375.19	767.70
375.38	814.51
375.58	866.00
375.78	901.11
375.97	851.96
376.17	891.74
376.37	828.55
376.56	833.23
376.76	894.08
376.95	830.89
377.15	858.98
377.35	868.34
377.54	830.89
377.74	882.38
377.93	950.26
378.13	999.41
378.33	952.60
378.52	961.96
378.72	910.47
378.91	987.71
379.11	1008.77
379.31	976.00
379.50	924.51
379.70	966.64
379.89	940.90
380.09	952.60
380.28	945.58
380.48	959.62
380.68	938.55
380.87	987.71
381.07	1069.62
381.26	1086.01
381.46	936.21
381.65	1006.43
381.85	1123.46
382.04	1130.48
382.24	1053.24
382.43	1060.26
382.63	952.60
382.83	999.41
383.02	1104.73
383.22	1158.57
383.41	1121.12
383.61	1116.44
383.80	1102.39
384.00	1111.75
384.19	1128.14
384.39	1043.88
384.58	1132.82
384.78	1083.67
384.97	1100.05
385.17	1165.59
385.36	1210.06
385.56	1137.50
385.75	1149.20
385.95	1235.80
386.14	1259.21
386.34	1254.53
386.53	1233.46
386.72	1156.22
386.92	1277.93
387.11	1277.93
387.31	1254.53
387.50	1214.74
387.70	1228.78
387.89	1268.57
388.09	1310.70
388.28	1259.21
388.48	1172.61
388.67	1378.58
388.86	1303.68
389.06	1324.74
389.25	1416.02
389.45	1329.42
389.64	1371.55
389.84	1352.83
390.03	1378.58
390.22	1362.19
390.42	1397.30
390.61	1401.98
390.81	1446.45
391.00	1397.30
391.19	1479.22
391.39	1434.75
391.58	1444.11
391.78	1446.45
391.97	1437.09
392.16	1511.99
392.36	1502.62
392.55	1420.71
392.75	1439.43
392.94	1502.62
393.13	1521.35
393.33	1540.07
393.52	1607.95
393.71	1570.50
393.91	1547.09
394.10	1640.72
394.29	1549.43
394.49	1600.93
394.68	1619.65
394.88	1600.93
395.07	1668.80
395.26	1762.42
395.46	1558.80
395.65	1617.31
395.84	1617.31
396.04	1769.44
396.23	1764.76
396.42	1710.93
396.62	1834.98
396.81	1764.76
397.00	1757.74
397.19	1732.00
397.39	1696.89
397.58	1858.39
397.77	1753.06
397.97	1888.81
398.16	1834.98
398.35	2017.54
398.55	1832.64
398.74	1851.36
398.93	1853.70
399.12	1977.75
399.32	1952.01
399.51	1863.07
399.70	1989.46
399.90	1998.82
400.09	2106.48
400.28	1959.03
400.47	1968.39
400.67	2064.35
400.86	2057.33
401.05	1933.28
401.24	2106.48
401.44	2043.29
401.63	2031.58
401.82	2127.55
402.01	2071.37
402.21	2214.15
402.40	2200.10
402.59	2167.34
402.78	2223.51
402.97	2214.15
403.17	2052.65
403.36	2265.64
403.55	2193.08
403.74	2319.47
403.93	2284.36
404.13	2375.64
404.32	2349.90
404.51	2342.88
404.70	2434.16
404.89	2455.22
405.09	2450.54
405.28	2429.48
405.47	2523.10
405.66	2516.08
405.85	2471.61
406.05	2562.89
406.24	2518.42
406.43	2567.57
406.62	2663.53
406.81	2590.97
407.00	2600.34
407.20	2546.50
407.39	2579.27
407.58	2712.68
407.77	2698.64
407.96	2757.15
408.15	2752.47
408.34	2775.88
408.54	2733.75
408.73	2813.32
408.92	2761.83
409.11	2832.05
409.30	2981.84
409.49	2984.18
409.68	2818.00
409.87	2911.63
410.07	2899.92
410.26	3002.91
410.45	2939.71
410.64	2836.73
410.83	2946.73
411.02	3180.79
411.21	2972.48
411.40	3049.72
411.59	3199.51
411.78	3080.14
411.98	3145.68
412.17	3265.05
412.36	3274.41
412.55	3290.79
412.74	3328.24
412.93	3368.03
413.12	3234.62
413.31	3300.16
413.50	3309.52
413.69	3499.10
413.88	3625.49
414.07	3513.14
414.26	3646.55
414.45	3588.04
414.64	3627.83
414.83	3733.15
415.02	3702.73
415.22	3749.54
415.41	3857.20
415.60	3784.65
415.79	3742.52
415.98	3964.87
416.17	4091.26
416.36	3927.42
416.55	4018.70
416.74	4007.00
416.93	3990.61
417.12	4014.02
417.31	4145.09
417.50	4095.94
417.69	4152.11
417.88	4229.35
418.07	4140.41
418.26	4255.09
418.45	4339.35
418.64	4383.82
418.83	4273.82
419.02	4493.83
419.21	4358.08
419.39	4407.23
419.58	4440.00
419.77	4589.79
419.96	4461.06
420.15	4575.75
420.34	4557.02
420.53	4447.02
420.72	4655.33
420.91	4568.73
421.10	4634.26
421.29	4690.43
421.48	4486.81
421.67	4753.63
421.86	4774.69
422.05	4777.03
422.24	4702.14
422.43	4844.91
422.61	4915.12
422.80	4828.53
422.99	4896.40
423.18	4865.97
423.37	5018.11
423.56	4858.95
423.75	4926.83
423.94	4912.78
424.13	4491.49
424.32	4765.33
424.50	5008.75
424.69	4978.32
424.88	4966.62
425.07	4734.90
425.26	4929.17
425.45	4947.89
425.64	5076.62
425.83	5048.54
426.01	5186.63
426.20	4912.78
426.39	4933.85
426.58	5090.67
426.77	4964.28
426.96	5144.50
427.15	5125.77
427.33	5116.41
427.52	5118.75
427.71	5114.07
427.90	5107.05
428.09	5224.08
428.28	5308.34
428.46	5359.83
428.65	5282.59
428.84	5547.07
429.03	5577.50
429.22	5345.78
429.40	5357.49
429.59	5408.98
429.78	5266.21
429.97	5268.55
430.16	5488.56
430.34	5621.97
430.53	5479.19
430.72	5472.17
430.91	5530.69
431.10	5675.80
431.28	5593.88
431.47	5731.97
431.66	5788.14
431.85	5696.86
432.03	5954.32
432.22	5792.83
432.41	5818.57
432.60	5884.11
432.79	5944.96
432.97	5874.74
433.16	5804.53
433.35	5951.98
433.54	5944.96
433.72	5884.11
433.91	6097.10
434.10	6214.12
434.28	6148.59
434.47	6066.67
434.66	6225.82
434.85	6186.04
435.03	6132.20
435.22	6211.78
435.41	6597.97
435.59	6408.39
435.78	6317.11
435.97	6413.07
436.16	6380.30
436.34	6181.35
436.53	6560.52
436.72	6544.14
436.90	6399.02
437.09	6548.82
437.28	6551.16
437.46	6583.93
437.65	6455.20
437.84	6740.74
438.02	6707.98
438.21	6825.00
438.40	6558.18
438.58	6869.47
438.77	6991.18
438.96	6897.56
439.14	7108.21
439.33	6946.71
439.52	7145.66
439.70	7157.36
439.89	7276.73
440.08	7253.32
440.26	7222.89
440.45	7290.77
440.63	7342.26
440.82	7550.57
441.01	7440.56
441.19	7496.74
441.38	7920.37
441.57	7714.41
441.75	7585.68
441.94	7885.26
442.12	7899.31
442.31	8121.66
442.50	8086.55
442.68	7978.89
442.87	8030.38
443.05	8091.23
443.24	8259.75
443.43	7981.23
443.61	8077.19
443.80	8285.50
443.98	7932.08
444.17	7936.76
444.35	8304.22
444.54	8212.94
444.73	8215.28
444.91	8070.17
445.10	8262.09
445.28	8283.16
445.47	8308.90
445.65	8292.52
445.84	8397.84
446.02	8346.35
446.21	8276.13
446.39	8393.16
446.58	8329.97
446.77	8362.73
446.95	8175.49
447.14	8489.12
447.32	8428.27
447.51	8266.77
447.69	8318.26
447.88	8376.78
448.06	8404.86
448.25	8533.59
448.43	8470.40
448.62	8365.07
448.80	8290.18
448.99	8627.21
449.17	8549.98
449.36	8667.00
449.54	8678.71
449.73	8879.99
449.91	8697.43
450.10	8760.63
450.28	9006.38
450.46	8908.08
450.65	8978.30
450.83	8901.06
451.02	8908.08
451.20	9090.64
451.39	9191.28
451.57	8971.27
451.76	9020.42
451.94	9144.47
452.13	9123.41
452.31	9172.56
452.49	9149.15
452.68	9254.48
452.86	9301.29
453.05	9235.75
453.23	9423.00
453.42	9231.07
453.60	9362.14
453.78	9270.86
453.97	9387.89
454.15	9301.29
454.34	9462.79
454.52	9544.70
454.70	9575.13
454.89	9626.62
455.07	9745.99
455.26	9741.31
455.44	9795.14
455.62	9724.93
455.81	9851.31
455.99	9958.98
456.17	9989.41
456.36	10054.94
456.54	10026.86
456.73	10284.31
456.91	10146.22
457.09	10120.48
457.28	10279.63
457.46	10296.02
457.64	10410.70
457.83	10281.97
458.01	10434.11
458.19	10377.94
458.38	10548.79
458.56	10633.05
458.74	10623.69
458.93	10677.52
459.11	10740.72
459.29	10689.23
459.48	10724.33
459.66	10712.63
459.84	10729.02
460.03	10909.24
460.21	10934.98
460.39	10806.25
460.57	10794.55
460.76	11133.93
460.94	11068.39
461.12	11377.34
461.31	11056.69
461.49	11122.23
461.67	10846.04
461.85	11316.49
462.04	11159.67
462.22	11819.71
462.40	11557.57
462.59	11414.79
462.77	11281.38
462.95	11456.92
463.13	11314.15
463.32	11508.41
463.50	11864.18
463.68	11662.89
463.86	11538.84
464.05	11536.50
464.23	11538.84
464.41	11936.73
464.59	11485.01
464.78	12002.27
464.96	11899.28
465.14	11840.77
465.32	11880.56
465.50	12035.03
465.69	12367.39
465.87	11871.20
466.05	12030.35
466.23	12006.95
466.41	12131.00
466.60	12236.32
466.78	12039.72
466.96	12175.47
467.14	12339.30
467.32	12236.32
467.51	12510.16
467.69	12180.15
467.87	12365.05
468.05	12610.81
468.23	12226.96
468.41	12250.36
468.60	12395.48
468.78	12283.13
468.96	12624.85
469.14	12826.14
469.32	12950.18
469.50	12500.80
469.69	12645.91
469.87	12968.91
470.05	13041.46
470.23	13146.79
470.41	13046.15
470.59	13266.16
470.77	13039.12
470.95	12894.01
471.14	13467.44
471.32	13064.87
471.50	13287.22
471.68	13490.85
471.86	13687.45
472.04	13500.21
472.22	13673.41
472.40	13453.40
472.58	13504.89
472.77	13760.01
472.95	13956.61
473.13	14370.89
473.31	13963.64
473.49	14010.45
473.67	13912.14
473.85	14204.71
474.03	14478.55
474.21	14586.22
474.39	14427.06
474.57	14494.94
474.75	14881.13
474.93	14885.81
475.12	14736.01
475.30	15122.20
475.48	15014.54
475.66	15213.48
475.84	15154.97
476.02	15073.05
476.20	15379.66
476.38	15431.15
476.56	15793.94
476.74	15782.23
476.92	15627.76
477.10	15623.08
477.28	15805.64
477.46	16056.08
477.64	16320.56
477.82	16655.25
478.00	16791.00
478.18	16475.03
478.36	16917.39
478.54	16840.15
478.72	16908.03
478.90	17373.80
479.08	17352.73
479.26	17729.56
479.44	17795.09
479.62	17888.71
479.80	17893.40
479.98	17855.95
480.16	18464.49
480.34	18003.40
480.52	18349.80
480.70	18270.22
480.88	18162.56
481.06	18604.92
481.24	18593.22
481.41	18913.87
481.59	18930.25
481.77	19267.29
481.95	19501.34
482.13	19660.50
482.31	19499.00
482.49	20100.52
482.67	20205.84
482.85	20269.04
483.03	20400.11
483.21	20460.96
483.39	20575.65
483.57	20659.91
483.74	20908.01
483.92	21006.31
484.10	21003.97
484.28	21434.63
484.46	21912.10
484.64	22001.04
484.82	21757.62
485.00	22288.92
485.18	22665.75
485.35	22759.37
485.53	22546.38
485.71	22953.63
485.89	23524.72
486.07	23101.09
486.25	23168.96
486.43	23585.58
486.61	23838.36
486.78	23857.08
486.96	23974.11
487.14	24566.26
487.32	24254.97
487.50	24816.70
487.68	24702.01
487.85	25067.14
488.03	25317.57
488.21	25542.27
488.39	25373.75
488.57	25614.82
488.75	25553.97
488.92	26057.18
489.10	26340.39
489.28	26506.57
489.46	26958.29
489.64	26785.09
489.81	27395.97
489.99	27220.43
490.17	27749.39
490.35	28116.86
490.53	27702.58
490.70	28339.21
490.88	27864.08
491.06	28446.87
491.24	28594.32
491.41	28748.80
491.59	29153.71
491.77	29352.66
491.95	29090.52
492.13	29511.81
492.30	29975.24
492.48	29769.27
492.66	29972.90
492.84	30134.40
493.01	30506.54
493.19	30632.93
493.37	30646.97
493.54	30768.68
493.72	31344.45
493.90	31171.25
494.08	31557.44
494.25	31660.43
494.43	31459.14
494.61	31936.61
494.79	32261.94
494.96	32322.80
495.14	32294.71
495.32	32776.86
495.49	32767.50
495.67	32641.11
495.85	33228.59
496.02	33572.64
496.20	33888.62
496.38	33497.75
496.55	33645.20
496.73	34789.72
496.91	33986.92
497.09	34541.63
497.26	34539.29
497.44	34522.90
497.62	34920.79
497.79	35419.33
497.97	35173.57
498.14	35536.35
498.32	35665.08
498.50	35828.92
498.67	36205.75
498.85	36044.25
499.03	36243.20
499.20	36226.81
499.38	36390.65
499.56	36811.95
499.73	36601.30
499.91	36797.90
500.08	37144.30
500.26	37177.07
500.44	37177.07
500.61	37532.83
500.79	37223.88
500.97	37593.68
501.14	38733.53
501.32	37928.38
501.49	38270.10
501.67	38106.26
501.84	38483.09
502.02	38696.08
502.20	39051.84
502.37	39077.58
502.55	38728.84
502.72	38939.49
502.90	39100.99
503.07	39288.23
503.25	39000.35
503.43	39494.20
503.60	39868.69
503.78	40168.27
503.95	39835.92
504.13	40196.36
504.30	40584.89
504.48	40285.30
504.65	40453.82
504.83	40547.44
505.01	40673.83
505.18	41015.55
505.36	41165.34
505.53	41111.51
505.71	41202.79
505.88	41504.72
506.06	41141.94
506.23	41663.88
506.41	41542.17
506.58	41916.65
506.76	41713.03
506.93	41626.43
507.11	42216.24
507.28	42401.14
507.46	42307.52
507.63	42199.86
507.81	42920.74
507.98	42813.08
508.16	43037.77
508.33	42967.55
508.50	43185.22
508.68	43178.20
508.85	43374.81
509.03	43126.71
509.20	43641.63
509.38	44065.27
509.55	43854.62
509.73	44194.00
509.90	44189.31
510.08	44292.30
510.25	44491.24
510.42	44467.84
510.60	44301.66
510.77	44868.07
510.95	45141.91
511.12	44655.08
511.30	44842.32
511.47	45254.26
511.64	45050.63
511.82	45914.29
511.99	45366.60
512.17	45528.10
512.34	45521.08
512.51	45830.03
512.69	46347.29
512.86	46349.63
513.04	46270.05
513.21	46419.84
513.38	46487.72
513.56	46691.35
513.73	46298.14
513.90	46398.78
514.08	46866.89
514.25	46892.63
514.43	47007.32
514.60	47019.02
514.77	46972.21
514.95	47173.50
515.12	46988.60
515.29	47342.02
515.47	47798.42
515.64	47636.92
515.81	47194.56
515.99	48170.57
516.16	48357.81
516.33	47901.40
516.51	48236.10
516.68	47931.83
516.85	48105.03
517.03	48463.13
517.20	48463.13
517.37	48591.86
517.54	48718.25
517.72	48846.98
517.89	48928.90
518.06	48779.10
518.24	48552.07
518.41	48779.10
518.58	49205.08
518.75	49104.44
518.93	48954.64
519.10	49148.91
519.27	49710.64
519.45	49265.94
519.62	49687.23
519.79	49621.70
519.96	49446.16
520.14	49663.83
520.31	50073.42
520.48	49780.85
520.65	50162.36
520.83	50705.37
521.00	50124.91
521.17	49947.03
521.34	50342.58
521.52	50321.52
521.69	50691.32
521.86	50663.24
522.03	50960.48
522.20	50820.05
522.38	50740.47
522.55	51114.96
522.72	50724.09
522.89	51100.92
523.07	51217.94
523.24	51470.72
523.41	51367.74
523.58	50887.93
523.75	51538.60
523.92	51632.22
524.10	51281.14
524.27	51407.53
524.44	51810.10
524.61	51437.95
524.78	51873.29
524.96	51732.86
525.13	52168.20
525.30	52016.07
525.47	52212.67
525.64	52491.19
525.81	52203.31
525.98	52406.94
526.16	52491.19
526.33	52252.46
526.50	52636.31
526.67	52666.73
526.84	52582.48
527.01	52495.88
527.18	52442.04
527.36	52575.45
527.53	52631.63
527.70	53233.14
527.87	53015.47
528.04	53270.59
528.21	53141.86
528.38	53109.10
528.55	53371.24
528.72	53198.04
528.89	53155.91
529.07	53008.45
529.24	53057.60
529.41	53518.69
529.58	53595.93
529.75	53551.46
529.92	53404.00
530.09	53598.27
530.26	53684.87
530.43	53682.53
530.60	53258.89
530.77	53560.82
530.94	53745.72
531.11	53663.80
531.28	54052.33
531.46	54040.63
531.63	53820.62
531.80	53937.65
531.97	54094.46
532.14	54143.61
532.31	54204.47
532.48	54258.30
532.65	54302.77
532.82	54302.77
532.99	54445.54
533.16	54021.90
533.33	54541.50
533.50	54604.70
533.67	54644.49
533.84	54529.80
534.01	54710.02
534.18	54611.72
534.35	55018.97
534.52	54801.30
534.69	54810.67
534.86	55143.02
535.03	54923.01
535.20	54890.24
535.37	55124.30
535.54	55250.69
535.71	54920.67
535.88	55421.55
536.05	55229.62
536.22	55466.02
536.38	55196.85
536.55	55262.39
536.72	55510.49
536.89	55072.81
537.06	55276.43
537.23	55510.49
537.40	55241.32
537.57	55594.74
537.74	55576.02
537.91	55781.99
538.08	55561.98
538.25	55316.22
538.42	55578.36
538.59	55955.19
538.75	55536.23
538.92	55917.74
539.09	55976.25
539.26	55931.78
539.43	55969.23
539.60	56023.06
539.77	56051.15
539.94	56109.66
540.11	56163.50
540.28	56413.93
540.44	56074.55
540.61	56116.68
540.78	56128.39
540.95	56095.62
541.12	55957.53
541.29	56104.98
541.46	56332.01
541.62	56465.42
541.79	56341.38
541.96	56289.88
542.13	56580.11
542.30	56261.80
542.47	56722.88
542.63	56704.16
542.80	56554.36
542.97	56905.44
543.14	56980.34
543.31	56959.28
543.48	57006.09
543.64	57200.35
543.81	57242.48
543.98	56905.44
544.15	57233.12
544.32	57279.93
544.48	57221.42
544.65	57083.33
544.82	57186.31
544.99	57099.71
545.16	57228.44
545.32	57024.81
545.49	57485.90
545.66	57467.17
545.83	57382.91
546.00	57516.32
546.16	57476.54
546.33	57389.94
546.50	57359.51
546.67	57525.69
546.83	57256.53
547.00	57741.02
547.17	57558.45
547.34	57509.30
547.50	57771.44
547.67	57909.53
547.84	57726.97
548.00	57708.25
548.17	57914.22
548.34	57738.68
548.51	58061.67
548.67	57942.30
548.84	57862.72
549.01	57834.64
549.18	57958.69
549.34	57841.66
549.51	57895.49
549.68	57886.13
549.84	58089.76
550.01	58145.93
550.18	58117.84
550.34	58358.92
550.51	58164.65
550.68	58202.10
550.84	58040.60
551.01	58351.90
551.18	58284.02
551.34	58443.18
551.51	58429.13
551.68	58293.38
551.84	58328.49
552.01	58377.64
552.18	58368.28
552.34	58277.00
552.51	58569.57
552.68	58262.96
552.84	58464.24
553.01	58789.58
553.18	58567.23
553.34	58693.61
553.51	58452.54
553.67	58756.81
553.84	58761.49
554.01	58646.80
554.17	58843.41
554.34	58810.64
554.51	58934.69
554.67	58908.94
554.84	58656.17
555.00	58684.25
555.17	58862.13
555.33	58932.35
555.50	58738.08
555.67	58787.24
555.83	58672.55
556.00	58901.92
556.16	59161.72
556.33	59178.10
556.50	59021.29
556.66	59245.98
556.83	58862.13
556.99	59150.02
557.16	59330.24
557.32	59203.85
557.49	59442.59
557.65	59243.64
557.82	59065.76
557.98	59082.14
558.15	59386.41
558.32	59384.07
558.48	59241.30
558.65	59271.73
558.81	59384.07
558.98	59348.96
559.14	59281.09
559.31	59423.86
559.47	59400.46
559.64	59264.70
559.80	59395.77
559.97	59597.06
560.13	59267.05
560.30	59379.39
560.46	59554.93
560.63	59576.00
560.79	59618.13
560.96	59664.94
561.12	59653.23
561.29	59355.99
561.45	59639.19
561.61	59564.29
561.78	59594.72
561.94	59559.61
562.11	59503.44
562.27	59810.05
562.44	59627.49
562.60	59686.00
562.77	59728.13
562.93	59660.26
563.10	59852.18
563.26	59564.29
563.42	59927.08
563.59	59849.84
563.75	59882.61
563.92	59863.88
564.08	59718.77
564.24	59915.37
564.41	59990.27
564.57	59884.95
564.74	59873.24
564.90	59966.87
565.07	59863.88
565.23	59906.01
565.39	59957.50
565.56	60093.25
565.72	59910.69
565.88	60013.68
566.05	59709.41
566.21	59945.80
566.38	60179.85
566.54	59917.71
566.70	60123.68
566.87	60060.49
567.03	59854.52
567.19	60205.60
567.36	60086.23
567.52	59852.18
567.68	60465.40
567.85	60116.66
568.01	60268.79
568.17	60165.81
568.34	60196.24
568.50	60102.62
568.66	60163.47
568.83	60294.54
568.99	60233.69
569.15	60191.56
569.32	60238.37
569.48	60067.51
569.64	60432.63
569.81	60362.42
569.97	60217.30
570.13	60327.31
570.30	60147.09
570.46	60247.73
570.62	60397.52
570.78	60170.49
570.95	60390.50
571.11	60484.12
571.27	60229.01
571.43	60268.79
571.60	60392.84
571.76	60324.97
571.92	60516.89
572.09	60402.21
572.25	60437.31
572.41	60280.50
572.57	60458.38
572.74	60566.04
572.90	60294.54
573.06	60430.29
573.22	60500.51
573.38	60259.43
573.55	60381.14
573.71	60729.88
573.87	60327.31
574.03	60341.35
574.20	60603.49
574.36	60264.11
574.52	60582.43
574.68	60488.80
574.84	60568.38
575.01	60647.96
575.17	60336.67
575.33	60411.57
575.49	60451.36
575.65	60584.77
575.82	60631.58
575.98	60725.20
576.14	60692.43
576.30	60727.54
576.46	60764.99
576.62	60533.28
576.79	60502.85
576.95	60341.35
577.11	60453.70
577.27	60687.75
577.43	60685.41
577.59	60479.44
577.75	60706.47
577.92	60577.75
578.08	60580.09
578.24	60610.51
578.40	60783.71
578.56	60779.03
578.72	60559.02
578.88	60783.71
579.04	60800.10
579.21	60662.00
579.37	60657.32
579.53	60781.37
579.69	60715.84
579.85	60449.02
580.01	60568.38
580.17	60456.04
580.33	60898.40
580.49	60617.53
580.65	60631.58
580.82	60671.37
580.98	60526.25
581.14	60650.30
581.30	60652.64
581.46	60638.60
581.62	60750.94
581.78	60554.34
581.94	60610.51
582.10	60769.67
582.26	60781.37
582.42	60552.00
582.58	60842.23
582.74	60669.03
582.90	60556.68
583.06	60739.24
583.22	60652.64
583.38	60680.73
583.54	60605.83
583.70	60589.45
583.86	60774.35
584.02	60793.07
584.18	61118.41
584.34	60940.53
584.50	60821.16
584.66	60793.07
584.82	60582.43
584.98	61116.07
585.14	60816.48
585.30	60762.65
585.46	61003.72
585.62	60821.16
585.78	60938.19
585.94	60647.96
586.10	60790.73
586.26	60912.44
586.42	60851.59
586.58	61006.06
586.74	60860.95
586.90	60825.84
587.06	60828.18
587.22	61008.40
587.38	60626.90
587.54	60961.59
587.70	61092.66
587.86	60835.20
588.02	61055.21
588.18	60989.68
588.34	60867.97
588.49	60753.29
