SpectraSuite Data File
++++++++++++++++++++++++++++++++++++
Date: Fri Oct 25 10:47:02 EDT 2013
User: price-jones
Dark Spectrum Present: No
Reference Spectrum Present: No
Number of Sampled Component Spectra: 1
Spectrometers: USB2+H05261
Integration Time (usec): 100000 (USB2+H05261)
Spectra Averaged: 1 (USB2+H05261)
Boxcar Smoothing: 0 (USB2+H05261)
Correct for Electrical Dark: No (USB2+H05261)
Strobe/Lamp Enabled: No (USB2+H05261)
Correct for Detector Non-linearity: No (USB2+H05261)
Correct for Stray Light: No (USB2+H05261)
Number of Pixels in Processed Spectrum: 2048
>>>>>Begin Processed Spectral Data<<<<<
365.73	102.98
365.92	102.98
366.12	102.98
366.32	51.49
366.52	25.75
366.72	0.00
366.91	0.00
367.11	135.75
367.31	72.56
367.51	32.77
367.70	0.00
367.90	35.11
368.10	4.68
368.30	60.85
368.49	0.00
368.69	72.56
368.89	93.62
369.09	49.15
369.28	58.51
369.48	79.58
369.68	84.26
369.87	39.79
370.07	56.17
370.27	140.43
370.47	177.88
370.66	395.55
370.86	472.79
371.06	365.12
371.25	447.04
371.45	404.91
371.65	493.85
371.84	482.15
372.04	442.36
372.24	547.69
372.44	510.24
372.63	540.66
372.83	482.15
373.03	486.83
373.22	519.60
373.42	540.66
373.62	449.38
373.81	493.85
374.01	561.73
374.21	491.51
374.40	512.58
374.60	543.00
374.79	505.56
374.99	564.07
375.19	545.34
375.38	631.94
375.58	561.73
375.78	648.33
375.97	610.88
376.17	578.11
376.37	578.11
376.56	622.58
376.76	470.45
376.95	578.11
377.15	580.45
377.35	617.90
377.54	629.60
377.74	660.03
377.93	571.09
378.13	685.78
378.33	669.39
378.52	629.60
378.72	711.52
378.91	678.76
379.11	650.67
379.31	610.88
379.50	498.53
379.70	678.76
379.89	725.57
380.09	739.61
380.28	634.29
380.48	648.33
380.68	603.86
380.87	638.97
381.07	697.48
381.26	734.93
381.46	690.46
381.65	655.35
381.85	674.07
382.04	664.71
382.24	664.71
382.43	690.46
382.63	678.76
382.83	690.46
383.02	636.63
383.22	725.57
383.41	664.71
383.61	734.93
383.80	798.12
384.00	657.69
384.19	751.31
384.39	676.41
384.58	751.31
384.78	751.31
384.97	798.12
385.17	758.33
385.36	767.70
385.56	805.14
385.75	716.20
385.95	793.44
386.14	828.55
386.34	788.76
386.53	791.10
386.72	800.46
386.92	807.48
387.11	772.38
387.31	849.61
387.50	795.78
387.70	809.83
387.89	830.89
388.09	826.21
388.28	772.38
388.48	842.59
388.67	866.00
388.86	968.98
389.06	896.43
389.25	828.55
389.45	889.40
389.64	868.34
389.84	936.21
390.03	959.62
390.22	842.59
390.42	912.81
390.61	903.45
390.81	915.15
391.00	971.32
391.19	1001.75
391.39	1015.79
391.58	931.53
391.78	917.49
391.97	985.37
392.16	971.32
392.36	1001.75
392.55	1039.20
392.75	929.19
392.94	997.07
393.13	992.39
393.33	912.81
393.52	987.71
393.71	1074.31
393.91	1011.11
394.10	1093.03
394.29	1041.54
394.49	1076.65
394.68	1060.26
394.88	1149.20
395.07	1235.80
395.26	1174.95
395.46	1196.01
395.65	1163.25
395.84	1121.12
396.04	1198.35
396.23	1142.18
396.42	1146.86
396.62	1179.63
396.81	1137.50
397.00	1160.91
397.19	1245.16
397.39	1184.31
397.58	1254.53
397.77	1254.53
397.97	1317.72
398.16	1181.97
398.35	1343.47
398.55	1306.02
398.74	1385.60
398.93	1364.53
399.12	1343.47
399.32	1387.94
399.51	1383.26
399.70	1380.92
399.90	1483.90
400.09	1439.43
400.28	1462.83
400.47	1486.24
400.67	1481.56
400.86	1526.03
401.05	1526.03
401.24	1554.12
401.44	1479.22
401.63	1549.43
401.82	1509.65
402.01	1570.50
402.21	1554.12
402.40	1586.88
402.59	1502.62
402.78	1551.78
402.97	1593.90
403.17	1703.91
403.36	1701.57
403.55	1626.67
403.74	1668.80
403.93	1727.32
404.13	1706.25
404.32	1661.78
404.51	1753.06
404.70	1710.93
404.89	1717.95
405.09	1867.75
405.28	1823.28
405.47	1839.66
405.66	1799.87
405.85	1858.39
406.05	1900.52
406.24	1809.23
406.43	1856.04
406.62	1919.24
406.81	1966.05
407.00	1781.15
407.20	1825.62
407.39	1968.39
407.58	1954.35
407.77	1898.17
407.96	2115.84
408.15	1909.88
408.34	1944.99
408.54	2066.69
408.73	2136.91
408.92	2057.33
409.11	2076.06
409.30	2132.23
409.49	2099.46
409.68	2108.82
409.87	2136.91
410.07	2172.02
410.26	2153.29
410.45	2211.81
410.64	2242.23
410.83	2319.47
411.02	2275.00
411.21	2235.21
411.40	2272.66
411.59	2270.32
411.78	2399.05
411.98	2356.92
412.17	2438.84
412.36	2513.74
412.55	2373.30
412.74	2452.88
412.93	2476.29
413.12	2478.63
413.31	2616.72
413.50	2464.58
413.69	2663.53
413.88	2689.28
414.07	2703.32
414.26	2602.68
414.45	2743.11
414.64	2696.30
414.83	2839.07
415.02	2740.77
415.22	2867.16
415.41	2775.88
415.60	2836.73
415.79	2923.33
415.98	3016.95
416.17	2923.33
416.36	2949.08
416.55	2932.69
416.74	2972.48
416.93	3040.36
417.12	2928.01
417.31	3066.10
417.50	3089.51
417.69	3159.72
417.88	3178.45
418.07	3169.09
418.26	3215.90
418.45	3236.96
418.64	3302.50
418.83	3155.04
419.02	3236.96
419.21	3267.39
419.39	3218.24
419.58	3112.91
419.77	3295.47
419.96	3342.28
420.15	3243.98
420.34	3262.71
420.53	3400.80
420.72	3442.93
420.91	3508.46
421.10	3494.42
421.29	3611.45
421.48	3475.70
421.67	3658.26
421.86	3571.66
422.05	3496.76
422.24	3503.78
422.43	3379.73
422.61	3566.98
422.80	3578.68
422.99	3590.38
423.18	3625.49
423.37	3742.52
423.56	3438.25
423.75	3609.11
423.94	3555.27
424.13	3337.60
424.32	3438.25
424.50	3698.05
424.69	3644.21
424.88	3562.30
425.07	3751.88
425.26	3578.68
425.45	3585.70
425.64	3653.58
425.83	3623.15
426.01	3831.46
426.20	3599.74
426.39	3735.50
426.58	3819.75
426.77	3658.26
426.96	3852.52
427.15	3611.45
427.33	3705.07
427.52	3796.35
427.71	3763.58
427.90	3861.88
428.09	3775.28
428.28	3878.27
428.46	3887.63
428.65	3868.91
428.84	4098.28
429.03	4081.89
429.22	3934.44
429.40	4063.17
429.59	3775.28
429.78	3770.60
429.97	3618.47
430.16	3749.54
430.34	3803.37
430.53	4030.40
430.72	3929.76
430.91	4042.11
431.10	4044.45
431.28	4098.28
431.47	4287.86
431.66	4203.60
431.85	4142.75
432.03	4262.12
432.22	4332.33
432.41	4327.65
432.60	4227.01
432.79	4311.27
432.97	4423.61
433.16	4454.04
433.35	4184.88
433.54	4388.50
433.72	4390.84
433.91	4411.91
434.10	4337.01
434.28	4582.77
434.47	4451.70
434.66	4582.77
434.85	4613.20
435.03	4676.39
435.22	4428.29
435.41	4667.03
435.59	4638.94
435.78	4510.21
435.97	4800.44
436.16	4830.87
436.34	4634.26
436.53	4678.73
436.72	4849.59
436.90	4678.73
437.09	4870.65
437.28	4725.54
437.46	4657.67
437.65	4882.36
437.84	4865.97
438.02	4777.03
438.21	4861.29
438.40	4755.97
438.58	5001.72
438.77	5062.58
438.96	5011.09
439.14	4987.68
439.33	5025.13
439.52	5093.01
439.70	5172.58
439.89	5327.06
440.08	5348.12
440.26	5242.80
440.45	5228.76
440.63	5434.72
440.82	5472.17
441.01	5467.49
441.19	5607.92
441.38	5619.63
441.57	5729.63
441.75	5696.86
441.94	5802.19
442.12	5760.06
442.31	5930.92
442.50	5820.91
442.68	5818.57
442.87	5937.94
443.05	5834.96
443.24	6106.46
443.43	5954.32
443.61	6003.47
443.80	5916.87
443.98	5853.68
444.17	5860.70
444.35	5987.09
444.54	6008.16
444.73	6141.57
444.91	5912.19
445.10	6045.60
445.28	6132.20
445.47	5994.11
445.65	5769.42
445.84	6134.54
446.02	5987.09
446.21	6012.84
446.39	5944.96
446.58	6214.12
446.77	6143.91
446.95	6015.18
447.14	6167.31
447.32	6260.93
447.51	6005.81
447.69	6160.29
447.88	6270.30
448.06	6139.23
448.25	6169.65
448.43	6076.03
448.62	6141.57
448.80	6186.04
448.99	6218.80
449.17	6296.04
449.36	6204.76
449.54	6324.13
449.73	6427.11
449.91	6455.20
450.10	6546.48
450.28	6469.24
450.46	6560.52
450.65	6490.31
450.83	6640.10
451.02	6483.28
451.20	6607.33
451.39	6693.93
451.57	6649.46
451.76	6661.16
451.94	6590.95
452.13	6813.30
452.31	6696.27
452.49	6588.61
452.68	6612.01
452.86	6677.55
453.05	6668.19
453.23	6930.33
453.42	6658.82
453.60	6616.69
453.78	6923.30
453.97	6789.89
454.15	6855.43
454.34	6621.38
454.52	7077.78
454.70	6953.73
454.89	7016.93
455.07	6761.81
455.26	6888.20
455.44	7108.21
455.62	6953.73
455.81	7112.89
455.99	7241.62
456.17	7213.53
456.36	7267.36
456.54	7304.81
456.73	7267.36
456.91	7470.99
457.09	7417.16
457.28	7496.74
457.46	7370.35
457.64	7740.15
457.83	7489.71
458.01	7375.03
458.19	7611.42
458.38	7723.77
458.56	7625.47
458.74	7536.52
458.93	7573.97
459.11	7683.98
459.29	7880.58
459.48	7847.82
459.66	7681.64
459.84	7801.01
460.03	7798.66
460.21	7793.98
460.39	7850.16
460.57	7864.20
460.76	7943.78
460.94	7957.82
461.12	7922.71
461.31	7992.93
461.49	8044.42
461.67	7978.89
461.85	8098.25
462.04	8107.62
462.22	8610.83
462.40	8124.00
462.59	8102.93
462.77	8154.43
462.95	8334.65
463.13	8030.38
463.32	8184.85
463.50	8271.45
463.68	8259.75
463.86	8395.50
464.05	8306.56
464.23	8229.32
464.41	8203.58
464.59	8212.94
464.78	8699.77
464.96	8390.82
465.14	8404.86
465.32	8479.76
465.50	8671.68
465.69	8482.10
465.87	8510.19
466.05	8332.31
466.23	8449.33
466.41	8620.19
466.60	8711.47
466.78	8526.57
466.96	8418.91
467.14	8421.25
467.32	8760.63
467.51	8833.18
467.69	8526.57
467.87	8685.73
468.05	8840.20
468.23	8854.25
468.41	8648.28
468.60	8833.18
468.78	8812.12
468.96	9020.42
469.14	9109.36
469.32	9053.19
469.50	9034.47
469.69	8980.64
469.87	9200.65
470.05	9193.62
470.23	9214.69
470.41	9020.42
470.59	9132.77
470.77	9249.80
470.95	9476.83
471.14	9394.91
471.32	9256.82
471.50	9472.15
471.68	9671.09
471.86	9486.19
472.04	9710.88
472.22	9994.09
472.40	9535.34
472.58	9605.56
472.77	9666.41
472.95	9750.67
473.13	10033.88
473.31	9832.59
473.49	9856.00
473.67	9881.74
473.85	9877.06
474.03	10171.97
474.21	10246.87
474.39	10307.72
474.57	10090.05
474.75	10265.59
474.93	10361.55
475.12	10380.28
475.30	10614.33
475.48	10553.48
475.66	10438.79
475.84	10710.29
476.02	10501.98
476.20	10714.97
476.38	10677.52
476.56	11229.89
476.74	10960.73
476.92	11042.65
477.10	11105.84
477.28	11166.70
477.46	11180.74
477.64	11173.72
477.82	11466.28
478.00	11836.09
478.18	11595.01
478.36	11648.85
478.54	11920.35
478.72	11950.78
478.90	12053.76
479.08	12381.43
479.26	12166.10
479.44	12315.90
479.62	12311.22
479.80	12435.27
479.98	12287.81
480.16	12741.88
480.34	12540.59
480.52	12727.83
480.70	12713.79
480.88	12666.98
481.06	12865.92
481.24	12830.82
481.41	13139.77
481.59	13434.68
481.77	13394.89
481.95	13504.89
482.13	13767.03
482.31	13233.39
482.49	13914.48
482.67	13942.57
482.85	14132.15
483.03	14267.91
483.21	14193.01
483.39	14441.11
483.57	14401.32
483.74	14359.19
483.92	14644.73
484.10	14349.82
484.28	14719.63
484.46	14768.78
484.64	15213.48
484.82	14888.15
485.00	14885.81
485.18	15211.14
485.35	15279.02
485.53	15176.03
485.71	15339.87
485.89	15648.82
486.07	15466.26
486.25	15833.72
486.43	15969.48
486.61	16051.39
486.78	16152.04
486.96	16168.42
487.14	16762.92
487.32	16666.95
487.50	16746.53
487.68	16954.84
487.85	17338.69
488.03	17436.99
488.21	17385.50
488.39	17453.37
488.57	17467.42
488.75	17628.92
488.92	18045.53
489.10	18099.36
489.28	18136.81
489.46	18508.96
489.64	18401.29
489.81	18895.14
489.99	18995.79
490.17	19075.37
490.35	19321.12
490.53	19117.50
490.70	18780.46
490.88	19042.60
491.06	19405.38
491.24	19564.54
491.41	19417.08
491.59	19433.47
491.77	19332.82
491.95	19826.68
492.13	20116.90
492.30	20552.24
492.48	20332.23
492.66	20528.84
492.84	20315.85
493.01	20624.80
493.19	20851.83
493.37	20889.28
493.54	20737.15
493.72	21221.64
493.90	21216.96
494.08	21277.81
494.25	21818.47
494.43	21399.52
494.61	21804.43
494.79	22047.85
494.96	22024.44
495.14	22209.34
495.32	22462.12
495.49	22436.38
495.67	22651.70
495.85	22574.47
496.02	22537.02
496.20	22860.01
496.38	23002.78
496.55	22981.72
496.73	23522.38
496.91	23283.65
497.09	23344.50
497.26	23468.55
497.44	23183.01
497.62	24243.27
497.79	23908.57
497.97	23716.65
498.14	23908.57
498.32	24276.04
498.50	24067.73
498.67	24442.21
498.85	24395.40
499.03	24474.98
499.20	24662.22
499.38	24980.54
499.56	24950.11
499.73	24931.39
499.91	24842.45
500.08	25221.61
500.26	24545.20
500.44	24943.09
500.61	25242.68
500.79	24966.49
500.97	25516.52
501.14	25577.37
501.32	25790.36
501.49	25247.36
501.67	25663.97
501.84	26033.78
502.02	25823.13
502.20	26572.10
502.37	26059.52
502.55	26122.72
502.72	26342.73
502.90	26590.83
503.07	26340.39
503.25	26349.75
503.43	26628.27
503.60	26827.22
503.78	26630.62
503.95	27063.61
504.13	27124.47
504.30	27173.62
504.48	26885.73
504.65	27042.55
504.83	27241.50
505.01	27152.55
505.18	27367.88
505.36	27761.09
505.53	27730.67
505.71	27772.80
505.88	28196.43
506.06	27742.37
506.23	27901.53
506.41	27906.21
506.58	28004.51
506.76	28325.16
506.93	28603.69
507.11	28095.79
507.28	28308.78
507.46	28292.40
507.63	28423.47
507.81	29006.26
507.98	28379.00
508.16	28830.72
508.33	29156.05
508.50	29034.35
508.68	29661.61
508.85	29167.76
509.03	29364.36
509.20	29544.58
509.38	29493.09
509.55	29715.44
509.73	29647.57
509.90	29832.47
510.08	29832.47
510.25	29617.14
510.42	29837.15
510.60	30150.78
510.77	30146.10
510.95	30267.81
511.12	29916.73
511.30	30146.10
511.47	30796.77
511.64	30918.48
511.82	30635.27
511.99	30448.03
512.17	30607.19
512.34	30824.86
512.51	31131.47
512.69	31028.48
512.86	31239.13
513.04	31449.78
513.21	31189.98
513.38	31316.37
513.56	31222.75
513.73	31222.75
513.90	31957.67
514.08	31424.03
514.25	31515.31
514.43	31749.37
514.60	31765.75
514.77	31847.67
514.95	32130.87
515.12	32011.51
515.29	31945.97
515.47	32278.33
515.64	31859.37
515.81	31920.23
515.99	32065.34
516.16	32292.37
516.33	32315.78
516.51	32400.04
516.68	31992.78
516.85	31931.93
517.03	32016.19
517.20	32683.24
517.37	32755.80
517.54	32711.33
517.72	32713.67
517.89	32460.89
518.06	32708.99
518.24	33060.07
518.41	32753.46
518.58	32788.56
518.75	32826.01
518.93	33340.93
519.10	33369.02
519.27	33523.49
519.45	33589.03
519.62	33668.61
519.79	33514.13
519.96	33603.07
520.14	34125.01
520.31	34017.35
520.48	33879.25
520.65	34127.35
520.83	34162.46
521.00	34394.17
521.17	34375.45
521.34	34274.80
521.52	34298.21
521.69	34775.68
521.86	34607.16
522.03	34717.17
522.20	34483.11
522.38	34827.17
522.55	34740.57
522.72	34843.56
522.89	34754.61
523.07	34899.73
523.24	34986.33
523.41	35161.87
523.58	34843.56
523.75	35339.75
523.92	35351.45
524.10	35459.12
524.27	35400.60
524.44	35592.53
524.61	36025.53
524.78	35601.89
524.96	36004.46
525.13	35683.81
525.30	36084.04
525.47	36306.39
525.64	36615.34
525.81	36175.32
525.98	35903.82
526.16	35775.09
526.33	35449.75
526.50	36531.08
526.67	35789.13
526.84	36266.60
527.01	35777.43
527.18	36130.85
527.36	36769.82
527.53	36657.47
527.70	36624.70
527.87	36931.31
528.04	36708.96
528.21	36964.08
528.38	37062.38
528.55	36786.20
528.72	36931.31
528.89	37193.45
529.07	36776.84
529.24	37050.68
529.41	36943.02
529.58	37104.51
529.75	37354.95
529.92	37563.26
530.09	37645.18
530.26	37432.19
530.43	37633.47
530.60	36751.09
530.77	37914.34
530.94	38113.28
531.11	37722.41
531.28	37813.70
531.46	38038.39
531.63	37539.85
531.80	38005.62
531.97	38132.01
532.14	37965.83
532.31	37488.36
532.48	38036.05
532.65	37949.45
532.82	37982.21
532.99	38380.10
533.16	38003.28
533.33	38085.20
533.50	38665.65
533.67	38244.35
533.84	38106.26
534.01	38693.74
534.18	38181.16
534.35	38644.59
534.52	38567.35
534.69	38534.58
534.86	38827.15
535.03	38656.29
535.20	39131.42
535.37	39250.78
535.54	38859.91
535.71	38845.87
535.88	38890.34
536.05	39138.44
536.22	39370.15
536.38	38969.92
536.55	39035.45
536.72	39573.78
536.89	39257.81
537.06	39306.96
537.23	39421.64
537.40	39449.73
537.57	39550.37
537.74	39271.85
537.91	39615.91
538.08	40020.82
538.25	39618.25
538.42	39765.70
538.59	39772.72
538.75	39594.84
538.92	39819.53
539.09	40060.61
539.26	39861.66
539.43	39739.96
539.60	39618.25
539.77	39878.05
539.94	40383.60
540.11	39849.96
540.28	39796.13
540.44	39819.53
540.61	40030.18
540.78	39730.59
540.95	40112.10
541.12	39971.67
541.29	40250.19
541.46	40341.47
541.62	40179.98
541.79	41265.99
541.96	40109.76
542.13	40271.26
542.30	40575.53
542.47	40437.44
542.63	40687.87
542.80	40484.25
542.97	41242.58
543.14	41090.44
543.31	40987.46
543.48	41254.28
543.64	41249.60
543.81	41338.54
543.98	41209.81
544.15	41209.81
544.32	41666.22
544.48	41778.56
544.65	41294.07
544.82	41572.60
544.99	41179.39
545.16	41413.44
545.32	41619.41
545.49	41710.69
545.66	41406.42
545.83	41972.83
546.00	41727.07
546.16	41865.16
546.33	41467.27
546.50	41481.31
546.67	41738.77
546.83	41373.65
547.00	41855.80
547.17	41455.57
547.34	41579.62
547.50	42113.26
547.67	42534.56
547.84	42071.13
548.00	42143.69
548.17	42024.32
548.34	42017.30
548.51	42553.28
548.67	42302.84
548.84	42485.40
549.01	42237.31
549.18	42178.79
549.34	42518.17
549.51	42642.22
549.68	42639.88
549.84	42204.54
550.01	42574.34
550.18	42234.97
550.34	42499.45
550.51	42770.95
550.68	42614.13
550.84	41874.52
551.01	42754.57
551.18	42534.56
551.34	42873.93
551.51	42550.94
551.68	43096.28
551.84	42653.92
552.01	42663.28
552.18	42995.64
552.34	42548.60
552.51	42775.63
552.68	42852.87
552.84	42749.88
553.01	43030.75
553.18	43559.71
553.34	43115.01
553.51	42866.91
553.67	43042.45
553.84	43292.89
554.01	43430.98
554.17	43496.52
554.34	43192.25
554.51	43622.90
554.67	43639.29
554.84	43159.48
555.00	43320.98
555.17	42960.53
555.33	43215.65
555.50	43674.40
555.67	43213.31
555.83	43049.47
556.00	43320.98
556.16	43910.79
556.33	43557.37
556.50	43463.75
556.66	43878.02
556.83	43337.36
556.99	43721.21
557.16	43512.90
557.32	43730.57
557.49	43587.80
557.65	43384.17
557.82	43686.10
557.98	43545.67
558.15	43751.63
558.32	44212.72
558.48	43995.05
558.65	43852.28
558.81	43639.29
558.98	44123.78
559.14	44020.80
559.31	43849.94
559.47	43824.19
559.64	43973.98
559.80	44051.22
559.97	43971.64
560.13	44002.07
560.30	43784.40
560.46	43922.49
560.63	44161.23
560.79	44381.24
560.96	44381.24
561.12	44060.58
561.29	44098.03
561.45	44376.56
561.61	44112.08
561.78	44165.91
561.94	43913.13
562.11	44364.85
562.27	44048.88
562.44	43959.94
562.60	44343.79
562.77	44458.48
562.93	44512.31
563.10	44411.67
563.26	43964.62
563.42	44397.62
563.59	44240.81
563.75	44341.45
563.92	44924.24
564.08	44126.12
564.24	44701.89
564.41	44664.44
564.57	44273.57
564.74	44643.38
564.90	44219.74
565.07	44797.85
565.23	44488.90
565.39	44884.45
565.56	44509.97
565.72	44404.64
565.88	44481.88
566.05	44596.57
566.21	44273.57
566.38	44533.37
566.54	44353.15
566.70	45214.47
566.87	45003.82
567.03	44629.34
567.19	45141.91
567.36	44935.95
567.52	44797.85
567.68	44760.40
567.85	44460.82
568.01	44697.21
568.17	44554.44
568.34	44561.46
568.50	44734.66
568.66	44772.11
568.83	44706.57
568.99	44406.98
569.15	44353.15
569.32	44573.16
569.48	44566.14
569.64	44683.17
569.81	45008.50
569.97	44676.15
570.13	44648.06
570.30	44336.77
570.46	44589.55
570.62	44435.07
570.78	44692.53
570.95	44622.31
571.11	45085.74
571.27	44896.16
571.43	44533.37
571.60	44905.52
571.76	45081.06
571.92	45006.16
572.09	44685.51
572.25	44444.43
572.41	44957.01
572.57	44666.78
572.74	45525.76
572.90	44837.64
573.06	44966.37
573.22	44790.83
573.38	44982.76
573.55	44725.30
573.71	45020.20
573.87	44828.28
574.03	44568.48
574.20	44959.35
574.36	45038.93
574.52	44938.29
574.68	44692.53
574.84	45181.70
575.01	45111.49
575.17	44783.81
575.33	44933.60
575.49	44942.97
575.65	45202.77
575.82	45303.41
575.98	45120.85
576.14	45174.68
576.30	45085.74
576.46	45237.87
576.62	44786.15
576.79	45008.50
576.95	44486.56
577.11	45174.68
577.27	45474.27
577.43	45186.38
577.59	45249.58
577.75	45296.39
577.92	44807.22
578.08	44842.32
578.24	44561.46
578.40	44978.07
578.56	45364.26
578.72	45113.83
578.88	45418.10
579.04	45174.68
579.21	45308.09
579.37	44790.83
579.53	45205.11
579.69	44729.98
579.85	45434.48
580.01	45390.01
580.17	44924.24
580.33	45050.63
580.49	45357.24
580.65	45153.62
580.82	45294.05
580.98	45317.45
581.14	44987.44
581.30	45165.32
581.46	44802.53
581.62	45010.84
581.78	44893.82
581.94	45553.85
582.10	45303.41
582.26	45422.78
582.42	45399.37
582.58	45020.20
582.74	44875.09
582.90	45282.34
583.06	45148.93
583.22	45251.92
583.38	45581.93
583.54	45155.96
583.70	45097.44
583.86	45233.19
584.02	44652.74
584.18	45083.40
584.34	45216.81
584.50	45514.06
584.66	45249.58
584.82	44807.22
584.98	45588.95
585.14	45256.60
585.30	44851.69
585.46	45345.54
585.62	45162.98
585.78	45148.93
585.94	44678.49
586.10	44994.46
586.26	44797.85
586.42	45003.82
586.58	45090.42
586.74	45251.92
586.90	45284.68
587.06	45165.32
587.22	45434.48
587.38	45209.79
587.54	45221.49
587.70	45382.99
587.86	45062.33
588.02	45090.42
588.18	45448.52
588.34	45373.63
588.49	44788.49
588.65	44856.37
588.81	44842.32
588.97	44884.45
589.13	44961.69
589.29	45284.68
589.45	45385.33
589.61	45085.74
589.77	45392.35
589.93	45195.74
590.08	45399.37
590.24	45338.52
