SpectraSuite Data File
++++++++++++++++++++++++++++++++++++
Date: Fri Oct 25 11:25:07 EDT 2013
User: price-jones
Dark Spectrum Present: No
Reference Spectrum Present: No
Number of Sampled Component Spectra: 1
Spectrometers: USB2+H05261
Integration Time (usec): 100000 (USB2+H05261)
Spectra Averaged: 1 (USB2+H05261)
Boxcar Smoothing: 0 (USB2+H05261)
Correct for Electrical Dark: No (USB2+H05261)
Strobe/Lamp Enabled: No (USB2+H05261)
Correct for Detector Non-linearity: No (USB2+H05261)
Correct for Stray Light: No (USB2+H05261)
Number of Pixels in Processed Spectrum: 2048
>>>>>Begin Processed Spectral Data<<<<<
365.73	273.84
365.92	273.84
366.12	273.84
366.32	152.13
366.52	175.54
366.72	203.63
366.91	138.09
367.11	163.84
367.31	102.98
367.51	140.43
367.70	102.98
367.90	201.29
368.10	133.41
368.30	131.07
368.49	161.50
368.69	217.67
368.89	182.56
369.09	187.24
369.28	173.20
369.48	168.52
369.68	182.56
369.87	189.58
370.07	201.29
370.27	227.03
370.47	332.36
370.66	578.11
370.86	641.31
371.06	692.80
371.25	725.57
371.45	713.86
371.65	725.57
371.84	667.05
372.04	786.42
372.24	779.40
372.44	732.59
372.63	720.88
372.83	692.80
373.03	645.99
373.22	805.14
373.42	842.59
373.62	812.17
373.81	770.04
374.01	823.87
374.21	781.74
374.40	704.50
374.60	807.48
374.79	763.01
374.99	842.59
375.19	884.72
375.38	903.45
375.58	784.08
375.78	854.30
375.97	905.79
376.17	1022.81
376.37	875.36
376.56	926.85
376.76	849.61
376.95	947.92
377.15	884.72
377.35	959.62
377.54	924.51
377.74	856.64
377.93	858.98
378.13	856.64
378.33	924.51
378.52	922.17
378.72	1004.09
378.91	971.32
379.11	976.00
379.31	908.13
379.50	912.81
379.70	947.92
379.89	994.73
380.09	957.28
380.28	959.62
380.48	964.30
380.68	997.07
380.87	908.13
381.07	1078.99
381.26	1006.43
381.46	1036.86
381.65	1121.12
381.85	1128.14
382.04	1062.60
382.24	1053.24
382.43	1069.62
382.63	1043.88
382.83	1132.82
383.02	1055.58
383.22	1109.41
383.41	968.98
383.61	1170.27
383.80	1174.95
384.00	1111.75
384.19	1118.78
384.39	1067.28
384.58	1200.69
384.78	1165.59
384.97	1116.44
385.17	1203.04
385.36	1121.12
385.56	1165.59
385.75	1214.74
385.95	1177.29
386.14	1151.54
386.34	1231.12
386.53	1228.78
386.72	1184.31
386.92	1235.80
387.11	1252.19
387.31	1240.48
387.50	1135.16
387.70	1247.51
387.89	1306.02
388.09	1306.02
388.28	1259.21
388.48	1355.17
388.67	1313.04
388.86	1261.55
389.06	1359.85
389.25	1362.19
389.45	1308.36
389.64	1385.60
389.84	1345.81
390.03	1387.94
390.22	1336.45
390.42	1416.02
390.61	1446.45
390.81	1406.66
391.00	1383.26
391.19	1453.47
391.39	1453.47
391.58	1521.35
391.78	1474.54
391.97	1521.35
392.16	1507.30
392.36	1514.33
392.55	1490.92
392.75	1526.03
392.94	1504.96
393.13	1612.63
393.33	1554.12
393.52	1621.99
393.71	1561.14
393.91	1558.80
394.10	1540.07
394.29	1589.22
394.49	1703.91
394.68	1598.59
394.88	1708.59
395.07	1633.69
395.26	1610.29
395.46	1654.76
395.65	1703.91
395.84	1638.38
396.04	1762.42
396.23	1734.34
396.42	1724.97
396.62	1802.21
396.81	1863.07
397.00	1853.70
397.19	1781.15
397.39	1877.11
397.58	1834.98
397.77	1849.02
397.97	1886.47
398.16	1811.57
398.35	1881.79
398.55	1919.24
398.74	1935.62
398.93	1879.45
399.12	1905.20
399.32	1867.75
399.51	1966.05
399.70	1937.96
399.90	1919.24
400.09	2043.29
400.28	2062.01
400.47	2136.91
400.67	2094.78
400.86	2054.99
401.05	2047.97
401.24	2064.35
401.44	2101.80
401.63	2160.31
401.82	2101.80
402.01	2104.14
402.21	2256.28
402.40	2232.87
402.59	2244.57
402.78	2165.00
402.97	2195.42
403.17	2279.68
403.36	2324.15
403.55	2279.68
403.74	2335.85
403.93	2293.72
404.13	2296.07
404.32	2211.81
404.51	2289.04
404.70	2480.97
404.89	2377.98
405.09	2464.58
405.28	2485.65
405.47	2476.29
405.66	2452.88
405.85	2530.12
406.05	2574.59
406.24	2509.05
406.43	2539.48
406.62	2518.42
406.81	2602.68
407.00	2684.59
407.20	2572.25
407.39	2684.59
407.58	2698.64
407.77	2672.89
407.96	2789.92
408.15	2818.00
408.34	2626.08
408.54	2871.84
408.73	2775.88
408.92	2693.96
409.11	2818.00
409.30	2932.69
409.49	2853.11
409.68	2895.24
409.87	2836.73
410.07	2846.09
410.26	2892.90
410.45	3019.29
410.64	2970.14
410.83	3007.59
411.02	3080.14
411.21	3035.67
411.40	3246.32
411.59	3290.79
411.78	3112.91
411.98	3124.62
412.17	3129.30
412.36	3353.99
412.55	3262.71
412.74	3398.46
412.93	3431.23
413.12	3398.46
413.31	3529.53
413.50	3452.29
413.69	3440.59
413.88	3400.80
414.07	3559.95
414.26	3646.55
414.45	3574.00
414.64	3566.98
414.83	3705.07
415.02	3742.52
415.22	3927.42
415.41	3768.26
415.60	3920.40
415.79	3749.54
415.98	3925.08
416.17	3904.01
416.36	3852.52
416.55	3967.21
416.74	4142.75
416.93	4060.83
417.12	3988.27
417.31	4119.34
417.50	4018.70
417.69	4208.28
417.88	4180.20
418.07	4088.92
418.26	4182.54
418.45	4248.07
418.64	4454.04
418.83	4376.80
419.02	4416.59
419.21	4594.47
419.39	4479.79
419.58	4491.49
419.77	4486.81
419.96	4554.68
420.15	4550.00
420.34	4498.51
420.53	4592.13
420.72	4847.25
420.91	4519.57
421.10	4681.07
421.29	4751.29
421.48	4826.18
421.67	4795.76
421.86	4800.44
422.05	4739.58
422.24	4858.95
422.43	4915.12
422.61	4870.65
422.80	5085.98
422.99	4870.65
423.18	4915.12
423.37	4851.93
423.56	4945.55
423.75	5029.81
423.94	4959.60
424.13	4517.23
424.32	4865.97
424.50	4858.95
424.69	5034.49
424.88	5135.14
425.07	4889.38
425.26	4795.76
425.45	4898.74
425.64	4835.55
425.83	4947.89
426.01	5081.30
426.20	5188.97
426.39	5048.54
426.58	5104.71
426.77	5097.69
426.96	5081.30
427.15	5090.67
427.33	5210.03
427.52	5193.65
427.71	5219.39
427.90	5336.42
428.09	5387.91
428.28	5165.56
428.46	5245.14
428.65	5369.19
428.84	5493.24
429.03	5540.05
429.22	5238.12
429.40	5404.30
429.59	5376.21
429.78	5397.28
429.97	5352.81
430.16	5507.28
430.34	5549.41
430.53	5661.76
430.72	5626.65
430.91	5591.54
431.10	5500.26
431.28	5762.40
431.47	5645.37
431.66	5776.44
431.85	5797.51
432.03	5832.62
432.22	5951.98
432.41	5959.00
432.60	5884.11
432.79	5900.49
432.97	5989.43
433.16	5987.09
433.35	6010.50
433.54	6071.35
433.72	6179.01
433.91	5987.09
434.10	6141.57
434.28	6090.07
434.47	6179.01
434.66	6033.90
434.85	6342.85
435.03	6270.30
435.22	6141.57
435.41	6534.78
435.59	6551.16
435.78	6361.58
435.97	6417.75
436.16	6399.02
436.34	6389.66
436.53	6487.96
436.72	6555.84
436.90	6317.11
437.09	6544.14
437.28	6459.88
437.46	6441.15
437.65	6511.37
437.84	6677.55
438.02	6574.56
438.21	6576.91
438.40	6707.98
438.58	6857.77
438.77	6981.82
438.96	6979.48
439.14	7094.16
439.33	6979.48
439.52	7162.04
439.70	7222.89
439.89	7183.10
440.08	7377.37
440.26	7524.82
440.45	7396.09
440.63	7459.29
440.82	7529.50
441.01	7447.58
441.19	7665.25
441.38	7599.72
441.57	7604.40
441.75	7719.09
441.94	8018.68
442.12	7819.73
442.31	7742.49
442.50	8002.29
442.68	7964.84
442.87	7997.61
443.05	7936.76
443.24	8173.15
443.43	8173.15
443.61	8053.78
443.80	8430.61
443.98	7995.27
444.17	7824.41
444.35	8222.30
444.54	8332.31
444.73	8119.32
444.91	8245.71
445.10	8362.73
445.28	8276.13
445.47	8119.32
445.65	8222.30
445.84	8395.50
446.02	8519.55
446.21	8390.82
446.39	8329.97
446.58	8491.46
446.77	8439.97
446.95	8039.74
447.14	8339.33
447.32	8482.10
447.51	8554.66
447.69	8390.82
447.88	8283.16
448.06	8400.18
448.25	8339.33
448.43	8568.70
448.62	8411.89
448.80	8437.63
448.99	8702.11
449.17	8594.45
449.36	8493.80
449.54	8816.80
449.73	8889.35
449.91	9121.07
450.10	8769.99
450.28	9055.53
450.46	8917.44
450.65	8945.53
450.83	9015.74
451.02	9020.42
451.20	9210.01
451.39	9270.86
451.57	8990.00
451.76	9025.11
451.94	9144.47
452.13	9408.95
452.31	9217.03
452.49	9252.14
452.68	9373.85
452.86	9371.50
453.05	9441.72
453.23	9430.02
453.42	9320.01
453.60	9338.74
453.78	9523.64
453.97	9486.19
454.15	9479.17
454.34	9305.97
454.52	9673.43
454.70	9813.87
454.89	9846.63
455.07	9760.03
455.26	9776.42
455.44	10076.01
455.62	9848.97
455.81	9753.01
455.99	10160.27
456.17	9900.47
456.36	9940.26
456.54	10134.52
456.73	10122.82
456.91	10548.79
457.09	10438.79
457.28	10537.09
457.46	10076.01
457.64	10471.56
457.83	10520.71
458.01	10399.00
458.19	10782.85
458.38	10595.61
458.56	10607.31
458.74	10576.88
458.93	10644.76
459.11	10616.67
459.29	10834.34
459.48	10752.42
459.66	10813.28
459.84	10820.30
460.03	11164.36
460.21	11037.97
460.39	10913.92
460.57	10949.03
460.76	11056.69
460.94	11059.03
461.12	11246.27
461.31	11194.78
461.49	11281.38
461.67	11054.35
461.85	11339.90
462.04	11169.04
462.22	11829.07
462.40	11576.29
462.59	11665.23
462.77	11566.93
462.95	11606.72
463.13	11700.34
463.32	11522.46
463.50	11660.55
463.68	11585.65
463.86	11800.98
464.05	11438.20
464.23	11477.99
464.41	12063.12
464.59	11740.13
464.78	11910.99
464.96	12107.59
465.14	11758.85
465.32	11950.78
465.50	12093.55
465.69	12098.23
465.87	12231.64
466.05	12086.53
466.23	12131.00
466.41	12203.55
466.60	12343.99
466.78	11943.75
466.96	11997.59
467.14	12283.13
467.32	12313.56
467.51	12341.64
467.69	12091.21
467.87	12304.20
468.05	12430.59
468.23	12315.90
468.41	12425.90
468.60	12573.36
468.78	12748.90
468.96	12437.61
469.14	12648.26
469.32	12657.62
469.50	12578.04
469.69	13074.23
469.87	12936.14
470.05	12945.50
470.23	13289.56
470.41	13132.75
470.59	13224.03
470.77	13284.88
470.95	13350.42
471.14	13355.10
471.32	13160.83
471.50	13427.65
471.68	13575.11
471.86	13668.73
472.04	13472.12
472.22	13947.25
472.40	13523.62
472.58	13659.37
472.77	13947.25
472.95	14284.29
473.13	14380.25
473.31	13909.80
473.49	13937.89
473.67	14225.78
473.85	14235.14
474.03	14572.18
474.21	14394.29
474.39	14658.78
474.57	14949.00
474.75	14829.63
474.93	15009.86
475.12	14883.47
475.30	15101.14
475.48	14738.35
475.66	15206.46
475.84	15002.83
476.02	15288.38
476.20	15239.23
476.38	15501.37
476.56	15726.06
476.74	15882.88
476.92	15730.74
477.10	15812.66
477.28	15974.16
477.46	16051.39
477.64	16081.82
477.82	16606.10
478.00	16676.32
478.18	16816.75
478.36	16821.43
478.54	17198.26
478.72	17097.61
478.90	17509.55
479.08	17554.02
479.26	17734.24
479.44	17383.16
479.62	18001.06
479.80	17923.82
479.98	18129.79
480.16	18558.11
480.34	18153.20
480.52	18562.79
480.70	18466.83
480.88	18228.09
481.06	18588.53
481.24	18792.16
481.41	19005.15
481.59	19232.18
481.77	19470.92
481.95	19335.17
482.13	19901.58
482.31	19653.48
482.49	19981.15
482.67	19910.94
482.85	20287.76
483.03	20596.71
483.21	20556.93
483.39	21149.08
483.57	20680.97
483.74	20919.71
483.92	21415.90
484.10	21015.67
484.28	21968.27
484.46	21891.03
484.64	22176.58
484.82	21942.52
485.00	22284.24
485.18	22611.92
485.35	22750.01
485.53	22565.10
485.71	22888.10
485.89	23147.90
486.07	23264.92
486.25	23140.88
486.43	23651.11
486.61	23688.56
486.78	23761.12
486.96	24063.05
487.14	24657.54
487.32	24531.15
487.50	24694.99
487.68	24765.21
487.85	25284.81
488.03	25479.07
488.21	25717.81
488.39	25701.42
488.57	25855.90
488.75	26490.18
488.92	26403.58
489.10	26808.50
489.28	26668.06
489.46	27033.19
489.64	26766.37
489.81	27702.58
489.99	27707.26
490.17	27665.13
490.35	27971.74
490.53	27814.93
490.70	28599.01
490.88	28287.71
491.06	28760.50
491.24	28819.02
491.41	28741.78
491.59	29043.71
491.77	29043.71
491.95	29626.50
492.13	29481.39
492.30	29820.77
492.48	29935.45
492.66	30239.72
492.84	30106.31
493.01	30735.92
493.19	30471.43
493.37	30960.61
493.54	31082.31
493.72	31468.50
493.90	31283.60
494.08	31660.43
494.25	32006.83
494.43	31772.77
494.61	32067.68
494.79	32292.37
494.96	31992.78
495.14	32716.01
495.32	32868.14
495.49	33062.41
495.67	33031.98
495.85	33460.30
496.02	33759.89
496.20	33855.85
496.38	33993.94
496.55	33928.41
496.73	34672.70
496.91	34459.71
497.09	34696.10
497.26	34841.21
497.44	34675.04
497.62	34965.26
497.79	35655.72
497.97	34911.43
498.14	35328.05
498.32	35606.57
498.50	35941.27
498.67	36346.18
498.85	36437.46
499.03	36889.18
499.20	36847.05
499.38	36559.17
499.56	36786.20
499.73	36690.24
499.91	37160.69
500.08	37724.75
500.26	37420.48
500.44	37085.79
500.61	37776.25
500.79	37982.21
500.97	37776.25
501.14	38314.57
501.32	38333.29
501.49	38621.18
501.67	38565.01
501.84	38988.64
502.02	38293.50
502.20	38813.10
502.37	39182.91
502.55	39143.12
502.72	39276.53
502.90	39629.95
503.07	39159.50
503.25	39428.66
503.43	39742.30
503.60	40259.55
503.78	39693.15
503.95	40086.36
504.13	39849.96
504.30	40336.79
504.48	40205.72
504.65	40720.64
504.83	40669.15
505.01	40994.48
505.18	41048.32
505.36	41495.36
505.53	41228.54
505.71	41476.63
505.88	41516.42
506.06	41287.05
506.23	41673.24
506.41	41490.68
506.58	41752.82
506.76	41874.52
506.93	42377.74
507.11	42192.84
507.28	41940.06
507.46	42696.05
507.63	42696.05
507.81	42962.87
507.98	42576.69
508.16	43000.32
508.33	43161.82
508.50	43138.41
508.68	43445.02
508.85	43819.51
509.03	43611.20
509.20	43798.44
509.38	44109.74
509.55	43838.23
509.73	44121.44
509.90	44451.45
510.08	43971.64
510.25	44367.20
510.42	44861.05
510.60	44734.66
510.77	44987.44
510.95	45282.34
511.12	45034.25
511.30	45102.12
511.47	45153.62
511.64	45315.11
511.82	46246.65
511.99	45492.99
512.17	45823.01
512.34	45488.31
512.51	46017.27
512.69	46061.74
512.86	46050.04
513.04	46801.35
513.21	46167.07
513.38	46925.40
513.56	46588.36
513.73	46403.46
513.90	46902.00
514.08	46604.75
514.25	47054.13
514.43	47007.32
514.60	47119.66
514.77	47236.69
514.95	47543.30
515.12	47136.05
515.29	47182.86
515.47	47426.28
515.64	48072.26
515.81	47840.55
515.99	48002.05
516.16	48325.04
516.33	48088.65
516.51	48601.22
516.68	48055.88
516.85	48449.09
517.03	48596.54
517.20	48615.27
517.37	48800.17
517.54	48383.55
517.72	48350.79
517.89	48982.73
518.06	48875.07
518.24	49184.02
518.41	49069.33
518.58	49298.70
518.75	49188.70
518.93	49457.86
519.10	49137.21
519.27	49904.90
519.45	49275.30
519.62	50190.45
519.79	49886.18
519.96	49792.56
520.14	49801.92
520.31	49844.05
520.48	50155.34
520.65	49853.41
520.83	50480.67
521.00	50487.70
521.17	50316.84
521.34	50630.47
521.52	50686.64
521.69	50534.51
521.86	50691.32
522.03	51171.13
522.20	51281.14
522.38	51206.24
522.55	51253.05
522.72	51070.49
522.89	51400.50
523.07	51370.08
523.24	51299.86
523.41	51648.60
523.58	51086.87
523.75	51798.40
523.92	51840.53
524.10	51955.21
524.27	52039.47
524.44	51922.44
524.61	51936.49
524.78	51690.73
524.96	51679.03
525.13	52034.79
525.30	52432.68
525.47	52491.19
525.64	52315.65
525.81	52549.71
525.98	53062.29
526.16	52514.60
526.33	52411.62
526.50	53106.76
526.67	52381.19
526.84	52863.34
527.01	52886.74
527.18	52743.97
527.36	52900.79
527.53	52891.43
527.70	53312.72
527.87	53069.31
528.04	52875.04
528.21	53027.18
528.38	53116.12
528.55	53312.72
528.72	53200.38
528.89	53368.90
529.07	53162.93
529.24	53270.59
529.41	53357.19
529.58	53457.84
529.75	53200.38
529.92	53652.10
530.09	53783.17
530.26	53780.83
530.43	53916.58
530.60	53591.25
530.77	53731.68
530.94	53869.77
531.11	54134.25
531.28	53825.30
531.46	53949.35
531.63	54169.36
531.80	53883.81
531.97	54288.73
532.14	54387.03
532.31	54204.47
532.48	54347.24
532.65	54394.05
532.82	54356.60
532.99	54300.43
533.16	54410.43
533.33	54628.10
533.50	54857.48
533.67	54876.20
533.84	54370.64
534.01	54728.75
534.18	54728.75
534.35	54986.21
534.52	55107.91
534.69	54885.56
534.86	55121.96
535.03	54887.90
535.20	55049.40
535.37	55393.46
535.54	55107.91
535.71	55140.68
535.88	55297.50
536.05	55302.18
536.22	55475.38
536.38	55540.91
536.55	55538.57
536.72	55395.80
536.89	55538.57
537.06	55435.59
537.23	55365.37
537.40	55451.97
537.57	55697.73
537.74	55573.68
537.91	55819.44
538.08	55681.34
538.25	55728.16
538.42	55887.31
538.59	56121.37
538.75	55671.98
538.92	56121.37
539.09	56083.92
539.26	56067.53
539.43	55601.77
539.60	55973.91
539.77	56076.90
539.94	56254.78
540.11	56051.15
540.28	56193.92
540.44	56442.02
540.61	56444.36
540.78	56376.48
540.95	56317.97
541.12	56289.88
541.29	56362.44
541.46	56601.18
541.62	56580.11
541.79	56456.06
541.96	56207.97
542.13	56680.75
542.30	56598.83
542.47	56680.75
542.63	56727.56
542.80	56891.40
542.97	57024.81
543.14	56825.87
543.31	56973.32
543.48	57043.54
543.64	57403.98
543.81	57256.53
543.98	57155.88
544.15	57212.06
544.32	57481.22
544.48	57506.96
544.65	56956.94
544.82	57413.34
544.99	57137.16
545.16	57427.38
545.32	57418.02
545.49	57516.32
545.66	57698.89
545.83	57521.01
546.00	57638.03
546.16	57558.45
546.33	57254.18
546.50	57411.00
546.67	57619.31
546.83	57361.85
547.00	57378.23
547.17	57572.50
547.34	57715.27
547.50	57982.09
547.67	57832.30
547.84	57907.19
548.00	58094.44
548.17	58248.91
548.34	58174.02
548.51	58061.67
548.67	58068.69
548.84	58211.46
549.01	57897.83
549.18	57998.48
549.34	57923.58
549.51	58209.12
549.68	58497.01
549.84	58206.78
550.01	58239.55
550.18	58087.42
550.34	58305.09
550.51	58305.09
550.68	58328.49
550.84	58012.52
551.01	58482.97
551.18	58368.28
551.34	58358.92
551.51	58368.28
551.68	58452.54
551.84	58651.48
552.01	58436.16
552.18	58335.51
552.34	58351.90
552.51	58609.35
552.68	58494.67
552.84	58557.86
553.01	58824.68
553.18	58576.59
553.34	58770.85
553.51	58527.44
553.67	58848.09
553.84	58960.44
554.01	58761.49
554.17	58962.78
554.34	58913.62
554.51	58831.71
554.67	58934.69
554.84	58829.37
555.00	58988.52
555.17	58927.67
555.33	58848.09
555.50	58639.78
555.67	58712.34
555.83	58976.82
556.00	59011.93
556.16	59189.81
556.33	59110.23
556.50	59056.40
556.66	59126.61
556.83	58969.80
556.99	59583.02
557.16	59573.66
557.32	59250.66
557.49	59405.14
557.65	59250.66
557.82	59213.21
557.98	59430.88
558.15	59346.62
558.32	59419.18
558.48	59288.11
558.65	59405.14
558.81	59533.87
558.98	59463.65
559.14	59470.67
559.31	59681.32
559.47	59765.58
559.64	59625.15
559.80	59599.40
559.97	59585.36
560.13	59391.09
560.30	59725.79
560.46	59552.59
560.63	59580.68
560.79	59788.98
560.96	59655.57
561.12	59913.03
561.29	59760.90
561.45	59667.28
561.61	59622.81
561.78	59674.30
561.94	59568.97
562.11	59496.42
562.27	59592.38
562.44	59835.80
562.60	59873.24
562.77	59898.99
562.93	59732.81
563.10	59955.16
563.26	59749.20
563.42	59866.22
563.59	59840.48
563.75	59510.46
563.92	59842.82
564.08	59877.93
564.24	60252.41
564.41	59786.64
564.57	60123.68
564.74	60016.02
564.90	60067.51
565.07	60079.21
565.23	60116.66
565.39	60088.57
565.56	60191.56
565.72	59948.14
565.88	59948.14
566.05	59980.91
566.21	60013.68
566.38	60030.06
566.54	60282.84
566.70	60362.42
566.87	60282.84
567.03	59978.57
567.19	60111.98
567.36	60156.45
567.52	60046.44
567.68	60406.89
567.85	60186.88
568.01	60285.18
568.17	60306.24
568.34	60397.52
568.50	60154.11
568.66	60317.95
568.83	60154.11
568.99	60308.58
569.15	60523.91
569.32	60282.84
569.48	60390.50
569.64	60294.54
569.81	60294.54
569.97	60233.69
570.13	60343.69
570.30	60289.86
570.46	60392.84
570.62	60392.84
570.78	60271.14
570.95	60264.11
571.11	60491.15
571.27	60233.69
571.43	60432.63
571.60	60479.44
571.76	60231.35
571.92	60619.88
572.09	60427.95
572.25	60467.74
572.41	60547.32
572.57	60526.25
572.74	60631.58
572.90	60327.31
573.06	60392.84
573.22	60631.58
573.38	60528.59
573.55	60434.97
573.71	60809.46
573.87	60947.55
574.03	60582.43
574.20	60790.73
574.36	60392.84
574.52	60619.88
574.68	60657.32
574.84	60669.03
575.01	60631.58
575.17	60626.90
575.33	60669.03
575.49	60404.55
575.65	60488.80
575.82	60561.36
575.98	60746.26
576.14	60577.75
576.30	60839.89
576.46	60430.29
576.62	60313.26
576.79	60472.42
576.95	60486.46
577.11	60692.43
577.27	60486.46
577.43	60753.29
577.59	60697.11
577.75	60617.53
577.92	60425.61
578.08	60500.51
578.24	60659.66
578.40	60849.25
578.56	60748.60
578.72	60804.78
578.88	60945.21
579.04	60795.42
579.21	60863.29
579.37	60762.65
579.53	60774.35
579.69	60701.79
579.85	60720.52
580.01	60662.00
580.17	60622.22
580.33	60966.27
580.49	60832.86
580.65	60973.30
580.82	60753.29
580.98	60647.96
581.14	60633.92
581.30	60907.76
581.46	60809.46
581.62	60856.27
581.78	60825.84
581.94	60772.01
582.10	60823.50
582.26	60949.89
582.42	60687.75
582.58	60968.61
582.74	60786.05
582.90	60877.33
583.06	60837.54
583.22	60715.84
583.38	60825.84
583.54	60811.80
583.70	60842.23
583.86	60860.95
584.02	60652.64
584.18	61137.13
584.34	60914.78
584.50	60959.25
584.66	60811.80
584.82	60605.83
584.98	60846.91
585.14	60905.42
585.30	60769.67
585.46	60858.61
585.62	60879.67
585.78	61041.17
585.94	60706.47
586.10	60954.57
586.26	60839.89
586.42	60804.78
586.58	60985.00
586.74	60893.72
586.90	60835.20
587.06	60853.93
587.22	61216.71
587.38	60961.59
587.54	60954.57
587.70	61263.52
587.86	60931.17
588.02	60956.91
588.18	61148.84
588.34	60994.36
588.49	60917.12
