SpectraSuite Data File
++++++++++++++++++++++++++++++++++++
Date: Fri Oct 25 11:33:59 EDT 2013
User: price-jones
Dark Spectrum Present: No
Reference Spectrum Present: No
Number of Sampled Component Spectra: 1
Spectrometers: USB2+H05261
Integration Time (usec): 100000 (USB2+H05261)
Spectra Averaged: 1 (USB2+H05261)
Boxcar Smoothing: 0 (USB2+H05261)
Correct for Electrical Dark: No (USB2+H05261)
Strobe/Lamp Enabled: No (USB2+H05261)
Correct for Detector Non-linearity: No (USB2+H05261)
Correct for Stray Light: No (USB2+H05261)
Number of Pixels in Processed Spectrum: 2048
>>>>>Begin Processed Spectral Data<<<<<
365.73	161.50
365.92	161.50
366.12	161.50
366.32	177.88
366.52	217.67
366.72	217.67
366.91	161.50
367.11	140.43
367.31	152.13
367.51	152.13
367.70	198.95
367.90	177.88
368.10	117.03
368.30	173.20
368.49	117.03
368.69	152.13
368.89	191.92
369.09	177.88
369.28	243.42
369.48	196.60
369.68	262.14
369.87	257.46
370.07	273.84
370.27	243.42
370.47	264.48
370.66	498.53
370.86	461.09
371.06	433.00
371.25	575.77
371.45	528.96
371.65	571.09
371.84	554.71
372.04	517.26
372.24	606.20
372.44	608.54
372.63	578.11
372.83	552.37
373.03	587.47
373.22	641.31
373.42	589.82
373.62	573.43
373.81	641.31
374.01	631.94
374.21	657.69
374.40	608.54
374.60	650.67
374.79	692.80
374.99	575.77
375.19	683.44
375.38	664.71
375.58	648.33
375.78	723.23
375.97	737.27
376.17	779.40
376.37	669.39
376.56	638.97
376.76	706.84
376.95	678.76
377.15	716.20
377.35	734.93
377.54	692.80
377.74	601.52
377.93	744.29
378.13	770.04
378.33	692.80
378.52	690.46
378.72	697.48
378.91	681.10
379.11	685.78
379.31	688.12
379.50	725.57
379.70	770.04
379.89	699.82
380.09	725.57
380.28	777.06
380.48	723.23
380.68	683.44
380.87	699.82
381.07	767.70
381.26	725.57
381.46	788.76
381.65	704.50
381.85	755.99
382.04	739.61
382.24	765.36
382.43	772.38
382.63	788.76
382.83	802.80
383.02	748.97
383.22	816.85
383.41	816.85
383.61	826.21
383.80	875.36
384.00	716.20
384.19	807.48
384.39	791.10
384.58	863.66
384.78	781.74
384.97	835.57
385.17	863.66
385.36	875.36
385.56	866.00
385.75	830.89
385.95	863.66
386.14	826.21
386.34	898.77
386.53	840.25
386.72	840.25
386.92	884.72
387.11	866.00
387.31	947.92
387.50	912.81
387.70	847.27
387.89	919.83
388.09	931.53
388.28	835.57
388.48	791.10
388.67	1001.75
388.86	924.51
389.06	922.17
389.25	985.37
389.45	987.71
389.64	973.66
389.84	1027.50
390.03	922.17
390.22	968.98
390.42	971.32
390.61	933.87
390.81	976.00
391.00	985.37
391.19	1043.88
391.39	950.26
391.58	994.73
391.78	1093.03
391.97	1032.18
392.16	987.71
392.36	1069.62
392.55	994.73
392.75	1088.35
392.94	994.73
393.13	1088.35
393.33	1057.92
393.52	1064.94
393.71	1102.39
393.91	1057.92
394.10	1046.22
394.29	1053.24
394.49	1121.12
394.68	1156.22
394.88	1135.16
395.07	1039.20
395.26	1149.20
395.46	1210.06
395.65	1184.31
395.84	1116.44
396.04	1179.63
396.23	1158.57
396.42	1165.59
396.62	1277.93
396.81	1249.85
397.00	1179.63
397.19	1205.38
397.39	1231.12
397.58	1188.99
397.77	1256.87
397.97	1259.21
398.16	1329.42
398.35	1259.21
398.55	1224.10
398.74	1345.81
398.93	1385.60
399.12	1310.70
399.32	1378.58
399.51	1345.81
399.70	1376.24
399.90	1355.17
400.09	1394.96
400.28	1331.76
400.47	1345.81
400.67	1439.43
400.86	1441.77
401.05	1418.36
401.24	1357.51
401.44	1394.96
401.63	1521.35
401.82	1413.68
402.01	1465.18
402.21	1448.79
402.40	1455.81
402.59	1392.62
402.78	1521.35
402.97	1465.18
403.17	1561.14
403.36	1584.54
403.55	1554.12
403.74	1458.15
403.93	1572.84
404.13	1575.18
404.32	1629.01
404.51	1474.54
404.70	1582.20
404.89	1598.59
405.09	1570.50
405.28	1701.57
405.47	1643.06
405.66	1675.82
405.85	1703.91
406.05	1764.76
406.24	1750.72
406.43	1722.63
406.62	1802.21
406.81	1881.79
407.00	1664.12
407.20	1743.70
407.39	1778.81
407.58	1856.04
407.77	1863.07
407.96	1912.22
408.15	1942.64
408.34	1851.36
408.54	1891.15
408.73	1891.15
408.92	1926.26
409.11	1940.30
409.30	1877.11
409.49	1944.99
409.68	2085.42
409.87	1916.90
410.07	2022.22
410.26	2026.90
410.45	2045.63
410.64	2097.12
410.83	2160.31
411.02	2043.29
411.21	2136.91
411.40	2179.04
411.59	2188.40
411.78	2179.04
411.98	2129.89
412.17	2249.25
412.36	2200.10
412.55	2305.43
412.74	2342.88
412.93	2230.53
413.12	2363.94
413.31	2427.14
413.50	2392.03
413.69	2387.35
413.88	2457.56
414.07	2406.07
414.26	2487.99
414.45	2523.10
414.64	2502.03
414.83	2443.52
415.02	2464.58
415.22	2630.76
415.41	2630.76
415.60	2700.98
415.79	2644.81
415.98	2700.98
416.17	2649.49
416.36	2761.83
416.55	2722.04
416.74	2745.45
416.93	2693.96
417.12	2843.75
417.31	2904.60
417.50	2899.92
417.69	2953.76
417.88	2946.73
418.07	2862.48
418.26	2909.29
418.45	3026.31
418.64	3150.36
418.83	3038.02
419.02	2972.48
419.21	2930.35
419.39	3070.78
419.58	3077.80
419.77	3066.10
419.96	3169.09
420.15	3152.70
420.34	3159.72
420.53	3145.68
420.72	3096.53
420.91	3185.47
421.10	3269.73
421.29	3286.11
421.48	3232.28
421.67	3169.09
421.86	3297.81
422.05	3255.69
422.24	3183.13
422.43	3307.18
422.61	3300.16
422.80	3452.29
422.99	3293.13
423.18	3396.12
423.37	3414.84
423.56	3307.18
423.75	3428.88
423.94	3342.28
424.13	3274.41
424.32	3302.50
424.50	3428.88
424.69	3452.29
424.88	3419.52
425.07	3356.33
425.26	3403.14
425.45	3538.89
425.64	3382.07
425.83	3400.80
426.01	3510.80
426.20	3431.23
426.39	3716.77
426.58	3566.98
426.77	3412.50
426.96	3578.68
427.15	3428.88
427.33	3592.72
427.52	3581.02
427.71	3522.51
427.90	3625.49
428.09	3815.07
428.28	3719.11
428.46	3730.81
428.65	3737.84
428.84	3763.58
429.03	3747.20
429.22	3658.26
429.40	3779.97
429.59	3749.54
429.78	3574.00
429.97	3618.47
430.16	3730.81
430.34	3786.99
430.53	3847.84
430.72	3822.09
430.91	3852.52
431.10	3957.85
431.28	4016.36
431.47	3932.10
431.66	4009.34
431.85	3981.25
432.03	3948.48
432.22	3978.91
432.41	4042.11
432.60	4035.08
432.79	4051.47
432.97	3990.61
433.16	4142.75
433.35	4203.60
433.54	4234.03
433.72	4091.26
433.91	4161.47
434.10	4161.47
434.28	4131.05
434.47	4252.75
434.66	4126.36
434.85	4250.41
435.03	4271.48
435.22	4210.62
435.41	4477.44
435.59	4404.89
435.78	4440.00
435.97	4435.32
436.16	4334.67
436.34	4374.46
436.53	4358.08
436.72	4390.84
436.90	4325.31
437.09	4484.47
437.28	4346.37
437.46	4531.28
437.65	4486.81
437.84	4627.24
438.02	4557.02
438.21	4564.04
438.40	4505.53
438.58	4762.99
438.77	4564.04
438.96	4669.37
439.14	4812.14
439.33	4802.78
439.52	4762.99
439.70	4781.71
439.89	5083.64
440.08	5046.20
440.26	4851.93
440.45	4994.70
440.63	5018.11
440.82	4978.32
441.01	5158.54
441.19	5195.99
441.38	5020.45
441.57	5249.82
441.75	5195.99
441.94	5397.28
442.12	5411.32
442.31	5334.08
442.50	5357.49
442.68	5432.38
442.87	5366.85
443.05	5483.88
443.24	5628.99
443.43	5448.77
443.61	5743.67
443.80	5621.97
443.98	5364.51
444.17	5432.38
444.35	5390.25
444.54	5654.73
444.73	5657.07
444.91	5713.25
445.10	5610.26
445.28	5528.35
445.47	5526.00
445.65	5556.43
445.84	5724.95
446.02	5582.18
446.21	5699.20
446.39	5804.53
446.58	5832.62
446.77	5652.39
446.95	5621.97
447.14	5645.37
447.32	5722.61
447.51	5561.11
447.69	5706.23
447.88	5682.82
448.06	5966.03
448.25	5696.86
448.43	5706.23
448.62	5724.95
448.80	5738.99
448.99	5916.87
449.17	6017.52
449.36	5734.31
449.54	6010.50
449.73	5905.17
449.91	6181.35
450.10	5980.07
450.28	6061.99
450.46	5980.07
450.65	6155.61
450.83	6204.76
451.02	5996.45
451.20	6221.14
451.39	6054.97
451.57	6101.78
451.76	5998.79
451.94	6237.53
452.13	6258.59
452.31	6249.23
452.49	6071.35
452.68	6022.20
452.86	6310.08
453.05	6443.49
453.23	6284.34
453.42	6164.97
453.60	6338.17
453.78	6544.14
453.97	6359.24
454.15	6368.60
454.34	6251.57
454.52	6403.71
454.70	6560.52
454.89	6597.97
455.07	6567.54
455.26	6480.94
455.44	6642.44
455.62	6656.48
455.81	6707.98
455.99	6675.21
456.17	6663.51
456.36	6794.58
456.54	6799.26
456.73	6796.92
456.91	6757.13
457.09	7028.63
457.28	6974.80
457.46	6745.42
457.64	7059.06
457.83	7166.72
458.01	6951.39
458.19	7295.45
458.38	7056.72
458.56	7260.34
458.74	7159.70
458.93	7054.37
459.11	7105.87
459.29	7087.14
459.48	7155.02
459.66	7339.92
459.84	7304.81
460.03	7424.18
460.21	7248.64
460.39	7194.81
460.57	7419.50
460.76	7353.96
460.94	7520.14
461.12	7597.38
461.31	7405.46
461.49	7449.93
461.67	7407.80
461.85	7730.79
462.04	7506.10
462.22	8016.33
462.40	7637.17
462.59	7618.44
462.77	7478.01
462.95	7775.26
463.13	7576.31
463.32	7576.31
463.50	7974.21
463.68	7981.23
463.86	7922.71
464.05	7843.14
464.23	7691.00
464.41	7997.61
464.59	7840.79
464.78	8126.34
464.96	7971.86
465.14	7824.41
465.32	7955.48
465.50	8149.75
465.69	7892.29
465.87	8051.44
466.05	8072.51
466.23	8198.90
466.41	8159.11
466.60	8163.79
466.78	8126.34
466.96	8067.83
467.14	8084.21
467.32	8411.89
467.51	8189.53
467.69	8114.64
467.87	8091.23
468.05	8526.57
468.23	8306.56
468.41	8301.88
468.60	8388.48
468.78	8376.78
468.96	8344.01
469.14	8629.56
469.32	8521.89
469.50	8449.33
469.69	8545.30
469.87	8711.47
470.05	8741.90
470.23	8690.41
470.41	8697.43
470.59	8887.01
470.77	8479.76
470.95	8847.22
471.14	8889.35
471.32	8823.82
471.50	8947.87
471.68	9062.55
471.86	9055.53
472.04	9205.33
472.22	9151.49
472.40	8961.91
472.58	9151.49
472.77	9228.73
472.95	9415.98
473.13	9509.60
473.31	9476.83
473.49	9558.75
473.67	9312.99
473.85	9525.98
474.03	9767.06
474.21	9614.92
474.39	9603.22
474.57	9778.76
474.75	9530.66
474.93	9895.78
475.12	9767.06
475.30	10204.74
475.48	9961.32
475.66	10029.20
475.84	10101.75
476.02	10178.99
476.20	10068.98
476.38	10279.63
476.56	10651.78
476.74	10569.86
476.92	10525.39
477.10	10366.23
477.28	10647.10
477.46	10651.78
477.64	10579.22
477.82	10916.26
478.00	11337.56
478.18	10911.58
478.36	11066.05
478.54	11300.11
478.72	11316.49
478.90	11419.47
479.08	11669.91
479.26	11655.87
479.44	11520.12
479.62	11442.88
479.80	11665.23
479.98	11943.75
480.16	12032.69
480.34	12046.74
480.52	12011.63
480.70	12114.61
480.88	12283.13
481.06	12180.15
481.24	12332.28
481.41	12358.03
481.59	12674.00
481.77	12575.70
481.95	12720.81
482.13	12762.94
482.31	12919.76
482.49	13160.83
482.67	13144.45
482.85	13212.32
483.03	13263.82
483.21	13500.21
483.39	13699.16
483.57	13657.03
483.74	13900.44
483.92	13860.65
484.10	13848.95
484.28	14401.32
484.46	14403.66
484.64	14860.06
484.82	14445.79
485.00	14642.39
485.18	14707.93
485.35	15192.42
485.53	14733.67
485.71	15087.09
485.89	15384.34
486.07	15096.46
486.25	15311.78
486.43	15620.74
486.61	15412.43
486.78	15754.15
486.96	15819.68
487.14	16126.29
487.32	15915.64
487.50	16128.63
487.68	16224.59
487.85	16624.83
488.03	16744.19
488.21	16908.03
488.39	16943.14
488.57	17057.82
488.75	16753.55
488.92	17130.38
489.10	17851.27
489.28	17326.99
489.46	17607.85
489.64	17490.82
489.81	17970.63
489.99	18359.16
490.17	18279.58
490.35	18310.01
490.53	18340.44
490.70	18553.43
490.88	18246.82
491.06	18586.19
491.24	18836.63
491.41	18972.38
491.59	19150.26
491.77	18796.84
491.95	19262.61
492.13	19634.75
492.30	19414.74
492.48	19447.51
492.66	19716.67
492.84	19662.84
493.01	19932.00
493.19	19920.30
493.37	20020.94
493.54	20432.88
493.72	20404.79
493.90	20491.39
494.08	20737.15
494.25	20685.65
494.43	20601.40
494.61	20826.09
494.79	21530.59
494.96	21069.50
495.14	20893.96
495.32	21451.01
495.49	21528.25
495.67	21680.38
495.85	21881.67
496.02	22082.95
496.20	22155.51
496.38	22572.13
496.55	22001.04
496.73	22789.80
496.91	22504.25
497.09	22595.53
497.26	22848.31
497.44	22843.63
497.62	22796.82
497.79	23105.77
497.97	23161.94
498.14	23381.95
498.32	23552.81
498.50	23384.29
498.67	23864.10
498.85	23405.36
499.03	23875.80
499.20	23922.62
499.38	24222.20
499.56	24135.60
499.73	24418.81
499.91	24393.06
500.08	24425.83
500.26	24528.81
500.44	24430.51
500.61	24538.18
500.79	24500.73
500.97	24823.72
501.14	24863.51
501.32	25076.50
501.49	25214.59
501.67	25542.27
501.84	25390.13
502.02	25294.17
502.20	25179.48
502.37	25525.88
502.55	25624.18
502.72	25792.70
502.90	25495.46
503.07	25748.23
503.25	26010.37
503.43	25795.04
503.60	26174.21
503.78	25928.45
503.95	25799.73
504.13	26534.65
504.30	26595.51
504.48	26562.74
504.65	26551.04
504.83	26698.49
505.01	27344.48
505.18	26703.17
505.36	27185.32
505.53	26930.20
505.71	27274.26
505.88	27185.32
506.06	27000.42
506.23	27159.58
506.41	27220.43
506.58	27484.91
506.76	27571.51
506.93	27831.31
507.11	27447.46
507.28	27995.15
507.46	28009.19
507.63	27938.97
507.81	28355.59
507.98	28283.03
508.16	28149.62
508.33	28542.83
508.50	28657.52
508.68	28683.27
508.85	28786.25
509.03	28603.69
509.20	28739.44
509.38	29158.39
509.55	29296.49
509.73	29013.28
509.90	29385.43
510.08	29432.24
510.25	29317.55
510.42	29450.96
510.60	29472.03
510.77	29575.01
510.95	29935.45
511.12	29699.06
511.30	29434.58
511.47	29727.14
511.64	29949.50
511.82	30054.82
511.99	30012.69
512.17	30300.58
512.34	30103.97
512.51	30672.72
512.69	30953.58
512.86	30742.94
513.04	31026.14
513.21	30808.47
513.38	30661.02
513.56	30721.87
513.73	30845.92
513.90	30972.31
514.08	31082.31
514.25	31271.90
514.43	31374.88
514.60	31222.75
514.77	31068.27
514.95	31690.85
515.12	31292.96
515.29	31559.78
515.47	31318.71
515.64	31686.17
515.81	31419.35
515.99	31665.11
516.16	32325.14
516.33	31875.76
516.51	32381.31
516.68	31934.27
516.85	32318.12
517.03	32439.82
517.20	32767.50
517.37	32418.76
517.54	32545.15
517.72	32641.11
517.89	32664.52
518.06	32772.18
518.24	32559.19
518.41	32697.28
518.58	33125.60
518.75	33048.36
518.93	33125.60
519.10	33427.53
519.27	33329.23
519.45	33242.63
519.62	33593.71
519.79	33521.15
519.96	33062.41
520.14	33514.13
520.31	33312.84
520.48	33762.23
520.65	33785.63
520.83	34178.84
521.00	34082.88
521.17	34015.01
521.34	33823.08
521.52	34899.73
521.69	34164.80
521.86	34689.08
522.03	34391.83
522.20	35091.65
522.38	34782.70
522.55	34902.07
522.72	34490.13
522.89	34618.86
523.07	34902.07
523.24	35161.87
523.41	35194.64
523.58	35009.73
523.75	34735.89
523.92	35243.79
524.10	35150.17
524.27	35140.80
524.44	35522.31
524.61	35690.83
524.78	35332.73
524.96	35758.70
525.13	35971.69
525.30	35985.74
525.47	35910.84
525.64	35835.94
525.81	36149.57
525.98	36077.02
526.16	35742.32
526.33	35899.14
526.50	36245.54
526.67	36055.95
526.84	36095.74
527.01	36374.27
527.18	36425.76
527.36	36678.54
527.53	36233.83
527.70	36414.05
527.87	37088.13
528.04	36823.65
528.21	37090.47
528.38	36697.26
528.55	37099.83
528.72	36708.96
528.89	36950.04
529.07	37008.55
529.24	36802.58
529.41	37390.06
529.58	37310.48
529.75	37125.58
529.92	37235.58
530.09	37640.50
530.26	37493.04
530.43	37851.14
530.60	37434.53
530.77	37486.02
530.94	37383.04
531.11	37450.91
531.28	37736.46
531.46	37345.59
531.63	37731.78
531.80	37469.64
531.97	38419.89
532.14	38122.65
532.31	37907.32
532.48	38274.78
532.65	38693.74
532.82	37855.82
532.99	38525.22
533.16	37902.64
533.33	38394.15
533.50	38281.80
533.67	38314.57
533.84	38157.75
534.01	38623.52
534.18	38815.44
534.35	38859.91
534.52	38927.79
534.69	38976.94
534.86	38916.09
535.03	39089.29
535.20	39452.07
535.37	39021.41
535.54	39562.08
535.71	38876.30
535.88	39178.23
536.05	39229.72
536.22	39454.41
536.38	39115.03
536.55	39629.95
536.72	39599.52
536.89	39049.50
537.06	39688.46
537.23	39948.26
537.40	39220.36
537.57	39789.11
537.74	39721.23
537.91	39775.06
538.08	39566.76
538.25	39344.41
538.42	39796.13
538.59	40128.48
538.75	39765.70
538.92	39686.12
539.09	39894.43
539.26	40268.92
539.43	39962.31
539.60	40084.01
539.77	40259.55
539.94	40657.45
540.11	40568.51
540.28	40535.74
540.44	40130.83
540.61	40451.48
540.78	40418.71
540.95	40589.57
541.12	40142.53
541.29	40390.62
541.46	40521.69
541.62	40774.47
541.79	40882.14
541.96	40470.20
542.13	40739.36
542.30	40912.56
542.47	41097.47
542.63	41420.46
542.80	41701.32
542.97	41432.16
543.14	42075.81
543.31	41134.92
543.48	41563.23
543.64	42075.81
543.81	41539.83
543.98	41193.43
544.15	41455.57
544.32	41635.79
544.48	42293.48
544.65	42038.36
544.82	41848.78
544.99	41888.57
545.16	41832.39
545.32	42141.35
545.49	42169.43
545.66	42600.09
545.83	42127.30
546.00	42150.71
546.16	42595.41
546.33	42012.62
546.50	42007.94
546.67	42176.45
546.83	42412.85
547.00	41993.89
547.17	42183.48
547.34	42115.60
547.50	42401.14
547.67	43283.53
547.84	42447.96
548.00	42635.20
548.17	42883.30
548.34	43023.73
548.51	42965.21
548.67	42815.42
548.84	43014.37
549.01	42777.97
549.18	43051.81
549.34	43070.54
549.51	43150.12
549.68	43374.81
549.84	43178.20
550.01	43349.06
550.18	43012.02
550.34	43562.05
550.51	43342.04
550.68	43381.83
550.84	43154.80
551.01	44107.40
551.18	42995.64
551.34	43482.47
551.51	43863.98
551.68	43608.86
551.84	42911.38
552.01	43316.29
552.18	43175.86
552.34	43215.65
552.51	44091.01
552.68	43622.90
552.84	43660.35
553.01	44147.18
553.18	43693.12
553.34	44133.14
553.51	43421.62
553.67	44023.14
553.84	44114.42
554.01	44203.36
554.17	44327.41
554.34	44381.24
554.51	44072.29
554.67	44287.62
554.84	44222.08
555.00	44189.31
555.17	44156.55
555.33	44648.06
555.50	44051.22
555.67	44531.03
555.83	44224.42
556.00	44477.20
556.16	44870.41
556.33	44669.12
556.50	44369.54
556.66	44395.28
556.83	44554.44
556.99	44514.65
557.16	45113.83
557.32	44839.98
557.49	45076.38
557.65	44442.09
557.82	44479.54
557.98	44587.21
558.15	44554.44
558.32	44959.35
558.48	44978.07
558.65	44758.06
558.81	44954.67
558.98	44837.64
559.14	44891.48
559.31	44631.68
559.47	44844.66
559.64	45308.09
559.80	45102.12
559.97	44921.90
560.13	44781.47
560.30	45272.98
560.46	45251.92
560.63	45710.66
560.79	45495.33
560.96	45310.43
561.12	45308.09
561.29	45500.01
561.45	45553.85
561.61	45265.96
561.78	45160.64
561.94	45148.93
562.11	44919.56
562.27	45017.86
562.44	45404.05
562.60	45717.68
562.77	45404.05
562.93	45221.49
563.10	45851.09
563.26	45563.21
563.42	45893.22
563.59	45485.97
563.75	45787.90
563.92	45549.17
564.08	45687.26
564.24	45776.20
564.41	45544.48
564.57	45813.65
564.74	45825.35
564.90	45741.09
565.07	45586.61
565.23	45542.14
565.39	45584.27
565.56	46064.08
565.72	45958.76
565.88	45415.76
566.05	45888.54
566.21	46157.70
566.38	45811.31
566.54	45846.41
566.70	45914.29
566.87	45713.00
567.03	45549.17
567.19	45928.33
567.36	45729.39
567.52	45647.47
567.68	46539.21
567.85	45647.47
568.01	46085.15
568.17	45858.12
568.34	46344.95
568.50	46220.90
568.66	45581.93
568.83	46487.72
568.99	46014.93
569.15	46284.09
569.32	46078.13
569.48	45881.52
569.64	46583.68
569.81	45958.76
569.97	46106.21
570.13	46635.17
570.30	46017.27
570.46	46251.33
570.62	46571.98
570.78	45792.58
570.95	46576.66
571.11	47004.98
571.27	46101.53
571.43	46094.51
571.60	46204.52
571.76	46134.30
571.92	46824.76
572.09	46447.93
572.25	46447.93
572.41	46117.92
572.57	46405.80
572.74	46611.77
572.90	46616.45
573.06	46197.49
573.22	46548.57
573.38	46777.95
573.55	46101.53
573.71	46681.98
573.87	46501.76
574.03	46389.42
574.20	46876.25
574.36	46815.40
574.52	46344.95
574.68	47009.66
574.84	46768.58
575.01	46501.76
575.17	46714.75
575.33	46476.02
575.49	46887.95
575.65	46813.05
575.82	46635.17
575.98	46302.82
576.14	46876.25
576.30	46581.34
576.46	46738.16
576.62	46644.54
576.79	46651.56
576.95	46260.69
577.11	46705.39
577.27	46782.63
577.43	46742.84
577.59	46438.57
577.75	46595.38
577.92	46204.52
578.08	46731.14
578.24	46719.43
578.40	47222.65
578.56	47091.58
578.72	47110.30
578.88	46698.37
579.04	47175.84
579.21	46110.89
579.37	46932.42
579.53	47033.07
579.69	46494.74
579.85	46777.95
580.01	46550.91
580.17	46541.55
580.33	46644.54
580.49	46749.86
580.65	46667.94
580.82	46445.59
580.98	46880.93
581.14	46237.28
581.30	47030.72
581.46	46937.10
581.62	46831.78
581.78	46609.43
581.94	47117.32
582.10	47168.82
582.26	47077.54
582.42	46703.05
582.58	47084.56
582.74	47107.96
582.90	46663.26
583.06	46941.78
583.22	46890.29
583.38	47302.23
583.54	46897.31
583.70	46862.21
583.86	47253.08
584.02	46843.48
584.18	47428.62
584.34	47463.72
584.50	47136.05
584.66	47253.08
584.82	47175.84
584.98	47260.10
585.14	47133.71
585.30	47182.86
585.46	47070.51
585.62	46810.71
585.78	47159.45
585.94	46520.49
586.10	46787.31
586.26	46911.36
586.42	46862.21
586.58	47049.45
586.74	47033.07
586.90	46763.90
587.06	46887.95
587.22	47416.91
587.38	46712.41
587.54	47019.02
587.70	47482.45
587.86	47316.27
588.02	47049.45
588.18	46869.23
588.34	47065.83
588.49	47320.95
588.65	47004.98
588.81	47232.01
588.97	47311.59
589.13	47206.26
589.29	47346.70
589.45	47185.20
589.61	47297.55
589.77	47281.16
589.93	47276.48
590.08	47405.21
