SpectraSuite Data File
++++++++++++++++++++++++++++++++++++
Date: Fri Oct 25 10:44:15 EDT 2013
User: price-jones
Dark Spectrum Present: No
Reference Spectrum Present: No
Number of Sampled Component Spectra: 1
Spectrometers: USB2+H05261
Integration Time (usec): 100000 (USB2+H05261)
Spectra Averaged: 1 (USB2+H05261)
Boxcar Smoothing: 0 (USB2+H05261)
Correct for Electrical Dark: No (USB2+H05261)
Strobe/Lamp Enabled: No (USB2+H05261)
Correct for Detector Non-linearity: No (USB2+H05261)
Correct for Stray Light: No (USB2+H05261)
Number of Pixels in Processed Spectrum: 2048
>>>>>Begin Processed Spectral Data<<<<<
365.73	138.09
365.92	138.09
366.12	138.09
366.32	37.45
366.52	44.47
366.72	77.24
366.91	9.36
367.11	37.45
367.31	30.43
367.51	32.77
367.70	58.51
367.90	65.54
368.10	0.00
368.30	18.72
368.49	72.56
368.69	58.51
368.89	9.36
369.09	51.49
369.28	37.45
369.48	9.36
369.68	79.58
369.87	93.62
370.07	88.94
370.27	147.45
370.47	191.92
370.66	433.00
370.86	381.51
371.06	449.38
371.25	498.53
371.45	418.96
371.65	512.58
371.84	461.09
372.04	468.11
372.24	580.45
372.44	451.72
372.63	519.60
372.83	503.22
373.03	550.03
373.22	538.32
373.42	561.73
373.62	578.11
373.81	526.62
374.01	463.43
374.21	482.15
374.40	550.03
374.60	617.90
374.79	547.69
374.99	575.77
375.19	559.39
375.38	688.12
375.58	599.18
375.78	629.60
375.97	575.77
376.17	594.50
376.37	624.92
376.56	613.22
376.76	559.39
376.95	615.56
377.15	713.86
377.35	657.69
377.54	624.92
377.74	641.31
377.93	596.84
378.13	706.84
378.33	667.05
378.52	655.35
378.72	655.35
378.91	664.71
379.11	575.77
379.31	594.50
379.50	638.97
379.70	667.05
379.89	709.18
380.09	699.82
380.28	627.26
380.48	746.63
380.68	671.73
380.87	723.23
381.07	692.80
381.26	725.57
381.46	720.88
381.65	641.31
381.85	737.27
382.04	676.41
382.24	695.14
382.43	720.88
382.63	669.39
382.83	727.91
383.02	690.46
383.22	706.84
383.41	727.91
383.61	791.10
383.80	814.51
384.00	688.12
384.19	777.06
384.39	713.86
384.58	746.63
384.78	805.14
384.97	800.46
385.17	835.57
385.36	844.93
385.56	798.12
385.75	819.19
385.95	882.38
386.14	861.32
386.34	816.85
386.53	919.83
386.72	809.83
386.92	858.98
387.11	823.87
387.31	866.00
387.50	903.45
387.70	919.83
387.89	877.70
388.09	851.96
388.28	847.27
388.48	833.23
388.67	926.85
388.86	912.81
389.06	863.66
389.25	1008.77
389.45	844.93
389.64	985.37
389.84	812.17
390.03	1064.94
390.22	1041.54
390.42	1013.45
390.61	1011.11
390.81	966.64
391.00	1097.71
391.19	992.39
391.39	1118.78
391.58	1100.05
391.78	983.02
391.97	1011.11
392.16	1025.15
392.36	1086.01
392.55	966.64
392.75	1022.81
392.94	1076.65
393.13	1069.62
393.33	992.39
393.52	999.41
393.71	1064.94
393.91	1102.39
394.10	1132.82
394.29	1188.99
394.49	1146.86
394.68	1224.10
394.88	1181.97
395.07	1179.63
395.26	1181.97
395.46	1088.35
395.65	1277.93
395.84	1299.00
396.04	1203.04
396.23	1174.95
396.42	1177.29
396.62	1188.99
396.81	1261.55
397.00	1291.98
397.19	1235.80
397.39	1228.78
397.58	1327.08
397.77	1308.36
397.97	1310.70
398.16	1411.34
398.35	1472.20
398.55	1483.90
398.74	1605.61
398.93	1516.67
399.12	1409.00
399.32	1565.82
399.51	1483.90
399.70	1526.03
399.90	1537.73
400.09	1638.38
400.28	1657.10
400.47	1572.84
400.67	1626.67
400.86	1600.93
401.05	1664.12
401.24	1652.42
401.44	1652.42
401.63	1591.56
401.82	1694.55
402.01	1760.08
402.21	1774.13
402.40	1722.63
402.59	1729.66
402.78	1806.89
402.97	1781.15
403.17	1846.68
403.36	1816.26
403.55	1732.00
403.74	1764.76
403.93	1849.02
404.13	1994.14
404.32	1830.30
404.51	1806.89
404.70	1923.92
404.89	1844.34
405.09	2017.54
405.28	1914.56
405.47	1872.43
405.66	1961.37
405.85	2001.16
406.05	1937.96
406.24	1970.73
406.43	2076.06
406.62	1994.14
406.81	2125.21
407.00	2073.71
407.20	2026.90
407.39	2036.27
407.58	2073.71
407.77	2122.87
407.96	2146.27
408.15	2176.70
408.34	2186.06
408.54	2328.83
408.73	2218.83
408.92	2214.15
409.11	2373.30
409.30	2314.79
409.49	2232.87
409.68	2253.94
409.87	2246.91
410.07	2289.04
410.26	2429.48
410.45	2455.22
410.64	2345.22
410.83	2541.82
411.02	2445.86
411.21	2576.93
411.40	2553.52
411.59	2612.04
411.78	2534.80
411.98	2597.99
412.17	2600.34
412.36	2649.49
412.55	2729.06
412.74	2679.91
412.93	2754.81
413.12	2761.83
413.31	2820.35
413.50	2885.88
413.69	2878.86
413.88	2869.50
414.07	2860.13
414.26	2979.50
414.45	2956.10
414.64	3005.25
414.83	3117.59
415.02	3005.25
415.22	3019.29
415.41	3075.46
415.60	3143.34
415.79	3178.45
415.98	3258.03
416.17	3260.37
416.36	3318.88
416.55	3293.13
416.74	3328.24
416.93	3204.19
417.12	3239.30
417.31	3260.37
417.50	3431.23
417.69	3407.82
417.88	3421.86
418.07	3435.91
418.26	3517.83
418.45	3574.00
418.64	3583.36
418.83	3691.02
419.02	3543.57
419.21	3662.94
419.39	3672.30
419.58	3517.83
419.77	3428.88
419.96	3599.74
420.15	3676.98
420.34	3644.21
420.53	3730.81
420.72	3824.44
420.91	3744.86
421.10	3908.69
421.29	3875.93
421.48	3789.33
421.67	3812.73
421.86	3918.06
422.05	3786.99
422.24	3716.77
422.43	3868.91
422.61	3859.54
422.80	3929.76
422.99	3976.57
423.18	3887.63
423.37	3948.48
423.56	3946.14
423.75	3882.95
423.94	3859.54
424.13	3686.34
424.32	3728.47
424.50	3992.95
424.69	3908.69
424.88	3941.46
425.07	3899.33
425.26	3796.35
425.45	3784.65
425.64	3955.51
425.83	3992.95
426.01	3934.44
426.20	4030.40
426.39	4058.49
426.58	3974.23
426.77	3892.31
426.96	3964.87
427.15	3932.10
427.33	3969.55
427.52	4002.32
427.71	4051.47
427.90	4067.85
428.09	4100.62
428.28	4145.09
428.46	4098.28
428.65	3953.16
428.84	4138.07
429.03	4290.20
429.22	4063.17
429.40	4229.35
429.59	4109.98
429.78	3922.74
429.97	3950.82
430.16	4074.87
430.34	4077.21
430.53	4131.05
430.72	4112.32
430.91	4252.75
431.10	4294.88
431.28	4454.04
431.47	4500.85
431.66	4479.79
431.85	4535.96
432.03	4582.77
432.22	4545.32
432.41	4610.86
432.60	4683.41
432.79	4748.95
432.97	4758.31
433.16	4664.69
433.35	4599.15
433.54	4606.17
433.72	4629.58
433.91	4624.90
434.10	4781.71
434.28	4784.06
434.47	4741.93
434.66	4828.53
434.85	4968.96
435.03	4950.23
435.22	5062.58
435.41	5125.77
435.59	5041.51
435.78	5158.54
435.97	5095.35
436.16	5041.51
436.34	5235.78
436.53	5034.49
436.72	5125.77
436.90	5001.72
437.09	5193.65
437.28	5090.67
437.46	5282.59
437.65	5228.76
437.84	5172.58
438.02	5083.64
438.21	5137.48
438.40	5163.22
438.58	5336.42
438.77	5425.36
438.96	5408.98
439.14	5497.92
439.33	5584.52
439.52	5659.42
439.70	5589.20
439.89	5614.95
440.08	5605.58
440.26	5741.33
440.45	5860.70
440.63	5872.40
440.82	5928.58
441.01	5844.32
441.19	5991.77
441.38	6073.69
441.57	6143.91
441.75	6167.31
441.94	6237.53
442.12	6406.05
442.31	6338.17
442.50	6291.36
442.68	6265.61
442.87	6368.60
443.05	6361.58
443.24	6553.50
443.43	6246.89
443.61	6469.24
443.80	6586.27
443.98	6253.91
444.17	6305.40
444.35	6626.06
444.54	6658.82
444.73	6480.94
444.91	6459.88
445.10	6441.15
445.28	6494.99
445.47	6345.19
445.65	6253.91
445.84	6534.78
446.02	6574.56
446.21	6520.73
446.39	6459.88
446.58	6665.85
446.77	6710.32
446.95	6513.71
447.14	6684.57
447.32	6902.24
447.51	6604.99
447.69	6462.22
447.88	6656.48
448.06	6668.19
448.25	6883.52
448.43	6703.29
448.62	6693.93
448.80	6640.10
448.99	6902.24
449.17	6803.94
449.36	6764.15
449.54	6850.75
449.73	6965.43
449.91	7162.04
450.10	6920.96
450.28	7155.02
450.46	7302.47
450.65	7124.59
450.83	7225.23
451.02	6977.14
451.20	7176.08
451.39	7075.44
451.57	7225.23
451.76	7215.87
451.94	7176.08
452.13	7269.70
452.31	7157.36
452.49	7157.36
452.68	7105.87
452.86	7059.06
453.05	7258.00
453.23	7414.82
453.42	7218.21
453.60	7400.77
453.78	7494.40
453.97	7363.33
454.15	7485.03
454.34	7304.81
454.52	7510.78
454.70	7456.95
454.89	7508.44
455.07	7447.58
455.26	7693.34
455.44	7758.88
455.62	7669.94
455.81	7747.17
455.99	7791.64
456.17	7784.62
456.36	7733.13
456.54	7960.16
456.73	8025.70
456.91	7754.19
457.09	8009.31
457.28	8304.22
457.46	8079.53
457.64	8159.11
457.83	8070.17
458.01	8002.29
458.19	8142.72
458.38	8191.88
458.56	8187.19
458.74	8280.82
458.93	8259.75
459.11	8446.99
459.29	7978.89
459.48	8435.29
459.66	8212.94
459.84	8496.14
460.03	8557.00
460.21	8372.10
460.39	8641.26
460.57	8458.70
460.76	8430.61
460.94	8564.02
461.12	8650.62
461.31	8549.98
461.49	8627.21
461.67	8526.57
461.85	8870.63
462.04	8816.80
462.22	8854.25
462.40	8889.35
462.59	8980.64
462.77	8957.23
462.95	8872.97
463.13	8877.65
463.32	9081.28
463.50	8828.50
463.68	9011.06
463.86	9008.72
464.05	8828.50
464.23	9088.30
464.41	9170.22
464.59	8894.04
464.78	9025.11
464.96	8971.27
465.14	8821.48
465.32	9090.64
465.50	9198.31
465.69	9369.16
465.87	9193.62
466.05	9107.02
466.23	9160.86
466.41	9102.34
466.60	9387.89
466.78	9172.56
466.96	9165.54
467.14	9303.63
467.32	9247.46
467.51	9448.74
467.69	9085.96
467.87	9366.82
468.05	9535.34
468.23	9364.48
468.41	9324.69
468.60	9516.62
468.78	9577.47
468.96	9392.57
469.14	9760.03
469.32	9717.90
469.50	9266.18
469.69	9870.04
469.87	9790.46
470.05	9659.39
470.23	9827.91
470.41	9961.32
470.59	9589.17
470.77	9930.89
470.95	9877.06
471.14	10122.82
471.32	9956.64
471.50	10197.71
471.68	10281.97
471.86	10160.27
472.04	10441.13
472.22	10623.69
472.40	10246.87
472.58	10471.56
472.77	10293.68
472.95	10480.92
473.13	10932.64
473.31	10537.09
473.49	10450.49
473.67	10553.48
473.85	10794.55
474.03	10878.81
474.21	10801.57
474.39	11260.32
474.57	10930.30
474.75	11117.54
474.93	11297.77
475.12	11084.78
475.30	11325.85
475.48	11143.29
475.66	11276.70
475.84	11150.31
476.02	11346.92
476.20	11353.94
476.38	11520.12
476.56	12016.31
476.74	11908.65
476.92	11803.32
477.10	11770.55
477.28	12140.36
477.46	12133.34
477.64	12161.42
477.82	12168.45
478.00	12697.41
478.18	12449.31
478.36	12507.82
478.54	12676.34
478.72	12802.73
478.90	12725.49
479.08	13043.81
479.26	13221.69
479.44	13055.51
479.62	13193.60
479.80	13242.75
479.98	13366.80
480.16	13551.70
480.34	13596.17
480.52	13668.73
480.70	13799.80
480.88	13481.49
481.06	13827.88
481.24	13778.73
481.41	14281.95
481.59	14202.37
481.77	14422.38
481.95	14349.82
482.13	14698.56
482.31	14738.35
482.49	14710.27
482.67	14913.89
482.85	15059.01
483.03	15140.93
483.21	15297.74
483.39	15527.11
483.57	15295.40
483.74	15372.64
483.92	15566.90
484.10	15325.83
484.28	15791.59
484.46	16208.21
484.64	16255.02
484.82	16002.24
485.00	16475.03
485.18	16578.01
485.35	16472.69
485.53	15988.20
485.71	16159.06
485.89	16397.79
486.07	16159.06
486.25	16498.44
486.43	16578.01
486.61	16971.22
486.78	17018.04
486.96	17334.01
487.14	17727.22
487.32	17703.81
487.50	18209.37
487.68	17893.40
487.85	18417.68
488.03	18684.50
488.21	18237.45
488.39	18623.64
488.57	18450.44
488.75	18773.44
488.92	19140.90
489.10	19281.33
489.28	19330.48
489.46	19723.69
489.64	19534.11
489.81	19906.26
489.99	20177.76
490.17	20152.01
490.35	19995.20
490.53	20027.96
490.70	20285.42
490.88	20306.49
491.06	20748.85
491.24	20538.20
491.41	20896.30
491.59	20908.01
491.77	21025.03
491.95	20978.22
492.13	21120.99
492.30	21493.14
492.48	21603.14
492.66	21764.64
492.84	21717.83
493.01	21830.18
493.19	22029.12
493.37	22272.54
493.54	22331.05
493.72	22579.15
493.90	22590.85
494.08	23049.60
494.25	23192.37
494.43	22656.39
494.61	23625.37
494.79	23335.14
494.96	23639.41
495.14	23358.55
495.32	23777.50
495.49	23812.61
495.67	24011.56
495.85	23770.48
496.02	24119.22
496.20	24657.54
496.38	24645.84
496.55	24510.09
496.73	24931.39
496.91	24879.89
497.09	24734.78
497.26	25291.83
497.44	24849.47
497.62	25144.38
497.79	25729.51
497.97	25216.93
498.14	25219.27
498.32	25830.15
498.50	25778.66
498.67	26022.08
498.85	25635.89
499.03	26005.69
499.20	26431.67
499.38	26274.85
499.56	26139.10
499.73	26508.91
499.91	26567.42
500.08	26616.57
500.26	26270.17
500.44	26759.34
500.61	26661.04
500.79	26579.12
500.97	26714.87
501.14	27096.38
501.32	26773.39
501.49	27077.66
501.67	27236.81
501.84	27098.72
502.02	27426.40
502.20	27611.30
502.37	28247.93
502.55	27826.63
502.72	27700.24
502.90	27948.34
503.07	28091.11
503.25	27971.74
503.43	27906.21
503.60	27950.68
503.78	27962.38
503.95	27938.97
504.13	28041.96
504.30	28701.99
504.48	28561.56
504.65	28961.79
504.83	29034.35
505.01	29270.74
505.18	29071.79
505.36	29268.40
505.53	29380.74
505.71	29755.23
505.88	29715.44
506.06	29209.89
506.23	30146.10
506.41	29460.32
506.58	29415.85
506.76	29790.34
506.93	30113.33
507.11	29530.54
507.28	30520.59
507.46	29727.14
507.63	29895.66
507.81	30382.49
507.98	30228.02
508.16	30551.01
508.33	30754.64
508.50	30785.07
508.68	30759.32
508.85	31360.84
509.03	31028.48
509.20	30981.67
509.38	30993.37
509.55	31033.16
509.73	31351.48
509.90	31197.00
510.08	31173.60
510.25	31578.51
510.42	31503.61
510.60	31714.26
510.77	31936.61
510.95	31721.28
511.12	31875.76
511.30	32079.38
511.47	32353.23
511.64	32268.97
511.82	32751.12
511.99	31964.70
512.17	32479.61
512.34	31871.07
512.51	32500.68
512.69	32788.56
512.86	32397.70
513.04	32699.62
513.21	32655.15
513.38	33111.56
513.56	32699.62
513.73	32629.41
513.90	33383.06
514.08	33249.65
514.25	33247.31
514.43	33165.39
514.60	33418.17
514.77	33476.68
514.95	34117.99
515.12	33500.09
515.29	33799.68
515.47	34040.75
515.64	33935.43
515.81	33553.92
515.99	33448.60
516.16	33696.69
516.33	33591.37
516.51	33708.40
516.68	33174.75
516.85	33275.40
517.03	33589.03
517.20	34026.71
517.37	33951.81
517.54	34249.06
517.72	34141.39
517.89	34085.22
518.06	34347.36
518.24	34541.63
518.41	34181.18
518.58	33930.75
518.75	34595.46
518.93	34801.43
519.10	34513.54
519.27	34986.33
519.45	34953.56
519.62	35117.40
519.79	35154.85
519.96	35283.58
520.14	35716.58
520.31	35131.44
520.48	35456.78
520.65	35758.70
520.83	35786.79
521.00	35625.29
521.17	35791.47
521.34	36020.84
521.52	36287.67
521.69	35810.20
521.86	36456.18
522.03	35775.09
522.20	36217.45
522.38	36360.22
522.55	36318.09
522.72	35901.48
522.89	35995.10
523.07	36400.01
523.24	36718.32
523.41	37097.49
523.58	37144.30
523.75	36954.72
523.92	37413.46
524.10	37324.52
524.27	37287.07
524.44	36928.97
524.61	37411.12
524.78	37689.65
524.96	37607.73
525.13	37439.21
525.30	38078.18
525.47	37722.41
525.64	37406.44
525.81	37675.60
525.98	37926.04
526.16	37532.83
526.33	37258.99
526.50	37783.27
526.67	37305.80
526.84	37537.51
527.01	37612.41
527.18	37570.28
527.36	38045.41
527.53	38328.61
527.70	38398.83
527.87	38380.10
528.04	38218.61
528.21	38539.26
528.38	37975.19
528.55	38775.66
528.72	38778.00
528.89	39117.37
529.07	38941.83
529.24	38494.79
529.41	38770.97
529.58	38953.54
529.75	38642.24
529.92	38880.98
530.09	38937.15
530.26	39159.50
530.43	39276.53
530.60	39131.42
530.77	39328.02
530.94	39229.72
531.11	39084.61
531.28	39168.87
531.46	39484.84
531.63	39768.04
531.80	39735.27
531.97	39435.69
532.14	39431.01
532.31	39012.05
532.48	39131.42
532.65	39599.52
532.82	39423.98
532.99	39386.54
533.16	39718.89
533.33	40362.54
533.50	40016.14
533.67	40495.95
533.84	40257.21
534.01	40381.26
534.18	40191.68
534.35	40556.80
534.52	39742.30
534.69	40762.77
534.86	41102.15
535.03	40325.09
535.20	40870.43
535.37	40907.88
535.54	40996.82
535.71	40669.15
535.88	40818.94
536.05	40701.92
536.22	40744.05
536.38	41064.70
536.55	40587.23
536.72	40423.39
536.89	40502.97
537.06	40577.87
537.23	41392.37
537.40	41029.59
537.57	41242.58
537.74	41336.20
537.91	41322.16
538.08	40865.75
538.25	40961.72
538.42	41134.92
538.59	41722.39
538.75	41134.92
538.92	41254.28
539.09	41387.69
539.26	41434.50
539.43	41275.35
539.60	41280.03
539.77	41413.44
539.94	41497.70
540.11	41254.28
540.28	41436.84
540.44	41619.41
540.61	41675.58
540.78	41542.17
540.95	41139.60
541.12	41579.62
541.29	41462.59
541.46	41497.70
541.62	41804.31
541.79	42223.26
541.96	41680.26
542.13	42120.28
542.30	41673.24
542.47	41830.05
542.63	41902.61
542.80	42185.82
542.97	42389.44
543.14	42897.34
543.31	42649.24
543.48	42401.14
543.64	42887.98
543.81	43093.94
543.98	43192.25
544.15	42604.77
544.32	42773.29
544.48	43447.36
544.65	43180.54
544.82	42728.82
544.99	42682.01
545.16	43065.86
545.32	42738.18
545.49	43606.52
545.66	43388.85
545.83	43086.92
546.00	43421.62
546.16	42920.74
546.33	43037.77
546.50	42574.34
546.67	43573.75
546.83	42642.22
547.00	42906.70
547.17	43122.03
547.34	43318.64
547.50	43379.49
547.67	43786.74
547.84	43569.07
548.00	43585.46
548.17	44032.50
548.34	43548.01
548.51	44421.03
548.67	44034.84
548.84	43711.84
549.01	43653.33
549.18	43662.69
549.34	43643.97
549.51	44240.81
549.68	44311.02
549.84	44055.90
550.01	43981.01
550.18	43992.71
550.34	43845.26
550.51	43882.70
550.68	44025.48
550.84	43482.47
551.01	44526.35
551.18	44315.70
551.34	44004.41
551.51	44889.13
551.68	44505.29
551.84	44397.62
552.01	44254.85
552.18	44369.54
552.34	44030.16
552.51	44364.85
552.68	44282.94
552.84	44533.37
553.01	44369.54
553.18	44706.57
553.34	44624.65
553.51	44233.78
553.67	44509.97
553.84	44626.99
554.01	44666.78
554.17	44954.67
554.34	44769.77
554.51	45059.99
554.67	44725.30
554.84	44715.93
555.00	45017.86
555.17	44823.60
555.33	44648.06
555.50	44580.18
555.67	44648.06
555.83	44898.50
556.00	45088.08
556.16	45151.27
556.33	44776.79
556.50	44603.59
556.66	44893.82
556.83	44652.74
556.99	45603.00
557.16	45296.39
557.32	45034.25
557.49	45228.51
557.65	45095.10
557.82	45155.96
557.98	45170.00
558.15	45198.09
558.32	45088.08
558.48	44872.75
558.65	45368.94
558.81	44884.45
558.98	44945.31
559.14	45216.81
559.31	45050.63
559.47	45263.62
559.64	45621.72
559.80	45694.28
559.97	45382.99
560.13	45471.93
560.30	45584.27
560.46	45689.60
560.63	45336.18
560.79	45251.92
560.96	45565.55
561.12	45727.05
561.29	45567.89
561.45	45186.38
561.61	45294.05
561.78	45137.23
561.94	45418.10
562.11	45518.74
562.27	45244.90
562.44	45474.27
562.60	45787.90
562.77	45427.46
562.93	45507.04
563.10	45720.02
563.26	45095.10
563.42	45787.90
563.59	45254.26
563.75	45888.54
563.92	45893.22
564.08	45872.16
564.24	45755.13
564.41	45769.18
564.57	45666.19
564.74	45698.96
564.90	45509.38
565.07	45794.92
565.23	45647.47
565.39	45904.93
565.56	45918.97
565.72	45329.16
565.88	45619.38
566.05	45436.82
566.21	45710.66
566.38	45755.13
566.54	45532.78
566.70	46057.06
566.87	46129.62
567.03	45434.48
567.19	46469.00
567.36	46270.05
567.52	45958.76
567.68	46031.32
567.85	45801.94
568.01	46164.73
568.17	45815.99
568.34	45628.74
568.50	45925.99
568.66	45853.44
568.83	45808.96
568.99	45717.68
569.15	45490.65
569.32	46157.70
569.48	46003.23
569.64	46314.52
569.81	46223.24
569.97	46050.04
570.13	45703.64
570.30	45343.20
570.46	45940.04
570.62	45619.38
570.78	45853.44
570.95	45888.54
571.11	45766.84
571.27	45813.65
571.43	45507.04
571.60	46052.38
571.76	46096.85
571.92	45659.17
572.09	45940.04
572.25	46141.32
572.41	46316.86
572.57	45949.40
572.74	46305.16
572.90	46401.12
573.06	46153.02
573.22	46143.66
573.38	45558.53
573.55	45886.20
573.71	46270.05
573.87	46607.09
574.03	45935.35
574.20	46232.60
574.36	45984.51
574.52	46007.91
574.68	46148.34
574.84	45860.46
575.01	46408.14
575.17	45722.37
575.33	45883.86
575.49	45853.44
575.65	45888.54
575.82	45837.05
575.98	45811.31
576.14	46492.40
576.30	46597.73
576.46	45970.46
576.62	46113.23
576.79	45867.48
576.95	45876.84
577.11	45963.44
577.27	46017.27
577.43	45928.33
577.59	46155.36
577.75	45986.85
577.92	45787.90
578.08	45778.54
578.24	45904.93
578.40	45862.80
578.56	46103.87
578.72	45991.53
578.88	45925.99
579.04	46309.84
579.21	46396.44
579.37	46375.37
579.53	46614.11
579.69	45717.68
579.85	46265.37
580.01	46672.62
580.17	46050.04
580.33	45998.55
580.49	46419.84
580.65	46190.47
580.82	46298.14
580.98	46092.17
581.14	45940.04
581.30	46384.74
581.46	46153.02
581.62	46216.22
581.78	46209.20
581.94	46759.22
582.10	45717.68
582.26	46106.21
582.42	46033.66
582.58	46473.68
582.74	46195.15
582.90	46195.15
583.06	46527.51
583.22	46665.60
583.38	46424.53
583.54	46323.88
583.70	46513.47
583.86	45923.65
584.02	46054.72
584.18	46529.85
584.34	46089.83
584.50	45956.42
584.66	46218.56
584.82	46131.96
584.98	46412.82
585.14	46323.88
585.30	46150.68
585.46	46705.39
585.62	46319.20
585.78	46216.22
585.94	45645.13
586.10	45865.14
586.26	46199.83
586.42	47012.00
586.58	46164.73
586.74	46188.13
586.90	46108.55
587.06	46031.32
587.22	46384.74
587.38	46066.42
587.54	46358.99
587.70	46354.31
587.86	46024.29
588.02	46183.45
588.18	46361.33
588.34	46129.62
588.49	45830.03
588.65	45434.48
588.81	45287.03
588.97	45806.62
589.13	45804.28
589.29	45399.37
589.45	46003.23
589.61	46302.82
589.77	46330.90
589.93	46419.84
590.08	46293.46
