SpectraSuite Data File
++++++++++++++++++++++++++++++++++++
Date: Fri Oct 25 11:26:18 EDT 2013
User: price-jones
Dark Spectrum Present: No
Reference Spectrum Present: No
Number of Sampled Component Spectra: 1
Spectrometers: USB2+H05261
Integration Time (usec): 100000 (USB2+H05261)
Spectra Averaged: 1 (USB2+H05261)
Boxcar Smoothing: 0 (USB2+H05261)
Correct for Electrical Dark: No (USB2+H05261)
Strobe/Lamp Enabled: No (USB2+H05261)
Correct for Detector Non-linearity: No (USB2+H05261)
Correct for Stray Light: No (USB2+H05261)
Number of Pixels in Processed Spectrum: 2048
>>>>>Begin Processed Spectral Data<<<<<
365.73	182.56
365.92	182.56
366.12	182.56
366.32	229.37
366.52	142.77
366.72	149.79
366.91	112.35
367.11	98.30
367.31	180.22
367.51	133.41
367.70	131.07
367.90	198.95
368.10	119.37
368.30	196.60
368.49	126.39
368.69	191.92
368.89	175.54
369.09	133.41
369.28	177.88
369.48	210.65
369.68	126.39
369.87	168.52
370.07	175.54
370.27	273.84
370.47	311.29
370.66	620.24
370.86	589.82
371.06	650.67
371.25	688.12
371.45	617.90
371.65	671.73
371.84	645.99
372.04	603.86
372.24	674.07
372.44	634.29
372.63	702.16
372.83	798.12
373.03	758.33
373.22	709.18
373.42	901.11
373.62	709.18
373.81	842.59
374.01	744.29
374.21	823.87
374.40	882.38
374.60	805.14
374.79	786.42
374.99	858.98
375.19	828.55
375.38	760.67
375.58	828.55
375.78	821.53
375.97	880.04
376.17	924.51
376.37	903.45
376.56	868.34
376.76	786.42
376.95	851.96
377.15	905.79
377.35	842.59
377.54	915.15
377.74	854.30
377.93	816.85
378.13	961.96
378.33	1025.15
378.52	915.15
378.72	915.15
378.91	966.64
379.11	959.62
379.31	891.74
379.50	938.55
379.70	936.21
379.89	952.60
380.09	1034.52
380.28	1090.69
380.48	961.96
380.68	1020.47
380.87	912.81
381.07	1039.20
381.26	1011.11
381.46	992.39
381.65	1062.60
381.85	1097.71
382.04	1071.97
382.24	1090.69
382.43	1039.20
382.63	1034.52
382.83	1041.54
383.02	1020.47
383.22	1151.54
383.41	1118.78
383.61	1057.92
383.80	1146.86
384.00	1078.99
384.19	1107.07
384.39	1095.37
384.58	1158.57
384.78	1172.61
384.97	1170.27
385.17	1170.27
385.36	1165.59
385.56	1191.33
385.75	1149.20
385.95	1196.01
386.14	1228.78
386.34	1193.67
386.53	1181.97
386.72	1289.64
386.92	1214.74
387.11	1294.32
387.31	1233.46
387.50	1200.69
387.70	1238.14
387.89	1322.40
388.09	1210.06
388.28	1406.66
388.48	1303.68
388.67	1317.72
388.86	1324.74
389.06	1303.68
389.25	1317.72
389.45	1336.45
389.64	1437.09
389.84	1472.20
390.03	1327.08
390.22	1371.55
390.42	1413.68
390.61	1338.79
390.81	1401.98
391.00	1380.92
391.19	1427.73
391.39	1378.58
391.58	1423.05
391.78	1481.56
391.97	1420.71
392.16	1488.58
392.36	1537.73
392.55	1455.81
392.75	1493.26
392.94	1537.73
393.13	1509.65
393.33	1511.99
393.52	1563.48
393.71	1631.35
393.91	1521.35
394.10	1481.56
394.29	1645.40
394.49	1624.33
394.68	1589.22
394.88	1624.33
395.07	1607.95
395.26	1633.69
395.46	1760.08
395.65	1743.70
395.84	1664.12
396.04	1797.53
396.23	1799.87
396.42	1771.79
396.62	1717.95
396.81	1797.53
397.00	1739.02
397.19	1764.76
397.39	1774.13
397.58	1865.41
397.77	1755.40
397.97	1811.57
398.16	1813.92
398.35	1872.43
398.55	1867.75
398.74	1762.42
398.93	1959.03
399.12	1837.32
399.32	1891.15
399.51	1926.26
399.70	1968.39
399.90	1977.75
400.09	1942.64
400.28	1996.48
400.47	2008.18
400.67	2136.91
400.86	2092.44
401.05	2162.66
401.24	2143.93
401.44	2181.38
401.63	2186.06
401.82	2139.25
402.01	2036.27
402.21	2160.31
402.40	2183.72
402.59	2136.91
402.78	2169.68
402.97	2211.81
403.17	2272.66
403.36	2279.68
403.55	2256.28
403.74	2335.85
403.93	2441.18
404.13	2338.20
404.32	2340.54
404.51	2420.11
404.70	2466.92
404.89	2293.72
405.09	2420.11
405.28	2455.22
405.47	2429.48
405.66	2523.10
405.85	2539.48
406.05	2574.59
406.24	2586.29
406.43	2626.08
406.62	2712.68
406.81	2637.78
407.00	2612.04
407.20	2513.74
407.39	2621.40
407.58	2647.15
407.77	2731.41
407.96	2635.44
408.15	2757.15
408.34	2726.72
408.54	2806.30
408.73	2750.13
408.92	2752.47
409.11	2864.82
409.30	2885.88
409.49	2895.24
409.68	2904.60
409.87	2932.69
410.07	2895.24
410.26	2963.12
410.45	2944.39
410.64	2998.23
410.83	3073.12
411.02	3169.09
411.21	3183.13
411.40	3133.98
411.59	3110.57
411.78	3157.38
411.98	3164.40
412.17	3361.01
412.36	3300.16
412.55	3405.48
412.74	3386.76
412.93	3314.20
413.12	3307.18
413.31	3494.42
413.50	3545.91
413.69	3393.78
413.88	3588.04
414.07	3648.90
414.26	3578.68
414.45	3524.85
414.64	3611.45
414.83	3758.90
415.02	3904.01
415.22	3824.44
415.41	3824.44
415.60	3796.35
415.79	3915.72
415.98	3896.99
416.17	3936.78
416.36	3964.87
416.55	3920.40
416.74	4180.20
416.93	4016.36
417.12	4060.83
417.31	3960.19
417.50	4060.83
417.69	4203.60
417.88	4229.35
418.07	4105.30
418.26	4217.65
418.45	4170.83
418.64	4409.57
418.83	4299.56
419.02	4339.35
419.21	4407.23
419.39	4482.13
419.58	4442.34
419.77	4444.68
419.96	4657.67
420.15	4718.52
420.34	4491.49
420.53	4601.49
420.72	4638.94
420.91	4777.03
421.10	4772.35
421.29	4753.63
421.48	4685.75
421.67	4854.27
421.86	4720.86
422.05	4992.36
422.24	4837.89
422.43	4828.53
422.61	4877.68
422.80	4943.21
422.99	4908.10
423.18	4882.36
423.37	4919.81
423.56	4863.63
423.75	4880.02
423.94	4791.08
424.13	4582.77
424.32	4781.71
424.50	5027.47
424.69	5069.60
424.88	4931.51
425.07	4943.21
425.26	4898.74
425.45	4868.31
425.64	5020.45
425.83	4929.17
426.01	4954.91
426.20	5025.13
426.39	4994.70
426.58	4983.00
426.77	4973.64
426.96	5083.64
427.15	5107.05
427.33	5280.25
427.52	5071.94
427.71	5366.85
427.90	5193.65
428.09	5233.44
428.28	5334.08
428.46	5460.47
428.65	5408.98
428.84	5350.46
429.03	5502.60
429.22	5516.64
429.40	5556.43
429.59	5544.73
429.78	5240.46
429.97	5212.37
430.16	5476.85
430.34	5542.39
430.53	5610.26
430.72	5509.62
430.91	5537.71
431.10	5657.07
431.28	5661.76
431.47	5750.70
431.66	5799.85
431.85	5685.16
432.03	5809.21
432.22	6005.81
432.41	5944.96
432.60	5937.94
432.79	5830.27
432.97	6019.86
433.16	6076.03
433.35	5968.37
433.54	6108.80
433.72	6146.25
433.91	6064.33
434.10	6040.92
434.28	5947.30
434.47	5998.79
434.66	6134.54
434.85	6263.27
435.03	6396.68
435.22	6279.66
435.41	6516.05
435.59	6333.49
435.78	6457.54
435.97	6296.04
436.16	6373.28
436.34	6384.98
436.53	6420.09
436.72	6438.81
436.90	6483.28
437.09	6600.31
437.28	6300.72
437.46	6600.31
437.65	6623.72
437.84	6773.51
438.02	6630.74
438.21	6747.76
438.40	6689.25
438.58	7096.50
438.77	6960.75
438.96	6780.53
439.14	7016.93
439.33	7169.06
439.52	6998.20
439.70	7082.46
439.89	7300.13
440.08	7227.57
440.26	7344.60
440.45	7335.24
440.63	7478.01
440.82	7496.74
441.01	7485.03
441.19	7576.31
441.38	7377.37
441.57	7744.83
441.75	7726.11
441.94	7880.58
442.12	7691.00
442.31	8084.21
442.50	7981.23
442.68	8053.78
442.87	8016.33
443.05	7838.45
443.24	8425.93
443.43	8159.11
443.61	8173.15
443.80	8175.49
443.98	8208.26
444.17	7798.66
444.35	8180.17
444.54	8372.10
444.73	8446.99
444.91	8285.50
445.10	8243.37
445.28	8311.24
445.47	8212.94
445.65	8369.76
445.84	8418.91
446.02	8477.42
446.21	8444.65
446.39	8365.07
446.58	8643.60
446.77	8360.39
446.95	8241.03
447.14	8259.75
447.32	8638.92
447.51	8498.49
447.69	8414.23
447.88	8421.25
448.06	8372.10
448.25	8493.80
448.43	8489.12
448.62	8606.15
448.80	8472.74
448.99	8507.85
449.17	8568.70
449.36	8641.26
449.54	8788.71
449.73	8875.31
449.91	8814.46
450.10	8950.21
450.28	8898.72
450.46	8999.36
450.65	9027.45
450.83	8985.32
451.02	9036.81
451.20	9296.61
451.39	8844.88
451.57	9123.41
451.76	9029.79
451.94	9308.31
452.13	9268.52
452.31	9121.07
452.49	8968.93
452.68	9310.65
452.86	9036.81
453.05	9324.69
453.23	9390.23
453.42	9221.71
453.60	9373.85
453.78	9397.25
453.97	9291.93
454.15	9320.01
454.34	9441.72
454.52	9708.54
454.70	9837.27
454.89	9788.12
455.07	9570.45
455.26	9760.03
455.44	9767.06
455.62	9881.74
455.81	9668.75
455.99	9788.12
456.17	10118.14
456.36	10043.24
456.54	10059.62
456.73	10143.88
456.91	10586.24
457.09	10406.02
457.28	10391.98
457.46	10373.25
457.64	10525.39
457.83	10420.06
458.01	10342.83
458.19	10494.96
458.38	10464.54
458.56	10705.61
458.74	10623.69
458.93	10717.31
459.11	10824.98
459.29	10689.23
459.48	10677.52
459.66	10752.42
459.84	10848.38
460.03	10878.81
460.21	10991.16
460.39	10942.00
460.57	11103.50
460.76	10918.60
460.94	11124.57
461.12	11049.67
461.31	11061.37
461.49	11140.95
461.67	11063.71
461.85	11461.60
462.04	11257.98
462.22	11763.53
462.40	11604.38
462.59	11337.56
462.77	11534.16
462.95	11749.49
463.13	11719.06
463.32	11580.97
463.50	11609.06
463.68	11751.83
463.86	11873.54
464.05	11585.65
464.23	11660.55
464.41	11871.20
464.59	11386.71
464.78	12053.76
464.96	11918.01
465.14	11648.85
465.32	11896.94
465.50	12011.63
465.69	12056.10
465.87	12032.69
466.05	11939.07
466.23	12023.33
466.41	12002.27
466.60	12320.58
466.78	12212.92
466.96	11988.22
467.14	12257.39
467.32	12355.69
467.51	12367.39
467.69	12170.79
467.87	12315.90
468.05	12320.58
468.23	12301.86
468.41	12362.71
468.60	12601.44
468.78	12531.23
468.96	12458.67
469.14	12755.92
469.32	12954.87
469.50	12475.06
469.69	12987.63
469.87	13146.79
470.05	13050.83
470.23	12910.40
470.41	13205.30
470.59	13256.79
470.77	13099.98
470.95	13153.81
471.14	13413.61
471.32	12996.99
471.50	13420.63
471.68	13296.58
471.86	13893.42
472.04	13715.54
472.22	13846.61
472.40	13558.72
472.58	13741.29
472.77	13921.51
472.95	14207.05
473.13	14270.25
473.31	14022.15
473.49	13930.87
473.67	13839.59
473.85	14043.21
474.03	14448.13
474.21	14480.89
474.39	14658.78
474.57	14658.78
474.75	15084.75
474.93	15140.93
475.12	14759.42
475.30	15176.03
475.48	14813.25
475.66	15199.44
475.84	15089.43
476.02	15131.56
476.20	15407.75
476.38	15520.09
476.56	15763.51
476.74	15880.53
476.92	15660.52
477.10	15719.04
477.28	15981.18
477.46	15882.88
477.64	15873.51
477.82	16468.01
478.00	16971.22
478.18	16908.03
478.36	17085.91
478.54	17130.38
478.72	16830.79
478.90	17408.90
479.08	17645.30
479.26	17727.22
479.44	17781.05
479.62	17458.06
479.80	17788.07
479.98	18033.83
480.16	18377.89
480.34	18090.00
480.52	18471.51
480.70	18487.89
480.88	18396.61
481.06	18822.59
481.24	18487.89
481.41	18899.83
481.59	19222.82
481.77	19302.40
481.95	19225.16
482.13	19695.61
482.31	19428.79
482.49	20088.82
482.67	19960.09
482.85	20533.52
483.03	20573.31
483.21	20559.27
483.39	20622.46
483.57	20751.19
483.74	21027.37
483.92	21563.36
484.10	21252.06
484.28	21579.74
484.46	21865.28
484.64	21975.29
484.82	21689.74
485.00	22171.89
485.18	22539.36
485.35	22742.99
485.53	22572.13
485.71	22981.72
485.89	23454.51
486.07	23042.57
486.25	23002.78
486.43	23300.03
486.61	23662.82
486.78	23887.51
486.96	23606.64
487.14	24386.04
487.32	24795.64
487.50	24533.50
487.68	24617.75
487.85	24952.45
488.03	25355.02
488.21	25455.67
488.39	25415.88
488.57	25907.39
488.75	25834.83
488.92	26068.89
489.10	26602.53
489.28	26471.46
489.46	26789.77
489.64	26604.87
489.81	27211.07
489.99	27260.22
490.17	27569.17
490.35	27782.16
490.53	28350.91
490.70	28147.28
490.88	27852.38
491.06	28669.22
491.24	28603.69
491.41	29172.44
491.59	29029.66
491.77	29235.63
491.95	29092.86
492.13	29446.28
492.30	29670.97
492.48	29773.95
492.66	29619.48
492.84	29858.21
493.01	30691.44
493.19	30319.30
493.37	30766.34
493.54	30726.55
493.72	31147.85
493.90	31328.07
494.08	31796.18
494.25	31620.64
494.43	32212.79
494.61	31948.31
494.79	32173.00
494.96	32397.70
495.14	32280.67
495.32	32636.43
495.49	33130.28
495.67	33043.68
495.85	33720.10
496.02	33670.95
496.20	33308.16
496.38	33979.90
496.55	33572.64
496.73	34799.08
496.91	34618.86
497.09	34295.87
497.26	34682.06
497.44	34742.91
497.62	35021.44
497.79	35632.32
497.97	35665.08
498.14	35604.23
498.32	35688.49
498.50	36077.02
498.67	36411.71
498.85	36198.73
499.03	36236.17
499.20	36488.95
499.38	36814.29
499.56	36816.63
499.73	36524.06
499.91	37008.55
500.08	37404.10
500.26	37102.17
500.44	37713.05
500.61	37710.71
500.79	37633.47
500.97	37579.64
501.14	38204.56
501.32	38469.04
501.49	38370.74
501.67	38014.98
501.84	38958.22
502.02	38380.10
502.20	38670.33
502.37	38953.54
502.55	38862.26
502.72	39086.95
502.90	39454.41
503.07	39192.27
503.25	39225.04
503.43	39651.02
503.60	39613.57
503.78	39786.77
503.95	40025.50
504.13	40219.77
504.30	40378.92
504.48	40282.96
504.65	40886.82
504.83	41113.85
505.01	41177.04
505.18	40935.97
505.36	41202.79
505.53	40844.69
505.71	41464.93
505.88	41860.48
506.06	41596.00
506.23	41806.65
506.41	41354.93
506.58	41771.54
506.76	41996.23
506.93	42309.86
507.11	42171.77
507.28	42073.47
507.46	42588.39
507.63	42763.93
507.81	42927.77
507.98	42295.82
508.16	42490.09
508.33	43576.09
508.50	43274.16
508.68	43372.47
508.85	43721.21
509.03	43585.46
509.20	43470.77
509.38	43592.48
509.55	43777.38
509.73	44662.10
509.90	43992.71
510.08	44722.96
510.25	44701.89
510.42	44945.31
510.60	44577.84
510.77	45240.21
510.95	45282.34
511.12	44919.56
511.30	44861.05
511.47	45425.12
511.64	45160.64
511.82	45551.51
511.99	45537.46
512.17	45698.96
512.34	45287.03
512.51	46043.02
512.69	46061.74
512.86	45965.78
513.04	46583.68
513.21	46218.56
513.38	46316.86
513.56	46838.80
513.73	46756.88
513.90	46897.31
514.08	46602.41
514.25	46899.65
514.43	47173.50
514.60	47096.26
514.77	47330.31
514.95	47423.93
515.12	47260.10
515.29	47246.05
515.47	47627.56
515.64	47646.29
515.81	47365.42
515.99	47999.71
516.16	48119.07
516.33	48411.64
516.51	48531.01
516.68	48154.18
516.85	48233.76
517.03	48437.39
517.20	48339.08
517.37	48502.92
517.54	48772.08
517.72	48905.49
517.89	48699.53
518.06	48715.91
518.24	48851.66
518.41	48947.62
518.58	48884.43
518.75	49081.03
518.93	49474.24
519.10	49041.24
519.27	49364.24
519.45	49439.14
519.62	49755.11
519.79	49869.79
519.96	49546.80
520.14	49991.50
520.31	50014.91
520.48	50211.51
520.65	50106.19
520.83	50492.38
521.00	50307.47
521.17	50340.24
521.34	50480.67
521.52	50593.02
521.69	50468.97
521.86	50497.06
522.03	50597.70
522.20	51082.19
522.38	50754.52
522.55	51196.88
522.72	50801.33
522.89	51002.61
523.07	51498.81
523.24	51297.52
523.41	51662.64
523.58	51224.96
523.75	51646.26
523.92	51833.50
524.10	51875.63
524.27	51889.68
524.44	51716.48
524.61	52170.54
524.78	52196.29
524.96	51716.48
525.13	52067.56
525.30	52032.45
525.47	52184.58
525.64	52198.63
525.81	52795.46
525.98	52547.37
526.16	52177.56
526.33	52523.96
526.50	52640.99
526.67	52765.04
526.84	52753.33
527.01	52481.83
527.18	52446.72
527.36	52659.71
527.53	52809.51
527.70	53155.91
527.87	53251.87
528.04	52989.73
528.21	53179.31
528.38	53057.60
528.55	53228.46
528.72	53123.14
528.89	53219.10
529.07	53146.54
529.24	53345.49
529.41	53382.94
529.58	53586.57
529.75	53612.31
529.92	53764.45
530.09	53670.82
530.26	53989.14
530.43	53820.62
530.60	53455.50
530.77	53764.45
530.94	53773.81
531.11	53822.96
531.28	53719.98
531.46	53939.99
531.63	54192.76
531.80	53949.35
531.97	54169.36
532.14	54171.70
532.31	54096.80
532.48	54450.22
532.65	54426.82
532.82	54321.49
532.99	54452.56
533.16	54185.74
533.33	54478.31
533.50	54688.96
533.67	54461.93
533.84	54635.13
534.01	54705.34
534.18	54794.28
534.35	54897.27
534.52	54635.13
534.69	54808.32
534.86	54995.57
535.03	54967.48
535.20	55000.25
535.37	55049.40
535.54	55393.46
535.71	55189.83
535.88	55000.25
536.05	55578.36
536.22	55299.84
536.38	55363.03
536.55	55363.03
536.72	55358.35
536.89	55377.08
537.06	55360.69
537.23	55613.47
537.40	55449.63
537.57	55613.47
537.74	55458.99
537.91	55936.46
538.08	55669.64
538.25	55491.76
538.42	55613.47
538.59	55931.78
538.75	55664.96
538.92	55854.54
539.09	55973.91
539.26	55833.48
539.43	55978.59
539.60	56062.85
539.77	55884.97
539.94	56420.95
540.11	56200.94
540.28	56126.05
540.44	56086.26
540.61	56186.90
540.78	56217.33
540.95	56491.17
541.12	56327.33
541.29	56198.60
541.46	56348.40
541.62	56292.22
541.79	56633.94
541.96	56062.85
542.13	56446.70
542.30	56535.64
542.47	56662.03
542.63	56694.80
542.80	56640.96
542.97	56940.55
543.14	57076.30
543.31	56870.34
543.48	56886.72
543.64	57127.80
543.81	57200.35
543.98	56978.00
544.15	57233.12
544.32	57148.86
544.48	57308.02
544.65	57249.50
544.82	57183.97
544.99	56891.40
545.16	57256.53
545.32	57240.14
545.49	57457.81
545.66	57722.29
545.83	57296.31
546.00	57619.31
546.16	57418.02
546.33	57322.06
546.50	57221.42
546.67	57626.33
546.83	57305.68
547.00	57602.92
547.17	57394.62
547.34	57558.45
547.50	57733.99
547.67	57818.25
547.84	57902.51
548.00	58085.07
548.17	58038.26
548.34	58115.50
548.51	57872.09
548.67	57975.07
548.84	58000.82
549.01	58021.88
549.18	58035.92
549.34	58094.44
549.51	58010.18
549.68	58260.62
549.84	58108.48
550.01	58365.94
550.18	58204.44
550.34	57942.30
550.51	58403.39
550.68	58059.33
550.84	58056.99
551.01	58597.65
551.18	58518.07
551.34	58286.36
551.51	58485.31
551.68	58337.85
551.84	58489.99
552.01	58295.72
552.18	58454.88
552.34	58302.74
552.51	58574.25
552.68	58401.05
552.84	58719.36
553.01	58590.63
553.18	58520.41
553.34	58864.47
553.51	58588.29
553.67	58588.29
553.84	58787.24
554.01	58967.46
554.17	58794.26
554.34	58897.24
554.51	58939.37
554.67	58808.30
554.84	58798.94
555.00	58787.24
555.17	58852.77
555.33	59154.70
555.50	58759.15
555.67	58824.68
555.83	58983.84
556.00	58974.48
556.16	59224.92
556.33	59187.47
556.50	58965.12
556.66	59168.74
556.83	58887.88
556.99	59143.00
557.16	59281.09
557.32	59444.93
557.49	59515.14
557.65	59229.60
557.82	59372.37
557.98	59194.49
558.15	59386.41
558.32	59283.43
558.48	59220.23
558.65	59171.08
558.81	59437.90
558.98	59313.86
559.14	59444.93
559.31	59412.16
559.47	59503.44
559.64	59473.01
559.80	59388.75
559.97	59454.29
560.13	59316.20
560.30	59477.69
560.46	59662.60
560.63	59639.19
560.79	59730.47
560.96	59683.66
561.12	59737.49
561.29	59683.66
561.45	59416.84
561.61	59620.47
561.78	59676.64
561.94	59627.49
562.11	59639.19
562.27	59695.36
562.44	59774.94
562.60	59952.82
562.77	60006.65
562.93	59613.44
563.10	59845.16
563.26	59758.56
563.42	60074.53
563.59	59966.87
563.75	59793.67
563.92	59798.35
564.08	60009.00
564.24	60114.32
564.41	59898.99
564.57	60104.96
564.74	59877.93
564.90	59831.11
565.07	59969.21
565.23	59870.90
565.39	59969.21
565.56	60144.75
565.72	59814.73
565.88	59971.55
566.05	60016.02
566.21	59920.05
566.38	60032.40
566.54	60137.72
566.70	60221.98
566.87	60142.41
567.03	59779.62
567.19	60149.43
567.36	60161.13
567.52	60069.85
567.68	60432.63
567.85	60200.92
568.01	60303.90
568.17	60095.60
568.34	60198.58
568.50	59957.50
568.66	60142.41
568.83	60322.63
568.99	60156.45
569.15	60175.17
569.32	60200.92
569.48	60072.19
569.64	60247.73
569.81	60317.95
569.97	59908.35
570.13	60399.86
570.30	60121.34
570.46	60308.58
570.62	60203.26
570.78	60374.12
570.95	60299.22
571.11	60320.29
571.27	60135.38
571.43	60317.95
571.60	60521.57
571.76	60507.53
571.92	60451.36
572.09	60439.65
572.25	60360.08
572.41	60374.12
572.57	60392.84
572.74	60701.79
572.90	60252.41
573.06	60465.40
573.22	60355.39
573.38	60430.29
573.55	60561.36
573.71	60685.41
573.87	60615.19
574.03	60603.49
574.20	60601.15
574.36	60575.40
574.52	60418.59
574.68	60643.28
574.84	60654.98
575.01	60580.09
575.17	60643.28
575.33	60654.98
575.49	60161.13
575.65	60493.49
575.82	60624.56
575.98	60563.70
576.14	60793.07
576.30	60699.45
576.46	60589.45
576.62	60643.28
576.79	60598.81
576.95	60357.74
577.11	60708.82
577.27	60727.54
577.43	60580.09
577.59	60523.91
577.75	60727.54
577.92	60523.91
578.08	60669.03
578.24	60722.86
578.40	60987.34
578.56	60872.65
578.72	60832.86
578.88	60828.18
579.04	60683.07
579.21	60694.77
579.37	60788.39
579.53	60874.99
579.69	60329.65
579.85	60729.88
580.01	60734.56
580.17	60699.45
580.33	60940.53
580.49	60884.36
580.65	61034.15
580.82	60722.86
580.98	60797.76
581.14	60722.86
581.30	60725.20
581.46	60882.02
581.62	60725.20
581.78	60769.67
581.94	60708.82
582.10	60781.37
582.26	60823.50
582.42	60699.45
582.58	60804.78
582.74	60736.90
582.90	60706.47
583.06	60584.77
583.22	60605.83
583.38	60624.56
583.54	60750.94
583.70	60797.76
583.86	60985.00
584.02	60636.26
584.18	60844.57
584.34	60734.56
584.50	60678.39
584.66	60722.86
584.82	60580.09
584.98	61076.28
585.14	60954.57
585.30	60804.78
585.46	60994.36
585.62	60870.31
585.78	61087.98
585.94	60647.96
586.10	60605.83
586.26	61017.77
586.42	60917.12
586.58	60858.61
586.74	60748.60
586.90	60917.12
587.06	60800.10
587.22	60910.10
587.38	60797.76
587.54	61006.06
587.70	61179.26
587.86	61069.26
588.02	60910.10
588.18	61071.60
588.34	60807.12
588.49	60968.61
