SpectraSuite Data File
++++++++++++++++++++++++++++++++++++
Date: Fri Oct 25 11:25:39 EDT 2013
User: price-jones
Dark Spectrum Present: No
Reference Spectrum Present: No
Number of Sampled Component Spectra: 1
Spectrometers: USB2+H05261
Integration Time (usec): 100000 (USB2+H05261)
Spectra Averaged: 1 (USB2+H05261)
Boxcar Smoothing: 0 (USB2+H05261)
Correct for Electrical Dark: No (USB2+H05261)
Strobe/Lamp Enabled: No (USB2+H05261)
Correct for Detector Non-linearity: No (USB2+H05261)
Correct for Stray Light: No (USB2+H05261)
Number of Pixels in Processed Spectrum: 2048
>>>>>Begin Processed Spectral Data<<<<<
365.73	320.65
365.92	320.65
366.12	320.65
366.32	156.82
366.52	142.77
366.72	133.41
366.91	112.35
367.11	166.18
367.31	77.24
367.51	121.71
367.70	196.60
367.90	149.79
368.10	147.45
368.30	142.77
368.49	107.66
368.69	156.82
368.89	133.41
369.09	205.97
369.28	163.84
369.48	205.97
369.68	264.48
369.87	105.32
370.07	196.60
370.27	238.73
370.47	304.27
370.66	610.88
370.86	613.22
371.06	622.58
371.25	662.37
371.45	702.16
371.65	667.05
371.84	631.94
372.04	662.37
372.24	622.58
372.44	664.71
372.63	748.97
372.83	727.91
373.03	765.36
373.22	751.31
373.42	798.12
373.62	781.74
373.81	741.95
374.01	758.33
374.21	880.04
374.40	758.33
374.60	802.80
374.79	809.83
374.99	826.21
375.19	826.21
375.38	826.21
375.58	842.59
375.78	828.55
375.97	863.66
376.17	950.26
376.37	954.94
376.56	933.87
376.76	910.47
376.95	880.04
377.15	837.91
377.35	870.68
377.54	861.32
377.74	889.40
377.93	926.85
378.13	858.98
378.33	905.79
378.52	945.58
378.72	1008.77
378.91	922.17
379.11	889.40
379.31	919.83
379.50	945.58
379.70	931.53
379.89	957.28
380.09	976.00
380.28	947.92
380.48	943.24
380.68	980.68
380.87	936.21
381.07	1020.47
381.26	1050.90
381.46	1041.54
381.65	1013.45
381.85	1034.52
382.04	1144.52
382.24	1107.07
382.43	1107.07
382.63	1043.88
382.83	1118.78
383.02	1041.54
383.22	1142.18
383.41	1074.31
383.61	1076.65
383.80	1107.07
384.00	1135.16
384.19	1109.41
384.39	1116.44
384.58	1090.69
384.78	1130.48
384.97	1104.73
385.17	1128.14
385.36	1130.48
385.56	1160.91
385.75	1060.26
385.95	1142.18
386.14	1247.51
386.34	1203.04
386.53	1261.55
386.72	1083.67
386.92	1247.51
387.11	1151.54
387.31	1226.44
387.50	1156.22
387.70	1196.01
387.89	1284.95
388.09	1306.02
388.28	1177.29
388.48	1249.85
388.67	1294.32
388.86	1249.85
389.06	1306.02
389.25	1352.83
389.45	1355.17
389.64	1343.47
389.84	1383.26
390.03	1334.11
390.22	1406.66
390.42	1284.95
390.61	1357.51
390.81	1420.71
391.00	1366.87
391.19	1444.11
391.39	1420.71
391.58	1416.02
391.78	1453.47
391.97	1500.28
392.16	1596.25
392.36	1558.80
392.55	1495.60
392.75	1600.93
392.94	1593.90
393.13	1607.95
393.33	1582.20
393.52	1537.73
393.71	1502.62
393.91	1640.72
394.10	1453.47
394.29	1565.82
394.49	1603.27
394.68	1710.93
394.88	1589.22
395.07	1633.69
395.26	1706.25
395.46	1678.16
395.65	1764.76
395.84	1631.35
396.04	1877.11
396.23	1717.95
396.42	1741.36
396.62	1724.97
396.81	1830.30
397.00	1811.57
397.19	1748.38
397.39	1811.57
397.58	1760.08
397.77	1811.57
397.97	1820.94
398.16	1717.95
398.35	1849.02
398.55	1790.51
398.74	1980.09
398.93	2022.22
399.12	1888.81
399.32	1872.43
399.51	1891.15
399.70	1973.07
399.90	1991.80
400.09	2043.29
400.28	2022.22
400.47	2080.74
400.67	1980.09
400.86	2076.06
401.05	2045.63
401.24	2033.93
401.44	2017.54
401.63	2106.48
401.82	2209.47
402.01	2104.14
402.21	2216.49
402.40	2139.25
402.59	2122.87
402.78	2202.44
402.97	2141.59
403.17	2286.70
403.36	2253.94
403.55	2431.82
403.74	2408.41
403.93	2331.17
404.13	2382.67
404.32	2415.43
404.51	2310.11
404.70	2338.20
404.89	2363.94
405.09	2438.84
405.28	2420.11
405.47	2363.94
405.66	2485.65
405.85	2509.05
406.05	2434.16
406.24	2567.57
406.43	2457.56
406.62	2635.44
406.81	2616.72
407.00	2473.95
407.20	2574.59
407.39	2614.38
407.58	2647.15
407.77	2743.11
407.96	2715.02
408.15	2878.86
408.34	2710.34
408.54	2867.16
408.73	2813.32
408.92	2855.45
409.11	2897.58
409.30	2949.08
409.49	2874.18
409.68	3014.61
409.87	2848.43
410.07	2965.46
410.26	2981.84
410.45	2960.78
410.64	2825.03
410.83	3131.64
411.02	3227.60
411.21	3220.58
411.40	2944.39
411.59	3124.62
411.78	3082.49
411.98	3192.49
412.17	3180.79
412.36	3206.53
412.55	3290.79
412.74	3365.69
412.93	3517.83
413.12	3407.82
413.31	3604.42
413.50	3421.86
413.69	3372.71
413.88	3684.00
414.07	3609.11
414.26	3595.06
414.45	3698.05
414.64	3574.00
414.83	3740.18
415.02	3794.01
415.22	3871.25
415.41	3796.35
415.60	3775.28
415.79	3962.53
415.98	3866.56
416.17	3955.51
416.36	3939.12
416.55	3913.38
416.74	4035.08
416.93	3988.27
417.12	4241.05
417.31	4191.90
417.50	4175.52
417.69	4248.07
417.88	4140.41
418.07	4077.21
418.26	4269.14
418.45	4280.84
418.64	4430.63
418.83	4334.67
419.02	4451.70
419.21	4510.21
419.39	4695.11
419.58	4524.26
419.77	4271.48
419.96	4568.73
420.15	4648.30
420.34	4641.28
420.53	4547.66
420.72	4767.67
420.91	4777.03
421.10	4634.26
421.29	4779.37
421.48	4631.92
421.67	4842.57
421.86	4791.08
422.05	4954.91
422.24	4711.50
422.43	4915.12
422.61	4828.53
422.80	4936.19
422.99	4856.61
423.18	4833.21
423.37	5069.60
423.56	4873.00
423.75	4884.70
423.94	4880.02
424.13	4531.28
424.32	4819.16
424.50	4854.27
424.69	5167.90
424.88	5020.45
425.07	4978.32
425.26	4908.10
425.45	4943.21
425.64	4997.04
425.83	4987.68
426.01	4978.32
426.20	5048.54
426.39	5057.90
426.58	5221.74
426.77	5163.22
426.96	5170.24
427.15	5008.75
427.33	5048.54
427.52	5139.82
427.71	5308.34
427.90	5228.76
428.09	5109.39
428.28	5390.25
428.46	5275.57
428.65	5310.68
428.84	5305.99
429.03	5589.20
429.22	5366.85
429.40	5378.55
429.59	5458.13
429.78	5453.45
429.97	5069.60
430.16	5533.03
430.34	5563.45
430.53	5664.10
430.72	5561.11
430.91	5521.32
431.10	5589.20
431.28	5743.67
431.47	5760.06
431.66	5839.64
431.85	5837.30
432.03	5968.37
432.22	5973.05
432.41	5905.17
432.60	6005.81
432.79	5963.68
432.97	5933.26
433.16	5933.26
433.35	5977.73
433.54	5949.64
433.72	6031.56
433.91	5930.92
434.10	6005.81
434.28	6012.84
434.47	6197.74
434.66	6228.17
434.85	6246.89
435.03	6338.17
435.22	6160.29
435.41	6293.70
435.59	6176.67
435.78	6377.96
435.97	6382.64
436.16	6579.25
436.34	6403.71
436.53	6420.09
436.72	6656.48
436.90	6436.47
437.09	6642.44
437.28	6469.24
437.46	6637.76
437.65	6487.96
437.84	6895.22
438.02	6754.79
438.21	6745.42
438.40	6588.61
438.58	7012.24
438.77	7143.32
438.96	6757.13
439.14	7066.08
439.33	7220.55
439.52	7283.75
439.70	7253.32
439.89	7302.47
440.08	7220.55
440.26	7286.09
440.45	7356.30
440.63	7302.47
440.82	7700.36
441.01	7562.27
441.19	7625.47
441.38	7660.57
441.57	7871.22
441.75	7714.41
441.94	7859.52
442.12	7967.18
442.31	7854.84
442.50	8074.85
442.68	7831.43
442.87	8056.12
443.05	7957.82
443.24	8299.54
443.43	8234.00
443.61	8285.50
443.80	8411.89
443.98	8044.42
444.17	7962.50
444.35	8131.02
444.54	8175.49
444.73	8245.71
444.91	8234.00
445.10	8287.84
445.28	8229.32
445.47	8126.34
445.65	8404.86
445.84	8306.56
446.02	8407.20
446.21	8189.53
446.39	8315.92
446.58	8454.02
446.77	8428.27
446.95	8226.98
447.14	8266.77
447.32	8676.37
447.51	8514.87
447.69	8475.08
447.88	8461.04
448.06	8362.73
448.25	8477.42
448.43	8622.53
448.62	8484.44
448.80	8435.29
448.99	8723.18
449.17	8643.60
449.36	8760.63
449.54	8762.97
449.73	8961.91
449.91	8997.02
450.10	9013.40
450.28	9118.73
450.46	9034.47
450.65	8798.07
450.83	9100.00
451.02	8938.51
451.20	9270.86
451.39	9085.96
451.57	9158.52
451.76	9025.11
451.94	9149.15
452.13	9067.24
452.31	9385.55
452.49	9224.05
452.68	9184.26
452.86	9322.35
453.05	9474.49
453.23	9404.27
453.42	9191.28
453.60	9247.46
453.78	9455.76
453.97	9530.66
454.15	9385.55
454.34	9448.74
454.52	9736.63
454.70	9542.36
454.89	9668.75
455.07	9617.26
455.26	9596.20
455.44	9944.94
455.62	9949.62
455.81	9937.91
455.99	10036.22
456.17	10012.81
456.36	10057.28
456.54	10101.75
456.73	10298.36
456.91	10415.38
457.09	10246.87
457.28	10544.11
457.46	10349.85
457.64	10677.52
457.83	10347.51
458.01	10139.20
458.19	10717.31
458.38	10445.81
458.56	10532.41
458.74	10593.26
458.93	10583.90
459.11	10562.84
459.29	10710.29
459.48	10820.30
459.66	10665.82
459.84	10846.04
460.03	11035.63
460.21	11143.29
460.39	10918.60
460.57	10663.48
460.76	11133.93
460.94	10958.39
461.12	11365.64
461.31	11075.42
461.49	11103.50
461.67	11283.72
461.85	11410.11
462.04	11164.36
462.22	11838.43
462.40	11609.06
462.59	11566.93
462.77	11494.37
462.95	11538.84
463.13	11375.00
463.32	11552.88
463.50	11662.89
463.68	11705.02
463.86	11910.99
464.05	11506.07
464.23	11754.17
464.41	11939.07
464.59	11503.73
464.78	11981.20
464.96	11772.89
465.14	11585.65
465.32	12093.55
465.50	12100.57
465.69	12320.58
465.87	11819.71
466.05	12049.08
466.23	12177.81
466.41	12170.79
466.60	12201.21
466.78	12119.29
466.96	12226.96
467.14	12042.06
467.32	12191.85
467.51	12376.75
467.69	11967.16
467.87	12358.03
468.05	12549.95
468.23	12461.01
468.41	12362.71
468.60	12716.13
468.78	12500.80
468.96	12409.52
469.14	12751.24
469.32	13064.87
469.50	12723.15
469.69	12894.01
469.87	12903.37
470.05	12833.16
470.23	13195.94
470.41	13294.24
470.59	13296.58
470.77	12947.84
470.95	13392.55
471.14	13600.85
471.32	13139.77
471.50	13469.78
471.68	13502.55
471.86	13418.29
472.04	13631.28
472.22	14141.52
472.40	13631.28
472.58	13914.48
472.77	14085.34
472.95	14029.17
473.13	14462.17
473.31	14059.60
473.49	13902.78
473.67	14183.65
473.85	14286.63
474.03	14630.69
474.21	14516.00
474.39	14675.16
474.57	14665.80
474.75	14881.13
474.93	14871.76
475.12	14874.10
475.30	15183.06
475.48	14836.66
475.66	15166.67
475.84	15164.33
476.02	15339.87
476.20	15522.43
476.38	15775.21
476.56	15880.53
476.74	15763.51
476.92	15847.77
477.10	15777.55
477.28	16142.67
477.46	16133.31
477.64	16198.85
477.82	16264.38
478.00	16849.52
478.18	16723.13
478.36	16659.93
478.54	16996.97
478.72	17022.72
478.90	17380.82
479.08	17200.60
479.26	17446.35
479.44	17378.48
479.62	17778.71
479.80	17797.43
479.98	17996.38
480.16	18466.83
480.34	18398.95
480.52	18520.66
480.70	18902.17
480.88	18553.43
481.06	18478.53
481.24	18504.28
481.41	18934.93
481.59	19370.27
481.77	19550.49
481.95	19555.18
482.13	19599.65
482.31	19454.53
482.49	20320.53
482.67	20140.31
482.85	20259.68
483.03	20648.21
483.21	20746.51
483.39	21167.80
483.57	20615.44
483.74	21275.47
483.92	21432.29
484.10	21191.21
484.28	21769.32
484.46	21919.12
484.64	22494.89
484.82	22267.86
485.00	21982.31
485.18	22752.35
485.35	22909.16
485.53	22913.84
485.71	22637.66
485.89	23454.51
486.07	23117.47
486.25	23445.15
486.43	23440.47
486.61	23683.88
486.78	24278.38
486.96	24290.08
487.14	24512.43
487.32	24603.71
487.50	24847.13
487.68	24912.66
487.85	25401.83
488.03	25429.92
488.21	25996.33
488.39	25858.24
488.57	25853.56
488.75	26099.31
488.92	26305.28
489.10	26342.73
489.28	26885.73
489.46	26941.91
489.64	26967.65
489.81	27370.22
489.99	27290.65
490.17	27559.81
490.35	28098.13
490.53	28503.04
490.70	28308.78
490.88	27777.48
491.06	28797.95
491.24	28671.56
491.41	28891.57
491.59	29244.99
491.77	29090.52
491.95	29380.74
492.13	29593.73
492.30	29914.39
492.48	30096.95
492.66	29830.13
492.84	30569.74
493.01	30595.48
493.19	30696.13
493.37	31061.25
493.54	31077.63
493.72	31302.32
493.90	31412.33
494.08	31718.94
494.25	31646.38
494.43	31782.13
494.61	32346.20
494.79	32067.68
494.96	32364.93
495.14	32453.87
495.32	32648.13
495.49	33385.40
495.67	33090.49
495.85	33212.20
496.02	34036.07
496.20	33757.55
496.38	33750.52
496.55	33525.83
496.73	34623.54
496.91	34703.12
497.09	34728.87
497.26	34756.96
497.44	34787.38
497.62	34981.65
497.79	35552.74
497.97	35536.35
498.14	35505.93
498.32	35887.43
498.50	35901.48
498.67	36465.55
498.85	36055.95
499.03	36510.02
499.20	36601.30
499.38	37013.23
499.56	37184.09
499.73	36926.63
499.91	36996.85
500.08	37490.70
500.26	37148.98
500.44	37607.73
500.61	37914.34
500.79	37579.64
500.97	37834.76
501.14	38534.58
501.32	38604.80
501.49	38073.49
501.67	38637.56
501.84	38401.17
502.02	38981.62
502.20	38597.77
502.37	38792.04
502.55	38958.22
502.72	39147.80
502.90	39690.80
503.07	39009.71
503.25	39533.99
503.43	39271.85
503.60	39988.05
503.78	39995.07
503.95	39992.73
504.13	40048.91
504.30	40381.26
504.48	39896.77
504.65	40928.95
504.83	40535.74
505.01	41116.19
505.18	40818.94
505.36	41317.48
505.53	41209.81
505.71	41340.88
505.88	41469.61
506.06	41638.13
506.23	41804.31
506.41	41867.50
506.58	41900.27
506.76	41904.95
506.93	42323.91
507.11	41748.14
507.28	42340.29
507.46	42375.40
507.63	42813.08
507.81	43201.61
507.98	42679.67
508.16	42855.21
508.33	43416.94
508.50	43508.22
508.68	43461.41
508.85	43814.83
509.03	43456.73
509.20	43831.21
509.38	43728.23
509.55	44058.24
509.73	44404.64
509.90	44650.40
510.08	44301.66
510.25	44252.51
510.42	44458.48
510.60	44732.32
510.77	45172.34
510.95	45319.79
511.12	44884.45
511.30	45244.90
511.47	45184.04
511.64	45509.38
511.82	45759.81
511.99	45223.83
512.17	45858.12
512.34	46028.98
512.51	46005.57
512.69	46281.75
512.86	46225.58
513.04	46478.36
513.21	46241.96
513.38	46745.18
513.56	46955.83
513.73	46653.90
513.90	46791.99
514.08	46546.23
514.25	47594.79
514.43	47365.42
514.60	47215.63
514.77	47262.44
514.95	47812.46
515.12	47562.03
515.29	47379.46
515.47	47889.70
515.64	47739.91
515.81	47559.69
515.99	47739.91
516.16	47959.92
516.33	48275.89
516.51	48603.56
516.68	48273.55
516.85	48254.82
517.03	48498.24
517.20	48746.34
517.37	48914.86
517.54	48612.93
517.72	48919.54
517.89	48582.50
518.06	49024.86
518.24	49034.22
518.41	48596.54
518.58	48889.11
518.75	49127.84
518.93	49169.97
519.10	49265.94
519.27	49509.35
519.45	49846.39
519.62	49986.82
519.79	49958.73
519.96	49645.10
520.14	50300.45
520.31	50054.70
520.48	50124.91
520.65	50047.68
520.83	50246.62
521.00	50663.24
521.17	50501.74
521.34	50686.64
521.52	50735.79
521.69	50946.44
521.86	50918.35
522.03	50960.48
522.20	51215.60
522.38	51058.79
522.55	51168.79
522.72	51199.22
522.89	51133.68
523.07	51428.59
523.24	51337.31
523.41	51412.21
523.58	51323.27
523.75	51870.95
523.92	51192.20
524.10	51573.70
524.27	52088.62
524.44	52198.63
524.61	52231.40
524.78	51957.55
524.96	51849.89
525.13	52140.11
525.30	52353.10
525.47	52289.91
525.64	52437.36
525.81	52266.50
525.98	52252.46
526.16	52596.52
526.33	52629.29
526.50	52746.31
526.67	52493.54
526.84	53020.16
527.01	52994.41
527.18	52640.99
527.36	52746.31
527.53	52645.67
527.70	53467.20
527.87	53071.65
528.04	52917.17
528.21	53029.52
528.38	53228.46
528.55	53584.22
528.72	52980.37
528.89	53176.97
529.07	53212.08
529.24	53092.71
529.41	53499.97
529.58	53275.27
529.75	53272.93
529.92	53724.66
530.09	53916.58
530.26	53815.94
530.43	53862.75
530.60	53584.22
530.77	53755.08
530.94	54162.34
531.11	53853.39
531.28	53916.58
531.46	54017.22
531.63	54197.44
531.80	54356.60
531.97	54422.14
532.14	54670.23
532.31	54152.97
532.48	54281.70
532.65	54309.79
532.82	54436.18
532.99	54447.88
533.16	54445.54
533.33	54820.03
533.50	54953.44
533.67	54738.11
533.84	54424.48
534.01	54693.64
534.18	54560.23
534.35	55110.25
534.52	54946.42
534.69	55103.23
534.86	55175.79
535.03	55150.04
535.20	54918.33
535.37	55367.71
535.54	55313.88
535.71	55091.53
535.88	55407.50
536.05	55257.71
536.22	55423.89
536.38	55688.37
536.55	55599.43
536.72	55573.68
536.89	55374.73
537.06	55487.08
537.23	55407.50
537.40	55463.67
537.57	55667.30
537.74	55814.76
537.91	55875.61
538.08	55873.27
538.25	55515.17
538.42	55657.94
538.59	55901.36
538.75	55758.58
538.92	55821.78
539.09	55875.61
539.26	56055.83
539.43	56062.85
539.60	56299.25
539.77	56172.86
539.94	56353.08
540.11	56245.41
540.28	56397.55
540.44	56275.84
540.61	56320.31
540.78	56432.66
540.95	56324.99
541.12	56479.47
541.29	56294.56
541.46	56392.87
541.62	56713.52
541.79	56397.55
541.96	56214.99
542.13	56435.00
542.30	56706.50
542.47	56655.01
542.63	56830.55
542.80	56779.06
542.97	56935.87
543.14	57277.59
543.31	56973.32
543.48	57148.86
543.64	57279.93
543.81	57230.78
543.98	57200.35
544.15	57254.18
544.32	57343.12
544.48	57289.29
544.65	57298.65
544.82	57326.74
544.99	57020.13
545.16	57361.85
545.32	57488.24
545.49	57560.79
545.66	57579.52
545.83	57422.70
546.00	57771.44
546.16	57312.70
546.33	57305.68
546.50	57301.00
546.67	57776.12
546.83	57483.56
547.00	57567.82
547.17	57462.49
547.34	57656.76
547.50	57659.10
547.67	57794.85
547.84	57911.88
548.00	57979.75
548.17	58274.66
548.34	57946.98
548.51	58176.36
548.67	58078.05
548.84	58131.89
549.01	58089.76
549.18	57958.69
549.34	58129.54
549.51	58166.99
549.68	58265.30
549.84	58192.74
550.01	58307.43
550.18	58071.03
550.34	58499.35
550.51	58475.94
550.68	58408.07
550.84	58171.67
551.01	58581.27
551.18	58539.14
551.34	58298.06
551.51	58578.93
551.68	58501.69
551.84	58534.46
552.01	58398.71
552.18	58642.12
552.34	58494.67
552.51	58665.53
552.68	58621.06
552.84	58412.75
553.01	58965.12
553.18	58635.10
553.34	58808.30
553.51	58571.91
553.67	58707.66
553.84	58845.75
554.01	58714.68
554.17	58845.75
554.34	58754.47
554.51	58789.58
554.67	59025.97
554.84	58677.23
555.00	58934.69
555.17	58812.98
555.33	58908.94
555.50	58918.31
555.67	58927.67
555.83	58827.02
556.00	59182.79
556.16	59150.02
556.33	59150.02
556.50	59084.48
556.66	59292.79
556.83	58876.18
556.99	59370.03
557.16	59337.26
557.32	59437.90
557.49	59351.30
557.65	59208.53
557.82	59365.35
557.98	59384.07
558.15	59374.71
558.32	59327.90
558.48	59098.53
558.65	59501.10
558.81	59346.62
558.98	59346.62
559.14	59533.87
559.31	59494.08
559.47	59538.55
559.64	59590.04
559.80	59714.09
559.97	59451.95
560.13	59700.04
560.30	59718.77
560.46	59655.57
560.63	59772.60
560.79	59590.04
560.96	59728.13
561.12	59564.29
561.29	59559.61
561.45	59779.62
561.61	59845.16
561.78	59725.79
561.94	59803.03
562.11	59693.02
562.27	59812.39
562.44	59767.92
562.60	59763.24
562.77	59931.76
562.93	59547.91
563.10	59983.25
563.26	59777.28
563.42	60018.36
563.59	59976.23
563.75	59920.05
563.92	59999.63
564.08	59934.10
564.24	60058.15
564.41	60111.98
564.57	60069.85
564.74	59887.29
564.90	60158.79
565.07	59873.24
565.23	60097.94
565.39	60039.42
565.56	60147.09
565.72	60104.96
565.88	60322.63
566.05	59950.48
566.21	60055.81
566.38	60020.70
566.54	60048.78
566.70	60317.95
566.87	60221.98
567.03	60055.81
567.19	60247.73
567.36	60189.22
567.52	60285.18
567.68	60516.89
567.85	60133.04
568.01	60247.73
568.17	60313.26
568.34	60390.50
568.50	60367.10
568.66	60369.44
568.83	60292.20
568.99	60032.40
569.15	60346.03
569.32	60339.01
569.48	60282.84
569.64	60301.56
569.81	60355.39
569.97	60214.96
570.13	60294.54
570.30	60097.94
570.46	60420.93
570.62	60369.44
570.78	60212.62
570.95	60238.37
571.11	60650.30
571.27	60563.70
571.43	60423.27
571.60	60680.73
571.76	60406.89
571.92	60554.34
572.09	60430.29
572.25	60523.91
572.41	60299.22
572.57	60460.72
572.74	60547.32
572.90	60430.29
573.06	60584.77
573.22	60544.98
573.38	60514.55
573.55	60317.95
573.71	60940.53
573.87	60423.27
574.03	60444.33
574.20	60699.45
574.36	60486.46
574.52	60699.45
574.68	60713.50
574.84	60711.16
575.01	60673.71
575.17	60692.43
575.33	60554.34
575.49	60610.51
575.65	60552.00
575.82	60580.09
575.98	60699.45
576.14	60757.97
576.30	60732.22
576.46	60549.66
576.62	60533.28
576.79	60355.39
576.95	60575.40
577.11	60793.07
577.27	60793.07
577.43	60678.39
577.59	60701.79
577.75	60540.30
577.92	60336.67
578.08	60807.12
578.24	60706.47
578.40	60903.08
578.56	60851.59
578.72	60757.97
578.88	60882.02
579.04	60940.53
579.21	60783.71
579.37	60970.96
579.53	60942.87
579.69	60800.10
579.85	60701.79
580.01	60739.24
580.17	60669.03
580.33	60961.59
580.49	60912.44
580.65	60779.03
580.82	60781.37
580.98	60650.30
581.14	60781.37
581.30	60839.89
581.46	60877.33
581.62	61017.77
581.78	60757.97
581.94	60933.51
582.10	60870.31
582.26	60690.09
582.42	60835.20
582.58	60846.91
582.74	60975.64
582.90	60694.77
583.06	60736.90
583.22	60837.54
583.38	60896.06
583.54	60856.27
583.70	60849.25
583.86	61034.15
584.02	60720.52
584.18	60961.59
584.34	60818.82
584.50	60814.14
584.66	60755.63
584.82	60839.89
584.98	61183.94
585.14	61036.49
585.30	60924.14
585.46	60959.25
585.62	60900.74
585.78	61013.08
585.94	60722.86
586.10	61062.24
586.26	61015.43
586.42	60989.68
586.58	61134.79
586.74	60837.54
586.90	60921.80
587.06	60760.31
587.22	60910.10
587.38	60912.44
587.54	61085.64
587.70	61282.25
587.86	60907.76
588.02	60989.68
588.18	61197.99
588.34	60985.00
588.49	61073.94
