SpectraSuite Data File
++++++++++++++++++++++++++++++++++++
Date: Fri Oct 25 10:43:42 EDT 2013
User: price-jones
Dark Spectrum Present: No
Reference Spectrum Present: No
Number of Sampled Component Spectra: 1
Spectrometers: USB2+H05261
Integration Time (usec): 100000 (USB2+H05261)
Spectra Averaged: 1 (USB2+H05261)
Boxcar Smoothing: 0 (USB2+H05261)
Correct for Electrical Dark: No (USB2+H05261)
Strobe/Lamp Enabled: No (USB2+H05261)
Correct for Detector Non-linearity: No (USB2+H05261)
Correct for Stray Light: No (USB2+H05261)
Number of Pixels in Processed Spectrum: 2048
>>>>>Begin Processed Spectral Data<<<<<
365.73	117.03
365.92	117.03
366.12	117.03
366.32	42.13
366.52	0.00
366.72	58.51
366.91	4.68
367.11	0.00
367.31	65.54
367.51	16.38
367.70	65.54
367.90	18.72
368.10	18.72
368.30	0.00
368.49	67.88
368.69	91.28
368.89	93.62
369.09	4.68
369.28	0.00
369.48	60.85
369.68	53.83
369.87	107.66
370.07	7.02
370.27	135.75
370.47	180.22
370.66	325.33
370.86	407.25
371.06	458.74
371.25	458.74
371.45	451.72
371.65	461.09
371.84	421.30
372.04	421.30
372.24	463.43
372.44	444.70
372.63	477.47
372.83	505.56
373.03	561.73
373.22	484.49
373.42	535.98
373.62	477.47
373.81	533.64
374.01	582.79
374.21	601.52
374.40	526.62
374.60	617.90
374.79	564.07
374.99	596.84
375.19	587.47
375.38	608.54
375.58	650.67
375.78	594.50
375.97	580.45
376.17	608.54
376.37	512.58
376.56	580.45
376.76	552.37
376.95	641.31
377.15	566.41
377.35	713.86
377.54	634.29
377.74	667.05
377.93	645.99
378.13	678.76
378.33	650.67
378.52	685.78
378.72	704.50
378.91	629.60
379.11	592.16
379.31	624.92
379.50	692.80
379.70	739.61
379.89	657.69
380.09	760.67
380.28	763.01
380.48	681.10
380.68	653.01
380.87	711.52
381.07	723.23
381.26	791.10
381.46	737.27
381.65	648.33
381.85	702.16
382.04	758.33
382.24	795.78
382.43	683.44
382.63	690.46
382.83	608.54
383.02	702.16
383.22	753.65
383.41	641.31
383.61	765.36
383.80	774.72
384.00	774.72
384.19	809.83
384.39	840.25
384.58	697.48
384.78	772.38
384.97	807.48
385.17	805.14
385.36	807.48
385.56	753.65
385.75	802.80
385.95	798.12
386.14	807.48
386.34	767.70
386.53	737.27
386.72	800.46
386.92	866.00
387.11	849.61
387.31	898.77
387.50	910.47
387.70	835.57
387.89	971.32
388.09	945.58
388.28	898.77
388.48	851.96
388.67	917.49
388.86	833.23
389.06	1008.77
389.25	926.85
389.45	896.43
389.64	952.60
389.84	933.87
390.03	976.00
390.22	1043.88
390.42	1004.09
390.61	1086.01
390.81	1118.78
391.00	1064.94
391.19	1071.97
391.39	1041.54
391.58	1029.84
391.78	943.24
391.97	1060.26
392.16	1034.52
392.36	1048.56
392.55	1011.11
392.75	1095.37
392.94	1011.11
393.13	945.58
393.33	971.32
393.52	1032.18
393.71	1008.77
393.91	1071.97
394.10	1086.01
394.29	1177.29
394.49	1193.67
394.68	1240.48
394.88	1181.97
395.07	1359.85
395.26	1256.87
395.46	1294.32
395.65	1235.80
395.84	1188.99
396.04	1228.78
396.23	1116.44
396.42	1221.76
396.62	1107.07
396.81	1228.78
397.00	1301.34
397.19	1273.25
397.39	1320.06
397.58	1416.02
397.77	1329.42
397.97	1469.86
398.16	1448.79
398.35	1493.26
398.55	1420.71
398.74	1474.54
398.93	1547.09
399.12	1493.26
399.32	1530.71
399.51	1437.09
399.70	1638.38
399.90	1572.84
400.09	1568.16
400.28	1591.56
400.47	1575.18
400.67	1713.27
400.86	1699.23
401.05	1659.44
401.24	1664.12
401.44	1746.04
401.63	1832.64
401.82	1689.87
402.01	1680.50
402.21	1767.10
402.40	1853.70
402.59	1727.32
402.78	1767.10
402.97	1830.30
403.17	1809.23
403.36	1853.70
403.55	1781.15
403.74	1886.47
403.93	1834.98
404.13	1851.36
404.32	1900.52
404.51	1839.66
404.70	1996.48
404.89	2083.08
405.09	1973.07
405.28	1949.67
405.47	1949.67
405.66	1940.30
405.85	1952.01
406.05	1998.82
406.24	2101.80
406.43	2054.99
406.62	2076.06
406.81	2127.55
407.00	2141.59
407.20	2115.84
407.39	2157.97
407.58	2225.85
407.77	2155.63
407.96	2214.15
408.15	2331.17
408.34	2218.83
408.54	2284.36
408.73	2258.62
408.92	2289.04
409.11	2246.91
409.30	2387.35
409.49	2275.00
409.68	2275.00
409.87	2204.78
410.07	2422.45
410.26	2438.84
410.45	2422.45
410.64	2518.42
410.83	2560.55
411.02	2495.01
411.21	2668.21
411.40	2597.99
411.59	2567.57
411.78	2644.81
411.98	2665.87
412.17	2752.47
412.36	2682.25
412.55	2658.85
412.74	2829.71
412.93	2665.87
413.12	2738.43
413.31	2984.18
413.50	2792.26
413.69	2808.64
413.88	2988.86
414.07	2839.07
414.26	2953.76
414.45	2979.50
414.64	3030.99
414.83	3040.36
415.02	3176.11
415.22	3030.99
415.41	3197.17
415.60	3169.09
415.79	3253.34
415.98	3239.30
416.17	3351.65
416.36	3389.10
416.55	3166.74
416.74	3407.82
416.93	3309.52
417.12	3375.05
417.31	3258.03
417.50	3358.67
417.69	3485.06
417.88	3536.55
418.07	3480.38
418.26	3501.44
418.45	3552.93
418.64	3559.95
418.83	3674.64
419.02	3578.68
419.21	3730.81
419.39	3716.77
419.58	3595.06
419.77	3499.10
419.96	3747.20
420.15	3702.73
420.34	3763.58
420.53	3868.91
420.72	3845.50
420.91	3899.33
421.10	3868.91
421.29	3913.38
421.48	3723.79
421.67	3845.50
421.86	3868.91
422.05	3805.71
422.24	3836.14
422.43	3744.86
422.61	3889.97
422.80	3978.91
422.99	3957.85
423.18	4058.49
423.37	4037.42
423.56	4086.58
423.75	4004.66
423.94	3885.29
424.13	3779.97
424.32	3854.86
424.50	4077.21
424.69	3967.21
424.88	4142.75
425.07	3941.46
425.26	3953.16
425.45	4028.06
425.64	4058.49
425.83	3964.87
426.01	3962.53
426.20	4030.40
426.39	4032.74
426.58	4016.36
426.77	4117.00
426.96	4060.83
427.15	3894.65
427.33	4177.86
427.52	4060.83
427.71	4229.35
427.90	4196.58
428.09	4210.62
428.28	4184.88
428.46	4173.18
428.65	4170.83
428.84	4409.57
429.03	4241.05
429.22	4070.19
429.40	4191.90
429.59	4180.20
429.78	3878.27
429.97	3915.72
430.16	4079.55
430.34	4177.86
430.53	4224.67
430.72	4306.59
430.91	4456.38
431.10	4294.88
431.28	4531.28
431.47	4594.47
431.66	4730.22
431.85	4587.45
432.03	4702.14
432.22	4711.50
432.41	4540.64
432.60	4638.94
432.79	4690.43
432.97	4781.71
433.16	4657.67
433.35	4727.88
433.54	4699.80
433.72	4788.74
433.91	4636.60
434.10	4922.15
434.28	4781.71
434.47	4863.63
434.66	4894.06
434.85	5071.94
435.03	4971.30
435.22	4891.72
435.41	5322.38
435.59	5088.32
435.78	5214.71
435.97	5205.35
436.16	5247.48
436.34	5109.39
436.53	5188.97
436.72	5462.81
436.90	5104.71
437.09	5245.14
437.28	5184.29
437.46	5214.71
437.65	5181.95
437.84	5324.72
438.02	5352.81
438.21	5238.12
438.40	5329.40
438.58	5551.75
438.77	5453.45
438.96	5568.13
439.14	5647.71
439.33	5586.86
439.52	5846.66
439.70	5617.29
439.89	5832.62
440.08	5696.86
440.26	5720.27
440.45	5668.78
440.63	5778.78
440.82	5991.77
441.01	6005.81
441.19	6113.48
441.38	6083.05
441.57	6120.50
441.75	6094.76
441.94	6272.64
442.12	6289.02
442.31	6473.92
442.50	6354.55
442.68	6345.19
442.87	6277.32
443.05	6368.60
443.24	6450.52
443.43	6597.97
443.61	6518.39
443.80	6532.44
443.98	6544.14
444.17	6289.02
444.35	6761.81
444.54	6801.60
444.73	6506.69
444.91	6651.80
445.10	6604.99
445.28	6586.27
445.47	6525.41
445.65	6555.84
445.84	6565.20
446.02	6707.98
446.21	6764.15
446.39	6658.82
446.58	6773.51
446.77	6684.57
446.95	6700.95
447.14	6871.81
447.32	6890.54
447.51	6743.08
447.69	6612.01
447.88	6771.17
448.06	6616.69
448.25	6832.02
448.43	6726.70
448.62	6822.66
448.80	6726.70
448.99	6808.62
449.17	6981.82
449.36	6965.43
449.54	7157.36
449.73	7021.61
449.91	7215.87
450.10	7105.87
450.28	7283.75
450.46	7407.80
450.65	7321.20
450.83	7269.70
451.02	7328.22
451.20	7370.35
451.39	7314.17
451.57	7243.96
451.76	7136.29
451.94	7276.73
452.13	7335.24
452.31	7164.38
452.49	7260.34
452.68	7311.83
452.86	7215.87
453.05	7503.76
453.23	7279.07
453.42	7344.60
453.60	7557.59
453.78	7728.45
453.97	7426.52
454.15	7473.33
454.34	7454.61
454.52	7426.52
454.70	7623.12
454.89	7707.38
455.07	7676.96
455.26	7798.66
455.44	7658.23
455.62	7822.07
455.81	7838.45
455.99	7988.25
456.17	8081.87
456.36	7803.35
456.54	8039.74
456.73	8046.76
456.91	8241.03
457.09	8135.70
457.28	8395.50
457.46	8124.00
457.64	8238.69
457.83	8126.34
458.01	8098.25
458.19	8226.98
458.38	8170.81
458.56	8351.03
458.74	8397.84
458.93	8163.79
459.11	8411.89
459.29	8243.37
459.48	8575.72
459.66	8297.20
459.84	8484.44
460.03	8667.00
460.21	8500.83
460.39	8681.05
460.57	8575.72
460.76	8772.33
460.94	8690.41
461.12	8702.11
461.31	8748.92
461.49	8769.99
461.67	8727.86
461.85	8638.92
462.04	8606.15
462.22	9181.92
462.40	8851.91
462.59	8922.12
462.77	9043.83
462.95	9041.49
463.13	8968.93
463.32	9001.70
463.50	9013.40
463.68	9144.47
463.86	9137.45
464.05	8894.04
464.23	8936.17
464.41	9064.89
464.59	8903.40
464.78	9156.18
464.96	9170.22
465.14	9153.84
465.32	9413.63
465.50	9364.48
465.69	9437.04
465.87	9268.52
466.05	9413.63
466.23	9394.91
466.41	9202.99
466.60	9577.47
466.78	9245.12
466.96	9195.96
467.14	9270.86
467.32	9458.10
467.51	9556.41
467.69	9174.90
467.87	9577.47
468.05	9537.68
468.23	9345.76
468.41	9577.47
468.60	9612.58
468.78	9778.76
468.96	9591.52
469.14	9790.46
469.32	9872.38
469.50	9584.49
469.69	9893.44
469.87	9937.91
470.05	9900.47
470.23	9895.78
470.41	9881.74
470.59	10015.15
470.77	10043.24
470.95	10167.29
471.14	10209.42
471.32	9958.98
471.50	10193.03
471.68	10216.44
471.86	10595.61
472.04	10445.81
472.22	10733.70
472.40	10410.70
472.58	10424.75
472.77	10703.27
472.95	10719.65
473.13	10958.39
473.31	10640.08
473.49	10707.95
473.67	10607.31
473.85	10787.53
474.03	11124.57
474.21	10960.73
474.39	11295.43
474.57	11178.40
474.75	11150.31
474.93	11265.00
475.12	11283.72
475.30	11433.52
475.48	11232.23
475.66	11641.82
475.84	11260.32
476.02	11454.58
476.20	11707.36
476.38	11740.13
476.56	11859.49
476.74	11903.96
476.92	11925.03
477.10	12056.10
477.28	12238.66
477.46	12112.27
477.64	11995.25
477.82	12505.48
478.00	12404.84
478.18	12676.34
478.36	12865.92
478.54	12933.80
478.72	12723.15
478.90	13053.17
479.08	13207.64
479.26	13315.31
479.44	13287.22
479.62	13315.31
479.80	13579.79
479.98	13549.36
480.16	13848.95
480.34	13584.47
480.52	13752.99
480.70	13870.01
480.88	13909.80
481.06	13806.82
481.24	13834.91
481.41	14108.75
481.59	14602.60
481.77	14665.80
481.95	14597.92
482.13	14590.90
482.31	14951.34
482.49	15161.99
482.67	14913.89
482.85	15115.18
483.03	15215.82
483.21	15250.93
483.39	15377.32
483.57	15257.95
483.74	15627.76
483.92	15751.81
484.10	15726.06
484.28	16201.19
484.46	16240.98
484.64	16271.40
484.82	16191.83
485.00	16018.63
485.18	16549.93
485.35	16657.59
485.53	16318.22
485.71	16285.45
485.89	16430.56
486.07	16542.91
486.25	16685.68
486.43	16877.60
486.61	17188.89
486.78	17263.79
486.96	17214.64
487.14	17755.30
487.32	17680.41
487.50	18167.24
487.68	18094.68
487.85	18691.52
488.03	18740.67
488.21	18642.37
488.39	18600.24
488.57	18827.27
488.75	18951.32
488.92	19061.32
489.10	19541.13
489.28	19695.61
489.46	19449.85
489.64	19978.81
489.81	20503.09
489.99	20463.30
490.17	20322.87
490.35	20325.21
490.53	20259.68
490.70	20989.92
490.88	20353.30
491.06	21088.23
491.24	20929.07
491.41	20872.90
491.59	20498.41
491.77	20915.03
491.95	21413.56
492.13	21214.62
492.30	21687.40
492.48	22106.36
492.66	22167.21
492.84	21930.82
493.01	22417.65
493.19	22143.81
493.37	22314.67
493.54	22787.46
493.72	22778.09
493.90	22855.33
494.08	23042.57
494.25	23407.70
494.43	23232.16
494.61	23917.93
494.79	23749.42
494.96	23445.15
495.14	23616.01
495.32	23667.50
495.49	23943.68
495.67	24315.83
495.85	24409.45
496.02	24325.19
496.20	24531.15
496.38	24720.74
496.55	24521.79
496.73	25383.11
496.91	24898.62
497.09	25106.93
497.26	25352.68
497.44	25312.89
497.62	25678.02
497.79	25226.29
497.97	25355.02
498.14	25776.32
498.32	25813.77
498.50	25504.82
498.67	26263.15
498.85	26363.79
499.03	26548.70
499.20	26373.16
499.38	26455.08
499.56	26583.80
499.73	26789.77
499.91	26735.94
500.08	26874.03
500.26	26696.15
500.44	26890.41
500.61	26986.38
500.79	26979.36
500.97	26937.23
501.14	27206.39
501.32	27182.98
501.49	27262.56
501.67	27428.74
501.84	27367.88
502.02	27686.20
502.20	27852.38
502.37	27924.93
502.55	28203.46
502.72	27941.32
502.90	28489.00
503.07	27962.38
503.25	28219.84
503.43	28168.35
503.60	28566.24
503.78	28353.25
503.95	28226.86
504.13	28666.88
504.30	28720.71
504.48	28821.36
504.65	29083.50
504.83	28973.49
505.01	29500.11
505.18	29385.43
505.36	29682.67
505.53	29350.32
505.71	29617.14
505.88	30134.40
506.06	29462.66
506.23	29954.18
506.41	29614.80
506.58	29954.18
506.76	29809.06
506.93	30164.82
507.11	29778.64
507.28	30225.68
507.46	30078.22
507.63	30146.10
507.81	30377.81
507.98	30637.61
508.16	30661.02
508.33	30902.09
508.50	30651.66
508.68	30787.41
508.85	31201.68
509.03	31150.19
509.20	31569.15
509.38	31868.73
509.55	31426.37
509.73	31569.15
509.90	31578.51
510.08	31374.88
510.25	31524.68
510.42	31730.64
510.60	32041.93
510.77	31889.80
510.95	32645.79
511.12	32397.70
511.30	32058.32
511.47	32388.33
511.64	32505.36
511.82	32383.65
511.99	32620.05
512.17	32701.96
512.34	32870.48
512.51	33081.13
512.69	32769.84
512.86	33057.73
513.04	33202.84
513.21	33242.63
513.38	33230.93
513.56	32882.19
513.73	32713.67
513.90	33172.41
514.08	33041.34
514.25	33654.56
514.43	33200.50
514.60	33909.68
514.77	33301.14
514.95	33890.96
515.12	33799.68
515.29	33895.64
515.47	34190.55
515.64	33809.04
515.81	34239.70
515.99	34005.64
516.16	33947.13
516.33	33881.60
516.51	34110.97
516.68	33687.33
516.85	33338.59
517.03	33872.23
517.20	34141.39
517.37	34660.99
517.54	34543.97
517.72	34513.54
517.89	33883.94
518.06	34157.78
518.24	34558.01
518.41	34831.85
518.58	35009.73
518.75	34719.51
518.93	34794.40
519.10	34890.37
519.27	35014.41
519.45	35573.80
519.62	35321.02
519.79	36055.95
519.96	35519.97
520.14	35974.03
520.31	35433.37
520.48	35597.21
520.65	35721.26
520.83	36037.23
521.00	36046.59
521.17	36280.64
521.34	36151.91
521.52	36219.79
521.69	36182.34
521.86	36446.82
522.03	36659.81
522.20	36348.52
522.38	36514.70
522.55	36348.52
522.72	36711.30
522.89	36400.01
523.07	37146.64
523.24	36865.78
523.41	36975.78
523.58	37116.22
523.75	37574.96
523.92	37586.66
524.10	37535.17
524.27	37727.10
524.44	37324.52
524.61	37928.38
524.78	37570.28
524.96	37556.24
525.13	38288.82
525.30	37940.08
525.47	38057.11
525.64	38066.47
525.81	38012.64
525.98	37507.08
526.16	37361.97
526.33	37553.90
526.50	37944.76
526.67	37607.73
526.84	37832.42
527.01	37373.67
527.18	38033.71
527.36	38354.36
527.53	38565.01
527.70	38803.74
527.87	38337.98
528.04	38642.24
528.21	38897.36
528.38	38967.58
528.55	38611.82
528.72	38925.45
528.89	39122.05
529.07	38796.72
529.24	38749.91
529.41	38951.20
529.58	39182.91
529.75	39061.20
529.92	39229.72
530.09	39445.05
530.26	39328.02
530.43	39555.05
530.60	39257.81
530.77	39768.04
530.94	40062.95
531.11	39763.36
531.28	39889.75
531.46	39714.21
531.63	39746.98
531.80	39461.43
531.97	39512.92
532.14	39643.99
532.31	39267.17
532.48	39735.27
532.65	40201.04
532.82	39990.39
532.99	40203.38
533.16	39871.03
533.33	39948.26
533.50	40355.52
533.67	39702.51
533.84	40435.10
534.01	40470.20
534.18	40388.28
534.35	40318.07
534.52	40666.81
534.69	40905.54
534.86	40371.90
535.03	41055.34
535.20	40608.29
535.37	40776.81
535.54	41408.76
535.71	40851.71
535.88	40685.53
536.05	40598.93
536.22	41120.87
536.38	40818.94
536.55	40938.31
536.72	41085.76
536.89	40917.25
537.06	41045.97
537.23	41287.05
537.40	41095.13
537.57	41364.29
537.74	41280.03
537.91	41586.64
538.08	41432.16
538.25	41481.31
538.42	41467.27
538.59	41577.28
538.75	41303.43
538.92	41528.13
539.09	41820.69
539.26	41689.62
539.43	41942.40
539.60	42031.34
539.77	41638.13
539.94	41474.29
540.11	41787.92
540.28	41933.04
540.44	41886.23
540.61	41596.00
540.78	41521.10
540.95	41961.12
541.12	41731.75
541.29	41911.97
541.46	41986.87
541.62	42319.23
541.79	42249.01
541.96	41724.73
542.13	42363.70
542.30	42211.56
542.47	41935.38
542.63	42440.93
542.80	43037.77
542.97	42639.88
543.14	42663.28
543.31	42499.45
543.48	42450.30
543.64	43213.31
543.81	43030.75
543.98	43154.80
544.15	42829.46
544.32	43262.46
544.48	43454.39
544.65	42810.74
544.82	43154.80
544.99	42946.49
545.16	42667.97
545.32	43206.29
545.49	43423.96
545.66	43210.97
545.83	43295.23
546.00	43548.01
546.16	43590.14
546.33	43374.81
546.50	42955.85
546.67	43768.02
546.83	43194.59
547.00	43512.90
547.17	43484.81
547.34	43648.65
547.50	43636.95
547.67	44069.95
547.84	43531.62
548.00	44076.97
548.17	44135.48
548.34	44128.46
548.51	44201.02
548.67	43885.04
548.84	43775.04
549.01	43585.46
549.18	43742.27
549.34	44112.08
549.51	44147.18
549.68	44282.94
549.84	44521.67
550.01	44535.71
550.18	43863.98
550.34	44348.47
550.51	44395.28
550.68	43929.51
550.84	43665.03
551.01	44355.49
551.18	44034.84
551.34	43863.98
551.51	44683.17
551.68	44713.59
551.84	44336.77
552.01	44697.21
552.18	44423.37
552.34	44149.53
552.51	44453.79
552.68	44353.15
552.84	44734.66
553.01	44629.34
553.18	44348.47
553.34	45055.31
553.51	44500.61
553.67	44903.18
553.84	45148.93
554.01	45020.20
554.17	45275.32
554.34	44959.35
554.51	44945.31
554.67	45326.81
554.84	44605.93
555.00	44748.70
555.17	44924.24
555.33	45209.79
555.50	44708.91
555.67	44622.31
555.83	44875.09
556.00	45411.07
556.16	45228.51
556.33	44767.43
556.50	45052.97
556.66	45146.59
556.83	44811.90
556.99	45146.59
557.16	45488.31
557.32	45352.56
557.49	45460.23
557.65	45095.10
557.82	45516.40
557.98	45029.57
558.15	45579.59
558.32	45518.74
558.48	45160.64
558.65	44912.54
558.81	45289.37
558.98	45553.85
559.14	45188.72
559.31	44856.37
559.47	45553.85
559.64	45139.57
559.80	45296.39
559.97	45542.14
560.13	45010.84
560.30	45659.17
560.46	45453.20
560.63	45724.71
560.79	45029.57
560.96	45549.17
561.12	45179.36
561.29	45235.53
561.45	45305.75
561.61	45425.12
561.78	45705.98
561.94	45420.44
562.11	45132.55
562.27	45441.50
562.44	45785.56
562.60	45818.33
562.77	45837.05
562.93	45783.22
563.10	46328.56
563.26	45457.88
563.42	46281.75
563.59	45226.17
563.75	45453.20
563.92	45708.32
564.08	46038.34
564.24	46005.57
564.41	45727.05
564.57	45635.77
564.74	45771.52
564.90	45553.85
565.07	45944.72
565.23	45560.87
565.39	45759.81
565.56	46115.58
565.72	45488.31
565.88	45970.46
566.05	45193.40
566.21	45696.62
566.38	46089.83
566.54	46129.62
566.70	46120.26
566.87	46050.04
567.03	46253.67
567.19	46679.64
567.36	46368.35
567.52	45778.54
567.68	45759.81
567.85	45624.06
568.01	46160.05
568.17	45949.40
568.34	46295.80
568.50	46082.81
568.66	46054.72
568.83	46134.30
568.99	45986.85
569.15	45853.44
569.32	45745.77
569.48	45897.91
569.64	45954.08
569.81	46356.65
569.97	46078.13
570.13	46059.40
570.30	45525.76
570.46	45642.79
570.62	45673.21
570.78	45579.59
570.95	45324.47
571.11	45977.48
571.27	45989.19
571.43	46138.98
571.60	46230.26
571.76	46267.71
571.92	46274.73
572.09	46391.76
572.25	46277.07
572.41	46050.04
572.57	46330.90
572.74	46663.26
572.90	46270.05
573.06	46490.06
573.22	45996.21
573.38	46363.67
573.55	46089.83
573.71	46267.71
573.87	46312.18
574.03	45844.07
574.20	45914.29
574.36	46183.45
574.52	45925.99
574.68	46567.30
574.84	46438.57
575.01	46131.96
575.17	46260.69
575.33	46520.49
575.49	45890.88
575.65	46841.14
575.82	46197.49
575.98	45991.53
576.14	46178.77
576.30	46258.35
576.46	46284.09
576.62	46469.00
576.79	45954.08
576.95	46471.34
577.11	46555.60
577.27	46443.25
577.43	46113.23
577.59	45752.79
577.75	46160.05
577.92	45888.54
578.08	45448.52
578.24	45956.42
578.40	46466.66
578.56	46260.69
578.72	46305.16
578.88	46731.14
579.04	46117.92
579.21	46347.29
579.37	46129.62
579.53	46223.24
579.69	46213.88
579.85	46120.26
580.01	46110.89
580.17	46361.33
580.33	46028.98
580.49	46515.81
580.65	46127.28
580.82	46490.06
580.98	46024.29
581.14	45928.33
581.30	46724.11
581.46	46209.20
581.62	46689.01
581.78	46171.75
581.94	46836.46
582.10	46436.23
582.26	46557.94
582.42	46323.88
582.58	46604.75
582.74	46330.90
582.90	46710.07
583.06	46361.33
583.22	46405.80
583.38	46777.95
583.54	46635.17
583.70	45937.69
583.86	45970.46
584.02	46394.10
584.18	46834.12
584.34	45951.74
584.50	46546.23
584.66	46583.68
584.82	46567.30
584.98	46410.48
585.14	46557.94
585.30	46223.24
585.46	46368.35
585.62	46141.32
585.78	45916.63
585.94	46115.58
586.10	45825.35
586.26	46230.26
586.42	46358.99
586.58	46422.19
586.74	46375.37
586.90	46120.26
587.06	46373.03
587.22	46246.65
587.38	46286.43
587.54	46873.91
587.70	46691.35
587.86	46314.52
588.02	46368.35
588.18	46447.93
588.34	46185.79
588.49	45649.81
588.65	46176.43
588.81	45696.62
588.97	46342.61
589.13	45848.75
589.29	46045.36
589.45	46408.14
589.61	46291.12
589.77	46445.59
589.93	46176.43
