SpectraSuite Data File
++++++++++++++++++++++++++++++++++++
Date: Fri Oct 25 11:23:54 EDT 2013
User: price-jones
Dark Spectrum Present: No
Reference Spectrum Present: No
Number of Sampled Component Spectra: 1
Spectrometers: USB2+H05261
Integration Time (usec): 100000 (USB2+H05261)
Spectra Averaged: 1 (USB2+H05261)
Boxcar Smoothing: 0 (USB2+H05261)
Correct for Electrical Dark: No (USB2+H05261)
Strobe/Lamp Enabled: No (USB2+H05261)
Correct for Detector Non-linearity: No (USB2+H05261)
Correct for Stray Light: No (USB2+H05261)
Number of Pixels in Processed Spectrum: 2048
>>>>>Begin Processed Spectral Data<<<<<
365.73	149.79
365.92	149.79
366.12	149.79
366.32	149.79
366.52	133.41
366.72	138.09
366.91	149.79
367.11	114.69
367.31	149.79
367.51	117.03
367.70	128.73
367.90	119.37
368.10	168.52
368.30	107.66
368.49	161.50
368.69	173.20
368.89	121.71
369.09	229.37
369.28	138.09
369.48	154.48
369.68	161.50
369.87	243.42
370.07	250.44
370.27	203.63
370.47	318.31
370.66	573.43
370.86	662.37
371.06	615.56
371.25	653.01
371.45	622.58
371.65	765.36
371.84	624.92
372.04	634.29
372.24	683.44
372.44	709.18
372.63	734.93
372.83	760.67
373.03	758.33
373.22	697.48
373.42	791.10
373.62	772.38
373.81	784.08
374.01	755.99
374.21	866.00
374.40	819.19
374.60	774.72
374.79	716.20
374.99	807.48
375.19	823.87
375.38	816.85
375.58	814.51
375.78	793.44
375.97	823.87
376.17	870.68
376.37	765.36
376.56	856.64
376.76	884.72
376.95	861.32
377.15	957.28
377.35	847.27
377.54	894.08
377.74	875.36
377.93	816.85
378.13	973.66
378.33	943.24
378.52	910.47
378.72	901.11
378.91	924.51
379.11	964.30
379.31	1015.79
379.50	957.28
379.70	987.71
379.89	1015.79
380.09	950.26
380.28	976.00
380.48	1020.47
380.68	964.30
380.87	884.72
381.07	1027.50
381.26	945.58
381.46	961.96
381.65	1069.62
381.85	1006.43
382.04	1018.13
382.24	1015.79
382.43	1135.16
382.63	1036.86
382.83	1158.57
383.02	1050.90
383.22	1144.52
383.41	1043.88
383.61	1107.07
383.80	1097.71
384.00	1043.88
384.19	1088.35
384.39	1181.97
384.58	1153.88
384.78	1135.16
384.97	1151.54
385.17	1214.74
385.36	1198.35
385.56	1116.44
385.75	1158.57
385.95	1224.10
386.14	1167.93
386.34	1299.00
386.53	1235.80
386.72	1247.51
386.92	1207.72
387.11	1268.57
387.31	1324.74
387.50	1240.48
387.70	1291.98
387.89	1252.19
388.09	1198.35
388.28	1245.16
388.48	1303.68
388.67	1299.00
388.86	1245.16
389.06	1380.92
389.25	1385.60
389.45	1350.49
389.64	1270.91
389.84	1413.68
390.03	1364.53
390.22	1380.92
390.42	1432.41
390.61	1378.58
390.81	1373.89
391.00	1362.19
391.19	1453.47
391.39	1490.92
391.58	1521.35
391.78	1397.30
391.97	1350.49
392.16	1404.32
392.36	1481.56
392.55	1624.33
392.75	1516.67
392.94	1504.96
393.13	1495.60
393.33	1425.39
393.52	1476.88
393.71	1589.22
393.91	1687.53
394.10	1647.74
394.29	1584.54
394.49	1544.75
394.68	1645.40
394.88	1631.35
395.07	1710.93
395.26	1732.00
395.46	1703.91
395.65	1729.66
395.84	1638.38
396.04	1659.44
396.23	1629.01
396.42	1797.53
396.62	1806.89
396.81	1783.49
397.00	1710.93
397.19	1888.81
397.39	1802.21
397.58	1874.77
397.77	1778.81
397.97	1863.07
398.16	1872.43
398.35	1984.77
398.55	1865.41
398.74	1830.30
398.93	1984.77
399.12	1860.73
399.32	2003.50
399.51	1923.92
399.70	2008.18
399.90	1954.35
400.09	1956.69
400.28	2045.63
400.47	2085.42
400.67	2183.72
400.86	2045.63
401.05	2026.90
401.24	2111.16
401.44	2104.14
401.63	2136.91
401.82	2169.68
402.01	2085.42
402.21	2125.21
402.40	2104.14
402.59	2113.50
402.78	2232.87
402.97	2296.07
403.17	2242.23
403.36	2286.70
403.55	2246.91
403.74	2249.25
403.93	2242.23
404.13	2392.03
404.32	2431.82
404.51	2275.00
404.70	2370.96
404.89	2422.45
405.09	2539.48
405.28	2487.99
405.47	2406.07
405.66	2471.61
405.85	2462.24
406.05	2502.03
406.24	2546.50
406.43	2586.29
406.62	2621.40
406.81	2633.10
407.00	2511.39
407.20	2593.31
407.39	2616.72
407.58	2715.02
407.77	2621.40
407.96	2736.09
408.15	2766.51
408.34	2813.32
408.54	2766.51
408.73	2820.35
408.92	2878.86
409.11	2949.08
409.30	2925.67
409.49	2944.39
409.68	2928.01
409.87	2932.69
410.07	2965.46
410.26	3089.51
410.45	2956.10
410.64	3047.38
410.83	3119.93
411.02	3056.74
411.21	3143.34
411.40	3131.64
411.59	3246.32
411.78	3124.62
411.98	3143.34
412.17	3290.79
412.36	3332.92
412.55	3339.94
412.74	3398.46
412.93	3440.59
413.12	3349.31
413.31	3454.63
413.50	3489.74
413.69	3541.23
413.88	3618.47
414.07	3562.30
414.26	3583.36
414.45	3681.66
414.64	3665.28
414.83	3768.26
415.02	3737.84
415.22	3908.69
415.41	3946.14
415.60	3880.61
415.79	3978.91
415.98	3899.33
416.17	3988.27
416.36	3960.19
416.55	4009.34
416.74	4149.77
416.93	4147.43
417.12	4168.49
417.31	4227.01
417.50	4128.70
417.69	4248.07
417.88	4329.99
418.07	4182.54
418.26	4325.31
418.45	4224.67
418.64	4540.64
418.83	4407.23
419.02	4332.33
419.21	4489.15
419.39	4407.23
419.58	4468.08
419.77	4528.94
419.96	4753.63
420.15	4601.49
420.34	4601.49
420.53	4589.79
420.72	4676.39
420.91	4699.80
421.10	4816.82
421.29	4765.33
421.48	4601.49
421.67	4779.37
421.86	4718.52
422.05	4772.35
422.24	4922.15
422.43	4919.81
422.61	4786.40
422.80	4983.00
422.99	4910.44
423.18	4896.40
423.37	5011.09
423.56	4945.55
423.75	4837.89
423.94	4877.68
424.13	4634.26
424.32	4662.35
424.50	4980.66
424.69	5151.52
424.88	5057.90
425.07	4805.12
425.26	4849.59
425.45	4877.68
425.64	5090.67
425.83	5046.20
426.01	4987.68
426.20	5104.71
426.39	5013.43
426.58	5029.81
426.77	4983.00
426.96	5018.11
427.15	5015.77
427.33	5123.43
427.52	5064.92
427.71	5366.85
427.90	5256.84
428.09	5238.12
428.28	5380.89
428.46	5331.74
428.65	5188.97
428.84	5441.75
429.03	5549.41
429.22	5350.46
429.40	5287.27
429.59	5516.64
429.78	5245.14
429.97	5273.23
430.16	5605.58
430.34	5577.50
430.53	5542.39
430.72	5767.08
430.91	5645.37
431.10	5633.67
431.28	5746.02
431.47	5666.44
431.66	5844.32
431.85	5753.04
432.03	5877.09
432.22	6047.94
432.41	5884.11
432.60	6005.81
432.79	5984.75
432.97	5930.92
433.16	5966.03
433.35	5973.05
433.54	6174.33
433.72	6188.38
433.91	6190.72
434.10	6202.42
434.28	6164.97
434.47	6169.65
434.66	6169.65
434.85	6260.93
435.03	6392.00
435.22	6256.25
435.41	6427.11
435.59	6319.45
435.78	6455.20
435.97	6394.34
436.16	6480.94
436.34	6399.02
436.53	6576.91
436.72	6822.66
436.90	6497.33
437.09	6583.93
437.28	6422.43
437.46	6640.10
437.65	6733.72
437.84	6581.59
438.02	6562.86
438.21	6803.94
438.40	6494.99
438.58	6782.87
438.77	7002.88
438.96	7000.54
439.14	7108.21
439.33	7220.55
439.52	7162.04
439.70	7197.15
439.89	7398.43
440.08	7459.29
440.26	7335.24
440.45	7353.96
440.63	7403.11
440.82	7599.72
441.01	7501.42
441.19	7538.87
441.38	7627.81
441.57	7801.01
441.75	7812.71
441.94	7925.05
442.12	7896.97
442.31	8074.85
442.50	7880.58
442.68	8121.66
442.87	8051.44
443.05	7964.84
443.24	8173.15
443.43	8053.78
443.61	8362.73
443.80	8449.33
443.98	7967.18
444.17	7733.13
444.35	8280.82
444.54	8250.39
444.73	8512.53
444.91	8423.59
445.10	8269.11
445.28	8322.94
445.47	8238.69
445.65	8226.98
445.84	8489.12
446.02	8596.79
446.21	8327.63
446.39	8257.41
446.58	8454.02
446.77	8395.50
446.95	8351.03
447.14	8479.76
447.32	8482.10
447.51	8575.72
447.69	8379.12
447.88	8734.88
448.06	8468.06
448.25	8435.29
448.43	8709.13
448.62	8526.57
448.80	8348.69
448.99	8627.21
449.17	8730.20
449.36	8681.05
449.54	8805.10
449.73	9165.54
449.91	8982.98
450.10	8997.02
450.28	9060.21
450.46	9069.58
450.65	8992.34
450.83	9062.55
451.02	8994.68
451.20	9060.21
451.39	9205.33
451.57	9114.05
451.76	8982.98
451.94	9202.99
452.13	9071.92
452.31	9312.99
452.49	9109.36
452.68	9518.96
452.86	9261.50
453.05	9657.05
453.23	9525.98
453.42	9252.14
453.60	9476.83
453.78	9696.84
453.97	9284.91
454.15	9511.94
454.34	9320.01
454.52	9607.90
454.70	9671.09
454.89	9738.97
455.07	9724.93
455.26	9933.23
455.44	9795.14
455.62	10040.90
455.81	9914.51
455.99	9902.81
456.17	10066.64
456.36	10052.60
456.54	10059.62
456.73	10312.40
456.91	10518.37
457.09	10583.90
457.28	10483.26
457.46	10396.66
457.64	10597.95
457.83	10480.92
458.01	10207.08
458.19	10689.23
458.38	10611.99
458.56	10551.14
458.74	10682.20
458.93	10836.68
459.11	10752.42
459.29	10766.46
459.48	10726.68
459.66	10567.52
459.84	10796.89
460.03	11183.08
460.21	11267.34
460.39	11066.05
460.57	10956.05
460.76	11325.85
460.94	11143.29
461.12	11044.99
461.31	11225.21
461.49	11260.32
461.67	11007.54
461.85	11639.48
462.04	11365.64
462.22	11557.57
462.40	11405.43
462.59	11592.67
462.77	11489.69
462.95	11775.24
463.13	11784.60
463.32	11667.57
463.50	11756.51
463.68	11770.55
463.86	11854.81
464.05	11672.25
464.23	11742.47
464.41	11852.47
464.59	11768.21
464.78	12035.03
464.96	11985.88
465.14	11831.41
465.32	12203.55
465.50	12250.36
465.69	12210.57
465.87	12013.97
466.05	12140.36
466.23	12140.36
466.41	12133.34
466.60	12472.71
466.78	12250.36
466.96	12231.64
467.14	12341.64
467.32	12456.33
467.51	12739.54
467.69	12224.62
467.87	12475.06
468.05	12620.17
468.23	12170.79
468.41	12315.90
468.60	12512.50
468.78	12702.09
468.96	12449.31
469.14	12779.32
469.32	12959.55
469.50	12519.53
469.69	13067.21
469.87	13025.08
470.05	12891.67
470.23	13179.56
470.41	12982.95
470.59	13256.79
470.77	13270.84
470.95	13254.45
471.14	13521.27
471.32	13202.96
471.50	13745.97
471.68	13455.74
471.86	13605.53
472.04	13888.74
472.22	14200.03
472.40	13827.88
472.58	13776.39
472.77	14001.08
472.95	14054.92
473.13	14604.94
473.31	14122.79
473.49	14211.73
473.67	14040.87
473.85	14295.99
474.03	14532.39
474.21	14817.93
474.39	14904.53
474.57	14501.96
474.75	14918.57
474.93	14958.36
475.12	14757.08
475.30	15133.90
475.48	14801.55
475.66	15365.62
475.84	15094.11
476.02	15124.54
476.20	15461.58
476.38	15740.10
476.56	15889.90
476.74	15920.32
476.92	16161.40
477.10	15861.81
477.28	16226.93
477.46	16049.05
477.64	16299.49
477.82	16397.79
478.00	16877.60
478.18	16699.72
478.36	17036.76
478.54	17228.68
478.72	17130.38
478.90	17036.76
479.08	17455.72
479.26	17804.46
479.44	17647.64
479.62	17996.38
479.80	17752.96
479.98	18202.35
480.16	18759.39
480.34	18302.99
480.52	18434.06
480.70	18700.88
480.88	18223.41
481.06	18899.83
481.24	18544.06
481.41	18986.43
481.59	19178.35
481.77	19660.50
481.95	19606.67
482.13	19782.21
482.31	19793.91
482.49	20231.59
482.67	20294.79
482.85	20467.98
483.03	20835.45
483.21	20788.64
483.39	20844.81
483.57	20582.67
483.74	21085.89
483.92	21366.75
484.10	21113.97
484.28	21603.14
484.46	22401.27
484.64	22347.44
484.82	22111.04
485.00	22183.60
485.18	22742.99
485.35	22916.19
485.53	22654.05
485.71	23222.80
485.89	23552.81
486.07	23520.04
486.25	23325.78
486.43	23377.27
486.61	23880.49
486.78	23939.00
486.96	24191.78
487.14	24226.89
487.32	24917.34
487.50	24730.10
487.68	24805.00
487.85	25191.19
488.03	25816.11
488.21	25696.74
488.39	25729.51
488.57	26120.38
488.75	25935.48
488.92	26527.63
489.10	26871.69
489.28	26937.23
489.46	27040.21
489.64	26944.25
489.81	27316.39
489.99	27824.29
490.17	27672.15
490.35	27962.38
490.53	28395.38
490.70	28137.92
490.88	28217.50
491.06	29137.33
491.24	29125.63
491.41	29144.35
491.59	29195.84
491.77	29586.71
491.95	29724.80
492.13	29830.13
492.30	29647.57
492.48	30019.71
492.66	30389.52
492.84	30160.14
493.01	30679.74
493.19	30768.68
493.37	31431.05
493.54	31136.15
493.72	31573.83
493.90	31381.90
494.08	31782.13
494.25	32070.02
494.43	32093.43
494.61	32086.40
494.79	32414.08
494.96	32353.23
495.14	32938.36
495.32	33305.82
495.49	33046.02
495.67	33289.44
495.85	33464.98
496.02	33591.37
496.20	34366.09
496.38	34148.42
496.55	33640.52
496.73	35007.39
496.91	34525.24
497.09	34827.17
497.26	35229.74
497.44	34948.88
497.62	35236.77
497.79	35941.27
497.97	35615.93
498.14	36041.91
498.32	35784.45
498.50	36584.91
498.67	36587.25
498.85	36774.50
499.03	36608.32
499.20	36460.87
499.38	37050.68
499.56	36833.01
499.73	37139.62
499.91	37652.20
500.08	37551.56
500.26	37418.14
500.44	37876.89
500.61	37675.60
500.79	37982.21
500.97	38113.28
501.14	38359.04
501.32	38452.66
501.49	38440.96
501.67	38782.68
501.84	39175.89
502.02	39005.03
502.20	39381.85
502.37	39454.41
502.55	39049.50
502.72	39416.96
502.90	39168.87
503.07	38941.83
503.25	39667.40
503.43	40116.78
503.60	39964.65
503.78	40425.73
503.95	40306.37
504.13	40734.68
504.30	40655.11
504.48	40407.01
504.65	41408.76
504.83	40643.40
505.01	41399.40
505.18	41275.35
505.36	41715.37
505.53	41258.96
505.71	42092.19
505.88	41937.72
506.06	41741.11
506.23	42305.18
506.41	42012.62
506.58	42096.88
506.76	42256.03
506.93	42885.64
507.11	42705.41
507.28	42534.56
507.46	42857.55
507.63	43068.20
507.81	42997.98
507.98	42719.46
508.16	43351.40
508.33	43655.67
508.50	43475.45
508.68	43234.38
508.85	43704.82
509.03	44217.40
509.20	44158.89
509.38	44488.90
509.55	44626.99
509.73	44423.37
509.90	44755.72
510.08	44797.85
510.25	44629.34
510.42	44559.12
510.60	45148.93
510.77	45514.06
510.95	45581.93
511.12	45067.02
511.30	45488.31
511.47	45673.21
511.64	45860.46
511.82	45661.51
511.99	45755.13
512.17	45933.01
512.34	45881.52
512.51	46728.80
512.69	46473.68
512.86	46621.13
513.04	46457.29
513.21	46735.82
513.38	46515.81
513.56	46820.08
513.73	46684.33
513.90	46953.49
514.08	46925.40
514.25	47140.73
514.43	47601.82
514.60	47585.43
514.77	47185.20
514.95	47538.62
515.12	47559.69
515.29	47861.61
515.47	48023.11
515.64	48257.17
515.81	47751.61
515.99	48018.43
516.16	48367.17
516.33	48444.41
516.51	48442.07
516.68	48563.78
516.85	48774.42
517.03	48722.93
517.20	49137.21
517.37	48903.15
517.54	48978.05
517.72	49179.34
517.89	49221.47
518.06	49177.00
518.24	49148.91
518.41	49373.60
518.58	49298.70
518.75	49411.05
518.93	49560.84
519.10	49815.96
519.27	49799.58
519.45	49874.48
519.62	49808.94
519.79	49991.50
519.96	49682.55
520.14	50050.02
520.31	49841.71
520.48	50316.84
520.65	50471.31
520.83	50611.74
521.00	50609.40
521.17	50527.48
521.34	50637.49
521.52	50646.85
521.69	50988.57
521.86	51131.34
522.03	51026.02
522.20	51463.70
522.38	51426.25
522.55	51517.53
522.72	51166.45
522.89	51337.31
523.07	51737.54
523.24	51590.09
523.41	51711.80
523.58	51732.86
523.75	51959.89
523.92	51735.20
524.10	51973.94
524.27	51917.76
524.44	52184.58
524.61	52257.14
524.78	52114.37
524.96	52388.21
525.13	52325.02
525.30	52587.16
525.47	52556.73
525.64	52533.32
525.81	52516.94
525.98	52589.50
526.16	52605.88
526.33	52858.66
526.50	53176.97
526.67	52809.51
526.84	52676.10
527.01	52715.89
527.18	52809.51
527.36	53277.61
527.53	52898.45
527.70	53708.27
527.87	53490.60
528.04	53071.65
528.21	53228.46
528.38	53612.31
528.55	53631.04
528.72	53453.15
528.89	53701.25
529.07	53504.65
529.24	53427.41
529.41	53689.55
529.58	53846.36
529.75	53769.13
529.92	54096.80
530.09	53921.26
530.26	54141.27
530.43	54216.17
530.60	53773.81
530.77	53925.94
530.94	53944.67
531.11	54075.74
531.28	54302.77
531.46	54176.38
531.63	54131.91
531.80	54419.80
531.97	54534.48
532.14	54562.57
532.31	54508.74
532.48	54501.71
532.65	54894.92
532.82	54571.93
532.99	54775.56
533.16	54665.55
533.33	54995.57
533.50	55079.83
533.67	54866.84
533.84	54583.63
534.01	54878.54
534.18	54859.82
534.35	55327.92
534.52	55110.25
534.69	55449.63
534.86	55451.97
535.03	55299.84
535.20	55531.55
535.37	55262.39
535.54	55522.19
535.71	55442.61
535.88	55238.98
536.05	55339.63
536.22	55639.22
536.38	55416.86
536.55	55473.04
536.72	55583.04
536.89	55702.41
537.06	55700.07
537.23	55922.42
537.40	55454.31
537.57	55833.48
537.74	56062.85
537.91	55966.89
538.08	55863.91
538.25	55580.70
538.42	55894.33
538.59	56081.58
538.75	55814.76
538.92	56044.13
539.09	56189.24
539.26	56402.23
539.43	56371.80
539.60	56334.35
539.77	56348.40
539.94	56435.00
540.11	56367.12
540.28	56444.36
540.44	56528.62
540.61	56460.74
540.78	56362.44
540.95	56266.48
541.12	56453.72
541.29	56720.54
541.46	56537.98
541.62	56587.13
541.79	56596.49
541.96	56545.00
542.13	56505.21
542.30	56952.26
542.47	56900.76
542.63	57003.75
542.80	57024.81
542.97	57258.87
543.14	57097.37
543.31	57015.45
543.48	57261.21
543.64	57525.69
543.81	57378.23
543.98	57155.88
544.15	57464.83
544.32	57612.29
544.48	57308.02
544.65	57331.42
544.82	57289.29
544.99	57326.74
545.16	57488.24
545.32	57513.98
545.49	57764.42
545.66	57584.20
545.83	57794.85
546.00	57769.10
546.16	57719.95
546.33	57715.27
546.50	57368.87
546.67	57733.99
546.83	57598.24
547.00	57855.70
547.17	57684.84
547.34	57928.26
547.50	57925.92
547.67	57963.37
547.84	58012.52
548.00	58232.53
548.17	58375.30
548.34	58136.57
548.51	58279.34
548.67	58220.83
548.84	58122.52
549.01	57991.45
549.18	58171.67
549.34	58279.34
549.51	58188.06
549.68	58550.84
549.84	58202.10
550.01	58590.63
550.18	58365.94
550.34	58529.78
550.51	58333.17
550.68	58494.67
550.84	58424.45
551.01	58581.27
551.18	58485.31
551.34	58602.33
551.51	58808.30
551.68	58583.61
551.84	58532.12
552.01	58492.33
552.18	58656.17
552.34	58543.82
552.51	58740.42
552.68	58625.74
552.84	58543.82
553.01	58932.35
553.18	58946.39
553.34	58981.50
553.51	58663.19
553.67	58918.31
553.84	58946.39
554.01	58906.60
554.17	58953.41
554.34	59154.70
554.51	59056.40
554.67	59164.06
554.84	58958.09
555.00	59114.91
555.17	59098.53
555.33	59154.70
555.50	58932.35
555.67	58939.37
555.83	58922.99
556.00	59117.25
556.16	59454.29
556.33	59316.20
556.50	59152.36
556.66	59384.07
556.83	59140.66
556.99	59341.94
557.16	59461.31
557.32	59538.55
557.49	59578.34
557.65	59379.39
557.82	59395.77
557.98	59503.44
558.15	59353.65
558.32	59421.52
558.48	59288.11
558.65	59613.44
558.81	59580.68
558.98	59770.26
559.14	59765.58
559.31	59765.58
559.47	59908.35
559.64	59746.86
559.80	59517.48
559.97	59707.07
560.13	59519.82
560.30	59767.92
560.46	59746.86
560.63	59898.99
560.79	59667.28
560.96	59924.74
561.12	59828.77
561.29	59845.16
561.45	60147.09
561.61	59880.27
561.78	59774.94
561.94	59763.24
562.11	60030.06
562.27	60030.06
562.44	60144.75
562.60	60023.04
562.77	60109.64
562.93	59915.37
563.10	59966.87
563.26	60016.02
563.42	60175.17
563.59	59973.89
563.75	60097.94
563.92	60149.43
564.08	59978.57
564.24	60350.71
564.41	60107.30
564.57	60322.63
564.74	60009.00
564.90	60334.33
565.07	60191.56
565.23	60039.42
565.39	60156.45
565.56	60184.54
565.72	60205.60
565.88	60114.32
566.05	60100.28
566.21	60147.09
566.38	60226.66
566.54	60221.98
566.70	60556.68
566.87	60367.10
567.03	60072.19
567.19	60392.84
567.36	60481.78
567.52	60257.09
567.68	60603.49
567.85	60271.14
568.01	60437.31
568.17	60191.56
568.34	60568.38
568.50	60168.15
568.66	60341.35
568.83	60369.44
568.99	60369.44
569.15	60465.40
569.32	60413.91
569.48	60299.22
569.64	60395.18
569.81	60317.95
569.97	60474.76
570.13	60680.73
570.30	60280.50
570.46	60671.37
570.62	60587.11
570.78	60596.47
570.95	60528.59
571.11	60767.33
571.27	60671.37
571.43	60423.27
571.60	60629.24
571.76	60659.66
571.92	60657.32
572.09	60587.11
572.25	60552.00
572.41	60544.98
572.57	60631.58
572.74	60678.39
572.90	60505.19
573.06	60437.31
573.22	60615.19
573.38	60767.33
573.55	60678.39
573.71	61003.72
573.87	60547.32
574.03	60664.35
574.20	60814.14
574.36	60797.76
574.52	60898.40
574.68	60753.29
574.84	60863.29
575.01	60617.53
575.17	60874.99
575.33	60793.07
575.49	60786.05
575.65	60839.89
575.82	60985.00
575.98	60982.66
576.14	60860.95
576.30	60870.31
576.46	60837.54
576.62	60757.97
576.79	60741.58
576.95	60584.77
577.11	60783.71
577.27	60844.57
577.43	60985.00
577.59	60666.69
577.75	60687.75
577.92	60666.69
578.08	60748.60
578.24	60804.78
578.40	60947.55
578.56	61024.79
578.72	60900.74
578.88	61027.13
579.04	61043.51
579.21	61001.38
579.37	61277.57
579.53	60921.80
579.69	60816.48
579.85	60772.01
580.01	60926.49
580.17	60816.48
580.33	60879.67
580.49	61118.41
580.65	60912.44
580.82	60961.59
580.98	60823.50
581.14	61036.49
581.30	61013.08
581.46	60889.04
581.62	60982.66
581.78	60760.31
581.94	60919.46
582.10	60884.36
582.26	61048.19
582.42	60942.87
582.58	61151.18
582.74	60933.51
582.90	60797.76
583.06	60856.27
583.22	60926.49
583.38	60956.91
583.54	61102.03
583.70	61020.11
583.86	61139.47
584.02	60933.51
584.18	61034.15
584.34	61071.60
584.50	60910.10
584.66	60804.78
584.82	60781.37
584.98	61226.07
585.14	60992.02
585.30	60921.80
585.46	61223.73
585.62	61116.07
585.78	61293.95
585.94	60741.58
586.10	61106.71
586.26	60994.36
586.42	61024.79
586.58	61116.07
586.74	60987.34
586.90	60884.36
587.06	60973.30
587.22	61279.91
587.38	61022.45
587.54	61134.79
587.70	61235.44
587.86	61251.82
588.02	61109.05
588.18	61200.33
588.34	61078.62
588.49	61034.15
