SpectraSuite Data File
++++++++++++++++++++++++++++++++++++
Date: Fri Oct 25 10:44:13 EDT 2013
User: price-jones
Dark Spectrum Present: No
Reference Spectrum Present: No
Number of Sampled Component Spectra: 1
Spectrometers: USB2+H05261
Integration Time (usec): 100000 (USB2+H05261)
Spectra Averaged: 1 (USB2+H05261)
Boxcar Smoothing: 0 (USB2+H05261)
Correct for Electrical Dark: No (USB2+H05261)
Strobe/Lamp Enabled: No (USB2+H05261)
Correct for Detector Non-linearity: No (USB2+H05261)
Correct for Stray Light: No (USB2+H05261)
Number of Pixels in Processed Spectrum: 2048
>>>>>Begin Processed Spectral Data<<<<<
365.73	196.60
365.92	196.60
366.12	196.60
366.32	14.04
366.52	23.41
366.72	79.58
366.91	42.13
367.11	4.68
367.31	0.00
367.51	0.00
367.70	0.00
367.90	25.75
368.10	0.00
368.30	86.60
368.49	9.36
368.69	0.00
368.89	53.83
369.09	37.45
369.28	79.58
369.48	9.36
369.68	142.77
369.87	154.48
370.07	0.00
370.27	105.32
370.47	147.45
370.66	358.10
370.86	353.42
371.06	421.30
371.25	500.87
371.45	472.79
371.65	550.03
371.84	444.70
372.04	440.02
372.24	545.34
372.44	465.77
372.63	545.34
372.83	470.45
373.03	442.36
373.22	477.47
373.42	566.41
373.62	547.69
373.81	566.41
374.01	540.66
374.21	524.28
374.40	517.26
374.60	620.24
374.79	589.82
374.99	538.32
375.19	594.50
375.38	550.03
375.58	648.33
375.78	603.86
375.97	557.05
376.17	676.41
376.37	589.82
376.56	613.22
376.76	636.63
376.95	606.20
377.15	592.16
377.35	636.63
377.54	683.44
377.74	648.33
377.93	573.43
378.13	601.52
378.33	671.73
378.52	610.88
378.72	702.16
378.91	657.69
379.11	669.39
379.31	592.16
379.50	617.90
379.70	746.63
379.89	690.46
380.09	716.20
380.28	674.07
380.48	650.67
380.68	697.48
380.87	615.56
381.07	676.41
381.26	744.29
381.46	741.95
381.65	613.22
381.85	795.78
382.04	648.33
382.24	720.88
382.43	734.93
382.63	720.88
382.83	688.12
383.02	770.04
383.22	683.44
383.41	767.70
383.61	805.14
383.80	858.98
384.00	730.25
384.19	727.91
384.39	798.12
384.58	758.33
384.78	781.74
384.97	898.77
385.17	844.93
385.36	812.17
385.56	866.00
385.75	849.61
385.95	826.21
386.14	767.70
386.34	802.80
386.53	800.46
386.72	809.83
386.92	936.21
387.11	798.12
387.31	844.93
387.50	833.23
387.70	835.57
387.89	877.70
388.09	901.11
388.28	933.87
388.48	833.23
388.67	910.47
388.86	898.77
389.06	915.15
389.25	973.66
389.45	959.62
389.64	966.64
389.84	1025.15
390.03	968.98
390.22	990.05
390.42	1041.54
390.61	971.32
390.81	940.90
391.00	1097.71
391.19	1069.62
391.39	1062.60
391.58	1083.67
391.78	1081.33
391.97	1039.20
392.16	994.73
392.36	1102.39
392.55	1078.99
392.75	997.07
392.94	1067.28
393.13	882.38
393.33	966.64
393.52	1043.88
393.71	1090.69
393.91	1057.92
394.10	1116.44
394.29	1144.52
394.49	1160.91
394.68	1228.78
394.88	1174.95
395.07	1275.59
395.26	1210.06
395.46	1210.06
395.65	1240.48
395.84	1184.31
396.04	1252.19
396.23	1205.38
396.42	1132.82
396.62	1132.82
396.81	1240.48
397.00	1219.42
397.19	1235.80
397.39	1299.00
397.58	1369.21
397.77	1369.21
397.97	1425.39
398.16	1387.94
398.35	1420.71
398.55	1329.42
398.74	1392.62
398.93	1519.01
399.12	1504.96
399.32	1441.77
399.51	1565.82
399.70	1497.94
399.90	1533.05
400.09	1540.07
400.28	1650.08
400.47	1610.29
400.67	1549.43
400.86	1584.54
401.05	1547.09
401.24	1703.91
401.44	1640.72
401.63	1706.25
401.82	1673.48
402.01	1533.05
402.21	1699.23
402.40	1717.95
402.59	1680.50
402.78	1668.80
402.97	1720.29
403.17	1760.08
403.36	1837.32
403.55	1795.19
403.74	1891.15
403.93	1893.49
404.13	1851.36
404.32	1842.00
404.51	1837.32
404.70	1921.58
404.89	1853.70
405.09	1968.39
405.28	1895.83
405.47	1879.45
405.66	1863.07
405.85	2036.27
406.05	1947.33
406.24	1970.73
406.43	2001.16
406.62	1975.41
406.81	2092.44
407.00	2085.42
407.20	2045.63
407.39	2190.74
407.58	2073.71
407.77	2050.31
407.96	2183.72
408.15	2265.64
408.34	2155.63
408.54	2251.60
408.73	2317.13
408.92	2265.64
409.11	2413.09
409.30	2258.62
409.49	2277.34
409.68	2275.00
409.87	2265.64
410.07	2293.72
410.26	2340.54
410.45	2354.58
410.64	2443.52
410.83	2473.95
411.02	2572.25
411.21	2471.61
411.40	2555.86
411.59	2523.10
411.78	2612.04
411.98	2502.03
412.17	2661.19
412.36	2675.23
412.55	2558.21
412.74	2682.25
412.93	2724.38
413.12	2642.46
413.31	2808.64
413.50	2818.00
413.69	2850.77
413.88	2909.29
414.07	2850.77
414.26	2834.39
414.45	2977.16
414.64	3014.61
414.83	2988.86
415.02	2953.76
415.22	3054.40
415.41	3108.23
415.60	3204.19
415.79	3061.42
415.98	3129.30
416.17	3248.66
416.36	3215.90
416.55	3318.88
416.74	3162.06
416.93	3342.28
417.12	3344.63
417.31	3260.37
417.50	3269.73
417.69	3440.59
417.88	3342.28
418.07	3414.84
418.26	3372.71
418.45	3365.69
418.64	3616.13
418.83	3433.57
419.02	3592.72
419.21	3590.38
419.39	3564.64
419.58	3639.53
419.77	3459.31
419.96	3695.71
420.15	3588.04
420.34	3634.85
420.53	3712.09
420.72	3784.65
420.91	3786.99
421.10	3824.44
421.29	3925.08
421.48	3777.62
421.67	3831.46
421.86	3754.22
422.05	3747.20
422.24	3838.48
422.43	3791.67
422.61	3822.09
422.80	3702.73
422.99	3845.50
423.18	3866.56
423.37	4032.74
423.56	3908.69
423.75	3920.40
423.94	3866.56
424.13	3763.58
424.32	3768.26
424.50	4011.68
424.69	3857.20
424.88	3927.42
425.07	3882.95
425.26	3843.16
425.45	4018.70
425.64	3889.97
425.83	3864.22
426.01	3943.80
426.20	3990.61
426.39	3988.27
426.58	4014.02
426.77	3829.12
426.96	4021.04
427.15	3950.82
427.33	4056.15
427.52	4035.08
427.71	4128.70
427.90	4093.60
428.09	4154.45
428.28	4028.06
428.46	3934.44
428.65	4161.47
428.84	4140.41
429.03	4304.25
429.22	4194.24
429.40	4166.15
429.59	4067.85
429.78	4070.19
429.97	3913.38
430.16	3904.01
430.34	4098.28
430.53	4133.39
430.72	4259.78
430.91	4311.27
431.10	4315.95
431.28	4533.62
431.47	4550.00
431.66	4566.39
431.85	4648.30
432.03	4683.41
432.22	4601.49
432.41	4650.64
432.60	4671.71
432.79	4505.53
432.97	4828.53
433.16	4758.31
433.35	4711.50
433.54	4702.14
433.72	4650.64
433.91	4699.80
434.10	4685.75
434.28	4713.84
434.47	4844.91
434.66	4945.55
434.85	4851.93
435.03	4889.38
435.22	4987.68
435.41	5247.48
435.59	5130.45
435.78	5081.30
435.97	5139.82
436.16	5153.86
436.34	5083.64
436.53	5177.26
436.72	5327.06
436.90	5074.28
437.09	5186.63
437.28	5198.33
437.46	5214.71
437.65	5163.22
437.84	5191.31
438.02	5205.35
438.21	5273.23
438.40	5153.86
438.58	5320.04
438.77	5371.53
438.96	5331.74
439.14	5247.48
439.33	5607.92
439.52	5556.43
439.70	5710.91
439.89	5575.16
440.08	5600.90
440.26	5727.29
440.45	5682.82
440.63	5860.70
440.82	5916.87
441.01	5851.34
441.19	5949.64
441.38	6043.26
441.57	6251.57
441.75	6047.94
441.94	6244.55
442.12	6237.53
442.31	6392.00
442.50	6450.52
442.68	6256.25
442.87	6307.74
443.05	6239.87
443.24	6335.83
443.43	6331.15
443.61	6324.13
443.80	6619.04
443.98	6331.15
444.17	6265.61
444.35	6567.54
444.54	6600.31
444.73	6289.02
444.91	6413.07
445.10	6455.20
445.28	6214.12
445.47	6312.42
445.65	6518.39
445.84	6317.11
446.02	6583.93
446.21	6370.94
446.39	6520.73
446.58	6630.74
446.77	6626.06
446.95	6492.65
447.14	6588.61
447.32	6860.11
447.51	6607.33
447.69	6628.40
447.88	6649.46
448.06	6483.28
448.25	6502.01
448.43	6764.15
448.62	6707.98
448.80	6661.16
448.99	6530.09
449.17	6850.75
449.36	6743.08
449.54	6808.62
449.73	6981.82
449.91	7176.08
450.10	6993.52
450.28	7232.26
450.46	7091.82
450.65	7000.54
450.83	7279.07
451.02	7049.69
451.20	7297.79
451.39	7059.06
451.57	7105.87
451.76	7185.44
451.94	7159.70
452.13	7164.38
452.31	7157.36
452.49	7145.66
452.68	7171.40
452.86	7094.16
453.05	7152.68
453.23	7199.49
453.42	7297.79
453.60	7241.62
453.78	7157.36
453.97	7265.02
454.15	7262.68
454.34	7304.81
454.52	7508.44
454.70	7332.90
454.89	7602.06
455.07	7571.63
455.26	7550.57
455.44	7705.04
455.62	7686.32
455.81	7740.15
455.99	7627.81
456.17	7765.90
456.36	7978.89
456.54	7875.90
456.73	7826.75
456.91	8058.46
457.09	7936.76
457.28	8173.15
457.46	7850.16
457.64	8147.40
457.83	8067.83
458.01	7852.50
458.19	8112.30
458.38	7768.24
458.56	8257.41
458.74	8184.85
458.93	8177.83
459.11	8184.85
459.29	8271.45
459.48	8245.71
459.66	8093.57
459.84	8336.99
460.03	8655.30
460.21	8381.46
460.39	8512.53
460.57	8510.19
460.76	8454.02
460.94	8610.83
461.12	8500.83
461.31	8521.89
461.49	8580.40
461.67	8730.20
461.85	8601.47
462.04	8950.21
462.22	8945.53
462.40	8786.37
462.59	8887.01
462.77	8723.18
462.95	8936.17
463.13	8961.91
463.32	8896.38
463.50	9001.70
463.68	9022.77
463.86	8994.68
464.05	9001.70
464.23	8662.32
464.41	8975.95
464.59	8802.75
464.78	9142.13
464.96	9107.02
465.14	8940.85
465.32	9167.88
465.50	9301.29
465.69	9139.79
465.87	9121.07
466.05	9095.32
466.23	8959.57
466.41	9242.78
466.60	9336.40
466.78	9132.77
466.96	9259.16
467.14	9195.96
467.32	9282.56
467.51	9408.95
467.69	9210.01
467.87	9184.26
468.05	9692.16
468.23	9406.61
468.41	9528.32
468.60	9277.88
468.78	9799.82
468.96	9591.52
469.14	9535.34
469.32	9563.43
469.50	9434.70
469.69	9666.41
469.87	9703.86
470.05	9886.42
470.23	9881.74
470.41	9863.02
470.59	10040.90
470.77	9755.35
470.95	9823.23
471.14	10092.39
471.32	9933.23
471.50	10076.01
471.68	10244.52
471.86	10026.86
472.04	10380.28
472.22	10377.94
472.40	10216.44
472.58	10373.25
472.77	10251.55
472.95	10310.06
473.13	10700.93
473.31	10431.77
473.49	10590.92
473.67	10562.84
473.85	10668.16
474.03	11054.35
474.21	10808.59
474.39	10876.47
474.57	11056.69
474.75	11110.52
474.93	11166.70
475.12	11260.32
475.30	11255.64
475.48	10913.92
475.66	11309.47
475.84	11424.15
476.02	11300.11
476.20	11435.86
476.38	11506.07
476.56	11868.86
476.74	11793.96
476.92	11756.51
477.10	11714.38
477.28	12035.03
477.46	12156.74
477.64	11922.69
477.82	12545.27
478.00	12479.74
478.18	12259.73
478.36	12580.38
478.54	12634.21
478.72	12549.95
478.90	13008.70
479.08	13006.36
479.26	13245.09
479.44	13151.47
479.62	13378.50
479.80	13303.60
479.98	13373.82
480.16	13673.41
480.34	13628.94
480.52	13633.62
480.70	13891.08
480.88	13673.41
481.06	13745.97
481.24	13710.86
481.41	13949.59
481.59	14368.55
481.77	14436.42
481.95	14349.82
482.13	14436.42
482.31	14448.13
482.49	14860.06
482.67	14918.57
482.85	15028.58
483.03	15014.54
483.21	15222.84
483.39	15267.31
483.57	15309.44
483.74	15365.62
483.92	15541.16
484.10	15531.80
484.28	15477.96
484.46	16058.42
484.64	16514.82
484.82	15845.43
485.00	15950.75
485.18	16219.91
485.35	16517.16
485.53	16107.57
485.71	16107.57
485.89	16428.22
486.07	16105.23
486.25	16521.84
486.43	16699.72
486.61	17125.70
486.78	17273.15
486.96	16989.95
487.14	17495.50
487.32	17708.49
487.50	17968.29
487.68	17963.61
487.85	18328.74
488.03	18246.82
488.21	18562.79
488.39	18597.90
488.57	18714.92
488.75	18677.48
488.92	18958.34
489.10	19218.14
489.28	19260.27
489.46	19599.65
489.64	19363.25
489.81	20027.96
489.99	19969.45
490.17	20023.28
490.35	20470.33
490.53	20175.42
490.70	20271.38
490.88	20102.86
491.06	20833.11
491.24	20601.40
491.41	20594.37
491.59	20629.48
491.77	20863.54
491.95	21022.69
492.13	21106.95
492.30	21715.49
492.48	21434.63
492.66	21846.56
492.84	21855.92
493.01	22075.93
493.19	22043.17
493.37	22274.88
493.54	22408.29
493.72	22380.20
493.90	22338.07
494.08	22703.20
494.25	23037.89
494.43	22946.61
494.61	23227.48
494.79	23543.45
494.96	23180.67
495.14	23321.10
495.32	23536.43
495.49	23520.04
495.67	23843.04
495.85	23847.72
496.02	23967.09
496.20	24439.87
496.38	24465.62
496.55	24395.40
496.73	24868.19
496.91	24407.11
497.09	24966.49
497.26	25057.78
497.44	24854.15
497.62	25130.33
497.79	25476.73
497.97	25142.03
498.14	25340.98
498.32	25305.87
498.50	25715.47
498.67	25956.54
498.85	25820.79
499.03	26101.65
499.20	26129.74
499.38	26302.94
499.56	26459.76
499.73	26515.93
499.91	26305.28
500.08	26361.45
500.26	26492.52
500.44	26473.80
500.61	26487.84
500.79	26436.35
500.97	26707.85
501.14	27119.79
501.32	27138.51
501.49	26890.41
501.67	27028.51
501.84	27433.42
502.02	27388.95
502.20	27854.72
502.37	27824.29
502.55	27564.49
502.72	27880.46
502.90	28339.21
503.07	27913.23
503.25	28027.92
503.43	27789.18
503.60	28116.86
503.78	27899.19
503.95	27824.29
504.13	28379.00
504.30	28350.91
504.48	28360.27
504.65	28718.37
504.83	29282.44
505.01	29127.97
505.18	28893.91
505.36	29338.62
505.53	29443.94
505.71	29593.73
505.88	29537.56
506.06	29149.03
506.23	29614.80
506.41	29481.39
506.58	29818.42
506.76	29687.36
506.93	29900.34
507.11	29975.24
507.28	29851.19
507.46	30080.56
507.63	29677.99
507.81	30082.91
507.98	29919.07
508.16	30110.99
508.33	30518.25
508.50	30764.00
508.68	30806.13
508.85	30888.05
509.03	31056.57
509.20	31000.40
509.38	31414.67
509.55	31152.53
509.73	31028.48
509.90	31197.00
510.08	31166.57
510.25	31122.10
510.42	31587.87
510.60	31672.13
510.77	31945.97
510.95	31789.16
511.12	31985.76
511.30	31857.03
511.47	31538.72
511.64	32250.24
511.82	32233.86
511.99	31697.88
512.17	32388.33
512.34	32243.22
512.51	32549.83
512.69	32889.21
512.86	32587.28
513.04	32793.25
513.21	32727.71
513.38	32959.42
513.56	32790.91
513.73	32421.10
513.90	32828.35
514.08	32460.89
514.25	33041.34
514.43	33188.80
514.60	33102.20
514.77	33460.30
514.95	33404.13
515.12	33090.49
515.29	33507.11
515.47	33897.98
515.64	33933.09
515.81	33656.90
515.99	33778.61
516.16	34153.10
516.33	33436.89
516.51	33399.44
516.68	33369.02
516.85	33429.87
517.03	33713.08
517.20	33670.95
517.37	33919.04
517.54	34096.92
517.72	34082.88
517.89	33692.01
518.06	33944.79
518.24	34312.25
518.41	34370.77
518.58	33958.83
518.75	34658.65
518.93	34703.12
519.10	34738.23
519.27	34890.37
519.45	34747.59
519.62	35250.81
519.79	35321.02
519.96	35211.02
520.14	36149.57
520.31	34923.13
520.48	35304.64
520.65	35480.18
520.83	35847.64
521.00	36102.76
521.17	35849.99
521.34	36488.95
521.52	35754.02
521.69	35978.72
521.86	36168.30
522.03	36266.60
522.20	36196.38
522.38	35971.69
522.55	36650.45
522.72	36367.24
522.89	36378.95
523.07	36804.92
523.24	36301.71
523.41	36804.92
523.58	36971.10
523.75	37303.46
523.92	37184.09
524.10	37090.47
524.27	37139.62
524.44	36989.83
524.61	37233.24
524.78	37507.08
524.96	37479.00
525.13	37771.57
525.30	37701.35
525.47	37853.48
525.64	37881.57
525.81	37436.87
525.98	37659.22
526.16	37240.26
526.33	37514.11
526.50	37816.04
526.67	37345.59
526.84	37242.60
527.01	37366.65
527.18	38260.74
527.36	38160.09
527.53	38307.55
527.70	38300.53
527.87	38150.73
528.04	38167.12
528.21	38773.31
528.38	38579.05
528.55	38951.20
528.72	39264.83
528.89	38792.04
529.07	38703.10
529.24	38148.39
529.41	38536.92
529.58	38574.37
529.75	38946.51
529.92	39122.05
530.09	39077.58
530.26	38831.83
530.43	39426.32
530.60	38871.62
530.77	39192.27
530.94	39709.53
531.11	39524.63
531.28	39466.11
531.46	39768.04
531.63	39220.36
531.80	39157.16
531.97	39253.12
532.14	39337.38
532.31	39185.25
532.48	39557.39
532.65	39552.71
532.82	39442.71
532.99	39634.63
533.16	39751.66
533.33	40121.46
533.50	40142.53
533.67	40126.14
533.84	40247.85
534.01	40011.46
534.18	39735.27
534.35	40690.21
534.52	40521.69
534.69	40446.80
534.86	40428.07
535.03	39955.29
535.20	40851.71
535.37	41034.27
535.54	40898.52
535.71	40210.40
535.88	41146.62
536.05	40329.77
536.22	41045.97
536.38	40704.26
536.55	40746.39
536.72	40584.89
536.89	40601.27
537.06	40779.15
537.23	40872.78
537.40	40470.20
537.57	41303.43
537.74	41230.88
537.91	41441.53
538.08	40706.60
538.25	40804.90
538.42	41397.06
538.59	41291.73
538.75	40669.15
538.92	41455.57
539.09	41319.82
539.26	41567.91
539.43	41399.40
539.60	41539.83
539.77	41186.41
539.94	41638.13
540.11	40905.54
540.28	41284.71
540.44	41179.39
540.61	41343.22
540.78	41338.54
540.95	41235.56
541.12	41731.75
541.29	41750.48
541.46	41743.45
541.62	42029.00
541.79	41902.61
541.96	41867.50
542.13	42148.37
542.30	42155.39
542.47	41916.65
542.63	42150.71
542.80	42284.12
542.97	42454.98
543.14	42607.11
543.31	42726.48
543.48	42906.70
543.64	42920.74
543.81	42543.92
543.98	43236.72
544.15	42735.84
544.32	43103.31
544.48	42944.15
544.65	43016.71
544.82	43049.47
544.99	42899.68
545.16	42944.15
545.32	42983.94
545.49	43171.18
545.66	43576.09
545.83	43395.87
546.00	43185.22
546.16	43077.56
546.33	42939.47
546.50	42789.67
546.67	43117.35
546.83	42642.22
547.00	42920.74
547.17	43103.31
547.34	43084.58
547.50	43650.99
547.67	43618.22
547.84	43566.73
548.00	43398.21
548.17	43875.68
548.34	43798.44
548.51	44072.29
548.67	43697.80
548.84	43784.40
549.01	43335.02
549.18	43859.30
549.34	43349.06
549.51	43709.50
549.68	43910.79
549.84	43995.05
550.01	44184.63
550.18	44423.37
550.34	44423.37
550.51	43770.36
550.68	44236.12
550.84	44109.74
551.01	44252.51
551.18	44079.31
551.34	44023.14
551.51	44261.87
551.68	44589.55
551.84	44350.81
552.01	44140.16
552.18	44299.32
552.34	43655.67
552.51	44355.49
552.68	44172.93
552.84	44729.98
553.01	44879.77
553.18	44261.87
553.34	44423.37
553.51	44025.48
553.67	44348.47
553.84	44685.51
554.01	44893.82
554.17	45036.59
554.34	44435.07
554.51	44999.14
554.67	44687.85
554.84	44715.93
555.00	44659.76
555.17	44687.85
555.33	44760.40
555.50	44575.50
555.67	45001.48
555.83	44383.58
556.00	44797.85
556.16	45113.83
556.33	44847.00
556.50	44678.49
556.66	44989.78
556.83	44718.28
556.99	45104.46
557.16	45694.28
557.32	45397.03
557.49	44879.77
557.65	44769.77
557.82	45287.03
557.98	45041.27
558.15	44942.97
558.32	45230.85
558.48	44708.91
558.65	45015.52
558.81	44711.25
558.98	44933.60
559.14	45373.63
559.31	45125.53
559.47	45380.65
559.64	45769.18
559.80	45371.28
559.97	45684.92
560.13	44858.71
560.30	45394.69
560.46	45361.92
560.63	45446.18
560.79	45661.51
560.96	45921.31
561.12	45137.23
561.29	45425.12
561.45	45375.97
561.61	45085.74
561.78	45738.75
561.94	45226.17
562.11	45453.20
562.27	45413.41
562.44	45766.84
562.60	45787.90
562.77	45612.36
562.93	45488.31
563.10	45464.91
563.26	45425.12
563.42	45661.51
563.59	45078.72
563.75	45378.31
563.92	45839.39
564.08	45963.44
564.24	45965.78
564.41	46113.23
564.57	45542.14
564.74	45097.44
564.90	45448.52
565.07	45841.73
565.23	45659.17
565.39	45813.65
565.56	45815.99
565.72	45436.82
565.88	45729.39
566.05	45579.59
566.21	45624.06
566.38	45553.85
566.54	45715.34
566.70	46040.68
566.87	46354.31
567.03	45698.96
567.19	46174.09
567.36	45911.95
567.52	45647.47
567.68	46323.88
567.85	45640.45
568.01	46085.15
568.17	45963.44
568.34	45937.69
568.50	45635.77
568.66	45865.14
568.83	46239.62
568.99	45411.07
569.15	45703.64
569.32	45507.04
569.48	45752.79
569.64	46363.67
569.81	45956.42
569.97	45851.09
570.13	45778.54
570.30	45598.32
570.46	45322.13
570.62	45457.88
570.78	45408.73
570.95	45701.30
571.11	45736.41
571.27	45986.85
571.43	45911.95
571.60	45745.77
571.76	46096.85
571.92	46260.69
572.09	46298.14
572.25	46127.28
572.41	46178.77
572.57	46253.67
572.74	45900.25
572.90	45698.96
573.06	46277.07
573.22	46110.89
573.38	46277.07
573.55	45441.50
573.71	45923.65
573.87	45900.25
574.03	45806.62
574.20	46312.18
574.36	45883.86
574.52	46127.28
574.68	46237.28
574.84	46026.63
575.01	45862.80
575.17	46068.76
575.33	45722.37
575.49	45799.60
575.65	46223.24
575.82	45972.80
575.98	46246.65
576.14	45930.67
576.30	45907.27
576.46	46096.85
576.62	46141.32
576.79	45750.45
576.95	46288.77
577.11	45961.10
577.27	46038.34
577.43	46155.36
577.59	45970.46
577.75	45635.77
577.92	45839.39
578.08	45778.54
578.24	45841.73
578.40	46270.05
578.56	45921.31
578.72	46000.89
578.88	46389.42
579.04	46454.95
579.21	45930.67
579.37	46014.93
579.53	46272.39
579.69	45998.55
579.85	46017.27
580.01	46176.43
580.17	46396.44
580.33	46342.61
580.49	46618.79
580.65	46476.02
580.82	46244.30
580.98	45837.05
581.14	46110.89
581.30	46866.89
581.46	46038.34
581.62	45778.54
581.78	45986.85
581.94	46520.49
582.10	46307.50
582.26	46213.88
582.42	46410.48
582.58	45930.67
582.74	45886.20
582.90	46373.03
583.06	46232.60
583.22	46550.91
583.38	46328.56
583.54	46506.44
583.70	46323.88
583.86	46340.27
584.02	46124.94
584.18	46637.51
584.34	46752.20
584.50	46171.75
584.66	46028.98
584.82	45949.40
584.98	46777.95
585.14	46279.41
585.30	46115.58
585.46	46106.21
585.62	45961.10
585.78	45881.52
585.94	45806.62
586.10	46143.66
586.26	46490.06
586.42	46667.94
586.58	46501.76
586.74	45975.14
586.90	46129.62
587.06	46471.34
587.22	46295.80
587.38	45853.44
587.54	46480.70
587.70	46234.94
587.86	46300.48
588.02	46464.32
588.18	46272.39
588.34	46344.95
588.49	45900.25
588.65	45507.04
588.81	45797.26
588.97	46117.92
589.13	45593.64
589.29	46469.00
589.45	46281.75
589.61	45872.16
589.77	46564.96
589.93	45947.06
590.08	46581.34
