SpectraSuite Data File
++++++++++++++++++++++++++++++++++++
Date: Fri Oct 25 10:46:59 EDT 2013
User: price-jones
Dark Spectrum Present: No
Reference Spectrum Present: No
Number of Sampled Component Spectra: 1
Spectrometers: USB2+H05261
Integration Time (usec): 100000 (USB2+H05261)
Spectra Averaged: 1 (USB2+H05261)
Boxcar Smoothing: 0 (USB2+H05261)
Correct for Electrical Dark: No (USB2+H05261)
Strobe/Lamp Enabled: No (USB2+H05261)
Correct for Detector Non-linearity: No (USB2+H05261)
Correct for Stray Light: No (USB2+H05261)
Number of Pixels in Processed Spectrum: 2048
>>>>>Begin Processed Spectral Data<<<<<
365.73	180.22
365.92	180.22
366.12	180.22
366.32	11.70
366.52	65.54
366.72	70.22
366.91	0.00
367.11	91.28
367.31	2.34
367.51	0.00
367.70	30.43
367.90	28.09
368.10	58.51
368.30	28.09
368.49	4.68
368.69	0.00
368.89	51.49
369.09	0.00
369.28	49.15
369.48	65.54
369.68	88.94
369.87	133.41
370.07	77.24
370.27	156.82
370.47	201.29
370.66	421.30
370.86	444.70
371.06	465.77
371.25	514.92
371.45	418.96
371.65	510.24
371.84	472.79
372.04	528.96
372.24	468.11
372.44	519.60
372.63	535.98
372.83	475.13
373.03	552.37
373.22	507.90
373.42	503.22
373.62	587.47
373.81	461.09
374.01	573.43
374.21	545.34
374.40	580.45
374.60	571.09
374.79	585.13
374.99	557.05
375.19	653.01
375.38	550.03
375.58	547.69
375.78	620.24
375.97	613.22
376.17	676.41
376.37	580.45
376.56	559.39
376.76	603.86
376.95	585.13
377.15	645.99
377.35	599.18
377.54	624.92
377.74	706.84
377.93	622.58
378.13	695.14
378.33	627.26
378.52	660.03
378.72	634.29
378.91	582.79
379.11	690.46
379.31	631.94
379.50	587.47
379.70	648.33
379.89	664.71
380.09	631.94
380.28	683.44
380.48	711.52
380.68	674.07
380.87	669.39
381.07	702.16
381.26	676.41
381.46	641.31
381.65	655.35
381.85	648.33
382.04	667.05
382.24	739.61
382.43	716.20
382.63	692.80
382.83	716.20
383.02	774.72
383.22	685.78
383.41	709.18
383.61	753.65
383.80	760.67
384.00	716.20
384.19	767.70
384.39	770.04
384.58	725.57
384.78	830.89
384.97	760.67
385.17	748.97
385.36	819.19
385.56	741.95
385.75	840.25
385.95	798.12
386.14	805.14
386.34	765.36
386.53	816.85
386.72	791.10
386.92	889.40
387.11	798.12
387.31	866.00
387.50	861.32
387.70	830.89
387.89	830.89
388.09	821.53
388.28	912.81
388.48	887.06
388.67	933.87
388.86	985.37
389.06	851.96
389.25	943.24
389.45	889.40
389.64	917.49
389.84	950.26
390.03	905.79
390.22	978.34
390.42	1011.11
390.61	903.45
390.81	938.55
391.00	992.39
391.19	1057.92
391.39	1011.11
391.58	1018.13
391.78	1074.31
391.97	992.39
392.16	971.32
392.36	1027.50
392.55	980.68
392.75	1020.47
392.94	1081.33
393.13	940.90
393.33	1004.09
393.52	1043.88
393.71	1041.54
393.91	1118.78
394.10	1050.90
394.29	1086.01
394.49	1160.91
394.68	1217.08
394.88	1184.31
395.07	1221.76
395.26	1170.27
395.46	1111.75
395.65	1167.93
395.84	1097.71
396.04	1221.76
396.23	1245.16
396.42	1196.01
396.62	1156.22
396.81	1233.46
397.00	1146.86
397.19	1313.04
397.39	1235.80
397.58	1329.42
397.77	1406.66
397.97	1266.23
398.16	1430.07
398.35	1338.79
398.55	1483.90
398.74	1373.89
398.93	1406.66
399.12	1401.98
399.32	1474.54
399.51	1427.73
399.70	1509.65
399.90	1521.35
400.09	1486.24
400.28	1535.39
400.47	1390.28
400.67	1423.05
400.86	1614.97
401.05	1483.90
401.24	1593.90
401.44	1537.73
401.63	1675.82
401.82	1540.07
402.01	1554.12
402.21	1584.54
402.40	1647.74
402.59	1696.89
402.78	1589.22
402.97	1607.95
403.17	1685.19
403.36	1605.61
403.55	1687.53
403.74	1671.14
403.93	1713.27
404.13	1776.47
404.32	1781.15
404.51	1755.40
404.70	1834.98
404.89	1682.85
405.09	1720.29
405.28	1816.26
405.47	1760.08
405.66	1823.28
405.85	1771.79
406.05	1795.19
406.24	1912.22
406.43	1909.88
406.62	1935.62
406.81	2019.88
407.00	1959.03
407.20	1928.60
407.39	1900.52
407.58	1994.14
407.77	2054.99
407.96	2101.80
408.15	2083.08
408.34	2118.18
408.54	2087.76
408.73	2132.23
408.92	2139.25
409.11	2115.84
409.30	2148.61
409.49	2172.02
409.68	2230.53
409.87	2207.13
410.07	2101.80
410.26	2183.72
410.45	2200.10
410.64	2275.00
410.83	2452.88
411.02	2443.52
411.21	2267.98
411.40	2387.35
411.59	2387.35
411.78	2462.24
411.98	2347.56
412.17	2480.97
412.36	2630.76
412.55	2558.21
412.74	2487.99
412.93	2553.52
413.12	2619.06
413.31	2698.64
413.50	2675.23
413.69	2684.59
413.88	2782.90
414.07	2733.75
414.26	2740.77
414.45	2834.39
414.64	2761.83
414.83	2902.26
415.02	2932.69
415.22	2799.28
415.41	3005.25
415.60	2930.35
415.79	2825.03
415.98	3012.27
416.17	3007.59
416.36	3009.93
416.55	3056.74
416.74	3150.36
416.93	3021.63
417.12	3220.58
417.31	3215.90
417.50	3075.46
417.69	3187.81
417.88	3201.85
418.07	3248.66
418.26	3368.03
418.45	3199.51
418.64	3239.30
418.83	3297.81
419.02	3358.67
419.21	3445.27
419.39	3386.76
419.58	3311.86
419.77	3487.40
419.96	3353.99
420.15	3583.36
420.34	3541.23
420.53	3634.85
420.72	3641.87
420.91	3719.11
421.10	3473.36
421.29	3604.42
421.48	3574.00
421.67	3712.09
421.86	3517.83
422.05	3597.40
422.24	3630.17
422.43	3562.30
422.61	3595.06
422.80	3681.66
422.99	3761.24
423.18	3709.75
423.37	3840.82
423.56	3669.96
423.75	3779.97
423.94	3501.44
424.13	3487.40
424.32	3569.32
424.50	3742.52
424.69	3740.18
424.88	3735.50
425.07	3611.45
425.26	3723.79
425.45	3681.66
425.64	3742.52
425.83	3810.39
426.01	3768.26
426.20	3861.88
426.39	3719.11
426.58	3798.69
426.77	3695.71
426.96	3875.93
427.15	3796.35
427.33	3894.65
427.52	4014.02
427.71	3927.42
427.90	3927.42
428.09	3829.12
428.28	3871.25
428.46	3815.07
428.65	4032.74
428.84	4086.58
429.03	3969.55
429.22	3801.03
429.40	3941.46
429.59	3915.72
429.78	3847.84
429.97	3801.03
430.16	3885.29
430.34	3915.72
430.53	3969.55
430.72	4131.05
430.91	4180.20
431.10	4180.20
431.28	4327.65
431.47	4407.23
431.66	4496.17
431.85	4479.79
432.03	4322.97
432.22	4517.23
432.41	4390.84
432.60	4526.60
432.79	4339.35
432.97	4369.78
433.16	4432.97
433.35	4301.90
433.54	4468.08
433.72	4456.38
433.91	4526.60
434.10	4538.30
434.28	4620.22
434.47	4601.49
434.66	4837.89
434.85	4737.24
435.03	4685.75
435.22	4699.80
435.41	4739.58
435.59	4854.27
435.78	4774.69
435.97	4760.65
436.16	4748.95
436.34	4931.51
436.53	4767.67
436.72	4947.89
436.90	4617.88
437.09	5022.79
437.28	4737.24
437.46	4987.68
437.65	4889.38
437.84	4915.12
438.02	4901.08
438.21	5074.28
438.40	4910.44
438.58	5022.79
438.77	5111.73
438.96	5097.69
439.14	5362.17
439.33	5376.21
439.52	5245.14
439.70	5408.98
439.89	5394.93
440.08	5401.96
440.26	5425.36
440.45	5359.83
440.63	5533.03
440.82	5736.65
441.01	5507.28
441.19	5769.42
441.38	5797.51
441.57	5771.76
441.75	5942.62
441.94	5877.09
442.12	6111.14
442.31	6015.18
442.50	6134.54
442.68	6022.20
442.87	5877.09
443.05	6085.39
443.24	6146.25
443.43	5996.45
443.61	6120.50
443.80	6368.60
443.98	6029.22
444.17	6045.60
444.35	6157.95
444.54	6242.21
444.73	6195.40
444.91	6043.26
445.10	6097.10
445.28	6174.33
445.47	6155.61
445.65	6106.46
445.84	6179.01
446.02	6155.61
446.21	6101.78
446.39	6342.85
446.58	6251.57
446.77	6492.65
446.95	6225.82
447.14	6431.79
447.32	6452.86
447.51	6232.85
447.69	6263.27
447.88	6314.77
448.06	6345.19
448.25	6267.95
448.43	6235.19
448.62	6331.15
448.80	6312.42
448.99	6438.81
449.17	6429.45
449.36	6335.83
449.54	6733.72
449.73	6586.27
449.91	6604.99
450.10	6761.81
450.28	6738.40
450.46	6832.02
450.65	6883.52
450.83	6822.66
451.02	6775.85
451.20	6792.23
451.39	6834.36
451.57	6972.46
451.76	6712.66
451.94	6705.63
452.13	6927.99
452.31	6860.11
452.49	6478.60
452.68	6911.60
452.86	6902.24
453.05	6752.45
453.23	6857.77
453.42	6864.79
453.60	6829.68
453.78	6958.41
453.97	7075.44
454.15	7002.88
454.34	7138.63
454.52	7096.50
454.70	7035.65
454.89	7112.89
455.07	7250.98
455.26	7229.91
455.44	7396.09
455.62	7250.98
455.81	7178.42
455.99	7300.13
456.17	7272.04
456.36	7571.63
456.54	7442.90
456.73	7536.52
456.91	7686.32
457.09	7569.29
457.28	7878.24
457.46	7412.48
457.64	7726.11
457.83	7672.28
458.01	7555.25
458.19	7548.23
458.38	7810.37
458.56	7845.48
458.74	7810.37
458.93	7861.86
459.11	7854.84
459.29	7831.43
459.48	7817.39
459.66	7934.42
459.84	7911.01
460.03	8093.57
460.21	7976.55
460.39	8009.31
460.57	8084.21
460.76	8009.31
460.94	8196.56
461.12	8126.34
461.31	8163.79
461.49	8379.12
461.67	8070.17
461.85	8327.63
462.04	8395.50
462.22	8685.73
462.40	8395.50
462.59	8257.41
462.77	8376.78
462.95	8414.23
463.13	8346.35
463.32	8573.38
463.50	8535.93
463.68	8505.51
463.86	8561.68
464.05	8437.63
464.23	8402.52
464.41	8786.37
464.59	8458.70
464.78	8638.92
464.96	8589.77
465.14	8557.00
465.32	8723.18
465.50	8875.31
465.69	8781.69
465.87	8891.70
466.05	8814.46
466.23	8727.86
466.41	8748.92
466.60	9001.70
466.78	8678.71
466.96	8821.48
467.14	8755.94
467.32	8872.97
467.51	9224.05
467.69	8561.68
467.87	8903.40
468.05	8973.61
468.23	8978.30
468.41	9022.77
468.60	9224.05
468.78	9238.09
468.96	9195.96
469.14	9064.89
469.32	9219.37
469.50	9092.98
469.69	9217.03
469.87	9252.14
470.05	9320.01
470.23	9338.74
470.41	9385.55
470.59	9392.57
470.77	9413.63
470.95	9266.18
471.14	9647.69
471.32	9338.74
471.50	9666.41
471.68	9947.28
471.86	9790.46
472.04	9851.31
472.22	10010.47
472.40	9668.75
472.58	9856.00
472.77	9745.99
472.95	10054.94
473.13	10186.01
473.31	10143.88
473.49	10090.05
473.67	9900.47
473.85	10181.33
474.03	10417.72
474.21	10291.34
474.39	10824.98
474.57	10654.12
474.75	10665.82
474.93	10661.14
475.12	10654.12
475.30	10855.40
475.48	10789.87
475.66	10787.53
475.84	10764.12
476.02	10731.36
476.20	10824.98
476.38	10995.84
476.56	11307.13
476.74	11384.37
476.92	11227.55
477.10	11234.57
477.28	11363.30
477.46	11428.84
477.64	11730.76
477.82	11454.58
478.00	12116.95
478.18	11810.34
478.36	11927.37
478.54	12395.48
478.72	12196.53
478.90	12409.52
479.08	12514.84
479.26	12456.33
479.44	12514.84
479.62	12397.82
479.80	12692.73
479.98	12638.89
480.16	13181.90
480.34	13081.25
480.52	13006.36
480.70	12968.91
480.88	13282.54
481.06	13184.24
481.24	13642.98
481.41	13624.26
481.59	13659.37
481.77	13701.50
481.95	13797.46
482.13	14001.08
482.31	13685.11
482.49	14099.39
482.67	14104.07
482.85	14363.87
483.03	14361.53
483.21	14831.97
483.39	14675.16
483.57	14752.40
483.74	14614.30
483.92	14864.74
484.10	14855.38
484.28	15145.61
484.46	15335.19
484.64	16030.33
484.82	15620.74
485.00	15318.81
485.18	15981.18
485.35	15941.39
485.53	15489.67
485.71	15513.07
485.89	16170.76
486.07	15899.26
486.25	15913.30
486.43	16149.70
486.61	16271.40
486.78	16627.17
486.96	16805.05
487.14	16952.50
487.32	16727.81
487.50	17334.01
487.68	17401.88
487.85	17310.60
488.03	17869.99
488.21	17984.68
488.39	17884.03
488.57	17921.48
488.75	18068.94
488.92	18204.69
489.10	18466.83
489.28	18637.69
489.46	18501.93
489.64	18637.69
489.81	19066.00
489.99	19150.26
490.17	19400.70
490.35	19321.12
490.53	19318.78
490.70	19634.75
490.88	19541.13
491.06	19915.62
491.24	19838.38
491.41	19903.92
491.59	20114.56
491.77	20491.39
491.95	20016.26
492.13	20276.06
492.30	20664.59
492.48	20957.16
492.66	20800.34
492.84	21132.70
493.01	21249.72
493.19	21050.78
493.37	21451.01
493.54	21397.18
493.72	21483.78
493.90	21664.00
494.08	21867.63
494.25	22148.49
494.43	22258.49
494.61	22604.89
494.79	22424.67
494.96	22588.51
495.14	22567.45
495.32	22918.53
495.49	22508.93
495.67	22757.03
495.85	23143.22
496.02	23405.36
496.20	23370.25
496.38	23435.78
496.55	23524.72
496.73	24105.18
496.91	23941.34
497.09	24023.26
497.26	23828.99
497.44	24170.71
497.62	24271.36
497.79	24477.32
497.97	24252.63
498.14	24657.54
498.32	24517.11
498.50	24805.00
498.67	24907.98
498.85	24996.92
499.03	24959.47
499.20	25001.60
499.38	25230.98
499.56	25570.35
499.73	25481.41
499.91	25427.58
500.08	25762.28
500.26	25724.83
500.44	25511.84
500.61	25568.01
500.79	25874.62
500.97	25858.24
501.14	26244.43
501.32	25876.96
501.49	25937.82
501.67	26331.03
501.84	26874.03
502.02	26546.36
502.20	26462.10
502.37	26977.01
502.55	26803.82
502.72	26843.60
502.90	27005.10
503.07	26799.13
503.25	27220.43
503.43	27665.13
503.60	27580.87
503.78	27206.39
503.95	27388.95
504.13	27461.51
504.30	28023.23
504.48	27264.90
504.65	27599.60
504.83	27854.72
505.01	28051.32
505.18	28313.46
505.36	28418.78
505.53	28409.42
505.71	28456.23
505.88	28369.63
506.06	28151.96
506.23	28629.43
506.41	28500.70
506.58	29008.60
506.76	28486.66
506.93	28903.28
507.11	29134.99
507.28	28929.02
507.46	29046.05
507.63	28966.47
507.81	28975.83
507.98	28940.72
508.16	29333.93
508.33	29806.72
508.50	29427.56
508.68	29813.74
508.85	29958.86
509.03	29890.98
509.20	29809.06
509.38	30305.26
509.55	30511.22
509.73	30272.49
509.90	30572.08
510.08	30424.62
510.25	30384.83
510.42	30153.12
510.60	30817.83
510.77	30649.32
510.95	31215.72
511.12	30684.42
511.30	31042.53
511.47	31566.81
511.64	31206.36
511.82	30909.11
511.99	31145.51
512.17	30955.93
512.34	31370.20
512.51	31730.64
512.69	31669.79
512.86	31861.71
513.04	32046.62
513.21	31840.65
513.38	31655.75
513.56	32180.03
513.73	31735.32
513.90	31751.71
514.08	31772.77
514.25	32280.67
514.43	32510.04
514.60	32297.05
514.77	32065.34
514.95	32505.36
515.12	32847.08
515.29	32353.23
515.47	32961.76
515.64	32936.02
515.81	32854.10
515.99	32957.08
516.16	33125.60
516.33	32559.19
516.51	33008.58
516.68	32350.88
516.85	32524.08
517.03	32699.62
517.20	33055.39
517.37	33497.75
517.54	33357.32
517.72	33373.70
517.89	33357.32
518.06	33214.54
518.24	33109.22
518.41	33221.56
518.58	33816.06
518.75	33544.56
518.93	33914.36
519.10	34197.57
519.27	34019.69
519.45	34249.06
519.62	34242.04
519.79	34459.71
519.96	34258.42
520.14	34864.62
520.31	34412.90
520.48	34515.88
520.65	34398.85
520.83	34773.34
521.00	34862.28
521.17	34780.36
521.34	34972.28
521.52	35208.68
521.69	34955.90
521.86	34962.92
522.03	35056.54
522.20	35325.71
522.38	35061.22
522.55	35519.97
522.72	35463.80
522.89	35779.77
523.07	35536.35
523.24	35285.92
523.41	35576.14
523.58	35405.28
523.75	36301.71
523.92	36044.25
524.10	36322.77
524.27	36067.66
524.44	36212.77
524.61	36247.88
524.78	36437.46
524.96	36392.99
525.13	36512.36
525.30	36811.95
525.47	36776.84
525.64	36685.56
525.81	36669.17
525.98	36479.59
526.16	36315.75
526.33	36062.97
526.50	36617.68
526.67	36498.31
526.84	36402.35
527.01	36488.95
527.18	36865.78
527.36	37053.02
527.53	37156.00
527.70	37537.51
527.87	37268.35
528.04	37287.07
528.21	37727.10
528.38	37308.14
528.55	37797.31
528.72	37642.84
528.89	37486.02
529.07	38024.34
529.24	37493.04
529.41	37617.09
529.58	37354.95
529.75	37900.29
529.92	37921.36
530.09	38361.38
530.26	37935.40
530.43	38398.83
530.60	37874.55
530.77	37940.08
530.94	38740.55
531.11	38333.29
531.28	38550.96
531.46	38415.21
531.63	38429.26
531.80	38459.68
531.97	38396.49
532.14	38541.60
532.31	38469.04
532.48	38501.81
532.65	38885.66
532.82	38555.64
532.99	38960.56
533.16	38871.62
533.33	38752.25
533.50	39033.11
533.67	38618.84
533.84	38682.03
534.01	39440.37
534.18	39168.87
534.35	39414.62
534.52	39086.95
534.69	39122.05
534.86	39597.18
535.03	38808.42
535.20	39576.12
535.37	39791.45
535.54	40201.04
535.71	39892.09
535.88	39512.92
536.05	39840.60
536.22	39789.11
536.38	39936.56
536.55	39665.06
536.72	39517.60
536.89	39695.49
537.06	39725.91
537.23	40194.02
537.40	40289.98
537.57	39943.58
537.74	39934.22
537.91	40676.17
538.08	40240.83
538.25	40011.46
538.42	39648.68
538.59	40446.80
538.75	39676.76
538.92	40540.42
539.09	40479.57
539.26	40020.82
539.43	40505.31
539.60	40493.61
539.77	40339.13
539.94	40308.71
540.11	40650.42
540.28	40854.05
540.44	40458.50
540.61	40392.97
540.78	40554.46
540.95	40545.10
541.12	40236.15
541.29	40837.67
541.46	41006.19
541.62	41275.35
541.79	40891.50
541.96	40900.86
542.13	41024.91
542.30	41338.54
542.47	41090.44
542.63	41617.07
542.80	40713.62
542.97	41818.35
543.14	41907.29
543.31	41570.25
543.48	41808.99
543.64	42265.39
543.81	41804.31
543.98	41797.29
544.15	41895.59
544.32	41979.85
544.48	42349.65
544.65	41668.56
544.82	42050.06
544.99	41886.23
545.16	41951.76
545.32	42134.32
545.49	42562.64
545.66	42113.26
545.83	42630.52
546.00	42595.41
546.16	42431.57
546.33	42157.73
546.50	41909.63
546.67	42096.88
546.83	41507.06
547.00	41853.46
547.17	42277.10
547.34	42356.67
547.50	42424.55
547.67	43107.99
547.84	42752.23
548.00	42827.12
548.17	43129.05
548.34	42981.60
548.51	42979.26
548.67	42876.27
548.84	43002.66
549.01	42792.01
549.18	43110.33
549.34	42827.12
549.51	43168.84
549.68	43271.82
549.84	42752.23
550.01	43503.54
550.18	43096.28
550.34	43192.25
550.51	42885.64
550.68	43063.52
550.84	42707.76
551.01	43320.98
551.18	43093.94
551.34	43061.18
551.51	43182.88
551.68	43622.90
551.84	43412.26
552.01	43264.80
552.18	43302.25
552.34	42937.13
552.51	43978.67
552.68	43573.75
552.84	43599.50
553.01	43917.81
553.18	43962.28
553.34	43517.58
553.51	43498.86
553.67	43768.02
553.84	43903.77
554.01	43941.22
554.17	44299.32
554.34	44067.61
554.51	44013.77
554.67	44009.09
554.84	44039.52
555.00	43868.66
555.17	44011.43
555.33	44020.80
555.50	43885.04
555.67	43943.56
555.83	43964.62
556.00	43992.71
556.16	43969.30
556.33	44437.41
556.50	44088.67
556.66	44538.05
556.83	43517.58
556.99	44493.58
557.16	44392.94
557.32	44318.04
557.49	44397.62
557.65	44399.96
557.82	44559.12
557.98	44357.83
558.15	44233.78
558.32	44671.46
558.48	44395.28
558.65	44437.41
558.81	44591.89
558.98	44287.62
559.14	44289.96
559.31	44158.89
559.47	44034.84
559.64	44453.79
559.80	44552.10
559.97	44449.11
560.13	44369.54
560.30	44383.58
560.46	44912.54
560.63	44697.21
560.79	44645.72
560.96	45085.74
561.12	44552.10
561.29	44428.05
561.45	44772.11
561.61	44875.09
561.78	44547.42
561.94	44802.53
562.11	44601.25
562.27	44299.32
562.44	44538.05
562.60	44952.33
562.77	44933.60
562.93	44854.03
563.10	44865.73
563.26	45106.80
563.42	44570.82
563.59	44907.86
563.75	44847.00
563.92	45113.83
564.08	44626.99
564.24	44893.82
564.41	44996.80
564.57	45111.49
564.74	45113.83
564.90	45137.23
565.07	45116.17
565.23	44940.63
565.39	45090.42
565.56	44790.83
565.72	44903.18
565.88	44631.68
566.05	44697.21
566.21	44741.68
566.38	45074.04
566.54	44671.46
566.70	45153.62
566.87	45556.19
567.03	45312.77
567.19	45993.87
567.36	45673.21
567.52	44905.52
567.68	45146.59
567.85	45368.94
568.01	45457.88
568.17	45165.32
568.34	45289.37
568.50	45263.62
568.66	45106.80
568.83	44961.69
568.99	45041.27
569.15	45212.13
569.32	45097.44
569.48	45170.00
569.64	45776.20
569.81	45387.67
569.97	45177.02
570.13	45228.51
570.30	45469.59
570.46	45474.27
570.62	45099.78
570.78	44931.26
570.95	45038.93
571.11	45607.68
571.27	45385.33
571.43	45628.74
571.60	45364.26
571.76	45343.20
571.92	45296.39
572.09	45003.82
572.25	45684.92
572.41	45427.46
572.57	45485.97
572.74	45916.63
572.90	45521.08
573.06	45338.52
573.22	45102.12
573.38	45308.09
573.55	44959.35
573.71	45422.78
573.87	45020.20
574.03	45361.92
574.20	45233.19
574.36	45116.17
574.52	45731.73
574.68	45308.09
574.84	45860.46
575.01	45633.42
575.17	45411.07
575.33	45331.50
575.49	45298.73
575.65	46110.89
575.82	45804.28
575.98	44947.65
576.14	45649.81
576.30	45441.50
576.46	45832.37
576.62	45235.53
576.79	45457.88
576.95	45254.26
577.11	45612.36
577.27	45420.44
577.43	45748.11
577.59	45844.07
577.75	45631.08
577.92	45179.36
578.08	45181.70
578.24	45020.20
578.40	45701.30
578.56	45652.15
578.72	45219.15
578.88	45743.43
579.04	45572.57
579.21	45645.13
579.37	45333.84
579.53	45790.24
579.69	45289.37
579.85	45815.99
580.01	45823.01
580.17	45834.71
580.33	45511.72
580.49	45572.57
580.65	45446.18
580.82	45329.16
580.98	45743.43
581.14	45287.03
581.30	45998.55
581.46	45731.73
581.62	45748.11
581.78	45509.38
581.94	45595.98
582.10	45598.32
582.26	45659.17
582.42	45457.88
582.58	45546.82
582.74	45181.70
582.90	45642.79
583.06	45806.62
583.22	45778.54
583.38	45846.41
583.54	46181.11
583.70	45518.74
583.86	45530.44
584.02	45710.66
584.18	45879.18
584.34	45954.08
584.50	46059.40
584.66	45984.51
584.82	45682.58
584.98	45563.21
585.14	45993.87
585.30	45343.20
585.46	45340.86
585.62	45078.72
585.78	45736.41
585.94	45832.37
586.10	45153.62
586.26	45612.36
586.42	46113.23
586.58	45378.31
586.74	45713.00
586.90	45722.37
587.06	45242.56
587.22	45982.16
587.38	45841.73
587.54	45745.77
587.70	45722.37
587.86	46031.32
588.02	45553.85
588.18	46113.23
588.34	45621.72
588.49	45287.03
588.65	44896.16
588.81	45415.76
588.97	45443.84
589.13	45401.71
589.29	45514.06
589.45	45933.01
589.61	45968.12
589.77	46124.94
589.93	45825.35
590.08	45806.62
