SpectraSuite Data File
++++++++++++++++++++++++++++++++++++
Date: Fri Oct 25 11:25:03 EDT 2013
User: price-jones
Dark Spectrum Present: No
Reference Spectrum Present: No
Number of Sampled Component Spectra: 1
Spectrometers: USB2+H05261
Integration Time (usec): 100000 (USB2+H05261)
Spectra Averaged: 1 (USB2+H05261)
Boxcar Smoothing: 0 (USB2+H05261)
Correct for Electrical Dark: No (USB2+H05261)
Strobe/Lamp Enabled: No (USB2+H05261)
Correct for Detector Non-linearity: No (USB2+H05261)
Correct for Stray Light: No (USB2+H05261)
Number of Pixels in Processed Spectrum: 2048
>>>>>Begin Processed Spectral Data<<<<<
365.73	166.18
365.92	166.18
366.12	166.18
366.32	231.71
366.52	95.96
366.72	154.48
366.91	124.05
367.11	88.94
367.31	140.43
367.51	154.48
367.70	156.82
367.90	140.43
368.10	154.48
368.30	145.11
368.49	145.11
368.69	138.09
368.89	154.48
369.09	138.09
369.28	208.31
369.48	201.29
369.68	217.67
369.87	224.69
370.07	154.48
370.27	250.44
370.47	266.82
370.66	601.52
370.86	650.67
371.06	662.37
371.25	734.93
371.45	634.29
371.65	772.38
371.84	669.39
372.04	594.50
372.24	664.71
372.44	599.18
372.63	751.31
372.83	753.65
373.03	755.99
373.22	770.04
373.42	718.54
373.62	786.42
373.81	826.21
374.01	767.70
374.21	847.27
374.40	835.57
374.60	791.10
374.79	767.70
374.99	800.46
375.19	851.96
375.38	858.98
375.58	805.14
375.78	828.55
375.97	830.89
376.17	889.40
376.37	915.15
376.56	837.91
376.76	826.21
376.95	880.04
377.15	856.64
377.35	877.70
377.54	873.02
377.74	882.38
377.93	858.98
378.13	901.11
378.33	922.17
378.52	891.74
378.72	868.34
378.91	901.11
379.11	922.17
379.31	891.74
379.50	952.60
379.70	999.41
379.89	1064.94
380.09	1034.52
380.28	952.60
380.48	947.92
380.68	968.98
380.87	1018.13
381.07	994.73
381.26	978.34
381.46	1029.84
381.65	1097.71
381.85	1041.54
382.04	1011.11
382.24	1025.15
382.43	950.26
382.63	1076.65
382.83	1097.71
383.02	1069.62
383.22	1163.25
383.41	1053.24
383.61	1071.97
383.80	1118.78
384.00	1151.54
384.19	1095.37
384.39	1121.12
384.58	1125.80
384.78	1196.01
384.97	1186.65
385.17	1102.39
385.36	1095.37
385.56	1186.65
385.75	1081.33
385.95	1186.65
386.14	1252.19
386.34	1212.40
386.53	1289.64
386.72	1186.65
386.92	1221.76
387.11	1214.74
387.31	1259.21
387.50	1235.80
387.70	1270.91
387.89	1235.80
388.09	1249.85
388.28	1341.13
388.48	1310.70
388.67	1240.48
388.86	1303.68
389.06	1380.92
389.25	1343.47
389.45	1303.68
389.64	1320.06
389.84	1352.83
390.03	1350.49
390.22	1430.07
390.42	1373.89
390.61	1315.38
390.81	1404.32
391.00	1444.11
391.19	1357.51
391.39	1404.32
391.58	1453.47
391.78	1460.49
391.97	1474.54
392.16	1502.62
392.36	1502.62
392.55	1497.94
392.75	1582.20
392.94	1472.20
393.13	1533.05
393.33	1563.48
393.52	1582.20
393.71	1542.41
393.91	1572.84
394.10	1596.25
394.29	1598.59
394.49	1593.90
394.68	1680.50
394.88	1568.16
395.07	1591.56
395.26	1689.87
395.46	1689.87
395.65	1760.08
395.84	1748.38
396.04	1804.55
396.23	1764.76
396.42	1748.38
396.62	1820.94
396.81	1781.15
397.00	1830.30
397.19	1818.60
397.39	1767.10
397.58	1750.72
397.77	1851.36
397.97	1886.47
398.16	1851.36
398.35	1905.20
398.55	1909.88
398.74	1914.56
398.93	1984.77
399.12	1856.04
399.32	1881.79
399.51	1942.64
399.70	1996.48
399.90	1970.73
400.09	1968.39
400.28	1968.39
400.47	2012.86
400.67	2094.78
400.86	2099.46
401.05	1991.80
401.24	2073.71
401.44	2143.93
401.63	2188.40
401.82	2197.76
402.01	2136.91
402.21	2097.12
402.40	2174.36
402.59	2134.57
402.78	2122.87
402.97	2246.91
403.17	2361.60
403.36	2235.21
403.55	2298.41
403.74	2368.62
403.93	2382.67
404.13	2275.00
404.32	2324.15
404.51	2324.15
404.70	2389.69
404.89	2541.82
405.09	2394.37
405.28	2544.16
405.47	2478.63
405.66	2527.78
405.85	2485.65
406.05	2539.48
406.24	2490.33
406.43	2527.78
406.62	2560.55
406.81	2668.21
407.00	2504.37
407.20	2537.14
407.39	2607.36
407.58	2740.77
407.77	2729.06
407.96	2677.57
408.15	2787.58
408.34	2696.30
408.54	2780.56
408.73	2761.83
408.92	2881.20
409.11	2827.37
409.30	2951.42
409.49	2946.73
409.68	2918.65
409.87	2864.82
410.07	2995.89
410.26	2951.42
410.45	2935.03
410.64	2998.23
410.83	2974.82
411.02	3033.33
411.21	3131.64
411.40	3272.07
411.59	3339.94
411.78	3206.53
411.98	3133.98
412.17	3187.81
412.36	3353.99
412.55	3293.13
412.74	3485.06
412.93	3386.76
413.12	3417.18
413.31	3562.30
413.50	3499.10
413.69	3492.08
413.88	3536.55
414.07	3599.74
414.26	3494.42
414.45	3665.28
414.64	3651.24
414.83	3707.41
415.02	3784.65
415.22	3833.80
415.41	3770.60
415.60	3889.97
415.79	3925.08
415.98	3941.46
416.17	3915.72
416.36	3922.74
416.55	4018.70
416.74	4091.26
416.93	3967.21
417.12	4095.94
417.31	4231.69
417.50	4126.36
417.69	4238.71
417.88	4266.80
418.07	4257.43
418.26	4376.80
418.45	4409.57
418.64	4519.57
418.83	4358.08
419.02	4442.34
419.21	4404.89
419.39	4484.47
419.58	4435.32
419.77	4521.92
419.96	4521.92
420.15	4514.89
420.34	4655.33
420.53	4664.69
420.72	4760.65
420.91	4823.84
421.10	4709.16
421.29	4802.78
421.48	4582.77
421.67	4709.16
421.86	4755.97
422.05	4711.50
422.24	4793.42
422.43	4854.27
422.61	4830.87
422.80	4851.93
422.99	4999.38
423.18	4849.59
423.37	5027.47
423.56	4732.56
423.75	4779.37
423.94	4854.27
424.13	4519.57
424.32	4706.82
424.50	4954.91
424.69	4940.87
424.88	4950.23
425.07	4854.27
425.26	4873.00
425.45	5006.41
425.64	5069.60
425.83	4875.34
426.01	4849.59
426.20	4983.00
426.39	5032.15
426.58	4943.21
426.77	5123.43
426.96	5022.79
427.15	5076.62
427.33	5275.57
427.52	5111.73
427.71	5193.65
427.90	5128.11
428.09	5231.10
428.28	5273.23
428.46	5210.03
428.65	5462.81
428.84	5540.05
429.03	5444.09
429.22	5170.24
429.40	5397.28
429.59	5357.49
429.78	5385.57
429.97	5446.43
430.16	5446.43
430.34	5570.48
430.53	5638.35
430.72	5650.05
430.91	5605.58
431.10	5694.52
431.28	5762.40
431.47	5724.95
431.66	5863.04
431.85	5715.59
432.03	5853.68
432.22	5935.60
432.41	5874.74
432.60	5846.66
432.79	5846.66
432.97	6050.28
433.16	6111.14
433.35	5760.06
433.54	6043.26
433.72	6282.00
433.91	6162.63
434.10	6188.38
434.28	6169.65
434.47	6108.80
434.66	6188.38
434.85	6260.93
435.03	6396.68
435.22	6253.91
435.41	6368.60
435.59	6312.42
435.78	6363.92
435.97	6429.45
436.16	6502.01
436.34	6373.28
436.53	6462.22
436.72	6590.95
436.90	6331.15
437.09	6612.01
437.28	6410.73
437.46	6619.04
437.65	6518.39
437.84	6712.66
438.02	6670.53
438.21	6726.70
438.40	6602.65
438.58	6925.65
438.77	7070.76
438.96	6874.15
439.14	7002.88
439.33	7129.27
439.52	7213.53
439.70	7365.67
439.89	7431.20
440.08	7463.97
440.26	7403.11
440.45	7456.95
440.63	7286.09
440.82	7456.95
441.01	7419.50
441.19	7751.85
441.38	7644.19
441.57	7721.43
441.75	7796.32
441.94	7838.45
442.12	7829.09
442.31	8013.99
442.50	7892.29
442.68	7847.82
442.87	8063.15
443.05	7978.89
443.24	8191.88
443.43	8124.00
443.61	8231.66
443.80	8404.86
443.98	8060.80
444.17	7873.56
444.35	8255.07
444.54	8250.39
444.73	8269.11
444.91	8133.36
445.10	8341.67
445.28	8215.28
445.47	8264.43
445.65	8229.32
445.84	8308.90
446.02	8510.19
446.21	8360.39
446.39	8542.96
446.58	8454.02
446.77	8383.80
446.95	8416.57
447.14	8329.97
447.32	8620.19
447.51	8325.29
447.69	8304.22
447.88	8411.89
448.06	8470.40
448.25	8334.65
448.43	8638.92
448.62	8519.55
448.80	8430.61
448.99	8538.27
449.17	8692.75
449.36	8723.18
449.54	8723.18
449.73	8802.75
449.91	8919.78
450.10	8901.06
450.28	9057.87
450.46	9343.42
450.65	8819.14
450.83	9210.01
451.02	8954.89
451.20	9144.47
451.39	9195.96
451.57	9111.71
451.76	9083.62
451.94	9184.26
452.13	9067.24
452.31	9362.14
452.49	9083.62
452.68	9366.82
452.86	9308.31
453.05	9348.10
453.23	9561.09
453.42	9465.13
453.60	9247.46
453.78	9408.95
453.97	9418.32
454.15	9369.16
454.34	9334.06
454.52	9664.07
454.70	9500.23
454.89	9540.02
455.07	9745.99
455.26	9785.78
455.44	10017.49
455.62	9598.54
455.81	9783.44
455.99	9792.80
456.17	9919.19
456.36	9975.36
456.54	10167.29
456.73	10190.69
456.91	10370.91
457.09	10413.04
457.28	10658.80
457.46	10331.12
457.64	10532.41
457.83	10544.11
458.01	10354.53
458.19	10874.13
458.38	10401.34
458.56	10551.14
458.74	10604.97
458.93	10726.68
459.11	10712.63
459.29	10572.20
459.48	10775.83
459.66	10836.68
459.84	10911.58
460.03	11262.66
460.21	10881.15
460.39	11059.03
460.57	10995.84
460.76	11171.38
460.94	11241.59
461.12	11084.78
461.31	11290.74
461.49	11150.31
461.67	11220.53
461.85	11262.66
462.04	11052.01
462.22	11808.00
462.40	11506.07
462.59	11522.46
462.77	11433.52
462.95	11569.27
463.13	11747.15
463.32	11632.46
463.50	11726.08
463.68	11590.33
463.86	11648.85
464.05	11485.01
464.23	11747.15
464.41	11988.22
464.59	11463.94
464.78	12051.42
464.96	12119.29
465.14	11719.06
465.32	12013.97
465.50	12201.21
465.69	12245.68
465.87	12116.95
466.05	12184.83
466.23	11976.52
466.41	12177.81
466.60	12196.53
466.78	12023.33
466.96	11798.64
467.14	12161.42
467.32	12348.67
467.51	12461.01
467.69	12329.94
467.87	12294.83
468.05	12587.40
468.23	12262.07
468.41	12437.61
468.60	12479.74
468.78	12620.17
468.96	12400.16
469.14	12720.81
469.32	12842.52
469.50	12578.04
469.69	13076.57
469.87	13060.19
470.05	12959.55
470.23	13235.73
470.41	13092.96
470.59	13224.03
470.77	13193.60
470.95	13107.00
471.14	13626.60
471.32	13048.49
471.50	13682.77
471.68	13614.90
471.86	13708.52
472.04	13685.11
472.22	13905.12
472.40	13399.57
472.58	14073.64
472.77	13795.12
472.95	14132.15
473.13	14665.80
473.31	14073.64
473.49	14033.85
473.67	14080.66
473.85	14207.05
474.03	14677.50
474.21	14654.09
474.39	14541.75
474.57	14506.64
474.75	14944.32
474.93	15049.64
475.12	14944.32
475.30	15239.23
475.48	14930.28
475.66	15169.01
475.84	15005.17
476.02	15358.60
476.20	15246.25
476.38	16049.05
476.56	15826.70
476.74	15932.03
476.92	15957.77
477.10	15536.48
477.28	15948.41
477.46	16065.44
477.64	16311.19
477.82	16615.46
478.00	17001.65
478.18	16645.89
478.36	16676.32
478.54	17256.77
478.72	17018.04
478.90	17209.96
479.08	17202.94
479.26	17378.48
479.44	17708.49
479.62	17998.72
479.80	17930.84
479.98	17900.42
480.16	18607.26
480.34	18085.32
480.52	18747.69
480.70	18523.00
480.88	18251.50
481.06	18625.98
481.24	18810.89
481.41	19000.47
481.59	19353.89
481.77	19234.52
481.95	19243.88
482.13	19742.42
482.31	19428.79
482.49	20285.42
482.67	20016.26
482.85	20395.43
483.03	20568.63
483.21	20865.88
483.39	20842.47
483.57	20833.11
483.74	21273.13
483.92	21128.02
484.10	21238.02
484.28	21448.67
484.46	21816.13
484.64	22377.86
484.82	21949.54
485.00	22178.92
485.18	22338.07
485.35	22852.99
485.53	22661.07
485.71	23178.33
485.89	23688.56
486.07	22927.89
486.25	23115.13
486.43	23821.97
486.61	23922.62
486.78	23913.25
486.96	24339.23
487.14	24753.51
487.32	24570.94
487.50	24657.54
487.68	24685.63
487.85	25055.43
488.03	25614.82
488.21	25898.03
488.39	25811.43
488.57	26033.78
488.75	26085.27
488.92	26082.93
489.10	26754.66
489.28	26735.94
489.46	26890.41
489.64	26850.63
489.81	27454.48
489.99	27424.06
490.17	27449.80
490.35	27974.08
490.53	28261.97
490.70	28460.91
490.88	27962.38
491.06	28709.01
491.24	28940.72
491.41	28837.74
491.59	29095.20
491.77	29371.38
491.95	29507.13
492.13	29804.38
492.30	29764.59
492.48	29944.81
492.66	30356.75
492.84	30356.75
493.01	30623.57
493.19	30595.48
493.37	30691.44
493.54	30829.54
493.72	31243.81
493.90	31548.08
494.08	31534.04
494.25	31824.26
494.43	31817.24
494.61	32315.78
494.79	32421.10
494.96	32084.06
495.14	32390.67
495.32	33060.07
495.49	33411.15
495.67	33099.86
495.85	33467.32
496.02	33666.27
496.20	33558.60
496.38	33937.77
496.55	34096.92
496.73	34822.49
496.91	34590.78
497.09	34494.82
497.26	34616.52
497.44	35033.14
497.62	35225.06
497.79	35604.23
497.97	35599.55
498.14	36032.55
498.32	36662.15
498.50	35983.40
498.67	36390.65
498.85	36112.13
499.03	36467.89
499.20	36467.89
499.38	36989.83
499.56	36526.40
499.73	36627.04
499.91	36760.45
500.08	37776.25
500.26	37425.17
500.44	37769.22
500.61	37708.37
500.79	37717.73
500.97	38120.31
501.14	38597.77
501.32	38642.24
501.49	38234.99
501.67	38775.66
501.84	38768.63
502.02	38934.81
502.20	38785.02
502.37	38927.79
502.55	39346.75
502.72	39658.04
502.90	39545.69
503.07	39241.42
503.25	39674.42
503.43	39257.81
503.60	39981.03
503.78	40051.25
503.95	40243.17
504.13	40357.86
504.30	40240.83
504.48	40430.41
504.65	40659.79
504.83	40961.72
505.01	41045.97
505.18	40741.71
505.36	41528.13
505.53	41130.23
505.71	41425.14
505.88	41319.82
506.06	41310.46
506.23	42000.91
506.41	41935.38
506.58	42265.39
506.76	41928.36
506.93	42071.13
507.11	42295.82
507.28	42796.70
507.46	42464.34
507.63	42506.47
507.81	42611.79
507.98	42913.72
508.16	43210.97
508.33	43667.37
508.50	43388.85
508.68	43515.24
508.85	43482.47
509.03	43328.00
509.20	43789.08
509.38	44428.05
509.55	44154.21
509.73	44528.69
509.90	43985.69
510.08	44683.17
510.25	45038.93
510.42	44484.22
510.60	44634.02
510.77	44858.71
510.95	45022.54
511.12	44910.20
511.30	44802.53
511.47	45347.88
511.64	45235.53
511.82	45893.22
511.99	45539.80
512.17	45588.95
512.34	45710.66
512.51	46466.66
512.69	46073.45
512.86	46314.52
513.04	46499.42
513.21	46478.36
513.38	46162.39
513.56	46892.63
513.73	46763.90
513.90	47255.42
514.08	46866.89
514.25	47103.28
514.43	47440.32
514.60	47463.72
514.77	47234.35
514.95	47634.58
515.12	47332.65
515.29	47718.84
515.47	47667.35
515.64	47983.32
515.81	47730.54
515.99	48217.38
516.16	48355.47
516.33	48418.66
516.51	48449.09
516.68	48446.75
516.85	47920.13
517.03	48402.28
517.20	48877.41
517.37	48552.07
517.54	48626.97
517.72	48938.26
517.89	49041.24
518.06	49294.02
518.24	49059.97
518.41	49233.17
518.58	49265.94
518.75	49177.00
518.93	49408.71
519.10	49546.80
519.27	49429.77
519.45	49488.29
519.62	50312.16
519.79	49881.50
519.96	49965.76
520.14	49790.22
520.31	49832.35
520.48	50258.32
520.65	50185.77
520.83	50316.84
521.00	50569.61
521.17	50358.97
521.34	50370.67
521.52	50742.81
521.69	50670.26
521.86	51098.58
522.03	50871.54
522.20	51054.11
522.38	51154.75
522.55	51395.82
522.72	51522.21
522.89	51138.36
523.07	51882.66
523.24	51339.65
523.41	51641.58
523.58	51281.14
523.75	51688.39
523.92	51814.78
524.10	51920.10
524.27	51831.16
524.44	51805.42
524.61	51849.89
524.78	52165.86
524.96	52250.12
525.13	52168.20
525.30	52184.58
525.47	52306.29
525.64	52027.77
525.81	52573.11
525.98	52912.49
526.16	52540.35
526.33	52186.92
526.50	52933.56
526.67	52676.10
526.84	52626.95
527.01	52638.65
527.18	52837.59
527.36	52949.94
527.53	52999.09
527.70	53155.91
527.87	53209.74
528.04	53207.40
528.21	53294.00
528.38	53298.68
528.55	53361.87
528.72	53345.49
528.89	53404.00
529.07	53188.67
529.24	53436.77
529.41	53797.21
529.58	53460.18
529.75	53546.78
529.92	53951.69
530.09	53567.84
530.26	53727.00
530.43	53956.37
530.60	53750.40
530.77	53801.89
530.94	53956.37
531.11	53710.61
531.28	54066.38
531.46	54405.75
531.63	54356.60
531.80	54007.86
531.97	54520.44
532.14	54518.10
532.31	54621.08
532.48	54506.40
532.65	54679.60
532.82	54335.54
532.99	54614.06
533.16	54630.44
533.33	54670.23
533.50	54777.90
533.67	54714.70
533.84	54574.27
534.01	54775.56
534.18	54859.82
534.35	55203.88
534.52	54899.61
534.69	55278.77
534.86	55182.81
535.03	55061.10
535.20	55037.70
535.37	55187.49
535.54	55313.88
535.71	55248.35
535.88	55318.56
536.05	55449.63
536.22	55351.33
536.38	55526.87
536.55	55648.58
536.72	55561.98
536.89	55126.64
537.06	55664.96
537.23	55599.43
537.40	55351.33
537.57	55604.11
537.74	55547.93
537.91	55845.18
538.08	55718.79
538.25	55519.85
538.42	55957.53
538.59	56051.15
538.75	55798.37
538.92	55749.22
539.09	56058.17
539.26	55899.01
539.43	56172.86
539.60	56095.62
539.77	55955.19
539.94	56332.01
540.11	56481.81
540.28	56575.43
540.44	56236.05
540.61	56315.63
540.78	56032.42
540.95	56177.54
541.12	56285.20
541.29	56065.19
541.46	56390.53
541.62	56814.16
541.79	56746.29
541.96	56388.19
542.13	56254.78
542.30	56624.58
542.47	56896.08
542.63	56828.21
542.80	56776.72
542.97	56956.94
543.14	56963.96
543.31	57308.02
543.48	57284.61
543.64	57198.01
543.81	57303.34
543.98	57073.96
544.15	57237.80
544.32	57298.65
544.48	57443.77
544.65	57247.16
544.82	57275.25
544.99	57015.45
545.16	57432.07
545.32	57286.95
545.49	57581.86
545.66	57738.68
545.83	57336.10
546.00	57464.83
546.16	57326.74
546.33	57553.77
546.50	57670.80
546.67	57558.45
546.83	57439.09
547.00	57523.35
547.17	57485.90
547.34	57635.69
547.50	58005.50
547.67	58120.18
547.84	57673.14
548.00	58148.27
548.17	58110.82
548.34	57893.15
548.51	58003.16
548.67	58134.23
548.84	58237.21
549.01	58099.12
549.18	58134.23
549.34	58155.29
549.51	58159.97
549.68	58248.91
549.84	58190.40
550.01	58471.26
550.18	58159.97
550.34	58328.49
550.51	58188.06
550.68	58291.04
550.84	58253.59
551.01	58518.07
551.18	58365.94
551.34	58387.00
551.51	58450.20
551.68	58534.46
551.84	58459.56
552.01	58511.05
552.18	58478.28
552.34	58637.44
552.51	58798.94
552.68	58621.06
552.84	58637.44
553.01	58609.35
553.18	58663.19
553.34	58705.32
553.51	58869.15
553.67	58876.18
553.84	58824.68
554.01	58871.49
554.17	59047.04
554.34	59023.63
554.51	58908.94
554.67	58983.84
554.84	58724.04
555.00	58801.28
555.17	58848.09
555.33	58850.43
555.50	58749.79
555.67	58965.12
555.83	58812.98
556.00	59049.38
556.16	59372.37
556.33	59400.46
556.50	59126.61
556.66	59337.26
556.83	58953.41
556.99	59421.52
557.16	59346.62
557.32	59498.76
557.49	59510.46
557.65	59245.98
557.82	59250.66
557.98	59215.55
558.15	59309.18
558.32	59348.96
558.48	59238.96
558.65	59257.68
558.81	59421.52
558.98	59243.64
559.14	59594.72
559.31	59435.56
559.47	59580.68
559.64	59559.61
559.80	59557.27
559.97	59538.55
560.13	59470.67
560.30	59505.78
560.46	59559.61
560.63	59648.55
560.79	59599.40
560.96	59920.05
561.12	59765.58
561.29	59777.28
561.45	59756.22
561.61	59468.33
561.78	59709.41
561.94	59669.62
562.11	59798.35
562.27	59957.50
562.44	59796.01
562.60	59838.14
562.77	59896.65
562.93	59744.51
563.10	59959.84
563.26	59693.02
563.42	59931.76
563.59	59873.24
563.75	59777.28
563.92	59997.29
564.08	59873.24
564.24	59994.95
564.41	60172.83
564.57	60095.60
564.74	60240.71
564.90	59910.69
565.07	59941.12
565.23	60163.47
565.39	59997.29
565.56	60060.49
565.72	59952.82
565.88	60001.97
566.05	60163.47
566.21	60140.07
566.38	59966.87
566.54	60090.91
566.70	60491.15
566.87	60044.10
567.03	59859.20
567.19	60327.31
567.36	60285.18
567.52	60229.01
567.68	60451.36
567.85	60367.10
568.01	60357.74
568.17	60233.69
568.34	60189.22
568.50	60315.61
568.66	60264.11
568.83	60495.83
568.99	60266.45
569.15	60294.54
569.32	60315.61
569.48	60271.14
569.64	60453.70
569.81	60378.80
569.97	60210.28
570.13	60331.99
570.30	60451.36
570.46	60533.28
570.62	60212.62
570.78	60224.32
570.95	60357.74
571.11	60612.85
571.27	60427.95
571.43	60456.04
571.60	60722.86
571.76	60339.01
571.92	60423.27
572.09	60654.98
572.25	60722.86
572.41	60570.72
572.57	60301.56
572.74	60739.24
572.90	60348.37
573.06	60610.51
573.22	60502.85
573.38	60547.32
573.55	60294.54
573.71	60629.24
573.87	60584.77
574.03	60404.55
574.20	60708.82
574.36	60559.02
574.52	60502.85
574.68	60554.34
574.84	60858.61
575.01	60795.42
575.17	60580.09
575.33	60683.07
575.49	60530.93
575.65	60626.90
575.82	60647.96
575.98	60830.52
576.14	60905.42
576.30	60563.70
576.46	60755.63
576.62	60697.11
576.79	60664.35
576.95	60542.64
577.11	60781.37
577.27	60769.67
577.43	60769.67
577.59	60638.60
577.75	60580.09
577.92	60678.39
578.08	60830.52
578.24	60636.26
578.40	60959.25
578.56	60907.76
578.72	60690.09
578.88	60949.89
579.04	60952.23
579.21	60839.89
579.37	60643.28
579.53	60938.19
579.69	60523.91
579.85	60652.64
580.01	60884.36
580.17	60481.78
580.33	60837.54
580.49	61001.38
580.65	60891.38
580.82	60867.97
580.98	60566.04
581.14	60790.73
581.30	60856.27
581.46	60839.89
581.62	60793.07
581.78	60725.20
581.94	60832.86
582.10	60893.72
582.26	60741.58
582.42	60874.99
582.58	60935.85
582.74	60858.61
582.90	60729.88
583.06	60680.73
583.22	60699.45
583.38	60783.71
583.54	60790.73
583.70	61066.92
583.86	60800.10
584.02	60921.80
584.18	60975.64
584.34	60940.53
584.50	61008.40
584.66	60860.95
584.82	60748.60
584.98	61090.32
585.14	60917.12
585.30	60886.70
585.46	61134.79
585.62	60816.48
585.78	61001.38
585.94	60865.63
586.10	60851.59
586.26	61001.38
586.42	60818.82
586.58	61160.54
586.74	60954.57
586.90	60985.00
587.06	60886.70
587.22	60963.93
587.38	60872.65
587.54	61043.51
587.70	61141.81
587.86	61003.72
588.02	61015.43
588.18	61237.78
588.34	61055.21
588.49	60931.17
