SpectraSuite Data File
++++++++++++++++++++++++++++++++++++
Date: Fri Oct 25 11:25:20 EDT 2013
User: price-jones
Dark Spectrum Present: No
Reference Spectrum Present: No
Number of Sampled Component Spectra: 1
Spectrometers: USB2+H05261
Integration Time (usec): 100000 (USB2+H05261)
Spectra Averaged: 1 (USB2+H05261)
Boxcar Smoothing: 0 (USB2+H05261)
Correct for Electrical Dark: No (USB2+H05261)
Strobe/Lamp Enabled: No (USB2+H05261)
Correct for Detector Non-linearity: No (USB2+H05261)
Correct for Stray Light: No (USB2+H05261)
Number of Pixels in Processed Spectrum: 2048
>>>>>Begin Processed Spectral Data<<<<<
365.73	189.58
365.92	189.58
366.12	189.58
366.32	184.90
366.52	149.79
366.72	163.84
366.91	147.45
367.11	37.45
367.31	161.50
367.51	105.32
367.70	91.28
367.90	74.90
368.10	60.85
368.30	234.05
368.49	102.98
368.69	203.63
368.89	170.86
369.09	135.75
369.28	212.99
369.48	168.52
369.68	234.05
369.87	161.50
370.07	194.26
370.27	276.18
370.47	292.57
370.66	624.92
370.86	582.79
371.06	685.78
371.25	648.33
371.45	631.94
371.65	683.44
371.84	620.24
372.04	688.12
372.24	746.63
372.44	662.37
372.63	758.33
372.83	765.36
373.03	774.72
373.22	760.67
373.42	748.97
373.62	788.76
373.81	744.29
374.01	826.21
374.21	854.30
374.40	767.70
374.60	842.59
374.79	828.55
374.99	793.44
375.19	884.72
375.38	779.40
375.58	929.19
375.78	828.55
375.97	887.06
376.17	882.38
376.37	931.53
376.56	922.17
376.76	814.51
376.95	833.23
377.15	870.68
377.35	924.51
377.54	863.66
377.74	1001.75
377.93	931.53
378.13	896.43
378.33	912.81
378.52	828.55
378.72	938.55
378.91	940.90
379.11	940.90
379.31	1001.75
379.50	997.07
379.70	1018.13
379.89	1067.28
380.09	910.47
380.28	957.28
380.48	985.37
380.68	1055.58
380.87	926.85
381.07	1013.45
381.26	990.05
381.46	1029.84
381.65	1015.79
381.85	1048.56
382.04	1039.20
382.24	1006.43
382.43	1001.75
382.63	1006.43
382.83	1046.22
383.02	1076.65
383.22	1067.28
383.41	1069.62
383.61	1057.92
383.80	1158.57
384.00	1109.41
384.19	1067.28
384.39	1132.82
384.58	1198.35
384.78	1067.28
384.97	1114.10
385.17	1179.63
385.36	1130.48
385.56	1093.03
385.75	1121.12
385.95	1174.95
386.14	1203.04
386.34	1249.85
386.53	1186.65
386.72	1203.04
386.92	1256.87
387.11	1196.01
387.31	1193.67
387.50	1275.59
387.70	1294.32
387.89	1196.01
388.09	1226.44
388.28	1322.40
388.48	1249.85
388.67	1280.27
388.86	1331.76
389.06	1345.81
389.25	1280.27
389.45	1254.53
389.64	1287.29
389.84	1355.17
390.03	1355.17
390.22	1385.60
390.42	1385.60
390.61	1446.45
390.81	1336.45
391.00	1341.13
391.19	1423.05
391.39	1369.21
391.58	1504.96
391.78	1409.00
391.97	1453.47
392.16	1409.00
392.36	1542.41
392.55	1511.99
392.75	1568.16
392.94	1432.41
393.13	1533.05
393.33	1556.46
393.52	1547.09
393.71	1537.73
393.91	1549.43
394.10	1530.71
394.29	1540.07
394.49	1629.01
394.68	1579.86
394.88	1521.35
395.07	1617.31
395.26	1631.35
395.46	1636.03
395.65	1682.85
395.84	1661.78
396.04	1720.29
396.23	1689.87
396.42	1750.72
396.62	1652.42
396.81	1804.55
397.00	1741.36
397.19	1675.82
397.39	1802.21
397.58	1760.08
397.77	1741.36
397.97	1708.59
398.16	1818.60
398.35	1884.13
398.55	1762.42
398.74	1884.13
398.93	1884.13
399.12	1820.94
399.32	1959.03
399.51	1949.67
399.70	1940.30
399.90	1856.04
400.09	1947.33
400.28	2087.76
400.47	2005.84
400.67	2050.31
400.86	2090.10
401.05	2092.44
401.24	2188.40
401.44	2143.93
401.63	2054.99
401.82	2104.14
402.01	2080.74
402.21	2146.27
402.40	2183.72
402.59	2188.40
402.78	2214.15
402.97	2155.63
403.17	2314.79
403.36	2214.15
403.55	2221.17
403.74	2312.45
403.93	2464.58
404.13	2448.20
404.32	2389.69
404.51	2406.07
404.70	2396.71
404.89	2359.26
405.09	2511.39
405.28	2408.41
405.47	2483.31
405.66	2403.73
405.85	2548.84
406.05	2597.99
406.24	2539.48
406.43	2565.23
406.62	2619.06
406.81	2729.06
407.00	2539.48
407.20	2588.63
407.39	2590.97
407.58	2693.96
407.77	2705.66
407.96	2750.13
408.15	2796.94
408.34	2810.98
408.54	2787.58
408.73	2726.72
408.92	2832.05
409.11	2944.39
409.30	2888.22
409.49	3000.57
409.68	2984.18
409.87	2965.46
410.07	2935.03
410.26	2979.50
410.45	2993.55
410.64	3005.25
410.83	3033.33
411.02	3009.93
411.21	3028.65
411.40	3110.57
411.59	3133.98
411.78	3049.72
411.98	3178.45
412.17	3215.90
412.36	3349.31
412.55	3304.84
412.74	3461.65
412.93	3368.03
413.12	3342.28
413.31	3438.25
413.50	3515.48
413.69	3393.78
413.88	3576.34
414.07	3581.02
414.26	3548.25
414.45	3658.26
414.64	3728.47
414.83	3691.02
415.02	3808.05
415.22	3758.90
415.41	3812.73
415.60	3885.29
415.79	3794.01
415.98	3934.44
416.17	4058.49
416.36	3854.86
416.55	3939.12
416.74	4114.66
416.93	3990.61
417.12	4084.23
417.31	4100.62
417.50	4189.56
417.69	4311.27
417.88	4252.75
418.07	4161.47
418.26	4285.52
418.45	4348.72
418.64	4369.78
418.83	4444.68
419.02	4449.36
419.21	4344.03
419.39	4603.83
419.58	4444.68
419.77	4432.97
419.96	4601.49
420.15	4444.68
420.34	4503.19
420.53	4624.90
420.72	4617.88
420.91	4589.79
421.10	4751.29
421.29	4779.37
421.48	4573.41
421.67	4753.63
421.86	4664.69
422.05	4716.18
422.24	4685.75
422.43	4844.91
422.61	4943.21
422.80	5032.15
422.99	4952.57
423.18	4931.51
423.37	4999.38
423.56	4908.10
423.75	4870.65
423.94	4833.21
424.13	4564.04
424.32	4807.46
424.50	4812.14
424.69	5013.43
424.88	5125.77
425.07	4929.17
425.26	5025.13
425.45	5043.85
425.64	5004.07
425.83	4828.53
426.01	4961.94
426.20	5013.43
426.39	5046.20
426.58	4894.06
426.77	4994.70
426.96	5135.14
427.15	5046.20
427.33	5245.14
427.52	5151.52
427.71	5282.59
427.90	5135.14
428.09	5350.46
428.28	5380.89
428.46	5184.29
428.65	5261.52
428.84	5465.15
429.03	5497.92
429.22	5081.30
429.40	5310.68
429.59	5369.19
429.78	5296.63
429.97	5193.65
430.16	5446.43
430.34	5469.83
430.53	5633.67
430.72	5668.78
430.91	5547.07
431.10	5458.13
431.28	5554.09
431.47	5680.48
431.66	5612.60
431.85	5621.97
432.03	5645.37
432.22	5877.09
432.41	5909.85
432.60	5816.23
432.79	5818.57
432.97	5788.14
433.16	5968.37
433.35	5961.34
433.54	6214.12
433.72	6080.71
433.91	6066.67
434.10	6106.46
434.28	6073.69
434.47	6113.48
434.66	6132.20
434.85	6476.26
435.03	6370.94
435.22	6356.90
435.41	6647.12
435.59	6462.22
435.78	6408.39
435.97	6272.64
436.16	6303.06
436.34	6523.07
436.53	6380.30
436.72	6595.63
436.90	6342.85
437.09	6492.65
437.28	6394.34
437.46	6600.31
437.65	6525.41
437.84	6827.34
438.02	6747.76
438.21	6707.98
438.40	6686.91
438.58	6932.67
438.77	7012.24
438.96	6888.20
439.14	6935.01
439.33	7140.97
439.52	7152.68
439.70	7258.00
439.89	7356.30
440.08	7316.51
440.26	7325.88
440.45	7288.43
440.63	7468.65
440.82	7489.71
441.01	7517.80
441.19	7698.02
441.38	7606.74
441.57	7723.77
441.75	7702.70
441.94	7922.71
442.12	7936.76
442.31	7934.42
442.50	8011.65
442.68	7838.45
442.87	7889.95
443.05	8077.19
443.24	8313.58
443.43	7960.16
443.61	8252.73
443.80	8353.37
443.98	8121.66
444.17	7777.60
444.35	8021.02
444.54	8304.22
444.73	8168.47
444.91	8156.77
445.10	8182.51
445.28	8304.22
445.47	8112.30
445.65	7896.97
445.84	8318.26
446.02	8390.82
446.21	8325.29
446.39	8374.44
446.58	8329.97
446.77	8418.91
446.95	8255.07
447.14	8400.18
447.32	8397.84
447.51	8512.53
447.69	8294.86
447.88	8400.18
448.06	8402.52
448.25	8407.20
448.43	8430.61
448.62	8566.36
448.80	8528.91
448.99	8608.49
449.17	8828.50
449.36	8571.04
449.54	8681.05
449.73	8936.17
449.91	9013.40
450.10	8901.06
450.28	8957.23
450.46	8952.55
450.65	8915.10
450.83	8926.80
451.02	8879.99
451.20	9118.73
451.39	9039.15
451.57	9144.47
451.76	9074.26
451.94	8999.36
452.13	9254.48
452.31	9130.43
452.49	9177.24
452.68	9458.10
452.86	9205.33
453.05	9195.96
453.23	9507.26
453.42	9083.62
453.60	9240.44
453.78	9432.36
453.97	9352.78
454.15	9420.66
454.34	9249.80
454.52	9486.19
454.70	9767.06
454.89	9582.15
455.07	9703.86
455.26	9614.92
455.44	9954.30
455.62	9731.95
455.81	9958.98
455.99	10045.58
456.17	9916.85
456.36	10186.01
456.54	10059.62
456.73	10253.89
456.91	10286.65
457.09	10183.67
457.28	10403.68
457.46	10328.78
457.64	10373.25
457.83	10422.41
458.01	10249.21
458.19	10597.95
458.38	10707.95
458.56	10792.21
458.74	10717.31
458.93	10518.37
459.11	10775.83
459.29	10670.50
459.48	10595.61
459.66	10626.03
459.84	10738.38
460.03	10981.79
460.21	11012.22
460.39	10815.62
460.57	11063.71
460.76	10953.71
460.94	11171.38
461.12	11162.01
461.31	11211.17
461.49	11063.71
461.67	11260.32
461.85	11545.86
462.04	11005.20
462.22	11803.32
462.40	11499.05
462.59	11550.54
462.77	11405.43
462.95	11604.38
463.13	11485.01
463.32	11550.54
463.50	11576.29
463.68	11822.05
463.86	11985.88
464.05	11714.38
464.23	11679.27
464.41	11824.39
464.59	11503.73
464.78	11824.39
464.96	11896.94
465.14	11990.56
465.32	12009.29
465.50	11920.35
465.69	12063.12
465.87	12037.38
466.05	12035.03
466.23	11978.86
466.41	12070.14
466.60	12451.65
466.78	12028.01
466.96	12248.02
467.14	12299.52
467.32	12262.07
467.51	12346.33
467.69	12070.14
467.87	12306.54
468.05	12346.33
468.23	12222.28
468.41	12318.24
468.60	12545.27
468.78	12531.23
468.96	12791.03
469.14	12891.67
469.32	12940.82
469.50	12713.79
469.69	12847.20
469.87	12957.21
470.05	12891.67
470.23	13116.36
470.41	13055.51
470.59	13198.28
470.77	13205.30
470.95	13121.04
471.14	13530.64
471.32	12919.76
471.50	13415.95
471.68	13476.80
471.86	13390.20
472.04	13661.71
472.22	13858.31
472.40	13554.04
472.58	13741.29
472.77	13933.21
472.95	13970.66
473.13	14284.29
473.31	13970.66
473.49	13970.66
473.67	13951.93
473.85	14232.80
474.03	14413.02
474.21	14504.30
474.39	14642.39
474.57	14340.46
474.75	14778.14
474.93	14841.34
475.12	14939.64
475.30	15105.82
475.48	15087.09
475.66	15152.63
475.84	14909.21
476.02	15267.31
476.20	15246.25
476.38	15681.59
476.56	15871.17
476.74	15999.90
476.92	15719.04
477.10	15871.17
477.28	15999.90
477.46	15864.15
477.64	16332.26
477.82	16486.73
478.00	17071.87
478.18	16514.82
478.36	16947.82
478.54	17174.85
478.72	17013.35
478.90	17535.29
479.08	17362.09
479.26	17369.12
479.44	17242.73
479.62	17699.13
479.80	17825.52
479.98	17940.21
480.16	18356.82
480.34	18200.01
480.52	18270.22
480.70	18523.00
480.88	18265.54
481.06	18370.86
481.24	18698.54
481.41	18984.09
481.59	19028.56
481.77	19651.14
481.95	19393.68
482.13	19435.81
482.31	19365.59
482.49	20070.09
482.67	20058.39
482.85	20250.32
483.03	20144.99
483.21	20685.65
483.39	20828.43
483.57	20847.15
483.74	20931.41
483.92	21298.88
484.10	20966.52
484.28	21647.61
484.46	21429.94
484.64	21970.61
484.82	21577.40
485.00	22288.92
485.18	22588.51
485.35	22682.13
485.53	22396.59
485.71	23227.48
485.89	23335.14
486.07	22993.42
486.25	23105.77
486.43	23384.29
486.61	23758.78
486.78	24191.78
486.96	23637.07
487.14	24456.26
487.32	24538.18
487.50	24713.72
487.68	24875.21
487.85	25233.32
488.03	25549.29
488.21	25759.94
488.39	25663.97
488.57	25972.92
488.75	25937.82
488.92	26515.93
489.10	26480.82
489.28	26518.27
489.46	26850.63
489.64	27021.48
489.81	27349.16
489.99	27674.49
490.17	27487.25
490.35	27527.04
490.53	27819.61
490.70	28566.24
490.88	28313.46
491.06	28566.24
491.24	28751.14
491.41	28727.74
491.59	29244.99
491.77	29050.73
491.95	29177.12
492.13	29362.02
492.30	29617.14
492.48	29837.15
492.66	29738.85
492.84	30185.89
493.01	30448.03
493.19	30426.96
493.37	30738.26
493.54	31126.78
493.72	31239.13
493.90	31131.47
494.08	31239.13
494.25	31536.38
494.43	31246.15
494.61	32142.58
494.79	32308.76
494.96	32247.90
495.14	32367.27
495.32	32919.63
495.49	33277.74
495.67	32886.87
495.85	33270.72
496.02	33289.44
496.20	33659.24
496.38	33701.37
496.55	33832.44
496.73	34593.12
496.91	34068.84
497.09	34181.18
497.26	34703.12
497.44	34834.19
497.62	35058.88
497.79	35555.08
497.97	35676.79
498.14	35608.91
498.32	36004.46
498.50	35983.40
498.67	36250.22
498.85	36493.63
499.03	36430.44
499.20	36666.83
499.38	36664.49
499.56	36907.91
499.73	36954.72
499.91	36914.93
500.08	37338.57
500.26	37102.17
500.44	37567.94
500.61	37275.37
500.79	37776.25
500.97	37787.95
501.14	38139.03
501.32	38443.30
501.49	38309.89
501.67	38328.61
501.84	38651.61
502.02	38675.01
502.20	39068.22
502.37	39199.29
502.55	38948.85
502.72	39213.34
502.90	39187.59
503.07	39309.30
503.25	39335.04
503.43	39058.86
503.60	39559.73
503.78	39817.19
503.95	39438.03
504.13	40509.99
504.30	40322.75
504.48	40297.00
504.65	40509.99
504.83	40753.41
505.01	41116.19
505.18	40865.75
505.36	41375.99
505.53	40655.11
505.71	41301.09
505.88	41455.57
506.06	41102.15
506.23	41577.28
506.41	41923.68
506.58	41745.80
506.76	41918.99
506.93	42129.64
507.11	41727.07
507.28	42513.49
507.46	42506.47
507.63	42330.93
507.81	42728.82
507.98	42934.79
508.16	42876.27
508.33	43166.50
508.50	43166.50
508.68	43250.76
508.85	43620.56
509.03	43372.47
509.20	43426.30
509.38	43807.81
509.55	44236.12
509.73	44100.37
509.90	43746.95
510.08	44203.36
510.25	44470.18
510.42	44582.52
510.60	44877.43
510.77	45031.91
510.95	44783.81
511.12	44877.43
511.30	44945.31
511.47	45406.39
511.64	45003.82
511.82	45446.18
511.99	45242.56
512.17	45511.72
512.34	45872.16
512.51	45951.74
512.69	46153.02
512.86	45851.09
513.04	46024.29
513.21	46686.67
513.38	45970.46
513.56	46726.46
513.73	46686.67
513.90	46782.63
514.08	46461.97
514.25	47196.90
514.43	46904.34
514.60	46916.04
514.77	47391.17
514.95	47344.36
515.12	47370.10
515.29	46855.18
515.47	47782.04
515.64	47758.63
515.81	47800.76
515.99	47920.13
516.16	48371.85
516.33	47910.77
516.51	48493.56
516.68	47650.97
516.85	48065.24
517.03	48538.03
517.20	48940.60
517.37	48495.90
517.54	48942.94
517.72	48758.04
517.89	48664.42
518.06	49221.47
518.24	49024.86
518.41	48884.43
518.58	48875.07
518.75	49244.87
518.93	49478.92
519.10	49113.80
519.27	49610.00
519.45	49771.49
519.62	49822.98
519.79	49600.63
519.96	49591.27
520.14	49787.88
520.31	49921.29
520.48	50431.52
520.65	49897.88
520.83	50316.84
521.00	50204.49
521.17	50279.39
521.34	50473.65
521.52	50361.31
521.69	50703.03
521.86	50504.08
522.03	50850.48
522.20	51103.26
522.38	51210.92
522.55	50761.54
522.72	51004.95
522.89	51016.66
523.07	51290.50
523.24	51241.35
523.41	51400.50
523.58	51093.89
523.75	51622.86
523.92	51374.76
524.10	51702.43
524.27	51959.89
524.44	51856.91
524.61	52016.07
524.78	52189.27
524.96	51789.03
525.13	52243.10
525.30	52378.85
525.47	52303.95
525.64	52229.05
525.81	52217.35
525.98	52832.91
526.16	52175.22
526.33	52456.09
526.50	52718.23
526.67	52472.47
526.84	52835.25
527.01	52420.98
527.18	52748.65
527.36	52463.11
527.53	52755.68
527.70	53029.52
527.87	53066.97
528.04	52905.47
528.21	53198.04
528.38	53090.37
528.55	53137.18
528.72	53336.13
528.89	53162.93
529.07	53221.44
529.24	53090.37
529.41	53448.47
529.58	53483.58
529.75	53455.50
529.92	53249.53
530.09	53340.81
530.26	53652.10
530.43	53886.15
530.60	53551.46
530.77	53897.86
530.94	53956.37
531.11	53727.00
531.28	53708.27
531.46	54007.86
531.63	54141.27
531.80	53869.77
531.97	53881.47
532.14	54391.71
532.31	54405.75
532.48	54461.93
532.65	54541.50
532.82	54302.77
532.99	54546.18
533.16	54363.62
533.33	54494.69
533.50	54550.87
533.67	54380.01
533.84	54564.91
534.01	54611.72
534.18	54693.64
534.35	55136.00
534.52	54965.14
534.69	54974.50
534.86	55168.77
535.03	54979.18
535.20	55189.83
535.37	54801.30
535.54	55042.38
535.71	54848.11
535.88	55360.69
536.05	55185.15
536.22	55379.42
536.38	55250.69
536.55	55372.39
536.72	55250.69
536.89	55393.46
537.06	55327.92
537.23	55290.48
537.40	55381.76
537.57	55416.86
537.74	55466.02
537.91	55709.43
538.08	55667.30
538.25	55449.63
538.42	55807.73
538.59	55681.34
538.75	55597.09
538.92	55854.54
539.09	55913.06
539.26	55875.61
539.43	55934.12
539.60	55941.14
539.77	55934.12
539.94	56252.44
540.11	56144.77
540.28	56301.59
540.44	56116.68
540.61	56329.67
540.78	56137.75
540.95	55948.17
541.12	56268.82
541.29	56343.72
541.46	56317.97
541.62	56367.12
541.79	56442.02
541.96	56266.48
542.13	56449.04
542.30	56488.83
542.47	56446.70
542.63	56545.00
542.80	56734.59
542.97	56872.68
543.14	57071.62
543.31	57071.62
543.48	57048.22
543.64	57251.84
543.81	57020.13
543.98	57174.61
544.15	57059.92
544.32	57006.09
544.48	57118.43
544.65	57214.40
544.82	57333.76
544.99	56884.38
545.16	57076.30
545.32	57151.20
545.49	57464.83
545.66	57631.01
545.83	57237.80
546.00	57818.25
546.16	57460.15
546.33	57469.51
546.50	57389.94
546.67	57588.88
546.83	57324.40
547.00	57556.11
547.17	57434.41
547.34	57605.26
547.50	57815.91
547.67	58033.58
547.84	57652.08
548.00	57752.72
548.17	58024.22
548.34	57806.55
548.51	58066.35
548.67	58019.54
548.84	57851.02
549.01	57818.25
549.18	57942.30
549.34	58042.95
549.51	58150.61
549.68	58216.14
549.84	58234.87
550.01	58178.70
550.18	58103.80
550.34	58279.34
550.51	58333.17
550.68	58279.34
550.84	58054.65
551.01	58326.15
551.18	58298.06
551.34	58323.81
551.51	58440.84
551.68	58445.52
551.84	58480.63
552.01	58417.43
552.18	58553.18
552.34	58300.40
552.51	58557.86
552.68	58328.49
552.84	58644.46
553.01	58770.85
553.18	58592.97
553.34	58665.53
553.51	58316.79
553.67	58698.30
553.84	58983.84
554.01	58805.96
554.17	58738.08
554.34	58944.05
554.51	59047.04
554.67	58822.34
554.84	58756.81
555.00	58892.56
555.17	58571.91
555.33	58930.01
555.50	58698.30
555.67	58775.53
555.83	58827.02
556.00	58887.88
556.16	59044.69
556.33	59016.61
556.50	58981.50
556.66	59271.73
556.83	58829.37
556.99	59435.56
557.16	59269.39
557.32	59393.43
557.49	59341.94
557.65	59168.74
557.82	59187.47
557.98	59290.45
558.15	59379.39
558.32	59196.83
558.48	59285.77
558.65	59444.93
558.81	59398.12
558.98	59119.59
559.14	59281.09
559.31	59320.88
559.47	59498.76
559.64	59351.30
559.80	59690.68
559.97	59498.76
560.13	59313.86
560.30	59468.33
560.46	59625.15
560.63	59753.88
560.79	59393.43
560.96	59622.81
561.12	59669.62
561.29	59599.40
561.45	59604.08
561.61	59756.22
561.78	59697.70
561.94	59576.00
562.11	59447.27
562.27	59702.38
562.44	59852.18
562.60	59877.93
562.77	59774.94
562.93	59576.00
563.10	60027.72
563.26	59781.96
563.42	59999.63
563.59	60006.65
563.75	60062.83
563.92	59898.99
564.08	59674.30
564.24	60011.34
564.41	60006.65
564.57	59931.76
564.74	59770.26
564.90	60079.21
565.07	59835.80
565.23	60053.47
565.39	59826.43
565.56	60023.04
565.72	59929.42
565.88	60102.62
566.05	59896.65
566.21	59826.43
566.38	60151.77
566.54	60104.96
566.70	60229.01
566.87	60158.79
567.03	59894.31
567.19	60346.03
567.36	60088.57
567.52	60123.68
567.68	60292.20
567.85	60320.29
568.01	60144.75
568.17	59920.05
568.34	60294.54
568.50	60060.49
568.66	60289.86
568.83	60137.72
568.99	60214.96
569.15	60238.37
569.32	60163.47
569.48	60177.51
569.64	60341.35
569.81	60425.61
569.97	60158.79
570.13	60420.93
570.30	60111.98
570.46	60261.77
570.62	60346.03
570.78	60362.42
570.95	60339.01
571.11	60481.78
571.27	60296.88
571.43	60346.03
571.60	60631.58
571.76	60439.65
571.92	60423.27
572.09	60268.79
572.25	60285.18
572.41	60491.15
572.57	60303.90
572.74	60533.28
572.90	60458.38
573.06	60444.33
573.22	60458.38
573.38	60594.13
573.55	60444.33
573.71	60631.58
573.87	60509.87
574.03	60280.50
574.20	60631.58
574.36	60413.91
574.52	60530.93
574.68	60502.85
574.84	60544.98
575.01	60556.68
575.17	60449.02
575.33	60317.95
575.49	60530.93
575.65	60605.83
575.82	60692.43
575.98	60776.69
576.14	60816.48
576.30	60556.68
576.46	60612.85
576.62	60575.40
576.79	60645.62
576.95	60591.79
577.11	60584.77
577.27	60591.79
577.43	60556.68
577.59	60729.88
577.75	60573.06
577.92	60662.00
578.08	60507.53
578.24	60779.03
578.40	60940.53
578.56	60818.82
578.72	60575.40
578.88	60851.59
579.04	60652.64
579.21	60741.58
579.37	60853.93
579.53	60795.42
579.69	60474.76
579.85	60610.51
580.01	60654.98
580.17	60472.42
580.33	60924.14
580.49	60790.73
580.65	60650.30
580.82	60760.31
580.98	60500.51
581.14	60783.71
581.30	60802.44
581.46	60706.47
581.62	60575.40
581.78	60552.00
581.94	60713.50
582.10	60797.76
582.26	60697.11
582.42	60676.05
582.58	60809.46
582.74	60650.30
582.90	60851.59
583.06	60533.28
583.22	60587.11
583.38	60762.65
583.54	60776.69
583.70	60872.65
583.86	60816.48
584.02	60615.19
584.18	61024.79
584.34	61015.43
584.50	60877.33
584.66	60788.39
584.82	60673.71
584.98	60896.06
585.14	61059.90
585.30	60750.94
585.46	61020.11
585.62	60608.17
585.78	61090.32
585.94	60746.26
586.10	60823.50
586.26	60896.06
586.42	60949.89
586.58	60919.46
586.74	60837.54
586.90	60832.86
587.06	60800.10
587.22	61062.24
587.38	60879.67
587.54	60839.89
587.70	61031.81
587.86	60837.54
588.02	60959.25
588.18	60999.04
588.34	60968.61
588.49	60842.23
