SpectraSuite Data File
++++++++++++++++++++++++++++++++++++
Date: Fri Oct 25 11:33:33 EDT 2013
User: price-jones
Dark Spectrum Present: No
Reference Spectrum Present: No
Number of Sampled Component Spectra: 1
Spectrometers: USB2+H05261
Integration Time (usec): 100000 (USB2+H05261)
Spectra Averaged: 1 (USB2+H05261)
Boxcar Smoothing: 0 (USB2+H05261)
Correct for Electrical Dark: No (USB2+H05261)
Strobe/Lamp Enabled: No (USB2+H05261)
Correct for Detector Non-linearity: No (USB2+H05261)
Correct for Stray Light: No (USB2+H05261)
Number of Pixels in Processed Spectrum: 2048
>>>>>Begin Processed Spectral Data<<<<<
365.73	245.76
365.92	245.76
366.12	245.76
366.32	163.84
366.52	124.05
366.72	231.71
366.91	159.16
367.11	156.82
367.31	163.84
367.51	112.35
367.70	128.73
367.90	182.56
368.10	126.39
368.30	86.60
368.49	259.80
368.69	215.33
368.89	187.24
369.09	163.84
369.28	198.95
369.48	198.95
369.68	224.69
369.87	294.91
370.07	170.86
370.27	283.20
370.47	292.57
370.66	468.11
370.86	456.40
371.06	585.13
371.25	624.92
371.45	491.51
371.65	550.03
371.84	519.60
372.04	582.79
372.24	559.39
372.44	606.20
372.63	629.60
372.83	615.56
373.03	585.13
373.22	603.86
373.42	669.39
373.62	615.56
373.81	634.29
374.01	695.14
374.21	706.84
374.40	662.37
374.60	683.44
374.79	643.65
374.99	660.03
375.19	692.80
375.38	645.99
375.58	592.16
375.78	641.31
375.97	676.41
376.17	734.93
376.37	667.05
376.56	650.67
376.76	751.31
376.95	620.24
377.15	690.46
377.35	643.65
377.54	645.99
377.74	697.48
377.93	683.44
378.13	678.76
378.33	669.39
378.52	648.33
378.72	758.33
378.91	720.88
379.11	678.76
379.31	692.80
379.50	739.61
379.70	667.05
379.89	760.67
380.09	739.61
380.28	704.50
380.48	734.93
380.68	725.57
380.87	662.37
381.07	748.97
381.26	741.95
381.46	779.40
381.65	800.46
381.85	828.55
382.04	814.51
382.24	753.65
382.43	814.51
382.63	767.70
382.83	697.48
383.02	765.36
383.22	873.02
383.41	823.87
383.61	800.46
383.80	821.53
384.00	798.12
384.19	858.98
384.39	744.29
384.58	833.23
384.78	894.08
384.97	854.30
385.17	875.36
385.36	889.40
385.56	821.53
385.75	819.19
385.95	807.48
386.14	858.98
386.34	755.99
386.53	814.51
386.72	940.90
386.92	938.55
387.11	908.13
387.31	910.47
387.50	905.79
387.70	875.36
387.89	926.85
388.09	987.71
388.28	847.27
388.48	924.51
388.67	898.77
388.86	940.90
389.06	919.83
389.25	940.90
389.45	919.83
389.64	957.28
389.84	943.24
390.03	945.58
390.22	961.96
390.42	971.32
390.61	957.28
390.81	978.34
391.00	994.73
391.19	1015.79
391.39	976.00
391.58	1074.31
391.78	1025.15
391.97	978.34
392.16	1015.79
392.36	1081.33
392.55	1104.73
392.75	1118.78
392.94	1022.81
393.13	1111.75
393.33	1013.45
393.52	1109.41
393.71	1100.05
393.91	1132.82
394.10	1125.80
394.29	1142.18
394.49	1193.67
394.68	1086.01
394.88	1139.84
395.07	1151.54
395.26	1153.88
395.46	1212.40
395.65	1170.27
395.84	1266.23
396.04	1114.10
396.23	1102.39
396.42	1252.19
396.62	1151.54
396.81	1186.65
397.00	1245.16
397.19	1217.08
397.39	1151.54
397.58	1256.87
397.77	1200.69
397.97	1284.95
398.16	1315.38
398.35	1284.95
398.55	1252.19
398.74	1273.25
398.93	1329.42
399.12	1338.79
399.32	1291.98
399.51	1289.64
399.70	1369.21
399.90	1357.51
400.09	1301.34
400.28	1413.68
400.47	1394.96
400.67	1465.18
400.86	1371.55
401.05	1418.36
401.24	1385.60
401.44	1474.54
401.63	1392.62
401.82	1441.77
402.01	1486.24
402.21	1390.28
402.40	1509.65
402.59	1458.15
402.78	1490.92
402.97	1547.09
403.17	1504.96
403.36	1638.38
403.55	1565.82
403.74	1575.18
403.93	1640.72
404.13	1556.46
404.32	1579.86
404.51	1540.07
404.70	1526.03
404.89	1631.35
405.09	1703.91
405.28	1579.86
405.47	1614.97
405.66	1706.25
405.85	1729.66
406.05	1659.44
406.24	1732.00
406.43	1699.23
406.62	1774.13
406.81	1844.34
407.00	1839.66
407.20	1762.42
407.39	1851.36
407.58	1825.62
407.77	1825.62
407.96	1809.23
408.15	1839.66
408.34	1834.98
408.54	1905.20
408.73	1895.83
408.92	1933.28
409.11	1963.71
409.30	2033.93
409.49	2017.54
409.68	1879.45
409.87	1970.73
410.07	2115.84
410.26	2045.63
410.45	2143.93
410.64	2017.54
410.83	2153.29
411.02	2141.59
411.21	2122.87
411.40	2195.42
411.59	2157.97
411.78	2265.64
411.98	2179.04
412.17	2176.70
412.36	2235.21
412.55	2300.75
412.74	2377.98
412.93	2354.58
413.12	2342.88
413.31	2377.98
413.50	2305.43
413.69	2396.71
413.88	2464.58
414.07	2436.50
414.26	2516.08
414.45	2478.63
414.64	2626.08
414.83	2661.19
415.02	2534.80
415.22	2637.78
415.41	2576.93
415.60	2682.25
415.79	2693.96
415.98	2729.06
416.17	2710.34
416.36	2820.35
416.55	2801.62
416.74	2750.13
416.93	2883.54
417.12	2883.54
417.31	2843.75
417.50	2871.84
417.69	2935.03
417.88	2965.46
418.07	2808.64
418.26	2923.33
418.45	2993.55
418.64	3192.49
418.83	3101.21
419.02	3019.29
419.21	3138.66
419.39	3101.21
419.58	3040.36
419.77	3070.78
419.96	3185.47
420.15	3122.27
420.34	3110.57
420.53	3073.12
420.72	3276.75
420.91	3253.34
421.10	3279.09
421.29	3377.39
421.48	3314.20
421.67	3126.96
421.86	3243.98
422.05	3276.75
422.24	3265.05
422.43	3356.33
422.61	3421.86
422.80	3403.14
422.99	3358.67
423.18	3337.60
423.37	3494.42
423.56	3265.05
423.75	3445.27
423.94	3314.20
424.13	3171.43
424.32	3321.22
424.50	3466.33
424.69	3545.91
424.88	3487.40
425.07	3386.76
425.26	3288.45
425.45	3372.71
425.64	3372.71
425.83	3548.25
426.01	3536.55
426.20	3513.14
426.39	3604.42
426.58	3442.93
426.77	3421.86
426.96	3482.72
427.15	3571.66
427.33	3585.70
427.52	3564.64
427.71	3646.55
427.90	3468.67
428.09	3468.67
428.28	3700.39
428.46	3597.40
428.65	3660.60
428.84	3756.56
429.03	3716.77
429.22	3808.05
429.40	3812.73
429.59	3768.26
429.78	3691.02
429.97	3740.18
430.16	3857.20
430.34	3822.09
430.53	3864.22
430.72	3878.27
430.91	3726.13
431.10	3871.25
431.28	4002.32
431.47	4011.68
431.66	4032.74
431.85	4044.45
432.03	4025.72
432.22	4070.19
432.41	4135.73
432.60	4145.09
432.79	4053.81
432.97	4091.26
433.16	4091.26
433.35	3983.59
433.54	4009.34
433.72	4243.39
433.91	4177.86
434.10	4154.45
434.28	4112.32
434.47	4217.65
434.66	4292.54
434.85	3999.98
435.03	4154.45
435.22	4287.86
435.41	4290.20
435.59	4353.40
435.78	4444.68
435.97	4337.01
436.16	4358.08
436.34	4458.72
436.53	4219.99
436.72	4542.98
436.90	4337.01
437.09	4524.26
437.28	4418.93
437.46	4505.53
437.65	4505.53
437.84	4599.15
438.02	4594.47
438.21	4683.41
438.40	4535.96
438.58	4819.16
438.77	4968.96
438.96	4730.22
439.14	4837.89
439.33	4781.71
439.52	4849.59
439.70	4997.04
439.89	5048.54
440.08	5001.72
440.26	5064.92
440.45	5013.43
440.63	5085.98
440.82	5123.43
441.01	5118.75
441.19	5282.59
441.38	5200.67
441.57	5135.14
441.75	5364.51
441.94	5322.38
442.12	5448.77
442.31	5392.59
442.50	5373.87
442.68	5427.70
442.87	5427.70
443.05	5383.23
443.24	5504.94
443.43	5495.58
443.61	5549.41
443.80	5657.07
443.98	5378.55
444.17	5355.15
444.35	5643.03
444.54	5568.13
444.73	5682.82
444.91	5762.40
445.10	5605.58
445.28	5792.83
445.47	5680.48
445.65	5675.80
445.84	5792.83
446.02	5813.89
446.21	5729.63
446.39	5561.11
446.58	5825.59
446.77	5526.00
446.95	5668.78
447.14	5710.91
447.32	5806.87
447.51	5816.23
447.69	5710.91
447.88	5650.05
448.06	5729.63
448.25	5678.14
448.43	5832.62
448.62	5767.08
448.80	5724.95
448.99	5902.83
449.17	5907.51
449.36	5858.36
449.54	5980.07
449.73	6139.23
449.91	6078.37
450.10	6094.76
450.28	6087.73
450.46	6190.72
450.65	6097.10
450.83	6033.90
451.02	6200.08
451.20	6235.19
451.39	6176.67
451.57	6179.01
451.76	6045.60
451.94	6146.25
452.13	6377.96
452.31	6188.38
452.49	6176.67
452.68	6352.21
452.86	6232.85
453.05	6375.62
453.23	6394.34
453.42	6279.66
453.60	6333.49
453.78	6380.30
453.97	6251.57
454.15	6368.60
454.34	6274.98
454.52	6499.67
454.70	6581.59
454.89	6382.64
455.07	6520.73
455.26	6670.53
455.44	6703.29
455.62	6705.63
455.81	6642.44
455.99	6876.49
456.17	6682.23
456.36	6724.36
456.54	6808.62
456.73	6799.26
456.91	7054.37
457.09	6951.39
457.28	7023.95
457.46	6981.82
457.64	7042.67
457.83	7131.61
458.01	6937.35
458.19	7073.10
458.38	7052.03
458.56	7075.44
458.74	7108.21
458.93	7227.57
459.11	7243.96
459.29	7108.21
459.48	7250.98
459.66	7241.62
459.84	7372.69
460.03	7398.43
460.21	7398.43
460.39	7452.27
460.57	7449.93
460.76	7480.35
460.94	7447.58
461.12	7515.46
461.31	7370.35
461.49	7485.03
461.67	7552.91
461.85	7744.83
462.04	7531.84
462.22	7988.25
462.40	7803.35
462.59	7899.31
462.77	7899.31
462.95	7730.79
463.13	7775.26
463.32	7730.79
463.50	7812.71
463.68	7882.92
463.86	8011.65
464.05	7880.58
464.23	7819.73
464.41	7925.05
464.59	7763.56
464.78	8147.40
464.96	8086.55
465.14	7936.76
465.32	8016.33
465.50	8035.06
465.69	8093.57
465.87	7868.88
466.05	8170.81
466.23	8107.62
466.41	8180.17
466.60	8140.38
466.78	8269.11
466.96	8161.45
467.14	8189.53
467.32	8203.58
467.51	8234.00
467.69	8091.23
467.87	8344.01
468.05	8355.71
468.23	8346.35
468.41	8407.20
468.60	8468.06
468.78	8592.11
468.96	8365.07
469.14	8622.53
469.32	8624.87
469.50	8538.27
469.69	8833.18
469.87	8592.11
470.05	8826.16
470.23	8784.03
470.41	8828.50
470.59	9036.81
470.77	8711.47
470.95	8713.81
471.14	8980.64
471.32	8887.01
471.50	8999.36
471.68	9184.26
471.86	9149.15
472.04	9121.07
472.22	9231.07
472.40	9062.55
472.58	9186.60
472.77	9308.31
472.95	9341.08
473.13	9701.52
473.31	9404.27
473.49	9387.89
473.67	9259.16
473.85	9394.91
474.03	9844.29
474.21	9635.99
474.39	9657.05
474.57	9921.53
474.75	9792.80
474.93	9970.68
475.12	9837.27
475.30	10164.95
475.48	9930.89
475.66	10026.86
475.84	10066.64
476.02	10204.74
476.20	10090.05
476.38	10246.87
476.56	10654.12
476.74	10410.70
476.92	10527.73
477.10	10480.92
477.28	10553.48
477.46	10565.18
477.64	10925.62
477.82	10871.79
478.00	11190.10
478.18	10991.16
478.36	11129.25
478.54	11241.59
478.72	11307.13
478.90	11522.46
479.08	11279.04
479.26	11606.72
479.44	11599.70
479.62	11700.34
479.80	11723.74
479.98	11754.17
480.16	12425.90
480.34	12072.48
480.52	12145.04
480.70	12306.54
480.88	12065.46
481.06	12484.42
481.24	12470.37
481.41	12636.55
481.59	12566.34
481.77	12674.00
481.95	12964.23
482.13	12915.08
482.31	12842.52
482.49	13366.80
482.67	13294.24
482.85	13385.52
483.03	13575.11
483.21	13872.36
483.39	13727.24
483.57	13745.97
483.74	13635.96
483.92	13935.55
484.10	13956.61
484.28	14167.26
484.46	14424.72
484.64	14541.75
484.82	14291.31
485.00	14871.76
485.18	14780.48
485.35	14897.51
485.53	15129.22
485.71	15229.87
485.89	15295.40
486.07	15662.86
486.25	15468.60
486.43	15480.30
486.61	15545.84
486.78	15627.76
486.96	15894.58
487.14	16009.26
487.32	16053.73
487.50	16472.69
487.68	16634.19
487.85	16599.08
488.03	16540.57
488.21	16938.46
488.39	16739.51
488.57	17331.67
488.75	17254.43
488.92	17348.05
489.10	17713.17
489.28	17518.91
489.46	17956.59
489.64	17755.30
489.81	18087.66
489.99	18441.08
490.17	18120.43
490.35	18377.89
490.53	18237.45
490.70	18778.12
490.88	18766.42
491.06	18576.83
491.24	18970.04
491.41	18848.33
491.59	19213.46
491.77	19101.11
491.95	19477.94
492.13	19513.05
492.30	19770.51
492.48	19798.59
492.66	19496.66
492.84	19885.19
493.01	20086.48
493.19	19873.49
493.37	20154.35
493.54	20243.29
493.72	20678.63
493.90	20423.51
494.08	20599.05
494.25	20601.40
494.43	20861.19
494.61	20947.79
494.79	21341.00
494.96	21326.96
495.14	21603.14
495.32	21666.34
495.49	21579.74
495.67	21682.72
495.85	22026.78
496.02	21975.29
496.20	22342.75
496.38	22141.47
496.55	22167.21
496.73	22831.93
496.91	22710.22
497.09	22604.89
497.26	22742.99
497.44	22754.69
497.62	22939.59
497.79	23730.69
497.97	23250.88
498.14	23501.32
498.32	23538.77
498.50	23714.31
498.67	24079.43
498.85	24151.99
499.03	23641.75
499.20	23941.34
499.38	24102.84
499.56	24308.80
499.73	24592.01
499.91	24343.91
500.08	25029.69
500.26	24549.88
500.44	24779.25
500.61	24821.38
500.79	24559.24
500.97	25046.07
501.14	25284.81
501.32	25092.88
501.49	25172.46
501.67	25350.34
501.84	25521.20
502.02	25277.79
502.20	25841.85
502.37	25591.42
502.55	26026.76
502.72	25736.53
502.90	25703.76
503.07	25748.23
503.25	26038.46
503.43	26047.82
503.60	26277.19
503.78	26242.09
503.95	26654.02
504.13	26639.98
504.30	26932.54
504.48	26677.43
504.65	26820.20
504.83	26869.35
505.01	27129.15
505.18	27044.89
505.36	26934.88
505.53	27351.50
505.71	27534.06
505.88	27278.94
506.06	27037.87
506.23	27688.54
506.41	27594.92
506.58	27693.22
506.76	27721.30
506.93	28020.89
507.11	27908.55
507.28	28318.14
507.46	27913.23
507.63	28402.40
507.81	28453.89
507.98	28070.04
508.16	28620.07
508.33	28481.98
508.50	28659.86
508.68	28666.88
508.85	29277.76
509.03	28786.25
509.20	28978.17
509.38	29247.33
509.55	29111.58
509.73	29097.54
509.90	29301.17
510.08	29680.33
510.25	29294.14
510.42	29474.37
510.60	29476.71
510.77	29738.85
510.95	30085.25
511.12	29752.89
511.30	29743.53
511.47	29720.12
511.64	30040.78
511.82	30408.24
511.99	30071.20
512.17	30625.91
512.34	30225.68
512.51	30850.60
512.69	30841.24
512.86	30616.55
513.04	30925.50
513.21	30951.24
513.38	31035.50
513.56	31152.53
513.73	31260.20
513.90	31108.06
514.08	31316.37
514.25	31419.35
514.43	31524.68
514.60	31880.44
514.77	31260.20
514.95	31868.73
515.12	31789.16
515.29	31960.02
515.47	32009.17
515.64	31852.35
515.81	31894.48
515.99	31901.50
516.16	32357.91
516.33	31864.05
516.51	32156.62
516.68	32645.79
516.85	32039.59
517.03	32519.40
517.20	32432.80
517.37	32662.18
517.54	32559.19
517.72	32596.64
517.89	33046.02
518.06	32830.69
518.24	32952.40
518.41	32842.40
518.58	33443.91
518.75	33214.54
518.93	33703.71
519.10	33233.27
519.27	33551.58
519.45	33219.22
519.62	33567.96
519.79	33429.87
519.96	33677.97
520.14	33614.77
520.31	33483.70
520.48	33935.43
520.65	34045.43
520.83	34841.21
521.00	34614.18
521.17	34080.54
521.34	34309.91
521.52	34721.85
521.69	34260.76
521.86	34614.18
522.03	34761.64
522.20	34932.50
522.38	34799.08
522.55	35274.21
522.72	34885.68
522.89	35131.44
523.07	35351.45
523.24	35133.78
523.41	35299.96
523.58	35290.60
523.75	35496.56
523.92	34623.54
524.10	35641.68
524.27	35482.52
524.44	35618.27
524.61	35786.79
524.78	35491.88
524.96	35931.90
525.13	36201.07
525.30	36329.80
525.47	36180.00
525.64	36121.49
525.81	36259.58
525.98	36596.62
526.16	36297.03
526.33	36282.98
526.50	36378.95
526.67	36318.09
526.84	36587.25
527.01	36510.02
527.18	36528.74
527.36	36765.14
527.53	36903.23
527.70	37024.93
527.87	37048.34
528.04	36818.97
528.21	37280.05
528.38	37165.37
528.55	37446.23
528.72	36818.97
528.89	37024.93
529.07	37441.55
529.24	37130.26
529.41	37479.00
529.58	37488.36
529.75	36907.91
529.92	37493.04
530.09	37415.80
530.26	37844.12
530.43	38272.44
530.60	37640.50
530.77	37633.47
530.94	37820.72
531.11	37546.87
531.28	37881.57
531.46	37935.40
531.63	38274.78
531.80	37923.70
531.97	37949.45
532.14	38735.87
532.31	38122.65
532.48	38459.68
532.65	38628.20
532.82	38394.15
532.99	38321.59
533.16	38209.25
533.33	38588.41
533.50	38888.00
533.67	38623.52
533.84	37972.85
534.01	38483.09
534.18	38707.78
534.35	39164.18
534.52	39049.50
534.69	39482.50
534.86	39213.34
535.03	39042.48
535.20	39541.01
535.37	39679.10
535.54	39711.87
535.71	39512.92
535.88	39749.32
536.05	39599.52
536.22	39573.78
536.38	39702.51
536.55	39796.13
536.72	39810.17
536.89	39428.66
537.06	39763.36
537.23	40182.32
537.40	39459.09
537.57	39512.92
537.74	39566.76
537.91	40039.54
538.08	40294.66
538.25	40034.86
538.42	40079.33
538.59	40402.33
538.75	40320.41
538.92	40425.73
539.09	40336.79
539.26	40388.28
539.43	40229.13
539.60	40758.09
539.77	40622.34
539.94	40545.10
540.11	40982.78
540.28	40645.74
540.44	40662.13
540.61	41064.70
540.78	40271.26
540.95	40999.16
541.12	40428.07
541.29	40872.78
541.46	41127.89
541.62	41071.72
541.79	41193.43
541.96	40821.28
542.13	40687.87
542.30	41233.22
542.47	41212.15
542.63	41062.36
542.80	41799.63
542.97	42122.62
543.14	41799.63
543.31	41394.71
543.48	41628.77
543.64	42270.08
543.81	42237.31
543.98	42366.04
544.15	41886.23
544.32	42129.64
544.48	42197.52
544.65	41916.65
544.82	42419.87
544.99	41806.65
545.16	42127.30
545.32	42059.43
545.49	42564.98
545.66	42728.82
545.83	42417.53
546.00	43028.41
546.16	42351.99
546.33	41797.29
546.50	42724.14
546.67	43206.29
546.83	42064.11
547.00	42665.63
547.17	42410.51
547.34	42614.13
547.50	42983.94
547.67	42955.85
547.84	43012.02
548.00	42822.44
548.17	43482.47
548.34	43133.73
548.51	43243.74
548.67	43253.10
548.84	42976.92
549.01	43187.56
549.18	43232.04
549.34	43100.97
549.51	43601.84
549.68	43445.02
549.84	43430.98
550.01	43409.92
550.18	43428.64
550.34	43711.84
550.51	43405.23
550.68	43601.84
550.84	43154.80
551.01	43665.03
551.18	43498.86
551.34	43648.65
551.51	43768.02
551.68	44105.06
551.84	43632.27
552.01	43665.03
552.18	44133.14
552.34	43625.25
552.51	44229.10
552.68	43662.69
552.84	43751.63
553.01	44376.56
553.18	44013.77
553.34	44325.07
553.51	43761.00
553.67	44329.75
553.84	44414.01
554.01	44636.36
554.17	43899.09
554.34	44737.00
554.51	44247.83
554.67	44762.75
554.84	44727.64
555.00	44535.71
555.17	44315.70
555.33	45059.99
555.50	44746.36
555.67	44659.76
555.83	44938.29
556.00	44711.25
556.16	45380.65
556.33	45263.62
556.50	44905.52
556.66	44261.87
556.83	44397.62
556.99	45137.23
557.16	45373.63
557.32	45497.67
557.49	44809.56
557.65	45006.16
557.82	45102.12
557.98	45265.96
558.15	45191.06
558.32	44793.17
558.48	44973.39
558.65	45064.67
558.81	45029.57
558.98	45368.94
559.14	45045.95
559.31	44994.46
559.47	45308.09
559.64	45619.38
559.80	45492.99
559.97	45500.01
560.13	45453.20
560.30	45378.31
560.46	45771.52
560.63	45488.31
560.79	45813.65
560.96	46045.36
561.12	45345.54
561.29	45689.60
561.45	45741.09
561.61	45469.59
561.78	45755.13
561.94	45614.70
562.11	45537.46
562.27	45605.34
562.44	46375.37
562.60	45890.88
562.77	45509.38
562.93	45462.57
563.10	45876.84
563.26	45635.77
563.42	46658.58
563.59	45675.55
563.75	45551.51
563.92	45984.51
564.08	45825.35
564.24	45968.12
564.41	45563.21
564.57	46024.29
564.74	46153.02
564.90	45895.56
565.07	46033.66
565.23	46106.21
565.39	45914.29
565.56	46298.14
565.72	46618.79
565.88	45928.33
566.05	46307.50
566.21	46312.18
566.38	45940.04
566.54	46405.80
566.70	46569.64
566.87	46263.03
567.03	46134.30
567.19	46349.63
567.36	46354.31
567.52	46546.23
567.68	46340.27
567.85	46710.07
568.01	46604.75
568.17	45944.72
568.34	46913.70
568.50	46300.48
568.66	46188.13
568.83	46625.81
568.99	46333.24
569.15	46373.03
569.32	46043.02
569.48	46429.21
569.64	46525.17
569.81	46581.34
569.97	46967.53
570.13	46892.63
570.30	46431.55
570.46	46852.84
570.62	46464.32
570.78	46520.49
570.95	46567.30
571.11	47047.11
571.27	46518.15
571.43	46120.26
571.60	46944.12
571.76	46656.24
571.92	46419.84
572.09	46522.83
572.25	46590.70
572.41	46759.22
572.57	46817.74
572.74	47463.72
572.90	46440.91
573.06	46972.21
573.22	46988.60
573.38	47065.83
573.55	46597.73
573.71	47737.57
573.87	46909.02
574.03	46904.34
574.20	46986.25
574.36	47103.28
574.52	46862.21
574.68	47014.34
574.84	47016.68
575.01	46806.03
575.17	46841.14
575.33	46693.69
575.49	46665.60
575.65	47021.36
575.82	47187.54
575.98	46815.40
576.14	47072.85
576.30	47288.18
576.46	47054.13
576.62	46913.70
576.79	46801.35
576.95	46850.50
577.11	46349.63
577.27	47194.56
577.43	47089.24
577.59	46897.31
577.75	46756.88
577.92	47096.26
578.08	46890.29
578.24	46707.73
578.40	47569.05
578.56	47189.88
578.72	47063.49
578.88	47646.29
579.04	47229.67
579.21	47084.56
579.37	47477.77
579.53	47297.55
579.69	47107.96
579.85	46649.22
580.01	47042.43
580.17	47281.16
580.33	47365.42
580.49	46873.91
580.65	47199.24
580.82	47189.88
580.98	47110.30
581.14	46775.61
581.30	47187.54
581.46	46866.89
581.62	47299.89
581.78	46401.12
581.94	46960.51
582.10	47159.45
582.26	47437.98
582.42	47224.99
582.58	47306.91
582.74	47454.36
582.90	47313.93
583.06	47262.44
583.22	47248.39
583.38	47070.51
583.54	47384.15
583.70	46953.49
583.86	47295.21
584.02	47416.91
584.18	47475.43
584.34	47295.21
584.50	47501.17
584.66	47475.43
584.82	47356.06
584.98	47688.42
585.14	47241.37
585.30	47311.59
585.46	47388.83
585.62	47171.16
585.78	47449.68
585.94	46834.12
586.10	47143.07
586.26	47344.36
586.42	47019.02
586.58	47313.93
586.74	47304.57
586.90	47166.48
587.06	47346.70
587.22	46988.60
587.38	46974.55
587.54	47863.96
587.70	47800.76
587.86	47437.98
588.02	47145.41
588.18	47578.41
588.34	47278.82
588.49	47487.13
588.65	47412.23
588.81	47178.18
588.97	47646.29
589.13	47435.64
589.29	47484.79
589.45	48051.20
589.61	47838.21
589.77	47515.22
589.93	47454.36
590.08	47356.06
