SpectraSuite Data File
++++++++++++++++++++++++++++++++++++
Date: Fri Oct 25 11:33:28 EDT 2013
User: price-jones
Dark Spectrum Present: No
Reference Spectrum Present: No
Number of Sampled Component Spectra: 1
Spectrometers: USB2+H05261
Integration Time (usec): 100000 (USB2+H05261)
Spectra Averaged: 1 (USB2+H05261)
Boxcar Smoothing: 0 (USB2+H05261)
Correct for Electrical Dark: No (USB2+H05261)
Strobe/Lamp Enabled: No (USB2+H05261)
Correct for Detector Non-linearity: No (USB2+H05261)
Correct for Stray Light: No (USB2+H05261)
Number of Pixels in Processed Spectrum: 2048
>>>>>Begin Processed Spectral Data<<<<<
365.73	301.93
365.92	301.93
366.12	301.93
366.32	205.97
366.52	205.97
366.72	149.79
366.91	102.98
367.11	184.90
367.31	156.82
367.51	159.16
367.70	161.50
367.90	198.95
368.10	135.75
368.30	238.73
368.49	173.20
368.69	191.92
368.89	180.22
369.09	208.31
369.28	212.99
369.48	210.65
369.68	241.08
369.87	182.56
370.07	283.20
370.27	257.46
370.47	311.29
370.66	524.28
370.86	486.83
371.06	526.62
371.25	568.75
371.45	566.41
371.65	627.26
371.84	575.77
372.04	517.26
372.24	578.11
372.44	645.99
372.63	629.60
372.83	533.64
373.03	578.11
373.22	631.94
373.42	662.37
373.62	655.35
373.81	629.60
374.01	653.01
374.21	655.35
374.40	610.88
374.60	660.03
374.79	657.69
374.99	671.73
375.19	589.82
375.38	662.37
375.58	620.24
375.78	650.67
375.97	615.56
376.17	681.10
376.37	697.48
376.56	667.05
376.76	699.82
376.95	592.16
377.15	629.60
377.35	727.91
377.54	753.65
377.74	713.86
377.93	641.31
378.13	725.57
378.33	671.73
378.52	713.86
378.72	805.14
378.91	681.10
379.11	730.25
379.31	664.71
379.50	664.71
379.70	746.63
379.89	737.27
380.09	704.50
380.28	765.36
380.48	760.67
380.68	755.99
380.87	629.60
381.07	739.61
381.26	685.78
381.46	732.59
381.65	802.80
381.85	875.36
382.04	765.36
382.24	709.18
382.43	823.87
382.63	816.85
382.83	772.38
383.02	821.53
383.22	802.80
383.41	760.67
383.61	814.51
383.80	837.91
384.00	767.70
384.19	884.72
384.39	786.42
384.58	791.10
384.78	727.91
384.97	830.89
385.17	800.46
385.36	830.89
385.56	833.23
385.75	828.55
385.95	786.42
386.14	823.87
386.34	849.61
386.53	819.19
386.72	844.93
386.92	985.37
387.11	823.87
387.31	880.04
387.50	847.27
387.70	837.91
387.89	905.79
388.09	922.17
388.28	877.70
388.48	896.43
388.67	887.06
388.86	873.02
389.06	931.53
389.25	1011.11
389.45	980.68
389.64	910.47
389.84	940.90
390.03	1020.47
390.22	1025.15
390.42	959.62
390.61	1008.77
390.81	896.43
391.00	922.17
391.19	1076.65
391.39	1088.35
391.58	947.92
391.78	1006.43
391.97	1008.77
392.16	999.41
392.36	992.39
392.55	1013.45
392.75	1107.07
392.94	1029.84
393.13	1062.60
393.33	985.37
393.52	999.41
393.71	1125.80
393.91	1090.69
394.10	1039.20
394.29	1107.07
394.49	1055.58
394.68	1057.92
394.88	1118.78
395.07	1104.73
395.26	1128.14
395.46	1174.95
395.65	1144.52
395.84	1186.65
396.04	1306.02
396.23	1179.63
396.42	1193.67
396.62	1167.93
396.81	1167.93
397.00	1186.65
397.19	1172.61
397.39	1172.61
397.58	1231.12
397.77	1217.08
397.97	1263.89
398.16	1240.48
398.35	1294.32
398.55	1252.19
398.74	1256.87
398.93	1343.47
399.12	1252.19
399.32	1259.21
399.51	1242.82
399.70	1341.13
399.90	1341.13
400.09	1418.36
400.28	1420.71
400.47	1373.89
400.67	1444.11
400.86	1448.79
401.05	1437.09
401.24	1380.92
401.44	1462.83
401.63	1455.81
401.82	1516.67
402.01	1394.96
402.21	1493.26
402.40	1540.07
402.59	1521.35
402.78	1488.58
402.97	1460.49
403.17	1586.88
403.36	1619.65
403.55	1551.78
403.74	1577.52
403.93	1509.65
404.13	1568.16
404.32	1523.69
404.51	1479.22
404.70	1603.27
404.89	1696.89
405.09	1692.21
405.28	1666.46
405.47	1750.72
405.66	1708.59
405.85	1696.89
406.05	1795.19
406.24	1785.83
406.43	1645.40
406.62	1743.70
406.81	1760.08
407.00	1785.83
407.20	1776.47
407.39	1788.17
407.58	1830.30
407.77	1823.28
407.96	1893.49
408.15	1893.49
408.34	1827.96
408.54	1816.26
408.73	1853.70
408.92	1888.81
409.11	1970.73
409.30	1956.69
409.49	1940.30
409.68	1982.43
409.87	1987.11
410.07	1991.80
410.26	2092.44
410.45	2087.76
410.64	1923.92
410.83	2157.97
411.02	2195.42
411.21	2148.61
411.40	2157.97
411.59	2223.51
411.78	2085.42
411.98	2256.28
412.17	2298.41
412.36	2272.66
412.55	2303.09
412.74	2263.30
412.93	2291.38
413.12	2296.07
413.31	2513.74
413.50	2326.49
413.69	2438.84
413.88	2408.41
414.07	2537.14
414.26	2459.90
414.45	2389.69
414.64	2520.76
414.83	2471.61
415.02	2567.57
415.22	2642.46
415.41	2670.55
415.60	2600.34
415.79	2700.98
415.98	2689.28
416.17	2775.88
416.36	2712.68
416.55	2792.26
416.74	2789.92
416.93	2841.41
417.12	2818.00
417.31	2782.90
417.50	2920.99
417.69	2904.60
417.88	2883.54
418.07	2958.44
418.26	2918.65
418.45	2986.52
418.64	3021.63
418.83	3082.49
419.02	3096.53
419.21	3206.53
419.39	3148.02
419.58	3108.23
419.77	3038.02
419.96	3145.68
420.15	3148.02
420.34	3183.13
420.53	3155.04
420.72	3211.22
420.91	3246.32
421.10	3199.51
421.29	3332.92
421.48	3265.05
421.67	3365.69
421.86	3286.11
422.05	3330.58
422.24	3323.56
422.43	3332.92
422.61	3302.50
422.80	3468.67
422.99	3372.71
423.18	3522.51
423.37	3559.95
423.56	3370.37
423.75	3318.88
423.94	3206.53
424.13	3066.10
424.32	3382.07
424.50	3389.10
424.69	3421.86
424.88	3548.25
425.07	3459.31
425.26	3501.44
425.45	3426.54
425.64	3428.88
425.83	3321.22
426.01	3391.44
426.20	3396.12
426.39	3494.42
426.58	3417.18
426.77	3492.08
426.96	3520.17
427.15	3625.49
427.33	3548.25
427.52	3529.53
427.71	3623.15
427.90	3655.92
428.09	3620.81
428.28	3721.45
428.46	3625.49
428.65	3597.40
428.84	3684.00
429.03	3868.91
429.22	3487.40
429.40	3786.99
429.59	3576.34
429.78	3714.43
429.97	3662.94
430.16	3826.78
430.34	3749.54
430.53	3859.54
430.72	3843.16
430.91	3990.61
431.10	3887.63
431.28	3775.28
431.47	3962.53
431.66	3901.67
431.85	3929.76
432.03	4131.05
432.22	3969.55
432.41	4124.02
432.60	4065.51
432.79	4007.00
432.97	4147.43
433.16	4297.22
433.35	4074.87
433.54	4311.27
433.72	4210.62
433.91	4133.39
434.10	4121.68
434.28	4241.05
434.47	4163.81
434.66	4285.52
434.85	4376.80
435.03	4224.67
435.22	4280.84
435.41	4397.87
435.59	4297.22
435.78	4332.33
435.97	4285.52
436.16	4362.76
436.34	4386.16
436.53	4458.72
436.72	4526.60
436.90	4306.59
437.09	4432.97
437.28	4454.04
437.46	4479.79
437.65	4484.47
437.84	4486.81
438.02	4517.23
438.21	4472.76
438.40	4454.04
438.58	4727.88
438.77	4882.36
438.96	4748.95
439.14	4744.27
439.33	4938.53
439.52	5165.56
439.70	4968.96
439.89	5210.03
440.08	4926.83
440.26	4959.60
440.45	4983.00
440.63	4891.72
440.82	5263.86
441.01	5219.39
441.19	5097.69
441.38	5142.16
441.57	5327.06
441.75	5254.50
441.94	5565.79
442.12	5444.09
442.31	5420.68
442.50	5397.28
442.68	5238.12
442.87	5430.04
443.05	5488.56
443.24	5540.05
443.43	5558.77
443.61	5565.79
443.80	5731.97
443.98	5561.11
444.17	5338.76
444.35	5511.96
444.54	5640.69
444.73	5689.84
444.91	5738.99
445.10	5710.91
445.28	5591.54
445.47	5455.79
445.65	5694.52
445.84	5776.44
446.02	5851.34
446.21	5626.65
446.39	5675.80
446.58	5727.29
446.77	5638.35
446.95	5593.88
447.14	5724.95
447.32	5722.61
447.51	5750.70
447.69	5795.17
447.88	5851.34
448.06	5783.46
448.25	5774.10
448.43	5844.32
448.62	5809.21
448.80	5797.51
448.99	5694.52
449.17	5895.81
449.36	5778.78
449.54	5863.04
449.73	5959.00
449.91	6059.65
450.10	6150.93
450.28	6045.60
450.46	6150.93
450.65	6146.25
450.83	6054.97
451.02	6038.58
451.20	6270.30
451.39	6179.01
451.57	6176.67
451.76	6228.17
451.94	6200.08
452.13	6251.57
452.31	6399.02
452.49	6153.27
452.68	6310.08
452.86	6296.04
453.05	6424.77
453.23	6403.71
453.42	6331.15
453.60	6104.12
453.78	6567.54
453.97	6345.19
454.15	6342.85
454.34	6237.53
454.52	6347.53
454.70	6443.49
454.89	6654.14
455.07	6665.85
455.26	6707.98
455.44	6719.68
455.62	6707.98
455.81	6640.10
455.99	6764.15
456.17	6677.55
456.36	6649.46
456.54	6897.56
456.73	6958.41
456.91	7089.48
457.09	6974.80
457.28	7360.98
457.46	6825.00
457.64	6981.82
457.83	6935.01
458.01	7080.12
458.19	7098.84
458.38	7002.88
458.56	7440.56
458.74	7199.49
458.93	7155.02
459.11	7157.36
459.29	7288.43
459.48	7412.48
459.66	7265.02
459.84	7258.00
460.03	7545.89
460.21	7335.24
460.39	7372.69
460.57	7466.31
460.76	7639.51
460.94	7632.49
461.12	7513.12
461.31	7683.98
461.49	7604.40
461.67	7475.67
461.85	7595.04
462.04	7545.89
462.22	8060.80
462.40	7765.90
462.59	7639.51
462.77	7751.85
462.95	7852.50
463.13	7581.00
463.32	7632.49
463.50	7730.79
463.68	8060.80
463.86	8088.89
464.05	7728.45
464.23	7838.45
464.41	8037.40
464.59	7798.66
464.78	8023.36
464.96	8154.43
465.14	7793.98
465.32	8184.85
465.50	8081.87
465.69	8290.18
465.87	8278.47
466.05	7946.12
466.23	8100.59
466.41	8154.43
466.60	8250.39
466.78	8229.32
466.96	8112.30
467.14	8121.66
467.32	8463.38
467.51	8269.11
467.69	7983.57
467.87	8170.81
468.05	8341.67
468.23	8334.65
468.41	8212.94
468.60	8449.33
468.78	8491.46
468.96	8545.30
469.14	8571.04
469.32	8482.10
469.50	8547.64
469.69	8592.11
469.87	8688.07
470.05	8594.45
470.23	8620.19
470.41	8812.12
470.59	8751.26
470.77	8858.93
470.95	8992.34
471.14	8858.93
471.32	8645.94
471.50	9132.77
471.68	8922.12
471.86	9067.24
472.04	9125.75
472.22	9261.50
472.40	9184.26
472.58	9121.07
472.77	9355.12
472.95	9760.03
473.13	9565.77
473.31	9184.26
473.49	9242.78
473.67	9390.23
473.85	9605.56
474.03	9694.50
474.21	9935.57
474.39	9872.38
474.57	9729.61
474.75	9994.09
474.93	10080.69
475.12	9956.64
475.30	9937.91
475.48	10188.35
475.66	10249.21
475.84	10202.40
476.02	9947.28
476.20	10406.02
476.38	10384.96
476.56	10721.99
476.74	10691.57
476.92	10303.04
477.10	10480.92
477.28	10492.62
477.46	10656.46
477.64	10817.96
477.82	10855.40
478.00	11208.83
478.18	10960.73
478.36	10953.71
478.54	11194.78
478.72	11482.67
478.90	11733.11
479.08	11557.57
479.26	11737.79
479.44	11524.80
479.62	11749.49
479.80	11903.96
479.98	11985.88
480.16	12217.60
480.34	11978.86
480.52	12348.67
480.70	12276.11
480.88	11997.59
481.06	12259.73
481.24	12500.80
481.41	12451.65
481.59	12744.22
481.77	12835.50
481.95	12861.24
482.13	13018.06
482.31	13034.44
482.49	13490.85
482.67	13109.34
482.85	13177.22
483.03	13535.32
483.21	13507.23
483.39	13844.27
483.57	13802.14
483.74	13809.16
483.92	14218.75
484.10	13734.26
484.28	14349.82
484.46	14483.24
484.64	14719.63
484.82	14497.28
485.00	14892.83
485.18	14953.68
485.35	15075.39
485.53	14878.79
485.71	15304.76
485.89	15468.60
486.07	15400.72
486.25	15351.57
486.43	15704.99
486.61	15356.25
486.78	15861.81
486.96	16039.69
487.14	15953.09
487.32	16063.10
487.50	16549.93
487.68	16592.06
487.85	16510.14
488.03	16734.83
488.21	17114.00
488.39	17174.85
488.57	17191.23
488.75	17081.23
488.92	17355.07
489.10	17441.67
489.28	17355.07
489.46	17930.84
489.64	17759.98
489.81	18368.52
489.99	18317.03
490.17	18174.26
490.35	18574.49
490.53	18408.31
490.70	18480.87
490.88	18696.20
491.06	19124.52
491.24	19056.64
491.41	19054.30
491.59	18998.13
491.77	19274.31
491.95	19653.48
492.13	19543.47
492.30	19407.72
492.48	19697.95
492.66	20100.52
492.84	19630.07
493.01	20240.95
493.19	20212.87
493.37	20053.71
493.54	20198.82
493.72	20662.25
493.90	21055.46
494.08	20851.83
494.25	20879.92
494.43	20933.75
494.61	21305.90
494.79	21036.74
494.96	21294.19
495.14	21937.84
495.32	21830.18
495.49	21738.90
495.67	21869.97
495.85	22050.19
496.02	22237.43
496.20	22466.80
496.38	22497.23
496.55	22457.44
496.73	22995.76
496.91	22841.29
497.09	22700.86
497.26	23030.87
497.44	22574.47
497.62	22995.76
497.79	23749.42
497.97	23321.10
498.14	23604.30
498.32	23868.78
498.50	23728.35
498.67	23845.38
498.85	23384.29
499.03	24205.82
499.20	23981.13
499.38	24201.14
499.56	24467.96
499.73	24486.68
499.91	24753.51
500.08	24786.27
500.26	24484.34
500.44	25022.67
500.61	24718.40
500.79	24856.49
500.97	24975.86
501.14	25647.59
501.32	25439.28
501.49	25427.58
501.67	25572.69
501.84	25841.85
502.02	25245.02
502.20	25694.40
502.37	25570.35
502.55	25781.00
502.72	25958.88
502.90	26260.81
503.07	25944.84
503.25	26160.17
503.43	26230.38
503.60	26670.40
503.78	26326.35
503.95	26312.30
504.13	26249.11
504.30	26544.02
504.48	26675.09
504.65	26822.54
504.83	27370.22
505.01	27337.46
505.18	27103.40
505.36	27021.48
505.53	27283.62
505.71	27747.05
505.88	27508.32
506.06	27150.21
506.23	27924.93
506.41	27576.19
506.58	27793.86
506.76	27768.12
506.93	27866.42
507.11	27946.00
507.28	27976.42
507.46	28016.21
507.63	28320.48
507.81	28121.54
507.98	28170.69
508.16	28329.84
508.33	28421.13
508.50	28919.66
508.68	28526.45
508.85	28797.95
509.03	28701.99
509.20	29116.26
509.38	29355.00
509.55	29614.80
509.73	29191.16
509.90	29514.16
510.08	29146.69
510.25	29425.22
510.42	29654.59
510.60	29680.33
510.77	29797.36
510.95	30216.32
511.12	30033.75
511.30	29762.25
511.47	29834.81
511.64	29839.49
511.82	30412.92
511.99	30593.14
512.17	30829.54
512.34	30597.82
512.51	30347.39
512.69	30946.56
512.86	30756.98
513.04	31103.38
513.21	30862.30
513.38	31594.89
513.56	31283.60
513.73	30969.97
513.90	31480.21
514.08	31321.05
514.25	31243.81
514.43	31496.59
514.60	31538.72
514.77	31765.75
514.95	32025.55
515.12	31529.36
515.29	31821.92
515.47	31878.10
515.64	32261.94
515.81	32020.87
515.99	32128.53
516.16	32098.11
516.33	32467.91
516.51	32542.81
516.68	32488.98
516.85	32603.66
517.03	32617.71
517.20	32596.64
517.37	32652.81
517.54	32954.74
517.72	32606.00
517.89	33364.34
518.06	32884.53
518.24	33352.63
518.41	32737.07
518.58	33366.68
518.75	33060.07
518.93	33270.72
519.10	33322.21
519.27	33633.50
519.45	33736.48
519.62	33823.08
519.79	33649.88
519.96	33628.82
520.14	33979.90
520.31	33649.88
520.48	33811.38
520.65	33834.78
520.83	34422.26
521.00	34581.42
521.17	34000.96
521.34	34782.70
521.52	34235.02
521.69	34340.34
521.86	34897.39
522.03	34843.56
522.20	34991.01
522.38	35321.02
522.55	34553.33
522.72	35166.55
522.89	35035.48
523.07	35704.87
523.24	35033.14
523.41	35599.55
523.58	35077.61
523.75	35370.18
523.92	35597.21
524.10	35449.75
524.27	35379.54
524.44	35868.71
524.61	35744.66
524.78	36177.66
524.96	36081.70
525.13	35978.72
525.30	36378.95
525.47	36177.66
525.64	35908.50
525.81	36577.89
525.98	36140.21
526.16	36238.51
526.33	36378.95
526.50	36629.38
526.67	36336.82
526.84	36790.88
527.01	36402.35
527.18	36392.99
527.36	36715.98
527.53	36631.72
527.70	37050.68
527.87	37729.44
528.04	37127.92
528.21	37097.49
528.38	36938.33
528.55	36957.06
528.72	37392.40
528.89	37010.89
529.07	37329.20
529.24	37273.03
529.41	37123.24
529.58	37347.93
529.75	37479.00
529.92	37926.04
530.09	37762.20
530.26	37923.70
530.43	37930.72
530.60	37766.88
530.77	37598.37
530.94	38234.99
531.11	37631.13
531.28	38227.97
531.46	37970.51
531.63	38438.62
531.80	38155.41
531.97	38543.94
532.14	38178.82
532.31	38417.55
532.48	38609.48
532.65	38511.17
532.82	38618.84
532.99	38686.71
533.16	38169.46
533.33	38904.38
533.50	38885.66
533.67	39285.89
533.84	38536.92
534.01	39007.37
534.18	39325.68
534.35	39363.13
534.52	39232.06
534.69	39517.60
534.86	39910.82
535.03	39295.25
535.20	39772.72
535.37	39648.68
535.54	39941.24
535.71	39629.95
535.88	39494.20
536.05	39395.90
536.22	39676.76
536.38	39695.49
536.55	39662.72
536.72	39651.02
536.89	39538.67
537.06	39746.98
537.23	40032.52
537.40	39674.42
537.57	39775.06
537.74	39721.23
537.91	40161.25
538.08	39770.38
538.25	39901.45
538.42	40257.21
538.59	40610.64
538.75	40032.52
538.92	40556.80
539.09	40449.14
539.26	40203.38
539.43	40547.44
539.60	40755.75
539.77	40521.69
539.94	41088.10
540.11	40957.03
540.28	41053.00
540.44	40825.96
540.61	41071.72
540.78	40610.64
540.95	40830.65
541.12	40877.46
541.29	41127.89
541.46	40657.45
541.62	40868.09
541.79	41333.86
541.96	40980.44
542.13	40978.10
542.30	40732.34
542.47	41481.31
542.63	41539.83
542.80	41441.53
542.97	41965.81
543.14	41741.11
543.31	41614.72
543.48	41530.47
543.64	42143.69
543.81	42110.92
543.98	41916.65
544.15	42223.26
544.32	42103.90
544.48	42604.77
544.65	42419.87
544.82	42466.68
544.99	42129.64
545.16	42513.49
545.32	42101.56
545.49	42724.14
545.66	42754.57
545.83	42990.96
546.00	42698.39
546.16	42340.29
546.33	42344.97
546.50	42527.53
546.67	42623.50
546.83	42057.09
547.00	42527.53
547.17	42450.30
547.34	42796.70
547.50	43199.27
547.67	43005.00
547.84	42506.47
548.00	42930.11
548.17	43210.97
548.34	43203.95
548.51	43395.87
548.67	43241.40
548.84	43330.34
549.01	43136.07
549.18	43241.40
549.34	43697.80
549.51	43665.03
549.68	43887.39
549.84	43391.19
550.01	43517.58
550.18	43672.06
550.34	43320.98
550.51	43585.46
550.68	44009.09
550.84	43709.50
551.01	43959.94
551.18	43452.05
551.34	43405.23
551.51	43791.42
551.68	43878.02
551.84	43739.93
552.01	43950.58
552.18	44222.08
552.34	43868.66
552.51	44112.08
552.68	43798.44
552.84	44140.16
553.01	44198.68
553.18	44006.75
553.34	44119.10
553.51	44095.69
553.67	44205.70
553.84	44582.52
554.01	44652.74
554.17	44673.81
554.34	44711.25
554.51	44444.43
554.67	44933.60
554.84	44879.77
555.00	44477.20
555.17	44577.84
555.33	44783.81
555.50	44566.14
555.67	44608.27
555.83	44507.63
556.00	44889.13
556.16	45249.58
556.33	45294.05
556.50	44769.77
556.66	45162.98
556.83	44329.75
556.99	45095.10
557.16	45104.46
557.32	45270.64
557.49	45034.25
557.65	45059.99
557.82	45233.19
557.98	45312.77
558.15	44912.54
558.32	45347.88
558.48	45123.19
558.65	45233.19
558.81	45378.31
558.98	45170.00
559.14	44762.75
559.31	45188.72
559.47	45139.57
559.64	45333.84
559.80	45642.79
559.97	45633.42
560.13	45380.65
560.30	45640.45
560.46	45757.47
560.63	45600.66
560.79	45647.47
560.96	45799.60
561.12	45532.78
561.29	45993.87
561.45	45713.00
561.61	45593.64
561.78	45518.74
561.94	45595.98
562.11	45427.46
562.27	45551.51
562.44	45876.84
562.60	45750.45
562.77	46073.45
562.93	45635.77
563.10	45893.22
563.26	45766.84
563.42	46326.22
563.59	45968.12
563.75	45954.08
563.92	45766.84
564.08	45815.99
564.24	46171.75
564.41	46150.68
564.57	46237.28
564.74	46024.29
564.90	45977.48
565.07	45820.67
565.23	46368.35
565.39	46127.28
565.56	46251.33
565.72	46337.93
565.88	46232.60
566.05	46569.64
566.21	45930.67
566.38	46225.58
566.54	46155.36
566.70	46543.89
566.87	46312.18
567.03	46026.63
567.19	46368.35
567.36	46600.07
567.52	46216.22
567.68	46256.01
567.85	46618.79
568.01	46754.54
568.17	46281.75
568.34	46316.86
568.50	46787.31
568.66	46361.33
568.83	46335.59
568.99	46698.37
569.15	46518.15
569.32	46073.45
569.48	46869.23
569.64	46827.10
569.81	46403.46
569.97	46946.47
570.13	47114.98
570.30	46541.55
570.46	46602.41
570.62	46763.90
570.78	46639.86
570.95	46733.48
571.11	46824.76
571.27	46777.95
571.43	46515.81
571.60	46880.93
571.76	46595.38
571.92	46726.46
572.09	46099.19
572.25	46288.77
572.41	46756.88
572.57	46756.88
572.74	47346.70
572.90	46986.25
573.06	46700.71
573.22	46916.04
573.38	46763.90
573.55	47021.36
573.71	47281.16
573.87	47154.77
574.03	46550.91
574.20	47510.53
574.36	47290.52
574.52	47217.97
574.68	47070.51
574.84	47288.18
575.01	47325.63
575.17	47442.66
575.33	47152.43
575.49	46988.60
575.65	46995.62
575.82	47262.44
575.98	46937.10
576.14	47320.95
576.30	47260.10
576.46	46958.17
576.62	46951.15
576.79	47068.17
576.95	46536.87
577.11	46937.10
577.27	46974.55
577.43	47107.96
577.59	47093.92
577.75	47061.15
577.92	46909.02
578.08	47112.64
578.24	47643.94
578.40	46803.69
578.56	47171.16
578.72	47124.35
578.88	47337.33
579.04	47110.30
579.21	46890.29
579.37	47243.71
579.53	46965.19
579.69	46843.48
579.85	46855.18
580.01	47428.62
580.17	47470.75
580.33	47625.22
580.49	47309.25
580.65	47068.17
580.82	47119.66
580.98	47360.74
581.14	47185.20
581.30	47079.88
581.46	47114.98
581.62	47384.15
581.78	47210.95
581.94	47234.35
582.10	47260.10
582.26	47358.40
582.42	47456.70
582.58	47501.17
582.74	47358.40
582.90	47143.07
583.06	47576.07
583.22	47004.98
583.38	46997.96
583.54	47494.15
583.70	47629.90
583.86	47508.19
584.02	47234.35
584.18	47342.02
584.34	47400.53
584.50	47388.83
584.66	47309.25
584.82	47334.99
584.98	47849.91
585.14	47393.51
585.30	47215.63
585.46	47487.13
585.62	47124.35
585.78	47489.47
585.94	47391.17
586.10	47625.22
586.26	47349.04
586.42	47519.90
586.58	47384.15
586.74	47540.96
586.90	47683.73
587.06	47583.09
587.22	47526.92
587.38	47140.73
587.54	47676.71
587.70	47725.86
587.86	47494.15
588.02	47007.32
588.18	47185.20
588.34	47702.46
588.49	47849.91
588.65	47124.35
588.81	47655.65
588.97	47765.65
589.13	47545.64
589.29	47742.25
589.45	48067.58
589.61	47313.93
589.77	47650.97
589.93	47419.25
590.08	47646.29
