SpectraSuite Data File
++++++++++++++++++++++++++++++++++++
Date: Fri Oct 25 11:25:36 EDT 2013
User: price-jones
Dark Spectrum Present: No
Reference Spectrum Present: No
Number of Sampled Component Spectra: 1
Spectrometers: USB2+H05261
Integration Time (usec): 100000 (USB2+H05261)
Spectra Averaged: 1 (USB2+H05261)
Boxcar Smoothing: 0 (USB2+H05261)
Correct for Electrical Dark: No (USB2+H05261)
Strobe/Lamp Enabled: No (USB2+H05261)
Correct for Detector Non-linearity: No (USB2+H05261)
Correct for Stray Light: No (USB2+H05261)
Number of Pixels in Processed Spectrum: 2048
>>>>>Begin Processed Spectral Data<<<<<
365.73	276.18
365.92	276.18
366.12	276.18
366.32	184.90
366.52	203.63
366.72	161.50
366.91	58.51
367.11	81.92
367.31	166.18
367.51	149.79
367.70	135.75
367.90	196.60
368.10	112.35
368.30	53.83
368.49	95.96
368.69	126.39
368.89	173.20
369.09	152.13
369.28	140.43
369.48	149.79
369.68	203.63
369.87	231.71
370.07	168.52
370.27	191.92
370.47	379.17
370.66	610.88
370.86	608.54
371.06	739.61
371.25	725.57
371.45	624.92
371.65	676.41
371.84	772.38
372.04	727.91
372.24	655.35
372.44	678.76
372.63	725.57
372.83	746.63
373.03	802.80
373.22	725.57
373.42	823.87
373.62	798.12
373.81	807.48
374.01	847.27
374.21	786.42
374.40	866.00
374.60	847.27
374.79	924.51
374.99	744.29
375.19	800.46
375.38	854.30
375.58	781.74
375.78	856.64
375.97	823.87
376.17	858.98
376.37	835.57
376.56	828.55
376.76	849.61
376.95	807.48
377.15	894.08
377.35	912.81
377.54	950.26
377.74	849.61
377.93	870.68
378.13	924.51
378.33	908.13
378.52	884.72
378.72	894.08
378.91	945.58
379.11	952.60
379.31	929.19
379.50	933.87
379.70	973.66
379.89	999.41
380.09	880.04
380.28	966.64
380.48	938.55
380.68	1036.86
380.87	1048.56
381.07	1055.58
381.26	1041.54
381.46	1029.84
381.65	985.37
381.85	1011.11
382.04	1001.75
382.24	1048.56
382.43	994.73
382.63	1064.94
382.83	1069.62
383.02	1188.99
383.22	1062.60
383.41	1039.20
383.61	1151.54
383.80	1163.25
384.00	1109.41
384.19	1114.10
384.39	1069.62
384.58	1093.03
384.78	1153.88
384.97	1123.46
385.17	1149.20
385.36	1137.50
385.56	1184.31
385.75	1177.29
385.95	1191.33
386.14	1238.14
386.34	1193.67
386.53	1198.35
386.72	1219.42
386.92	1310.70
387.11	1261.55
387.31	1174.95
387.50	1186.65
387.70	1252.19
387.89	1179.63
388.09	1277.93
388.28	1254.53
388.48	1299.00
388.67	1252.19
388.86	1275.59
389.06	1336.45
389.25	1284.95
389.45	1366.87
389.64	1259.21
389.84	1369.21
390.03	1345.81
390.22	1378.58
390.42	1324.74
390.61	1364.53
390.81	1364.53
391.00	1409.00
391.19	1453.47
391.39	1493.26
391.58	1411.34
391.78	1331.76
391.97	1465.18
392.16	1455.81
392.36	1486.24
392.55	1474.54
392.75	1519.01
392.94	1568.16
393.13	1614.97
393.33	1629.01
393.52	1654.76
393.71	1570.50
393.91	1657.10
394.10	1474.54
394.29	1584.54
394.49	1537.73
394.68	1682.85
394.88	1692.21
395.07	1547.09
395.26	1671.14
395.46	1626.67
395.65	1638.38
395.84	1720.29
396.04	1764.76
396.23	1760.08
396.42	1736.68
396.62	1888.81
396.81	1837.32
397.00	1785.83
397.19	1746.04
397.39	1809.23
397.58	1813.92
397.77	1722.63
397.97	1921.58
398.16	1806.89
398.35	1907.54
398.55	1886.47
398.74	1839.66
398.93	1952.01
399.12	1909.88
399.32	1879.45
399.51	1928.60
399.70	1930.94
399.90	1879.45
400.09	1977.75
400.28	2012.86
400.47	1984.77
400.67	2069.03
400.86	2150.95
401.05	2092.44
401.24	2019.88
401.44	2008.18
401.63	2054.99
401.82	2076.06
402.01	2092.44
402.21	2101.80
402.40	2167.34
402.59	2150.95
402.78	2305.43
402.97	2216.49
403.17	2218.83
403.36	2216.49
403.55	2251.60
403.74	2438.84
403.93	2429.48
404.13	2335.85
404.32	2403.73
404.51	2382.67
404.70	2340.54
404.89	2246.91
405.09	2427.14
405.28	2387.35
405.47	2368.62
405.66	2431.82
405.85	2546.50
406.05	2473.95
406.24	2593.31
406.43	2495.01
406.62	2642.46
406.81	2558.21
407.00	2572.25
407.20	2459.90
407.39	2635.44
407.58	2747.79
407.77	2759.49
407.96	2843.75
408.15	2796.94
408.34	2747.79
408.54	2862.48
408.73	2775.88
408.92	2857.79
409.11	2794.60
409.30	2834.39
409.49	2888.22
409.68	2892.90
409.87	2946.73
410.07	2953.76
410.26	2928.01
410.45	3112.91
410.64	2937.37
410.83	2958.44
411.02	3045.04
411.21	3173.77
411.40	3112.91
411.59	3152.70
411.78	3176.11
411.98	3218.24
412.17	3204.19
412.36	3323.56
412.55	3323.56
412.74	3325.90
412.93	3426.54
413.12	3339.94
413.31	3365.69
413.50	3410.16
413.69	3630.17
413.88	3515.48
414.07	3637.19
414.26	3581.02
414.45	3637.19
414.64	3648.90
414.83	3688.68
415.02	3716.77
415.22	3747.20
415.41	3847.84
415.60	3850.18
415.79	3824.44
415.98	3988.27
416.17	3997.64
416.36	3985.93
416.55	3915.72
416.74	4028.06
416.93	3988.27
417.12	4004.66
417.31	4142.75
417.50	4266.80
417.69	4133.39
417.88	4259.78
418.07	4222.33
418.26	4238.71
418.45	4383.82
418.64	4393.19
418.83	4393.19
419.02	4374.46
419.21	4535.96
419.39	4601.49
419.58	4383.82
419.77	4355.74
419.96	4468.08
420.15	4620.22
420.34	4458.72
420.53	4648.30
420.72	4655.33
420.91	4575.75
421.10	4706.82
421.29	4835.55
421.48	4779.37
421.67	4802.78
421.86	4774.69
422.05	4837.89
422.24	4737.24
422.43	4734.90
422.61	4772.35
422.80	4924.49
422.99	4947.89
423.18	4938.53
423.37	5057.90
423.56	4912.78
423.75	4975.98
423.94	4770.01
424.13	4578.09
424.32	4716.18
424.50	4816.82
424.69	5219.39
424.88	5100.03
425.07	4994.70
425.26	4844.91
425.45	5029.81
425.64	4823.84
425.83	4940.87
426.01	5071.94
426.20	4975.98
426.39	5071.94
426.58	5039.17
426.77	5034.49
426.96	5081.30
427.15	4997.04
427.33	5203.01
427.52	5221.74
427.71	5191.31
427.90	4999.38
428.09	5186.63
428.28	5172.58
428.46	5233.44
428.65	5296.63
428.84	5493.24
429.03	5357.49
429.22	5256.84
429.40	5411.32
429.59	5462.81
429.78	5383.23
429.97	5308.34
430.16	5451.11
430.34	5521.32
430.53	5607.92
430.72	5650.05
430.91	5668.78
431.10	5565.79
431.28	5738.99
431.47	5748.36
431.66	5731.97
431.85	5713.25
432.03	5954.32
432.22	5949.64
432.41	5727.29
432.60	5792.83
432.79	5851.34
432.97	5832.62
433.16	6115.82
433.35	5841.98
433.54	6008.16
433.72	6031.56
433.91	6005.81
434.10	6052.63
434.28	6033.90
434.47	6186.04
434.66	6160.29
434.85	6298.38
435.03	6319.45
435.22	6132.20
435.41	6520.73
435.59	6359.24
435.78	6443.49
435.97	6532.44
436.16	6338.17
436.34	6319.45
436.53	6558.18
436.72	6321.79
436.90	6443.49
437.09	6569.88
437.28	6490.31
437.46	6581.59
437.65	6623.72
437.84	6773.51
438.02	6675.21
438.21	6808.62
438.40	6614.35
438.58	6881.18
438.77	6981.82
438.96	6979.48
439.14	6897.56
439.33	7131.61
439.52	7192.47
439.70	7096.50
439.89	7342.26
440.08	7393.75
440.26	7349.28
440.45	7283.75
440.63	7377.37
440.82	7674.62
441.01	7426.52
441.19	7325.88
441.38	7695.68
441.57	7700.36
441.75	7749.51
441.94	7920.37
442.12	7962.50
442.31	7873.56
442.50	8107.62
442.68	7892.29
442.87	8135.70
443.05	8053.78
443.24	7999.95
443.43	8016.33
443.61	8198.90
443.80	8393.16
443.98	8095.91
444.17	7831.43
444.35	7969.52
444.54	8454.02
444.73	8336.99
444.91	8360.39
445.10	8381.46
445.28	8215.28
445.47	8243.37
445.65	8203.58
445.84	8234.00
446.02	8374.44
446.21	8294.86
446.39	8369.76
446.58	8585.08
446.77	8446.99
446.95	8273.79
447.14	8313.58
447.32	8351.03
447.51	8589.77
447.69	8418.91
447.88	8395.50
448.06	8645.94
448.25	8423.59
448.43	8578.06
448.62	8575.72
448.80	8418.91
448.99	8702.11
449.17	8730.20
449.36	8826.16
449.54	8690.41
449.73	8847.22
449.91	9004.04
450.10	8945.53
450.28	9015.74
450.46	8793.39
450.65	8924.46
450.83	9095.32
451.02	8784.03
451.20	9254.48
451.39	9090.64
451.57	9146.81
451.76	9137.45
451.94	9212.35
452.13	9305.97
452.31	9085.96
452.49	9214.69
452.68	9537.68
452.86	9165.54
453.05	9294.27
453.23	9516.62
453.42	9308.31
453.60	9301.29
453.78	9415.98
453.97	9528.32
454.15	9408.95
454.34	9453.42
454.52	9551.73
454.70	9554.07
454.89	9671.09
455.07	9647.69
455.26	9699.18
455.44	9692.16
455.62	9561.09
455.81	9837.27
455.99	9891.10
456.17	10012.81
456.36	9863.02
456.54	10059.62
456.73	9991.75
456.91	10349.85
457.09	10382.62
457.28	10317.08
457.46	10157.92
457.64	10347.51
457.83	10377.94
458.01	10260.91
458.19	10567.52
458.38	10373.25
458.56	10593.26
458.74	10686.89
458.93	10366.23
459.11	11047.33
459.29	10937.32
459.48	10719.65
459.66	10635.39
459.84	10846.04
460.03	11056.69
460.21	10848.38
460.39	10848.38
460.57	11019.24
460.76	11147.97
460.94	11274.36
461.12	11047.33
461.31	11007.54
461.49	11283.72
461.67	11190.10
461.85	11358.62
462.04	11124.57
462.22	11630.12
462.40	11492.03
462.59	11339.90
462.77	11398.41
462.95	11545.86
463.13	11824.39
463.32	11592.67
463.50	11662.89
463.68	11698.00
463.86	11611.40
464.05	11506.07
464.23	11679.27
464.41	11679.27
464.59	11477.99
464.78	11960.14
464.96	11948.43
465.14	11857.15
465.32	12138.02
465.50	12028.01
465.69	12224.62
465.87	11885.24
466.05	12037.38
466.23	12077.16
466.41	12093.55
466.60	12355.69
466.78	12156.74
466.96	12016.31
467.14	12025.67
467.32	12505.48
467.51	12369.73
467.69	12203.55
467.87	12365.05
468.05	12500.80
468.23	12552.29
468.41	12276.11
468.60	12336.96
468.78	12634.21
468.96	12248.02
469.14	12580.38
469.32	12828.48
469.50	12477.40
469.69	12819.11
469.87	13092.96
470.05	12901.03
470.23	13158.49
470.41	13036.78
470.59	13444.04
470.77	12989.97
470.95	13376.16
471.14	13327.01
471.32	12999.34
471.50	13212.32
471.68	13362.12
471.86	13607.87
472.04	13575.11
472.22	14047.90
472.40	13708.52
472.58	13593.83
472.77	14052.58
472.95	13888.74
473.13	14476.21
473.31	14164.92
473.49	13898.10
473.67	13870.01
473.85	14010.45
474.03	14588.56
474.21	14572.18
474.39	14548.77
474.57	14527.71
474.75	14728.99
474.93	14974.75
475.12	14740.69
475.30	15019.22
475.48	14902.19
475.66	15063.69
475.84	14927.94
476.02	15262.63
476.20	15405.41
476.38	15508.39
476.56	15999.90
476.74	15800.96
476.92	15850.11
477.10	15756.49
477.28	15906.28
477.46	16023.31
477.64	16063.10
477.82	16650.57
478.00	16996.97
478.18	16847.18
478.36	16702.06
478.54	17259.11
478.72	16802.71
478.90	17158.47
479.08	17827.86
479.26	17319.96
479.44	17514.23
479.62	17710.83
479.80	17975.31
479.98	17996.38
480.16	18506.62
480.34	17980.00
480.52	18382.57
480.70	18658.75
480.88	18190.64
481.06	18633.00
481.24	18668.11
481.41	19040.26
481.59	19047.28
481.77	18960.68
481.95	19414.74
482.13	19459.21
482.31	19644.12
482.49	20042.01
482.67	20091.16
482.85	20388.41
483.03	20421.17
483.21	20514.80
483.39	20819.07
483.57	20933.75
483.74	21102.27
483.92	21226.32
484.10	20999.29
484.28	21734.21
484.46	21750.60
484.64	22150.83
484.82	21921.46
485.00	22314.67
485.18	22651.70
485.35	22537.02
485.53	23021.51
485.71	22731.28
485.89	23178.33
486.07	23152.58
486.25	23433.44
486.43	23524.72
486.61	24098.16
486.78	24053.69
486.96	23953.04
487.14	24222.20
487.32	24336.89
487.50	24437.53
487.68	24968.84
487.85	25118.63
488.03	25184.16
488.21	25781.00
488.39	25666.31
488.57	25741.21
488.75	26246.77
488.92	26249.11
489.10	26761.69
489.28	26749.98
489.46	26796.79
489.64	26712.53
489.81	27393.63
489.99	27646.41
490.17	27850.03
490.35	28102.81
490.53	28112.17
490.70	28411.76
490.88	28163.67
491.06	28786.25
491.24	28762.84
491.41	28828.38
491.59	29195.84
491.77	29078.82
491.95	29432.24
492.13	29385.43
492.30	29790.34
492.48	29474.37
492.66	29930.77
492.84	30256.11
493.01	30293.55
493.19	30462.07
493.37	31098.70
493.54	30834.22
493.72	31332.75
493.90	31372.54
494.08	31529.36
494.25	31910.86
494.43	31906.18
494.61	31957.67
494.79	32343.86
494.96	32191.73
495.14	32554.51
495.32	32613.02
495.49	33200.50
495.67	33069.43
495.85	33472.00
496.02	33476.68
496.20	33984.58
496.38	33902.66
496.55	34031.39
496.73	34567.37
496.91	34431.62
497.09	34368.43
497.26	34768.66
497.44	34988.67
497.62	34953.56
497.79	35620.61
497.97	35290.60
498.14	35821.90
498.32	35857.01
498.50	36023.19
498.67	36030.21
498.85	35943.61
499.03	36362.56
499.20	36135.53
499.38	36577.89
499.56	36828.33
499.73	36931.31
499.91	36921.95
500.08	37340.91
500.26	37291.76
500.44	37752.84
500.61	37825.40
500.79	37584.32
500.97	37769.22
501.14	38433.94
501.32	38455.00
501.49	38361.38
501.67	38036.05
501.84	38590.75
502.02	38745.23
502.20	38794.38
502.37	39248.44
502.55	39143.12
502.72	39632.29
502.90	39351.43
503.07	39438.03
503.25	39463.77
503.43	39608.89
503.60	39988.05
503.78	40088.70
503.95	40048.91
504.13	39992.73
504.30	40531.06
504.48	40130.83
504.65	40325.09
504.83	40545.10
505.01	41254.28
505.18	40851.71
505.36	41177.04
505.53	40814.26
505.71	41549.19
505.88	41544.51
506.06	40938.31
506.23	41911.97
506.41	41420.46
506.58	41544.51
506.76	42113.26
506.93	41972.83
507.11	42176.45
507.28	42419.87
507.46	42131.98
507.63	42726.48
507.81	42920.74
507.98	42752.23
508.16	42930.11
508.33	43255.44
508.50	43002.66
508.68	43325.66
508.85	43833.55
509.03	43107.99
509.20	43821.85
509.38	43842.92
509.55	44329.75
509.73	44273.57
509.90	44238.47
510.08	44500.61
510.25	44451.45
510.42	44046.54
510.60	44406.98
510.77	44540.39
510.95	44847.00
511.12	44392.94
511.30	45195.74
511.47	45010.84
511.64	45092.76
511.82	45413.41
511.99	45397.03
512.17	45436.82
512.34	45572.57
512.51	45844.07
512.69	46176.43
512.86	46454.95
513.04	46176.43
513.21	46380.06
513.38	46450.27
513.56	46646.88
513.73	46960.51
513.90	46513.47
514.08	46717.09
514.25	47124.35
514.43	47267.12
514.60	47421.59
514.77	47309.25
514.95	47250.74
515.12	47267.12
515.29	47122.01
515.47	47489.47
515.64	47903.74
515.81	47466.06
515.99	48090.99
516.16	47863.96
516.33	48273.55
516.51	48318.02
516.68	48198.65
516.85	48114.39
517.03	48615.27
517.20	48559.09
517.37	48435.05
517.54	48753.36
517.72	48692.50
517.89	48676.12
518.06	49020.18
518.24	48910.17
518.41	49095.08
518.58	48741.66
518.75	49085.72
518.93	49272.96
519.10	48940.60
519.27	49729.36
519.45	49200.40
519.62	49860.43
519.79	49602.97
519.96	49535.10
520.14	50078.10
520.31	50000.86
520.48	50094.49
520.65	50143.64
520.83	50635.15
521.00	50637.49
521.17	49940.01
521.34	50504.08
521.52	50845.80
521.69	50571.96
521.86	50696.00
522.03	50864.52
522.20	51201.56
522.38	51051.76
522.55	51004.95
522.72	51274.12
522.89	51152.41
523.07	51697.75
523.24	51243.69
523.41	51400.50
523.58	50916.01
523.75	51660.30
523.92	51564.34
524.10	51737.54
524.27	52076.92
524.44	52074.58
524.61	52236.08
524.78	51814.78
524.96	51978.62
525.13	52097.98
525.30	52147.14
525.47	52294.59
525.64	52458.43
525.81	52308.63
525.98	52573.11
526.16	52413.96
526.33	52608.22
526.50	53116.12
526.67	52498.22
526.84	52739.29
527.01	52587.16
527.18	52545.03
527.36	52725.25
527.53	52921.85
527.70	53162.93
527.87	53095.05
528.04	52790.78
528.21	53050.58
528.38	53130.16
528.55	53389.96
528.72	53198.04
528.89	53062.29
529.07	53256.55
529.24	53446.13
529.41	53712.95
529.58	53202.72
529.75	53509.33
529.92	53347.83
530.09	53385.28
530.26	53921.26
530.43	53911.90
530.60	53436.77
530.77	53738.70
530.94	53846.36
531.11	53652.10
531.28	54005.52
531.46	53935.30
531.63	54176.38
531.80	53932.96
531.97	54274.68
532.14	54333.20
532.31	54241.92
532.48	54433.84
532.65	54508.74
532.82	54281.70
532.99	54681.94
533.16	54417.46
533.33	54934.71
533.50	54761.51
533.67	54674.91
533.84	54452.56
534.01	54855.14
534.18	54798.96
534.35	55044.72
534.52	54831.73
534.69	54878.54
534.86	55065.78
535.03	54796.62
535.20	55178.13
535.37	55164.09
535.54	55033.02
535.71	54993.23
535.88	55526.87
536.05	55164.09
536.22	55255.37
536.38	55430.91
536.55	55276.43
536.72	55353.67
536.89	55189.83
537.06	55576.02
537.23	55679.00
537.40	55466.02
537.57	55489.42
537.74	55662.62
537.91	55728.16
538.08	55524.53
538.25	55758.58
538.42	55681.34
538.59	55749.22
538.75	55934.12
538.92	55992.64
539.09	55985.61
539.26	55753.90
539.43	55945.83
539.60	56252.44
539.77	56086.26
539.94	56388.19
540.11	56193.92
540.28	56409.25
540.44	55976.25
540.61	56484.15
540.78	56301.59
540.95	56097.96
541.12	56385.85
541.29	56411.59
541.46	56449.04
541.62	56605.86
541.79	56521.60
541.96	56191.58
542.13	56612.88
542.30	56442.02
542.47	56736.93
542.63	56722.88
542.80	56865.66
542.97	56776.72
543.14	57312.70
543.31	56978.00
543.48	57183.97
543.64	57221.42
543.81	57301.00
543.98	57111.41
544.15	57151.20
544.32	57174.61
544.48	57572.50
544.65	57186.31
544.82	57396.96
544.99	56982.68
545.16	57546.75
545.32	57298.65
545.49	57429.72
545.66	57631.01
545.83	57516.32
546.00	57607.61
546.16	57560.79
546.33	57577.18
546.50	57396.96
546.67	57825.28
546.83	57277.59
547.00	57799.53
547.17	57528.03
547.34	57640.37
547.50	57939.96
547.67	57705.91
547.84	58064.01
548.00	57951.66
548.17	57932.94
548.34	57928.26
548.51	58045.29
548.67	58082.73
548.84	58042.95
549.01	57986.77
549.18	57918.90
549.34	58162.31
549.51	58248.91
549.68	58361.26
549.84	58312.11
550.01	58232.53
550.18	58017.20
550.34	58405.73
550.51	58204.44
550.68	58155.29
550.84	57996.13
551.01	58363.60
551.18	58323.81
551.34	58382.32
551.51	58459.56
551.68	58550.84
551.84	58213.80
552.01	58244.23
552.18	58518.07
552.34	58370.62
552.51	58658.51
552.68	58546.16
552.84	58511.05
553.01	59025.97
553.18	58658.51
553.34	58576.59
553.51	58749.79
553.67	58569.57
553.84	58887.88
554.01	58937.03
554.17	58695.95
554.34	58878.52
554.51	58773.19
554.67	58726.38
554.84	58974.48
555.00	58712.34
555.17	58892.56
555.33	58871.49
555.50	58698.30
555.67	58740.42
555.83	58974.48
556.00	59023.63
556.16	59201.51
556.33	59224.92
556.50	59096.19
556.66	59215.55
556.83	58932.35
556.99	59264.70
557.16	59363.01
557.32	59360.67
557.49	59419.18
557.65	59334.92
557.82	59339.60
557.98	59313.86
558.15	59398.12
558.32	59344.28
558.48	59299.81
558.65	59231.94
558.81	59341.94
558.98	59278.75
559.14	59496.42
559.31	59437.90
559.47	59440.24
559.64	59419.18
559.80	59440.24
559.97	59484.72
560.13	59416.84
560.30	59465.99
560.46	59468.33
560.63	59568.97
560.79	59627.49
560.96	59929.42
561.12	59606.42
561.29	59639.19
561.45	59803.03
561.61	59793.67
561.78	59700.04
561.94	59578.34
562.11	59730.47
562.27	59639.19
562.44	59910.69
562.60	59964.52
562.77	59882.61
562.93	59693.02
563.10	59985.59
563.26	59732.81
563.42	60062.83
563.59	59866.22
563.75	59772.60
563.92	59707.07
564.08	59739.83
564.24	59983.25
564.41	59950.48
564.57	59994.95
564.74	60009.00
564.90	60020.70
565.07	59924.74
565.23	60065.17
565.39	60121.34
565.56	59931.76
565.72	59884.95
565.88	60051.12
566.05	59863.88
566.21	59957.50
566.38	60189.22
566.54	60189.22
566.70	60236.03
566.87	60158.79
567.03	60097.94
567.19	60217.30
567.36	60200.92
567.52	60119.00
567.68	60577.75
567.85	60062.83
568.01	60535.62
568.17	60142.41
568.34	60275.82
568.50	60320.29
568.66	60193.90
568.83	60348.37
568.99	60154.11
569.15	60268.79
569.32	60179.85
569.48	60226.66
569.64	60444.33
569.81	60385.82
569.97	60140.07
570.13	60310.92
570.30	60210.28
570.46	60322.63
570.62	60313.26
570.78	60425.61
570.95	60434.97
571.11	60406.89
571.27	60456.04
571.43	60467.74
571.60	60451.36
571.76	60409.23
571.92	60392.84
572.09	60472.42
572.25	60441.99
572.41	60395.18
572.57	60460.72
572.74	60533.28
572.90	60371.78
573.06	60406.89
573.22	60308.58
573.38	60559.02
573.55	60453.70
573.71	60601.15
573.87	60662.00
574.03	60437.31
574.20	60608.17
574.36	60650.30
574.52	60617.53
574.68	60800.10
574.84	60741.58
575.01	60788.39
575.17	60624.56
575.33	60537.96
575.49	60474.76
575.65	60622.22
575.82	60685.41
575.98	60697.11
576.14	60795.42
576.30	60509.87
576.46	60617.53
576.62	60750.94
576.79	60718.18
576.95	60615.19
577.11	60741.58
577.27	60711.16
577.43	60580.09
577.59	60544.98
577.75	60526.25
577.92	60392.84
578.08	60699.45
578.24	60662.00
578.40	60844.57
578.56	60779.03
578.72	60757.97
578.88	61069.26
579.04	60750.94
579.21	60818.82
579.37	60823.50
579.53	60788.39
579.69	60493.49
579.85	60769.67
580.01	60720.52
580.17	60690.09
580.33	60701.79
580.49	60743.92
580.65	60849.25
580.82	60774.35
580.98	60678.39
581.14	60577.75
581.30	60903.08
581.46	60832.86
581.62	60949.89
581.78	60825.84
581.94	60912.44
582.10	60743.92
582.26	60741.58
582.42	60629.24
582.58	60853.93
582.74	60757.97
582.90	60837.54
583.06	60851.59
583.22	60776.69
583.38	60837.54
583.54	60601.15
583.70	60739.24
583.86	60818.82
584.02	60917.12
584.18	60896.06
584.34	60966.27
584.50	60807.12
584.66	60596.47
584.82	60713.50
584.98	61048.19
585.14	61118.41
585.30	60832.86
585.46	60980.32
585.62	60839.89
585.78	60905.42
585.94	60683.07
586.10	60837.54
586.26	60973.30
586.42	60992.02
586.58	60956.91
586.74	60931.17
586.90	60809.46
587.06	60849.25
587.22	61078.62
587.38	60919.46
587.54	60889.04
587.70	61190.97
587.86	60795.42
588.02	60830.52
588.18	61048.19
588.34	60877.33
588.49	60903.08
