SpectraSuite Data File
++++++++++++++++++++++++++++++++++++
Date: Fri Oct 25 10:44:28 EDT 2013
User: price-jones
Dark Spectrum Present: No
Reference Spectrum Present: No
Number of Sampled Component Spectra: 1
Spectrometers: USB2+H05261
Integration Time (usec): 100000 (USB2+H05261)
Spectra Averaged: 1 (USB2+H05261)
Boxcar Smoothing: 0 (USB2+H05261)
Correct for Electrical Dark: No (USB2+H05261)
Strobe/Lamp Enabled: No (USB2+H05261)
Correct for Detector Non-linearity: No (USB2+H05261)
Correct for Stray Light: No (USB2+H05261)
Number of Pixels in Processed Spectrum: 2048
>>>>>Begin Processed Spectral Data<<<<<
365.73	91.28
365.92	91.28
366.12	91.28
366.32	23.41
366.52	67.88
366.72	39.79
366.91	28.09
367.11	51.49
367.31	0.00
367.51	0.00
367.70	84.26
367.90	0.00
368.10	32.77
368.30	11.70
368.49	51.49
368.69	37.45
368.89	25.75
369.09	30.43
369.28	95.96
369.48	23.41
369.68	70.22
369.87	67.88
370.07	81.92
370.27	119.37
370.47	184.90
370.66	390.87
370.86	388.53
371.06	475.13
371.25	510.24
371.45	376.83
371.65	500.87
371.84	458.74
372.04	449.38
372.24	540.66
372.44	449.38
372.63	507.90
372.83	491.51
373.03	526.62
373.22	496.19
373.42	587.47
373.62	578.11
373.81	557.05
374.01	554.71
374.21	484.49
374.40	589.82
374.60	561.73
374.79	557.05
374.99	594.50
375.19	617.90
375.38	545.34
375.58	603.86
375.78	638.97
375.97	744.29
376.17	713.86
376.37	622.58
376.56	674.07
376.76	631.94
376.95	657.69
377.15	592.16
377.35	608.54
377.54	697.48
377.74	732.59
377.93	671.73
378.13	648.33
378.33	690.46
378.52	725.57
378.72	739.61
378.91	582.79
379.11	620.24
379.31	634.29
379.50	594.50
379.70	620.24
379.89	711.52
380.09	690.46
380.28	709.18
380.48	699.82
380.68	746.63
380.87	741.95
381.07	734.93
381.26	753.65
381.46	704.50
381.65	669.39
381.85	596.84
382.04	641.31
382.24	765.36
382.43	634.29
382.63	753.65
382.83	678.76
383.02	685.78
383.22	760.67
383.41	706.84
383.61	727.91
383.80	812.17
384.00	821.53
384.19	716.20
384.39	788.76
384.58	777.06
384.78	840.25
384.97	770.04
385.17	842.59
385.36	847.27
385.56	842.59
385.75	791.10
385.95	835.57
386.14	858.98
386.34	777.06
386.53	727.91
386.72	814.51
386.92	896.43
387.11	854.30
387.31	882.38
387.50	805.14
387.70	905.79
387.89	896.43
388.09	917.49
388.28	959.62
388.48	938.55
388.67	868.34
388.86	971.32
389.06	943.24
389.25	1029.84
389.45	971.32
389.64	1004.09
389.84	1043.88
390.03	1043.88
390.22	976.00
390.42	980.68
390.61	952.60
390.81	1015.79
391.00	1055.58
391.19	1137.50
391.39	1081.33
391.58	1111.75
391.78	999.41
391.97	1064.94
392.16	1034.52
392.36	1135.16
392.55	1041.54
392.75	1011.11
392.94	943.24
393.13	987.71
393.33	947.92
393.52	1034.52
393.71	1057.92
393.91	1114.10
394.10	1046.22
394.29	1078.99
394.49	1139.84
394.68	1231.12
394.88	1242.82
395.07	1299.00
395.26	1179.63
395.46	1287.29
395.65	1252.19
395.84	1165.59
396.04	1200.69
396.23	1212.40
396.42	1118.78
396.62	1207.72
396.81	1317.72
397.00	1200.69
397.19	1275.59
397.39	1242.82
397.58	1416.02
397.77	1416.02
397.97	1397.30
398.16	1334.11
398.35	1523.69
398.55	1397.30
398.74	1551.78
398.93	1507.30
399.12	1500.28
399.32	1502.62
399.51	1551.78
399.70	1607.95
399.90	1556.46
400.09	1610.29
400.28	1605.61
400.47	1598.59
400.67	1654.76
400.86	1661.78
401.05	1680.50
401.24	1703.91
401.44	1687.53
401.63	1739.02
401.82	1734.34
402.01	1760.08
402.21	1750.72
402.40	1788.17
402.59	1858.39
402.78	1710.93
402.97	1809.23
403.17	1769.44
403.36	1895.83
403.55	1888.81
403.74	1926.26
403.93	1839.66
404.13	1816.26
404.32	1834.98
404.51	1966.05
404.70	1905.20
404.89	1930.94
405.09	1928.60
405.28	2010.52
405.47	1998.82
405.66	1944.99
405.85	2026.90
406.05	2001.16
406.24	2064.35
406.43	2101.80
406.62	2195.42
406.81	2183.72
407.00	2111.16
407.20	1970.73
407.39	2129.89
407.58	2165.00
407.77	2155.63
407.96	2270.32
408.15	2410.75
408.34	2340.54
408.54	2282.02
408.73	2289.04
408.92	2305.43
409.11	2310.11
409.30	2289.04
409.49	2310.11
409.68	2272.66
409.87	2314.79
410.07	2375.64
410.26	2291.38
410.45	2373.30
410.64	2534.80
410.83	2464.58
411.02	2583.95
411.21	2553.52
411.40	2726.72
411.59	2637.78
411.78	2581.61
411.98	2644.81
412.17	2679.91
412.36	2649.49
412.55	2747.79
412.74	2740.77
412.93	2679.91
413.12	2782.90
413.31	2923.33
413.50	2841.41
413.69	3115.25
413.88	3084.83
414.07	3045.04
414.26	2995.89
414.45	2925.67
414.64	2895.24
414.83	3052.06
415.02	3009.93
415.22	3126.96
415.41	3124.62
415.60	3222.92
415.79	3145.68
415.98	3248.66
416.17	3332.92
416.36	3234.62
416.55	3243.98
416.74	3286.11
416.93	3199.51
417.12	3300.16
417.31	3384.41
417.50	3382.07
417.69	3419.52
417.88	3447.61
418.07	3475.70
418.26	3520.17
418.45	3407.82
418.64	3646.55
418.83	3609.11
419.02	3606.77
419.21	3613.79
419.39	3578.68
419.58	3552.93
419.77	3545.91
419.96	3712.09
420.15	3742.52
420.34	3658.26
420.53	3786.99
420.72	3922.74
420.91	3768.26
421.10	3861.88
421.29	3758.90
421.48	3646.55
421.67	3885.29
421.86	3833.80
422.05	3819.75
422.24	3765.92
422.43	3819.75
422.61	3889.97
422.80	3932.10
422.99	3974.23
423.18	3878.27
423.37	4093.60
423.56	3913.38
423.75	4025.72
423.94	3988.27
424.13	3817.41
424.32	3840.82
424.50	3955.51
424.69	4107.64
424.88	4004.66
425.07	3885.29
425.26	3974.23
425.45	4014.02
425.64	3908.69
425.83	4070.19
426.01	4044.45
426.20	3985.93
426.39	4095.94
426.58	4035.08
426.77	3988.27
426.96	4063.17
427.15	4046.79
427.33	4273.82
427.52	4102.96
427.71	4255.09
427.90	4037.42
428.09	4142.75
428.28	4135.73
428.46	4128.70
428.65	4280.84
428.84	4285.52
429.03	4271.48
429.22	4175.52
429.40	4297.22
429.59	4187.22
429.78	4018.70
429.97	3943.80
430.16	3969.55
430.34	4147.43
430.53	4271.48
430.72	4304.25
430.91	4320.63
431.10	4339.35
431.28	4514.89
431.47	4512.55
431.66	4617.88
431.85	4634.26
432.03	4823.84
432.22	4697.46
432.41	4711.50
432.60	4692.77
432.79	4762.99
432.97	4788.74
433.16	4903.42
433.35	4695.11
433.54	4788.74
433.72	4732.56
433.91	4662.35
434.10	4905.76
434.28	4891.72
434.47	4784.06
434.66	4931.51
434.85	4985.34
435.03	4844.91
435.22	4910.44
435.41	5350.46
435.59	4987.68
435.78	5025.13
435.97	5188.97
436.16	5170.24
436.34	5085.98
436.53	5142.16
436.72	5233.44
436.90	5240.46
437.09	5153.86
437.28	5132.79
437.46	5160.88
437.65	5118.75
437.84	5376.21
438.02	5210.03
438.21	5287.27
438.40	5226.42
438.58	5523.66
438.77	5544.73
438.96	5497.92
439.14	5664.10
439.33	5837.30
439.52	5724.95
439.70	5612.60
439.89	5891.13
440.08	5746.02
440.26	5830.27
440.45	5781.12
440.63	5898.15
440.82	6071.35
441.01	6099.44
441.19	6143.91
441.38	6012.84
441.57	6010.50
441.75	6183.70
441.94	6438.81
442.12	6424.77
442.31	6354.55
442.50	6394.34
442.68	6345.19
442.87	6286.68
443.05	6263.27
443.24	6654.14
443.43	6544.14
443.61	6553.50
443.80	6614.35
443.98	6384.98
444.17	6338.17
444.35	6588.61
444.54	6911.60
444.73	6448.18
444.91	6607.33
445.10	6485.62
445.28	6506.69
445.47	6558.18
445.65	6424.77
445.84	6675.21
446.02	6619.04
446.21	6656.48
446.39	6377.96
446.58	6686.91
446.77	6724.36
446.95	6600.31
447.14	6757.13
447.32	6960.75
447.51	6883.52
447.69	6766.49
447.88	6679.89
448.06	6782.87
448.25	6876.49
448.43	6794.58
448.62	6658.82
448.80	6958.41
448.99	6881.18
449.17	6764.15
449.36	6810.96
449.54	7066.08
449.73	6974.80
449.91	7129.27
450.10	7274.38
450.28	7297.79
450.46	7304.81
450.65	7239.28
450.83	7503.76
451.02	7344.60
451.20	7344.60
451.39	7339.92
451.57	7295.45
451.76	7246.30
451.94	7232.26
452.13	7414.82
452.31	7286.09
452.49	7075.44
452.68	7248.64
452.86	7288.43
453.05	7332.90
453.23	7541.21
453.42	7346.94
453.60	7316.51
453.78	7552.91
453.97	7468.65
454.15	7487.37
454.34	7433.54
454.52	7414.82
454.70	7576.31
454.89	7871.22
455.07	7576.31
455.26	7733.13
455.44	7817.39
455.62	7775.26
455.81	7801.01
455.99	8002.29
456.17	7840.79
456.36	7999.95
456.54	8095.91
456.73	8138.04
456.91	8072.51
457.09	8154.43
457.28	8334.65
457.46	8124.00
457.64	8198.90
457.83	8025.70
458.01	8004.63
458.19	8402.52
458.38	8276.13
458.56	8400.18
458.74	8456.36
458.93	8341.67
459.11	8325.29
459.29	8418.91
459.48	8503.17
459.66	8355.71
459.84	8648.28
460.03	8503.17
460.21	8545.30
460.39	8566.36
460.57	8472.74
460.76	8650.62
460.94	8861.27
461.12	8751.26
461.31	8805.10
461.49	8753.60
461.67	8842.54
461.85	9146.81
462.04	8924.46
462.22	8872.97
462.40	9053.19
462.59	9011.06
462.77	9160.86
462.95	8905.74
463.13	9011.06
463.32	8882.33
463.50	8882.33
463.68	9174.90
463.86	9111.71
464.05	8964.25
464.23	9004.04
464.41	9111.71
464.59	9008.72
464.78	9268.52
464.96	9142.13
465.14	9142.13
465.32	9254.48
465.50	9479.17
465.69	9345.76
465.87	9479.17
466.05	9249.80
466.23	9090.64
466.41	9432.36
466.60	9413.63
466.78	9165.54
466.96	9224.05
467.14	9481.51
467.32	9521.30
467.51	9497.89
467.69	9312.99
467.87	9509.60
468.05	9453.42
468.23	9533.00
468.41	9774.08
468.60	9593.86
468.78	9755.35
468.96	9694.50
469.14	9804.50
469.32	10024.51
469.50	9795.14
469.69	9799.82
469.87	9834.93
470.05	9687.48
470.23	9921.53
470.41	9877.06
470.59	9975.36
470.77	9977.70
470.95	10087.71
471.14	9994.09
471.32	9982.38
471.50	10251.55
471.68	10555.82
471.86	10487.94
472.04	10583.90
472.22	10633.05
472.40	10366.23
472.58	10427.09
472.77	10520.71
472.95	10714.97
473.13	10949.03
473.31	10700.93
473.49	10892.85
473.67	10834.34
473.85	11028.60
474.03	11044.99
474.21	11028.60
474.39	11236.91
474.57	11068.39
474.75	11211.17
474.93	11339.90
475.12	11208.83
475.30	11393.73
475.48	11321.17
475.66	11339.90
475.84	11384.37
476.02	11304.79
476.20	11571.61
476.38	11782.26
476.56	11908.65
476.74	12081.85
476.92	12170.79
477.10	12016.31
477.28	12311.22
477.46	12107.59
477.64	12519.53
477.82	12585.06
478.00	12952.52
478.18	12603.78
478.36	12585.06
478.54	12739.54
478.72	12769.96
478.90	13067.21
479.08	13064.87
479.26	13336.37
479.44	13252.11
479.62	13287.22
479.80	13518.93
479.98	13675.75
480.16	13647.66
480.34	13781.07
480.52	13757.67
480.70	13884.06
480.88	13785.76
481.06	14064.28
481.24	13947.25
481.41	14277.27
481.59	14553.45
481.77	14726.65
481.95	14422.38
482.13	14925.60
482.31	14792.19
482.49	15056.67
482.67	15159.65
482.85	15279.02
483.03	15197.10
483.21	15555.20
483.39	15641.80
483.57	15576.27
483.74	15606.69
483.92	15782.23
484.10	15772.87
484.28	16142.67
484.46	16367.37
484.64	16470.35
484.82	16271.40
485.00	16360.34
485.18	16498.44
485.35	16601.42
485.53	16325.24
485.71	16297.15
485.89	16863.56
486.07	16386.09
486.25	16919.73
486.43	16994.63
486.61	17135.06
486.78	17224.00
486.96	17661.68
487.14	17888.71
487.32	17928.50
487.50	18019.78
487.68	18431.72
487.85	18473.85
488.03	18803.86
488.21	18963.02
488.39	18890.46
488.57	18719.60
488.75	18906.85
488.92	19356.23
489.10	19590.28
489.28	19772.85
489.46	20034.99
489.64	19829.02
489.81	20318.19
489.99	20126.27
490.17	20397.77
490.35	20381.38
490.53	20723.10
490.70	20467.98
490.88	20884.60
491.06	21076.52
491.24	20922.05
491.41	20795.66
491.59	21113.97
491.77	20915.03
491.95	21064.82
492.13	21296.53
492.30	21804.43
492.48	21788.05
492.66	21926.14
492.84	22202.32
493.01	22518.29
493.19	22132.11
493.37	22031.46
493.54	22373.18
493.72	22796.82
493.90	22834.27
494.08	23363.23
494.25	23185.35
494.43	23543.45
494.61	23620.69
494.79	23775.16
494.96	23789.20
495.14	24004.53
495.32	23995.17
495.49	24034.96
495.67	24266.67
495.85	24283.06
496.02	24482.00
496.20	24704.35
496.38	24552.22
496.55	24664.57
496.73	25500.14
496.91	24769.89
497.09	25142.03
497.26	25612.48
497.44	25497.80
497.62	25495.46
497.79	25830.15
497.97	25450.99
498.14	25673.34
498.32	25720.15
498.50	25914.41
498.67	26010.37
498.85	26494.86
499.03	26293.58
499.20	26443.37
499.38	26588.49
499.56	26665.72
499.73	26719.56
499.91	26625.93
500.08	26993.40
500.26	26401.24
500.44	26862.33
500.61	26820.20
500.79	26960.63
500.97	27122.13
501.14	27295.33
501.32	27290.65
501.49	27044.89
501.67	27548.11
501.84	27686.20
502.02	27660.45
502.20	27880.46
502.37	28273.67
502.55	28308.78
502.72	28135.58
502.90	28329.84
503.07	28329.84
503.25	28196.43
503.43	28308.78
503.60	28379.00
503.78	28346.23
503.95	28547.51
504.13	28341.55
504.30	28811.99
504.48	28774.55
504.65	29195.84
504.83	29319.89
505.01	29333.93
505.18	29345.64
505.36	29818.42
505.53	29607.78
505.71	29722.46
505.88	30036.09
506.06	29539.90
506.23	29996.31
506.41	29783.32
506.58	30033.75
506.76	30148.44
506.93	30249.08
507.11	30038.44
507.28	30286.53
507.46	30410.58
507.63	30553.35
507.81	30600.16
507.98	30478.46
508.16	30815.49
508.33	31213.38
508.50	30948.90
508.68	31204.02
508.85	31545.74
509.03	31281.26
509.20	31562.12
509.38	31826.60
509.55	31381.90
509.73	31508.29
509.90	31578.51
510.08	31449.78
510.25	31494.25
510.42	31945.97
510.60	31969.38
510.77	32334.50
510.95	32591.96
511.12	32264.28
511.30	32313.44
511.47	32552.17
511.64	32737.07
511.82	32926.66
511.99	32540.47
512.17	32636.43
512.34	32723.03
512.51	32723.03
512.69	32914.95
512.86	32809.63
513.04	33041.34
513.21	33099.86
513.38	33111.56
513.56	32931.34
513.73	32835.38
513.90	33441.57
514.08	33193.48
514.25	33156.03
514.43	33488.38
514.60	33785.63
514.77	33584.35
514.95	33853.51
515.12	33996.28
515.29	34141.39
515.47	34490.13
515.64	34312.25
515.81	33872.23
515.99	33954.15
516.16	34352.04
516.33	33673.29
516.51	34263.10
516.68	33490.73
516.85	33497.75
517.03	34146.08
517.20	34572.05
517.37	34286.51
517.54	34499.50
517.72	34443.32
517.89	34314.59
518.06	34171.82
518.24	34410.56
518.41	34593.12
518.58	34948.88
518.75	34960.58
518.93	35042.50
519.10	35278.89
519.27	35714.23
519.45	35335.07
519.62	35438.05
519.79	35690.83
519.96	35393.58
520.14	36102.76
520.31	35798.49
520.48	36067.66
520.65	35826.58
520.83	36264.26
521.00	35948.29
521.17	36594.28
521.34	36184.68
521.52	36631.72
521.69	36591.94
521.86	36208.09
522.03	36584.91
522.20	36779.18
522.38	36835.35
522.55	36741.73
522.72	36704.28
522.89	36456.18
523.07	36833.01
523.24	36840.03
523.41	37062.38
523.58	36961.74
523.75	37717.73
523.92	37436.87
524.10	37879.23
524.27	37769.22
524.44	37509.43
524.61	37757.52
524.78	37750.50
524.96	38277.12
525.13	38010.30
525.30	38136.69
525.47	38410.53
525.64	38080.52
525.81	37890.93
525.98	37790.29
526.16	37504.74
526.33	37780.93
526.50	38281.80
526.67	37586.66
526.84	37668.58
527.01	37823.06
527.18	38174.14
527.36	38459.68
527.53	38796.72
527.70	39257.81
527.87	38836.51
528.04	38359.04
528.21	38927.79
528.38	38831.83
528.55	39215.68
528.72	39108.01
528.89	39431.01
529.07	39164.18
529.24	38803.74
529.41	39438.03
529.58	38995.67
529.75	39339.72
529.92	39316.32
530.09	39356.11
530.26	39271.85
530.43	39192.27
530.60	39522.29
530.77	39548.03
530.94	39878.05
531.11	39812.51
531.28	39267.17
531.46	40243.17
531.63	40076.99
531.80	40100.40
531.97	39910.82
532.14	39791.45
532.31	39377.17
532.48	40009.12
532.65	39995.07
532.82	40006.78
532.99	40044.23
533.16	40072.31
533.33	40275.94
533.50	40435.10
533.67	40196.36
533.84	40175.30
534.01	40535.74
534.18	40488.93
534.35	41163.00
534.52	40465.52
534.69	40467.86
534.86	40477.22
535.03	40350.84
535.20	41460.25
535.37	41116.19
535.54	41551.53
535.71	41060.02
535.88	41179.39
536.05	40907.88
536.22	41303.43
536.38	41200.45
536.55	40884.48
536.72	41165.34
536.89	40896.18
537.06	41081.08
537.23	41357.27
537.40	41460.25
537.57	41663.88
537.74	41659.20
537.91	41724.73
538.08	41890.91
538.25	41441.53
538.42	41455.57
538.59	41820.69
538.75	41375.99
538.92	41818.35
539.09	42064.11
539.26	41844.10
539.43	41425.14
539.60	41352.58
539.77	41858.14
539.94	41563.23
540.11	41516.42
540.28	41963.46
540.44	41748.14
540.61	41792.61
540.78	41497.70
540.95	42169.43
541.12	42005.59
541.29	41816.01
541.46	42045.38
541.62	42319.23
541.79	42492.43
541.96	42337.95
542.13	42368.38
542.30	42450.30
542.47	42513.49
542.63	42462.00
542.80	42909.04
542.97	42827.12
543.14	42670.31
543.31	43203.95
543.48	42883.30
543.64	43210.97
543.81	43100.97
543.98	43180.54
544.15	42780.31
544.32	43328.00
544.48	43302.25
544.65	43117.35
544.82	43386.51
544.99	42909.04
545.16	43143.09
545.32	43381.83
545.49	43866.32
545.66	43810.15
545.83	43433.32
546.00	43632.27
546.16	43796.10
546.33	43496.52
546.50	43445.02
546.67	43494.18
546.83	43566.73
547.00	43550.35
547.17	43475.45
547.34	43667.37
547.50	43892.07
547.67	43859.30
547.84	43782.06
548.00	44032.50
548.17	44046.54
548.34	44109.74
548.51	44177.61
548.67	44032.50
548.84	44285.28
549.01	44027.82
549.18	44245.49
549.34	43842.92
549.51	44264.21
549.68	44336.77
549.84	44524.01
550.01	44098.03
550.18	43938.88
550.34	44362.51
550.51	44531.03
550.68	44315.70
550.84	44027.82
551.01	44584.86
551.18	44151.87
551.34	44505.29
551.51	44648.06
551.68	44596.57
551.84	44449.11
552.01	44704.23
552.18	44856.37
552.34	44203.36
552.51	44566.14
552.68	44652.74
552.84	45057.65
553.01	45144.25
553.18	44884.45
553.34	44722.96
553.51	44238.47
553.67	44687.85
553.84	45265.96
554.01	45151.27
554.17	45237.87
554.34	44931.26
554.51	45235.53
554.67	45528.10
554.84	45406.39
555.00	45216.81
555.17	45062.33
555.33	45184.04
555.50	45200.43
555.67	45076.38
555.83	45284.68
556.00	45331.50
556.16	45811.31
556.33	45226.17
556.50	45015.52
556.66	45240.21
556.83	44758.06
556.99	45516.40
557.16	45872.16
557.32	45645.13
557.49	45916.63
557.65	45549.17
557.82	45104.46
557.98	45439.16
558.15	45558.53
558.32	45418.10
558.48	45413.41
558.65	45390.01
558.81	45333.84
558.98	45404.05
559.14	45399.37
559.31	45570.23
559.47	45867.48
559.64	45895.56
559.80	45792.58
559.97	45427.46
560.13	45380.65
560.30	45642.79
560.46	45504.70
560.63	45806.62
560.79	45797.26
560.96	46403.46
561.12	45825.35
561.29	45841.73
561.45	45478.95
561.61	45736.41
561.78	45595.98
561.94	45305.75
562.11	45490.65
562.27	45670.87
562.44	45855.78
562.60	46256.01
562.77	46270.05
562.93	45710.66
563.10	46171.75
563.26	45827.69
563.42	46230.26
563.59	45975.14
563.75	46075.79
563.92	46146.00
564.08	45902.59
564.24	45752.79
564.41	46092.17
564.57	46066.42
564.74	46026.63
564.90	46073.45
565.07	46396.44
565.23	46024.29
565.39	46265.37
565.56	46272.39
565.72	45759.81
565.88	46279.41
566.05	46038.34
566.21	46295.80
566.38	45439.16
566.54	46143.66
566.70	46363.67
566.87	46461.97
567.03	46089.83
567.19	46422.19
567.36	46050.04
567.52	45914.29
567.68	46298.14
567.85	46305.16
568.01	46218.56
568.17	46286.43
568.34	46419.84
568.50	45869.82
568.66	45579.59
568.83	46223.24
568.99	45918.97
569.15	46129.62
569.32	46321.54
569.48	45916.63
569.64	46363.67
569.81	46075.79
569.97	46438.57
570.13	46361.33
570.30	45680.24
570.46	46162.39
570.62	46024.29
570.78	46047.70
570.95	45848.75
571.11	46536.87
571.27	46038.34
571.43	46501.76
571.60	46349.63
571.76	46415.16
571.92	46543.89
572.09	46241.96
572.25	46012.59
572.41	46000.89
572.57	46150.68
572.74	46983.91
572.90	46646.88
573.06	46508.79
573.22	46258.35
573.38	46417.50
573.55	46216.22
573.71	46499.42
573.87	46326.22
574.03	46138.98
574.20	46532.19
574.36	46181.11
574.52	46342.61
574.68	46382.40
574.84	46487.72
575.01	46073.45
575.17	45591.30
575.33	46211.54
575.49	46328.56
575.65	46609.43
575.82	46422.19
575.98	46438.57
576.14	46759.22
576.30	46672.62
576.46	46237.28
576.62	46433.89
576.79	46522.83
576.95	45883.86
577.11	46195.15
577.27	46466.66
577.43	46183.45
577.59	46316.86
577.75	46630.49
577.92	45911.95
578.08	45581.93
578.24	45998.55
578.40	46361.33
578.56	46227.92
578.72	46206.86
578.88	46721.77
579.04	46459.63
579.21	46085.15
579.37	46518.15
579.53	46607.09
579.69	46471.34
579.85	46389.42
580.01	47093.92
580.17	46398.78
580.33	46361.33
580.49	47098.60
580.65	46431.55
580.82	46581.34
580.98	46799.01
581.14	46375.37
581.30	46480.70
581.46	46155.36
581.62	46569.64
581.78	46560.28
581.94	46660.92
582.10	46401.12
582.26	46703.05
582.42	46618.79
582.58	46499.42
582.74	46445.59
582.90	46529.85
583.06	46784.97
583.22	46588.36
583.38	46770.93
583.54	46855.18
583.70	46686.67
583.86	46808.37
584.02	46162.39
584.18	46277.07
584.34	46555.60
584.50	46450.27
584.66	46274.73
584.82	46567.30
584.98	46681.98
585.14	46733.48
585.30	46377.72
585.46	46513.47
585.62	46398.78
585.78	46237.28
585.94	46199.83
586.10	46855.18
586.26	46461.97
586.42	46674.96
586.58	46347.29
586.74	46546.23
586.90	46478.36
587.06	46059.40
587.22	46607.09
587.38	46347.29
587.54	46721.77
587.70	46791.99
587.86	46721.77
588.02	46408.14
588.18	46646.88
588.34	46288.77
588.49	46066.42
588.65	45902.59
588.81	45823.01
588.97	46155.36
589.13	45848.75
589.29	46256.01
589.45	46190.47
589.61	46010.25
589.77	46508.79
589.93	46562.62
590.08	46754.54
