SpectraSuite Data File
++++++++++++++++++++++++++++++++++++
Date: Fri Oct 25 10:44:52 EDT 2013
User: price-jones
Dark Spectrum Present: No
Reference Spectrum Present: No
Number of Sampled Component Spectra: 1
Spectrometers: USB2+H05261
Integration Time (usec): 100000 (USB2+H05261)
Spectra Averaged: 1 (USB2+H05261)
Boxcar Smoothing: 0 (USB2+H05261)
Correct for Electrical Dark: No (USB2+H05261)
Strobe/Lamp Enabled: No (USB2+H05261)
Correct for Detector Non-linearity: No (USB2+H05261)
Correct for Stray Light: No (USB2+H05261)
Number of Pixels in Processed Spectrum: 2048
>>>>>Begin Processed Spectral Data<<<<<
365.73	107.66
365.92	107.66
366.12	107.66
366.32	63.19
366.52	53.83
366.72	133.41
366.91	25.75
367.11	28.09
367.31	0.00
367.51	2.34
367.70	39.79
367.90	102.98
368.10	23.41
368.30	32.77
368.49	39.79
368.69	0.00
368.89	93.62
369.09	30.43
369.28	0.00
369.48	114.69
369.68	60.85
369.87	119.37
370.07	70.22
370.27	156.82
370.47	203.63
370.66	388.53
370.86	346.40
371.06	435.34
371.25	435.34
371.45	348.74
371.65	484.49
371.84	482.15
372.04	479.81
372.24	543.00
372.44	383.85
372.63	510.24
372.83	430.66
373.03	486.83
373.22	564.07
373.42	500.87
373.62	545.34
373.81	512.58
374.01	571.09
374.21	603.86
374.40	571.09
374.60	463.43
374.79	526.62
374.99	533.64
375.19	528.96
375.38	617.90
375.58	624.92
375.78	603.86
375.97	655.35
376.17	685.78
376.37	496.19
376.56	599.18
376.76	580.45
376.95	550.03
377.15	585.13
377.35	561.73
377.54	697.48
377.74	613.22
377.93	580.45
378.13	608.54
378.33	655.35
378.52	561.73
378.72	596.84
378.91	636.63
379.11	615.56
379.31	617.90
379.50	676.41
379.70	676.41
379.89	592.16
380.09	526.62
380.28	648.33
380.48	629.60
380.68	613.22
380.87	547.69
381.07	643.65
381.26	655.35
381.46	655.35
381.65	596.84
381.85	650.67
382.04	645.99
382.24	671.73
382.43	620.24
382.63	617.90
382.83	627.26
383.02	676.41
383.22	695.14
383.41	709.18
383.61	690.46
383.80	683.44
384.00	755.99
384.19	746.63
384.39	751.31
384.58	692.80
384.78	744.29
384.97	690.46
385.17	753.65
385.36	732.59
385.56	791.10
385.75	671.73
385.95	823.87
386.14	812.17
386.34	807.48
386.53	699.82
386.72	786.42
386.92	840.25
387.11	767.70
387.31	809.83
387.50	723.23
387.70	751.31
387.89	861.32
388.09	814.51
388.28	891.74
388.48	816.85
388.67	781.74
388.86	877.70
389.06	903.45
389.25	868.34
389.45	891.74
389.64	861.32
389.84	933.87
390.03	936.21
390.22	959.62
390.42	844.93
390.61	938.55
390.81	945.58
391.00	992.39
391.19	1013.45
391.39	959.62
391.58	997.07
391.78	908.13
391.97	968.98
392.16	823.87
392.36	990.05
392.55	926.85
392.75	917.49
392.94	978.34
393.13	1022.81
393.33	994.73
393.52	978.34
393.71	1102.39
393.91	980.68
394.10	1083.67
394.29	971.32
394.49	980.68
394.68	1067.28
394.88	1118.78
395.07	1172.61
395.26	1102.39
395.46	1123.46
395.65	1067.28
395.84	1090.69
396.04	1191.33
396.23	1060.26
396.42	1093.03
396.62	1074.31
396.81	1064.94
397.00	1149.20
397.19	1170.27
397.39	1221.76
397.58	1226.44
397.77	1153.88
397.97	1299.00
398.16	1329.42
398.35	1306.02
398.55	1301.34
398.74	1252.19
398.93	1254.53
399.12	1385.60
399.32	1320.06
399.51	1327.08
399.70	1343.47
399.90	1282.61
400.09	1423.05
400.28	1441.77
400.47	1483.90
400.67	1486.24
400.86	1530.71
401.05	1432.41
401.24	1530.71
401.44	1406.66
401.63	1481.56
401.82	1455.81
402.01	1406.66
402.21	1519.01
402.40	1519.01
402.59	1533.05
402.78	1614.97
402.97	1535.39
403.17	1526.03
403.36	1547.09
403.55	1502.62
403.74	1610.29
403.93	1652.42
404.13	1603.27
404.32	1617.31
404.51	1764.76
404.70	1732.00
404.89	1643.06
405.09	1792.85
405.28	1827.96
405.47	1842.00
405.66	1769.44
405.85	1788.17
406.05	1781.15
406.24	1767.10
406.43	1809.23
406.62	1928.60
406.81	1844.34
407.00	1790.51
407.20	1802.21
407.39	1853.70
407.58	1919.24
407.77	2040.95
407.96	1940.30
408.15	2033.93
408.34	1909.88
408.54	2083.08
408.73	1919.24
408.92	1952.01
409.11	2073.71
409.30	2050.31
409.49	2090.10
409.68	2118.18
409.87	2005.84
410.07	2050.31
410.26	2005.84
410.45	2169.68
410.64	2169.68
410.83	2214.15
411.02	2246.91
411.21	2260.96
411.40	2253.94
411.59	2324.15
411.78	2356.92
411.98	2263.30
412.17	2310.11
412.36	2319.47
412.55	2452.88
412.74	2307.77
412.93	2443.52
413.12	2380.32
413.31	2548.84
413.50	2560.55
413.69	2597.99
413.88	2635.44
414.07	2539.48
414.26	2602.68
414.45	2597.99
414.64	2583.95
414.83	2658.85
415.02	2675.23
415.22	2719.70
415.41	2700.98
415.60	2752.47
415.79	2785.24
415.98	2846.09
416.17	2846.09
416.36	2935.03
416.55	2860.13
416.74	2925.67
416.93	2944.39
417.12	2911.63
417.31	3054.40
417.50	2988.86
417.69	3080.14
417.88	3052.06
418.07	3096.53
418.26	3138.66
418.45	3119.93
418.64	3166.74
418.83	3229.94
419.02	3129.30
419.21	3220.58
419.39	3220.58
419.58	3220.58
419.77	3260.37
419.96	3239.30
420.15	3302.50
420.34	3370.37
420.53	3304.84
420.72	3377.39
420.91	3389.10
421.10	3545.91
421.29	3463.99
421.48	3337.60
421.67	3438.25
421.86	3400.80
422.05	3314.20
422.24	3370.37
422.43	3482.72
422.61	3330.58
422.80	3564.64
422.99	3571.66
423.18	3534.21
423.37	3632.51
423.56	3545.91
423.75	3496.76
423.94	3538.89
424.13	3316.54
424.32	3393.78
424.50	3538.89
424.69	3571.66
424.88	3583.36
425.07	3538.89
425.26	3550.59
425.45	3576.34
425.64	3597.40
425.83	3527.19
426.01	3499.10
426.20	3574.00
426.39	3592.72
426.58	3590.38
426.77	3571.66
426.96	3555.27
427.15	3595.06
427.33	3709.75
427.52	3758.90
427.71	3660.60
427.90	3658.26
428.09	3826.78
428.28	3810.39
428.46	3845.50
428.65	3824.44
428.84	3840.82
429.03	3859.54
429.22	4021.04
429.40	3969.55
429.59	3845.50
429.78	3637.19
429.97	3590.38
430.16	3812.73
430.34	3904.01
430.53	3857.20
430.72	3885.29
430.91	3946.14
431.10	3920.40
431.28	4205.94
431.47	4102.96
431.66	4133.39
431.85	4058.49
432.03	4112.32
432.22	4161.47
432.41	4142.75
432.60	4217.65
432.79	4266.80
432.97	4374.46
433.16	4203.60
433.35	4208.28
433.54	4175.52
433.72	4210.62
433.91	4245.73
434.10	4346.37
434.28	4362.76
434.47	4299.56
434.66	4407.23
434.85	4421.27
435.03	4610.86
435.22	4432.97
435.41	4688.09
435.59	4542.98
435.78	4585.11
435.97	4739.58
436.16	4552.34
436.34	4657.67
436.53	4676.39
436.72	4690.43
436.90	4662.35
437.09	4641.28
437.28	4678.73
437.46	4723.20
437.65	4664.69
437.84	4690.43
438.02	4699.80
438.21	4713.84
438.40	4613.20
438.58	4849.59
438.77	4875.34
438.96	4973.64
439.14	5055.56
439.33	4957.25
439.52	4987.68
439.70	5011.09
439.89	5151.52
440.08	5039.17
440.26	5151.52
440.45	5149.18
440.63	5153.86
440.82	5294.29
441.01	5200.67
441.19	5308.34
441.38	5441.75
441.57	5453.45
441.75	5661.76
441.94	5610.26
442.12	5671.12
442.31	5544.73
442.50	5657.07
442.68	5549.41
442.87	5589.20
443.05	5657.07
443.24	5877.09
443.43	5783.46
443.61	5940.28
443.80	5886.45
443.98	5717.93
444.17	5661.76
444.35	5818.57
444.54	6113.48
444.73	5951.98
444.91	5921.56
445.10	5820.91
445.28	5888.79
445.47	5699.20
445.65	5834.96
445.84	5940.28
446.02	5963.68
446.21	5884.11
446.39	6001.13
446.58	5980.07
446.77	5994.11
446.95	5816.23
447.14	5933.26
447.32	6157.95
447.51	6143.91
447.69	5902.83
447.88	5919.21
448.06	6073.69
448.25	5982.41
448.43	6155.61
448.62	6146.25
448.80	6090.07
448.99	6141.57
449.17	6188.38
449.36	6052.63
449.54	6338.17
449.73	6256.25
449.91	6384.98
450.10	6424.77
450.28	6506.69
450.46	6502.01
450.65	6485.62
450.83	6359.24
451.02	6492.65
451.20	6511.37
451.39	6401.37
451.57	6478.60
451.76	6375.62
451.94	6485.62
452.13	6417.75
452.31	6473.92
452.49	6347.53
452.68	6677.55
452.86	6492.65
453.05	6619.04
453.23	6581.59
453.42	6544.14
453.60	6600.31
453.78	6857.77
453.97	6736.06
454.15	6778.19
454.34	6658.82
454.52	6789.89
454.70	7012.24
454.89	6726.70
455.07	6834.36
455.26	6855.43
455.44	7056.72
455.62	6923.30
455.81	6925.65
455.99	7042.67
456.17	7075.44
456.36	7164.38
456.54	6963.09
456.73	7094.16
456.91	7222.89
457.09	7243.96
457.28	7288.43
457.46	7290.77
457.64	7393.75
457.83	7356.30
458.01	7248.64
458.19	7400.77
458.38	7480.35
458.56	7501.42
458.74	7449.93
458.93	7360.98
459.11	7559.93
459.29	7655.89
459.48	7463.97
459.66	7550.57
459.84	7557.59
460.03	7824.41
460.21	7700.36
460.39	7822.07
460.57	7545.89
460.76	7763.56
460.94	7705.04
461.12	7908.67
461.31	7911.01
461.49	7866.54
461.67	7913.35
461.85	8042.08
462.04	7836.11
462.22	8147.40
462.40	8124.00
462.59	8030.38
462.77	8023.36
462.95	8093.57
463.13	8095.91
463.32	8013.99
463.50	8236.35
463.68	8128.68
463.86	8093.57
464.05	8161.45
464.23	8042.08
464.41	8262.09
464.59	8142.72
464.78	8454.02
464.96	8381.46
465.14	8079.53
465.32	8369.76
465.50	8425.93
465.69	8486.78
465.87	8325.29
466.05	8304.22
466.23	8435.29
466.41	8308.90
466.60	8554.66
466.78	8414.23
466.96	8524.23
467.14	8531.25
467.32	8491.46
467.51	8596.79
467.69	8451.67
467.87	8601.47
468.05	8739.56
468.23	8585.08
468.41	8751.26
468.60	8596.79
468.78	8786.37
468.96	8662.32
469.14	8905.74
469.32	8922.12
469.50	8711.47
469.69	8982.98
469.87	8929.14
470.05	8901.06
470.23	9050.85
470.41	8905.74
470.59	9001.70
470.77	9191.28
470.95	9123.41
471.14	9018.08
471.32	9090.64
471.50	9439.38
471.68	9214.69
471.86	9352.78
472.04	9528.32
472.22	9556.41
472.40	9254.48
472.58	9582.15
472.77	9500.23
472.95	9521.30
473.13	9991.75
473.31	9591.52
473.49	9598.54
473.67	9774.08
473.85	9813.87
474.03	10017.49
474.21	9975.36
474.39	10153.24
474.57	9994.09
474.75	10068.98
474.93	10080.69
475.12	10200.05
475.30	10195.37
475.48	10237.50
475.66	10487.94
475.84	10506.66
476.02	10473.90
476.20	10317.08
476.38	10714.97
476.56	10942.00
476.74	10862.43
476.92	10724.33
477.10	10778.17
477.28	10953.71
477.46	10920.94
477.64	11379.68
477.82	11351.60
478.00	11459.26
478.18	11522.46
478.36	11590.33
478.54	11349.26
478.72	11592.67
478.90	12004.61
479.08	11864.18
479.26	12105.25
479.44	11946.09
479.62	12035.03
479.80	12276.11
479.98	12163.76
480.16	12465.69
480.34	12229.30
480.52	12507.82
480.70	12519.53
480.88	12425.90
481.06	12351.01
481.24	12524.21
481.41	12931.46
481.59	13104.66
481.77	13153.81
481.95	13245.09
482.13	13268.50
482.31	13165.51
482.49	13628.94
482.67	13532.98
482.85	13806.82
483.03	13940.23
483.21	14085.34
483.39	13963.64
483.57	13996.40
483.74	14190.67
483.92	14398.98
484.10	14040.87
484.28	14588.56
484.46	14705.59
484.64	14799.21
484.82	14932.62
485.00	15063.69
485.18	14857.72
485.35	15382.00
485.53	15026.24
485.71	15136.24
485.89	15152.63
486.07	15379.66
486.25	15456.90
486.43	15651.16
486.61	15796.28
486.78	15875.85
486.96	16135.65
487.14	16456.31
487.32	16460.99
487.50	16837.81
487.68	16695.04
487.85	16961.86
488.03	16952.50
488.21	17315.28
488.39	17254.43
488.57	17558.70
488.75	17596.15
488.92	17490.82
489.10	17657.00
489.28	17699.13
489.46	18249.16
489.64	18066.60
489.81	18167.24
489.99	18513.64
490.17	18410.65
490.35	18401.29
490.53	18637.69
490.70	18644.71
490.88	18977.06
491.06	19281.33
491.24	19066.00
491.41	19300.06
491.59	19220.48
491.77	19255.59
491.95	19339.85
492.13	19843.06
492.30	19550.49
492.48	19836.04
492.66	20072.43
492.84	20365.00
493.01	20360.32
493.19	20196.48
493.37	20800.34
493.54	20482.03
493.72	20699.70
493.90	20793.32
494.08	21125.68
494.25	21575.06
494.43	21404.20
494.61	21392.50
494.79	21373.77
494.96	21532.93
495.14	21788.05
495.32	21881.67
495.49	21893.37
495.67	22185.94
495.85	22031.46
496.02	22286.58
496.20	22473.82
496.38	22501.91
496.55	22359.14
496.73	22785.12
496.91	23199.39
497.09	22766.39
497.26	23164.28
497.44	23103.43
497.62	23211.09
497.79	23449.83
497.97	23410.04
498.14	23388.97
498.32	23665.16
498.50	23782.18
498.67	23782.18
498.85	24086.45
499.03	24453.92
499.20	24236.25
499.38	24582.65
499.56	24643.50
499.73	24332.21
499.91	24456.26
500.08	24744.14
500.26	24795.64
500.44	24355.61
500.61	24865.85
500.79	24741.80
500.97	25062.46
501.14	25146.72
501.32	25408.86
501.49	25221.61
501.67	25305.87
501.84	25008.62
502.02	25387.79
502.20	25830.15
502.37	25940.16
502.55	25663.97
502.72	26082.93
502.90	25848.88
503.07	26047.82
503.25	26394.22
503.43	25907.39
503.60	25982.29
503.78	26288.90
503.95	26368.48
504.13	26419.97
504.30	26665.72
504.48	26768.71
504.65	26761.69
504.83	27023.83
505.01	26986.38
505.18	27112.77
505.36	27412.35
505.53	27585.55
505.71	27470.87
505.88	27910.89
506.06	27285.97
506.23	27562.15
506.41	27143.19
506.58	27672.15
506.76	27651.09
506.93	28037.28
507.11	27889.82
507.28	27800.88
507.46	28006.85
507.63	27728.33
507.81	27955.36
507.98	27967.06
508.16	28299.42
508.33	28540.49
508.50	28790.93
508.68	28634.11
508.85	28769.86
509.03	28926.68
509.20	28807.31
509.38	29109.24
509.55	28781.57
509.73	28957.11
509.90	29315.21
510.08	29317.55
510.25	29277.76
510.42	29191.16
510.60	29647.57
510.77	29656.93
510.95	29984.60
511.12	29647.57
511.30	29989.28
511.47	30279.51
511.64	30319.30
511.82	30469.09
511.99	29970.56
512.17	30267.81
512.34	30225.68
512.51	30281.85
512.69	30167.16
512.86	30536.97
513.04	30679.74
513.21	30637.61
513.38	30618.89
513.56	30752.30
513.73	30363.77
513.90	31197.00
514.08	31278.92
514.25	31124.44
514.43	30941.88
514.60	31154.87
514.77	30991.03
514.95	31597.23
515.12	31440.42
515.29	31353.82
515.47	32023.21
515.64	31934.27
515.81	31501.27
515.99	31833.63
516.16	31779.79
516.33	31793.84
516.51	31999.80
516.68	31608.93
516.85	31456.80
517.03	31838.31
517.20	31901.50
517.37	32114.49
517.54	32287.69
517.72	32261.94
517.89	32074.70
518.06	32020.87
518.24	32517.06
518.41	32294.71
518.58	32554.51
518.75	32645.79
518.93	32947.72
519.10	32900.91
519.27	32980.49
519.45	32570.90
519.62	33151.35
519.79	33174.75
519.96	33242.63
520.14	33347.95
520.31	33230.93
520.48	33352.63
520.65	33390.08
520.83	33890.96
521.00	33762.23
521.17	33708.40
521.34	34225.65
521.52	33813.72
521.69	33881.60
521.86	34239.70
522.03	34089.90
522.20	33905.00
522.38	34543.97
522.55	34476.09
522.72	33989.26
522.89	34356.72
523.07	34567.37
523.24	34153.10
523.41	35173.57
523.58	34272.46
523.75	34796.74
523.92	34792.06
524.10	35299.96
524.27	35098.67
524.44	35161.87
524.61	35384.22
524.78	35332.73
524.96	35185.27
525.13	35503.59
525.30	35405.28
525.47	35314.00
525.64	34906.75
525.81	35665.08
525.98	35847.64
526.16	35201.66
526.33	35323.36
526.50	35665.08
526.67	35398.26
526.84	35419.33
527.01	35660.40
527.18	35992.76
527.36	36208.09
527.53	36037.23
527.70	36598.96
527.87	36247.88
528.04	35990.42
528.21	36402.35
528.38	36535.76
528.55	36444.48
528.72	36556.83
528.89	36809.61
529.07	36442.14
529.24	36493.63
529.41	36701.94
529.58	36802.58
529.75	36456.18
529.92	36765.14
530.09	36659.81
530.26	36596.62
530.43	36992.17
530.60	37069.40
530.77	37120.90
530.94	37174.73
531.11	37361.97
531.28	37326.86
531.46	37415.80
531.63	37542.19
531.80	37205.16
531.97	37364.31
532.14	37029.62
532.31	37315.16
532.48	37380.70
532.65	37649.86
532.82	37778.59
532.99	37790.29
533.16	37626.45
533.33	37713.05
533.50	38120.31
533.67	38085.20
533.84	37827.74
534.01	37727.10
534.18	37984.55
534.35	38085.20
534.52	38026.68
534.69	38050.09
534.86	38572.03
535.03	38043.07
535.20	38396.49
535.37	38352.02
535.54	38967.58
535.71	38447.98
535.88	38113.28
536.05	38494.79
536.22	38763.95
536.38	38506.49
536.55	38169.46
536.72	38735.87
536.89	38850.55
537.06	38464.36
537.23	38904.38
537.40	38902.04
537.57	39086.95
537.74	39349.09
537.91	39159.50
538.08	39199.29
538.25	38916.09
538.42	39143.12
538.59	39250.78
538.75	38979.28
538.92	38948.85
539.09	39353.77
539.26	39009.71
539.43	39524.63
539.60	39744.64
539.77	39091.63
539.94	39548.03
540.11	39267.17
540.28	39552.71
540.44	39419.30
540.61	39742.30
540.78	39629.95
540.95	39477.82
541.12	39484.84
541.29	39573.78
541.46	39330.36
541.62	39770.38
541.79	40065.29
541.96	39461.43
542.13	39990.39
542.30	39770.38
542.47	39931.88
542.63	40135.51
542.80	40060.61
542.97	40774.47
543.14	40629.36
543.31	40236.15
543.48	40601.27
543.64	41034.27
543.81	40641.06
543.98	41062.36
544.15	40397.65
544.32	40706.60
544.48	40524.04
544.65	40636.38
544.82	41034.27
544.99	40617.66
545.16	40917.25
545.32	40542.76
545.49	41099.81
545.66	41832.39
545.83	41254.28
546.00	41572.60
546.16	41071.72
546.33	41071.72
546.50	40610.64
546.67	41113.85
546.83	40680.85
547.00	41167.68
547.17	41092.79
547.34	41099.81
547.50	41132.57
547.67	41600.68
547.84	41787.92
548.00	41797.29
548.17	41706.01
548.34	41659.20
548.51	41762.18
548.67	41790.27
548.84	41848.78
549.01	41507.06
549.18	41450.89
549.34	41893.25
549.51	42309.86
549.68	41883.89
549.84	41830.05
550.01	42316.89
550.18	41958.78
550.34	42092.19
550.51	41837.08
550.68	41801.97
550.84	41638.13
551.01	42220.92
551.18	41865.16
551.34	42178.79
551.51	42157.73
551.68	42703.07
551.84	42576.69
552.01	41986.87
552.18	42373.06
552.34	42436.25
552.51	41830.05
552.68	42029.00
552.84	42796.70
553.01	42710.10
553.18	42167.09
553.34	42457.32
553.51	42150.71
553.67	42038.36
553.84	42937.13
554.01	42525.19
554.17	42611.79
554.34	42890.32
554.51	42670.31
554.67	42277.10
554.84	42447.96
555.00	42974.58
555.17	42642.22
555.33	42829.46
555.50	42773.29
555.67	42801.38
555.83	43058.84
556.00	42890.32
556.16	42951.17
556.33	43093.94
556.50	42974.58
556.66	43210.97
556.83	42878.61
556.99	42904.36
557.16	43489.49
557.32	43295.23
557.49	43208.63
557.65	42937.13
557.82	43384.17
557.98	43388.85
558.15	43438.00
558.32	43154.80
558.48	42937.13
558.65	43746.95
558.81	43416.94
558.98	43459.07
559.14	43208.63
559.31	43522.26
559.47	43246.08
559.64	43548.01
559.80	43487.15
559.97	43234.38
560.13	43168.84
560.30	43353.74
560.46	43105.65
560.63	43622.90
560.79	43627.59
560.96	43543.33
561.12	44076.97
561.29	44327.41
561.45	43416.94
561.61	43257.78
561.78	43608.86
561.94	43744.61
562.11	43962.28
562.27	43531.62
562.44	43440.34
562.60	44121.44
562.77	43966.96
562.93	43842.92
563.10	43955.26
563.26	43313.95
563.42	43742.27
563.59	43515.24
563.75	43789.08
563.92	44311.02
564.08	44224.42
564.24	43606.52
564.41	43625.25
564.57	43702.48
564.74	44023.14
564.90	43971.64
565.07	43875.68
565.23	43971.64
565.39	43798.44
565.56	44231.44
565.72	43690.78
565.88	43779.72
566.05	44079.31
566.21	43800.79
566.38	43910.79
566.54	43849.94
566.70	44058.24
566.87	44470.18
567.03	44123.78
567.19	44282.94
567.36	43978.67
567.52	44133.14
567.68	44065.27
567.85	43775.04
568.01	44065.27
568.17	43735.25
568.34	44301.66
568.50	44004.41
568.66	43831.21
568.83	43978.67
568.99	43866.32
569.15	43826.53
569.32	43948.24
569.48	44032.50
569.64	44098.03
569.81	44095.69
569.97	44229.10
570.13	44325.07
570.30	43889.73
570.46	43922.49
570.62	44334.43
570.78	43529.28
570.95	44369.54
571.11	44406.98
571.27	44289.96
571.43	44233.78
571.60	44397.62
571.76	44205.70
571.92	44339.11
572.09	44247.83
572.25	44425.71
572.41	44222.08
572.57	44140.16
572.74	44570.82
572.90	44198.68
573.06	44425.71
573.22	44744.02
573.38	44039.52
573.55	44421.03
573.71	44463.16
573.87	44481.88
574.03	44292.30
574.20	44318.04
574.36	44556.78
574.52	44608.27
574.68	44652.74
574.84	44659.76
575.01	44130.80
575.17	44435.07
575.33	44175.27
575.49	44224.42
575.65	44968.71
575.82	44615.29
575.98	44399.96
576.14	44318.04
576.30	44339.11
576.46	44156.55
576.62	44458.48
576.79	44526.35
576.95	44439.75
577.11	44521.67
577.27	44402.30
577.43	44224.42
577.59	44376.56
577.75	44687.85
577.92	43997.39
578.08	43866.32
578.24	44201.02
578.40	44282.94
578.56	44535.71
578.72	44828.28
578.88	44804.88
579.04	45050.63
579.21	44353.15
579.37	44587.21
579.53	44212.72
579.69	44708.91
579.85	44563.80
580.01	44573.16
580.17	44622.31
580.33	44680.83
580.49	44575.50
580.65	44350.81
580.82	44507.63
580.98	44369.54
581.14	44140.16
581.30	44596.57
581.46	44713.59
581.62	44692.53
581.78	44617.63
581.94	44830.62
582.10	44509.97
582.26	44479.54
582.42	44240.81
582.58	44636.36
582.74	44334.43
582.90	44559.12
583.06	44198.68
583.22	44842.32
583.38	45270.64
583.54	45043.61
583.70	44802.53
583.86	44243.15
584.02	44626.99
584.18	44638.70
584.34	44528.69
584.50	44481.88
584.66	44259.53
584.82	44699.55
584.98	44505.29
585.14	44718.28
585.30	44516.99
585.46	44737.00
585.62	44177.61
585.78	45008.50
585.94	44706.57
586.10	44727.64
586.26	44399.96
586.42	44980.42
586.58	44706.57
586.74	44854.03
586.90	44626.99
587.06	44470.18
587.22	45036.59
587.38	44285.28
587.54	44201.02
587.70	44755.72
587.86	44531.03
588.02	44687.85
588.18	44521.67
588.34	44697.21
588.49	44046.54
588.65	44114.42
588.81	43779.72
588.97	44514.65
589.13	44638.70
589.29	44458.48
589.45	44774.45
589.61	44954.67
589.77	45249.58
589.93	44542.74
590.08	44868.07
590.24	44741.68
