SpectraSuite Data File
++++++++++++++++++++++++++++++++++++
Date: Fri Oct 25 11:23:58 EDT 2013
User: price-jones
Dark Spectrum Present: No
Reference Spectrum Present: No
Number of Sampled Component Spectra: 1
Spectrometers: USB2+H05261
Integration Time (usec): 100000 (USB2+H05261)
Spectra Averaged: 1 (USB2+H05261)
Boxcar Smoothing: 0 (USB2+H05261)
Correct for Electrical Dark: No (USB2+H05261)
Strobe/Lamp Enabled: No (USB2+H05261)
Correct for Detector Non-linearity: No (USB2+H05261)
Correct for Stray Light: No (USB2+H05261)
Number of Pixels in Processed Spectrum: 2048
>>>>>Begin Processed Spectral Data<<<<<
365.73	269.16
365.92	269.16
366.12	269.16
366.32	156.82
366.52	131.07
366.72	126.39
366.91	49.15
367.11	79.58
367.31	126.39
367.51	161.50
367.70	81.92
367.90	135.75
368.10	147.45
368.30	229.37
368.49	166.18
368.69	152.13
368.89	154.48
369.09	163.84
369.28	184.90
369.48	222.35
369.68	187.24
369.87	173.20
370.07	262.14
370.27	278.52
370.47	388.53
370.66	608.54
370.86	608.54
371.06	704.50
371.25	653.01
371.45	596.84
371.65	720.88
371.84	732.59
372.04	688.12
372.24	699.82
372.44	683.44
372.63	748.97
372.83	737.27
373.03	671.73
373.22	692.80
373.42	716.20
373.62	720.88
373.81	819.19
374.01	798.12
374.21	760.67
374.40	861.32
374.60	856.64
374.79	746.63
374.99	884.72
375.19	924.51
375.38	795.78
375.58	777.06
375.78	854.30
375.97	835.57
376.17	894.08
376.37	882.38
376.56	882.38
376.76	891.74
376.95	873.02
377.15	945.58
377.35	840.25
377.54	880.04
377.74	896.43
377.93	887.06
378.13	835.57
378.33	870.68
378.52	856.64
378.72	926.85
378.91	950.26
379.11	898.77
379.31	931.53
379.50	856.64
379.70	915.15
379.89	959.62
380.09	973.66
380.28	985.37
380.48	968.98
380.68	997.07
380.87	978.34
381.07	1027.50
381.26	1022.81
381.46	922.17
381.65	1048.56
381.85	1046.22
382.04	1057.92
382.24	1029.84
382.43	999.41
382.63	1100.05
382.83	1020.47
383.02	1139.84
383.22	1163.25
383.41	1055.58
383.61	1135.16
383.80	1135.16
384.00	1121.12
384.19	1067.28
384.39	1107.07
384.58	1196.01
384.78	1102.39
384.97	1186.65
385.17	1188.99
385.36	1188.99
385.56	1123.46
385.75	1118.78
385.95	1191.33
386.14	1245.16
386.34	1249.85
386.53	1207.72
386.72	1200.69
386.92	1242.82
387.11	1174.95
387.31	1231.12
387.50	1231.12
387.70	1219.42
387.89	1254.53
388.09	1263.89
388.28	1219.42
388.48	1247.51
388.67	1322.40
388.86	1259.21
389.06	1277.93
389.25	1324.74
389.45	1362.19
389.64	1376.24
389.84	1308.36
390.03	1366.87
390.22	1376.24
390.42	1378.58
390.61	1423.05
390.81	1430.07
391.00	1345.81
391.19	1373.89
391.39	1479.22
391.58	1437.09
391.78	1364.53
391.97	1425.39
392.16	1472.20
392.36	1549.43
392.55	1465.18
392.75	1624.33
392.94	1554.12
393.13	1598.59
393.33	1556.46
393.52	1612.63
393.71	1582.20
393.91	1619.65
394.10	1575.18
394.29	1664.12
394.49	1652.42
394.68	1643.06
394.88	1645.40
395.07	1631.35
395.26	1591.56
395.46	1783.49
395.65	1652.42
395.84	1729.66
396.04	1860.73
396.23	1678.16
396.42	1757.74
396.62	1769.44
396.81	1839.66
397.00	1743.70
397.19	1879.45
397.39	1792.85
397.58	1771.79
397.77	1781.15
397.97	1764.76
398.16	1844.34
398.35	1891.15
398.55	1778.81
398.74	1839.66
398.93	1905.20
399.12	1937.96
399.32	1891.15
399.51	1975.41
399.70	2012.86
399.90	2003.50
400.09	1973.07
400.28	1994.14
400.47	2050.31
400.67	2085.42
400.86	2031.58
401.05	2017.54
401.24	2029.24
401.44	2155.63
401.63	2174.36
401.82	2242.23
402.01	2148.61
402.21	2207.13
402.40	2059.67
402.59	2087.76
402.78	2267.98
402.97	2279.68
403.17	2296.07
403.36	2377.98
403.55	2368.62
403.74	2333.51
403.93	2375.64
404.13	2366.28
404.32	2312.45
404.51	2394.37
404.70	2382.67
404.89	2368.62
405.09	2438.84
405.28	2483.31
405.47	2532.46
405.66	2457.56
405.85	2466.92
406.05	2448.20
406.24	2588.63
406.43	2597.99
406.62	2658.85
406.81	2745.45
407.00	2612.04
407.20	2602.68
407.39	2635.44
407.58	2696.30
407.77	2771.19
407.96	2738.43
408.15	2827.37
408.34	2773.53
408.54	2848.43
408.73	2733.75
408.92	2801.62
409.11	2747.79
409.30	2874.18
409.49	2860.13
409.68	2911.63
409.87	2949.08
410.07	2925.67
410.26	2909.29
410.45	3026.31
410.64	2984.18
410.83	3133.98
411.02	3131.64
411.21	3164.40
411.40	3124.62
411.59	3234.62
411.78	3176.11
411.98	3096.53
412.17	3290.79
412.36	3236.96
412.55	3396.12
412.74	3386.76
412.93	3346.97
413.12	3272.07
413.31	3538.89
413.50	3487.40
413.69	3431.23
413.88	3527.19
414.07	3630.17
414.26	3709.75
414.45	3768.26
414.64	3721.45
414.83	3861.88
415.02	3812.73
415.22	3892.31
415.41	3843.16
415.60	3936.78
415.79	3810.39
415.98	3906.35
416.17	4004.66
416.36	3964.87
416.55	3927.42
416.74	4131.05
416.93	4173.18
417.12	4070.19
417.31	4138.07
417.50	4166.15
417.69	4346.37
417.88	4372.12
418.07	4322.97
418.26	4454.04
418.45	4304.25
418.64	4514.89
418.83	4435.32
419.02	4461.06
419.21	4498.51
419.39	4428.29
419.58	4498.51
419.77	4486.81
419.96	4573.41
420.15	4524.26
420.34	4662.35
420.53	4678.73
420.72	4491.49
420.91	4702.14
421.10	4744.27
421.29	4657.67
421.48	4688.09
421.67	4835.55
421.86	4631.92
422.05	4933.85
422.24	4793.42
422.43	4777.03
422.61	4894.06
422.80	4898.74
422.99	4802.78
423.18	5060.24
423.37	4868.31
423.56	4926.83
423.75	4966.62
423.94	4685.75
424.13	4664.69
424.32	4739.58
424.50	5088.32
424.69	4950.23
424.88	5043.85
425.07	4844.91
425.26	4894.06
425.45	4968.96
425.64	4997.04
425.83	5034.49
426.01	5125.77
426.20	5097.69
426.39	5036.83
426.58	4975.98
426.77	5231.10
426.96	5163.22
427.15	5039.17
427.33	5090.67
427.52	5205.35
427.71	5334.08
427.90	5303.65
428.09	5401.96
428.28	5357.49
428.46	5331.74
428.65	5448.77
428.84	5483.88
429.03	5479.19
429.22	5434.72
429.40	5474.51
429.59	5598.56
429.78	5390.25
429.97	5242.80
430.16	5530.69
430.34	5593.88
430.53	5652.39
430.72	5577.50
430.91	5710.91
431.10	5523.66
431.28	5682.82
431.47	5827.93
431.66	5849.00
431.85	5823.25
432.03	5851.34
432.22	5912.19
432.41	6012.84
432.60	5860.70
432.79	5909.85
432.97	6179.01
433.16	5935.60
433.35	6083.05
433.54	6139.23
433.72	6150.93
433.91	6033.90
434.10	6064.33
434.28	6176.67
434.47	6232.85
434.66	6195.40
434.85	6317.11
435.03	6274.98
435.22	6204.76
435.41	6307.74
435.59	6326.47
435.78	6382.64
435.97	6558.18
436.16	6300.72
436.34	6476.26
436.53	6462.22
436.72	6780.53
436.90	6487.96
437.09	6672.87
437.28	6525.41
437.46	6469.24
437.65	6677.55
437.84	6724.36
438.02	6829.68
438.21	6927.99
438.40	6633.08
438.58	7028.63
438.77	7052.03
438.96	6911.60
439.14	6984.16
439.33	7080.12
439.52	7225.23
439.70	7115.23
439.89	7199.49
440.08	7234.60
440.26	7410.14
440.45	7344.60
440.63	7585.68
440.82	7810.37
441.01	7506.10
441.19	7644.19
441.38	7480.35
441.57	7810.37
441.75	7903.99
441.94	8042.08
442.12	8049.10
442.31	8154.43
442.50	8086.55
442.68	8046.76
442.87	8002.29
443.05	8124.00
443.24	8086.55
443.43	8257.41
443.61	8210.60
443.80	8533.59
443.98	8156.77
444.17	7843.14
444.35	8205.92
444.54	8463.38
444.73	8241.03
444.91	8271.45
445.10	8376.78
445.28	8259.75
445.47	8418.91
445.65	8451.67
445.84	8498.49
446.02	8564.02
446.21	8386.14
446.39	8465.72
446.58	8465.72
446.77	8524.23
446.95	8112.30
447.14	8594.45
447.32	8257.41
447.51	8463.38
447.69	8407.20
447.88	8533.59
448.06	8477.42
448.25	8423.59
448.43	8599.13
448.62	8486.78
448.80	8545.30
448.99	8620.19
449.17	8816.80
449.36	8872.97
449.54	8807.44
449.73	8975.95
449.91	8959.57
450.10	8957.23
450.28	9076.60
450.46	8992.34
450.65	9235.75
450.83	9083.62
451.02	9151.49
451.20	9434.70
451.39	9102.34
451.57	9135.11
451.76	9029.79
451.94	9177.24
452.13	9504.92
452.31	9350.44
452.49	9238.09
452.68	9224.05
452.86	9523.64
453.05	9507.26
453.23	9432.36
453.42	9301.29
453.60	9207.67
453.78	9610.24
453.97	9352.78
454.15	9659.39
454.34	9675.77
454.52	9643.01
454.70	9879.40
454.89	9968.34
455.07	9724.93
455.26	9848.97
455.44	10029.20
455.62	9738.97
455.81	9956.64
455.99	10132.18
456.17	10026.86
456.36	10209.42
456.54	10216.44
456.73	10232.82
456.91	10291.34
457.09	10469.22
457.28	10738.38
457.46	10399.00
457.64	10717.31
457.83	10576.88
458.01	10588.58
458.19	10700.93
458.38	10576.88
458.56	10787.53
458.74	10750.08
458.93	10775.83
459.11	10874.13
459.29	10792.21
459.48	10548.79
459.66	10565.18
459.84	10946.69
460.03	11143.29
460.21	10829.66
460.39	11082.44
460.57	11070.73
460.76	11138.61
460.94	11138.61
461.12	11279.04
461.31	11105.84
461.49	11201.80
461.67	11098.82
461.85	11309.47
462.04	11367.98
462.22	11510.75
462.40	11688.64
462.59	11375.00
462.77	11260.32
462.95	11819.71
463.13	11716.72
463.32	11618.42
463.50	11808.00
463.68	11840.77
463.86	11637.14
464.05	11726.08
464.23	11805.66
464.41	11822.05
464.59	11854.81
464.78	12262.07
464.96	12131.00
465.14	11999.93
465.32	11948.43
465.50	12142.70
465.69	12269.09
465.87	12142.70
466.05	12320.58
466.23	12358.03
466.41	12116.95
466.60	12353.35
466.78	12198.87
466.96	12353.35
467.14	12283.13
467.32	12304.20
467.51	12346.33
467.69	12173.13
467.87	12437.61
468.05	12683.36
468.23	12456.33
468.41	12491.44
468.60	12498.46
468.78	12784.01
468.96	12545.27
469.14	12947.84
469.32	13064.87
469.50	12760.60
469.69	12776.98
469.87	12823.80
470.05	13259.13
470.23	13128.06
470.41	13357.44
470.59	13280.20
470.77	13341.05
470.95	13462.76
471.14	13554.04
471.32	13078.91
471.50	13502.55
471.68	13518.93
471.86	13661.71
472.04	13795.12
472.22	13881.72
472.40	13673.41
472.58	13692.13
472.77	14113.43
472.95	14129.81
473.13	14611.96
473.31	14190.67
473.49	14232.80
473.67	14251.52
473.85	14284.29
474.03	14792.19
474.21	14700.90
474.39	14649.41
474.57	14644.73
474.75	15115.18
474.93	14932.62
475.12	14916.23
475.30	15199.44
475.48	15044.96
475.66	15396.04
475.84	15183.06
476.02	15194.76
476.20	15421.79
476.38	15496.69
476.56	16074.80
476.74	16053.73
476.92	15461.58
477.10	15836.06
477.28	16315.87
477.46	16250.34
477.64	16278.43
477.82	16503.12
478.00	16716.11
478.18	16798.02
478.36	16901.01
478.54	17142.08
478.72	17341.03
478.90	17460.40
479.08	17429.97
479.26	17612.53
479.44	17682.75
479.62	18050.21
479.80	17937.87
479.98	17949.57
480.16	18635.35
480.34	18466.83
480.52	18684.50
480.70	18616.62
480.88	18490.23
481.06	18953.66
481.24	18642.37
481.41	18913.87
481.59	19419.42
481.77	19686.25
481.95	19391.34
482.13	20121.59
482.31	19461.55
482.49	20280.74
482.67	20402.45
482.85	20187.12
483.03	21020.35
483.21	20798.00
483.39	20900.98
483.57	20989.92
483.74	21113.97
483.92	21338.66
484.10	21259.09
484.28	21830.18
484.46	21935.50
484.64	22363.82
484.82	22150.83
485.00	22513.61
485.18	23002.78
485.35	23147.90
485.53	23030.87
485.71	22761.71
485.89	23653.45
486.07	23763.46
486.25	23765.80
486.43	23543.45
486.61	23594.94
486.78	24423.49
486.96	24297.10
487.14	24655.20
487.32	24631.80
487.50	25120.97
487.68	24936.07
487.85	25408.86
488.03	25640.57
488.21	25586.74
488.39	25617.16
488.57	26139.10
488.75	26504.23
488.92	26824.88
489.10	26740.62
489.28	26815.52
489.46	27208.73
489.64	27009.78
489.81	27531.72
489.99	27669.81
490.17	27716.62
490.35	28264.31
490.53	28231.54
490.70	28746.46
490.88	28196.43
491.06	28858.81
491.24	28620.07
491.41	29046.05
491.59	29310.53
491.77	29193.50
491.95	29675.65
492.13	30050.14
492.30	30118.01
492.48	30169.51
492.66	30249.08
492.84	30792.09
493.01	30916.14
493.19	30555.69
493.37	31379.56
493.54	31384.24
493.72	31496.59
493.90	31498.93
494.08	31789.16
494.25	31667.45
494.43	32208.11
494.61	32591.96
494.79	32648.13
494.96	32470.25
495.14	32996.87
495.32	32992.19
495.49	33219.22
495.67	33486.04
495.85	33481.36
496.02	33670.95
496.20	33860.53
496.38	33708.40
496.55	34293.53
496.73	34803.77
496.91	34841.21
497.09	34976.97
497.26	35304.64
497.44	35042.50
497.62	35583.16
497.79	35950.63
497.97	35704.87
498.14	36615.34
498.32	36282.98
498.50	35967.01
498.67	36676.19
498.85	36708.96
499.03	36336.82
499.20	36720.66
499.38	37006.21
499.56	36994.51
499.73	37425.17
499.91	37291.76
500.08	37858.17
500.26	37315.16
500.44	37736.46
500.61	37801.99
500.79	37752.84
500.97	38223.29
501.14	38948.85
501.32	38717.14
501.49	38637.56
501.67	38878.64
501.84	38883.32
502.02	38962.90
502.20	38979.28
502.37	39260.15
502.55	39342.06
502.72	39651.02
502.90	39742.30
503.07	39732.93
503.25	40004.44
503.43	40156.57
503.60	39859.32
503.78	40261.90
503.95	39995.07
504.13	40519.35
504.30	40978.10
504.48	40278.28
504.65	41010.87
504.83	41088.10
505.01	41553.87
505.18	41532.81
505.36	41345.56
505.53	41586.64
505.71	41933.04
505.88	42033.68
506.06	41638.13
506.23	42085.17
506.41	41584.30
506.58	42382.42
506.76	41794.95
506.93	42281.78
507.11	42487.74
507.28	42773.29
507.46	43119.69
507.63	42918.40
507.81	43477.79
507.98	42841.17
508.16	43524.60
508.33	43634.61
508.50	43302.25
508.68	43566.73
508.85	44491.24
509.03	43672.06
509.20	43751.63
509.38	44486.56
509.55	44404.64
509.73	44055.90
509.90	44484.22
510.08	44514.65
510.25	44678.49
510.42	45088.08
510.60	45052.97
510.77	45340.86
510.95	45591.30
511.12	45219.15
511.30	45352.56
511.47	45588.95
511.64	45577.25
511.82	46014.93
511.99	45605.34
512.17	46204.52
512.34	45902.59
512.51	46497.08
512.69	46164.73
512.86	46939.44
513.04	46499.42
513.21	46880.93
513.38	46862.21
513.56	46997.96
513.73	46927.74
513.90	47143.07
514.08	47009.66
514.25	47269.46
514.43	47580.75
514.60	47447.34
514.77	47487.13
514.95	47842.89
515.12	47824.17
515.29	47566.71
515.47	48114.39
515.64	47913.11
515.81	47962.26
515.99	48531.01
516.16	48456.11
516.33	48458.45
516.51	48554.41
516.68	48105.03
516.85	48622.29
517.03	48854.00
517.20	48975.71
517.37	48788.47
517.54	48942.94
517.72	48846.98
517.89	49029.54
518.06	49324.45
518.24	49612.34
518.41	49305.73
518.58	49521.05
518.75	49418.07
518.93	49780.85
519.10	49441.48
519.27	49940.01
519.45	49886.18
519.62	50227.90
519.79	50160.02
519.96	50190.45
520.14	49984.48
520.31	50021.93
520.48	50490.04
520.65	50232.58
520.83	50843.46
521.00	50749.84
521.17	50705.37
521.34	50798.99
521.52	50941.76
521.69	50911.33
521.86	51157.09
522.03	51138.36
522.20	51634.56
522.38	51459.02
522.55	51189.86
522.72	51545.62
522.89	51402.85
523.07	51819.46
523.24	51583.07
523.41	51796.06
523.58	51508.17
523.75	52105.01
523.92	51672.01
524.10	51992.66
524.27	52275.87
524.44	52168.20
524.61	52348.42
524.78	52093.30
524.96	52339.06
525.13	52435.02
525.30	52844.62
525.47	52835.25
525.64	52626.95
525.81	52746.31
525.98	52676.10
526.16	52774.40
526.33	52823.55
526.50	53010.79
526.67	53031.86
526.84	52886.74
527.01	52818.87
527.18	52963.98
527.36	52896.11
527.53	53235.48
527.70	53240.17
527.87	53179.31
528.04	53095.05
528.21	53432.09
528.38	53455.50
528.55	53558.48
528.72	53364.21
528.89	53525.71
529.07	53797.21
529.24	53549.12
529.41	53837.00
529.58	53553.80
529.75	53853.39
529.92	53811.26
530.09	53759.76
530.26	53984.46
530.43	54066.38
530.60	54007.86
530.77	54054.67
530.94	54401.07
531.11	54129.57
531.28	54174.04
531.46	54384.69
531.63	54417.46
531.80	54424.48
531.97	54604.70
532.14	54475.97
532.31	54546.18
532.48	54391.71
532.65	54906.63
532.82	54789.60
532.99	54808.32
533.16	54607.04
533.33	55096.21
533.50	54880.88
533.67	54866.84
533.84	54546.18
534.01	54920.67
534.18	55110.25
534.35	55302.18
534.52	54969.82
534.69	55229.62
534.86	55187.49
535.03	55234.30
535.20	55304.52
535.37	55241.32
535.54	55281.11
535.71	55423.89
535.88	55676.66
536.05	55786.67
536.22	55636.87
536.38	55566.66
536.55	55817.10
536.72	55753.90
536.89	55412.18
537.06	55723.47
537.23	55910.72
537.40	55695.39
537.57	55875.61
537.74	55770.28
537.91	56104.98
538.08	56137.75
538.25	55920.08
538.42	56238.39
538.59	56261.80
538.75	55812.41
538.92	56102.64
539.09	56163.50
539.26	56200.94
539.43	56107.32
539.60	56229.03
539.77	56294.56
539.94	56376.48
540.11	56505.21
540.28	56467.76
540.44	56425.64
540.61	56334.35
540.78	56449.04
540.95	56481.81
541.12	56575.43
541.29	56596.49
541.46	56465.42
541.62	56385.85
541.79	56598.83
541.96	56587.13
542.13	56488.83
542.30	56711.18
542.47	56872.68
542.63	56917.15
542.80	56760.33
542.97	57265.89
543.14	57312.70
543.31	57242.48
543.48	57249.50
543.64	57446.11
543.81	57296.31
543.98	57371.21
544.15	57293.97
544.32	57345.47
544.48	57602.92
544.65	57694.21
544.82	57556.11
544.99	57375.89
545.16	57504.62
545.32	57556.11
545.49	57748.04
545.66	57923.58
545.83	57563.14
546.00	57719.95
546.16	57883.79
546.33	57635.69
546.50	57406.32
546.67	57724.63
546.83	57446.11
547.00	57804.21
547.17	57769.10
547.34	57998.48
547.50	58101.46
547.67	58284.02
547.84	57921.24
548.00	58237.21
548.17	58543.82
548.34	58078.05
548.51	58354.24
548.67	58272.32
548.84	58092.10
549.01	58185.72
549.18	58155.29
549.34	58560.20
549.51	58316.79
549.68	58536.80
549.84	58295.72
550.01	58576.59
550.18	58405.73
550.34	58513.39
550.51	58651.48
550.68	58429.13
550.84	58473.60
551.01	58707.66
551.18	58567.23
551.34	58506.37
551.51	58443.18
551.68	58599.99
551.84	58808.30
552.01	58485.31
552.18	58665.53
552.34	58665.53
552.51	58944.05
552.68	58581.27
552.84	58658.51
553.01	59065.76
553.18	58932.35
553.34	58901.92
553.51	58876.18
553.67	58969.80
553.84	58983.84
554.01	59042.35
554.17	59128.95
554.34	59063.42
554.51	59070.44
554.67	58993.20
554.84	59145.34
555.00	59213.21
555.17	59014.27
555.33	59147.68
555.50	59068.10
555.67	59037.67
555.83	58967.46
556.00	59084.48
556.16	59480.03
556.33	59585.36
556.50	59267.05
556.66	59428.54
556.83	59274.07
556.99	59437.90
557.16	59646.21
557.32	59510.46
557.49	59779.62
557.65	59348.96
557.82	59355.99
557.98	59344.28
558.15	59568.97
558.32	59491.74
558.48	59480.03
558.65	59489.40
558.81	59566.63
558.98	59484.72
559.14	59615.79
559.31	59842.82
559.47	59648.55
559.64	59807.71
559.80	59709.41
559.97	59847.50
560.13	59599.40
560.30	59779.62
560.46	59760.90
560.63	59840.48
560.79	59929.42
560.96	59856.86
561.12	59896.65
561.29	59955.16
561.45	59922.40
561.61	60067.51
561.78	59941.12
561.94	59845.16
562.11	59875.58
562.27	59700.04
562.44	59781.96
562.60	60093.25
562.77	60044.10
562.93	59817.07
563.10	59971.55
563.26	59971.55
563.42	60023.04
563.59	60072.19
563.75	59889.63
563.92	60210.28
564.08	59824.09
564.24	60331.99
564.41	60161.13
564.57	60039.42
564.74	60280.50
564.90	60189.22
565.07	60271.14
565.23	60219.64
565.39	60212.62
565.56	60247.73
565.72	60266.45
565.88	60226.66
566.05	60013.68
566.21	60317.95
566.38	60214.96
566.54	60175.17
566.70	60463.06
566.87	60383.48
567.03	60156.45
567.19	60378.80
567.36	60580.09
567.52	60367.10
567.68	60411.57
567.85	60418.59
568.01	60402.21
568.17	60420.93
568.34	60437.31
568.50	60399.86
568.66	60355.39
568.83	60526.25
568.99	60367.10
569.15	60339.01
569.32	60357.74
569.48	60282.84
569.64	60523.91
569.81	60570.72
569.97	60402.21
570.13	60615.19
570.30	60409.23
570.46	60559.02
570.62	60477.10
570.78	60577.75
570.95	60598.81
571.11	60654.98
571.27	60544.98
571.43	60666.69
571.60	60853.93
571.76	60746.26
571.92	60573.06
572.09	60694.77
572.25	60573.06
572.41	60741.58
572.57	60720.52
572.74	60865.63
572.90	60612.85
573.06	60603.49
573.22	60533.28
573.38	60690.09
573.55	60500.51
573.71	60940.53
573.87	60736.90
574.03	60322.63
574.20	60867.97
574.36	60746.26
574.52	60846.91
574.68	60769.67
574.84	60886.70
575.01	60938.19
575.17	60732.22
575.33	60774.35
575.49	60650.30
575.65	60821.16
575.82	60828.18
575.98	60980.32
576.14	60982.66
576.30	60823.50
576.46	60821.16
576.62	60858.61
576.79	60865.63
576.95	60683.07
577.11	60879.67
577.27	60879.67
577.43	60959.25
577.59	60650.30
577.75	60835.20
577.92	60624.56
578.08	61125.43
578.24	60903.08
578.40	60973.30
578.56	61221.39
578.72	60734.56
578.88	60914.78
579.04	60954.57
579.21	60945.21
579.37	61106.71
579.53	61104.37
579.69	60697.11
579.85	60914.78
580.01	60853.93
580.17	60779.03
580.33	61090.32
580.49	60921.80
580.65	61036.49
580.82	60910.10
580.98	60874.99
581.14	60898.40
581.30	60821.16
581.46	60832.86
581.62	60863.29
581.78	60935.85
581.94	60928.83
582.10	60662.00
582.26	60961.59
582.42	60912.44
582.58	61097.34
582.74	60985.00
582.90	60879.67
583.06	60753.29
583.22	60753.29
583.38	60912.44
583.54	61144.16
583.70	61043.51
583.86	61008.40
584.02	60828.18
584.18	61027.13
584.34	60959.25
584.50	61038.83
584.66	60898.40
584.82	60818.82
584.98	61230.75
585.14	61226.07
585.30	60949.89
585.46	61134.79
585.62	61179.26
585.78	61141.81
585.94	60886.70
586.10	60977.98
586.26	61205.01
586.42	61254.16
586.58	61055.21
586.74	61106.71
586.90	60938.19
587.06	61003.72
587.22	61209.69
587.38	61242.46
587.54	61127.77
587.70	61125.43
587.86	61197.99
588.02	61181.60
588.18	61172.24
588.34	61247.14
588.49	61113.73
