SpectraSuite Data File
++++++++++++++++++++++++++++++++++++
Date: Fri Oct 25 11:23:19 EDT 2013
User: price-jones
Dark Spectrum Present: No
Reference Spectrum Present: No
Number of Sampled Component Spectra: 1
Spectrometers: USB2+H05261
Integration Time (usec): 100000 (USB2+H05261)
Spectra Averaged: 1 (USB2+H05261)
Boxcar Smoothing: 0 (USB2+H05261)
Correct for Electrical Dark: No (USB2+H05261)
Strobe/Lamp Enabled: No (USB2+H05261)
Correct for Detector Non-linearity: No (USB2+H05261)
Correct for Stray Light: No (USB2+H05261)
Number of Pixels in Processed Spectrum: 2048
>>>>>Begin Processed Spectral Data<<<<<
365.73	194.26
365.92	194.26
366.12	194.26
366.32	184.90
366.52	175.54
366.72	135.75
366.91	77.24
367.11	84.26
367.31	88.94
367.51	142.77
367.70	95.96
367.90	102.98
368.10	133.41
368.30	65.54
368.49	121.71
368.69	194.26
368.89	152.13
369.09	128.73
369.28	205.97
369.48	173.20
369.68	149.79
369.87	163.84
370.07	243.42
370.27	257.46
370.47	372.15
370.66	568.75
370.86	613.22
371.06	615.56
371.25	734.93
371.45	671.73
371.65	732.59
371.84	711.52
372.04	725.57
372.24	753.65
372.44	802.80
372.63	711.52
372.83	725.57
373.03	739.61
373.22	744.29
373.42	758.33
373.62	767.70
373.81	807.48
374.01	800.46
374.21	814.51
374.40	760.67
374.60	875.36
374.79	786.42
374.99	847.27
375.19	760.67
375.38	835.57
375.58	816.85
375.78	821.53
375.97	835.57
376.17	870.68
376.37	863.66
376.56	812.17
376.76	788.76
376.95	847.27
377.15	887.06
377.35	938.55
377.54	919.83
377.74	870.68
377.93	884.72
378.13	781.74
378.33	922.17
378.52	861.32
378.72	950.26
378.91	870.68
379.11	940.90
379.31	971.32
379.50	950.26
379.70	957.28
379.89	1008.77
380.09	950.26
380.28	896.43
380.48	964.30
380.68	968.98
380.87	1001.75
381.07	976.00
381.26	1046.22
381.46	945.58
381.65	1015.79
381.85	1109.41
382.04	1107.07
382.24	1046.22
382.43	1116.44
382.63	1032.18
382.83	1097.71
383.02	992.39
383.22	1074.31
383.41	1114.10
383.61	1118.78
383.80	1118.78
384.00	1207.72
384.19	1083.67
384.39	1116.44
384.58	1139.84
384.78	1158.57
384.97	1214.74
385.17	1179.63
385.36	1142.18
385.56	1193.67
385.75	1184.31
385.95	1203.04
386.14	1142.18
386.34	1125.80
386.53	1275.59
386.72	1226.44
386.92	1212.40
387.11	1235.80
387.31	1277.93
387.50	1205.38
387.70	1240.48
387.89	1275.59
388.09	1214.74
388.28	1397.30
388.48	1352.83
388.67	1214.74
388.86	1296.66
389.06	1252.19
389.25	1366.87
389.45	1228.78
389.64	1444.11
389.84	1369.21
390.03	1280.27
390.22	1404.32
390.42	1373.89
390.61	1439.43
390.81	1406.66
391.00	1467.52
391.19	1446.45
391.39	1511.99
391.58	1474.54
391.78	1479.22
391.97	1439.43
392.16	1500.28
392.36	1533.05
392.55	1561.14
392.75	1556.46
392.94	1511.99
393.13	1434.75
393.33	1511.99
393.52	1593.90
393.71	1598.59
393.91	1629.01
394.10	1579.86
394.29	1596.25
394.49	1696.89
394.68	1668.80
394.88	1652.42
395.07	1654.76
395.26	1666.46
395.46	1643.06
395.65	1715.61
395.84	1689.87
396.04	1863.07
396.23	1720.29
396.42	1732.00
396.62	1746.04
396.81	1795.19
397.00	1858.39
397.19	1748.38
397.39	1820.94
397.58	1804.55
397.77	1837.32
397.97	1888.81
398.16	1865.41
398.35	1879.45
398.55	1916.90
398.74	1912.22
398.93	1893.49
399.12	2010.52
399.32	1881.79
399.51	1907.54
399.70	1966.05
399.90	1994.14
400.09	2040.95
400.28	2069.03
400.47	2017.54
400.67	2026.90
400.86	2019.88
401.05	1961.37
401.24	2083.08
401.44	2218.83
401.63	2183.72
401.82	2176.70
402.01	2099.46
402.21	2139.25
402.40	2228.19
402.59	2188.40
402.78	2321.81
402.97	2228.19
403.17	2244.57
403.36	2375.64
403.55	2335.85
403.74	2356.92
403.93	2356.92
404.13	2389.69
404.32	2340.54
404.51	2354.58
404.70	2361.60
404.89	2380.32
405.09	2401.39
405.28	2502.03
405.47	2455.22
405.66	2537.14
405.85	2562.89
406.05	2480.97
406.24	2527.78
406.43	2600.34
406.62	2745.45
406.81	2675.23
407.00	2654.17
407.20	2612.04
407.39	2654.17
407.58	2708.00
407.77	2544.16
407.96	2839.07
408.15	2820.35
408.34	2654.17
408.54	2825.03
408.73	2869.50
408.92	2792.26
409.11	2974.82
409.30	2904.60
409.49	3005.25
409.68	2822.69
409.87	3068.44
410.07	3042.70
410.26	3012.27
410.45	3021.63
410.64	3119.93
410.83	3063.76
411.02	3028.65
411.21	3152.70
411.40	3110.57
411.59	3239.30
411.78	3192.49
411.98	3258.03
412.17	3194.83
412.36	3208.87
412.55	3517.83
412.74	3328.24
412.93	3471.01
413.12	3346.97
413.31	3428.88
413.50	3382.07
413.69	3499.10
413.88	3578.68
414.07	3524.85
414.26	3733.15
414.45	3632.51
414.64	3637.19
414.83	3763.58
415.02	3789.33
415.22	3960.19
415.41	3939.12
415.60	3889.97
415.79	4009.34
415.98	4056.15
416.17	4025.72
416.36	4084.23
416.55	4114.66
416.74	4081.89
416.93	4074.87
417.12	4131.05
417.31	4219.99
417.50	4109.98
417.69	4280.84
417.88	4189.56
418.07	4201.26
418.26	4257.43
418.45	4372.12
418.64	4554.68
418.83	4521.92
419.02	4447.02
419.21	4503.19
419.39	4624.90
419.58	4636.60
419.77	4517.23
419.96	4788.74
420.15	4662.35
420.34	4648.30
420.53	4720.86
420.72	4678.73
420.91	4699.80
421.10	4805.12
421.29	4793.42
421.48	4856.61
421.67	4830.87
421.86	4795.76
422.05	4901.08
422.24	4826.18
422.43	4784.06
422.61	4924.49
422.80	5062.58
422.99	5039.17
423.18	4994.70
423.37	5118.75
423.56	5008.75
423.75	5025.13
423.94	4887.04
424.13	4709.16
424.32	4788.74
424.50	4968.96
424.69	5102.37
424.88	5146.84
425.07	5069.60
425.26	4961.94
425.45	5048.54
425.64	5041.51
425.83	5034.49
426.01	5015.77
426.20	5125.77
426.39	5144.50
426.58	5226.42
426.77	5144.50
426.96	5156.20
427.15	5238.12
427.33	5203.01
427.52	5163.22
427.71	5345.78
427.90	5188.97
428.09	5444.09
428.28	5296.63
428.46	5460.47
428.65	5397.28
428.84	5504.94
429.03	5483.88
429.22	5476.85
429.40	5537.71
429.59	5605.58
429.78	5280.25
429.97	5338.76
430.16	5500.26
430.34	5591.54
430.53	5687.50
430.72	5757.72
430.91	5769.42
431.10	5610.26
431.28	5799.85
431.47	5881.77
431.66	5881.77
431.85	5797.51
432.03	5996.45
432.22	6160.29
432.41	5961.34
432.60	6099.44
432.79	5968.37
432.97	6155.61
433.16	6113.48
433.35	5984.75
433.54	6054.97
433.72	6239.87
433.91	6246.89
434.10	6235.19
434.28	6214.12
434.47	6296.04
434.66	6382.64
434.85	6349.87
435.03	6356.90
435.22	6251.57
435.41	6562.86
435.59	6429.45
435.78	6462.22
435.97	6555.84
436.16	6452.86
436.34	6544.14
436.53	6607.33
436.72	6785.21
436.90	6368.60
437.09	6738.40
437.28	6490.31
437.46	6684.57
437.65	6736.06
437.84	6803.94
438.02	6665.85
438.21	6963.09
438.40	6888.20
438.58	7089.48
438.77	7033.31
438.96	6916.28
439.14	7117.57
439.33	7112.89
439.52	7178.42
439.70	7302.47
439.89	7344.60
440.08	7407.80
440.26	7400.77
440.45	7480.35
440.63	7414.82
440.82	7442.90
441.01	7641.85
441.19	7765.90
441.38	7644.19
441.57	7728.45
441.75	7714.41
441.94	8046.76
442.12	7887.61
442.31	8159.11
442.50	8060.80
442.68	8095.91
442.87	8147.40
443.05	8234.00
443.24	8222.30
443.43	8322.94
443.61	8255.07
443.80	8484.44
443.98	8124.00
444.17	7796.32
444.35	8379.12
444.54	8493.80
444.73	8400.18
444.91	8329.97
445.10	8306.56
445.28	8421.25
445.47	8339.33
445.65	8503.17
445.84	8489.12
446.02	8493.80
446.21	8393.16
446.39	8292.52
446.58	8362.73
446.77	8449.33
446.95	8198.90
447.14	8704.45
447.32	8727.86
447.51	8622.53
447.69	8538.27
447.88	8674.03
448.06	8489.12
448.25	8610.83
448.43	8552.32
448.62	8547.64
448.80	8599.13
448.99	8823.82
449.17	8877.65
449.36	8582.74
449.54	8978.30
449.73	9032.13
449.91	9083.62
450.10	9277.88
450.28	9305.97
450.46	9270.86
450.65	9048.51
450.83	9092.98
451.02	9146.81
451.20	9296.61
451.39	9174.90
451.57	9240.44
451.76	9041.49
451.94	9305.97
452.13	9460.45
452.31	9352.78
452.49	9254.48
452.68	9483.85
452.86	9308.31
453.05	9551.73
453.23	9734.29
453.42	9401.93
453.60	9280.22
453.78	9441.72
453.97	9722.59
454.15	9650.03
454.34	9516.62
454.52	9727.27
454.70	9863.02
454.89	10113.45
455.07	9872.38
455.26	9984.73
455.44	10068.98
455.62	10076.01
455.81	10099.41
455.99	10164.95
456.17	10005.79
456.36	10057.28
456.54	10068.98
456.73	10094.73
456.91	10366.23
457.09	10438.79
457.28	10738.38
457.46	10342.83
457.64	10630.71
457.83	10565.18
458.01	10609.65
458.19	10794.55
458.38	10541.77
458.56	10747.74
458.74	10829.66
458.93	10888.17
459.11	11136.27
459.29	10745.40
459.48	10780.51
459.66	10902.22
459.84	10934.98
460.03	11061.37
460.21	11218.19
460.39	10967.75
460.57	11152.65
460.76	11255.64
460.94	11234.57
461.12	11293.08
461.31	11311.81
461.49	11211.17
461.67	11295.43
461.85	11555.22
462.04	11468.62
462.22	11782.26
462.40	11761.19
462.59	11538.84
462.77	11632.46
462.95	11590.33
463.13	11939.07
463.32	11716.72
463.50	11882.90
463.68	11866.52
463.86	12060.78
464.05	11791.62
464.23	11831.41
464.41	11894.60
464.59	11875.88
464.78	12292.49
464.96	12004.61
465.14	11810.34
465.32	12119.29
465.50	12315.90
465.69	12442.29
465.87	12259.73
466.05	12004.61
466.23	12290.15
466.41	12245.68
466.60	12594.42
466.78	12283.13
466.96	12376.75
467.14	12322.92
467.32	12313.56
467.51	12545.27
467.69	12395.48
467.87	12416.54
468.05	12643.57
468.23	12540.59
468.41	12650.60
468.60	12798.05
468.78	12833.16
468.96	12774.64
469.14	12905.71
469.32	13027.42
469.50	12922.10
469.69	13181.90
469.87	13376.16
470.05	13259.13
470.23	13238.07
470.41	13207.64
470.59	13434.68
470.77	13535.32
470.95	13441.70
471.14	13689.79
471.32	13280.20
471.50	13696.82
471.68	13579.79
471.86	13767.03
472.04	13919.17
472.22	14097.05
472.40	13928.53
472.58	14094.71
472.77	14431.74
472.95	14462.17
473.13	14679.84
473.31	14380.25
473.49	14331.10
473.67	14274.93
473.85	14256.20
474.03	14553.45
474.21	14913.89
474.39	14824.95
474.57	14654.09
474.75	14986.45
474.93	14913.89
475.12	15140.93
475.30	15311.78
475.48	15145.61
475.66	15477.96
475.84	15407.75
476.02	15676.91
476.20	15625.42
476.38	15772.87
476.56	16276.09
476.74	16105.23
476.92	15957.77
477.10	15868.83
477.28	16348.64
477.46	16264.38
477.64	16510.14
477.82	16587.38
478.00	17282.52
478.18	16858.88
478.36	16917.39
478.54	17172.51
478.72	17441.67
478.90	17415.93
479.08	17717.86
479.26	17900.42
479.44	18038.51
479.62	18132.13
479.80	18022.12
479.98	18082.98
480.16	18904.51
480.34	18471.51
480.52	18703.22
480.70	19028.56
480.88	18616.62
481.06	19028.56
481.24	18977.06
481.41	19407.72
481.59	19396.02
481.77	19772.85
481.95	19726.04
482.13	20189.46
482.31	19924.98
482.49	20526.50
482.67	20290.10
482.85	20868.22
483.03	20793.32
483.21	20877.58
483.39	21132.70
483.57	21043.76
483.74	21661.66
483.92	21694.43
484.10	21408.88
484.28	21757.62
484.46	22300.62
484.64	22403.61
484.82	21979.97
485.00	22614.26
485.18	22878.74
485.35	23075.34
485.53	22932.57
485.71	23185.35
485.89	23398.34
486.07	23534.09
486.25	23513.02
486.43	23871.12
486.61	23859.42
486.78	24140.29
486.96	24236.25
487.14	24421.15
487.32	25099.90
487.50	25275.45
487.68	25448.64
487.85	25291.83
488.03	25631.21
488.21	26118.04
488.39	26190.59
488.57	26363.79
488.75	26511.25
488.92	26677.43
489.10	27360.86
489.28	27253.20
489.46	27470.87
489.64	26981.70
489.81	28058.34
489.99	27957.70
490.17	27459.16
490.35	28474.96
490.53	28582.62
490.70	28606.03
490.88	28538.15
491.06	29193.50
491.24	29064.77
491.41	29649.91
491.59	29645.23
491.77	29263.72
491.95	29818.42
492.13	29949.50
492.30	30256.11
492.48	30232.70
492.66	30831.88
492.84	30764.00
493.01	30888.05
493.19	30742.94
493.37	31178.28
493.54	30965.29
493.72	31962.36
493.90	31845.33
494.08	32011.51
494.25	32463.23
494.43	32385.99
494.61	32278.33
494.79	32706.65
494.96	32804.95
495.14	32994.53
495.32	33638.18
495.49	33560.94
495.67	33347.95
495.85	33968.19
496.02	33947.13
496.20	33902.66
496.38	34099.26
496.55	34157.78
496.73	35274.21
496.91	34745.25
497.09	35587.85
497.26	35690.83
497.44	35318.68
497.62	35817.22
497.79	36032.55
497.97	35772.75
498.14	36465.55
498.32	36308.73
498.50	36500.65
498.67	36947.70
498.85	37034.30
499.03	37156.00
499.20	36945.36
499.38	37581.98
499.56	37607.73
499.73	37539.85
499.91	37624.11
500.08	37865.19
500.26	37867.53
500.44	38211.59
500.61	38375.42
500.79	37914.34
500.97	38663.31
501.14	38974.60
501.32	38869.28
501.49	38693.74
501.67	39166.52
501.84	39517.60
502.02	39423.98
502.20	39215.68
502.37	39658.04
502.55	39599.52
502.72	39978.69
502.90	39871.03
503.07	39643.99
503.25	40140.19
503.43	39974.01
503.60	40177.64
503.78	40800.22
503.95	40664.47
504.13	40395.31
504.30	40884.48
504.48	40727.66
504.65	41207.47
504.83	41581.96
505.01	41560.89
505.18	41649.83
505.36	42085.17
505.53	41654.51
505.71	41762.18
505.88	42136.66
506.06	41942.40
506.23	42815.42
506.41	42333.27
506.58	42614.13
506.76	42396.46
506.93	42904.36
507.11	42773.29
507.28	43058.84
507.46	43138.41
507.63	43391.19
507.81	44121.44
507.98	43086.92
508.16	43276.51
508.33	43646.31
508.50	43763.34
508.68	44364.85
508.85	44638.70
509.03	44079.31
509.20	44568.48
509.38	44765.09
509.55	44467.84
509.73	44870.41
509.90	45221.49
510.08	45120.85
510.25	44694.87
510.42	44849.35
510.60	45649.81
510.77	45500.01
510.95	45911.95
511.12	45434.48
511.30	45745.77
511.47	45907.27
511.64	45827.69
511.82	46312.18
511.99	45872.16
512.17	46534.53
512.34	46330.90
512.51	46754.54
512.69	46700.71
512.86	46440.91
513.04	46948.81
513.21	47210.95
513.38	47316.27
513.56	47203.92
513.73	46672.62
513.90	47421.59
514.08	47154.77
514.25	47540.96
514.43	47870.98
514.60	47831.19
514.77	47555.00
514.95	48385.89
515.12	47980.98
515.29	47924.81
515.47	48285.25
515.64	48776.76
515.81	48289.93
515.99	48233.76
516.16	48713.57
516.33	48364.83
516.51	49261.26
516.68	48774.42
516.85	48825.92
517.03	49600.63
517.20	49289.34
517.37	49130.19
517.54	49202.74
517.72	49219.13
517.89	49586.59
518.06	49654.47
518.24	49900.22
518.41	49474.24
518.58	49757.45
518.75	49602.97
518.93	49874.48
519.10	49785.54
519.27	49806.60
519.45	49954.05
519.62	50326.20
519.79	50415.14
519.96	50405.78
520.14	50082.78
520.31	50223.22
520.48	50656.21
520.65	50520.46
520.83	51199.22
521.00	50948.78
521.17	50871.54
521.34	51126.66
521.52	51210.92
521.69	51264.75
521.86	51250.71
522.03	51398.16
522.20	51746.90
522.38	51922.44
522.55	51763.29
522.72	51779.67
522.89	51805.42
523.07	51859.25
523.24	51936.49
523.41	52334.38
523.58	51774.99
523.75	52285.23
523.92	52041.81
524.10	52060.54
524.27	52755.68
524.44	52549.71
524.61	52727.59
524.78	52591.84
524.96	52484.17
525.13	52725.25
525.30	52589.50
525.47	52727.59
525.64	52928.87
525.81	53088.03
525.98	52947.60
526.16	52952.28
526.33	52870.36
526.50	53064.63
526.67	53179.31
526.84	53298.68
527.01	52963.98
527.18	53434.43
527.36	53448.47
527.53	53350.17
527.70	53771.47
527.87	53766.79
528.04	53518.69
528.21	53626.35
528.38	53464.86
528.55	53993.82
528.72	53656.78
528.89	53645.08
529.07	53848.71
529.24	53886.15
529.41	53996.16
529.58	54007.86
529.75	53654.44
529.92	53865.09
530.09	54183.40
530.26	54284.04
530.43	54424.48
530.60	54143.61
530.77	54061.69
530.94	54354.26
531.11	54497.03
531.28	54471.29
531.46	54415.11
531.63	54813.01
531.80	54726.41
531.97	54843.43
532.14	54740.45
532.31	54934.71
532.48	54937.05
532.65	54930.03
532.82	54791.94
532.99	55000.25
533.16	55058.76
533.33	55011.95
533.50	55292.82
533.67	54983.86
533.84	55224.94
534.01	55140.68
534.18	55068.12
534.35	55285.79
534.52	55253.03
534.69	55606.45
534.86	55578.36
535.03	55454.31
535.20	55302.18
535.37	55533.89
535.54	55625.17
535.71	55583.04
535.88	55728.16
536.05	55817.10
536.22	55767.94
536.38	55999.66
536.55	55791.35
536.72	55866.25
536.89	55718.79
537.06	55971.57
537.23	55896.67
537.40	55924.76
537.57	55899.01
537.74	55931.78
537.91	56481.81
538.08	55894.33
538.25	55994.98
538.42	56128.39
538.59	56486.49
538.75	56053.49
538.92	56339.04
539.09	56299.25
539.26	56530.96
539.43	56399.89
539.60	56453.72
539.77	56460.74
539.94	56788.42
540.11	56783.74
540.28	56659.69
540.44	56638.62
540.61	56814.16
540.78	56420.95
540.95	56701.82
541.12	56743.95
541.29	56584.79
541.46	56704.16
541.62	56858.63
541.79	57027.15
541.96	56561.39
542.13	56626.92
542.30	56868.00
542.47	56896.08
542.63	57113.75
542.80	57336.10
542.97	57347.81
543.14	57450.79
543.31	57394.62
543.48	57448.45
543.64	57778.46
543.81	57694.21
543.98	57813.57
544.15	57551.43
544.32	57806.55
544.48	57820.59
544.65	57776.12
544.82	57633.35
544.99	57560.79
545.16	57752.72
545.32	57773.78
545.49	57989.11
545.66	57930.60
545.83	57787.83
546.00	57986.77
546.16	57895.49
546.33	57874.43
546.50	57808.89
546.67	57907.19
546.83	57801.87
547.00	57991.45
547.17	57923.58
547.34	58066.35
547.50	58040.60
547.67	58436.16
547.84	58274.66
548.00	58335.51
548.17	58560.20
548.34	58316.79
548.51	58623.40
548.67	58403.39
548.84	58302.74
549.01	58305.09
549.18	58436.16
549.34	58585.95
549.51	58562.54
549.68	58534.46
549.84	58782.55
550.01	58789.58
550.18	58616.38
550.34	58688.93
550.51	58691.27
550.68	58728.72
550.84	58354.24
551.01	58719.36
551.18	58642.12
551.34	58850.43
551.51	58993.20
551.68	58843.41
551.84	58894.90
552.01	58810.64
552.18	59157.04
552.34	58810.64
552.51	59040.01
552.68	58763.83
552.84	58915.96
553.01	59241.30
553.18	59032.99
553.34	59243.64
553.51	59091.51
553.67	59025.97
553.84	59416.84
554.01	59243.64
554.17	59353.65
554.34	59206.19
554.51	59084.48
554.67	59491.74
554.84	59262.36
555.00	59386.41
555.17	59255.34
555.33	59245.98
555.50	59355.99
555.67	59185.13
555.83	59154.70
556.00	59346.62
556.16	59788.98
556.33	59545.57
556.50	59468.33
556.66	59606.42
556.83	59461.31
556.99	59774.94
557.16	59749.20
557.32	59777.28
557.49	59952.82
557.65	59374.71
557.82	59522.16
557.98	59489.40
558.15	59856.86
558.32	59898.99
558.48	59484.72
558.65	59613.44
558.81	59901.33
558.98	59728.13
559.14	59718.77
559.31	59774.94
559.47	59948.14
559.64	60088.57
559.80	59760.90
559.97	59877.93
560.13	59934.10
560.30	59819.41
560.46	59737.49
560.63	60053.47
560.79	60034.74
560.96	60137.72
561.12	60051.12
561.29	60130.70
561.45	60130.70
561.61	60037.08
561.78	59948.14
561.94	60247.73
562.11	60236.03
562.27	60004.31
562.44	60172.83
562.60	60119.00
562.77	60413.91
562.93	59917.71
563.10	60282.84
563.26	60097.94
563.42	60322.63
563.59	60212.62
563.75	60102.62
563.92	60371.78
564.08	60165.81
564.24	60154.11
564.41	60406.89
564.57	60331.99
564.74	60364.76
564.90	60301.56
565.07	60076.87
565.23	60444.33
565.39	60395.18
565.56	60357.74
565.72	60371.78
565.88	60458.38
566.05	60212.62
566.21	60322.63
566.38	60385.82
566.54	60477.10
566.70	60783.71
566.87	60666.69
567.03	60364.76
567.19	60816.48
567.36	60362.42
567.52	60479.44
567.68	60544.98
567.85	60554.34
568.01	60711.16
568.17	60516.89
568.34	60715.84
568.50	60530.93
568.66	60692.43
568.83	60500.51
568.99	60619.88
569.15	60715.84
569.32	60577.75
569.48	60739.24
569.64	60755.63
569.81	60757.97
569.97	60631.58
570.13	60774.35
570.30	60741.58
570.46	60912.44
570.62	60793.07
570.78	60823.50
570.95	60640.94
571.11	60542.64
571.27	60669.03
571.43	60664.35
571.60	60985.00
571.76	60786.05
571.92	60954.57
572.09	60935.85
572.25	60629.24
572.41	60870.31
572.57	60743.92
572.74	61104.37
572.90	60912.44
573.06	60760.31
573.22	60879.67
573.38	60865.63
573.55	60570.72
573.71	61111.39
573.87	60886.70
574.03	60823.50
574.20	60956.91
574.36	60837.54
574.52	60926.49
574.68	60987.34
574.84	61317.35
575.01	61020.11
575.17	60830.52
575.33	60842.23
575.49	60762.65
575.65	61052.87
575.82	61137.13
575.98	61123.09
576.14	61188.63
576.30	61003.72
576.46	60783.71
576.62	60921.80
576.79	60858.61
576.95	61015.43
577.11	60945.21
577.27	60999.04
577.43	61022.45
577.59	60832.86
577.75	60968.61
577.92	60825.84
578.08	60856.27
578.24	61034.15
578.40	61125.43
578.56	61230.75
578.72	61083.30
578.88	61188.63
579.04	61326.72
579.21	61057.56
579.37	61038.83
579.53	61247.14
579.69	60924.14
579.85	61146.50
580.01	61085.64
580.17	60804.78
580.33	61247.14
580.49	61275.22
580.65	61148.84
580.82	61052.87
580.98	61015.43
581.14	61066.92
581.30	61146.50
581.46	61190.97
581.62	61146.50
581.78	61097.34
581.94	61284.59
582.10	61095.00
582.26	60980.32
582.42	61254.16
582.58	61118.41
582.74	61197.99
582.90	61167.56
583.06	61172.24
583.22	61036.49
583.38	61256.50
583.54	61265.86
583.70	61247.14
583.86	61275.22
584.02	61104.37
584.18	61387.57
584.34	61223.73
584.50	61151.18
584.66	61092.66
584.82	61155.86
584.98	61310.33
585.14	61230.75
585.30	61137.13
585.46	61202.67
585.62	61258.84
585.78	61258.84
585.94	61144.16
586.10	61228.41
586.26	61300.97
586.42	61212.03
586.58	61160.54
586.74	60999.04
586.90	61296.29
587.06	61144.16
587.22	61265.86
587.38	61169.90
587.54	61336.08
587.70	61488.21
587.86	61230.75
588.02	61539.71
588.18	61291.61
588.34	61443.74
588.49	61357.14
