SpectraSuite Data File
++++++++++++++++++++++++++++++++++++
Date: Fri Oct 25 11:24:00 EDT 2013
User: price-jones
Dark Spectrum Present: No
Reference Spectrum Present: No
Number of Sampled Component Spectra: 1
Spectrometers: USB2+H05261
Integration Time (usec): 100000 (USB2+H05261)
Spectra Averaged: 1 (USB2+H05261)
Boxcar Smoothing: 0 (USB2+H05261)
Correct for Electrical Dark: No (USB2+H05261)
Strobe/Lamp Enabled: No (USB2+H05261)
Correct for Detector Non-linearity: No (USB2+H05261)
Correct for Stray Light: No (USB2+H05261)
Number of Pixels in Processed Spectrum: 2048
>>>>>Begin Processed Spectral Data<<<<<
365.73	217.67
365.92	217.67
366.12	217.67
366.32	182.56
366.52	166.18
366.72	100.64
366.91	74.90
367.11	173.20
367.31	135.75
367.51	133.41
367.70	112.35
367.90	133.41
368.10	63.19
368.30	149.79
368.49	166.18
368.69	135.75
368.89	98.30
369.09	124.05
369.28	229.37
369.48	180.22
369.68	135.75
369.87	182.56
370.07	135.75
370.27	196.60
370.47	304.27
370.66	599.18
370.86	587.47
371.06	624.92
371.25	645.99
371.45	634.29
371.65	641.31
371.84	713.86
372.04	734.93
372.24	699.82
372.44	730.25
372.63	706.84
372.83	718.54
373.03	720.88
373.22	732.59
373.42	788.76
373.62	772.38
373.81	779.40
374.01	779.40
374.21	840.25
374.40	748.97
374.60	835.57
374.79	767.70
374.99	826.21
375.19	842.59
375.38	807.48
375.58	800.46
375.78	931.53
375.97	786.42
376.17	896.43
376.37	844.93
376.56	884.72
376.76	882.38
376.95	858.98
377.15	894.08
377.35	961.96
377.54	870.68
377.74	959.62
377.93	868.34
378.13	919.83
378.33	945.58
378.52	908.13
378.72	873.02
378.91	954.94
379.11	837.91
379.31	976.00
379.50	908.13
379.70	1020.47
379.89	950.26
380.09	922.17
380.28	966.64
380.48	1015.79
380.68	933.87
380.87	976.00
381.07	1078.99
381.26	1081.33
381.46	1027.50
381.65	1001.75
381.85	1025.15
382.04	1036.86
382.24	983.02
382.43	1046.22
382.63	1097.71
382.83	1027.50
383.02	1041.54
383.22	1139.84
383.41	1078.99
383.61	1128.14
383.80	1050.90
384.00	1086.01
384.19	1123.46
384.39	1130.48
384.58	1174.95
384.78	1125.80
384.97	1226.44
385.17	1158.57
385.36	1121.12
385.56	1123.46
385.75	1128.14
385.95	1177.29
386.14	1280.27
386.34	1130.48
386.53	1188.99
386.72	1306.02
386.92	1280.27
387.11	1334.11
387.31	1247.51
387.50	1273.25
387.70	1357.51
387.89	1268.57
388.09	1240.48
388.28	1294.32
388.48	1280.27
388.67	1242.82
388.86	1254.53
389.06	1313.04
389.25	1329.42
389.45	1359.85
389.64	1425.39
389.84	1397.30
390.03	1383.26
390.22	1366.87
390.42	1336.45
390.61	1406.66
390.81	1458.15
391.00	1404.32
391.19	1451.13
391.39	1385.60
391.58	1479.22
391.78	1376.24
391.97	1509.65
392.16	1439.43
392.36	1530.71
392.55	1416.02
392.75	1504.96
392.94	1572.84
393.13	1469.86
393.33	1511.99
393.52	1533.05
393.71	1600.93
393.91	1621.99
394.10	1603.27
394.29	1659.44
394.49	1544.75
394.68	1675.82
394.88	1598.59
395.07	1659.44
395.26	1668.80
395.46	1682.85
395.65	1715.61
395.84	1785.83
396.04	1727.32
396.23	1785.83
396.42	1827.96
396.62	1769.44
396.81	1696.89
397.00	1771.79
397.19	1767.10
397.39	1811.57
397.58	1792.85
397.77	1802.21
397.97	1834.98
398.16	1881.79
398.35	1966.05
398.55	1928.60
398.74	1933.28
398.93	1900.52
399.12	1989.46
399.32	1963.71
399.51	1914.56
399.70	2064.35
399.90	1977.75
400.09	2153.29
400.28	1916.90
400.47	1982.43
400.67	2073.71
400.86	2052.65
401.05	2118.18
401.24	2097.12
401.44	2165.00
401.63	2216.49
401.82	2300.75
402.01	2111.16
402.21	2155.63
402.40	2183.72
402.59	2087.76
402.78	2188.40
402.97	2256.28
403.17	2235.21
403.36	2230.53
403.55	2286.70
403.74	2349.90
403.93	2272.66
404.13	2392.03
404.32	2417.77
404.51	2370.96
404.70	2286.70
404.89	2424.80
405.09	2457.56
405.28	2478.63
405.47	2483.31
405.66	2487.99
405.85	2616.72
406.05	2537.14
406.24	2703.32
406.43	2513.74
406.62	2642.46
406.81	2647.15
407.00	2600.34
407.20	2562.89
407.39	2600.34
407.58	2754.81
407.77	2733.75
407.96	2700.98
408.15	2682.25
408.34	2700.98
408.54	2848.43
408.73	2757.15
408.92	2761.83
409.11	2827.37
409.30	2876.52
409.49	2928.01
409.68	2960.78
409.87	3035.67
410.07	2993.55
410.26	3080.14
410.45	2942.05
410.64	3075.46
410.83	3061.42
411.02	3026.31
411.21	3201.85
411.40	3171.43
411.59	3243.98
411.78	3391.44
411.98	3276.75
412.17	3267.39
412.36	3276.75
412.55	3375.05
412.74	3515.48
412.93	3361.01
413.12	3393.78
413.31	3634.85
413.50	3431.23
413.69	3606.77
413.88	3471.01
414.07	3651.24
414.26	3581.02
414.45	3660.60
414.64	3595.06
414.83	3719.11
415.02	3772.94
415.22	3927.42
415.41	3859.54
415.60	3758.90
415.79	3932.10
415.98	4014.02
416.17	3999.98
416.36	3985.93
416.55	3875.93
416.74	4046.79
416.93	3941.46
417.12	4021.04
417.31	4105.30
417.50	4138.07
417.69	4301.90
417.88	4390.84
418.07	4294.88
418.26	4290.20
418.45	4271.48
418.64	4477.44
418.83	4468.08
419.02	4496.17
419.21	4615.54
419.39	4517.23
419.58	4454.04
419.77	4402.55
419.96	4491.49
420.15	4545.32
420.34	4601.49
420.53	4617.88
420.72	4713.84
420.91	4748.95
421.10	4737.24
421.29	4795.76
421.48	4667.03
421.67	4772.35
421.86	4795.76
422.05	4851.93
422.24	4578.09
422.43	4943.21
422.61	4896.40
422.80	4980.66
422.99	5050.88
423.18	5006.41
423.37	5074.28
423.56	4957.25
423.75	4917.47
423.94	4816.82
424.13	4456.38
424.32	4873.00
424.50	4940.87
424.69	5181.95
424.88	5067.26
425.07	4961.94
425.26	4938.53
425.45	4968.96
425.64	4971.30
425.83	4952.57
426.01	5109.39
426.20	5034.49
426.39	5071.94
426.58	5032.15
426.77	5118.75
426.96	5071.94
427.15	5172.58
427.33	5067.26
427.52	5088.32
427.71	5184.29
427.90	5256.84
428.09	5305.99
428.28	5327.06
428.46	5378.55
428.65	5303.65
428.84	5535.37
429.03	5554.09
429.22	5390.25
429.40	5551.75
429.59	5572.82
429.78	5366.85
429.97	5364.51
430.16	5467.49
430.34	5617.29
430.53	5603.24
430.72	5516.64
430.91	5586.86
431.10	5713.25
431.28	5811.55
431.47	5846.66
431.66	5774.10
431.85	5839.64
432.03	5832.62
432.22	5975.39
432.41	5893.47
432.60	5954.32
432.79	5944.96
432.97	5980.07
433.16	6050.28
433.35	5975.39
433.54	6256.25
433.72	6188.38
433.91	5994.11
434.10	6174.33
434.28	6012.84
434.47	6125.18
434.66	6305.40
434.85	6307.74
435.03	6394.34
435.22	6204.76
435.41	6588.61
435.59	6354.55
435.78	6396.68
435.97	6471.58
436.16	6403.71
436.34	6408.39
436.53	6621.38
436.72	6654.14
436.90	6408.39
437.09	6672.87
437.28	6583.93
437.46	6541.80
437.65	6626.06
437.84	6729.04
438.02	6771.17
438.21	6768.83
438.40	6626.06
438.58	6956.07
438.77	7075.44
438.96	6810.96
439.14	7108.21
439.33	7152.68
439.52	7358.64
439.70	7178.42
439.89	7508.44
440.08	7461.63
440.26	7351.62
440.45	7295.45
440.63	7583.34
440.82	7676.96
441.01	7508.44
441.19	7588.02
441.38	7672.28
441.57	7733.13
441.75	7735.47
441.94	7974.21
442.12	8093.57
442.31	8030.38
442.50	8140.38
442.68	7925.05
442.87	8035.06
443.05	8203.58
443.24	8306.56
443.43	8161.45
443.61	8468.06
443.80	8505.51
443.98	8168.47
444.17	7943.78
444.35	8252.73
444.54	8416.57
444.73	8365.07
444.91	8313.58
445.10	8365.07
445.28	8294.86
445.47	8257.41
445.65	8336.99
445.84	8568.70
446.02	8559.34
446.21	8463.38
446.39	8463.38
446.58	8538.27
446.77	8369.76
446.95	8369.76
447.14	8482.10
447.32	8772.33
447.51	8493.80
447.69	8428.27
447.88	8690.41
448.06	8397.84
448.25	8629.56
448.43	8788.71
448.62	8561.68
448.80	8538.27
448.99	8620.19
449.17	8690.41
449.36	8657.64
449.54	9001.70
449.73	8973.61
449.91	9036.81
450.10	8973.61
450.28	9242.78
450.46	9053.19
450.65	8997.02
450.83	9146.81
451.02	9048.51
451.20	9240.44
451.39	9053.19
451.57	9181.92
451.76	8968.93
451.94	9167.88
452.13	9453.42
452.31	9280.22
452.49	9301.29
452.68	9380.87
452.86	9455.76
453.05	9528.32
453.23	9425.34
453.42	9240.44
453.60	9355.12
453.78	9514.28
453.97	9462.79
454.15	9565.77
454.34	9415.98
454.52	9715.56
454.70	9479.17
454.89	9671.09
455.07	9886.42
455.26	10003.45
455.44	10099.41
455.62	9975.36
455.81	9937.91
455.99	10047.92
456.17	9973.02
456.36	10111.11
456.54	10066.64
456.73	10228.14
456.91	10436.45
457.09	10530.07
457.28	10532.41
457.46	10476.24
457.64	10661.14
457.83	10757.10
458.01	10361.55
458.19	10876.47
458.38	10399.00
458.56	10733.70
458.74	10609.65
458.93	10799.23
459.11	10703.27
459.29	10843.70
459.48	10705.61
459.66	11087.12
459.84	10836.68
460.03	10991.16
460.21	10993.50
460.39	11169.04
460.57	11143.29
460.76	11000.52
460.94	11143.29
461.12	11272.02
461.31	11187.76
461.49	11091.80
461.67	11372.66
461.85	11578.63
462.04	11250.96
462.22	11548.20
462.40	11562.25
462.59	11496.71
462.77	11503.73
462.95	11587.99
463.13	11590.33
463.32	11695.66
463.50	11566.93
463.68	11749.49
463.86	12035.03
464.05	11662.89
464.23	11726.08
464.41	12051.42
464.59	11772.89
464.78	12070.14
464.96	12173.13
465.14	12072.48
465.32	12191.85
465.50	12287.81
465.69	12276.11
465.87	12170.79
466.05	12182.49
466.23	12081.85
466.41	12287.81
466.60	12606.13
466.78	12105.25
466.96	12355.69
467.14	12463.35
467.32	12280.79
467.51	12425.90
467.69	11981.20
467.87	12236.32
468.05	12669.32
468.23	12629.53
468.41	12411.86
468.60	12592.08
468.78	12659.96
468.96	12737.20
469.14	12781.67
469.32	13034.44
469.50	12746.56
469.69	13209.98
469.87	13053.17
470.05	13245.09
470.23	13130.41
470.41	13137.43
470.59	13273.18
470.77	13116.36
470.95	13399.57
471.14	13664.05
471.32	13046.15
471.50	13518.93
471.68	13884.06
471.86	13575.11
472.04	13804.48
472.22	14146.20
472.40	13846.61
472.58	13877.04
472.77	14052.58
472.95	14256.20
473.13	14684.52
473.31	14141.52
473.49	14193.01
473.67	14211.73
473.85	14303.01
474.03	14649.41
474.21	14450.47
474.39	14546.43
474.57	15040.28
474.75	15056.67
474.93	14831.97
475.12	14967.73
475.30	15138.58
475.48	15068.37
475.66	15307.10
475.84	15386.68
476.02	15454.56
476.20	15475.62
476.38	15798.62
476.56	16500.78
476.74	16049.05
476.92	15950.75
477.10	15859.47
477.28	16236.30
477.46	16182.46
477.64	16229.27
477.82	16641.21
478.00	16940.80
478.18	16765.26
478.36	17020.38
478.54	17174.85
478.72	17245.07
478.90	17369.12
479.08	17933.18
479.26	17853.61
479.44	17556.36
479.62	17877.01
479.80	18300.65
479.98	18408.31
480.16	18658.75
480.34	18504.28
480.52	18513.64
480.70	18293.63
480.88	18368.52
481.06	18864.72
481.24	19051.96
481.41	19229.84
481.59	19176.01
481.77	19597.31
481.95	19744.76
482.13	19726.04
482.31	19751.78
482.49	20411.81
482.67	20367.34
482.85	20327.55
483.03	20659.91
483.21	20695.02
483.39	20973.54
483.57	20819.07
483.74	21392.50
483.92	21390.16
484.10	21294.19
484.28	21673.36
484.46	22218.71
484.64	22419.99
484.82	21930.82
485.00	22321.69
485.18	22731.28
485.35	23089.38
485.53	22583.83
485.71	22937.25
485.89	23742.39
486.07	23002.78
486.25	23536.43
486.43	23449.83
486.61	23992.83
486.78	24217.52
486.96	24336.89
487.14	24561.58
487.32	24870.53
487.50	24856.49
487.68	24985.22
487.85	25448.64
488.03	25612.48
488.21	26073.57
488.39	25757.60
488.57	26122.72
488.75	26513.59
488.92	26630.62
489.10	26801.47
489.28	26728.92
489.46	27353.84
489.64	26934.88
489.81	27922.59
489.99	27658.11
490.17	27623.00
490.35	28041.96
490.53	28503.04
490.70	28741.78
490.88	28498.36
491.06	29142.01
491.24	28861.15
491.41	29184.14
491.59	29275.42
491.77	29202.86
491.95	29535.22
492.13	29872.26
492.30	30387.18
492.48	29968.22
492.66	30455.05
492.84	30756.98
493.01	30885.71
493.19	30551.01
493.37	31150.19
493.54	31278.92
493.72	31765.75
493.90	31473.18
494.08	31625.32
494.25	32177.68
494.43	32542.81
494.61	32332.16
494.79	32460.89
494.96	32807.29
495.14	32608.34
495.32	33362.00
495.49	33247.31
495.67	33469.66
495.85	33577.33
496.02	33642.86
496.20	34171.82
496.38	34174.16
496.55	34050.11
496.73	35101.01
496.91	34710.14
497.09	34771.00
497.26	35222.72
497.44	35526.99
497.62	35552.74
497.79	36247.88
497.97	35725.94
498.14	36488.95
498.32	36121.49
498.50	36147.23
498.67	36999.19
498.85	36315.75
499.03	36828.33
499.20	36992.17
499.38	36884.50
499.56	36975.78
499.73	37308.14
499.91	37654.54
500.08	37930.72
500.26	37598.37
500.44	37844.12
500.61	38642.24
500.79	37902.64
500.97	38433.94
501.14	38691.40
501.32	38728.84
501.49	38962.90
501.67	38990.98
501.84	39180.57
502.02	39124.40
502.20	39199.29
502.37	39859.32
502.55	39592.50
502.72	39477.82
502.90	39983.37
503.07	39585.48
503.25	40107.42
503.43	40109.76
503.60	39744.64
503.78	40332.11
503.95	40610.64
504.13	40423.39
504.30	40985.12
504.48	40942.99
504.65	40664.47
504.83	41188.75
505.01	41380.67
505.18	41844.10
505.36	41591.32
505.53	41558.55
505.71	41766.86
505.88	42007.94
506.06	41710.69
506.23	42061.77
506.41	42204.54
506.58	42719.46
506.76	42108.58
506.93	42864.57
507.11	42490.09
507.28	43285.87
507.46	42997.98
507.63	42808.40
507.81	43330.34
507.98	43384.17
508.16	43107.99
508.33	43627.59
508.50	43875.68
508.68	43730.57
508.85	44282.94
509.03	44098.03
509.20	44048.88
509.38	44659.76
509.55	44172.93
509.73	44516.99
509.90	44690.19
510.08	45160.64
510.25	44802.53
510.42	45174.68
510.60	45102.12
510.77	45172.34
510.95	45649.81
511.12	44844.66
511.30	45305.75
511.47	45675.55
511.64	45652.15
511.82	46174.09
511.99	45846.41
512.17	46204.52
512.34	46040.68
512.51	46609.43
512.69	47049.45
512.86	46534.53
513.04	46808.37
513.21	46508.79
513.38	47222.65
513.56	46836.46
513.73	47299.89
513.90	47243.71
514.08	47012.00
514.25	47356.06
514.43	47585.43
514.60	48076.94
514.77	47669.69
514.95	47880.34
515.12	47812.46
515.29	47562.03
515.47	47917.79
515.64	48231.42
515.81	48280.57
515.99	48446.75
516.16	48659.74
516.33	48498.24
516.51	48617.61
516.68	48516.96
516.85	48369.51
517.03	49268.28
517.20	49144.23
517.37	48807.19
517.54	49097.42
517.72	49577.23
517.89	49296.36
518.06	49420.41
518.24	49340.83
518.41	49340.83
518.58	49532.76
518.75	49254.23
518.93	49874.48
519.10	49670.85
519.27	50192.79
519.45	49804.26
519.62	49970.44
519.79	49998.52
519.96	50267.69
520.14	50103.85
520.31	50293.43
520.48	50672.60
520.65	50300.45
520.83	50660.90
521.00	50562.59
521.17	51033.04
521.34	50852.82
521.52	50941.76
521.69	50965.17
521.86	51414.55
522.03	51456.68
522.20	51650.94
522.38	51627.54
522.55	51688.39
522.72	51650.94
522.89	51447.32
523.07	52009.04
523.24	51835.84
523.41	51554.98
523.58	51552.64
523.75	51657.96
523.92	52346.08
524.10	52170.54
524.27	52303.95
524.44	52226.71
524.61	52406.94
524.78	52388.21
524.96	52357.78
525.13	52512.26
525.30	52446.72
525.47	52715.89
525.64	52573.11
525.81	52755.68
525.98	52790.78
526.16	52727.59
526.33	52879.72
526.50	53057.60
526.67	52598.86
526.84	53052.92
527.01	52823.55
527.18	53242.51
527.36	52797.80
527.53	53221.44
527.70	53581.88
527.87	53628.69
528.04	53221.44
528.21	53689.55
528.38	53408.68
528.55	53801.89
528.72	53523.37
528.89	53752.74
529.07	53521.03
529.24	53645.08
529.41	53631.04
529.58	53759.76
529.75	53666.14
529.92	53937.65
530.09	54007.86
530.26	54174.04
530.43	53970.41
530.60	54049.99
530.77	54066.38
530.94	54237.23
531.11	54033.61
531.28	54557.89
531.46	54389.37
531.63	54258.30
531.80	54251.28
531.97	54759.17
532.14	54478.31
532.31	54349.58
532.48	54838.75
532.65	54632.78
532.82	54862.16
532.99	55000.25
533.16	54745.13
533.33	55114.94
533.50	54953.44
533.67	55040.04
533.84	54946.42
534.01	55028.34
534.18	55229.62
534.35	55566.66
534.52	55302.18
534.69	55316.22
534.86	55386.44
535.03	55051.74
535.20	55208.56
535.37	55332.60
535.54	55690.71
535.71	55374.73
535.88	55702.41
536.05	55702.41
536.22	55571.34
536.38	55779.65
536.55	55604.11
536.72	55655.60
536.89	55447.29
537.06	55569.00
537.23	55899.01
537.40	55451.97
537.57	55934.12
537.74	55992.64
537.91	56081.58
538.08	56170.52
538.25	55711.77
538.42	56219.67
538.59	56154.13
538.75	55835.82
538.92	56114.34
539.09	56273.50
539.26	56254.78
539.43	56324.99
539.60	56217.33
539.77	56507.55
539.94	56718.20
540.11	56605.86
540.28	56687.78
540.44	56528.62
540.61	56692.46
540.78	56519.26
540.95	56523.94
541.12	56507.55
541.29	56530.96
541.46	56662.03
541.62	56610.54
541.79	56655.01
541.96	56540.32
542.13	56835.23
542.30	56860.97
542.47	57020.13
542.63	56692.46
542.80	56898.42
542.97	57144.18
543.14	57268.23
543.31	57172.27
543.48	57289.29
543.64	57336.10
543.81	57654.42
543.98	57392.28
544.15	57628.67
544.32	57605.26
544.48	57638.03
544.65	57387.60
544.82	57375.89
544.99	57497.60
545.16	57509.30
545.32	57558.45
545.49	57890.81
545.66	57832.30
545.83	57436.75
546.00	57904.85
546.16	57733.99
546.33	57673.14
546.50	57769.10
546.67	57834.64
546.83	57558.45
547.00	57963.37
547.17	57811.23
547.34	57996.13
547.50	58064.01
547.67	58150.61
547.84	57949.32
548.00	58234.87
548.17	58387.00
548.34	58368.28
548.51	58284.02
548.67	58227.85
548.84	58394.03
549.01	58141.25
549.18	58312.11
549.34	58363.60
549.51	58546.16
549.68	58234.87
549.84	58410.41
550.01	58522.76
550.18	58370.62
550.34	58417.43
550.51	58618.72
550.68	58564.88
550.84	58506.37
551.01	58670.21
551.18	58614.04
551.34	58763.83
551.51	58485.31
551.68	58721.70
551.84	58609.35
552.01	58504.03
552.18	58707.66
552.34	58494.67
552.51	58969.80
552.68	58576.59
552.84	58782.55
553.01	59002.56
553.18	58894.90
553.34	58979.16
553.51	58763.83
553.67	59075.12
553.84	59044.69
554.01	59187.47
554.17	59257.68
554.34	59133.63
554.51	59089.16
554.67	59105.55
554.84	58993.20
555.00	59297.47
555.17	58941.71
555.33	59278.75
555.50	59093.85
555.67	58986.18
555.83	59070.44
556.00	59124.27
556.16	59632.17
556.33	59348.96
556.50	59407.48
556.66	59229.60
556.83	59011.93
556.99	59547.91
557.16	59671.96
557.32	59714.09
557.49	59636.85
557.65	59643.87
557.82	59646.21
557.98	59264.70
558.15	59400.46
558.32	59531.53
558.48	59304.49
558.65	59540.89
558.81	59662.60
558.98	59676.64
559.14	59744.51
559.31	59772.60
559.47	59681.32
559.64	59681.32
559.80	59868.56
559.97	59786.64
560.13	59547.91
560.30	59788.98
560.46	59929.42
560.63	59845.16
560.79	59990.27
560.96	59990.27
561.12	59966.87
561.29	59973.89
561.45	59833.46
561.61	59788.98
561.78	59833.46
561.94	59798.35
562.11	59910.69
562.27	60179.85
562.44	60062.83
562.60	60137.72
562.77	60329.65
562.93	59800.69
563.10	59990.27
563.26	60023.04
563.42	60273.48
563.59	60116.66
563.75	59917.71
563.92	59936.44
564.08	60240.71
564.24	60170.49
564.41	60128.36
564.57	60186.88
564.74	60329.65
564.90	60474.76
565.07	60303.90
565.23	60090.91
565.39	60336.67
565.56	60198.58
565.72	60191.56
565.88	60261.77
566.05	60282.84
566.21	60240.71
566.38	60184.54
566.54	60460.72
566.70	60481.78
566.87	60383.48
567.03	60266.45
567.19	60530.93
567.36	60334.33
567.52	60547.32
567.68	60727.54
567.85	60645.62
568.01	60488.80
568.17	60357.74
568.34	60601.15
568.50	60343.69
568.66	60327.31
568.83	60484.12
568.99	60502.85
569.15	60612.85
569.32	60491.15
569.48	60317.95
569.64	60760.31
569.81	60608.17
569.97	60505.19
570.13	60587.11
570.30	60390.50
570.46	60535.62
570.62	60582.43
570.78	60467.74
570.95	60395.18
571.11	60844.57
571.27	60767.33
571.43	60671.37
571.60	60736.90
571.76	60729.88
571.92	60521.57
572.09	60474.76
572.25	60640.94
572.41	60594.13
572.57	60753.29
572.74	60790.73
572.90	60746.26
573.06	60687.75
573.22	60636.26
573.38	60872.65
573.55	60732.22
573.71	60750.94
573.87	60800.10
574.03	60729.88
574.20	60846.91
574.36	60809.46
574.52	60772.01
574.68	60907.76
574.84	60910.10
575.01	60818.82
575.17	60746.26
575.33	60849.25
575.49	60596.47
575.65	60706.47
575.82	60842.23
575.98	60814.14
576.14	60828.18
576.30	60725.20
576.46	61020.11
576.62	60760.31
576.79	60666.69
576.95	60692.43
577.11	60860.95
577.27	60949.89
577.43	60992.02
577.59	60823.50
577.75	60746.26
577.92	60746.26
578.08	60598.81
578.24	60846.91
578.40	61176.92
578.56	61216.71
578.72	60795.42
578.88	61003.72
579.04	60992.02
579.21	60926.49
579.37	61022.45
579.53	61085.64
579.69	60788.39
579.85	61015.43
580.01	60863.29
580.17	60713.50
580.33	60837.54
580.49	61111.39
580.65	61216.71
580.82	61038.83
580.98	60879.67
581.14	60992.02
581.30	61277.57
581.46	61069.26
581.62	61123.09
581.78	61027.13
581.94	61183.94
582.10	61024.79
582.26	61006.06
582.42	61034.15
582.58	60968.61
582.74	60889.04
582.90	61057.56
583.06	60905.42
583.22	60870.31
583.38	60954.57
583.54	61015.43
583.70	61076.28
583.86	61261.18
584.02	61111.39
584.18	61235.44
584.34	61050.53
584.50	61113.73
584.66	61132.45
584.82	60863.29
584.98	61183.94
585.14	61071.60
585.30	60992.02
585.46	61041.17
585.62	61200.33
585.78	61176.92
585.94	60949.89
586.10	61263.52
586.26	61223.73
586.42	61055.21
586.58	61272.88
586.74	61059.90
586.90	60856.27
587.06	61209.69
587.22	61343.10
587.38	61205.01
587.54	61345.44
587.70	61286.93
587.86	61354.80
588.02	61153.52
588.18	61614.60
588.34	61083.30
588.49	61050.53
