SpectraSuite Data File
++++++++++++++++++++++++++++++++++++
Date: Fri Oct 25 11:25:48 EDT 2013
User: price-jones
Dark Spectrum Present: No
Reference Spectrum Present: No
Number of Sampled Component Spectra: 1
Spectrometers: USB2+H05261
Integration Time (usec): 100000 (USB2+H05261)
Spectra Averaged: 1 (USB2+H05261)
Boxcar Smoothing: 0 (USB2+H05261)
Correct for Electrical Dark: No (USB2+H05261)
Strobe/Lamp Enabled: No (USB2+H05261)
Correct for Detector Non-linearity: No (USB2+H05261)
Correct for Stray Light: No (USB2+H05261)
Number of Pixels in Processed Spectrum: 2048
>>>>>Begin Processed Spectral Data<<<<<
365.73	234.05
365.92	234.05
366.12	234.05
366.32	163.84
366.52	166.18
366.72	166.18
366.91	95.96
367.11	159.16
367.31	145.11
367.51	128.73
367.70	140.43
367.90	145.11
368.10	70.22
368.30	114.69
368.49	126.39
368.69	112.35
368.89	135.75
369.09	180.22
369.28	196.60
369.48	205.97
369.68	238.73
369.87	138.09
370.07	187.24
370.27	259.80
370.47	322.99
370.66	585.13
370.86	643.65
371.06	627.26
371.25	674.07
371.45	706.84
371.65	716.20
371.84	699.82
372.04	716.20
372.24	779.40
372.44	716.20
372.63	706.84
372.83	725.57
373.03	709.18
373.22	727.91
373.42	739.61
373.62	770.04
373.81	854.30
374.01	779.40
374.21	816.85
374.40	849.61
374.60	847.27
374.79	772.38
374.99	840.25
375.19	870.68
375.38	873.02
375.58	800.46
375.78	809.83
375.97	856.64
376.17	882.38
376.37	873.02
376.56	924.51
376.76	802.80
376.95	891.74
377.15	912.81
377.35	933.87
377.54	929.19
377.74	837.91
377.93	926.85
378.13	922.17
378.33	905.79
378.52	924.51
378.72	854.30
378.91	936.21
379.11	943.24
379.31	968.98
379.50	936.21
379.70	961.96
379.89	1006.43
380.09	1057.92
380.28	999.41
380.48	1011.11
380.68	1064.94
380.87	1004.09
381.07	931.53
381.26	1043.88
381.46	980.68
381.65	945.58
381.85	1057.92
382.04	978.34
382.24	999.41
382.43	997.07
382.63	992.39
382.83	1015.79
383.02	1067.28
383.22	1181.97
383.41	1067.28
383.61	1160.91
383.80	1181.97
384.00	1048.56
384.19	1104.73
384.39	1086.01
384.58	1081.33
384.78	1149.20
384.97	1177.29
385.17	1109.41
385.36	1172.61
385.56	1203.04
385.75	1146.86
385.95	1221.76
386.14	1128.14
386.34	1170.27
386.53	1214.74
386.72	1214.74
386.92	1193.67
387.11	1205.38
387.31	1254.53
387.50	1284.95
387.70	1254.53
387.89	1252.19
388.09	1235.80
388.28	1259.21
388.48	1341.13
388.67	1425.39
388.86	1299.00
389.06	1315.38
389.25	1313.04
389.45	1317.72
389.64	1343.47
389.84	1373.89
390.03	1453.47
390.22	1376.24
390.42	1315.38
390.61	1310.70
390.81	1306.02
391.00	1345.81
391.19	1500.28
391.39	1462.83
391.58	1502.62
391.78	1519.01
391.97	1385.60
392.16	1432.41
392.36	1530.71
392.55	1486.24
392.75	1617.31
392.94	1528.37
393.13	1476.88
393.33	1558.80
393.52	1603.27
393.71	1675.82
393.91	1666.46
394.10	1568.16
394.29	1558.80
394.49	1596.25
394.68	1659.44
394.88	1617.31
395.07	1673.48
395.26	1743.70
395.46	1710.93
395.65	1748.38
395.84	1680.50
396.04	1785.83
396.23	1781.15
396.42	1645.40
396.62	1778.81
396.81	1823.28
397.00	1760.08
397.19	1760.08
397.39	1790.51
397.58	1809.23
397.77	1865.41
397.97	1823.28
398.16	1853.70
398.35	1956.69
398.55	1853.70
398.74	1961.37
398.93	1968.39
399.12	1834.98
399.32	1865.41
399.51	1900.52
399.70	2057.33
399.90	2003.50
400.09	1989.46
400.28	2054.99
400.47	2064.35
400.67	2064.35
400.86	2019.88
401.05	2094.78
401.24	2092.44
401.44	2092.44
401.63	2125.21
401.82	2097.12
402.01	2113.50
402.21	2279.68
402.40	2127.55
402.59	2136.91
402.78	2172.02
402.97	2186.06
403.17	2267.98
403.36	2235.21
403.55	2188.40
403.74	2370.96
403.93	2392.03
404.13	2361.60
404.32	2394.37
404.51	2399.05
404.70	2347.56
404.89	2459.90
405.09	2396.71
405.28	2424.80
405.47	2429.48
405.66	2590.97
405.85	2429.48
406.05	2516.08
406.24	2511.39
406.43	2471.61
406.62	2534.80
406.81	2593.31
407.00	2511.39
407.20	2457.56
407.39	2537.14
407.58	2789.92
407.77	2771.19
407.96	2871.84
408.15	2806.30
408.34	2644.81
408.54	2738.43
408.73	2771.19
408.92	2738.43
409.11	2932.69
409.30	2829.71
409.49	2820.35
409.68	2916.31
409.87	2857.79
410.07	2993.55
410.26	2972.48
410.45	2988.86
410.64	2925.67
410.83	3016.95
411.02	3112.91
411.21	3166.74
411.40	3019.29
411.59	3204.19
411.78	3166.74
411.98	3136.32
412.17	3232.28
412.36	3173.77
412.55	3403.14
412.74	3337.60
412.93	3466.33
413.12	3344.63
413.31	3398.46
413.50	3569.32
413.69	3431.23
413.88	3529.53
414.07	3707.41
414.26	3564.64
414.45	3709.75
414.64	3686.34
414.83	3693.37
415.02	3705.07
415.22	3758.90
415.41	3833.80
415.60	3840.82
415.79	3957.85
415.98	4004.66
416.17	3894.65
416.36	3950.82
416.55	3988.27
416.74	4039.76
416.93	4046.79
417.12	4002.32
417.31	4100.62
417.50	4168.49
417.69	4177.86
417.88	4334.67
418.07	4332.33
418.26	4219.99
418.45	4353.40
418.64	4294.88
418.83	4454.04
419.02	4571.07
419.21	4500.85
419.39	4482.13
419.58	4496.17
419.77	4386.16
419.96	4599.15
420.15	4545.32
420.34	4510.21
420.53	4568.73
420.72	4648.30
420.91	4704.48
421.10	4734.90
421.29	4692.77
421.48	4720.86
421.67	4620.22
421.86	4725.54
422.05	4800.44
422.24	4770.01
422.43	4765.33
422.61	4823.84
422.80	4990.02
422.99	4865.97
423.18	4936.19
423.37	4945.55
423.56	4910.44
423.75	4819.16
423.94	4592.13
424.13	4554.68
424.32	4662.35
424.50	5085.98
424.69	5057.90
424.88	4936.19
425.07	4966.62
425.26	4994.70
425.45	4964.28
425.64	4809.80
425.83	4999.38
426.01	4877.68
426.20	4924.49
426.39	4992.36
426.58	5053.22
426.77	5067.26
426.96	5041.51
427.15	5139.82
427.33	5085.98
427.52	5142.16
427.71	5179.61
427.90	5198.33
428.09	5287.27
428.28	5439.40
428.46	5242.80
428.65	5359.83
428.84	5430.04
429.03	5472.17
429.22	5453.45
429.40	5483.88
429.59	5390.25
429.78	5245.14
429.97	5128.11
430.16	5579.84
430.34	5584.52
430.53	5675.80
430.72	5514.30
430.91	5628.99
431.10	5476.85
431.28	5738.99
431.47	5720.27
431.66	5762.40
431.85	5703.89
432.03	5825.59
432.22	5935.60
432.41	5921.56
432.60	5856.02
432.79	5905.17
432.97	5921.56
433.16	5970.71
433.35	6022.20
433.54	6019.86
433.72	6069.01
433.91	5963.68
434.10	6244.55
434.28	6083.05
434.47	6099.44
434.66	6167.31
434.85	6272.64
435.03	6307.74
435.22	6221.14
435.41	6436.47
435.59	6340.51
435.78	6427.11
435.97	6476.26
436.16	6483.28
436.34	6434.13
436.53	6473.92
436.72	6560.52
436.90	6494.99
437.09	6565.20
437.28	6420.09
437.46	6511.37
437.65	6642.44
437.84	6846.07
438.02	6658.82
438.21	6923.30
438.40	6654.14
438.58	7073.10
438.77	6932.67
438.96	6867.13
439.14	7049.69
439.33	7138.63
439.52	7176.08
439.70	7201.83
439.89	7316.51
440.08	7180.76
440.26	7288.43
440.45	7396.09
440.63	7377.37
440.82	7515.46
441.01	7520.14
441.19	7468.65
441.38	7796.32
441.57	7653.55
441.75	7810.37
441.94	7831.43
442.12	7925.05
442.31	7964.84
442.50	8016.33
442.68	7915.69
442.87	8086.55
443.05	7969.52
443.24	8273.79
443.43	8278.47
443.61	8219.96
443.80	8421.25
443.98	8042.08
444.17	7733.13
444.35	8226.98
444.54	8358.05
444.73	8336.99
444.91	7948.46
445.10	8400.18
445.28	8367.42
445.47	8149.75
445.65	8418.91
445.84	8421.25
446.02	8411.89
446.21	8489.12
446.39	8400.18
446.58	8463.38
446.77	8580.40
446.95	8138.04
447.14	8564.02
447.32	8465.72
447.51	8463.38
447.69	8486.78
447.88	8519.55
448.06	8624.87
448.25	8351.03
448.43	8535.93
448.62	8329.97
448.80	8442.31
448.99	8765.31
449.17	8650.62
449.36	8713.81
449.54	8779.35
449.73	8994.68
449.91	8968.93
450.10	8933.82
450.28	8950.21
450.46	8978.30
450.65	8933.82
450.83	8973.61
451.02	9078.94
451.20	9217.03
451.39	9097.66
451.57	9303.63
451.76	9163.20
451.94	9041.49
452.13	9151.49
452.31	9163.20
452.49	9104.68
452.68	9385.55
452.86	9195.96
453.05	9322.35
453.23	9451.08
453.42	9511.94
453.60	9327.03
453.78	9675.77
453.97	9345.76
454.15	9554.07
454.34	9394.91
454.52	9666.41
454.70	9607.90
454.89	9582.15
455.07	9561.09
455.26	9834.93
455.44	9848.97
455.62	9914.51
455.81	9905.15
455.99	9706.20
456.17	9916.85
456.36	9977.70
456.54	10052.60
456.73	10246.87
456.91	10317.08
457.09	10455.17
457.28	10473.90
457.46	10181.33
457.64	10464.54
457.83	10494.96
458.01	10387.30
458.19	10635.39
458.38	10523.05
458.56	10733.70
458.74	10745.40
458.93	10548.79
459.11	10602.63
459.29	10801.57
459.48	10803.91
459.66	10726.68
459.84	10993.50
460.03	10958.39
460.21	10930.30
460.39	10871.79
460.57	10764.12
460.76	11206.48
460.94	11143.29
461.12	11180.74
461.31	10963.07
461.49	11243.93
461.67	11119.89
461.85	11477.99
462.04	11236.91
462.22	11639.48
462.40	11363.30
462.59	11529.48
462.77	11606.72
462.95	11417.13
463.13	11466.28
463.32	11480.33
463.50	11559.91
463.68	11688.64
463.86	11864.18
464.05	11756.51
464.23	11653.53
464.41	11742.47
464.59	11674.59
464.78	12072.48
464.96	12025.67
465.14	11768.21
465.32	11946.09
465.50	12105.25
465.69	12294.83
465.87	11871.20
466.05	12044.40
466.23	12154.40
466.41	11915.67
466.60	12285.47
466.78	11885.24
466.96	12285.47
467.14	12198.87
467.32	12341.64
467.51	12322.92
467.69	11955.46
467.87	12449.31
468.05	12430.59
468.23	12521.87
468.41	12437.61
468.60	12549.95
468.78	12594.42
468.96	12463.35
469.14	12650.60
469.32	13153.81
469.50	12524.21
469.69	12819.11
469.87	13121.04
470.05	13188.92
470.23	13090.62
470.41	12957.21
470.59	13415.95
470.77	13280.20
470.95	13205.30
471.14	13432.33
471.32	13172.54
471.50	13429.99
471.68	13507.23
471.86	13467.44
472.04	13544.68
472.22	13914.48
472.40	13556.38
472.58	13881.72
472.77	13752.99
472.95	14085.34
473.13	14487.92
473.31	14120.45
473.49	14324.08
473.67	14244.50
473.85	14267.91
474.03	14611.96
474.21	14595.58
474.39	14640.05
474.57	14726.65
474.75	14862.40
474.93	14993.47
475.12	14771.12
475.30	15166.67
475.48	14813.25
475.66	15213.48
475.84	15253.27
476.02	15246.25
476.20	15281.36
476.38	15594.99
476.56	16128.63
476.74	15943.73
476.92	15833.72
477.10	15957.77
477.28	16032.67
477.46	16175.44
477.64	16336.94
477.82	16367.37
478.00	16896.33
478.18	16610.78
478.36	17158.47
478.54	17179.53
478.72	16985.27
478.90	17238.05
479.08	17334.01
479.26	17724.88
479.44	17563.38
479.62	17888.71
479.80	17834.88
479.98	17930.84
480.16	18281.92
480.34	18267.88
480.52	18537.04
480.70	18485.55
480.88	18267.88
481.06	18546.40
481.24	18705.56
481.41	18834.29
481.59	19091.75
481.77	19370.27
481.95	19697.95
482.13	19506.02
482.31	19494.32
482.49	19969.45
482.67	19941.36
482.85	20592.03
483.03	20847.15
483.21	20741.83
483.39	21221.64
483.57	20996.95
483.74	20936.09
483.92	21116.31
484.10	21142.06
484.28	21783.37
484.46	21834.86
484.64	22553.40
484.82	22012.74
485.00	22260.84
485.18	22216.36
485.35	22625.96
485.53	22565.10
485.71	23007.47
485.89	23278.97
486.07	23229.82
486.25	23285.99
486.43	23332.80
486.61	23587.92
486.78	23887.51
486.96	23915.59
487.14	24592.01
487.32	24439.87
487.50	25060.12
487.68	24868.19
487.85	25387.79
488.03	24851.81
488.21	25799.73
488.39	25865.26
488.57	25862.92
488.75	26071.23
488.92	26302.94
489.10	26541.68
489.28	26614.23
489.46	26843.60
489.64	26731.26
489.81	27515.34
489.99	27508.32
490.17	27833.65
490.35	27934.29
490.53	28215.16
490.70	28484.32
490.88	28041.96
491.06	28535.81
491.24	28833.06
491.41	29160.73
491.59	29310.53
491.77	29256.70
491.95	29668.63
492.13	29607.78
492.30	30068.86
492.48	29947.15
492.66	30038.44
492.84	30284.19
493.01	30412.92
493.19	30506.54
493.37	30728.89
493.54	31094.02
493.72	31342.11
493.90	31204.02
494.08	31379.56
494.25	31494.25
494.43	31892.14
494.61	32084.06
494.79	32346.20
494.96	32385.99
495.14	32526.42
495.32	32746.44
495.49	32811.97
495.67	32875.16
495.85	33179.43
496.02	33387.74
496.20	33795.00
496.38	33848.83
496.55	34066.50
496.73	34775.68
496.91	34536.94
497.09	34841.21
497.26	34850.58
497.44	34796.74
497.62	35009.73
497.79	35519.97
497.97	35349.11
498.14	35620.61
498.32	35885.09
498.50	36137.87
498.67	36259.58
498.85	36552.15
499.03	36540.44
499.20	36266.60
499.38	36540.44
499.56	36643.43
499.73	37146.64
499.91	37589.00
500.08	37329.20
500.26	37118.56
500.44	37635.81
500.61	37471.98
500.79	37198.13
500.97	38185.84
501.14	38377.76
501.32	38511.17
501.49	37975.19
501.67	38211.59
501.84	38792.04
502.02	38478.41
502.20	38920.77
502.37	39122.05
502.55	39248.44
502.72	39117.37
502.90	39243.76
503.07	39428.66
503.25	39693.15
503.43	39728.25
503.60	39618.25
503.78	40179.98
503.95	40076.99
504.13	40304.02
504.30	40662.13
504.48	40657.45
504.65	40479.57
504.83	40737.02
505.01	41029.59
505.18	40847.03
505.36	41195.77
505.53	40760.43
505.71	41467.27
505.88	41755.16
506.06	41429.82
506.23	41867.50
506.41	41783.24
506.58	41979.85
506.76	41862.82
506.93	41991.55
507.11	42061.77
507.28	42354.33
507.46	42211.56
507.63	42607.11
507.81	43075.22
507.98	42838.83
508.16	42747.54
508.33	43320.98
508.50	43042.45
508.68	43213.31
508.85	43533.96
509.03	43732.91
509.20	43805.47
509.38	44144.84
509.55	44301.66
509.73	44332.09
509.90	44376.56
510.08	44151.87
510.25	44474.86
510.42	44362.51
510.60	44889.13
510.77	45230.85
510.95	45483.63
511.12	44917.22
511.30	45104.46
511.47	45509.38
511.64	45724.71
511.82	45778.54
511.99	45352.56
512.17	45837.05
512.34	45549.17
512.51	46057.06
512.69	46609.43
512.86	46213.88
513.04	46522.83
513.21	46548.57
513.38	46639.86
513.56	46810.71
513.73	46504.10
513.90	46693.69
514.08	46485.38
514.25	47173.50
514.43	47435.64
514.60	46887.95
514.77	47285.84
514.95	47285.84
515.12	47463.72
515.29	47377.12
515.47	47552.66
515.64	48186.95
515.81	47732.89
515.99	48018.43
516.16	48282.91
516.33	48088.65
516.51	48479.52
516.68	48058.22
516.85	48102.69
517.03	48556.75
517.20	48734.63
517.37	48231.42
517.54	48636.33
517.72	49017.84
517.89	48718.25
518.06	49261.26
518.24	48889.11
518.41	49055.29
518.58	49172.31
518.75	49015.50
518.93	49298.70
519.10	49265.94
519.27	49188.70
519.45	49350.20
519.62	49792.56
519.79	49766.81
519.96	49867.45
520.14	50148.32
520.31	49797.24
520.48	50302.79
520.65	50504.08
520.83	50412.80
521.00	50382.37
521.17	50707.71
521.34	50586.00
521.52	50810.69
521.69	50586.00
521.86	50770.90
522.03	50887.93
522.20	51072.83
522.38	51007.29
522.55	51131.34
522.72	51480.08
522.89	51349.01
523.07	51615.83
523.24	51576.04
523.41	51702.43
523.58	51091.55
523.75	51449.66
523.92	51241.35
524.10	51910.74
524.27	51779.67
524.44	51782.01
524.61	51786.69
524.78	52334.38
524.96	52048.83
525.13	52222.03
525.30	51995.00
525.47	52109.69
525.64	52385.87
525.81	52484.17
525.98	52720.57
526.16	52215.01
526.33	52332.04
526.50	52816.53
526.67	52589.50
526.84	52774.40
527.01	52598.86
527.18	52720.57
527.36	52589.50
527.53	53169.95
527.70	53001.43
527.87	53141.86
528.04	53085.69
528.21	53244.85
528.38	53574.86
528.55	53476.56
528.72	53069.31
528.89	53275.27
529.07	53090.37
529.24	53544.44
529.41	53628.69
529.58	53558.48
529.75	53677.85
529.92	53727.00
530.09	53825.30
530.26	53502.31
530.43	53860.41
530.60	53668.48
530.77	53607.63
530.94	53764.45
531.11	53762.11
531.28	53858.07
531.46	54035.95
531.63	54068.72
531.80	53977.43
531.97	54181.06
532.14	54218.51
532.31	54349.58
532.48	54731.09
532.65	54501.71
532.82	54152.97
532.99	54590.66
533.16	54532.14
533.33	54866.84
533.50	54632.78
533.67	54841.09
533.84	54880.88
534.01	54651.51
534.18	54850.45
534.35	55061.10
534.52	54871.52
534.69	54976.84
534.86	54759.17
535.03	54749.81
535.20	55058.76
535.37	55243.66
535.54	55276.43
535.71	55133.66
535.88	55267.07
536.05	55154.72
536.22	55346.65
536.38	55510.49
536.55	55618.15
536.72	55299.84
536.89	55341.97
537.06	55517.51
537.23	55433.25
537.40	55341.97
537.57	55487.08
537.74	55604.11
537.91	55896.67
538.08	55987.95
538.25	55543.25
538.42	55667.30
538.59	56030.08
538.75	56020.72
538.92	56004.34
539.09	56123.71
539.26	55845.18
539.43	55929.44
539.60	56179.88
539.77	55903.70
539.94	56390.53
540.11	56048.81
540.28	56332.01
540.44	56222.01
540.61	56371.80
540.78	56470.11
540.95	56069.87
541.12	56420.95
541.29	56306.27
541.46	56355.42
541.62	56577.77
541.79	56896.08
541.96	56488.83
542.13	56645.65
542.30	56495.85
542.47	56816.50
542.63	56795.44
542.80	56797.78
542.97	56952.26
543.14	57233.12
543.31	57050.56
543.48	57392.28
543.64	57401.64
543.81	57073.96
543.98	57235.46
544.15	57144.18
544.32	57165.24
544.48	57378.23
544.65	57228.44
544.82	57277.59
544.99	57038.86
545.16	57188.65
545.32	57387.60
545.49	57609.95
545.66	57659.10
545.83	57506.96
546.00	57396.96
546.16	57528.03
546.33	57485.90
546.50	57415.68
546.67	57570.16
546.83	57176.95
547.00	57513.98
547.17	57528.03
547.34	57663.78
547.50	57911.88
547.67	57982.09
547.84	57832.30
548.00	57701.23
548.17	58230.19
548.34	58089.76
548.51	58059.33
548.67	58204.44
548.84	57949.32
549.01	58042.95
549.18	58042.95
549.34	58209.12
549.51	58014.86
549.68	58211.46
549.84	58166.99
550.01	58145.93
550.18	58049.97
550.34	58340.19
550.51	58279.34
550.68	58216.14
550.84	58223.17
551.01	58328.49
551.18	58319.13
551.34	58274.66
551.51	58541.48
551.68	58382.32
551.84	58433.81
552.01	58316.79
552.18	58419.77
552.34	58403.39
552.51	58607.01
552.68	58501.69
552.84	58576.59
553.01	58770.85
553.18	58796.60
553.34	58754.47
553.51	58646.80
553.67	58777.87
553.84	58824.68
554.01	58700.64
554.17	58920.65
554.34	59025.97
554.51	59049.38
554.67	59021.29
554.84	58883.20
555.00	58871.49
555.17	58911.28
555.33	59065.76
555.50	58838.73
555.67	58801.28
555.83	58843.41
556.00	59107.89
556.16	59384.07
556.33	59096.19
556.50	59072.78
556.66	59351.30
556.83	59011.93
556.99	59107.89
557.16	59299.81
557.32	59447.27
557.49	59632.17
557.65	59157.04
557.82	59363.01
557.98	59138.32
558.15	59405.14
558.32	59456.63
558.48	59180.45
558.65	59351.30
558.81	59402.80
558.98	59281.09
559.14	59550.25
559.31	59426.20
559.47	59426.20
559.64	59437.90
559.80	59601.74
559.97	59515.14
560.13	59428.54
560.30	59512.80
560.46	59435.56
560.63	59934.10
560.79	59693.02
560.96	59714.09
561.12	59667.28
561.29	59538.55
561.45	59814.73
561.61	59725.79
561.78	59845.16
561.94	59751.54
562.11	59709.41
562.27	59662.60
562.44	60055.81
562.60	59882.61
562.77	59922.40
562.93	59856.86
563.10	60104.96
563.26	59903.67
563.42	59983.25
563.59	59976.23
563.75	59772.60
563.92	59922.40
564.08	59955.16
564.24	60135.38
564.41	60104.96
564.57	60006.65
564.74	59952.82
564.90	60065.17
565.07	59971.55
565.23	60051.12
565.39	60048.78
565.56	60074.53
565.72	59985.59
565.88	60200.92
566.05	60027.72
566.21	60072.19
566.38	60055.81
566.54	60336.67
566.70	60114.32
566.87	60292.20
567.03	60102.62
567.19	60420.93
567.36	60095.60
567.52	60179.85
567.68	60378.80
567.85	60233.69
568.01	60317.95
568.17	60252.41
568.34	60308.58
568.50	60140.07
568.66	60119.00
568.83	60406.89
568.99	59966.87
569.15	60271.14
569.32	60402.21
569.48	60191.56
569.64	60399.86
569.81	60423.27
569.97	60271.14
570.13	60233.69
570.30	60023.04
570.46	60346.03
570.62	60390.50
570.78	60275.82
570.95	60287.52
571.11	60683.07
571.27	60390.50
571.43	60346.03
571.60	60514.55
571.76	60561.36
571.92	60507.53
572.09	60355.39
572.25	60292.20
572.41	60444.33
572.57	60423.27
572.74	60711.16
572.90	60544.98
573.06	60456.04
573.22	60397.52
573.38	60643.28
573.55	60631.58
573.71	60720.52
573.87	60533.28
574.03	60479.44
574.20	60638.60
574.36	60289.86
574.52	60638.60
574.68	60748.60
574.84	60608.17
575.01	60725.20
575.17	60467.74
575.33	60530.93
575.49	60652.64
575.65	60523.91
575.82	60734.56
575.98	60727.54
576.14	60882.02
576.30	60708.82
576.46	60547.32
576.62	60832.86
576.79	60659.66
576.95	60617.53
577.11	60594.13
577.27	60617.53
577.43	60701.79
577.59	60706.47
577.75	60671.37
577.92	60514.55
578.08	60526.25
578.24	60580.09
578.40	60816.48
578.56	60779.03
578.72	60722.86
578.88	60874.99
579.04	61087.98
579.21	60769.67
579.37	60893.72
579.53	60816.48
579.69	60605.83
579.85	60690.09
580.01	60814.14
580.17	60793.07
580.33	60779.03
580.49	60783.71
580.65	60970.96
580.82	60863.29
580.98	60645.62
581.14	60617.53
581.30	60865.63
581.46	60673.71
581.62	60666.69
581.78	60633.92
581.94	60767.33
582.10	60734.56
582.26	60587.11
582.42	60877.33
582.58	60772.01
582.74	60802.44
582.90	60804.78
583.06	60884.36
583.22	60690.09
583.38	60891.38
583.54	60832.86
583.70	60917.12
583.86	60966.27
584.02	60631.58
584.18	60814.14
584.34	60767.33
584.50	61036.49
584.66	60753.29
584.82	60687.75
584.98	61024.79
585.14	60774.35
585.30	60886.70
585.46	61029.47
585.62	60942.87
585.78	61050.53
585.94	60727.54
586.10	60919.46
586.26	61197.99
586.42	60933.51
586.58	61066.92
586.74	60867.97
586.90	60764.99
587.06	60921.80
587.22	60893.72
587.38	60811.80
587.54	61071.60
587.70	61256.50
587.86	60926.49
588.02	61073.94
588.18	60949.89
588.34	61010.74
588.49	60982.66
