SpectraSuite Data File
++++++++++++++++++++++++++++++++++++
Date: Fri Oct 25 11:23:01 EDT 2013
User: price-jones
Dark Spectrum Present: No
Reference Spectrum Present: No
Number of Sampled Component Spectra: 1
Spectrometers: USB2+H05261
Integration Time (usec): 100000 (USB2+H05261)
Spectra Averaged: 1 (USB2+H05261)
Boxcar Smoothing: 0 (USB2+H05261)
Correct for Electrical Dark: No (USB2+H05261)
Strobe/Lamp Enabled: No (USB2+H05261)
Correct for Detector Non-linearity: No (USB2+H05261)
Correct for Stray Light: No (USB2+H05261)
Number of Pixels in Processed Spectrum: 2048
>>>>>Begin Processed Spectral Data<<<<<
365.73	290.23
365.92	290.23
366.12	290.23
366.32	175.54
366.52	4.68
366.72	110.01
366.91	117.03
367.11	67.88
367.31	102.98
367.51	119.37
367.70	140.43
367.90	154.48
368.10	126.39
368.30	126.39
368.49	91.28
368.69	152.13
368.89	58.51
369.09	86.60
369.28	201.29
369.48	177.88
369.68	184.90
369.87	189.58
370.07	243.42
370.27	203.63
370.47	294.91
370.66	617.90
370.86	582.79
371.06	704.50
371.25	636.63
371.45	557.05
371.65	603.86
371.84	688.12
372.04	631.94
372.24	763.01
372.44	702.16
372.63	753.65
372.83	709.18
373.03	760.67
373.22	713.86
373.42	772.38
373.62	807.48
373.81	786.42
374.01	873.02
374.21	837.91
374.40	816.85
374.60	882.38
374.79	805.14
374.99	826.21
375.19	861.32
375.38	734.93
375.58	861.32
375.78	835.57
375.97	877.70
376.17	940.90
376.37	875.36
376.56	821.53
376.76	851.96
376.95	772.38
377.15	866.00
377.35	896.43
377.54	802.80
377.74	863.66
377.93	931.53
378.13	844.93
378.33	929.19
378.52	940.90
378.72	980.68
378.91	926.85
379.11	957.28
379.31	919.83
379.50	947.92
379.70	1008.77
379.89	990.05
380.09	931.53
380.28	1020.47
380.48	1034.52
380.68	997.07
380.87	978.34
381.07	1032.18
381.26	987.71
381.46	1060.26
381.65	952.60
381.85	1015.79
382.04	1036.86
382.24	1074.31
382.43	1081.33
382.63	1029.84
382.83	1081.33
383.02	1135.16
383.22	1142.18
383.41	1055.58
383.61	1116.44
383.80	1076.65
384.00	1146.86
384.19	1053.24
384.39	1128.14
384.58	1196.01
384.78	1121.12
384.97	1132.82
385.17	1149.20
385.36	1125.80
385.56	1100.05
385.75	1090.69
385.95	1191.33
386.14	1228.78
386.34	1107.07
386.53	1198.35
386.72	1160.91
386.92	1226.44
387.11	1233.46
387.31	1186.65
387.50	1160.91
387.70	1205.38
387.89	1231.12
388.09	1247.51
388.28	1315.38
388.48	1301.34
388.67	1268.57
388.86	1362.19
389.06	1406.66
389.25	1359.85
389.45	1338.79
389.64	1289.64
389.84	1345.81
390.03	1355.17
390.22	1413.68
390.42	1364.53
390.61	1458.15
390.81	1348.15
391.00	1467.52
391.19	1462.83
391.39	1401.98
391.58	1472.20
391.78	1528.37
391.97	1486.24
392.16	1425.39
392.36	1556.46
392.55	1493.26
392.75	1472.20
392.94	1469.86
393.13	1586.88
393.33	1509.65
393.52	1530.71
393.71	1565.82
393.91	1638.38
394.10	1558.80
394.29	1586.88
394.49	1582.20
394.68	1582.20
394.88	1621.99
395.07	1755.40
395.26	1619.65
395.46	1713.27
395.65	1736.68
395.84	1736.68
396.04	1783.49
396.23	1806.89
396.42	1706.25
396.62	1673.48
396.81	1769.44
397.00	1673.48
397.19	1870.09
397.39	1785.83
397.58	1837.32
397.77	1769.44
397.97	1909.88
398.16	1811.57
398.35	1923.92
398.55	1811.57
398.74	1891.15
398.93	1952.01
399.12	1865.41
399.32	1996.48
399.51	2024.56
399.70	2031.58
399.90	1923.92
400.09	2015.20
400.28	2050.31
400.47	2052.65
400.67	2083.08
400.86	2087.76
401.05	2043.29
401.24	2090.10
401.44	2153.29
401.63	2153.29
401.82	2174.36
402.01	2127.55
402.21	2211.81
402.40	2146.27
402.59	2193.08
402.78	2244.57
402.97	2331.17
403.17	2200.10
403.36	2328.83
403.55	2335.85
403.74	2335.85
403.93	2359.26
404.13	2317.13
404.32	2207.13
404.51	2340.54
404.70	2464.58
404.89	2466.92
405.09	2485.65
405.28	2518.42
405.47	2487.99
405.66	2520.76
405.85	2448.20
406.05	2579.27
406.24	2511.39
406.43	2527.78
406.62	2698.64
406.81	2651.83
407.00	2663.53
407.20	2642.46
407.39	2586.29
407.58	2782.90
407.77	2717.36
407.96	2787.58
408.15	2860.13
408.34	2913.97
408.54	2855.45
408.73	2738.43
408.92	2881.20
409.11	2813.32
409.30	2897.58
409.49	2810.98
409.68	3000.57
409.87	2911.63
410.07	3023.97
410.26	2974.82
410.45	3030.99
410.64	2946.73
410.83	3009.93
411.02	3087.17
411.21	3115.25
411.40	3112.91
411.59	3281.43
411.78	3232.28
411.98	3192.49
412.17	3323.56
412.36	3300.16
412.55	3435.91
412.74	3321.22
412.93	3410.16
413.12	3417.18
413.31	3557.61
413.50	3545.91
413.69	3461.65
413.88	3445.27
414.07	3562.30
414.26	3648.90
414.45	3632.51
414.64	3794.01
414.83	3751.88
415.02	3712.09
415.22	3751.88
415.41	3920.40
415.60	3936.78
415.79	3925.08
415.98	3889.97
416.17	4009.34
416.36	3882.95
416.55	3908.69
416.74	3999.98
416.93	4088.92
417.12	4173.18
417.31	4205.94
417.50	4205.94
417.69	4348.72
417.88	4318.29
418.07	4273.82
418.26	4341.69
418.45	4432.97
418.64	4493.83
418.83	4470.42
419.02	4491.49
419.21	4362.76
419.39	4498.51
419.58	4447.02
419.77	4381.48
419.96	4582.77
420.15	4615.54
420.34	4468.08
420.53	4739.58
420.72	4835.55
420.91	4737.24
421.10	4833.21
421.29	4865.97
421.48	4716.18
421.67	4954.91
421.86	4676.39
422.05	4758.31
422.24	5046.20
422.43	4884.70
422.61	4922.15
422.80	4997.04
422.99	4968.96
423.18	5015.77
423.37	4983.00
423.56	5034.49
423.75	4952.57
423.94	4901.08
424.13	4795.76
424.32	4957.25
424.50	5081.30
424.69	5025.13
424.88	5228.76
425.07	4973.64
425.26	4994.70
425.45	5100.03
425.64	4957.25
425.83	4945.55
426.01	5135.14
426.20	5268.55
426.39	5139.82
426.58	5074.28
426.77	5078.96
426.96	5261.52
427.15	5071.94
427.33	5181.95
427.52	5181.95
427.71	5186.63
427.90	5369.19
428.09	5231.10
428.28	5551.75
428.46	5263.86
428.65	5378.55
428.84	5518.98
429.03	5444.09
429.22	5324.72
429.40	5502.60
429.59	5572.82
429.78	5327.06
429.97	5350.46
430.16	5495.58
430.34	5633.67
430.53	5626.65
430.72	5750.70
430.91	5734.31
431.10	5755.38
431.28	5867.72
431.47	5816.23
431.66	5785.80
431.85	5839.64
432.03	5860.70
432.22	5858.36
432.41	5928.58
432.60	5937.94
432.79	6012.84
432.97	6057.31
433.16	6101.78
433.35	6052.63
433.54	6064.33
433.72	6129.86
433.91	6162.63
434.10	6260.93
434.28	6200.08
434.47	6263.27
434.66	6251.57
434.85	6352.21
435.03	6462.22
435.22	6310.08
435.41	6539.46
435.59	6487.96
435.78	6457.54
435.97	6590.95
436.16	6469.24
436.34	6331.15
436.53	6541.80
436.72	6951.39
436.90	6600.31
437.09	6553.50
437.28	6724.36
437.46	6560.52
437.65	6581.59
437.84	6747.76
438.02	6780.53
438.21	6799.26
438.40	6855.43
438.58	7000.54
438.77	7115.23
438.96	7007.56
439.14	7211.19
439.33	7239.28
439.52	7166.72
439.70	7276.73
439.89	7325.88
440.08	7555.25
440.26	7449.93
440.45	7349.28
440.63	7569.29
440.82	7625.47
441.01	7393.75
441.19	7555.25
441.38	7812.71
441.57	7665.25
441.75	7793.98
441.94	8053.78
442.12	8013.99
442.31	8107.62
442.50	8182.51
442.68	7878.24
442.87	8058.46
443.05	8152.09
443.24	8238.69
443.43	8168.47
443.61	8229.32
443.80	8575.72
443.98	8191.88
444.17	8016.33
444.35	8397.84
444.54	8358.05
444.73	8210.60
444.91	8283.16
445.10	8510.19
445.28	8454.02
445.47	8173.15
445.65	8409.54
445.84	8674.03
446.02	8697.43
446.21	8634.24
446.39	8524.23
446.58	8519.55
446.77	8615.51
446.95	8276.13
447.14	8428.27
447.32	8510.19
447.51	8615.51
447.69	8386.14
447.88	8580.40
448.06	8709.13
448.25	8645.94
448.43	8641.26
448.62	8498.49
448.80	8540.61
448.99	8821.48
449.17	8758.28
449.36	8767.65
449.54	8774.67
449.73	8865.95
449.91	9081.28
450.10	8922.12
450.28	9238.09
450.46	9163.20
450.65	9170.22
450.83	9090.64
451.02	9095.32
451.20	9490.87
451.39	9116.39
451.57	9165.54
451.76	9027.45
451.94	9263.84
452.13	9341.08
452.31	9268.52
452.49	9174.90
452.68	9586.83
452.86	9348.10
453.05	9415.98
453.23	9376.19
453.42	9509.60
453.60	9399.59
453.78	9439.38
453.97	9509.60
454.15	9596.20
454.34	9591.52
454.52	9799.82
454.70	9846.63
454.89	9612.58
455.07	9792.80
455.26	9958.98
455.44	10031.54
455.62	9851.31
455.81	9795.14
455.99	10094.73
456.17	10122.82
456.36	10019.83
456.54	10424.75
456.73	10291.34
456.91	10644.76
457.09	10394.32
457.28	10930.30
457.46	10338.15
457.64	10548.79
457.83	10551.14
458.01	10223.46
458.19	10661.14
458.38	10775.83
458.56	10686.89
458.74	10696.25
458.93	10832.00
459.11	10712.63
459.29	10848.38
459.48	10824.98
459.66	11044.99
459.84	11028.60
460.03	11257.98
460.21	11183.08
460.39	10998.18
460.57	10944.34
460.76	11126.91
460.94	11136.27
461.12	11396.07
461.31	11260.32
461.49	11304.79
461.67	11091.80
461.85	11580.97
462.04	11321.17
462.22	11639.48
462.40	11580.97
462.59	11658.21
462.77	11541.18
462.95	11789.28
463.13	11679.27
463.32	11676.93
463.50	11599.70
463.68	11815.02
463.86	11847.79
464.05	11637.14
464.23	11747.15
464.41	11995.25
464.59	11662.89
464.78	12353.35
464.96	11985.88
465.14	11974.18
465.32	12060.78
465.50	12201.21
465.69	12233.98
465.87	12208.23
466.05	12156.74
466.23	12351.01
466.41	12292.49
466.60	12512.50
466.78	12212.92
466.96	12327.60
467.14	12449.31
467.32	12496.12
467.51	12615.49
467.69	12372.07
467.87	12367.39
468.05	12645.91
468.23	12587.40
468.41	12674.00
468.60	12704.43
468.78	12753.58
468.96	12575.70
469.14	12833.16
469.32	13116.36
469.50	12938.48
469.69	13224.03
469.87	13245.09
470.05	13020.40
470.23	13460.42
470.41	13256.79
470.59	13657.03
470.77	13294.24
470.95	13305.95
471.14	13626.60
471.32	13247.43
471.50	13458.08
471.68	13745.97
471.86	13839.59
472.04	13989.38
472.22	14031.51
472.40	13612.56
472.58	13874.70
472.77	14279.61
472.95	14361.53
473.13	14778.14
473.31	14127.47
473.49	14347.48
473.67	14207.05
473.85	14384.93
474.03	14516.00
474.21	14595.58
474.39	14682.18
474.57	14850.70
474.75	15037.94
474.93	15176.03
475.12	15171.35
475.30	15356.25
475.48	14995.81
475.66	15304.76
475.84	15318.81
476.02	15440.51
476.20	15494.35
476.38	15737.76
476.56	16133.31
476.74	16044.37
476.92	16112.25
477.10	16105.23
477.28	16322.90
477.46	16044.37
477.64	16648.23
477.82	16566.31
478.00	17282.52
478.18	16725.47
478.36	17373.80
478.54	17146.76
478.72	17043.78
478.90	17195.92
479.08	17556.36
479.26	17460.40
479.44	17874.67
479.62	18139.15
479.80	18281.92
479.98	18087.66
480.16	18850.67
480.34	18410.65
480.52	18841.31
480.70	18654.07
480.88	18532.36
481.06	18838.97
481.24	18881.10
481.41	19475.60
481.59	19590.28
481.77	19719.01
481.95	20044.35
482.13	19941.36
482.31	19887.53
482.49	20556.93
482.67	20123.93
482.85	20570.97
483.03	20725.44
483.21	20779.28
483.39	21153.76
483.57	21006.31
483.74	20863.54
483.92	21497.82
484.10	21628.89
484.28	21593.78
484.46	21930.82
484.64	22192.96
484.82	22141.47
485.00	22658.73
485.18	23077.68
485.35	23197.05
485.53	23255.56
485.71	23323.44
485.89	23711.97
486.07	23590.26
486.25	23342.16
486.43	23929.64
486.61	23974.11
486.78	24577.97
486.96	24332.21
487.14	24460.94
487.32	25083.52
487.50	25369.07
487.68	25319.92
487.85	25607.80
488.03	25467.37
488.21	26199.96
488.39	25923.77
488.57	26377.84
488.75	26401.24
488.92	26434.01
489.10	26934.88
489.28	27040.21
489.46	27246.18
489.64	27241.50
489.81	27723.65
489.99	27814.93
490.17	28006.85
490.35	28297.08
490.53	28371.97
490.70	28912.64
490.88	28458.57
491.06	29067.11
491.24	28961.79
491.41	29071.79
491.59	29443.94
491.77	29373.72
491.95	29837.15
492.13	30113.33
492.30	30403.56
492.48	30375.47
492.66	30628.25
492.84	30274.83
493.01	30899.75
493.19	30483.14
493.37	30775.70
493.54	31274.24
493.72	32002.14
493.90	31772.77
494.08	32135.56
494.25	32439.82
494.43	32428.12
494.61	32374.29
494.79	32950.06
494.96	33006.23
495.14	32811.97
495.32	33247.31
495.49	33329.23
495.67	33682.65
495.85	33916.70
496.02	34122.67
496.20	34305.23
496.38	33956.49
496.55	34593.12
496.73	35063.57
496.91	35019.10
497.09	35358.47
497.26	35398.26
497.44	35063.57
497.62	35618.27
497.79	36053.61
497.97	35639.34
498.14	36109.78
498.32	36411.71
498.50	36631.72
498.67	36795.56
498.85	36830.67
499.03	37144.30
499.20	37209.84
499.38	37368.99
499.56	37167.71
499.73	37507.08
499.91	37736.46
500.08	38033.71
500.26	37865.19
500.44	38110.94
500.61	38127.33
500.79	38164.78
500.97	38134.35
501.14	39068.22
501.32	39054.18
501.49	38686.71
501.67	39098.65
501.84	38759.27
502.02	39243.76
502.20	39171.21
502.37	39522.29
502.55	39454.41
502.72	39576.12
502.90	39618.25
503.07	39611.23
503.25	40163.59
503.43	39985.71
503.60	40301.68
503.78	40301.68
503.95	40509.99
504.13	40872.78
504.30	40694.89
504.48	40332.11
504.65	41254.28
504.83	41083.42
505.01	41907.29
505.18	42012.62
505.36	41724.73
505.53	41572.60
505.71	41904.95
505.88	42541.58
506.06	41820.69
506.23	42384.76
506.41	42019.64
506.58	42710.10
506.76	42349.65
506.93	42733.50
507.11	42700.73
507.28	42997.98
507.46	43058.84
507.63	43533.96
507.81	43391.19
507.98	43100.97
508.16	43957.60
508.33	43782.06
508.50	43700.14
508.68	43906.11
508.85	44039.52
509.03	44254.85
509.20	44189.31
509.38	44645.72
509.55	44758.06
509.73	44898.50
509.90	44561.46
510.08	44292.30
510.25	44589.55
510.42	45195.74
510.60	44910.20
510.77	45600.66
510.95	45633.42
511.12	45556.19
511.30	45450.86
511.47	45701.30
511.64	45935.35
511.82	46412.82
511.99	46260.69
512.17	46483.04
512.34	46230.26
512.51	46553.26
512.69	46836.46
512.86	46625.81
513.04	46944.12
513.21	46866.89
513.38	47098.60
513.56	46885.61
513.73	47044.77
513.90	47325.63
514.08	47054.13
514.25	47608.84
514.43	47742.25
514.60	47648.63
514.77	47835.87
514.95	47959.92
515.12	47606.50
515.29	48081.63
515.47	48039.50
515.64	48491.22
515.81	48605.91
515.99	48793.15
516.16	48875.07
516.33	48575.48
516.51	49057.63
516.68	48879.75
516.85	48816.55
517.03	49109.12
517.20	49247.21
517.37	48837.62
517.54	49371.26
517.72	49371.26
517.89	49408.71
518.06	49612.34
518.24	49406.37
518.41	49724.68
518.58	49497.65
518.75	49825.32
518.93	50003.20
519.10	49490.63
519.27	50220.87
519.45	50183.43
519.62	50064.06
519.79	50120.23
519.96	50071.08
520.14	50255.98
520.31	49886.18
520.48	50429.18
520.65	50492.38
520.83	50745.15
521.00	51000.27
521.17	50796.65
521.34	50986.23
521.52	51262.41
521.69	51103.26
521.86	51334.97
522.03	51276.46
522.20	51791.37
522.38	51782.01
522.55	51817.12
522.72	51430.93
522.89	51847.55
523.07	51934.15
523.24	51973.94
523.41	51920.10
523.58	51793.71
523.75	51948.19
523.92	52147.14
524.10	52325.02
524.27	52449.06
524.44	52313.31
524.61	52182.24
524.78	52516.94
524.96	52615.24
525.13	52978.03
525.30	52868.02
525.47	52608.22
525.64	52753.33
525.81	52926.53
525.98	52884.40
526.16	52975.69
526.33	52851.64
526.50	53556.14
526.67	53212.08
526.84	53095.05
527.01	52835.25
527.18	53043.56
527.36	53436.77
527.53	53282.30
527.70	53638.06
527.87	53607.63
528.04	53186.33
528.21	53656.78
528.38	53558.48
528.55	53986.80
528.72	53558.48
528.89	53790.19
529.07	53757.42
529.24	53425.07
529.41	54197.44
529.58	53982.12
529.75	53918.92
529.92	53930.62
530.09	54312.13
530.26	54141.27
530.43	54258.30
530.60	53916.58
530.77	53982.12
530.94	54408.09
531.11	54372.99
531.28	54337.88
531.46	54440.86
531.63	54672.57
531.80	54630.44
531.97	54677.25
532.14	54703.00
532.31	54745.13
532.48	54815.35
532.65	54560.23
532.82	54653.85
532.99	54834.07
533.16	54876.20
533.33	55054.08
533.50	55260.05
533.67	55103.23
533.84	54911.31
534.01	55229.62
534.18	55086.85
534.35	55643.90
534.52	55348.99
534.69	55295.16
534.86	55566.66
535.03	55323.24
535.20	55278.77
535.37	55540.91
535.54	55566.66
535.71	55487.08
535.88	55592.40
536.05	55569.00
536.22	55805.39
536.38	55849.86
536.55	55540.91
536.72	55749.22
536.89	55679.00
537.06	55749.22
537.23	55948.17
537.40	55849.86
537.57	56032.42
537.74	56058.17
537.91	56182.22
538.08	56002.00
538.25	56020.72
538.42	56294.56
538.59	56222.01
538.75	56069.87
538.92	56266.48
539.09	56587.13
539.26	56399.89
539.43	56261.80
539.60	56334.35
539.77	56395.21
539.94	56559.05
540.11	56570.75
540.28	56917.15
540.44	56514.58
540.61	56502.87
540.78	56575.43
540.95	56516.92
541.12	56659.69
541.29	56608.20
541.46	56828.21
541.62	56690.12
541.79	56793.10
541.96	56629.26
542.13	56875.02
542.30	57038.86
542.47	56842.25
542.63	56975.66
542.80	57003.75
542.97	57303.34
543.14	57422.70
543.31	57137.16
543.48	57724.63
543.64	57712.93
543.81	57450.79
543.98	57572.50
544.15	57661.44
544.32	57825.28
544.48	57801.87
544.65	57726.97
544.82	57598.24
544.99	57717.61
545.16	57654.42
545.32	57511.64
545.49	57783.15
545.66	58000.82
545.83	57858.04
546.00	57832.30
546.16	57860.38
546.33	57635.69
546.50	57806.55
546.67	57909.53
546.83	57792.51
547.00	57860.38
547.17	58038.26
547.34	58099.12
547.50	58103.80
547.67	58080.39
547.84	58192.74
548.00	58354.24
548.17	58323.81
548.34	58398.71
548.51	58419.77
548.67	58576.59
548.84	58234.87
549.01	58337.85
549.18	58251.25
549.34	58361.26
549.51	58525.10
549.68	58466.58
549.84	58482.97
550.01	58475.94
550.18	58618.72
550.34	58543.82
550.51	58609.35
550.68	58330.83
550.84	58305.09
551.01	58740.42
551.18	58838.73
551.34	58791.92
551.51	58717.02
551.68	58637.44
551.84	58763.83
552.01	58770.85
552.18	58859.79
552.34	58581.27
552.51	58965.12
552.68	58791.92
552.84	58663.19
553.01	59231.94
553.18	58791.92
553.34	59100.87
553.51	59049.38
553.67	59098.53
553.84	59135.98
554.01	59021.29
554.17	59178.10
554.34	59295.13
554.51	59224.92
554.67	59255.34
554.84	59262.36
555.00	59391.09
555.17	59100.87
555.33	59182.79
555.50	59269.39
555.67	59224.92
555.83	59381.73
556.00	59435.56
556.16	59643.87
556.33	59552.59
556.50	59353.65
556.66	59484.72
556.83	59093.85
556.99	59552.59
557.16	59494.08
557.32	59641.53
557.49	59707.07
557.65	59412.16
557.82	59543.23
557.98	59407.48
558.15	59606.42
558.32	59634.51
558.48	59611.10
558.65	59674.30
558.81	59753.88
558.98	59758.56
559.14	59657.91
559.31	59786.64
559.47	59990.27
559.64	59987.93
559.80	59835.80
559.97	59891.97
560.13	59913.03
560.30	59983.25
560.46	60060.49
560.63	59821.75
560.79	59910.69
560.96	59938.78
561.12	59999.63
561.29	59990.27
561.45	59936.44
561.61	60126.02
561.78	60205.60
561.94	60055.81
562.11	59831.11
562.27	60111.98
562.44	60266.45
562.60	60257.09
562.77	60147.09
562.93	60088.57
563.10	60165.81
563.26	60196.24
563.42	60409.23
563.59	60151.77
563.75	60018.36
563.92	60320.29
564.08	60168.15
564.24	60266.45
564.41	60151.77
564.57	60331.99
564.74	60179.85
564.90	60261.77
565.07	60353.05
565.23	60339.01
565.39	60488.80
565.56	60406.89
565.72	60287.52
565.88	60350.71
566.05	60294.54
566.21	60231.35
566.38	60353.05
566.54	60587.11
566.70	60552.00
566.87	60692.43
567.03	60444.33
567.19	60772.01
567.36	60486.46
567.52	60544.98
567.68	60727.54
567.85	60369.44
568.01	60587.11
568.17	60292.20
568.34	60638.60
568.50	60420.93
568.66	60383.48
568.83	60676.05
568.99	60537.96
569.15	60498.17
569.32	60535.62
569.48	60554.34
569.64	60561.36
569.81	60615.19
569.97	60507.53
570.13	60608.17
570.30	60505.19
570.46	60680.73
570.62	60673.71
570.78	60886.70
570.95	60654.98
571.11	60891.38
571.27	60678.39
571.43	60523.91
571.60	61010.74
571.76	60779.03
571.92	60940.53
572.09	60734.56
572.25	60631.58
572.41	60666.69
572.57	60741.58
572.74	60914.78
572.90	60832.86
573.06	60814.14
573.22	60942.87
573.38	60933.51
573.55	60802.44
573.71	61052.87
573.87	60807.12
574.03	60781.37
574.20	60788.39
574.36	60669.03
574.52	60954.57
574.68	60926.49
574.84	60973.30
575.01	61090.32
575.17	60935.85
575.33	60945.21
575.49	60907.76
575.65	60947.55
575.82	60942.87
575.98	60832.86
576.14	61228.41
576.30	61085.64
576.46	60961.59
576.62	60889.04
576.79	60949.89
576.95	60893.72
577.11	61017.77
577.27	61027.13
577.43	60879.67
577.59	60891.38
577.75	60963.93
577.92	60963.93
578.08	61064.58
578.24	61071.60
578.40	61090.32
578.56	60928.83
578.72	60891.38
578.88	61216.71
579.04	61263.52
579.21	61134.79
579.37	61331.40
579.53	61212.03
579.69	61003.72
579.85	60912.44
580.01	60898.40
580.17	60914.78
580.33	61139.47
580.49	61300.97
580.65	61190.97
580.82	61076.28
580.98	60947.55
581.14	60877.33
581.30	61193.31
581.46	61076.28
581.62	60996.70
581.78	60996.70
581.94	61167.56
582.10	61059.90
582.26	61183.94
582.42	61162.88
582.58	61099.68
582.74	61069.26
582.90	61127.77
583.06	61118.41
583.22	61034.15
583.38	61043.51
583.54	61066.92
583.70	61258.84
583.86	61125.43
584.02	61050.53
584.18	61289.27
584.34	61193.31
584.50	61263.52
584.66	61001.38
584.82	60893.72
584.98	61338.42
585.14	61254.16
585.30	60865.63
585.46	61190.97
585.62	61212.03
585.78	61378.21
585.94	61193.31
586.10	61300.97
586.26	61099.68
586.42	61364.17
586.58	61235.44
586.74	61221.39
586.90	61265.86
587.06	61221.39
587.22	61329.06
587.38	61240.12
587.54	61488.21
587.70	61448.42
587.86	61399.27
588.02	61326.72
588.18	61455.45
588.34	61263.52
588.49	61303.31
