SpectraSuite Data File
++++++++++++++++++++++++++++++++++++
Date: Fri Oct 25 11:25:18 EDT 2013
User: price-jones
Dark Spectrum Present: No
Reference Spectrum Present: No
Number of Sampled Component Spectra: 1
Spectrometers: USB2+H05261
Integration Time (usec): 100000 (USB2+H05261)
Spectra Averaged: 1 (USB2+H05261)
Boxcar Smoothing: 0 (USB2+H05261)
Correct for Electrical Dark: No (USB2+H05261)
Strobe/Lamp Enabled: No (USB2+H05261)
Correct for Detector Non-linearity: No (USB2+H05261)
Correct for Stray Light: No (USB2+H05261)
Number of Pixels in Processed Spectrum: 2048
>>>>>Begin Processed Spectral Data<<<<<
365.73	280.86
365.92	280.86
366.12	280.86
366.32	161.50
366.52	105.32
366.72	166.18
366.91	70.22
367.11	175.54
367.31	86.60
367.51	107.66
367.70	203.63
367.90	95.96
368.10	91.28
368.30	173.20
368.49	119.37
368.69	117.03
368.89	121.71
369.09	163.84
369.28	205.97
369.48	154.48
369.68	156.82
369.87	231.71
370.07	142.77
370.27	238.73
370.47	278.52
370.66	559.39
370.86	641.31
371.06	645.99
371.25	706.84
371.45	683.44
371.65	828.55
371.84	681.10
372.04	716.20
372.24	767.70
372.44	711.52
372.63	758.33
372.83	739.61
373.03	809.83
373.22	685.78
373.42	702.16
373.62	802.80
373.81	788.76
374.01	781.74
374.21	858.98
374.40	788.76
374.60	866.00
374.79	805.14
374.99	720.88
375.19	788.76
375.38	807.48
375.58	744.29
375.78	856.64
375.97	922.17
376.17	936.21
376.37	805.14
376.56	884.72
376.76	866.00
376.95	828.55
377.15	844.93
377.35	910.47
377.54	866.00
377.74	931.53
377.93	814.51
378.13	861.32
378.33	924.51
378.52	891.74
378.72	938.55
378.91	983.02
379.11	912.81
379.31	926.85
379.50	917.49
379.70	966.64
379.89	1027.50
380.09	1013.45
380.28	1027.50
380.48	964.30
380.68	1008.77
380.87	1004.09
381.07	1015.79
381.26	973.66
381.46	1029.84
381.65	1050.90
381.85	1013.45
382.04	1008.77
382.24	1041.54
382.43	997.07
382.63	1067.28
382.83	1008.77
383.02	1029.84
383.22	1121.12
383.41	1022.81
383.61	1100.05
383.80	1135.16
384.00	1048.56
384.19	1123.46
384.39	1118.78
384.58	1163.25
384.78	1128.14
384.97	1109.41
385.17	1193.67
385.36	1102.39
385.56	1184.31
385.75	1170.27
385.95	1252.19
386.14	1167.93
386.34	1158.57
386.53	1235.80
386.72	1207.72
386.92	1228.78
387.11	1235.80
387.31	1226.44
387.50	1226.44
387.70	1238.14
387.89	1221.76
388.09	1270.91
388.28	1214.74
388.48	1259.21
388.67	1350.49
388.86	1268.57
389.06	1170.27
389.25	1343.47
389.45	1256.87
389.64	1270.91
389.84	1378.58
390.03	1336.45
390.22	1411.34
390.42	1357.51
390.61	1439.43
390.81	1439.43
391.00	1423.05
391.19	1432.41
391.39	1476.88
391.58	1455.81
391.78	1441.77
391.97	1404.32
392.16	1521.35
392.36	1493.26
392.55	1511.99
392.75	1516.67
392.94	1490.92
393.13	1526.03
393.33	1423.05
393.52	1565.82
393.71	1607.95
393.91	1614.97
394.10	1547.09
394.29	1582.20
394.49	1619.65
394.68	1605.61
394.88	1600.93
395.07	1633.69
395.26	1778.81
395.46	1549.43
395.65	1724.97
395.84	1764.76
396.04	1687.53
396.23	1757.74
396.42	1701.57
396.62	1729.66
396.81	1799.87
397.00	1741.36
397.19	1858.39
397.39	1825.62
397.58	1832.64
397.77	1881.79
397.97	1820.94
398.16	1722.63
398.35	1802.21
398.55	1865.41
398.74	1898.17
398.93	1998.82
399.12	1912.22
399.32	1923.92
399.51	1863.07
399.70	2036.27
399.90	1893.49
400.09	2033.93
400.28	2015.20
400.47	1966.05
400.67	2026.90
400.86	2040.95
401.05	2050.31
401.24	1977.75
401.44	2099.46
401.63	2069.03
401.82	2200.10
402.01	2090.10
402.21	2047.97
402.40	2139.25
402.59	2162.66
402.78	2200.10
402.97	2256.28
403.17	2221.17
403.36	2202.44
403.55	2186.06
403.74	2349.90
403.93	2340.54
404.13	2319.47
404.32	2326.49
404.51	2354.58
404.70	2352.24
404.89	2317.13
405.09	2415.43
405.28	2382.67
405.47	2576.93
405.66	2431.82
405.85	2478.63
406.05	2448.20
406.24	2530.12
406.43	2593.31
406.62	2644.81
406.81	2675.23
407.00	2518.42
407.20	2581.61
407.39	2630.76
407.58	2708.00
407.77	2672.89
407.96	2612.04
408.15	2771.19
408.34	2590.97
408.54	2726.72
408.73	2754.81
408.92	2710.34
409.11	2853.11
409.30	2932.69
409.49	2818.00
409.68	2937.37
409.87	2923.33
410.07	2920.99
410.26	3033.33
410.45	2841.41
410.64	3030.99
410.83	3035.67
411.02	3023.97
411.21	3171.43
411.40	3105.89
411.59	3318.88
411.78	3145.68
411.98	3178.45
412.17	3162.06
412.36	3241.64
412.55	3372.71
412.74	3431.23
412.93	3454.63
413.12	3375.05
413.31	3442.93
413.50	3466.33
413.69	3459.31
413.88	3644.21
414.07	3581.02
414.26	3520.17
414.45	3552.93
414.64	3637.19
414.83	3693.37
415.02	3789.33
415.22	3707.41
415.41	3894.65
415.60	3866.56
415.79	3850.18
415.98	3864.22
416.17	3969.55
416.36	4002.32
416.55	3932.10
416.74	4007.00
416.93	3953.16
417.12	4063.17
417.31	4119.34
417.50	4084.23
417.69	4262.12
417.88	4287.86
418.07	4201.26
418.26	4198.92
418.45	4128.70
418.64	4685.75
418.83	4376.80
419.02	4381.48
419.21	4442.34
419.39	4386.16
419.58	4461.06
419.77	4416.59
419.96	4547.66
420.15	4582.77
420.34	4578.09
420.53	4409.57
420.72	4608.51
420.91	4788.74
421.10	4741.93
421.29	4807.46
421.48	4566.39
421.67	4702.14
421.86	4767.67
422.05	4716.18
422.24	4617.88
422.43	4975.98
422.61	4819.16
422.80	4943.21
422.99	4943.21
423.18	4746.61
423.37	4840.23
423.56	5008.75
423.75	4966.62
423.94	4903.42
424.13	4444.68
424.32	4638.94
424.50	4943.21
424.69	5018.11
424.88	4842.57
425.07	4856.61
425.26	4875.34
425.45	4898.74
425.64	4954.91
425.83	4887.04
426.01	4903.42
426.20	4975.98
426.39	5078.96
426.58	4931.51
426.77	5074.28
426.96	5036.83
427.15	5088.32
427.33	5195.99
427.52	5205.35
427.71	5226.42
427.90	5146.84
428.09	5181.95
428.28	5203.01
428.46	5357.49
428.65	5273.23
428.84	5408.98
429.03	5509.62
429.22	5305.99
429.40	5483.88
429.59	5350.46
429.78	5277.91
429.97	5259.18
430.16	5380.89
430.34	5514.30
430.53	5624.31
430.72	5565.79
430.91	5490.90
431.10	5575.16
431.28	5682.82
431.47	5834.96
431.66	5774.10
431.85	5682.82
432.03	5879.43
432.22	5893.47
432.41	5844.32
432.60	5797.51
432.79	5865.38
432.97	5977.73
433.16	6031.56
433.35	5907.51
433.54	6017.52
433.72	5905.17
433.91	6169.65
434.10	5951.98
434.28	6113.48
434.47	6235.19
434.66	6052.63
434.85	6235.19
435.03	6134.54
435.22	6366.26
435.41	6469.24
435.59	6457.54
435.78	6415.41
435.97	6406.05
436.16	6366.26
436.34	6319.45
436.53	6384.98
436.72	6609.67
436.90	6558.18
437.09	6511.37
437.28	6356.90
437.46	6487.96
437.65	6668.19
437.84	6747.76
438.02	6717.34
438.21	6768.83
438.40	6513.71
438.58	6993.52
438.77	6960.75
438.96	6942.03
439.14	6869.47
439.33	7098.84
439.52	7140.97
439.70	7213.53
439.89	7133.95
440.08	7293.11
440.26	7283.75
440.45	7126.93
440.63	7414.82
440.82	7555.25
441.01	7393.75
441.19	7487.37
441.38	7695.68
441.57	7634.83
441.75	7588.02
441.94	7838.45
442.12	7992.93
442.31	8016.33
442.50	7971.86
442.68	7688.66
442.87	7978.89
443.05	8091.23
443.24	8084.21
443.43	8079.53
443.61	8084.21
443.80	8285.50
443.98	7985.91
444.17	7801.01
444.35	8086.55
444.54	8252.73
444.73	8145.06
444.91	8306.56
445.10	8236.35
445.28	8311.24
445.47	8079.53
445.65	8374.44
445.84	8395.50
446.02	8538.27
446.21	8088.89
446.39	8344.01
446.58	8369.76
446.77	8528.91
446.95	8383.80
447.14	8461.04
447.32	8571.04
447.51	8564.02
447.69	8395.50
447.88	8599.13
448.06	8498.49
448.25	8327.63
448.43	8439.97
448.62	8493.80
448.80	8496.14
448.99	8500.83
449.17	8683.39
449.36	8454.02
449.54	8931.48
449.73	8732.54
449.91	8952.55
450.10	8877.65
450.28	8959.57
450.46	9008.72
450.65	9011.06
450.83	8865.95
451.02	9121.07
451.20	8971.27
451.39	9043.83
451.57	8997.02
451.76	8997.02
451.94	9125.75
452.13	9415.98
452.31	9476.83
452.49	9085.96
452.68	9383.21
452.86	9329.38
453.05	9465.13
453.23	9310.65
453.42	9343.42
453.60	9394.91
453.78	9460.45
453.97	9224.05
454.15	9549.39
454.34	9317.67
454.52	9525.98
454.70	9776.42
454.89	9834.93
455.07	9591.52
455.26	9603.22
455.44	9767.06
455.62	9820.89
455.81	9788.12
455.99	10008.13
456.17	9951.96
456.36	9713.22
456.54	10104.09
456.73	10120.48
456.91	10183.67
457.09	10207.08
457.28	10630.71
457.46	9996.43
457.64	10370.91
457.83	10583.90
458.01	10551.14
458.19	10403.68
458.38	10548.79
458.56	10719.65
458.74	10789.87
458.93	10562.84
459.11	10654.12
459.29	10794.55
459.48	10738.38
459.66	10759.44
459.84	10796.89
460.03	10972.43
460.21	10820.30
460.39	10775.83
460.57	10958.39
460.76	10904.56
460.94	11171.38
461.12	11192.44
461.31	10974.77
461.49	11054.35
461.67	11068.39
461.85	11321.17
462.04	11332.87
462.22	11604.38
462.40	11719.06
462.59	11447.56
462.77	11164.36
462.95	11513.10
463.13	11304.79
463.32	11538.84
463.50	11681.61
463.68	11543.52
463.86	11805.66
464.05	11712.04
464.23	11449.90
464.41	11765.87
464.59	11506.07
464.78	12131.00
464.96	11847.79
465.14	11707.36
465.32	12152.06
465.50	12119.29
465.69	12198.87
465.87	12121.63
466.05	11969.50
466.23	11997.59
466.41	12203.55
466.60	12489.10
466.78	11990.56
466.96	12116.95
467.14	12109.93
467.32	12430.59
467.51	12369.73
467.69	11922.69
467.87	12233.98
468.05	12489.10
468.23	12091.21
468.41	12315.90
468.60	12437.61
468.78	12589.74
468.96	12463.35
469.14	12704.43
469.32	12830.82
469.50	12475.06
469.69	12957.21
469.87	13036.78
470.05	12978.27
470.23	13081.25
470.41	13090.62
470.59	13235.73
470.77	12812.09
470.95	13231.05
471.14	13343.39
471.32	13156.15
471.50	13563.40
471.68	13544.68
471.86	13554.04
472.04	13626.60
472.22	13867.67
472.40	13565.74
472.58	13713.20
472.77	13652.34
472.95	14211.73
473.13	14204.71
473.31	13998.74
473.49	14075.98
473.67	14092.37
473.85	13905.12
474.03	14520.68
474.21	14235.14
474.39	14546.43
474.57	14579.20
474.75	14654.09
474.93	15000.49
475.12	14885.81
475.30	15112.84
475.48	14848.36
475.66	14909.21
475.84	14902.19
476.02	15112.84
476.20	15227.53
476.38	15541.16
476.56	15878.19
476.74	15756.49
476.92	15459.24
477.10	15611.37
477.28	16116.93
477.46	16123.95
477.64	16238.64
477.82	16430.56
478.00	16676.32
478.18	16655.25
478.36	16924.41
478.54	16936.12
478.72	17015.69
478.90	17144.42
479.08	17479.12
479.26	17270.81
479.44	17579.76
479.62	17914.46
479.80	17624.23
479.98	17933.18
480.16	18328.74
480.34	18099.36
480.52	18331.08
480.70	18595.56
480.88	18295.97
481.06	18668.11
481.24	18579.17
481.41	18981.74
481.59	19199.41
481.77	19344.53
481.95	19173.67
482.13	19552.84
482.31	20016.26
482.49	19594.96
482.67	19803.27
482.85	20423.51
483.03	20386.07
483.21	20596.71
483.39	20601.40
483.57	20395.43
483.74	21125.68
483.92	20961.84
484.10	20856.51
484.28	21504.84
484.46	21656.98
484.64	22148.49
484.82	21893.37
485.00	22218.71
485.18	22508.93
485.35	23030.87
485.53	22897.46
485.71	23019.17
485.89	23417.06
486.07	23222.80
486.25	23068.32
486.43	23339.82
486.61	23761.12
486.78	23840.70
486.96	23882.83
487.14	24205.82
487.32	24608.39
487.50	24793.29
487.68	24725.42
487.85	24606.05
488.03	25181.82
488.21	25483.75
488.39	25413.54
488.57	25832.49
488.75	25792.70
488.92	26429.33
489.10	26480.82
489.28	26572.10
489.46	26773.39
489.64	26876.37
489.81	27566.83
489.99	27669.81
490.17	27573.85
490.35	27887.48
490.53	28009.19
490.70	28034.94
490.88	28079.41
491.06	28500.70
491.24	28367.29
491.41	28570.92
491.59	28865.83
491.77	28945.41
491.95	29387.77
492.13	29296.49
492.30	30162.48
492.48	29785.66
492.66	29968.22
492.84	30270.15
493.01	30438.67
493.19	30281.85
493.37	30649.32
493.54	30843.58
493.72	31131.47
493.90	30654.00
494.08	31648.72
494.25	31859.37
494.43	31950.65
494.61	31960.02
494.79	32170.66
494.96	32203.43
495.14	32645.79
495.32	33050.70
495.49	32704.31
495.67	32830.69
495.85	33083.47
496.02	33284.76
496.20	33675.63
496.38	34120.33
496.55	33684.99
496.73	34593.12
496.91	34548.65
497.09	34469.07
497.26	34834.19
497.44	34305.23
497.62	35096.33
497.79	35662.74
497.97	35056.54
498.14	35461.46
498.32	35828.92
498.50	35828.92
498.67	35917.86
498.85	36517.04
499.03	36343.84
499.20	36271.28
499.38	36774.50
499.56	36666.83
499.73	36631.72
499.91	36994.51
500.08	37258.99
500.26	36858.76
500.44	37368.99
500.61	37872.21
500.79	37640.50
500.97	37755.18
501.14	38405.85
501.32	38410.53
501.49	38162.43
501.67	38501.81
501.84	38560.33
502.02	38780.34
502.20	38618.84
502.37	39098.65
502.55	38871.62
502.72	39407.60
502.90	39707.19
503.07	39501.22
503.25	39395.90
503.43	39503.56
503.60	39725.91
503.78	39943.58
503.95	40245.51
504.13	40264.24
504.30	40210.40
504.48	40439.78
504.65	40409.35
504.83	40804.90
505.01	40790.86
505.18	40676.17
505.36	41478.97
505.53	40889.16
505.71	41118.53
505.88	41493.02
506.06	41481.31
506.23	41450.89
506.41	41638.13
506.58	41968.15
506.76	42115.60
506.93	42188.16
507.11	41890.91
507.28	42241.99
507.46	42396.46
507.63	42464.34
507.81	42572.00
507.98	42705.41
508.16	42691.37
508.33	43220.33
508.50	43299.91
508.68	43107.99
508.85	43452.05
509.03	43065.86
509.20	43728.23
509.38	44086.33
509.55	44046.54
509.73	44327.41
509.90	44376.56
510.08	44081.65
510.25	44512.31
510.42	44222.08
510.60	44837.64
510.77	45113.83
510.95	45219.15
511.12	44605.93
511.30	45024.89
511.47	44961.69
511.64	45088.08
511.82	45724.71
511.99	45490.65
512.17	45612.36
512.34	45535.12
512.51	45640.45
512.69	46248.99
512.86	45820.67
513.04	46527.51
513.21	46452.61
513.38	46621.13
513.56	46459.63
513.73	46358.99
513.90	46586.02
514.08	46321.54
514.25	47503.51
514.43	47012.00
514.60	47498.83
514.77	46703.05
514.95	47337.33
515.12	46948.81
515.29	47304.57
515.47	47690.76
515.64	47805.44
515.81	47695.44
515.99	47753.95
516.16	48123.75
516.33	48303.98
516.51	48458.45
516.68	48193.97
516.85	48186.95
517.03	48896.13
517.20	48371.85
517.37	48484.20
517.54	48875.07
517.72	48767.40
517.89	48708.89
518.06	48755.70
518.24	49055.29
518.41	48638.67
518.58	49340.83
518.75	48851.66
518.93	49532.76
519.10	49165.29
519.27	49415.73
519.45	49144.23
519.62	49551.48
519.79	49680.21
519.96	49815.96
520.14	50286.41
520.31	49940.01
520.48	49996.18
520.65	49834.69
520.83	50452.59
521.00	50408.12
521.17	49949.37
521.34	50602.38
521.52	50714.73
521.69	50213.85
521.86	50773.24
522.03	50780.26
522.20	51208.58
522.38	51002.61
522.55	50939.42
522.72	51014.32
522.89	51063.47
523.07	51412.21
523.24	51281.14
523.41	51569.02
523.58	51159.43
523.75	51297.52
523.92	51557.32
524.10	51903.72
524.27	51793.71
524.44	51842.87
524.61	51693.07
524.78	51695.41
524.96	52196.29
525.13	51866.27
525.30	52172.88
525.47	52512.26
525.64	52222.03
525.81	52266.50
525.98	52648.01
526.16	52423.32
526.33	52259.48
526.50	53022.50
526.67	52395.23
526.84	52514.60
527.01	52509.92
527.18	52760.36
527.36	52903.13
527.53	52692.48
527.70	52884.40
527.87	53097.39
528.04	53092.71
528.21	53303.36
528.38	53027.18
528.55	53158.25
528.72	53130.16
528.89	53308.04
529.07	53172.29
529.24	53265.91
529.41	53272.93
529.58	53392.30
529.75	53169.95
529.92	53364.21
530.09	53612.31
530.26	53595.93
530.43	53855.73
530.60	53499.97
530.77	53886.15
530.94	53860.41
531.11	53652.10
531.28	53670.82
531.46	54045.31
531.63	54152.97
531.80	53778.49
531.97	54127.23
532.14	54134.25
532.31	54073.40
532.48	54433.84
532.65	54042.97
532.82	54129.57
532.99	54401.07
533.16	54244.26
533.33	54365.96
533.50	54609.38
533.67	54637.47
533.84	54686.62
534.01	54649.17
534.18	54597.68
534.35	54965.14
534.52	54958.12
534.69	54883.22
534.86	55004.93
535.03	54695.98
535.20	55290.48
535.37	55187.49
535.54	55152.38
535.71	55000.25
535.88	55217.92
536.05	55393.46
536.22	55269.41
536.38	55526.87
536.55	55374.73
536.72	55379.42
536.89	55227.28
537.06	55414.52
537.23	55622.83
537.40	55344.31
537.57	55512.83
537.74	55676.66
537.91	55805.39
538.08	55819.44
538.25	55547.93
538.42	55742.20
538.59	55873.27
538.75	55655.60
538.92	55838.16
539.09	55943.48
539.26	56046.47
539.43	55908.38
539.60	55765.60
539.77	56030.08
539.94	56285.20
540.11	56156.47
540.28	56090.94
540.44	56168.18
540.61	56287.54
540.78	56217.33
540.95	56231.37
541.12	56285.20
541.29	56086.26
541.46	56324.99
541.62	56231.37
541.79	56509.89
541.96	56388.19
542.13	56301.59
542.30	56259.46
542.47	56542.66
542.63	56755.65
542.80	56748.63
542.97	56863.32
543.14	57048.22
543.31	56956.94
543.48	57008.43
543.64	57462.49
543.81	57312.70
543.98	57080.98
544.15	57301.00
544.32	57427.38
544.48	57441.43
544.65	57144.18
544.82	57317.38
544.99	56872.68
545.16	57202.69
545.32	57329.08
545.49	57600.58
545.66	57598.24
545.83	57499.94
546.00	57532.71
546.16	57415.68
546.33	57120.77
546.50	57289.29
546.67	57598.24
546.83	57265.89
547.00	57659.10
547.17	57579.52
547.34	57551.43
547.50	57635.69
547.67	58021.88
547.84	57640.37
548.00	57921.24
548.17	57996.13
548.34	57855.70
548.51	58141.25
548.67	57951.66
548.84	58047.63
549.01	57780.81
549.18	57916.56
549.34	58176.36
549.51	58204.44
549.68	58234.87
549.84	58127.20
550.01	58181.04
550.18	57886.13
550.34	58370.62
550.51	58370.62
550.68	58267.64
550.84	58174.02
551.01	58368.28
551.18	58295.72
551.34	58176.36
551.51	58492.33
551.68	58272.32
551.84	58422.11
552.01	58202.10
552.18	58457.22
552.34	58267.64
552.51	58702.98
552.68	58426.79
552.84	58536.80
553.01	58688.93
553.18	58621.06
553.34	58857.45
553.51	58403.39
553.67	58616.38
553.84	58574.25
554.01	58684.25
554.17	58827.02
554.34	58770.85
554.51	58653.82
554.67	58864.47
554.84	58702.98
555.00	58796.60
555.17	58742.77
555.33	58939.37
555.50	58997.88
555.67	58738.08
555.83	58618.72
556.00	59217.89
556.16	59126.61
556.33	58997.88
556.50	59047.04
556.66	59030.65
556.83	58901.92
556.99	59260.02
557.16	59213.21
557.32	59208.53
557.49	59414.50
557.65	59058.74
557.82	59082.14
557.98	59068.10
558.15	59154.70
558.32	59103.21
558.48	59224.92
558.65	59288.11
558.81	59348.96
558.98	59388.75
559.14	59430.88
559.31	59351.30
559.47	59512.80
559.64	59559.61
559.80	59433.22
559.97	59592.38
560.13	59494.08
560.30	59545.57
560.46	59718.77
560.63	59681.32
560.79	59454.29
560.96	59711.75
561.12	59709.41
561.29	59643.87
561.45	59543.23
561.61	59568.97
561.78	59721.11
561.94	59877.93
562.11	59611.10
562.27	59545.57
562.44	59891.97
562.60	59798.35
562.77	59746.86
562.93	59571.32
563.10	60020.70
563.26	59557.27
563.42	59810.05
563.59	59760.90
563.75	59758.56
563.92	59838.14
564.08	59983.25
564.24	59803.03
564.41	59884.95
564.57	60116.66
564.74	60119.00
564.90	59924.74
565.07	60048.78
565.23	59929.42
565.39	60104.96
565.56	59966.87
565.72	60046.44
565.88	59990.27
566.05	60032.40
566.21	60093.25
566.38	59990.27
566.54	60200.92
566.70	60196.24
566.87	60097.94
567.03	60011.34
567.19	60360.08
567.36	60329.65
567.52	60062.83
567.68	60193.90
567.85	60229.01
568.01	60203.26
568.17	60009.00
568.34	60224.32
568.50	60189.22
568.66	60140.07
568.83	60126.02
568.99	60313.26
569.15	60509.87
569.32	60076.87
569.48	60243.05
569.64	60371.78
569.81	60296.88
569.97	60275.82
570.13	60292.20
570.30	60060.49
570.46	60308.58
570.62	60308.58
570.78	60266.45
570.95	60282.84
571.11	60346.03
571.27	60273.48
571.43	60566.04
571.60	60498.17
571.76	60477.10
571.92	60310.92
572.09	60231.35
572.25	60374.12
572.41	60395.18
572.57	60315.61
572.74	60561.36
572.90	60376.46
573.06	60416.25
573.22	60392.84
573.38	60406.89
573.55	60566.04
573.71	60746.26
573.87	60509.87
574.03	60465.40
574.20	60395.18
574.36	60568.38
574.52	60554.34
574.68	60498.17
574.84	60741.58
575.01	60711.16
575.17	60587.11
575.33	60629.24
575.49	60573.06
575.65	60563.70
575.82	60718.18
575.98	60587.11
576.14	60753.29
576.30	60694.77
576.46	60552.00
576.62	60477.10
576.79	60427.95
576.95	60556.68
577.11	60612.85
577.27	60542.64
577.43	60783.71
577.59	60601.15
577.75	60605.83
577.92	60477.10
578.08	60577.75
578.24	60736.90
578.40	60898.40
578.56	60872.65
578.72	60722.86
578.88	60753.29
579.04	60725.20
579.21	60683.07
579.37	60659.66
579.53	60669.03
579.69	60624.56
579.85	60493.49
580.01	60659.66
580.17	60645.62
580.33	60666.69
580.49	60755.63
580.65	60774.35
580.82	60776.69
580.98	60781.37
581.14	60753.29
581.30	60727.54
581.46	60933.51
581.62	60832.86
581.78	60772.01
581.94	60858.61
582.10	60676.05
582.26	60776.69
582.42	60575.40
582.58	60694.77
582.74	60781.37
582.90	60673.71
583.06	60685.41
583.22	60643.28
583.38	60769.67
583.54	60811.80
583.70	60809.46
583.86	60867.97
584.02	60638.60
584.18	60750.94
584.34	60858.61
584.50	60800.10
584.66	60739.24
584.82	60750.94
584.98	60940.53
585.14	60989.68
585.30	60720.52
585.46	60886.70
585.62	60867.97
585.78	61010.74
585.94	60687.75
586.10	60837.54
586.26	60837.54
586.42	60877.33
586.58	60989.68
586.74	60856.27
586.90	60797.76
587.06	60839.89
587.22	60996.70
587.38	60790.73
587.54	60907.76
587.70	61064.58
587.86	61141.81
588.02	60870.31
588.18	60992.02
588.34	60772.01
588.49	61022.45
