SpectraSuite Data File
++++++++++++++++++++++++++++++++++++
Date: Fri Oct 25 11:25:45 EDT 2013
User: price-jones
Dark Spectrum Present: No
Reference Spectrum Present: No
Number of Sampled Component Spectra: 1
Spectrometers: USB2+H05261
Integration Time (usec): 100000 (USB2+H05261)
Spectra Averaged: 1 (USB2+H05261)
Boxcar Smoothing: 0 (USB2+H05261)
Correct for Electrical Dark: No (USB2+H05261)
Strobe/Lamp Enabled: No (USB2+H05261)
Correct for Detector Non-linearity: No (USB2+H05261)
Correct for Stray Light: No (USB2+H05261)
Number of Pixels in Processed Spectrum: 2048
>>>>>Begin Processed Spectral Data<<<<<
365.73	205.97
365.92	205.97
366.12	205.97
366.32	196.60
366.52	126.39
366.72	161.50
366.91	133.41
367.11	166.18
367.31	107.66
367.51	215.33
367.70	105.32
367.90	222.35
368.10	182.56
368.30	133.41
368.49	161.50
368.69	117.03
368.89	119.37
369.09	191.92
369.28	175.54
369.48	227.03
369.68	138.09
369.87	231.71
370.07	304.27
370.27	278.52
370.47	355.76
370.66	631.94
370.86	685.78
371.06	723.23
371.25	734.93
371.45	641.31
371.65	657.69
371.84	610.88
372.04	727.91
372.24	650.67
372.44	657.69
372.63	732.59
372.83	683.44
373.03	681.10
373.22	744.29
373.42	685.78
373.62	772.38
373.81	821.53
374.01	807.48
374.21	819.19
374.40	765.36
374.60	800.46
374.79	828.55
374.99	798.12
375.19	823.87
375.38	830.89
375.58	819.19
375.78	851.96
375.97	826.21
376.17	882.38
376.37	842.59
376.56	887.06
376.76	854.30
376.95	903.45
377.15	952.60
377.35	961.96
377.54	863.66
377.74	882.38
377.93	903.45
378.13	926.85
378.33	840.25
378.52	898.77
378.72	961.96
378.91	959.62
379.11	931.53
379.31	940.90
379.50	947.92
379.70	898.77
379.89	915.15
380.09	971.32
380.28	1006.43
380.48	978.34
380.68	1025.15
380.87	961.96
381.07	976.00
381.26	1057.92
381.46	1008.77
381.65	1043.88
381.85	1095.37
382.04	1048.56
382.24	1064.94
382.43	1074.31
382.63	1064.94
382.83	1067.28
383.02	1104.73
383.22	1048.56
383.41	1064.94
383.61	1078.99
383.80	1107.07
384.00	1231.12
384.19	1139.84
384.39	1238.14
384.58	1135.16
384.78	1114.10
384.97	1179.63
385.17	1053.24
385.36	1163.25
385.56	1142.18
385.75	1203.04
385.95	1165.59
386.14	1259.21
386.34	1214.74
386.53	1196.01
386.72	1149.20
386.92	1210.06
387.11	1238.14
387.31	1303.68
387.50	1226.44
387.70	1177.29
387.89	1263.89
388.09	1186.65
388.28	1310.70
388.48	1336.45
388.67	1350.49
388.86	1252.19
389.06	1252.19
389.25	1320.06
389.45	1369.21
389.64	1268.57
389.84	1376.24
390.03	1458.15
390.22	1423.05
390.42	1336.45
390.61	1413.68
390.81	1338.79
391.00	1376.24
391.19	1416.02
391.39	1359.85
391.58	1474.54
391.78	1453.47
391.97	1495.60
392.16	1469.86
392.36	1460.49
392.55	1600.93
392.75	1558.80
392.94	1596.25
393.13	1537.73
393.33	1476.88
393.52	1526.03
393.71	1542.41
393.91	1617.31
394.10	1586.88
394.29	1607.95
394.49	1577.52
394.68	1661.78
394.88	1579.86
395.07	1645.40
395.26	1710.93
395.46	1783.49
395.65	1689.87
395.84	1713.27
396.04	1743.70
396.23	1757.74
396.42	1680.50
396.62	1736.68
396.81	1776.47
397.00	1722.63
397.19	1856.04
397.39	1755.40
397.58	1802.21
397.77	1774.13
397.97	1792.85
398.16	1916.90
398.35	1888.81
398.55	1816.26
398.74	1905.20
398.93	1881.79
399.12	1956.69
399.32	1872.43
399.51	1982.43
399.70	2003.50
399.90	1937.96
400.09	1968.39
400.28	2090.10
400.47	2052.65
400.67	2087.76
400.86	2054.99
401.05	2001.16
401.24	2129.89
401.44	2155.63
401.63	2136.91
401.82	2104.14
402.01	2062.01
402.21	2165.00
402.40	2190.74
402.59	2080.74
402.78	2172.02
402.97	2197.76
403.17	2291.38
403.36	2277.34
403.55	2242.23
403.74	2352.24
403.93	2471.61
404.13	2307.77
404.32	2345.22
404.51	2239.89
404.70	2429.48
404.89	2317.13
405.09	2476.29
405.28	2394.37
405.47	2429.48
405.66	2413.09
405.85	2511.39
406.05	2595.65
406.24	2427.14
406.43	2600.34
406.62	2576.93
406.81	2677.57
407.00	2560.55
407.20	2565.23
407.39	2562.89
407.58	2590.97
407.77	2651.83
407.96	2689.28
408.15	2597.99
408.34	2766.51
408.54	2850.77
408.73	2726.72
408.92	2775.88
409.11	2892.90
409.30	2906.95
409.49	2928.01
409.68	2911.63
409.87	2951.42
410.07	2970.14
410.26	2998.23
410.45	2967.80
410.64	2974.82
410.83	3098.87
411.02	3171.43
411.21	3066.10
411.40	3077.80
411.59	3246.32
411.78	3187.81
411.98	3131.64
412.17	3206.53
412.36	3201.85
412.55	3185.47
412.74	3307.18
412.93	3286.11
413.12	3433.57
413.31	3651.24
413.50	3478.04
413.69	3599.74
413.88	3552.93
414.07	3662.94
414.26	3609.11
414.45	3730.81
414.64	3623.15
414.83	3707.41
415.02	3775.28
415.22	3735.50
415.41	3988.27
415.60	3911.04
415.79	3859.54
415.98	3880.61
416.17	3985.93
416.36	4030.40
416.55	4030.40
416.74	3988.27
416.93	4077.21
417.12	4212.96
417.31	4053.81
417.50	4231.69
417.69	4229.35
417.88	4304.25
418.07	4315.95
418.26	4332.33
418.45	4250.41
418.64	4557.02
418.83	4456.38
419.02	4454.04
419.21	4606.17
419.39	4444.68
419.58	4566.39
419.77	4561.70
419.96	4482.13
420.15	4732.56
420.34	4589.79
420.53	4608.51
420.72	4858.95
420.91	4638.94
421.10	4676.39
421.29	4706.82
421.48	4608.51
421.67	4697.46
421.86	4727.88
422.05	4809.80
422.24	4823.84
422.43	4952.57
422.61	4968.96
422.80	4922.15
422.99	4919.81
423.18	4917.47
423.37	5060.24
423.56	4912.78
423.75	4873.00
423.94	4847.25
424.13	4723.20
424.32	4770.01
424.50	4903.42
424.69	5081.30
424.88	5057.90
425.07	4835.55
425.26	4926.83
425.45	5088.32
425.64	5137.48
425.83	5048.54
426.01	5022.79
426.20	5064.92
426.39	4891.72
426.58	5060.24
426.77	4966.62
426.96	5032.15
427.15	5088.32
427.33	5177.26
427.52	4945.55
427.71	5329.40
427.90	5205.35
428.09	5266.21
428.28	5334.08
428.46	5296.63
428.65	5390.25
428.84	5420.68
429.03	5373.87
429.22	5247.48
429.40	5448.77
429.59	5530.69
429.78	5280.25
429.97	5345.78
430.16	5460.47
430.34	5570.48
430.53	5673.46
430.72	5762.40
430.91	5734.31
431.10	5626.65
431.28	5790.49
431.47	5788.14
431.66	5804.53
431.85	5783.46
432.03	5989.43
432.22	6005.81
432.41	5942.62
432.60	5825.59
432.79	6043.26
432.97	6022.20
433.16	6104.12
433.35	5982.41
433.54	6129.86
433.72	6106.46
433.91	6029.22
434.10	6179.01
434.28	6099.44
434.47	6164.97
434.66	6258.59
434.85	6249.23
435.03	6415.41
435.22	6204.76
435.41	6616.69
435.59	6326.47
435.78	6441.15
435.97	6487.96
436.16	6483.28
436.34	6471.58
436.53	6459.88
436.72	6731.38
436.90	6476.26
437.09	6710.32
437.28	6656.48
437.46	6415.41
437.65	6499.67
437.84	6642.44
438.02	6693.93
438.21	6684.57
438.40	6595.63
438.58	6857.77
438.77	7042.67
438.96	7073.10
439.14	7014.59
439.33	7215.87
439.52	7101.19
439.70	7262.68
439.89	7281.41
440.08	7241.62
440.26	7346.94
440.45	7314.17
440.63	7391.41
440.82	7550.57
441.01	7543.55
441.19	7564.61
441.38	7648.87
441.57	7552.91
441.75	7772.92
441.94	7936.76
442.12	7758.88
442.31	8070.17
442.50	7976.55
442.68	7875.90
442.87	7978.89
443.05	8039.74
443.24	8187.19
443.43	7892.29
443.61	8126.34
443.80	8468.06
443.98	8009.31
444.17	7934.42
444.35	8294.86
444.54	8308.90
444.73	8327.63
444.91	8208.26
445.10	8404.86
445.28	8308.90
445.47	8063.15
445.65	8161.45
445.84	8510.19
446.02	8369.76
446.21	8367.42
446.39	8400.18
446.58	8456.36
446.77	8271.45
446.95	8283.16
447.14	8372.10
447.32	8699.77
447.51	8599.13
447.69	8313.58
447.88	8446.99
448.06	8549.98
448.25	8428.27
448.43	8451.67
448.62	8596.79
448.80	8531.25
448.99	8627.21
449.17	8727.86
449.36	8596.79
449.54	8819.14
449.73	8933.82
449.91	9032.13
450.10	9273.20
450.28	9235.75
450.46	9200.65
450.65	9034.47
450.83	8971.27
451.02	9036.81
451.20	9151.49
451.39	9151.49
451.57	9181.92
451.76	9092.98
451.94	9261.50
452.13	9062.55
452.31	9167.88
452.49	9125.75
452.68	9460.45
452.86	9158.52
453.05	9633.64
453.23	9481.51
453.42	9383.21
453.60	9341.08
453.78	9537.68
453.97	9528.32
454.15	9448.74
454.34	9542.36
454.52	9516.62
454.70	9528.32
454.89	9640.67
455.07	9916.85
455.26	9731.95
455.44	9987.07
455.62	9916.85
455.81	9694.50
455.99	9867.70
456.17	9867.70
456.36	10031.54
456.54	10104.09
456.73	10567.52
456.91	10314.74
457.09	10333.47
457.28	10626.03
457.46	10293.68
457.64	10359.21
457.83	10499.64
458.01	10373.25
458.19	10717.31
458.38	10410.70
458.56	10707.95
458.74	10771.15
458.93	10628.37
459.11	10824.98
459.29	10583.90
459.48	10684.55
459.66	10691.57
459.84	10731.36
460.03	10714.97
460.21	11021.58
460.39	10857.75
460.57	11129.25
460.76	10974.77
460.94	11159.67
461.12	11098.82
461.31	11164.36
461.49	11220.53
461.67	11119.89
461.85	11321.17
462.04	11014.56
462.22	11648.85
462.40	11644.17
462.59	11473.31
462.77	11417.13
462.95	11669.91
463.13	11496.71
463.32	11473.31
463.50	11665.23
463.68	11707.36
463.86	11690.98
464.05	11571.61
464.23	11543.52
464.41	11798.64
464.59	11625.44
464.78	12168.45
464.96	11864.18
465.14	11740.13
465.32	12004.61
465.50	12248.02
465.69	12081.85
465.87	12030.35
466.05	11866.52
466.23	12081.85
466.41	12229.30
466.60	12465.69
466.78	11934.39
466.96	11999.93
467.14	12028.01
467.32	12198.87
467.51	12542.93
467.69	12236.32
467.87	12610.81
468.05	12599.10
468.23	12341.64
468.41	12519.53
468.60	12730.17
468.78	12725.49
468.96	12615.49
469.14	12814.43
469.32	12905.71
469.50	12805.07
469.69	12964.23
469.87	13046.15
470.05	13165.51
470.23	13226.37
470.41	13177.22
470.59	13151.47
470.77	13083.59
470.95	13319.99
471.14	13287.22
471.32	12950.18
471.50	13626.60
471.68	13427.65
471.86	13319.99
472.04	13383.18
472.22	14146.20
472.40	13781.07
472.58	13703.84
472.77	13844.27
472.95	14193.01
473.13	14384.93
473.31	14204.71
473.49	14047.90
473.67	13823.20
473.85	14434.08
474.03	14581.54
474.21	14471.53
474.39	14717.29
474.57	14544.09
474.75	14984.11
474.93	15019.22
475.12	14827.29
475.30	14984.11
475.48	14686.86
475.66	15084.75
475.84	15061.35
476.02	15463.92
476.20	15297.74
476.38	15845.43
476.56	16027.99
476.74	15936.71
476.92	15836.06
477.10	15681.59
477.28	15868.83
477.46	16119.27
477.64	16252.68
477.82	16435.24
478.00	16989.95
478.18	16482.05
478.36	16610.78
478.54	16868.24
478.72	17317.62
478.90	17153.79
479.08	17607.85
479.26	17657.00
479.44	17605.51
479.62	17813.82
479.80	17755.30
479.98	18050.21
480.16	18523.00
480.34	18052.55
480.52	18478.53
480.70	18661.09
480.88	18380.23
481.06	18637.69
481.24	18583.85
481.41	19063.66
481.59	19367.93
481.77	19243.88
481.95	19578.58
482.13	19667.52
482.31	19321.12
482.49	20130.95
482.67	20027.96
482.85	20280.74
483.03	20620.12
483.21	20926.73
483.39	20844.81
483.57	21088.23
483.74	20989.92
483.92	21067.16
484.10	21563.36
484.28	21591.44
484.46	22061.89
484.64	22403.61
484.82	21752.94
485.00	22078.27
485.18	22431.69
485.35	22876.40
485.53	22611.92
485.71	23175.98
485.89	23400.68
486.07	23641.75
486.25	23307.05
486.43	23524.72
486.61	23653.45
486.78	23702.61
486.96	24182.42
487.14	24357.96
487.32	24379.02
487.50	24893.94
487.68	24837.76
487.85	25032.03
488.03	25568.01
488.21	25535.24
488.39	25628.87
488.57	26162.51
488.75	26202.30
488.92	26204.64
489.10	26536.99
489.28	26836.58
489.46	26867.01
489.64	26941.91
489.81	27103.40
489.99	27449.80
490.17	27548.11
490.35	28102.81
490.53	28182.39
490.70	28587.30
490.88	28559.22
491.06	28374.31
491.24	28496.02
491.41	28847.10
491.59	29254.36
491.77	28938.38
491.95	29338.62
492.13	29766.93
492.30	29797.36
492.48	30040.78
492.66	29743.53
492.84	30139.08
493.01	30822.51
493.19	30394.20
493.37	30728.89
493.54	31276.58
493.72	31220.41
493.90	31583.19
494.08	31426.37
494.25	31742.35
494.43	31850.01
494.61	32018.53
494.79	32098.11
494.96	32664.52
495.14	32713.67
495.32	33123.26
495.49	33118.58
495.67	32987.51
495.85	33394.76
496.02	33902.66
496.20	33989.26
496.38	33811.38
496.55	33888.62
496.73	34515.88
496.91	34286.51
497.09	34469.07
497.26	34843.56
497.44	34911.43
497.62	35426.35
497.79	35686.15
497.97	35529.33
498.14	36268.94
498.32	35976.37
498.50	36383.63
498.67	36650.45
498.85	36404.69
499.03	36198.73
499.20	36566.19
499.38	36774.50
499.56	36570.87
499.73	36924.29
499.91	36973.44
500.08	37759.86
500.26	37006.21
500.44	37280.05
500.61	37975.19
500.79	37713.05
500.97	37986.89
501.14	38022.00
501.32	38178.82
501.49	38199.88
501.67	38532.24
501.84	38672.67
502.02	38628.20
502.20	38679.69
502.37	38705.44
502.55	38986.30
502.72	39304.62
502.90	39487.18
503.07	39168.87
503.25	39791.45
503.43	39353.77
503.60	40002.10
503.78	39978.69
503.95	40149.55
504.13	39936.56
504.30	40442.12
504.48	40570.85
504.65	40526.38
504.83	40982.78
505.01	41034.27
505.18	41123.21
505.36	41352.58
505.53	41134.92
505.71	41539.83
505.88	41642.81
506.06	41439.18
506.23	41844.10
506.41	41528.13
506.58	41429.82
506.76	41563.23
506.93	42146.03
507.11	41963.46
507.28	42508.81
507.46	42782.65
507.63	42777.97
507.81	42899.68
507.98	42230.29
508.16	42808.40
508.33	43257.78
508.50	42972.24
508.68	43512.90
508.85	43491.83
509.03	43622.90
509.20	44144.84
509.38	44151.87
509.55	44156.55
509.73	44423.37
509.90	43887.39
510.08	44414.01
510.25	44486.56
510.42	44498.26
510.60	45059.99
510.77	44645.72
510.95	45045.95
511.12	45193.40
511.30	45319.79
511.47	45495.33
511.64	44776.79
511.82	46021.95
511.99	45439.16
512.17	45865.14
512.34	45668.53
512.51	46424.53
512.69	45918.97
512.86	46239.62
513.04	46246.65
513.21	46777.95
513.38	46466.66
513.56	46457.29
513.73	46480.70
513.90	46628.15
514.08	46937.10
514.25	47124.35
514.43	47323.29
514.60	47077.54
514.77	47452.02
514.95	47714.16
515.12	47435.64
515.29	47573.73
515.47	47447.34
515.64	48128.44
515.81	48163.54
515.99	47746.93
516.16	48217.38
516.33	47938.85
516.51	48404.62
516.68	48292.27
516.85	48247.80
517.03	48523.99
517.20	48531.01
517.37	48683.14
517.54	48486.54
517.72	48678.46
517.89	49083.37
518.06	49226.15
518.24	49083.37
518.41	49233.17
518.58	49261.26
518.75	49045.93
518.93	49258.91
519.10	49368.92
519.27	49441.48
519.45	49436.80
519.62	49862.77
519.79	49572.55
519.96	50092.15
520.14	50113.21
520.31	49897.88
520.48	50398.76
520.65	50003.20
520.83	50660.90
521.00	50518.12
521.17	50145.98
521.34	50270.03
521.52	50710.05
521.69	50574.30
521.86	50916.01
522.03	51117.30
522.20	51395.82
522.38	50944.10
522.55	51213.26
522.72	51332.63
522.89	51358.38
523.07	51377.10
523.24	51412.21
523.41	51285.82
523.58	51367.74
523.75	51957.55
523.92	51786.69
524.10	52128.41
524.27	52032.45
524.44	51913.08
524.61	51824.14
524.78	51889.68
524.96	51828.82
525.13	52226.71
525.30	52472.47
525.47	52755.68
525.64	52193.95
525.81	52542.69
525.98	52669.08
526.16	52287.57
526.33	52355.44
526.50	52671.42
526.67	52638.65
526.84	52629.29
527.01	52811.85
527.18	52690.14
527.36	52865.68
527.53	52718.23
527.70	53366.55
527.87	53083.35
528.04	53034.20
528.21	53401.66
528.38	53158.25
528.55	53181.65
528.72	53188.67
528.89	53389.96
529.07	53254.21
529.24	53090.37
529.41	53574.86
529.58	53478.90
529.75	53413.37
529.92	53727.00
530.09	53492.94
530.26	54115.53
530.43	53820.62
530.60	53621.67
530.77	53708.27
530.94	53834.66
531.11	53708.27
531.28	54284.04
531.46	54000.84
531.63	54167.02
531.80	54138.93
531.97	54237.23
532.14	54429.16
532.31	54377.67
532.48	54539.16
532.65	54445.54
532.82	54630.44
532.99	54557.89
533.16	54630.44
533.33	54885.56
533.50	54728.75
533.67	54684.28
533.84	54480.65
534.01	55016.63
534.18	54651.51
534.35	55051.74
534.52	54878.54
534.69	55154.72
534.86	55255.37
535.03	54925.35
535.20	54906.63
535.37	55435.59
535.54	55423.89
535.71	55227.28
535.88	55316.22
536.05	55304.52
536.22	55243.66
536.38	55290.48
536.55	55821.78
536.72	55466.02
536.89	55470.70
537.06	55536.23
537.23	55550.27
537.40	55243.66
537.57	55440.27
537.74	55688.37
537.91	55959.87
538.08	55910.72
538.25	55590.06
538.42	55716.45
538.59	55929.44
538.75	55873.27
538.92	55906.04
539.09	56020.72
539.26	56020.72
539.43	55849.86
539.60	55835.82
539.77	56112.00
539.94	56315.63
540.11	56315.63
540.28	56217.33
540.44	56203.28
540.61	56285.20
540.78	56142.43
540.95	56418.61
541.12	56303.93
541.29	56376.48
541.46	56498.19
541.62	56683.09
541.79	56523.94
541.96	56212.65
542.13	56357.76
542.30	56460.74
542.47	56584.79
542.63	56872.68
542.80	56816.50
542.97	56924.17
543.14	56987.36
543.31	56868.00
543.48	57020.13
543.64	57350.15
543.81	57214.40
543.98	57296.31
544.15	57167.58
544.32	57354.83
544.48	57642.71
544.65	57104.39
544.82	57284.61
544.99	57193.33
545.16	57532.71
545.32	57263.55
545.49	57605.26
545.66	57422.70
545.83	57439.09
546.00	57726.97
546.16	57340.78
546.33	57305.68
546.50	57516.32
546.67	57612.29
546.83	57464.83
547.00	57773.78
547.17	57385.25
547.34	57694.21
547.50	57848.68
547.67	57914.22
547.84	58028.90
548.00	57869.75
548.17	58216.14
548.34	57998.48
548.51	58262.96
548.67	58071.03
548.84	57888.47
549.01	57902.51
549.18	58045.29
549.34	57853.36
549.51	58045.29
549.68	58237.21
549.84	58094.44
550.01	58300.40
550.18	58183.38
550.34	58403.39
550.51	58265.30
550.68	58267.64
550.84	57925.92
551.01	58176.36
551.18	58269.98
551.34	58553.18
551.51	58482.97
551.68	58541.48
551.84	58475.94
552.01	58375.30
552.18	58578.93
552.34	58445.52
552.51	58731.06
552.68	58415.09
552.84	58501.69
553.01	58754.47
553.18	58550.84
553.34	58752.13
553.51	58599.99
553.67	58770.85
553.84	58812.98
554.01	58932.35
554.17	58824.68
554.34	58920.65
554.51	58922.99
554.67	59082.14
554.84	58930.01
555.00	58857.45
555.17	58796.60
555.33	59210.87
555.50	58782.55
555.67	58625.74
555.83	59016.61
556.00	59185.13
556.16	59260.02
556.33	59068.10
556.50	58922.99
556.66	59119.59
556.83	59206.19
556.99	59339.60
557.16	59320.88
557.32	59313.86
557.49	59484.72
557.65	59192.15
557.82	59290.45
557.98	59224.92
558.15	59447.27
558.32	59508.12
558.48	59363.01
558.65	59337.26
558.81	59405.14
558.98	59152.36
559.14	59545.57
559.31	59669.62
559.47	59700.04
559.64	59627.49
559.80	59559.61
559.97	59416.84
560.13	59227.26
560.30	59554.93
560.46	59646.21
560.63	59655.57
560.79	59697.70
560.96	59852.18
561.12	59538.55
561.29	59819.41
561.45	59739.83
561.61	59664.94
561.78	59786.64
561.94	59615.79
562.11	59655.57
562.27	59744.51
562.44	59915.37
562.60	60039.42
562.77	59798.35
562.93	59648.55
563.10	59941.12
563.26	59880.27
563.42	60154.11
563.59	60016.02
563.75	59903.67
563.92	59931.76
564.08	59746.86
564.24	60193.90
564.41	60081.55
564.57	59976.23
564.74	60009.00
564.90	59973.89
565.07	60018.36
565.23	59828.77
565.39	59983.25
565.56	60046.44
565.72	60030.06
565.88	59945.80
566.05	59877.93
566.21	60090.91
566.38	60168.15
566.54	60133.04
566.70	60392.84
566.87	60154.11
567.03	59868.56
567.19	60385.82
567.36	60259.43
567.52	60221.98
567.68	60416.25
567.85	60491.15
568.01	60278.16
568.17	60116.66
568.34	60261.77
568.50	60416.25
568.66	60327.31
568.83	60488.80
568.99	60350.71
569.15	60479.44
569.32	60320.29
569.48	60271.14
569.64	60247.73
569.81	60111.98
569.97	60219.64
570.13	60395.18
570.30	60205.60
570.46	60549.66
570.62	60495.83
570.78	60257.09
570.95	60327.31
571.11	60395.18
571.27	60458.38
571.43	60481.78
571.60	60589.45
571.76	60357.74
571.92	60317.95
572.09	60633.92
572.25	60552.00
572.41	60404.55
572.57	60317.95
572.74	60577.75
572.90	60470.08
573.06	60514.55
573.22	60547.32
573.38	60544.98
573.55	60715.84
573.71	60725.20
573.87	60570.72
574.03	60444.33
574.20	60622.22
574.36	60294.54
574.52	60584.77
574.68	60687.75
574.84	60638.60
575.01	60739.24
575.17	60498.17
575.33	60603.49
575.49	60322.63
575.65	60860.95
575.82	60706.47
575.98	60687.75
576.14	60659.66
576.30	60626.90
576.46	60521.57
576.62	60687.75
576.79	60561.36
576.95	60498.17
577.11	60706.47
577.27	60870.31
577.43	60715.84
577.59	60493.49
577.75	60673.71
577.92	60601.15
578.08	60577.75
578.24	60828.18
578.40	60956.91
578.56	60851.59
578.72	60914.78
578.88	60921.80
579.04	60900.74
579.21	60760.31
579.37	60945.21
579.53	60708.82
579.69	60474.76
579.85	60603.49
580.01	60645.62
580.17	60683.07
580.33	60596.47
580.49	60699.45
580.65	60729.88
580.82	60678.39
580.98	60711.16
581.14	60793.07
581.30	60825.84
581.46	60825.84
581.62	60795.42
581.78	60615.19
581.94	60961.59
582.10	60692.43
582.26	60809.46
582.42	60931.17
582.58	60708.82
582.74	60940.53
582.90	60968.61
583.06	60743.92
583.22	60523.91
583.38	60772.01
583.54	60762.65
583.70	60835.20
583.86	60811.80
584.02	60757.97
584.18	61055.21
584.34	61008.40
584.50	60949.89
584.66	60711.16
584.82	60774.35
584.98	60891.38
585.14	60910.10
585.30	60889.04
585.46	60931.17
585.62	60921.80
585.78	60949.89
585.94	60622.22
586.10	60811.80
586.26	60814.14
586.42	60992.02
586.58	61001.38
586.74	60718.18
586.90	60837.54
587.06	60896.06
587.22	61174.58
587.38	60795.42
587.54	60942.87
587.70	61347.78
587.86	60900.74
588.02	60844.57
588.18	61230.75
588.34	61008.40
588.49	61134.79
