SpectraSuite Data File
++++++++++++++++++++++++++++++++++++
Date: Fri Oct 25 10:44:38 EDT 2013
User: price-jones
Dark Spectrum Present: No
Reference Spectrum Present: No
Number of Sampled Component Spectra: 1
Spectrometers: USB2+H05261
Integration Time (usec): 100000 (USB2+H05261)
Spectra Averaged: 1 (USB2+H05261)
Boxcar Smoothing: 0 (USB2+H05261)
Correct for Electrical Dark: No (USB2+H05261)
Strobe/Lamp Enabled: No (USB2+H05261)
Correct for Detector Non-linearity: No (USB2+H05261)
Correct for Stray Light: No (USB2+H05261)
Number of Pixels in Processed Spectrum: 2048
>>>>>Begin Processed Spectral Data<<<<<
365.73	156.82
365.92	156.82
366.12	156.82
366.32	0.00
366.52	0.00
366.72	74.90
366.91	11.70
367.11	7.02
367.31	7.02
367.51	18.72
367.70	88.94
367.90	28.09
368.10	21.06
368.30	42.13
368.49	67.88
368.69	84.26
368.89	9.36
369.09	28.09
369.28	53.83
369.48	88.94
369.68	77.24
369.87	91.28
370.07	124.05
370.27	93.62
370.47	177.88
370.66	358.10
370.86	393.21
371.06	381.51
371.25	374.49
371.45	407.25
371.65	477.47
371.84	449.38
372.04	423.64
372.24	484.49
372.44	437.68
372.63	433.00
372.83	552.37
373.03	524.28
373.22	470.45
373.42	524.28
373.62	510.24
373.81	503.22
374.01	554.71
374.21	491.51
374.40	566.41
374.60	484.49
374.79	510.24
374.99	486.83
375.19	528.96
375.38	568.75
375.58	566.41
375.78	545.34
375.97	550.03
376.17	624.92
376.37	526.62
376.56	535.98
376.76	519.60
376.95	613.22
377.15	545.34
377.35	507.90
377.54	603.86
377.74	582.79
377.93	526.62
378.13	573.43
378.33	636.63
378.52	636.63
378.72	608.54
378.91	634.29
379.11	603.86
379.31	566.41
379.50	582.79
379.70	650.67
379.89	645.99
380.09	685.78
380.28	554.71
380.48	622.58
380.68	617.90
380.87	657.69
381.07	578.11
381.26	575.77
381.46	643.65
381.65	601.52
381.85	667.05
382.04	571.09
382.24	596.84
382.43	603.86
382.63	617.90
382.83	631.94
383.02	660.03
383.22	760.67
383.41	629.60
383.61	571.09
383.80	753.65
384.00	671.73
384.19	697.48
384.39	755.99
384.58	798.12
384.78	681.10
384.97	660.03
385.17	655.35
385.36	725.57
385.56	833.23
385.75	699.82
385.95	784.08
386.14	725.57
386.34	746.63
386.53	739.61
386.72	802.80
386.92	798.12
387.11	816.85
387.31	816.85
387.50	751.31
387.70	788.76
387.89	720.88
388.09	753.65
388.28	880.04
388.48	837.91
388.67	816.85
388.86	847.27
389.06	866.00
389.25	968.98
389.45	940.90
389.64	823.87
389.84	807.48
390.03	809.83
390.22	905.79
390.42	823.87
390.61	880.04
390.81	898.77
391.00	908.13
391.19	898.77
391.39	957.28
391.58	1050.90
391.78	1008.77
391.97	1039.20
392.16	940.90
392.36	919.83
392.55	978.34
392.75	978.34
392.94	887.06
393.13	926.85
393.33	940.90
393.52	980.68
393.71	978.34
393.91	1055.58
394.10	1001.75
394.29	1090.69
394.49	964.30
394.68	1090.69
394.88	1011.11
395.07	1111.75
395.26	1179.63
395.46	1132.82
395.65	1142.18
395.84	1144.52
396.04	1104.73
396.23	990.05
396.42	1048.56
396.62	1107.07
396.81	1128.14
397.00	1132.82
397.19	1121.12
397.39	1200.69
397.58	1282.61
397.77	1219.42
397.97	1254.53
398.16	1179.63
398.35	1270.91
398.55	1296.66
398.74	1291.98
398.93	1336.45
399.12	1338.79
399.32	1322.40
399.51	1380.92
399.70	1306.02
399.90	1345.81
400.09	1401.98
400.28	1277.93
400.47	1357.51
400.67	1313.04
400.86	1397.30
401.05	1439.43
401.24	1420.71
401.44	1495.60
401.63	1507.30
401.82	1507.30
402.01	1413.68
402.21	1465.18
402.40	1446.45
402.59	1479.22
402.78	1493.26
402.97	1565.82
403.17	1577.52
403.36	1575.18
403.55	1722.63
403.74	1654.76
403.93	1589.22
404.13	1568.16
404.32	1563.48
404.51	1586.88
404.70	1657.10
404.89	1701.57
405.09	1696.89
405.28	1769.44
405.47	1715.61
405.66	1781.15
405.85	1717.95
406.05	1743.70
406.24	1710.93
406.43	1781.15
406.62	1830.30
406.81	1956.69
407.00	1804.55
407.20	1769.44
407.39	1844.34
407.58	1863.07
407.77	1940.30
407.96	2005.84
408.15	1947.33
408.34	1961.37
408.54	1837.32
408.73	2019.88
408.92	1942.64
409.11	2054.99
409.30	2052.65
409.49	1966.05
409.68	2022.22
409.87	2015.20
410.07	2120.53
410.26	2099.46
410.45	2033.93
410.64	2148.61
410.83	2197.76
411.02	2209.47
411.21	2291.38
411.40	2207.13
411.59	2242.23
411.78	2291.38
411.98	2286.70
412.17	2310.11
412.36	2347.56
412.55	2429.48
412.74	2406.07
412.93	2490.33
413.12	2396.71
413.31	2354.58
413.50	2375.64
413.69	2513.74
413.88	2558.21
414.07	2544.16
414.26	2612.04
414.45	2726.72
414.64	2633.10
414.83	2663.53
415.02	2562.89
415.22	2693.96
415.41	2853.11
415.60	2757.15
415.79	2820.35
415.98	2855.45
416.17	2780.56
416.36	2871.84
416.55	2890.56
416.74	2932.69
416.93	2860.13
417.12	2963.12
417.31	3009.93
417.50	2991.20
417.69	3117.59
417.88	3035.67
418.07	3061.42
418.26	3014.61
418.45	3110.57
418.64	3101.21
418.83	3187.81
419.02	3157.38
419.21	3108.23
419.39	3159.72
419.58	3171.43
419.77	3117.59
419.96	3192.49
420.15	3199.51
420.34	3183.13
420.53	3225.26
420.72	3295.47
420.91	3449.95
421.10	3255.69
421.29	3405.48
421.48	3351.65
421.67	3384.41
421.86	3353.99
422.05	3438.25
422.24	3449.95
422.43	3529.53
422.61	3300.16
422.80	3501.44
422.99	3318.88
423.18	3571.66
423.37	3440.59
423.56	3531.87
423.75	3386.76
423.94	3478.04
424.13	3375.05
424.32	3225.26
424.50	3506.12
424.69	3564.64
424.88	3569.32
425.07	3606.77
425.26	3379.73
425.45	3508.46
425.64	3407.82
425.83	3529.53
426.01	3543.57
426.20	3499.10
426.39	3543.57
426.58	3433.57
426.77	3508.46
426.96	3562.30
427.15	3648.90
427.33	3740.18
427.52	3641.87
427.71	3613.79
427.90	3698.05
428.09	3728.47
428.28	3770.60
428.46	3791.67
428.65	3686.34
428.84	3901.67
429.03	3810.39
429.22	3676.98
429.40	3819.75
429.59	3810.39
429.78	3648.90
429.97	3641.87
430.16	3566.98
430.34	3857.20
430.53	3798.69
430.72	3911.04
430.91	3789.33
431.10	4028.06
431.28	4081.89
431.47	4084.23
431.66	4131.05
431.85	4093.60
432.03	4051.47
432.22	4149.77
432.41	4039.76
432.60	4245.73
432.79	4131.05
432.97	4248.07
433.16	4114.66
433.35	4156.79
433.54	4290.20
433.72	4203.60
433.91	4262.12
434.10	4058.49
434.28	4182.54
434.47	4381.48
434.66	4491.49
434.85	4386.16
435.03	4498.51
435.22	4421.27
435.41	4552.34
435.59	4505.53
435.78	4521.92
435.97	4662.35
436.16	4538.30
436.34	4514.89
436.53	4587.45
436.72	4550.00
436.90	4428.29
437.09	4512.55
437.28	4650.64
437.46	4594.47
437.65	4706.82
437.84	4772.35
438.02	4704.48
438.21	4788.74
438.40	4685.75
438.58	4943.21
438.77	4863.63
438.96	4992.36
439.14	5029.81
439.33	5069.60
439.52	4964.28
439.70	4929.17
439.89	5093.01
440.08	4964.28
440.26	5022.79
440.45	5107.05
440.63	5315.36
440.82	5322.38
441.01	5245.14
441.19	5355.15
441.38	5453.45
441.57	5296.63
441.75	5390.25
441.94	5706.23
442.12	5591.54
442.31	5568.13
442.50	5633.67
442.68	5692.18
442.87	5652.39
443.05	5584.52
443.24	5717.93
443.43	5488.56
443.61	5713.25
443.80	5736.65
443.98	5668.78
444.17	5614.95
444.35	5741.33
444.54	5879.43
444.73	5823.25
444.91	5722.61
445.10	5692.18
445.28	5650.05
445.47	5736.65
445.65	5680.48
445.84	5881.77
446.02	5860.70
446.21	5827.93
446.39	5989.43
446.58	5949.64
446.77	5973.05
446.95	5980.07
447.14	6022.20
447.32	6036.24
447.51	5853.68
447.69	5933.26
447.88	5816.23
448.06	5912.19
448.25	5785.80
448.43	5933.26
448.62	5963.68
448.80	5907.51
448.99	6197.74
449.17	6090.07
449.36	6005.81
449.54	6122.84
449.73	6305.40
449.91	6387.32
450.10	6310.08
450.28	6345.19
450.46	6445.84
450.65	6473.92
450.83	6527.75
451.02	6464.56
451.20	6459.88
451.39	6429.45
451.57	6296.04
451.76	6310.08
451.94	6464.56
452.13	6478.60
452.31	6445.84
452.49	6317.11
452.68	6492.65
452.86	6349.87
453.05	6604.99
453.23	6459.88
453.42	6422.43
453.60	6483.28
453.78	6733.72
453.97	6499.67
454.15	6651.80
454.34	6513.71
454.52	6733.72
454.70	6600.31
454.89	6733.72
455.07	6747.76
455.26	6726.70
455.44	6825.00
455.62	6895.22
455.81	7005.22
455.99	6813.30
456.17	6878.83
456.36	7033.31
456.54	7056.72
456.73	7173.74
456.91	7199.49
457.09	7150.34
457.28	7304.81
457.46	7122.25
457.64	7325.88
457.83	7363.33
458.01	7124.59
458.19	7337.58
458.38	7358.64
458.56	7232.26
458.74	7482.69
458.93	7424.18
459.11	7417.16
459.29	7456.95
459.48	7487.37
459.66	7602.06
459.84	7564.61
460.03	7660.57
460.21	7644.19
460.39	7583.34
460.57	7630.15
460.76	7871.22
460.94	7719.09
461.12	7627.81
461.31	7515.46
461.49	7681.64
461.67	7463.97
461.85	7733.13
462.04	7854.84
462.22	7899.31
462.40	7948.46
462.59	7955.48
462.77	7918.03
462.95	8021.02
463.13	7953.14
463.32	8084.21
463.50	7939.10
463.68	8142.72
463.86	8098.25
464.05	7899.31
464.23	8051.44
464.41	8124.00
464.59	7943.78
464.78	8311.24
464.96	8175.49
465.14	8219.96
465.32	8344.01
465.50	8208.26
465.69	8290.18
465.87	8276.13
466.05	8168.47
466.23	8248.05
466.41	8442.31
466.60	8446.99
466.78	8292.52
466.96	8152.09
467.14	8617.85
467.32	8641.26
467.51	8535.93
467.69	8381.46
467.87	8561.68
468.05	8650.62
468.23	8580.40
468.41	8505.51
468.60	8608.49
468.78	8730.20
468.96	8683.39
469.14	8685.73
469.32	8910.42
469.50	8437.63
469.69	8784.03
469.87	8952.55
470.05	8835.52
470.23	8961.91
470.41	8823.82
470.59	8924.46
470.77	8887.01
470.95	9001.70
471.14	9132.77
471.32	8990.00
471.50	9254.48
471.68	9135.11
471.86	9336.40
472.04	9184.26
472.22	9565.77
472.40	9291.93
472.58	9324.69
472.77	9507.26
472.95	9441.72
473.13	9685.14
473.31	9537.68
473.49	9645.35
473.67	9549.39
473.85	9769.40
474.03	9905.15
474.21	9951.96
474.39	9893.44
474.57	9872.38
474.75	9940.26
474.93	10218.78
475.12	9928.55
475.30	10162.61
475.48	10001.11
475.66	10579.22
475.84	10197.71
476.02	10190.69
476.20	10244.52
476.38	10595.61
476.56	10796.89
476.74	10740.72
476.92	10700.93
477.10	10885.83
477.28	10829.66
477.46	10981.79
477.64	11183.08
477.82	11178.40
478.00	11452.24
478.18	11304.79
478.36	11234.57
478.54	11367.98
478.72	11541.18
478.90	11662.89
479.08	11812.68
479.26	11894.60
479.44	11948.43
479.62	11866.52
479.80	11798.64
479.98	12011.63
480.16	12365.05
480.34	12205.89
480.52	12603.78
480.70	12252.70
480.88	12264.41
481.06	12610.81
481.24	12620.17
481.41	12711.45
481.59	12994.65
481.77	12968.91
481.95	13200.62
482.13	13289.56
482.31	13109.34
482.49	13596.17
482.67	13432.33
482.85	13427.65
483.03	13671.07
483.21	13802.14
483.39	13785.76
483.57	13888.74
483.74	14061.94
483.92	14071.30
484.10	14001.08
484.28	14452.81
484.46	14384.93
484.64	14574.52
484.82	14424.72
485.00	14623.67
485.18	14768.78
485.35	14874.10
485.53	14752.40
485.71	14836.66
485.89	15103.48
486.07	14963.04
486.25	15314.13
486.43	15510.73
486.61	15445.20
486.78	15833.72
486.96	15697.97
487.14	15985.86
487.32	16205.87
487.50	16266.72
487.68	16505.46
487.85	16599.08
488.03	16826.11
488.21	16931.44
488.39	16987.61
488.57	17350.39
488.75	17137.40
488.92	17558.70
489.10	17558.70
489.28	17593.81
489.46	17830.20
489.64	17774.03
489.81	18389.59
489.99	18476.19
490.17	18459.81
490.35	18548.75
490.53	18640.03
490.70	18572.15
490.88	18459.81
491.06	19023.87
491.24	18874.08
491.41	18801.52
491.59	18925.57
491.77	19185.37
491.95	19131.54
492.13	19176.01
492.30	19761.14
492.48	19613.69
492.66	19950.73
492.84	19899.23
493.01	19817.32
493.19	20020.94
493.37	20365.00
493.54	20397.77
493.72	20416.49
493.90	20444.58
494.08	21090.57
494.25	21142.06
494.43	21062.48
494.61	21095.25
494.79	21600.80
494.96	21123.33
495.14	21298.88
495.32	21996.35
495.49	21577.40
495.67	21802.09
495.85	21954.22
496.02	22197.64
496.20	22281.90
496.38	22160.19
496.55	22373.18
496.73	22572.13
496.91	22668.09
497.09	23124.49
497.26	22771.07
497.44	23058.96
497.62	22955.97
497.79	23147.90
497.97	22874.06
498.14	23508.34
498.32	23611.32
498.50	23571.54
498.67	23686.22
498.85	23431.10
499.03	23992.83
499.20	24187.10
499.38	23796.23
499.56	24086.45
499.73	24297.10
499.91	24418.81
500.08	24355.61
500.26	24247.95
500.44	24203.48
500.61	24582.65
500.79	24283.06
500.97	24805.00
501.14	25013.31
501.32	25022.67
501.49	25060.12
501.67	24584.99
501.84	25186.50
502.02	25167.78
502.20	25827.81
502.37	25546.95
502.55	25575.03
502.72	25724.83
502.90	25614.82
503.07	25919.09
503.25	25921.43
503.43	25895.69
503.60	26061.87
503.78	26244.43
503.95	26061.87
504.13	26211.66
504.30	26539.33
504.48	26150.81
504.65	26480.82
504.83	26843.60
505.01	26796.79
505.18	26712.53
505.36	27171.28
505.53	26637.64
505.71	27218.09
505.88	27264.90
506.06	26843.60
506.23	27325.75
506.41	27342.14
506.58	27466.19
506.76	27309.37
506.93	27290.65
507.11	27365.54
507.28	27630.02
507.46	27590.24
507.63	27707.26
507.81	27768.12
507.98	27857.06
508.16	27910.89
508.33	27585.55
508.50	28187.07
508.68	28266.65
508.85	28669.22
509.03	28444.53
509.20	28430.49
509.38	29120.95
509.55	28940.72
509.73	29020.30
509.90	28926.68
510.08	28844.76
510.25	28973.49
510.42	29219.25
510.60	29401.81
510.77	28964.13
510.95	29905.02
511.12	29347.98
511.30	29394.79
511.47	29935.45
511.64	29890.98
511.82	29989.28
511.99	29570.33
512.17	29984.60
512.34	29680.33
512.51	29963.54
512.69	30520.59
512.86	30333.34
513.04	30621.23
513.21	30405.90
513.38	30623.57
513.56	30511.22
513.73	30359.09
513.90	30401.22
514.08	30438.67
514.25	30677.40
514.43	30359.09
514.60	30869.33
514.77	31026.14
514.95	31545.74
515.12	30969.97
515.29	31227.43
515.47	31276.58
515.64	31709.58
515.81	31367.86
515.99	31487.23
516.16	31857.03
516.33	31409.99
516.51	31391.26
516.68	31005.08
516.85	31140.83
517.03	31466.16
517.20	31770.43
517.37	31658.09
517.54	31585.53
517.72	31974.06
517.89	32063.00
518.06	31988.10
518.24	31866.39
518.41	31950.65
518.58	32362.59
518.75	32236.20
518.93	32521.74
519.10	32039.59
519.27	32561.53
519.45	32304.07
519.62	32615.37
519.79	32680.90
519.96	33249.65
520.14	33214.54
520.31	33095.18
520.48	33270.72
520.65	32879.85
520.83	33677.97
521.00	33567.96
521.17	33366.68
521.34	33420.51
521.52	33586.69
521.69	33617.11
521.86	33699.03
522.03	33560.94
522.20	33937.77
522.38	34057.14
522.55	33972.88
522.72	33902.66
522.89	34181.18
523.07	34209.27
523.24	34354.38
523.41	34246.72
523.58	34550.99
523.75	35115.06
523.92	34827.17
524.10	34424.60
524.27	34164.80
524.44	34707.80
524.61	34539.29
524.78	35037.82
524.96	35215.70
525.13	34665.67
525.30	34843.56
525.47	35271.87
525.64	35129.10
525.81	35208.68
525.98	34803.77
526.16	35054.20
526.33	35222.72
526.50	35405.28
526.67	34995.69
526.84	35161.87
527.01	35447.41
527.18	35667.42
527.36	35592.53
527.53	35723.60
527.70	36004.46
527.87	35681.47
528.04	35583.16
528.21	35955.31
528.38	35807.86
528.55	36439.80
528.72	35929.56
528.89	36182.34
529.07	35995.10
529.24	36048.93
529.41	36084.04
529.58	36472.57
529.75	36287.67
529.92	36561.51
530.09	36446.82
530.26	36622.36
530.43	36549.81
530.60	36297.03
530.77	36517.04
530.94	36624.70
531.11	36809.61
531.28	36517.04
531.46	36910.25
531.63	36994.51
531.80	36882.16
531.97	37074.09
532.14	37242.60
532.31	36715.98
532.48	37202.82
532.65	37556.24
532.82	37146.64
532.99	37296.44
533.16	37214.52
533.33	37195.79
533.50	37282.39
533.67	37834.76
533.84	37247.29
534.01	37656.88
534.18	37528.15
534.35	38075.84
534.52	37874.55
534.69	37682.62
534.86	37874.55
535.03	37708.37
535.20	37645.18
535.37	38476.07
535.54	38253.72
535.71	37949.45
535.88	38024.34
536.05	38050.09
536.22	38080.52
536.38	38171.80
536.55	38190.52
536.72	38529.90
536.89	38029.02
537.06	38682.03
537.23	38792.04
537.40	38148.39
537.57	38319.25
537.74	38342.66
537.91	38838.85
538.08	38600.12
538.25	38471.39
538.42	38242.01
538.59	39061.20
538.75	38656.29
538.92	39040.14
539.09	39105.67
539.26	38539.26
539.43	39037.80
539.60	38913.75
539.77	38637.56
539.94	39124.40
540.11	38857.57
540.28	39164.18
540.44	39299.94
540.61	39150.14
540.78	38899.70
540.95	39187.59
541.12	39140.78
541.29	39608.89
541.46	39323.34
541.62	39487.18
541.79	39510.58
541.96	39168.87
542.13	39503.56
542.30	39669.74
542.47	39407.60
542.63	39608.89
542.80	39737.62
542.97	40463.18
543.14	40507.65
543.31	39964.65
543.48	40481.91
543.64	40556.80
543.81	40802.56
543.98	40243.17
544.15	40271.26
544.32	40364.88
544.48	40783.83
544.65	40381.26
544.82	40577.87
544.99	40320.41
545.16	40701.92
545.32	40336.79
545.49	41256.62
545.66	40961.72
545.83	40994.48
546.00	41003.85
546.16	40795.54
546.33	40662.13
546.50	40657.45
546.67	40648.08
546.83	40421.05
547.00	40589.57
547.17	40498.29
547.34	40507.65
547.50	41326.84
547.67	41387.69
547.84	41172.36
548.00	41230.88
548.17	41741.11
548.34	41134.92
548.51	41401.74
548.67	41546.85
548.84	40947.67
549.01	41570.25
549.18	41289.39
549.34	41514.08
549.51	41415.78
549.68	41572.60
549.84	41619.41
550.01	41886.23
550.18	41659.20
550.34	41560.89
550.51	41598.34
550.68	41605.36
550.84	41429.82
551.01	41677.92
551.18	41860.48
551.34	41841.76
551.51	41982.19
551.68	41977.51
551.84	42036.02
552.01	41603.02
552.18	41792.61
552.34	41790.27
552.51	41783.24
552.68	41921.34
552.84	41984.53
553.01	42190.50
553.18	42380.08
553.34	42122.62
553.51	41684.94
553.67	41839.42
553.84	42316.89
554.01	42216.24
554.17	42398.80
554.34	42761.59
554.51	42356.67
554.67	42639.88
554.84	42410.51
555.00	42410.51
555.17	42286.46
555.33	42433.91
555.50	42527.53
555.67	42480.72
555.83	42230.29
556.00	42583.71
556.16	43136.07
556.33	42412.85
556.50	42586.05
556.66	42983.94
556.83	42368.38
556.99	42562.64
557.16	43082.24
557.32	42930.11
557.49	42628.18
557.65	42628.18
557.82	42794.36
557.98	43278.85
558.15	42766.27
558.32	43393.53
558.48	43122.03
558.65	43440.34
558.81	42340.29
558.98	42981.60
559.14	42895.00
559.31	42838.83
559.47	43323.32
559.64	43044.79
559.80	42873.93
559.97	43131.39
560.13	42925.42
560.30	42623.50
560.46	43309.27
560.63	43117.35
560.79	43311.61
560.96	42852.87
561.12	43536.30
561.29	43180.54
561.45	43262.46
561.61	43084.58
561.78	43035.43
561.94	43194.59
562.11	43084.58
562.27	43117.35
562.44	43632.27
562.60	43796.10
562.77	43639.29
562.93	43342.04
563.10	43629.93
563.26	42642.22
563.42	43447.36
563.59	43491.83
563.75	43576.09
563.92	43580.78
564.08	43353.74
564.24	43777.38
564.41	43459.07
564.57	43299.91
564.74	43517.58
564.90	43655.67
565.07	43519.92
565.23	43819.51
565.39	43672.06
565.56	43557.37
565.72	43510.56
565.88	43566.73
566.05	43416.94
566.21	43833.55
566.38	43217.99
566.54	43812.49
566.70	43920.15
566.87	44219.74
567.03	43807.81
567.19	44011.43
567.36	44184.63
567.52	43725.89
567.68	43536.30
567.85	43508.22
568.01	43873.34
568.17	43744.61
568.34	44009.09
568.50	43782.06
568.66	43789.08
568.83	43679.08
568.99	43683.76
569.15	43316.29
569.32	43669.72
569.48	43533.96
569.64	43955.26
569.81	43856.96
569.97	43992.71
570.13	43882.70
570.30	43945.90
570.46	43894.41
570.62	43346.72
570.78	43597.16
570.95	43964.62
571.11	44053.56
571.27	44320.38
571.43	43751.63
571.60	43592.48
571.76	43952.92
571.92	43702.48
572.09	43772.70
572.25	43803.13
572.41	44313.36
572.57	43910.79
572.74	44495.92
572.90	44079.31
573.06	44229.10
573.22	43798.44
573.38	44126.12
573.55	43880.36
573.71	44304.00
573.87	43920.15
574.03	44140.16
574.20	43966.96
574.36	44158.89
574.52	43922.49
574.68	44299.32
574.84	43873.34
575.01	44163.57
575.17	43828.87
575.33	43761.00
575.49	43948.24
575.65	44406.98
575.82	44231.44
575.98	44240.81
576.14	44390.60
576.30	44168.25
576.46	44296.98
576.62	43892.07
576.79	43983.35
576.95	43592.48
577.11	43899.09
577.27	44327.41
577.43	44076.97
577.59	43803.13
577.75	43880.36
577.92	44114.42
578.08	43655.67
578.24	43927.17
578.40	44065.27
578.56	44208.04
578.72	44222.08
578.88	44584.86
579.04	44395.28
579.21	44315.70
579.37	44179.95
579.53	44423.37
579.69	43775.04
579.85	43962.28
580.01	44179.95
580.17	44334.43
580.33	44444.43
580.49	44332.09
580.65	44245.49
580.82	44233.78
580.98	44095.69
581.14	43861.64
581.30	44751.04
581.46	44575.50
581.62	44231.44
581.78	44058.24
581.94	44444.43
582.10	43810.15
582.26	44182.29
582.42	44526.35
582.58	43978.67
582.74	44151.87
582.90	44102.71
583.06	44378.90
583.22	44388.26
583.38	44580.18
583.54	44126.12
583.70	44334.43
583.86	44481.88
584.02	44219.74
584.18	44296.98
584.34	44076.97
584.50	44212.72
584.66	44128.46
584.82	44137.82
584.98	44086.33
585.14	44442.09
585.30	44217.40
585.46	44282.94
585.62	44486.56
585.78	44421.03
585.94	44116.76
586.10	44439.75
586.26	44095.69
586.42	44208.04
586.58	44439.75
586.74	44296.98
586.90	43973.98
587.06	44261.87
587.22	44528.69
587.38	43981.01
587.54	44273.57
587.70	44844.66
587.86	44308.68
588.02	44399.96
588.18	44488.90
588.34	44172.93
588.49	43892.07
588.65	43639.29
588.81	43908.45
588.97	43892.07
589.13	44215.06
589.29	43973.98
589.45	44584.86
589.61	44079.31
589.77	44591.89
589.93	44247.83
590.08	44439.75
590.24	44484.22
590.40	44231.44
