SpectraSuite Data File
++++++++++++++++++++++++++++++++++++
Date: Fri Oct 25 11:26:38 EDT 2013
User: price-jones
Dark Spectrum Present: No
Reference Spectrum Present: No
Number of Sampled Component Spectra: 1
Spectrometers: USB2+H05261
Integration Time (usec): 100000 (USB2+H05261)
Spectra Averaged: 1 (USB2+H05261)
Boxcar Smoothing: 0 (USB2+H05261)
Correct for Electrical Dark: No (USB2+H05261)
Strobe/Lamp Enabled: No (USB2+H05261)
Correct for Detector Non-linearity: No (USB2+H05261)
Correct for Stray Light: No (USB2+H05261)
Number of Pixels in Processed Spectrum: 2048
>>>>>Begin Processed Spectral Data<<<<<
365.73	271.50
365.92	271.50
366.12	271.50
366.32	173.20
366.52	142.77
366.72	191.92
366.91	128.73
367.11	166.18
367.31	173.20
367.51	168.52
367.70	77.24
367.90	220.01
368.10	173.20
368.30	124.05
368.49	187.24
368.69	166.18
368.89	102.98
369.09	133.41
369.28	220.01
369.48	138.09
369.68	224.69
369.87	170.86
370.07	175.54
370.27	287.89
370.47	332.36
370.66	561.73
370.86	685.78
371.06	634.29
371.25	657.69
371.45	615.56
371.65	674.07
371.84	723.23
372.04	695.14
372.24	697.48
372.44	716.20
372.63	746.63
372.83	795.78
373.03	730.25
373.22	788.76
373.42	777.06
373.62	791.10
373.81	840.25
374.01	835.57
374.21	826.21
374.40	809.83
374.60	917.49
374.79	814.51
374.99	844.93
375.19	788.76
375.38	894.08
375.58	833.23
375.78	873.02
375.97	807.48
376.17	891.74
376.37	901.11
376.56	884.72
376.76	861.32
376.95	891.74
377.15	945.58
377.35	889.40
377.54	880.04
377.74	889.40
377.93	954.94
378.13	896.43
378.33	954.94
378.52	922.17
378.72	922.17
378.91	945.58
379.11	978.34
379.31	917.49
379.50	1060.26
379.70	964.30
379.89	1043.88
380.09	936.21
380.28	976.00
380.48	1034.52
380.68	952.60
380.87	1039.20
381.07	1093.03
381.26	940.90
381.46	1081.33
381.65	983.02
381.85	1020.47
382.04	1036.86
382.24	1111.75
382.43	1076.65
382.63	1090.69
382.83	1125.80
383.02	1174.95
383.22	1090.69
383.41	1076.65
383.61	1067.28
383.80	1135.16
384.00	1144.52
384.19	1111.75
384.39	1027.50
384.58	1125.80
384.78	1121.12
384.97	1137.50
385.17	1160.91
385.36	1144.52
385.56	1074.31
385.75	1125.80
385.95	1146.86
386.14	1224.10
386.34	1179.63
386.53	1266.23
386.72	1203.04
386.92	1273.25
387.11	1263.89
387.31	1268.57
387.50	1125.80
387.70	1214.74
387.89	1261.55
388.09	1327.08
388.28	1273.25
388.48	1233.46
388.67	1247.51
388.86	1299.00
389.06	1380.92
389.25	1315.38
389.45	1341.13
389.64	1362.19
389.84	1369.21
390.03	1390.28
390.22	1406.66
390.42	1338.79
390.61	1387.94
390.81	1378.58
391.00	1401.98
391.19	1495.60
391.39	1416.02
391.58	1446.45
391.78	1551.78
391.97	1500.28
392.16	1460.49
392.36	1521.35
392.55	1460.49
392.75	1497.94
392.94	1565.82
393.13	1563.48
393.33	1502.62
393.52	1650.08
393.71	1591.56
393.91	1666.46
394.10	1575.18
394.29	1626.67
394.49	1547.09
394.68	1612.63
394.88	1638.38
395.07	1654.76
395.26	1687.53
395.46	1699.23
395.65	1706.25
395.84	1771.79
396.04	1785.83
396.23	1624.33
396.42	1701.57
396.62	1715.61
396.81	1837.32
397.00	1884.13
397.19	1834.98
397.39	1769.44
397.58	1804.55
397.77	1823.28
397.97	1842.00
398.16	1734.34
398.35	1909.88
398.55	1877.11
398.74	1867.75
398.93	1933.28
399.12	1961.37
399.32	1900.52
399.51	1966.05
399.70	2001.16
399.90	2033.93
400.09	1984.77
400.28	2118.18
400.47	2071.37
400.67	1944.99
400.86	2062.01
401.05	2076.06
401.24	2153.29
401.44	2087.76
401.63	2228.19
401.82	2221.17
402.01	2160.31
402.21	2169.68
402.40	2251.60
402.59	2160.31
402.78	2209.47
402.97	2165.00
403.17	2204.78
403.36	2193.08
403.55	2356.92
403.74	2326.49
403.93	2267.98
404.13	2359.26
404.32	2373.30
404.51	2349.90
404.70	2420.11
404.89	2438.84
405.09	2485.65
405.28	2518.42
405.47	2520.76
405.66	2548.84
405.85	2527.78
406.05	2502.03
406.24	2544.16
406.43	2546.50
406.62	2658.85
406.81	2663.53
407.00	2612.04
407.20	2518.42
407.39	2696.30
407.58	2733.75
407.77	2715.02
407.96	2757.15
408.15	2796.94
408.34	2731.41
408.54	2867.16
408.73	2913.97
408.92	2799.28
409.11	2939.71
409.30	2827.37
409.49	2892.90
409.68	2979.50
409.87	2825.03
410.07	2939.71
410.26	3124.62
410.45	2979.50
410.64	3112.91
410.83	3007.59
411.02	3138.66
411.21	3087.17
411.40	3122.27
411.59	3162.06
411.78	3290.79
411.98	3047.38
412.17	3157.38
412.36	3281.43
412.55	3368.03
412.74	3466.33
412.93	3386.76
413.12	3386.76
413.31	3527.19
413.50	3473.36
413.69	3566.98
413.88	3737.84
414.07	3552.93
414.26	3705.07
414.45	3578.68
414.64	3740.18
414.83	3815.07
415.02	3763.58
415.22	3997.64
415.41	3735.50
415.60	3929.76
415.79	3859.54
415.98	3990.61
416.17	3999.98
416.36	3950.82
416.55	4156.79
416.74	4121.68
416.93	4065.51
417.12	4023.38
417.31	4161.47
417.50	4234.03
417.69	4290.20
417.88	4306.59
418.07	4238.71
418.26	4318.29
418.45	4449.36
418.64	4550.00
418.83	4470.42
419.02	4418.93
419.21	4641.28
419.39	4566.39
419.58	4622.56
419.77	4552.34
419.96	4447.02
420.15	4676.39
420.34	4807.46
420.53	4624.90
420.72	4711.50
420.91	4737.24
421.10	4954.91
421.29	4678.73
421.48	4720.86
421.67	4814.48
421.86	4912.78
422.05	4910.44
422.24	4819.16
422.43	4924.49
422.61	4875.34
422.80	4997.04
422.99	4833.21
423.18	4917.47
423.37	5053.22
423.56	5055.56
423.75	4978.32
423.94	4844.91
424.13	4751.29
424.32	4800.44
424.50	5022.79
424.69	5118.75
424.88	5128.11
425.07	4887.04
425.26	4912.78
425.45	4978.32
425.64	5149.18
425.83	4954.91
426.01	4999.38
426.20	5064.92
426.39	5046.20
426.58	5144.50
426.77	4980.66
426.96	5151.52
427.15	5149.18
427.33	5277.91
427.52	5217.05
427.71	5247.48
427.90	5240.46
428.09	5331.74
428.28	5518.98
428.46	5486.22
428.65	5392.59
428.84	5671.12
429.03	5383.23
429.22	5497.92
429.40	5493.24
429.59	5694.52
429.78	5357.49
429.97	5165.56
430.16	5425.36
430.34	5692.18
430.53	5774.10
430.72	5589.20
430.91	5746.02
431.10	5586.86
431.28	5806.87
431.47	5769.42
431.66	5879.43
431.85	5720.27
432.03	5877.09
432.22	5998.79
432.41	5898.15
432.60	5973.05
432.79	6108.80
432.97	5954.32
433.16	6015.18
433.35	5989.43
433.54	6176.67
433.72	6239.87
433.91	6010.50
434.10	6291.36
434.28	6118.16
434.47	6202.42
434.66	6340.51
434.85	6431.79
435.03	6363.92
435.22	6347.53
435.41	6565.20
435.59	6499.67
435.78	6403.71
435.97	6513.71
436.16	6356.90
436.34	6441.15
436.53	6668.19
436.72	6492.65
436.90	6450.52
437.09	6548.82
437.28	6485.62
437.46	6347.53
437.65	6572.22
437.84	6731.38
438.02	6693.93
438.21	6843.73
438.40	6789.89
438.58	6979.48
438.77	7105.87
438.96	6995.86
439.14	7026.29
439.33	7211.19
439.52	7330.56
439.70	7311.83
439.89	7538.87
440.08	7470.99
440.26	7581.00
440.45	7606.74
440.63	7470.99
440.82	7620.78
441.01	7454.61
441.19	7742.49
441.38	7836.11
441.57	7887.61
441.75	7880.58
441.94	7992.93
442.12	8032.72
442.31	8107.62
442.50	8121.66
442.68	7911.01
442.87	8208.26
443.05	8252.73
443.24	8205.92
443.43	8170.81
443.61	8264.43
443.80	8365.07
443.98	7992.93
444.17	7939.10
444.35	8409.54
444.54	8386.14
444.73	8376.78
444.91	8322.94
445.10	8404.86
445.28	8404.86
445.47	8341.67
445.65	8201.24
445.84	8629.56
446.02	8442.31
446.21	8439.97
446.39	8704.45
446.58	8491.46
446.77	8554.66
446.95	8266.77
447.14	8402.52
447.32	8608.49
447.51	8521.89
447.69	8650.62
447.88	8648.28
448.06	8610.83
448.25	8498.49
448.43	8779.35
448.62	8585.08
448.80	8500.83
448.99	8814.46
449.17	8840.20
449.36	8631.90
449.54	8910.42
449.73	8877.65
449.91	8999.36
450.10	8912.76
450.28	9057.87
450.46	8999.36
450.65	9149.15
450.83	9036.81
451.02	9135.11
451.20	9195.96
451.39	9324.69
451.57	9130.43
451.76	9097.66
451.94	9348.10
452.13	9462.79
452.31	9329.38
452.49	9036.81
452.68	9518.96
452.86	9172.56
453.05	9355.12
453.23	9528.32
453.42	9516.62
453.60	9420.66
453.78	9579.81
453.97	9533.00
454.15	9504.92
454.34	9607.90
454.52	9652.37
454.70	9734.29
454.89	9818.55
455.07	9767.06
455.26	9966.00
455.44	9958.98
455.62	9825.57
455.81	9694.50
455.99	10061.96
456.17	9996.43
456.36	10005.79
456.54	10256.23
456.73	10462.19
456.91	10312.40
457.09	10345.17
457.28	10494.96
457.46	10291.34
457.64	10658.80
457.83	10443.47
458.01	10595.61
458.19	10693.91
458.38	10403.68
458.56	10717.31
458.74	10843.70
458.93	10761.78
459.11	10452.83
459.29	10843.70
459.48	10944.34
459.66	10799.23
459.84	11070.73
460.03	11075.42
460.21	11033.29
460.39	10958.39
460.57	10986.47
460.76	11311.81
460.94	11126.91
461.12	11255.64
461.31	11257.98
461.49	11138.61
461.67	11229.89
461.85	11431.18
462.04	11468.62
462.22	11639.48
462.40	11480.33
462.59	11426.50
462.77	11475.65
462.95	11571.61
463.13	11761.19
463.32	11648.85
463.50	11843.11
463.68	11866.52
463.86	11885.24
464.05	11782.26
464.23	11648.85
464.41	12147.38
464.59	11485.01
464.78	12079.50
464.96	11880.56
465.14	11915.67
465.32	12063.12
465.50	12369.73
465.69	12423.56
465.87	12446.97
466.05	12280.79
466.23	12098.23
466.41	12224.62
466.60	12685.70
466.78	12346.33
466.96	12334.62
467.14	12365.05
467.32	12386.12
467.51	12458.67
467.69	12084.19
467.87	12622.51
468.05	12648.26
468.23	12411.86
468.41	12695.07
468.60	12580.38
468.78	12758.26
468.96	12594.42
469.14	12858.90
469.32	12936.14
469.50	12627.19
469.69	13088.28
469.87	13221.69
470.05	13092.96
470.23	13177.22
470.41	13135.09
470.59	13596.17
470.77	13181.90
470.95	13493.19
471.14	13486.17
471.32	13160.83
471.50	13586.81
471.68	13518.93
471.86	13935.55
472.04	13757.67
472.22	14099.39
472.40	13600.85
472.58	13811.50
472.77	13830.23
472.95	14239.82
473.13	14602.60
473.31	14134.50
473.49	14181.31
473.67	14391.95
473.85	14476.21
474.03	14471.53
474.21	14593.24
474.39	14714.95
474.57	14487.92
474.75	14881.13
474.93	14799.21
475.12	14988.79
475.30	15414.77
475.48	15000.49
475.66	15225.18
475.84	15316.47
476.02	15506.05
476.20	15288.38
476.38	15644.14
476.56	16084.16
476.74	16039.69
476.92	15751.81
477.10	16269.06
477.28	16367.37
477.46	16177.78
477.64	16208.21
477.82	16835.47
478.00	17184.21
478.18	16795.68
478.36	16847.18
478.54	17209.96
478.72	17495.50
478.90	17607.85
479.08	17657.00
479.26	17872.33
479.44	17809.14
479.62	18078.30
479.80	17975.31
479.98	18143.83
480.16	18855.36
480.34	18539.38
480.52	18335.76
480.70	18743.01
480.88	18183.62
481.06	18616.62
481.24	19056.64
481.41	19014.51
481.59	19356.23
481.77	19606.67
481.95	19487.30
482.13	19541.13
482.31	19859.45
482.49	20116.90
482.67	20233.93
482.85	20542.88
483.03	20739.49
483.21	20685.65
483.39	21249.72
483.57	20746.51
483.74	21139.72
483.92	21303.56
484.10	21551.65
484.28	21769.32
484.46	22129.77
484.64	22305.31
484.82	22199.98
485.00	22185.94
485.18	22951.29
485.35	22986.40
485.53	22717.24
485.71	23077.68
485.89	23435.78
486.07	23393.65
486.25	23342.16
486.43	23931.98
486.61	24107.52
486.78	24159.01
486.96	23990.49
487.14	24486.68
487.32	24549.88
487.50	24898.62
487.68	24905.64
487.85	25165.44
488.03	25598.44
488.21	26101.65
488.39	25752.91
488.57	26101.65
488.75	26190.59
488.92	26766.37
489.10	26635.30
489.28	26623.59
489.46	27288.31
489.64	27063.61
489.81	27625.34
489.99	27653.43
490.17	27871.10
490.35	28212.82
490.53	28219.84
490.70	28247.93
490.88	28397.72
491.06	28947.75
491.24	28893.91
491.41	29207.55
491.59	29263.72
491.77	28809.65
491.95	29624.16
492.13	30221.00
492.30	29909.71
492.48	29919.07
492.66	30698.47
492.84	30270.15
493.01	30794.43
493.19	30855.28
493.37	31035.50
493.54	31143.17
493.72	31709.58
493.90	31489.57
494.08	31711.92
494.25	31936.61
494.43	32020.87
494.61	32254.92
494.79	32250.24
494.96	32821.33
495.14	32725.37
495.32	33181.77
495.49	33235.61
495.67	33184.12
495.85	33507.11
496.02	33507.11
496.20	33900.32
496.38	34059.48
496.55	34609.50
496.73	35044.84
496.91	34569.71
497.09	34745.25
497.26	35206.34
497.44	35168.89
497.62	35711.89
497.79	35913.18
497.97	35620.61
498.14	35955.31
498.32	36432.78
498.50	35955.31
498.67	36481.93
498.85	36332.14
499.03	36662.15
499.20	36985.15
499.38	36751.09
499.56	37153.66
499.73	37251.97
499.91	37441.55
500.08	37647.52
500.26	37799.65
500.44	37556.24
500.61	37958.81
500.79	37584.32
500.97	38628.20
501.14	38380.10
501.32	38888.00
501.49	38719.48
501.67	39072.90
501.84	39239.08
502.02	39100.99
502.20	39150.14
502.37	39040.14
502.55	39501.22
502.72	39533.99
502.90	39543.35
503.07	39665.06
503.25	40095.72
503.43	39924.86
503.60	40194.02
503.78	40184.66
503.95	40364.88
504.13	40659.79
504.30	40547.44
504.48	40395.31
504.65	40765.11
504.83	41165.34
505.01	41205.13
505.18	41170.02
505.36	41666.22
505.53	41663.88
505.71	41244.92
505.88	41979.85
506.06	41680.26
506.23	41874.52
506.41	41736.43
506.58	42321.57
506.76	42712.44
506.93	42513.49
507.11	42553.28
507.28	42983.94
507.46	42522.85
507.63	42939.47
507.81	43201.61
507.98	43082.24
508.16	43335.02
508.33	43428.64
508.50	43856.96
508.68	43735.25
508.85	44133.14
509.03	44079.31
509.20	44020.80
509.38	44648.06
509.55	44140.16
509.73	44655.08
509.90	44999.14
510.08	44229.10
510.25	44781.47
510.42	44741.68
510.60	44996.80
510.77	45263.62
510.95	45375.97
511.12	45277.66
511.30	45436.82
511.47	45680.24
511.64	45565.55
511.82	45855.78
511.99	45708.32
512.17	46321.54
512.34	45762.15
512.51	46213.88
512.69	46443.25
512.86	46223.24
513.04	46742.84
513.21	46508.79
513.38	46665.60
513.56	47007.32
513.73	46995.62
513.90	47103.28
514.08	46859.87
514.25	47435.64
514.43	47924.81
514.60	47739.91
514.77	47217.97
514.95	47770.33
515.12	47452.02
515.29	47192.22
515.47	47643.94
515.64	48327.38
515.81	47971.62
515.99	48048.86
516.16	48514.62
516.33	48280.57
516.51	48626.97
516.68	48357.81
516.85	48708.89
517.03	48872.73
517.20	48776.76
517.37	48463.13
517.54	48828.26
517.72	49181.68
517.89	49303.38
518.06	49612.34
518.24	49659.15
518.41	49331.47
518.58	49722.34
518.75	49539.78
518.93	49366.58
519.10	49944.69
519.27	50042.99
519.45	49780.85
519.62	50040.65
519.79	49897.88
519.96	50478.33
520.14	50365.99
520.31	49972.78
520.48	50429.18
520.65	50241.94
520.83	50752.18
521.00	50930.06
521.17	50241.94
521.34	50855.16
521.52	50864.52
521.69	50611.74
521.86	50871.54
522.03	51201.56
522.20	51491.79
522.38	51587.75
522.55	51540.94
522.72	51667.33
522.89	51267.09
523.07	51578.39
523.24	51599.45
523.41	51931.81
523.58	51358.38
523.75	52149.48
523.92	51889.68
524.10	52402.25
524.27	52369.49
524.44	52039.47
524.61	52093.30
524.78	52184.58
524.96	52144.80
525.13	52491.19
525.30	52481.83
525.47	52746.31
525.64	52640.99
525.81	52715.89
525.98	52811.85
526.16	52676.10
526.33	52636.31
526.50	53139.52
526.67	52575.45
526.84	53160.59
527.01	53010.79
527.18	52961.64
527.36	52912.49
527.53	53200.38
527.70	53434.43
527.87	53514.01
528.04	53249.53
528.21	53530.39
528.38	53214.42
528.55	53883.81
528.72	53488.26
528.89	53160.59
529.07	53581.88
529.24	53579.54
529.41	53872.11
529.58	53818.28
529.75	53731.68
529.92	53961.05
530.09	53942.33
530.26	53771.47
530.43	54195.10
530.60	53970.41
530.77	54024.25
530.94	54319.15
531.11	54019.56
531.28	54429.16
531.46	54241.92
531.63	54417.46
531.80	54225.53
531.97	54396.39
532.14	54534.48
532.31	54461.93
532.48	54536.82
532.65	54770.88
532.82	54660.87
532.99	54651.51
533.16	54693.64
533.33	55030.68
533.50	54976.84
533.67	54845.77
533.84	54953.44
534.01	55110.25
534.18	55018.97
534.35	55367.71
534.52	55065.78
534.69	55238.98
534.86	55136.00
535.03	55079.83
535.20	55320.90
535.37	55573.68
535.54	55468.36
535.71	55302.18
535.88	55737.52
536.05	55814.76
536.22	55592.40
536.38	55896.67
536.55	55538.57
536.72	55728.16
536.89	55629.85
537.06	55566.66
537.23	55821.78
537.40	55746.88
537.57	55891.99
537.74	56023.06
537.91	56116.68
538.08	55969.23
538.25	55924.76
538.42	56112.00
538.59	55978.59
538.75	56074.55
538.92	56231.37
539.09	56067.53
539.26	56245.41
539.43	56254.78
539.60	56257.12
539.77	56465.42
539.94	56589.47
540.11	56348.40
540.28	56528.62
540.44	56692.46
540.61	56549.68
540.78	56500.53
540.95	56430.32
541.12	56453.72
541.29	56399.89
541.46	56486.49
541.62	56699.48
541.79	56493.51
541.96	56549.68
542.13	56882.04
542.30	56694.80
542.47	57024.81
542.63	56870.34
542.80	57038.86
542.97	57223.76
543.14	57331.42
543.31	57151.20
543.48	57406.32
543.64	57485.90
543.81	57354.83
543.98	57492.92
544.15	57172.27
544.32	57523.35
544.48	57525.69
544.65	57284.61
544.82	57516.32
544.99	57401.64
545.16	57623.99
545.32	57312.70
545.49	57886.13
545.66	57600.58
545.83	57663.78
546.00	57827.62
546.16	57640.37
546.33	57488.24
546.50	57415.68
546.67	57829.96
546.83	57523.35
547.00	57570.16
547.17	57666.12
547.34	57902.51
547.50	57991.45
547.67	58253.59
547.84	58054.65
548.00	58202.10
548.17	58382.32
548.34	58117.84
548.51	58291.04
548.67	58309.77
548.84	58143.59
549.01	57970.39
549.18	58131.89
549.34	58396.37
549.51	58361.26
549.68	58337.85
549.84	58295.72
550.01	58354.24
550.18	58255.93
550.34	58466.58
550.51	58548.50
550.68	58328.49
550.84	58312.11
551.01	58396.37
551.18	58553.18
551.34	58576.59
551.51	58789.58
551.68	58464.24
551.84	58539.14
552.01	58520.41
552.18	58653.82
552.34	58508.71
552.51	58754.47
552.68	58445.52
552.84	58787.24
553.01	58841.07
553.18	58728.72
553.34	58986.18
553.51	58796.60
553.67	58855.11
553.84	58827.02
554.01	59192.15
554.17	58906.60
554.34	59119.59
554.51	59018.95
554.67	59182.79
554.84	59112.57
555.00	59203.85
555.17	59030.65
555.33	59068.10
555.50	58911.28
555.67	59025.97
555.83	59210.87
556.00	58986.18
556.16	59522.16
556.33	59306.83
556.50	59278.75
556.66	59576.00
556.83	58988.52
556.99	59400.46
557.16	59522.16
557.32	59461.31
557.49	59686.00
557.65	59330.24
557.82	59477.69
557.98	59419.18
558.15	59440.24
558.32	59639.19
558.48	59327.90
558.65	59510.46
558.81	59482.37
558.98	59416.84
559.14	59721.11
559.31	59718.77
559.47	59856.86
559.64	59707.07
559.80	59678.98
559.97	59863.88
560.13	59646.21
560.30	59515.14
560.46	59826.43
560.63	59870.90
560.79	59927.08
560.96	59803.03
561.12	59774.94
561.29	59803.03
561.45	59870.90
561.61	60116.66
561.78	59767.92
561.94	59992.61
562.11	59964.52
562.27	59924.74
562.44	59906.01
562.60	60238.37
562.77	59962.18
562.93	59828.77
563.10	60168.15
563.26	59821.75
563.42	60285.18
563.59	59943.46
563.75	59704.73
563.92	60086.23
564.08	60081.55
564.24	60013.68
564.41	60273.48
564.57	60229.01
564.74	60053.47
564.90	60123.68
565.07	60170.49
565.23	60107.30
565.39	59870.90
565.56	60233.69
565.72	60430.29
565.88	60144.75
566.05	60053.47
566.21	60123.68
566.38	60245.39
566.54	60161.13
566.70	60505.19
566.87	60371.78
567.03	60142.41
567.19	60392.84
567.36	60264.11
567.52	60236.03
567.68	60701.79
567.85	60317.95
568.01	60446.68
568.17	60528.59
568.34	60458.38
568.50	60264.11
568.66	60301.56
568.83	60530.93
568.99	60329.65
569.15	60701.79
569.32	60547.32
569.48	60282.84
569.64	60514.55
569.81	60360.08
569.97	60348.37
570.13	60575.40
570.30	60322.63
570.46	60474.76
570.62	60626.90
570.78	60395.18
570.95	60479.44
571.11	60654.98
571.27	60470.08
571.43	60526.25
571.60	60842.23
571.76	60624.56
571.92	60495.83
572.09	60692.43
572.25	60596.47
572.41	60559.02
572.57	60601.15
572.74	60884.36
572.90	60533.28
573.06	60636.26
573.22	60615.19
573.38	60535.62
573.55	60741.58
573.71	60870.31
573.87	60921.80
574.03	60348.37
574.20	60690.09
574.36	60746.26
574.52	60774.35
574.68	60790.73
574.84	60629.24
575.01	60781.37
575.17	60678.39
575.33	60678.39
575.49	60573.06
575.65	60802.44
575.82	60992.02
575.98	60865.63
576.14	60884.36
576.30	60860.95
576.46	60795.42
576.62	60657.32
576.79	60748.60
576.95	60732.22
577.11	60779.03
577.27	60818.82
577.43	60802.44
577.59	60633.92
577.75	60683.07
577.92	60701.79
578.08	60746.26
578.24	60821.16
578.40	60849.25
578.56	60853.93
578.72	60816.48
578.88	61069.26
579.04	60935.85
579.21	61087.98
579.37	61010.74
579.53	60879.67
579.69	60736.90
579.85	60713.50
580.01	60757.97
580.17	60772.01
580.33	60882.02
580.49	61200.33
580.65	61008.40
580.82	60856.27
580.98	60790.73
581.14	60917.12
581.30	61015.43
581.46	60846.91
581.62	61069.26
581.78	60802.44
581.94	61055.21
582.10	60825.84
582.26	61071.60
582.42	60985.00
582.58	61087.98
582.74	60954.57
582.90	61052.87
583.06	60912.44
583.22	60921.80
583.38	60882.02
583.54	60844.57
583.70	61167.56
583.86	61155.86
584.02	60938.19
584.18	61132.45
584.34	60853.93
584.50	60975.64
584.66	60982.66
584.82	60905.42
584.98	61291.61
585.14	61132.45
585.30	60989.68
585.46	61172.24
585.62	61172.24
585.78	61127.77
585.94	60860.95
586.10	60987.34
586.26	61158.20
586.42	61270.54
586.58	61008.40
586.74	61048.19
586.90	61027.13
587.06	60975.64
587.22	61034.15
587.38	61179.26
587.54	61052.87
587.70	61300.97
587.86	61207.35
588.02	60963.93
588.18	61207.35
588.34	61130.11
588.49	61153.52
