SpectraSuite Data File
++++++++++++++++++++++++++++++++++++
Date: Fri Oct 25 10:47:38 EDT 2013
User: price-jones
Dark Spectrum Present: No
Reference Spectrum Present: No
Number of Sampled Component Spectra: 1
Spectrometers: USB2+H05261
Integration Time (usec): 100000 (USB2+H05261)
Spectra Averaged: 1 (USB2+H05261)
Boxcar Smoothing: 0 (USB2+H05261)
Correct for Electrical Dark: No (USB2+H05261)
Strobe/Lamp Enabled: No (USB2+H05261)
Correct for Detector Non-linearity: No (USB2+H05261)
Correct for Stray Light: No (USB2+H05261)
Number of Pixels in Processed Spectrum: 2048
>>>>>Begin Processed Spectral Data<<<<<
365.73	117.03
365.92	117.03
366.12	117.03
366.32	72.56
366.52	93.62
366.72	63.19
366.91	25.75
367.11	28.09
367.31	0.00
367.51	84.26
367.70	32.77
367.90	35.11
368.10	72.56
368.30	0.00
368.49	18.72
368.69	100.64
368.89	72.56
369.09	79.58
369.28	93.62
369.48	67.88
369.68	53.83
369.87	77.24
370.07	159.16
370.27	100.64
370.47	184.90
370.66	390.87
370.86	447.04
371.06	482.15
371.25	435.34
371.45	463.43
371.65	468.11
371.84	421.30
372.04	442.36
372.24	531.30
372.44	486.83
372.63	486.83
372.83	514.92
373.03	484.49
373.22	517.26
373.42	540.66
373.62	580.45
373.81	582.79
374.01	543.00
374.21	517.26
374.40	510.24
374.60	582.79
374.79	540.66
374.99	514.92
375.19	578.11
375.38	571.09
375.58	545.34
375.78	585.13
375.97	517.26
376.17	653.01
376.37	592.16
376.56	578.11
376.76	568.75
376.95	575.77
377.15	645.99
377.35	545.34
377.54	681.10
377.74	578.11
377.93	662.37
378.13	627.26
378.33	648.33
378.52	641.31
378.72	566.41
378.91	615.56
379.11	580.45
379.31	634.29
379.50	568.75
379.70	594.50
379.89	662.37
380.09	594.50
380.28	690.46
380.48	617.90
380.68	690.46
380.87	622.58
381.07	711.52
381.26	676.41
381.46	578.11
381.65	624.92
381.85	634.29
382.04	690.46
382.24	688.12
382.43	627.26
382.63	737.27
382.83	699.82
383.02	812.17
383.22	772.38
383.41	711.52
383.61	636.63
383.80	763.01
384.00	699.82
384.19	704.50
384.39	781.74
384.58	795.78
384.78	753.65
384.97	788.76
385.17	786.42
385.36	826.21
385.56	758.33
385.75	767.70
385.95	739.61
386.14	819.19
386.34	858.98
386.53	884.72
386.72	772.38
386.92	830.89
387.11	786.42
387.31	830.89
387.50	884.72
387.70	807.48
387.89	863.66
388.09	828.55
388.28	840.25
388.48	772.38
388.67	880.04
388.86	870.68
389.06	926.85
389.25	950.26
389.45	1015.79
389.64	978.34
389.84	938.55
390.03	903.45
390.22	961.96
390.42	884.72
390.61	919.83
390.81	875.36
391.00	966.64
391.19	947.92
391.39	978.34
391.58	1006.43
391.78	992.39
391.97	992.39
392.16	912.81
392.36	1008.77
392.55	959.62
392.75	966.64
392.94	1011.11
393.13	1004.09
393.33	943.24
393.52	938.55
393.71	1022.81
393.91	1088.35
394.10	1034.52
394.29	1097.71
394.49	1071.97
394.68	1160.91
394.88	1100.05
395.07	1172.61
395.26	1153.88
395.46	1139.84
395.65	1142.18
395.84	1165.59
396.04	1137.50
396.23	1114.10
396.42	1104.73
396.62	1078.99
396.81	1217.08
397.00	1181.97
397.19	1151.54
397.39	1284.95
397.58	1210.06
397.77	1247.51
397.97	1179.63
398.16	1219.42
398.35	1254.53
398.55	1380.92
398.74	1345.81
398.93	1371.55
399.12	1294.32
399.32	1385.60
399.51	1352.83
399.70	1479.22
399.90	1516.67
400.09	1446.45
400.28	1519.01
400.47	1425.39
400.67	1469.86
400.86	1483.90
401.05	1481.56
401.24	1624.33
401.44	1406.66
401.63	1483.90
401.82	1544.75
402.01	1610.29
402.21	1586.88
402.40	1526.03
402.59	1540.07
402.78	1589.22
402.97	1645.40
403.17	1591.56
403.36	1633.69
403.55	1535.39
403.74	1671.14
403.93	1689.87
404.13	1783.49
404.32	1675.82
404.51	1736.68
404.70	1710.93
404.89	1678.16
405.09	1806.89
405.28	1795.19
405.47	1708.59
405.66	1734.34
405.85	1834.98
406.05	1839.66
406.24	1816.26
406.43	1722.63
406.62	1750.72
406.81	1968.39
407.00	1797.53
407.20	1813.92
407.39	1898.17
407.58	1989.46
407.77	1935.62
407.96	1977.75
408.15	1905.20
408.34	1884.13
408.54	1944.99
408.73	2104.14
408.92	2017.54
409.11	2104.14
409.30	2024.56
409.49	2083.08
409.68	2064.35
409.87	2031.58
410.07	2134.57
410.26	2162.66
410.45	2169.68
410.64	2186.06
410.83	2218.83
411.02	2284.36
411.21	2354.58
411.40	2197.76
411.59	2324.15
411.78	2211.81
411.98	2282.02
412.17	2338.20
412.36	2340.54
412.55	2422.45
412.74	2614.38
412.93	2429.48
413.12	2406.07
413.31	2677.57
413.50	2565.23
413.69	2558.21
413.88	2698.64
414.07	2637.78
414.26	2672.89
414.45	2705.66
414.64	2654.17
414.83	2736.09
415.02	2782.90
415.22	2794.60
415.41	2902.26
415.60	2750.13
415.79	2899.92
415.98	2897.58
416.17	2895.24
416.36	2869.50
416.55	2864.82
416.74	2874.18
416.93	2946.73
417.12	2942.05
417.31	3009.93
417.50	3023.97
417.69	3192.49
417.88	3185.47
418.07	3136.32
418.26	3169.09
418.45	3089.51
418.64	3213.56
418.83	3239.30
419.02	3281.43
419.21	3241.64
419.39	3300.16
419.58	3243.98
419.77	3171.43
419.96	3353.99
420.15	3251.00
420.34	3162.06
420.53	3344.63
420.72	3478.04
420.91	3325.90
421.10	3445.27
421.29	3604.42
421.48	3487.40
421.67	3604.42
421.86	3520.17
422.05	3550.59
422.24	3501.44
422.43	3501.44
422.61	3475.70
422.80	3611.45
422.99	3581.02
423.18	3588.04
423.37	3646.55
423.56	3630.17
423.75	3555.27
423.94	3627.83
424.13	3421.86
424.32	3424.20
424.50	3667.62
424.69	3726.13
424.88	3728.47
425.07	3522.51
425.26	3581.02
425.45	3552.93
425.64	3604.42
425.83	3637.19
426.01	3552.93
426.20	3557.61
426.39	3681.66
426.58	3599.74
426.77	3609.11
426.96	3550.59
427.15	3730.81
427.33	3803.37
427.52	3824.44
427.71	3756.56
427.90	3644.21
428.09	3775.28
428.28	3721.45
428.46	3831.46
428.65	3763.58
428.84	3779.97
429.03	4056.15
429.22	3805.71
429.40	3854.86
429.59	3861.88
429.78	3758.90
429.97	3639.53
430.16	3817.41
430.34	3911.04
430.53	3852.52
430.72	3904.01
430.91	3950.82
431.10	3911.04
431.28	4117.00
431.47	4198.92
431.66	4257.43
431.85	4145.09
432.03	4306.59
432.22	4491.49
432.41	4308.93
432.60	4308.93
432.79	4329.99
432.97	4301.90
433.16	4322.97
433.35	4149.77
433.54	4269.14
433.72	4358.08
433.91	4329.99
434.10	4388.50
434.28	4393.19
434.47	4367.44
434.66	4444.68
434.85	4510.21
435.03	4503.19
435.22	4727.88
435.41	4758.31
435.59	4718.52
435.78	4711.50
435.97	4655.33
436.16	4751.29
436.34	4732.56
436.53	4767.67
436.72	4793.42
436.90	4681.07
437.09	4760.65
437.28	4622.56
437.46	4760.65
437.65	4594.47
437.84	4678.73
438.02	4798.10
438.21	4828.53
438.40	4727.88
438.58	4929.17
438.77	4858.95
438.96	5081.30
439.14	5114.07
439.33	5146.84
439.52	5062.58
439.70	5128.11
439.89	5315.36
440.08	5252.16
440.26	5240.46
440.45	5411.32
440.63	5371.53
440.82	5474.51
441.01	5432.38
441.19	5355.15
441.38	5568.13
441.57	5675.80
441.75	5610.26
441.94	5661.76
442.12	5654.73
442.31	5762.40
442.50	5907.51
442.68	5661.76
442.87	5893.47
443.05	5678.14
443.24	6015.18
443.43	5982.41
443.61	5928.58
443.80	5870.06
443.98	5736.65
444.17	5799.85
444.35	5753.04
444.54	5949.64
444.73	6106.46
444.91	5961.34
445.10	5769.42
445.28	5900.49
445.47	5996.45
445.65	6024.54
445.84	6005.81
446.02	5849.00
446.21	5998.79
446.39	5963.68
446.58	6033.90
446.77	6104.12
446.95	5968.37
447.14	6064.33
447.32	6193.06
447.51	6057.31
447.69	6148.59
447.88	6120.50
448.06	6122.84
448.25	6230.51
448.43	6069.01
448.62	6153.27
448.80	6122.84
448.99	6209.44
449.17	6216.46
449.36	6162.63
449.54	6274.98
449.73	6436.47
449.91	6614.35
450.10	6319.45
450.28	6614.35
450.46	6389.66
450.65	6349.87
450.83	6579.25
451.02	6551.16
451.20	6464.56
451.39	6581.59
451.57	6525.41
451.76	6408.39
451.94	6579.25
452.13	6583.93
452.31	6506.69
452.49	6504.35
452.68	6630.74
452.86	6560.52
453.05	6736.06
453.23	6754.79
453.42	6656.48
453.60	6684.57
453.78	6736.06
453.97	6768.83
454.15	6832.02
454.34	6726.70
454.52	6794.58
454.70	6906.92
454.89	6815.64
455.07	6984.16
455.26	6988.84
455.44	7087.14
455.62	7084.80
455.81	7021.61
455.99	6988.84
456.17	6949.05
456.36	7082.46
456.54	7253.32
456.73	7316.51
456.91	7316.51
457.09	7311.83
457.28	7602.06
457.46	7349.28
457.64	7452.27
457.83	7295.45
458.01	7360.98
458.19	7499.08
458.38	7517.80
458.56	7620.78
458.74	7583.34
458.93	7522.48
459.11	7644.19
459.29	7592.70
459.48	7669.94
459.66	7581.00
459.84	7634.83
460.03	7772.92
460.21	7751.85
460.39	7700.36
460.57	7719.09
460.76	7801.01
460.94	8023.36
461.12	8112.30
461.31	8102.93
461.49	7901.65
461.67	7932.08
461.85	8112.30
462.04	7969.52
462.22	8514.87
462.40	7999.95
462.59	8044.42
462.77	8114.64
462.95	8294.86
463.13	8119.32
463.32	8332.31
463.50	8058.46
463.68	8124.00
463.86	8390.82
464.05	8056.12
464.23	8037.40
464.41	8383.80
464.59	8344.01
464.78	8573.38
464.96	8388.48
465.14	8196.56
465.32	8444.65
465.50	8514.87
465.69	8498.49
465.87	8484.44
466.05	8645.94
466.23	8355.71
466.41	8421.25
466.60	8667.00
466.78	8538.27
466.96	8603.81
467.14	8439.97
467.32	8479.76
467.51	8849.57
467.69	8510.19
467.87	8568.70
468.05	8872.97
468.23	8634.24
468.41	8793.39
468.60	8484.44
468.78	8823.82
468.96	8641.26
469.14	8575.72
469.32	9170.22
469.50	8702.11
469.69	9104.68
469.87	9076.60
470.05	9011.06
470.23	9020.42
470.41	9118.73
470.59	9205.33
470.77	9111.71
470.95	9186.60
471.14	9252.14
471.32	9135.11
471.50	9572.79
471.68	9430.02
471.86	9570.45
472.04	9523.64
472.22	9596.20
472.40	9217.03
472.58	9561.09
472.77	9731.95
472.95	9734.29
473.13	10167.29
473.31	9661.73
473.49	9806.84
473.67	9870.04
473.85	9727.27
474.03	10139.20
474.21	10094.73
474.39	9991.75
474.57	10099.41
474.75	10150.90
474.93	10235.16
475.12	9998.77
475.30	10207.08
475.48	10237.50
475.66	10422.41
475.84	10314.74
476.02	10363.89
476.20	10752.42
476.38	10665.82
476.56	10951.37
476.74	11084.78
476.92	11054.35
477.10	10724.33
477.28	10993.50
477.46	11054.35
477.64	11494.37
477.82	11435.86
478.00	11705.02
478.18	11316.49
478.36	11618.42
478.54	11494.37
478.72	11768.21
478.90	12018.65
479.08	11992.90
479.26	12334.62
479.44	12205.89
479.62	12285.47
479.80	12175.47
479.98	12187.17
480.16	12812.09
480.34	12461.01
480.52	12538.25
480.70	12655.28
480.88	12688.04
481.06	12765.28
481.24	12758.26
481.41	13144.45
481.59	12968.91
481.77	13446.38
481.95	13516.59
482.13	13633.62
482.31	13451.06
482.49	13575.11
482.67	13968.32
482.85	13891.08
483.03	13865.33
483.21	14230.46
483.39	14345.14
483.57	14132.15
483.74	14417.70
483.92	14401.32
484.10	14396.64
484.28	14499.62
484.46	14684.52
484.64	14977.09
484.82	14864.74
485.00	14843.68
485.18	15269.66
485.35	15412.43
485.53	14972.41
485.71	15274.34
485.89	15279.02
486.07	15152.63
486.25	15501.37
486.43	15648.82
486.61	15915.64
486.78	16381.41
486.96	16168.42
487.14	16269.06
487.32	16709.08
487.50	16704.40
487.68	16500.78
487.85	17027.40
488.03	17128.04
488.21	17343.37
488.39	17036.76
488.57	17476.78
488.75	17439.33
488.92	17568.06
489.10	17848.93
489.28	18078.30
489.46	17673.39
489.64	18174.26
489.81	18614.28
489.99	18590.88
490.17	18759.39
490.35	18925.57
490.53	18750.03
490.70	19096.43
490.88	19126.86
491.06	19403.04
491.24	19323.46
491.41	19386.66
491.59	19484.96
491.77	19779.87
491.95	19758.80
492.13	19946.05
492.30	20140.31
492.48	20027.96
492.66	20224.57
492.84	20290.10
493.01	20685.65
493.19	20212.87
493.37	20704.38
493.54	20884.60
493.72	21027.37
493.90	21167.80
494.08	21312.92
494.25	21561.02
494.43	21404.20
494.61	21764.64
494.79	21837.20
494.96	21701.45
495.14	21710.81
495.32	21771.66
495.49	22122.74
495.67	22228.07
495.85	22333.39
496.02	22661.07
496.20	22750.01
496.38	22508.93
496.55	22817.88
496.73	23419.40
496.91	23070.66
497.09	23152.58
497.26	23452.17
497.44	23349.18
497.62	23396.00
497.79	23606.64
497.97	23211.09
498.14	23751.76
498.32	23910.91
498.50	23899.21
498.67	24496.05
498.85	24077.09
499.03	24645.84
499.20	24671.59
499.38	24631.80
499.56	24809.68
499.73	24617.75
499.91	24797.98
500.08	24907.98
500.26	24924.36
500.44	24875.21
500.61	25017.99
500.79	24907.98
500.97	25284.81
501.14	25607.80
501.32	25401.83
501.49	25692.06
501.67	25542.27
501.84	25682.70
502.02	25706.10
502.20	25926.11
502.37	25675.68
502.55	26040.80
502.72	26361.45
502.90	26321.66
503.07	26195.28
503.25	26087.61
503.43	26483.16
503.60	26368.48
503.78	26366.13
503.95	26419.97
504.13	26705.51
504.30	26806.16
504.48	27028.51
504.65	27288.31
504.83	27445.12
505.01	27435.76
505.18	27257.88
505.36	27847.69
505.53	27562.15
505.71	27985.79
505.88	27817.27
506.06	27477.89
506.23	27644.07
506.41	27592.58
506.58	27564.49
506.76	27913.23
506.93	28175.37
507.11	28084.09
507.28	28079.41
507.46	28294.74
507.63	28013.87
507.81	28720.71
507.98	28407.08
508.16	28697.31
508.33	28767.52
508.50	28879.87
508.68	28933.70
508.85	29212.23
509.03	29090.52
509.20	29460.32
509.38	29371.38
509.55	29233.29
509.73	29729.48
509.90	29425.22
510.08	29465.00
510.25	29539.90
510.42	29579.69
510.60	29689.70
510.77	29715.44
510.95	29820.77
511.12	30244.40
511.30	30078.22
511.47	30768.68
511.64	30527.61
511.82	30487.82
511.99	29827.79
512.17	30637.61
512.34	30661.02
512.51	30656.34
512.69	30771.02
512.86	31175.94
513.04	31236.79
513.21	30909.11
513.38	31358.50
513.56	30857.62
513.73	31187.64
513.90	31508.29
514.08	31070.61
514.25	31428.71
514.43	31267.22
514.60	31552.76
514.77	31316.37
514.95	31805.54
515.12	31318.71
515.29	31711.92
515.47	31810.22
515.64	32280.67
515.81	32093.43
515.99	32128.53
516.16	32046.62
516.33	31728.30
516.51	32177.68
516.68	31604.25
516.85	32048.96
517.03	31943.63
517.20	32304.07
517.37	32608.34
517.54	32910.27
517.72	32849.42
517.89	32327.48
518.06	32840.06
518.24	32343.86
518.41	32388.33
518.58	32734.73
518.75	33060.07
518.93	32905.59
519.10	33455.62
519.27	33474.34
519.45	33362.00
519.62	33247.31
519.79	33144.33
519.96	33539.88
520.14	34010.32
520.31	33750.52
520.48	33921.38
520.65	33771.59
520.83	34298.21
521.00	33961.17
521.17	34019.69
521.34	34422.26
521.52	33958.83
521.69	34387.15
521.86	33989.26
522.03	34471.41
522.20	34506.52
522.38	34464.39
522.55	34684.40
522.72	34534.60
522.89	34913.77
523.07	35000.37
523.24	34684.40
523.41	34899.73
523.58	35051.86
523.75	35051.86
523.92	35068.25
524.10	35260.17
524.27	35634.66
524.44	35433.37
524.61	35112.72
524.78	35337.41
524.96	35648.70
525.13	35482.52
525.30	35924.88
525.47	35725.94
525.64	35585.50
525.81	36070.00
525.98	35934.24
526.16	35545.72
526.33	35840.62
526.50	35800.83
526.67	35707.21
526.84	35917.86
527.01	35934.24
527.18	36133.19
527.36	36301.71
527.53	36065.31
527.70	36720.66
527.87	36470.23
528.04	36828.33
528.21	36084.04
528.38	36203.41
528.55	37146.64
528.72	36720.66
528.89	36907.91
529.07	36641.09
529.24	36851.73
529.41	37230.90
529.58	36898.55
529.75	36318.09
529.92	36849.39
530.09	37273.03
530.26	37067.06
530.43	37303.46
530.60	37420.48
530.77	36947.70
530.94	37198.13
531.11	37455.59
531.28	37081.11
531.46	37357.29
531.63	38153.07
531.80	37514.11
531.97	37579.64
532.14	37621.77
532.31	37940.08
532.48	38115.62
532.65	37930.72
532.82	37769.22
532.99	38092.22
533.16	37675.60
533.33	37928.38
533.50	37975.19
533.67	38064.13
533.84	37687.31
534.01	38026.68
534.18	38408.19
534.35	38352.02
534.52	38480.75
534.69	38253.72
534.86	38923.11
535.03	38157.75
535.20	38766.29
535.37	38953.54
535.54	38796.72
535.71	39047.16
535.88	38639.90
536.05	38665.65
536.22	39180.57
536.38	39117.37
536.55	39089.29
536.72	39047.16
536.89	38483.09
537.06	38965.24
537.23	39491.86
537.40	39065.88
537.57	39278.87
537.74	39058.86
537.91	39576.12
538.08	39784.43
538.25	38958.22
538.42	39487.18
538.59	39700.17
538.75	39318.66
538.92	39505.90
539.09	39615.91
539.26	39718.89
539.43	39587.82
539.60	39674.42
539.77	39676.76
539.94	39882.73
540.11	39431.01
540.28	39587.82
540.44	39777.40
540.61	39608.89
540.78	39702.51
540.95	40175.30
541.12	39643.99
541.29	39826.56
541.46	40086.36
541.62	40217.43
541.79	39964.65
541.96	40034.86
542.13	40289.98
542.30	40081.67
542.47	40730.00
542.63	40229.13
542.80	40280.62
542.97	40713.62
543.14	41174.70
543.31	40809.58
543.48	40954.69
543.64	41825.37
543.81	41158.32
543.98	41001.50
544.15	40802.56
544.32	41324.50
544.48	41841.76
544.65	41277.69
544.82	41235.56
544.99	40589.57
545.16	41043.63
545.32	40746.39
545.49	41502.38
545.66	41383.01
545.83	41343.22
546.00	41626.43
546.16	41500.04
546.33	41380.67
546.50	41273.01
546.67	41961.12
546.83	41083.42
547.00	41249.60
547.17	41476.63
547.34	41642.81
547.50	41312.80
547.67	41865.16
547.84	41528.13
548.00	41914.31
548.17	42288.80
548.34	41757.50
548.51	42412.85
548.67	42225.60
548.84	42377.74
549.01	42000.91
549.18	42036.02
549.34	42438.59
549.51	42078.15
549.68	42700.73
549.84	42312.20
550.01	42508.81
550.18	42422.21
550.34	42136.66
550.51	42113.26
550.68	42267.73
550.84	41911.97
551.01	42476.04
551.18	42405.83
551.34	42277.10
551.51	42387.10
551.68	42541.58
551.84	43098.62
552.01	42459.66
552.18	42705.41
552.34	42415.19
552.51	42740.52
552.68	42492.43
552.84	42895.00
553.01	43019.05
553.18	42326.25
553.34	42419.87
553.51	42642.22
553.67	42934.79
553.84	43257.78
554.01	43175.86
554.17	43363.11
554.34	43299.91
554.51	43227.35
554.67	43732.91
554.84	43206.29
555.00	43063.52
555.17	42770.95
555.33	43068.20
555.50	43566.73
555.67	43143.09
555.83	43227.35
556.00	43203.95
556.16	43466.09
556.33	43543.33
556.50	43037.77
556.66	43871.00
556.83	43210.97
556.99	43812.49
557.16	43548.01
557.32	43438.00
557.49	43852.28
557.65	43910.79
557.82	43454.39
557.98	43199.27
558.15	43611.20
558.32	43320.98
558.48	43842.92
558.65	43260.12
558.81	43461.41
558.98	43636.95
559.14	43328.00
559.31	43393.53
559.47	43646.31
559.64	44219.74
559.80	44329.75
559.97	44123.78
560.13	43438.00
560.30	43936.54
560.46	43849.94
560.63	43992.71
560.79	44079.31
560.96	44189.31
561.12	44053.56
561.29	43845.26
561.45	44205.70
561.61	43995.05
561.78	44034.84
561.94	43683.76
562.11	43999.73
562.27	44009.09
562.44	44067.61
562.60	43882.70
562.77	44367.20
562.93	44378.90
563.10	43775.04
563.26	44095.69
563.42	44025.48
563.59	44486.56
563.75	44002.07
563.92	44484.22
564.08	44306.34
564.24	44596.57
564.41	44315.70
564.57	44142.50
564.74	44484.22
564.90	44765.09
565.07	44470.18
565.23	44460.82
565.39	44521.67
565.56	44332.09
565.72	44189.31
565.88	44381.24
566.05	44493.58
566.21	43910.79
566.38	44226.76
566.54	44549.76
566.70	44179.95
566.87	44601.25
567.03	44299.32
567.19	44545.08
567.36	44533.37
567.52	44334.43
567.68	44832.96
567.85	44275.91
568.01	44802.53
568.17	44657.42
568.34	44727.64
568.50	44371.88
568.66	44495.92
568.83	44748.70
568.99	44313.36
569.15	44451.45
569.32	44725.30
569.48	44767.43
569.64	44917.22
569.81	44619.97
569.97	44767.43
570.13	44531.03
570.30	44428.05
570.46	44156.55
570.62	44332.09
570.78	44619.97
570.95	44203.36
571.11	44765.09
571.27	44545.08
571.43	44842.32
571.60	45123.19
571.76	44397.62
571.92	44699.55
572.09	44439.75
572.25	44626.99
572.41	44282.94
572.57	44905.52
572.74	45116.17
572.90	44519.33
573.06	45095.10
573.22	45179.36
573.38	45010.84
573.55	44416.35
573.71	44926.58
573.87	44320.38
574.03	44538.05
574.20	44643.38
574.36	45116.17
574.52	44655.08
574.68	44636.36
574.84	44577.84
575.01	44737.00
575.17	45177.02
575.33	44671.46
575.49	44542.74
575.65	44772.11
575.82	45209.79
575.98	44631.68
576.14	45366.60
576.30	44811.90
576.46	44755.72
576.62	44500.61
576.79	44872.75
576.95	44322.72
577.11	44891.48
577.27	44987.44
577.43	44807.22
577.59	44591.89
577.75	45099.78
577.92	44624.65
578.08	44727.64
578.24	44348.47
578.40	44692.53
578.56	45228.51
578.72	44839.98
578.88	44889.13
579.04	44856.37
579.21	45031.91
579.37	44776.79
579.53	44680.83
579.69	44889.13
579.85	44891.48
580.01	44842.32
580.17	45041.27
580.33	45095.10
580.49	44961.69
580.65	45202.77
580.82	45134.89
580.98	44971.05
581.14	45027.23
581.30	44903.18
581.46	45050.63
581.62	44942.97
581.78	44825.94
581.94	45249.58
582.10	45043.61
582.26	45099.78
582.42	45055.31
582.58	44992.12
582.74	44650.40
582.90	44615.29
583.06	45029.57
583.22	45158.30
583.38	45436.82
583.54	45364.26
583.70	44847.00
583.86	44905.52
584.02	44942.97
584.18	45230.85
584.34	45223.83
584.50	45488.31
584.66	45291.71
584.82	44509.97
584.98	45450.86
585.14	44882.11
585.30	44893.82
585.46	45193.40
585.62	44596.57
585.78	45132.55
585.94	44680.83
586.10	45382.99
586.26	44788.49
586.42	45155.96
586.58	45586.61
586.74	44832.96
586.90	45198.09
587.06	45139.57
587.22	45399.37
587.38	45240.21
587.54	45598.32
587.70	45530.44
587.86	45528.10
588.02	44954.67
588.18	45584.27
588.34	44921.90
588.49	44884.45
588.65	44439.75
588.81	44744.02
588.97	44605.93
589.13	44729.98
589.29	44744.02
589.45	45165.32
589.61	45382.99
589.77	45303.41
589.93	45413.41
590.08	45593.64
590.24	45170.00
