SpectraSuite Data File
++++++++++++++++++++++++++++++++++++
Date: Fri Oct 25 11:23:32 EDT 2013
User: price-jones
Dark Spectrum Present: No
Reference Spectrum Present: No
Number of Sampled Component Spectra: 1
Spectrometers: USB2+H05261
Integration Time (usec): 100000 (USB2+H05261)
Spectra Averaged: 1 (USB2+H05261)
Boxcar Smoothing: 0 (USB2+H05261)
Correct for Electrical Dark: No (USB2+H05261)
Strobe/Lamp Enabled: No (USB2+H05261)
Correct for Detector Non-linearity: No (USB2+H05261)
Correct for Stray Light: No (USB2+H05261)
Number of Pixels in Processed Spectrum: 2048
>>>>>Begin Processed Spectral Data<<<<<
365.73	255.12
365.92	255.12
366.12	255.12
366.32	112.35
366.52	121.71
366.72	180.22
366.91	152.13
367.11	128.73
367.31	77.24
367.51	86.60
367.70	140.43
367.90	135.75
368.10	105.32
368.30	161.50
368.49	140.43
368.69	140.43
368.89	231.71
369.09	107.66
369.28	210.65
369.48	156.82
369.68	177.88
369.87	217.67
370.07	245.76
370.27	252.78
370.47	346.40
370.66	603.86
370.86	617.90
371.06	627.26
371.25	655.35
371.45	676.41
371.65	739.61
371.84	732.59
372.04	765.36
372.24	704.50
372.44	739.61
372.63	650.67
372.83	711.52
373.03	716.20
373.22	812.17
373.42	849.61
373.62	732.59
373.81	793.44
374.01	720.88
374.21	833.23
374.40	844.93
374.60	875.36
374.79	767.70
374.99	748.97
375.19	767.70
375.38	854.30
375.58	842.59
375.78	870.68
375.97	863.66
376.17	891.74
376.37	842.59
376.56	767.70
376.76	851.96
376.95	830.89
377.15	856.64
377.35	929.19
377.54	915.15
377.74	903.45
377.93	931.53
378.13	898.77
378.33	945.58
378.52	917.49
378.72	961.96
378.91	952.60
379.11	919.83
379.31	992.39
379.50	866.00
379.70	1067.28
379.89	1102.39
380.09	997.07
380.28	1062.60
380.48	938.55
380.68	978.34
380.87	933.87
381.07	961.96
381.26	1102.39
381.46	1011.11
381.65	1057.92
381.85	1081.33
382.04	1011.11
382.24	1015.79
382.43	1076.65
382.63	1013.45
382.83	1090.69
383.02	1029.84
383.22	1071.97
383.41	1111.75
383.61	1118.78
383.80	1146.86
384.00	1118.78
384.19	1029.84
384.39	1116.44
384.58	1090.69
384.78	1210.06
384.97	1156.22
385.17	1146.86
385.36	1130.48
385.56	1181.97
385.75	1114.10
385.95	1256.87
386.14	1226.44
386.34	1181.97
386.53	1254.53
386.72	1212.40
386.92	1231.12
387.11	1245.16
387.31	1299.00
387.50	1228.78
387.70	1172.61
387.89	1301.34
388.09	1263.89
388.28	1331.76
388.48	1277.93
388.67	1303.68
388.86	1296.66
389.06	1313.04
389.25	1303.68
389.45	1486.24
389.64	1259.21
389.84	1345.81
390.03	1366.87
390.22	1441.77
390.42	1390.28
390.61	1413.68
390.81	1488.58
391.00	1427.73
391.19	1448.79
391.39	1425.39
391.58	1547.09
391.78	1460.49
391.97	1549.43
392.16	1479.22
392.36	1542.41
392.55	1476.88
392.75	1483.90
392.94	1537.73
393.13	1479.22
393.33	1460.49
393.52	1511.99
393.71	1596.25
393.91	1549.43
394.10	1624.33
394.29	1561.14
394.49	1739.02
394.68	1680.50
394.88	1636.03
395.07	1650.08
395.26	1666.46
395.46	1619.65
395.65	1760.08
395.84	1750.72
396.04	1675.82
396.23	1760.08
396.42	1666.46
396.62	1783.49
396.81	1776.47
397.00	1685.19
397.19	1823.28
397.39	1816.26
397.58	1844.34
397.77	1804.55
397.97	1811.57
398.16	1724.97
398.35	1916.90
398.55	1851.36
398.74	1816.26
398.93	2017.54
399.12	1928.60
399.32	1966.05
399.51	1909.88
399.70	2024.56
399.90	2033.93
400.09	2054.99
400.28	2118.18
400.47	2085.42
400.67	2078.40
400.86	2043.29
401.05	2141.59
401.24	2136.91
401.44	2026.90
401.63	2181.38
401.82	2122.87
402.01	2122.87
402.21	2209.47
402.40	2097.12
402.59	2246.91
402.78	2286.70
402.97	2249.25
403.17	2157.97
403.36	2176.70
403.55	2230.53
403.74	2277.34
403.93	2443.52
404.13	2289.04
404.32	2413.09
404.51	2403.73
404.70	2368.62
404.89	2321.81
405.09	2401.39
405.28	2370.96
405.47	2438.84
405.66	2581.61
405.85	2583.95
406.05	2473.95
406.24	2490.33
406.43	2523.10
406.62	2590.97
406.81	2623.74
407.00	2698.64
407.20	2523.10
407.39	2583.95
407.58	2644.81
407.77	2778.22
407.96	2640.12
408.15	2808.64
408.34	2722.04
408.54	2768.85
408.73	2827.37
408.92	2846.09
409.11	2918.65
409.30	2960.78
409.49	2902.26
409.68	2888.22
409.87	2935.03
410.07	2930.35
410.26	3098.87
410.45	2979.50
410.64	3045.04
410.83	3049.72
411.02	3021.63
411.21	3173.77
411.40	3187.81
411.59	3159.72
411.78	3225.26
411.98	3176.11
412.17	3227.60
412.36	3426.54
412.55	3356.33
412.74	3471.01
412.93	3461.65
413.12	3279.09
413.31	3454.63
413.50	3466.33
413.69	3459.31
413.88	3585.70
414.07	3531.87
414.26	3730.81
414.45	3744.86
414.64	3581.02
414.83	3779.97
415.02	3751.88
415.22	3889.97
415.41	3908.69
415.60	3838.48
415.79	3915.72
415.98	3957.85
416.17	3992.95
416.36	4002.32
416.55	4051.47
416.74	3964.87
416.93	4053.81
417.12	4074.87
417.31	4266.80
417.50	4222.33
417.69	4311.27
417.88	4280.84
418.07	4184.88
418.26	4177.86
418.45	4358.08
418.64	4477.44
418.83	4432.97
419.02	4337.01
419.21	4535.96
419.39	4500.85
419.58	4540.64
419.77	4554.68
419.96	4657.67
420.15	4578.09
420.34	4638.94
420.53	4622.56
420.72	4727.88
420.91	4667.03
421.10	4833.21
421.29	4802.78
421.48	4788.74
421.67	4718.52
421.86	4887.04
422.05	4819.16
422.24	4786.40
422.43	4917.47
422.61	4882.36
422.80	4997.04
422.99	4943.21
423.18	5088.32
423.37	4950.23
423.56	5020.45
423.75	5025.13
423.94	4889.38
424.13	4737.24
424.32	4704.48
424.50	4966.62
424.69	5156.20
424.88	5132.79
425.07	4947.89
425.26	5018.11
425.45	4978.32
425.64	4889.38
425.83	4999.38
426.01	5060.24
426.20	5018.11
426.39	5158.54
426.58	5032.15
426.77	5036.83
426.96	5123.43
427.15	5067.26
427.33	5139.82
427.52	5184.29
427.71	5289.61
427.90	5296.63
428.09	5348.12
428.28	5247.48
428.46	5444.09
428.65	5338.76
428.84	5490.90
429.03	5589.20
429.22	5268.55
429.40	5425.36
429.59	5327.06
429.78	5343.44
429.97	5418.34
430.16	5523.66
430.34	5659.42
430.53	5746.02
430.72	5790.49
430.91	5659.42
431.10	5458.13
431.28	5818.57
431.47	5879.43
431.66	5872.40
431.85	5816.23
432.03	5984.75
432.22	6064.33
432.41	5914.53
432.60	5846.66
432.79	6019.86
432.97	6094.76
433.16	6045.60
433.35	6076.03
433.54	6001.13
433.72	6136.88
433.91	6293.70
434.10	6143.91
434.28	6024.54
434.47	6104.12
434.66	6335.83
434.85	6356.90
435.03	6333.49
435.22	6408.39
435.41	6607.33
435.59	6462.22
435.78	6464.56
435.97	6417.75
436.16	6586.27
436.34	6473.92
436.53	6487.96
436.72	6700.95
436.90	6389.66
437.09	6518.39
437.28	6604.99
437.46	6733.72
437.65	6696.27
437.84	6502.01
438.02	6761.81
438.21	6717.34
438.40	6644.78
438.58	7068.42
438.77	7239.28
438.96	6904.58
439.14	7180.76
439.33	7119.91
439.52	7045.01
439.70	7288.43
439.89	7302.47
440.08	7403.11
440.26	7358.64
440.45	7279.07
440.63	7541.21
440.82	7737.81
441.01	7588.02
441.19	7693.34
441.38	7791.64
441.57	7700.36
441.75	7777.60
441.94	7894.63
442.12	8063.15
442.31	7946.12
442.50	8224.64
442.68	7983.57
442.87	8114.64
443.05	8107.62
443.24	8121.66
443.43	8243.37
443.61	8180.17
443.80	8407.20
443.98	8044.42
444.17	7911.01
444.35	8119.32
444.54	8519.55
444.73	8351.03
444.91	8486.78
445.10	8416.57
445.28	8348.69
445.47	8170.81
445.65	8329.97
445.84	8535.93
446.02	8458.70
446.21	8454.02
446.39	8381.46
446.58	8545.30
446.77	8557.00
446.95	8386.14
447.14	8477.42
447.32	8528.91
447.51	8451.67
447.69	8482.10
447.88	8533.59
448.06	8524.23
448.25	8456.36
448.43	8512.53
448.62	8566.36
448.80	8582.74
448.99	8779.35
449.17	8772.33
449.36	8854.25
449.54	8821.48
449.73	8872.97
449.91	8971.27
450.10	9027.45
450.28	9184.26
450.46	9076.60
450.65	8947.87
450.83	8978.30
451.02	9324.69
451.20	9181.92
451.39	9172.56
451.57	9179.58
451.76	9256.82
451.94	9179.58
452.13	9284.91
452.31	9305.97
452.49	9153.84
452.68	9366.82
452.86	9287.25
453.05	9591.52
453.23	9441.72
453.42	9509.60
453.60	9312.99
453.78	9287.25
453.97	9530.66
454.15	9643.01
454.34	9362.14
454.52	9825.57
454.70	9535.34
454.89	9830.25
455.07	9926.21
455.26	9841.95
455.44	10090.05
455.62	9916.85
455.81	10068.98
455.99	10134.52
456.17	9970.68
456.36	10115.80
456.54	10441.13
456.73	10483.26
456.91	10532.41
457.09	10448.15
457.28	10499.64
457.46	10352.19
457.64	10583.90
457.83	10452.83
458.01	10429.43
458.19	10686.89
458.38	10691.57
458.56	10647.10
458.74	10614.33
458.93	10855.40
459.11	10698.59
459.29	10736.04
459.48	11033.29
459.66	11044.99
459.84	10869.45
460.03	10864.77
460.21	11103.50
460.39	11183.08
460.57	11023.92
460.76	11201.80
460.94	11311.81
461.12	11250.96
461.31	11239.25
461.49	11037.97
461.67	11117.54
461.85	11573.95
462.04	11187.76
462.22	11477.99
462.40	11620.76
462.59	11531.82
462.77	11520.12
462.95	11569.27
463.13	11426.50
463.32	11758.85
463.50	11765.87
463.68	11733.11
463.86	11985.88
464.05	11592.67
464.23	11419.47
464.41	11723.74
464.59	11655.87
464.78	12189.51
464.96	12154.40
465.14	11822.05
465.32	11999.93
465.50	12217.60
465.69	12201.21
465.87	12166.10
466.05	12201.21
466.23	12212.92
466.41	12470.37
466.60	12430.59
466.78	12196.53
466.96	12397.82
467.14	12168.45
467.32	12360.37
467.51	12594.42
467.69	12393.14
467.87	12517.18
468.05	12620.17
468.23	12463.35
468.41	12587.40
468.60	12702.09
468.78	12847.20
468.96	12652.94
469.14	12968.91
469.32	13025.08
469.50	12723.15
469.69	13013.38
469.87	13062.53
470.05	13163.17
470.23	13158.49
470.41	13177.22
470.59	13287.22
470.77	12980.61
470.95	13453.40
471.14	13668.73
471.32	13114.02
471.50	13619.58
471.68	13612.56
471.86	13827.88
472.04	13809.16
472.22	13965.98
472.40	13923.85
472.58	13748.31
472.77	13987.04
472.95	14059.60
473.13	14546.43
473.31	13996.40
473.49	14150.88
473.67	14270.25
473.85	14167.26
474.03	15101.14
474.21	14466.85
474.39	14920.92
474.57	14817.93
474.75	14979.43
474.93	14888.15
475.12	15094.11
475.30	15257.95
475.48	15190.08
475.66	15321.15
475.84	15122.20
476.02	15262.63
476.20	15651.16
476.38	15562.22
476.56	15976.50
476.74	15925.00
476.92	15913.30
477.10	15763.51
477.28	16243.32
477.46	16315.87
477.64	16458.65
477.82	16594.40
478.00	16697.38
478.18	16924.41
478.36	16952.50
478.54	17130.38
478.72	17231.02
478.90	17680.41
479.08	17518.91
479.26	17661.68
479.44	17949.57
479.62	17991.70
479.80	18319.37
479.98	18258.52
480.16	18576.83
480.34	18209.37
480.52	18473.85
480.70	18703.22
480.88	18471.51
481.06	18824.93
481.24	18939.62
481.41	19173.67
481.59	19421.77
481.77	19606.67
481.95	19609.01
482.13	19924.98
482.31	19789.23
482.49	19962.43
482.67	20243.29
482.85	20535.86
483.03	21046.10
483.21	20617.78
483.39	20919.71
483.57	20292.44
483.74	21097.59
483.92	21448.67
484.10	21078.86
484.28	22132.11
484.46	21935.50
484.64	22590.85
484.82	22260.84
485.00	22370.84
485.18	22597.87
485.35	22895.12
485.53	23145.56
485.71	23159.60
485.89	23695.58
486.07	23466.21
486.25	23545.79
486.43	23592.60
486.61	24112.20
486.78	24072.41
486.96	24416.47
487.14	24779.25
487.32	24606.05
487.50	25006.28
487.68	24975.86
487.85	25722.49
488.03	25481.41
488.21	25900.37
488.39	25781.00
488.57	26103.99
488.75	26459.76
488.92	26581.46
489.10	27199.37
489.28	26885.73
489.46	27239.15
489.64	27133.83
489.81	27730.67
489.99	27796.20
490.17	27580.87
490.35	28250.27
490.53	28205.80
490.70	28481.98
490.88	28496.02
491.06	28856.46
491.24	28821.36
491.41	29106.90
491.59	29151.37
491.77	29586.71
491.95	29720.12
492.13	30157.80
492.30	29982.26
492.48	29855.87
492.66	30579.10
492.84	30616.55
493.01	31016.78
493.19	30719.53
493.37	30738.26
493.54	31264.88
493.72	31337.43
493.90	31402.97
494.08	32023.21
494.25	32205.77
494.43	32198.75
494.61	32535.79
494.79	32449.19
494.96	32818.99
495.14	32528.77
495.32	33418.17
495.49	33158.37
495.67	33060.07
495.85	33582.01
496.02	33975.22
496.20	34323.96
496.38	34265.44
496.55	34326.30
496.73	34944.20
496.91	34768.66
497.09	35124.42
497.26	35292.94
497.44	35124.42
497.62	35260.17
497.79	35737.64
497.97	35653.38
498.14	36353.20
498.32	36334.48
498.50	36495.97
498.67	36683.22
498.85	36545.12
499.03	36465.55
499.20	36664.49
499.38	36903.23
499.56	37479.00
499.73	37858.17
499.91	37577.30
500.08	37839.44
500.26	37591.34
500.44	38099.24
500.61	37727.10
500.79	38122.65
500.97	38120.31
501.14	38799.06
501.32	38724.16
501.49	38174.14
501.67	38836.51
501.84	39140.78
502.02	39243.76
502.20	38941.83
502.37	39445.05
502.55	39220.36
502.72	39629.95
502.90	39920.18
503.07	39966.99
503.25	40133.17
503.43	40020.82
503.60	40378.92
503.78	40495.95
503.95	40601.27
504.13	40456.16
504.30	40549.78
504.48	40790.86
504.65	40919.59
504.83	41387.69
505.01	41478.97
505.18	41008.53
505.36	41804.31
505.53	41378.33
505.71	41783.24
505.88	41797.29
506.06	41694.30
506.23	42171.77
506.41	41874.52
506.58	42815.42
506.76	41989.21
506.93	42892.66
507.11	42944.15
507.28	43145.44
507.46	42600.09
507.63	43271.82
507.81	43110.33
507.98	43152.46
508.16	43660.35
508.33	43992.71
508.50	43793.76
508.68	43803.13
508.85	43725.89
509.03	43732.91
509.20	44231.44
509.38	44371.88
509.55	44746.36
509.73	44685.51
509.90	44690.19
510.08	44549.76
510.25	44996.80
510.42	44521.67
510.60	45256.60
510.77	45289.37
510.95	45469.59
511.12	45687.26
511.30	45181.70
511.47	45588.95
511.64	45911.95
511.82	45872.16
511.99	46028.98
512.17	46089.83
512.34	45801.94
512.51	46614.11
512.69	46735.82
512.86	46506.44
513.04	47056.47
513.21	46822.42
513.38	47119.66
513.56	46951.15
513.73	46962.85
513.90	46990.94
514.08	47098.60
514.25	47227.33
514.43	47463.72
514.60	47517.56
514.77	47084.56
514.95	48027.79
515.12	47566.71
515.29	47901.40
515.47	47655.65
515.64	48383.55
515.81	48168.22
515.99	47763.31
516.16	48643.35
516.33	48636.33
516.51	48940.60
516.68	48650.38
516.85	48631.65
517.03	49144.23
517.20	48736.98
517.37	49022.52
517.54	49256.57
517.72	49415.73
517.89	49249.55
518.06	49535.10
518.24	49361.90
518.41	49298.70
518.58	49638.08
518.75	49521.05
518.93	49488.29
519.10	49537.44
519.27	50061.72
519.45	49612.34
519.62	50117.89
519.79	50164.70
519.96	50213.85
520.14	50522.80
520.31	50223.22
520.48	50651.53
520.65	50740.47
520.83	50600.04
521.00	50885.59
521.17	50611.74
521.34	50864.52
521.52	51175.81
521.69	51065.81
521.86	51246.03
522.03	51079.85
522.20	51669.67
522.38	51571.36
522.55	51695.41
522.72	51657.96
522.89	51526.89
523.07	51959.89
523.24	51241.35
523.41	52016.07
523.58	51608.81
523.75	52065.22
523.92	51910.74
524.10	52226.71
524.27	52224.37
524.44	52247.78
524.61	52217.35
524.78	52285.23
524.96	52313.31
525.13	52554.39
525.30	52444.38
525.47	52643.33
525.64	52402.25
525.81	52743.97
525.98	53057.60
526.16	52886.74
526.33	52734.61
526.50	53162.93
526.67	53062.29
526.84	53254.21
527.01	52921.85
527.18	53137.18
527.36	53240.17
527.53	53291.66
527.70	53502.31
527.87	53483.58
528.04	53467.20
528.21	53385.28
528.38	53523.37
528.55	53886.15
528.72	53326.77
528.89	53605.29
529.07	53406.34
529.24	53614.65
529.41	53680.19
529.58	53848.71
529.75	53542.10
529.92	53743.38
530.09	53565.50
530.26	54052.33
530.43	54087.44
530.60	53698.91
530.77	53844.02
530.94	54288.73
531.11	54019.56
531.28	54288.73
531.46	54061.69
531.63	54534.48
531.80	54513.42
531.97	54344.90
532.14	54731.09
532.31	54728.75
532.48	54611.72
532.65	54787.26
532.82	54468.95
532.99	54899.61
533.16	54578.95
533.33	55143.02
533.50	55089.19
533.67	55040.04
533.84	55000.25
534.01	54930.03
534.18	54698.32
534.35	55311.54
534.52	55164.09
534.69	55192.17
534.86	55353.67
535.03	55260.05
535.20	55297.50
535.37	55477.72
535.54	55220.26
535.71	55124.30
535.88	55358.35
536.05	55622.83
536.22	55636.87
536.38	55681.34
536.55	55674.32
536.72	55695.39
536.89	55608.79
537.06	55697.73
537.23	55870.93
537.40	55756.24
537.57	55889.65
537.74	55732.84
537.91	56079.24
538.08	56058.17
538.25	55945.83
538.42	55781.99
538.59	56177.54
538.75	55955.19
538.92	56212.65
539.09	56451.38
539.26	56055.83
539.43	56360.10
539.60	56240.73
539.77	56474.79
539.94	56477.13
540.11	56301.59
540.28	56673.73
540.44	56559.05
540.61	56612.88
540.78	56446.70
540.95	56463.08
541.12	56561.39
541.29	56554.36
541.46	56690.12
541.62	56486.49
541.79	56772.03
541.96	56596.49
542.13	56500.53
542.30	56849.27
542.47	56853.95
542.63	57073.96
542.80	56804.80
542.97	57073.96
543.14	57312.70
543.31	57411.00
543.48	57228.44
543.64	57591.22
543.81	57368.87
543.98	57343.12
544.15	57233.12
544.32	57595.90
544.48	57609.95
544.65	57504.62
544.82	57443.77
544.99	57352.49
545.16	57666.12
545.32	57607.61
545.49	57719.95
545.66	57996.13
545.83	57537.39
546.00	57822.93
546.16	57656.76
546.33	57736.34
546.50	57577.18
546.67	57844.00
546.83	57708.25
547.00	57982.09
547.17	57876.77
547.34	57904.85
547.50	58085.07
547.67	58225.51
547.84	58012.52
548.00	58150.61
548.17	58473.60
548.34	58192.74
548.51	58452.54
548.67	58258.27
548.84	58220.83
549.01	58262.96
549.18	58136.57
549.34	58581.27
549.51	58525.10
549.68	58422.11
549.84	58501.69
550.01	58571.91
550.18	58379.98
550.34	58607.01
550.51	58656.17
550.68	58438.50
550.84	58244.23
551.01	58553.18
551.18	58756.81
551.34	58700.64
551.51	58604.67
551.68	58714.68
551.84	58761.49
552.01	58541.48
552.18	58747.45
552.34	58656.17
552.51	58958.09
552.68	58707.66
552.84	58878.52
553.01	58932.35
553.18	58796.60
553.34	58887.88
553.51	58693.61
553.67	58852.77
553.84	59143.00
554.01	59051.72
554.17	59135.98
554.34	59114.91
554.51	59044.69
554.67	59318.54
554.84	59143.00
555.00	59138.32
555.17	59117.25
555.33	59180.45
555.50	59241.30
555.67	59222.58
555.83	58972.14
556.00	59498.76
556.16	59599.40
556.33	59522.16
556.50	59290.45
556.66	59412.16
556.83	59047.04
556.99	59435.56
557.16	59496.42
557.32	59533.87
557.49	59426.20
557.65	59625.15
557.82	59409.82
557.98	59428.54
558.15	59627.49
558.32	59632.17
558.48	59440.24
558.65	59774.94
558.81	59561.95
558.98	59770.26
559.14	59765.58
559.31	59781.96
559.47	59667.28
559.64	59784.30
559.80	59877.93
559.97	59711.75
560.13	59522.16
560.30	59592.38
560.46	59709.41
560.63	59807.71
560.79	59887.29
560.96	59709.41
561.12	60051.12
561.29	60032.40
561.45	60009.00
561.61	59959.84
561.78	59810.05
561.94	60009.00
562.11	60114.32
562.27	60062.83
562.44	60104.96
562.60	60196.24
562.77	60074.53
562.93	59721.11
563.10	60303.90
563.26	59894.31
563.42	60339.01
563.59	60039.42
563.75	60088.57
563.92	60023.04
564.08	60039.42
564.24	60121.34
564.41	60294.54
564.57	60233.69
564.74	60357.74
564.90	60198.58
565.07	60200.92
565.23	60212.62
565.39	60044.10
565.56	60191.56
565.72	60137.72
565.88	60214.96
566.05	60151.77
566.21	60313.26
566.38	60273.48
566.54	60444.33
566.70	60500.51
566.87	60460.72
567.03	60245.39
567.19	60654.98
567.36	60322.63
567.52	60399.86
567.68	60549.66
567.85	60441.99
568.01	60509.87
568.17	60456.04
568.34	60362.42
568.50	60434.97
568.66	60231.35
568.83	60472.42
568.99	60486.46
569.15	60654.98
569.32	60413.91
569.48	60638.60
569.64	60736.90
569.81	60509.87
569.97	60500.51
570.13	60481.78
570.30	60404.55
570.46	60563.70
570.62	60605.83
570.78	60650.30
570.95	60589.45
571.11	60725.20
571.27	60547.32
571.43	60596.47
571.60	60626.90
571.76	60685.41
571.92	60598.81
572.09	60736.90
572.25	60624.56
572.41	60729.88
572.57	60678.39
572.74	60917.12
572.90	60699.45
573.06	60701.79
573.22	60603.49
573.38	60685.41
573.55	60690.09
573.71	60832.86
573.87	60659.66
574.03	60633.92
574.20	60896.06
574.36	60769.67
574.52	60912.44
574.68	60870.31
574.84	61027.13
575.01	60795.42
575.17	60711.16
575.33	60917.12
575.49	60683.07
575.65	60980.32
575.82	60818.82
575.98	60926.49
576.14	61090.32
576.30	60907.76
576.46	60893.72
576.62	60809.46
576.79	60673.71
576.95	61013.08
577.11	61015.43
577.27	60891.38
577.43	60825.84
577.59	60910.10
577.75	60772.01
577.92	60612.85
578.08	60816.48
578.24	60921.80
578.40	61076.28
578.56	60917.12
578.72	60865.63
578.88	60980.32
579.04	61050.53
579.21	60985.00
579.37	61102.03
579.53	61132.45
579.69	60879.67
579.85	60910.10
580.01	60741.58
580.17	60940.53
580.33	60973.30
580.49	61193.31
580.65	60935.85
580.82	61017.77
580.98	60949.89
581.14	60762.65
581.30	61017.77
581.46	61085.64
581.62	61029.47
581.78	61048.19
581.94	61209.69
582.10	61090.32
582.26	61050.53
582.42	61071.60
582.58	61109.05
582.74	61043.51
582.90	60968.61
583.06	60832.86
583.22	60882.02
583.38	61104.37
583.54	60996.70
583.70	60966.27
583.86	61057.56
584.02	60938.19
584.18	61146.50
584.34	61120.75
584.50	60977.98
584.66	60687.75
584.82	60856.27
584.98	61127.77
585.14	61188.63
585.30	60912.44
585.46	60982.66
585.62	61195.65
585.78	61368.85
585.94	61015.43
586.10	61010.74
586.26	61095.00
586.42	61076.28
586.58	61186.28
586.74	61169.90
586.90	61038.83
587.06	61095.00
587.22	61167.56
587.38	61263.52
587.54	61446.08
587.70	61315.01
587.86	61137.13
588.02	61240.12
588.18	61193.31
588.34	60867.97
588.49	61118.41
