SpectraSuite Data File
++++++++++++++++++++++++++++++++++++
Date: Fri Oct 25 10:44:28 EDT 2013
User: price-jones
Dark Spectrum Present: No
Reference Spectrum Present: No
Number of Sampled Component Spectra: 1
Spectrometers: USB2+H05261
Integration Time (usec): 100000 (USB2+H05261)
Spectra Averaged: 1 (USB2+H05261)
Boxcar Smoothing: 0 (USB2+H05261)
Correct for Electrical Dark: No (USB2+H05261)
Strobe/Lamp Enabled: No (USB2+H05261)
Correct for Detector Non-linearity: No (USB2+H05261)
Correct for Stray Light: No (USB2+H05261)
Number of Pixels in Processed Spectrum: 2048
>>>>>Begin Processed Spectral Data<<<<<
365.73	93.62
365.92	93.62
366.12	93.62
366.32	11.70
366.52	11.70
366.72	0.00
366.91	21.06
367.11	0.00
367.31	18.72
367.51	30.43
367.70	0.00
367.90	7.02
368.10	9.36
368.30	79.58
368.49	60.85
368.69	23.41
368.89	0.00
369.09	60.85
369.28	0.00
369.48	2.34
369.68	53.83
369.87	79.58
370.07	133.41
370.27	119.37
370.47	159.16
370.66	355.76
370.86	388.53
371.06	533.64
371.25	456.40
371.45	444.70
371.65	430.66
371.84	510.24
372.04	456.40
372.24	468.11
372.44	545.34
372.63	547.69
372.83	440.02
373.03	622.58
373.22	472.79
373.42	507.90
373.62	557.05
373.81	580.45
374.01	587.47
374.21	503.22
374.40	566.41
374.60	664.71
374.79	540.66
374.99	601.52
375.19	671.73
375.38	615.56
375.58	631.94
375.78	624.92
375.97	535.98
376.17	655.35
376.37	545.34
376.56	615.56
376.76	552.37
376.95	610.88
377.15	648.33
377.35	610.88
377.54	667.05
377.74	608.54
377.93	648.33
378.13	678.76
378.33	645.99
378.52	650.67
378.72	720.88
378.91	615.56
379.11	622.58
379.31	653.01
379.50	645.99
379.70	674.07
379.89	664.71
380.09	634.29
380.28	676.41
380.48	706.84
380.68	641.31
380.87	709.18
381.07	669.39
381.26	685.78
381.46	690.46
381.65	641.31
381.85	650.67
382.04	676.41
382.24	718.54
382.43	653.01
382.63	653.01
382.83	755.99
383.02	760.67
383.22	744.29
383.41	725.57
383.61	781.74
383.80	805.14
384.00	767.70
384.19	791.10
384.39	784.08
384.58	737.27
384.78	770.04
384.97	823.87
385.17	849.61
385.36	809.83
385.56	781.74
385.75	819.19
385.95	812.17
386.14	915.15
386.34	889.40
386.53	830.89
386.72	802.80
386.92	816.85
387.11	889.40
387.31	910.47
387.50	884.72
387.70	887.06
387.89	929.19
388.09	919.83
388.28	884.72
388.48	851.96
388.67	999.41
388.86	917.49
389.06	959.62
389.25	978.34
389.45	1036.86
389.64	924.51
389.84	1036.86
390.03	952.60
390.22	1053.24
390.42	997.07
390.61	1048.56
390.81	1022.81
391.00	1036.86
391.19	983.02
391.39	1078.99
391.58	1060.26
391.78	1067.28
391.97	1071.97
392.16	1090.69
392.36	1032.18
392.55	1013.45
392.75	1046.22
392.94	1029.84
393.13	980.68
393.33	997.07
393.52	1046.22
393.71	1111.75
393.91	1153.88
394.10	1121.12
394.29	1121.12
394.49	1137.50
394.68	1181.97
394.88	1261.55
395.07	1247.51
395.26	1352.83
395.46	1256.87
395.65	1299.00
395.84	1212.40
396.04	1217.08
396.23	1219.42
396.42	1118.78
396.62	1203.04
396.81	1193.67
397.00	1259.21
397.19	1287.29
397.39	1268.57
397.58	1427.73
397.77	1399.64
397.97	1303.68
398.16	1432.41
398.35	1409.00
398.55	1474.54
398.74	1643.06
398.93	1596.25
399.12	1575.18
399.32	1430.07
399.51	1549.43
399.70	1575.18
399.90	1490.92
400.09	1596.25
400.28	1624.33
400.47	1554.12
400.67	1511.99
400.86	1696.89
401.05	1729.66
401.24	1629.01
401.44	1603.27
401.63	1701.57
401.82	1600.93
402.01	1661.78
402.21	1703.91
402.40	1764.76
402.59	1799.87
402.78	1767.10
402.97	1781.15
403.17	1762.42
403.36	1902.86
403.55	1823.28
403.74	1898.17
403.93	1846.68
404.13	1900.52
404.32	1870.09
404.51	1851.36
404.70	1949.67
404.89	1888.81
405.09	2083.08
405.28	1909.88
405.47	1933.28
405.66	1989.46
405.85	2005.84
406.05	1977.75
406.24	1956.69
406.43	2019.88
406.62	2017.54
406.81	2062.01
407.00	2129.89
407.20	2097.12
407.39	1998.82
407.58	2120.53
407.77	2190.74
407.96	2155.63
408.15	2282.02
408.34	2230.53
408.54	2319.47
408.73	2118.18
408.92	2284.36
409.11	2319.47
409.30	2349.90
409.49	2282.02
409.68	2235.21
409.87	2225.85
410.07	2335.85
410.26	2394.37
410.45	2326.49
410.64	2448.20
410.83	2518.42
411.02	2466.92
411.21	2473.95
411.40	2478.63
411.59	2733.75
411.78	2588.63
411.98	2595.65
412.17	2572.25
412.36	2747.79
412.55	2808.64
412.74	2679.91
412.93	2780.56
413.12	2675.23
413.31	2937.37
413.50	2846.09
413.69	2780.56
413.88	2988.86
414.07	2956.10
414.26	2923.33
414.45	2787.58
414.64	3040.36
414.83	3077.80
415.02	2970.14
415.22	2986.52
415.41	3197.17
415.60	3190.15
415.79	3199.51
415.98	3192.49
416.17	3213.56
416.36	3192.49
416.55	3213.56
416.74	3215.90
416.93	3300.16
417.12	3215.90
417.31	3342.28
417.50	3323.56
417.69	3302.50
417.88	3403.14
418.07	3515.48
418.26	3433.57
418.45	3368.03
418.64	3494.42
418.83	3543.57
419.02	3496.76
419.21	3499.10
419.39	3531.87
419.58	3597.40
419.77	3545.91
419.96	3641.87
420.15	3829.12
420.34	3557.61
420.53	3878.27
420.72	3702.73
420.91	3775.28
421.10	3885.29
421.29	3859.54
421.48	3915.72
421.67	3988.27
421.86	3726.13
422.05	3850.18
422.24	3744.86
422.43	3796.35
422.61	3882.95
422.80	3852.52
422.99	3911.04
423.18	3967.21
423.37	4007.00
423.56	3960.19
423.75	3922.74
423.94	3964.87
424.13	3796.35
424.32	3786.99
424.50	3815.07
424.69	4088.92
424.88	4004.66
425.07	3948.48
425.26	3990.61
425.45	3911.04
425.64	4014.02
425.83	4023.38
426.01	4091.26
426.20	4175.52
426.39	4023.38
426.58	3819.75
426.77	4107.64
426.96	3920.40
427.15	3985.93
427.33	4056.15
427.52	4170.83
427.71	4219.99
427.90	4166.15
428.09	4187.22
428.28	4100.62
428.46	4170.83
428.65	4194.24
428.84	4393.19
429.03	4217.65
429.22	4021.04
429.40	4222.33
429.59	4262.12
429.78	3882.95
429.97	3702.73
430.16	3925.08
430.34	4014.02
430.53	4072.53
430.72	4098.28
430.91	4236.37
431.10	4400.21
431.28	4538.30
431.47	4592.13
431.66	4774.69
431.85	4631.92
432.03	4688.09
432.22	4594.47
432.41	4599.15
432.60	4645.96
432.79	4692.77
432.97	4788.74
433.16	4725.54
433.35	4615.54
433.54	4599.15
433.72	4599.15
433.91	4711.50
434.10	4706.82
434.28	4648.30
434.47	4676.39
434.66	4985.34
434.85	5001.72
435.03	4777.03
435.22	5020.45
435.41	5102.37
435.59	4999.38
435.78	5069.60
435.97	5109.39
436.16	5067.26
436.34	5277.91
436.53	5184.29
436.72	5214.71
436.90	5041.51
437.09	5167.90
437.28	5123.43
437.46	5085.98
437.65	5268.55
437.84	5188.97
438.02	4997.04
438.21	5296.63
438.40	5205.35
438.58	5268.55
438.77	5298.97
438.96	5336.42
439.14	5476.85
439.33	5469.83
439.52	5696.86
439.70	5668.78
439.89	5540.05
440.08	5795.17
440.26	5708.57
440.45	5755.38
440.63	5816.23
440.82	5982.41
441.01	5926.24
441.19	6012.84
441.38	5926.24
441.57	6029.22
441.75	6012.84
441.94	6321.79
442.12	6408.39
442.31	6354.55
442.50	6476.26
442.68	6179.01
442.87	6356.90
443.05	6401.37
443.24	6478.60
443.43	6626.06
443.61	6661.16
443.80	6555.84
443.98	6366.26
444.17	6127.52
444.35	6630.74
444.54	6513.71
444.73	6560.52
444.91	6478.60
445.10	6576.91
445.28	6497.33
445.47	6174.33
445.65	6179.01
445.84	6579.25
446.02	6661.16
446.21	6750.10
446.39	6616.69
446.58	6640.10
446.77	6649.46
446.95	6628.40
447.14	6712.66
447.32	6841.39
447.51	6626.06
447.69	6705.63
447.88	6668.19
448.06	6815.64
448.25	6604.99
448.43	6698.61
448.62	6846.07
448.80	6630.74
448.99	6785.21
449.17	6946.71
449.36	6855.43
449.54	7129.27
449.73	7101.19
449.91	6979.48
450.10	7023.95
450.28	7258.00
450.46	7239.28
450.65	7262.68
450.83	7269.70
451.02	7155.02
451.20	7243.96
451.39	7440.56
451.57	7370.35
451.76	7126.93
451.94	7274.38
452.13	7300.13
452.31	7094.16
452.49	7185.44
452.68	7236.94
452.86	7112.89
453.05	7314.17
453.23	7382.05
453.42	7431.20
453.60	7248.64
453.78	7588.02
453.97	7433.54
454.15	7407.80
454.34	7461.63
454.52	7578.65
454.70	7463.97
454.89	7611.42
455.07	7552.91
455.26	7634.83
455.44	7667.60
455.62	7655.89
455.81	7798.66
455.99	7915.69
456.17	7784.62
456.36	7892.29
456.54	8032.72
456.73	8091.23
456.91	8250.39
457.09	7995.27
457.28	8341.67
457.46	8138.04
457.64	8187.19
457.83	8025.70
458.01	8177.83
458.19	8418.91
458.38	8327.63
458.56	8313.58
458.74	8353.37
458.93	8177.83
459.11	8229.32
459.29	8252.73
459.48	8575.72
459.66	8505.51
459.84	8184.85
460.03	8542.96
460.21	8575.72
460.39	8475.08
460.57	8472.74
460.76	8697.43
460.94	8737.22
461.12	8711.47
461.31	8681.05
461.49	8571.04
461.67	8552.32
461.85	8819.14
462.04	8734.88
462.22	8868.29
462.40	8847.22
462.59	8753.60
462.77	8889.35
462.95	9097.66
463.13	8910.42
463.32	9053.19
463.50	9111.71
463.68	9088.30
463.86	9064.89
464.05	8821.48
464.23	8894.04
464.41	9109.36
464.59	8755.94
464.78	9289.59
464.96	9018.08
465.14	9095.32
465.32	9144.47
465.50	9338.74
465.69	9444.06
465.87	9301.29
466.05	9088.30
466.23	9104.68
466.41	9240.44
466.60	9525.98
466.78	9270.86
466.96	9453.42
467.14	9238.09
467.32	9355.12
467.51	9455.76
467.69	9212.35
467.87	9434.70
468.05	9687.48
468.23	9563.43
468.41	9202.99
468.60	9540.02
468.78	9549.39
468.96	9495.55
469.14	9783.44
469.32	9717.90
469.50	9530.66
469.69	9703.86
469.87	9870.04
470.05	9834.93
470.23	9771.74
470.41	9900.47
470.59	10024.51
470.77	9954.30
470.95	9867.70
471.14	10143.88
471.32	9923.87
471.50	10333.47
471.68	10178.99
471.86	10211.76
472.04	10527.73
472.22	10785.19
472.40	10307.72
472.58	10375.59
472.77	10537.09
472.95	10588.58
473.13	10799.23
473.31	10689.23
473.49	10820.30
473.67	10590.92
473.85	10670.50
474.03	10757.10
474.21	10871.79
474.39	10925.62
474.57	11056.69
474.75	11084.78
474.93	11206.48
475.12	11094.14
475.30	11105.84
475.48	11124.57
475.66	11536.50
475.84	11269.68
476.02	11297.77
476.20	11499.05
476.38	11449.90
476.56	11925.03
476.74	11817.36
476.92	11925.03
477.10	11646.51
477.28	12112.27
477.46	12107.59
477.64	12386.12
477.82	12432.93
478.00	12535.91
478.18	12573.36
478.36	12650.60
478.54	12580.38
478.72	12669.32
478.90	13053.17
479.08	13137.43
479.26	13298.92
479.44	13188.92
479.62	13198.28
479.80	13291.90
479.98	13252.11
480.16	13736.60
480.34	13563.40
480.52	13813.84
480.70	13778.73
480.88	13528.30
481.06	14019.81
481.24	14061.94
481.41	14249.18
481.59	14492.60
481.77	14375.57
481.95	14338.12
482.13	14700.90
482.31	14593.24
482.49	14883.47
482.67	14890.49
482.85	15346.89
483.03	15272.00
483.21	15309.44
483.39	15372.64
483.57	15370.30
483.74	15454.56
483.92	15620.74
484.10	15716.70
484.28	16121.61
484.46	15887.56
484.64	16468.01
484.82	16067.78
485.00	16308.85
485.18	16336.94
485.35	16542.91
485.53	16416.52
485.71	16067.78
485.89	16711.42
486.07	16800.37
486.25	16872.92
486.43	16931.44
486.61	17139.74
486.78	17373.80
486.96	17577.42
487.14	17701.47
487.32	18045.53
487.50	17900.42
487.68	18281.92
487.85	18424.70
488.03	18230.43
488.21	18553.43
488.39	18689.18
488.57	18735.99
488.75	18822.59
488.92	19316.44
489.10	19159.63
489.28	19304.74
489.46	19791.57
489.64	19814.98
489.81	20259.68
489.99	20152.01
490.17	20208.19
490.35	20093.50
490.53	20285.42
490.70	20699.70
490.88	20568.63
491.06	20898.64
491.24	20807.36
491.41	20641.18
491.59	20915.03
491.77	21322.28
491.95	21132.70
492.13	21661.66
492.30	21465.05
492.48	21916.78
492.66	21862.94
492.84	21745.92
493.01	22071.25
493.19	22237.43
493.37	22359.14
493.54	22412.97
493.72	22806.18
493.90	22867.03
494.08	23056.62
494.25	23293.01
494.43	23461.53
494.61	23594.94
494.79	23812.61
494.96	23632.39
495.14	23775.16
495.32	23817.29
495.49	23749.42
495.67	24006.87
495.85	24446.90
496.02	24034.96
496.20	24664.57
496.38	24196.46
496.55	25109.27
496.73	24863.51
496.91	24996.92
497.09	25116.29
497.26	25207.57
497.44	25296.51
497.62	25549.29
497.79	25493.12
497.97	25085.86
498.14	25521.20
498.32	25656.95
498.50	25572.69
498.67	25865.26
498.85	25855.90
499.03	26387.20
499.20	26396.56
499.38	26176.55
499.56	26422.31
499.73	26780.41
499.91	26522.95
500.08	26443.37
500.26	26384.86
500.44	26527.63
500.61	26836.58
500.79	26827.22
500.97	27030.85
501.14	27239.15
501.32	27318.73
501.49	26932.54
501.67	27410.01
501.84	27597.26
502.02	27618.32
502.20	28039.62
502.37	27866.42
502.55	27927.27
502.72	27784.50
502.90	28201.11
503.07	28079.41
503.25	28102.81
503.43	28018.55
503.60	28123.88
503.78	28334.53
503.95	28156.64
504.13	28730.08
504.30	28683.27
504.48	28790.93
504.65	28922.00
504.83	29134.99
505.01	29336.27
505.18	29586.71
505.36	29727.14
505.53	29638.20
505.71	29855.87
505.88	30162.48
506.06	29476.71
506.23	29869.92
506.41	29750.55
506.58	29860.55
506.76	29902.68
506.93	30218.66
507.11	29961.20
507.28	30228.02
507.46	30029.07
507.63	30036.09
507.81	30209.29
507.98	30160.14
508.16	30335.68
508.33	30803.79
508.50	30595.48
508.68	31082.31
508.85	31330.41
509.03	30738.26
509.20	31243.81
509.38	31559.78
509.55	30932.52
509.73	31225.09
509.90	31697.88
510.08	31571.49
510.25	31585.53
510.42	31484.89
510.60	31873.42
510.77	31655.75
510.95	32266.63
511.12	31995.12
511.30	32215.13
511.47	32676.22
511.64	32765.16
511.82	32938.36
511.99	31903.84
512.17	32360.25
512.34	32402.38
512.51	33022.62
512.69	32811.97
512.86	32961.76
513.04	32917.29
513.21	33017.94
513.38	32854.10
513.56	32758.14
513.73	32753.46
513.90	33315.19
514.08	32701.96
514.25	33277.74
514.43	33514.13
514.60	33193.48
514.77	33509.45
514.95	33668.61
515.12	33757.55
515.29	34017.35
515.47	34267.78
515.64	34120.33
515.81	33930.75
515.99	33708.40
516.16	33787.97
516.33	33553.92
516.51	33811.38
516.68	33706.05
516.85	32940.70
517.03	34103.95
517.20	34178.84
517.37	34478.43
517.54	34326.30
517.72	34408.22
517.89	34117.99
518.06	34237.36
518.24	34220.97
518.41	34555.67
518.58	34487.79
518.75	34682.06
518.93	34946.54
519.10	34850.58
519.27	35185.27
519.45	34962.92
519.62	35283.58
519.79	35454.44
519.96	35398.26
520.14	35840.62
520.31	35356.13
520.48	35037.82
520.65	35463.80
520.83	36149.57
521.00	36311.07
521.17	36659.81
521.34	36278.30
521.52	36065.31
521.69	36180.00
521.86	36507.68
522.03	36439.80
522.20	36428.10
522.38	36580.23
522.55	36430.44
522.72	36385.97
522.89	36788.54
523.07	37015.57
523.24	36636.41
523.41	37282.39
523.58	37144.30
523.75	37787.95
523.92	37488.36
524.10	37579.64
524.27	37532.83
524.44	37331.54
524.61	37839.44
524.78	37865.19
524.96	37956.47
525.13	37869.87
525.30	37691.99
525.47	38227.97
525.64	37834.76
525.81	37750.50
525.98	37516.45
526.16	37982.21
526.33	37329.20
526.50	37792.63
526.67	37546.87
526.84	37841.78
527.01	37511.77
527.18	38178.82
527.36	37956.47
527.53	38232.65
527.70	38403.51
527.87	38616.50
528.04	38656.29
528.21	38543.94
528.38	38588.41
528.55	39388.88
528.72	39311.64
528.89	39168.87
529.07	38660.97
529.24	38628.20
529.41	39150.14
529.58	38930.13
529.75	38925.45
529.92	39407.60
530.09	39178.23
530.26	39592.50
530.43	39384.19
530.60	39229.72
530.77	39241.42
530.94	39374.83
531.11	39129.08
531.28	39906.13
531.46	39555.05
531.63	39847.62
531.80	39971.67
531.97	39885.07
532.14	39646.33
532.31	39037.80
532.48	39477.82
532.65	39239.08
532.82	39761.02
532.99	40039.54
533.16	40091.04
533.33	40025.50
533.50	40327.43
533.67	40184.66
533.84	40116.78
534.01	40556.80
534.18	40128.48
534.35	40713.62
534.52	40861.07
534.69	40575.53
534.86	40737.02
535.03	40493.61
535.20	41010.87
535.37	41076.40
535.54	41118.53
535.71	40804.90
535.88	41198.11
536.05	40935.97
536.22	41104.49
536.38	41071.72
536.55	40758.09
536.72	40697.24
536.89	40994.48
537.06	40746.39
537.23	41228.54
537.40	40896.18
537.57	41249.60
537.74	41467.27
537.91	41134.92
538.08	41436.84
538.25	41315.14
538.42	41553.87
538.59	41886.23
538.75	41123.21
538.92	41441.53
539.09	41551.53
539.26	41619.41
539.43	41631.11
539.60	41448.55
539.77	41074.06
539.94	41759.84
540.11	41141.94
540.28	41951.76
540.44	41750.48
540.61	41659.20
540.78	41607.70
540.95	42040.70
541.12	41848.78
541.29	41855.80
541.46	42162.41
541.62	42033.68
541.79	42188.16
541.96	41738.77
542.13	42122.62
542.30	42141.35
542.47	41631.11
542.63	42429.23
542.80	42429.23
542.97	42754.57
543.14	43419.28
543.31	42543.92
543.48	42920.74
543.64	43304.59
543.81	43199.27
543.98	43199.27
544.15	43033.09
544.32	42937.13
544.48	43391.19
544.65	43358.42
544.82	43428.64
544.99	42995.64
545.16	43632.27
545.32	43342.04
545.49	43524.60
545.66	43831.21
545.83	43643.97
546.00	43737.59
546.16	43566.73
546.33	43180.54
546.50	43082.24
546.67	43758.66
546.83	42990.96
547.00	43583.12
547.17	43285.87
547.34	43758.66
547.50	43335.02
547.67	43545.67
547.84	43796.10
548.00	43915.47
548.17	43845.26
548.34	43746.95
548.51	43700.14
548.67	44231.44
548.84	44161.23
549.01	43959.94
549.18	44109.74
549.34	43655.67
549.51	44385.92
549.68	44196.34
549.84	44126.12
550.01	44224.42
550.18	43976.33
550.34	44367.20
550.51	44533.37
550.68	44243.15
550.84	43800.79
551.01	43917.81
551.18	44680.83
551.34	44491.24
551.51	45036.59
551.68	44952.33
551.84	44690.19
552.01	44697.21
552.18	44432.73
552.34	44023.14
552.51	44519.33
552.68	44624.65
552.84	44559.12
553.01	44650.40
553.18	44832.96
553.34	44479.54
553.51	44849.35
553.67	44362.51
553.84	45106.80
554.01	45015.52
554.17	44779.13
554.34	45301.07
554.51	45272.98
554.67	45191.06
554.84	44720.62
555.00	44729.98
555.17	45038.93
555.33	45052.97
555.50	44886.79
555.67	44680.83
555.83	44835.30
556.00	44720.62
556.16	45228.51
556.33	44769.77
556.50	44924.24
556.66	45397.03
556.83	45017.86
556.99	45443.84
557.16	45277.66
557.32	45670.87
557.49	45022.54
557.65	44999.14
557.82	45230.85
557.98	45081.06
558.15	45088.08
558.32	45549.17
558.48	45207.45
558.65	44996.80
558.81	45038.93
558.98	44870.41
559.14	45193.40
559.31	45413.41
559.47	45530.44
559.64	45478.95
559.80	46007.91
559.97	45287.03
560.13	45310.43
560.30	45074.04
560.46	45811.31
560.63	45638.11
560.79	46012.59
560.96	45818.33
561.12	45495.33
561.29	45572.57
561.45	45429.80
561.61	45408.73
561.78	46003.23
561.94	45586.61
562.11	45715.34
562.27	46101.53
562.44	45558.53
562.60	45624.06
562.77	45567.89
562.93	45979.82
563.10	45598.32
563.26	45560.87
563.42	45577.25
563.59	45474.27
563.75	45713.00
563.92	45956.42
564.08	46131.96
564.24	45989.19
564.41	45713.00
564.57	45783.22
564.74	45467.25
564.90	45841.73
565.07	45879.18
565.23	46263.03
565.39	45617.04
565.56	46146.00
565.72	45680.24
565.88	45825.35
566.05	46054.72
566.21	45762.15
566.38	45853.44
566.54	45766.84
566.70	46265.37
566.87	46405.80
567.03	46293.46
567.19	46424.53
567.36	45961.10
567.52	45925.99
567.68	46305.16
567.85	45996.21
568.01	46169.41
568.17	45918.97
568.34	46185.79
568.50	46007.91
568.66	45942.38
568.83	46134.30
568.99	45670.87
569.15	45846.41
569.32	46143.66
569.48	45937.69
569.64	46438.57
569.81	46241.96
569.97	45954.08
570.13	45858.12
570.30	45748.11
570.46	45640.45
570.62	45656.83
570.78	45970.46
570.95	45574.91
571.11	46263.03
571.27	45675.55
571.43	45874.50
571.60	46326.22
571.76	46548.57
571.92	46122.60
572.09	45830.03
572.25	45914.29
572.41	46174.09
572.57	46253.67
572.74	46305.16
572.90	46061.74
573.06	46190.47
573.22	46380.06
573.38	46153.02
573.55	45893.22
573.71	46511.13
573.87	46153.02
574.03	45956.42
574.20	46082.81
574.36	46183.45
574.52	45823.01
574.68	46660.92
574.84	46361.33
575.01	46356.65
575.17	46202.18
575.33	46277.07
575.49	46340.27
575.65	46473.68
575.82	46653.90
575.98	46253.67
576.14	46106.21
576.30	46246.65
576.46	46164.73
576.62	46206.86
576.79	46281.75
576.95	45794.92
577.11	46387.08
577.27	46417.50
577.43	46234.94
577.59	45984.51
577.75	46293.46
577.92	46087.49
578.08	46218.56
578.24	46012.59
578.40	46190.47
578.56	46073.45
578.72	46258.35
578.88	46394.10
579.04	46305.16
579.21	46347.29
579.37	46459.63
579.53	46099.19
579.69	46164.73
579.85	46431.55
580.01	46611.77
580.17	46113.23
580.33	46443.25
580.49	46710.07
580.65	46403.46
580.82	46618.79
580.98	46258.35
581.14	46368.35
581.30	46747.52
581.46	46473.68
581.62	46185.79
581.78	46574.32
581.94	46539.21
582.10	46494.74
582.26	46380.06
582.42	46300.48
582.58	45925.99
582.74	46396.44
582.90	46539.21
583.06	46794.33
583.22	46611.77
583.38	46433.89
583.54	46644.54
583.70	46593.04
583.86	46370.69
584.02	46141.32
584.18	46120.26
584.34	46143.66
584.50	46457.29
584.66	46197.49
584.82	46616.45
584.98	46363.67
585.14	46595.38
585.30	46047.70
585.46	46644.54
585.62	45949.40
585.78	46440.91
585.94	46019.61
586.10	46436.23
586.26	46082.81
586.42	46302.82
586.58	46976.89
586.74	46461.97
586.90	46691.35
587.06	45977.48
587.22	46527.51
587.38	46183.45
587.54	46548.57
587.70	46192.81
587.86	46298.14
588.02	46658.58
588.18	46588.36
588.34	46155.36
588.49	46291.12
588.65	45972.80
588.81	45745.77
588.97	45872.16
589.13	46103.87
589.29	46160.05
589.45	46286.43
589.61	45925.99
589.77	46511.13
589.93	46520.49
590.08	46340.27
