SpectraSuite Data File
++++++++++++++++++++++++++++++++++++
Date: Fri Oct 25 11:25:04 EDT 2013
User: price-jones
Dark Spectrum Present: No
Reference Spectrum Present: No
Number of Sampled Component Spectra: 1
Spectrometers: USB2+H05261
Integration Time (usec): 100000 (USB2+H05261)
Spectra Averaged: 1 (USB2+H05261)
Boxcar Smoothing: 0 (USB2+H05261)
Correct for Electrical Dark: No (USB2+H05261)
Strobe/Lamp Enabled: No (USB2+H05261)
Correct for Detector Non-linearity: No (USB2+H05261)
Correct for Stray Light: No (USB2+H05261)
Number of Pixels in Processed Spectrum: 2048
>>>>>Begin Processed Spectral Data<<<<<
365.73	234.05
365.92	234.05
366.12	234.05
366.32	140.43
366.52	117.03
366.72	184.90
366.91	107.66
367.11	173.20
367.31	142.77
367.51	112.35
367.70	166.18
367.90	168.52
368.10	147.45
368.30	126.39
368.49	156.82
368.69	133.41
368.89	163.84
369.09	194.26
369.28	215.33
369.48	91.28
369.68	212.99
369.87	149.79
370.07	241.08
370.27	234.05
370.47	351.08
370.66	535.98
370.86	585.13
371.06	615.56
371.25	725.57
371.45	725.57
371.65	681.10
371.84	697.48
372.04	706.84
372.24	732.59
372.44	777.06
372.63	777.06
372.83	793.44
373.03	751.31
373.22	711.52
373.42	779.40
373.62	737.27
373.81	837.91
374.01	744.29
374.21	758.33
374.40	823.87
374.60	819.19
374.79	847.27
374.99	842.59
375.19	856.64
375.38	880.04
375.58	863.66
375.78	856.64
375.97	856.64
376.17	851.96
376.37	915.15
376.56	894.08
376.76	908.13
376.95	844.93
377.15	858.98
377.35	863.66
377.54	840.25
377.74	933.87
377.93	908.13
378.13	971.32
378.33	908.13
378.52	840.25
378.72	983.02
378.91	983.02
379.11	971.32
379.31	966.64
379.50	973.66
379.70	1022.81
379.89	1001.75
380.09	968.98
380.28	924.51
380.48	1029.84
380.68	985.37
380.87	997.07
381.07	966.64
381.26	987.71
381.46	954.94
381.65	1034.52
381.85	1013.45
382.04	1011.11
382.24	980.68
382.43	983.02
382.63	1078.99
382.83	990.05
383.02	1146.86
383.22	1114.10
383.41	1078.99
383.61	1100.05
383.80	1184.31
384.00	1188.99
384.19	1153.88
384.39	1048.56
384.58	1179.63
384.78	1174.95
384.97	1193.67
385.17	1181.97
385.36	1160.91
385.56	1118.78
385.75	1170.27
385.95	1135.16
386.14	1238.14
386.34	1256.87
386.53	1273.25
386.72	1228.78
386.92	1167.93
387.11	1191.33
387.31	1277.93
387.50	1385.60
387.70	1196.01
387.89	1343.47
388.09	1228.78
388.28	1378.58
388.48	1259.21
388.67	1280.27
388.86	1324.74
389.06	1270.91
389.25	1362.19
389.45	1247.51
389.64	1313.04
389.84	1235.80
390.03	1334.11
390.22	1425.39
390.42	1352.83
390.61	1446.45
390.81	1348.15
391.00	1455.81
391.19	1462.83
391.39	1437.09
391.58	1451.13
391.78	1493.26
391.97	1427.73
392.16	1423.05
392.36	1544.75
392.55	1476.88
392.75	1554.12
392.94	1511.99
393.13	1533.05
393.33	1528.37
393.52	1544.75
393.71	1584.54
393.91	1638.38
394.10	1558.80
394.29	1561.14
394.49	1612.63
394.68	1668.80
394.88	1629.01
395.07	1689.87
395.26	1678.16
395.46	1638.38
395.65	1722.63
395.84	1746.04
396.04	1790.51
396.23	1689.87
396.42	1813.92
396.62	1776.47
396.81	1788.17
397.00	1795.19
397.19	1755.40
397.39	1818.60
397.58	1844.34
397.77	1893.49
397.97	1799.87
398.16	1785.83
398.35	1982.43
398.55	1891.15
398.74	1895.83
398.93	1998.82
399.12	1891.15
399.32	1858.39
399.51	2005.84
399.70	2036.27
399.90	1942.64
400.09	2012.86
400.28	2115.84
400.47	2113.50
400.67	2132.23
400.86	2125.21
401.05	2106.48
401.24	2113.50
401.44	2108.82
401.63	2083.08
401.82	2101.80
402.01	2085.42
402.21	2165.00
402.40	2235.21
402.59	2157.97
402.78	2211.81
402.97	2209.47
403.17	2232.87
403.36	2251.60
403.55	2277.34
403.74	2354.58
403.93	2370.96
404.13	2370.96
404.32	2464.58
404.51	2410.75
404.70	2483.31
404.89	2413.09
405.09	2363.94
405.28	2427.14
405.47	2443.52
405.66	2527.78
405.85	2448.20
406.05	2385.01
406.24	2471.61
406.43	2600.34
406.62	2565.23
406.81	2670.55
407.00	2623.74
407.20	2590.97
407.39	2553.52
407.58	2736.09
407.77	2885.88
407.96	2729.06
408.15	2780.56
408.34	2792.26
408.54	2848.43
408.73	2862.48
408.92	2729.06
409.11	2810.98
409.30	2876.52
409.49	2965.46
409.68	2878.86
409.87	2993.55
410.07	2923.33
410.26	2937.37
410.45	3038.02
410.64	3066.10
410.83	3126.96
411.02	3112.91
411.21	3077.80
411.40	3066.10
411.59	3248.66
411.78	3272.07
411.98	3162.06
412.17	3246.32
412.36	3302.50
412.55	3400.80
412.74	3414.84
412.93	3449.95
413.12	3213.56
413.31	3433.57
413.50	3466.33
413.69	3522.51
413.88	3562.30
414.07	3541.23
414.26	3669.96
414.45	3674.64
414.64	3730.81
414.83	3962.53
415.02	3770.60
415.22	3751.88
415.41	3815.07
415.60	3758.90
415.79	3889.97
415.98	4011.68
416.17	3950.82
416.36	4072.53
416.55	4051.47
416.74	4060.83
416.93	4011.68
417.12	4109.98
417.31	4112.32
417.50	4234.03
417.69	4337.01
417.88	4234.03
418.07	4170.83
418.26	4262.12
418.45	4376.80
418.64	4456.38
418.83	4456.38
419.02	4461.06
419.21	4503.19
419.39	4470.42
419.58	4578.09
419.77	4409.57
419.96	4669.37
420.15	4643.62
420.34	4622.56
420.53	4596.81
420.72	4636.60
420.91	4620.22
421.10	4652.98
421.29	4718.52
421.48	4573.41
421.67	4676.39
421.86	4720.86
422.05	4755.97
422.24	4793.42
422.43	4793.42
422.61	4912.78
422.80	4952.57
422.99	5015.77
423.18	5128.11
423.37	4990.02
423.56	4767.67
423.75	4755.97
423.94	4882.36
424.13	4667.03
424.32	4713.84
424.50	5041.51
424.69	5093.01
424.88	5184.29
425.07	4938.53
425.26	5013.43
425.45	4987.68
425.64	4964.28
425.83	5011.09
426.01	5104.71
426.20	4990.02
426.39	4933.85
426.58	4929.17
426.77	5111.73
426.96	5158.54
427.15	5102.37
427.33	5146.84
427.52	5121.09
427.71	5224.08
427.90	5245.14
428.09	5261.52
428.28	5366.85
428.46	5392.59
428.65	5322.38
428.84	5497.92
429.03	5511.96
429.22	5355.15
429.40	5521.32
429.59	5626.65
429.78	5305.99
429.97	5254.50
430.16	5586.86
430.34	5619.63
430.53	5643.03
430.72	5645.37
430.91	5577.50
431.10	5612.60
431.28	5640.69
431.47	5692.18
431.66	5865.38
431.85	5797.51
432.03	5949.64
432.22	6052.63
432.41	5933.26
432.60	5947.30
432.79	6003.47
432.97	6073.69
433.16	6097.10
433.35	5940.28
433.54	5959.00
433.72	6221.14
433.91	6008.16
434.10	6143.91
434.28	6045.60
434.47	6197.74
434.66	6179.01
434.85	6296.04
435.03	6319.45
435.22	6209.44
435.41	6586.27
435.59	6513.71
435.78	6415.41
435.97	6532.44
436.16	6333.49
436.34	6370.94
436.53	6317.11
436.72	6527.75
436.90	6377.96
437.09	6593.29
437.28	6422.43
437.46	6513.71
437.65	6675.21
437.84	6775.85
438.02	6850.75
438.21	6892.88
438.40	6703.29
438.58	6974.80
438.77	6988.84
438.96	6944.37
439.14	7077.78
439.33	7061.40
439.52	7204.17
439.70	7021.61
439.89	7314.17
440.08	7438.22
440.26	7541.21
440.45	7379.71
440.63	7398.43
440.82	7510.78
441.01	7576.31
441.19	7569.29
441.38	7852.50
441.57	7889.95
441.75	7714.41
441.94	7948.46
442.12	7899.31
442.31	7967.18
442.50	8056.12
442.68	8077.19
442.87	8016.33
443.05	8194.22
443.24	8107.62
443.43	8198.90
443.61	8161.45
443.80	8423.59
443.98	8219.96
444.17	7899.31
444.35	8126.34
444.54	8332.31
444.73	8159.11
444.91	8273.79
445.10	8238.69
445.28	8332.31
445.47	8262.09
445.65	8322.94
445.84	8617.85
446.02	8561.68
446.21	8573.38
446.39	8418.91
446.58	8643.60
446.77	8547.64
446.95	8334.65
447.14	8423.59
447.32	8421.25
447.51	8517.21
447.69	8369.76
447.88	8627.21
448.06	8484.44
448.25	8521.89
448.43	8592.11
448.62	8477.42
448.80	8585.08
448.99	8566.36
449.17	8830.84
449.36	8613.17
449.54	8842.54
449.73	9109.36
449.91	9032.13
450.10	8863.61
450.28	8945.53
450.46	9144.47
450.65	9074.26
450.83	8966.59
451.02	9041.49
451.20	9170.22
451.39	9261.50
451.57	9277.88
451.76	8961.91
451.94	9249.80
452.13	9413.63
452.31	9359.80
452.49	9200.65
452.68	9329.38
452.86	9139.79
453.05	9254.48
453.23	9366.82
453.42	9270.86
453.60	9432.36
453.78	9713.22
453.97	9359.80
454.15	9308.31
454.34	9441.72
454.52	9827.91
454.70	9666.41
454.89	9851.31
455.07	9734.29
455.26	9767.06
455.44	9767.06
455.62	9830.25
455.81	9839.61
455.99	10036.22
456.17	10045.58
456.36	9888.76
456.54	10012.81
456.73	10202.40
456.91	10497.30
457.09	10312.40
457.28	10485.60
457.46	10413.04
457.64	10373.25
457.83	10424.75
458.01	10389.64
458.19	10525.39
458.38	10553.48
458.56	10705.61
458.74	10654.12
458.93	10597.95
459.11	10827.32
459.29	10595.61
459.48	10806.25
459.66	10874.13
459.84	10953.71
460.03	10785.19
460.21	10991.16
460.39	10860.09
460.57	10991.16
460.76	11087.12
460.94	11084.78
461.12	11101.16
461.31	11082.44
461.49	11218.19
461.67	11129.25
461.85	11325.85
462.04	11435.86
462.22	11864.18
462.40	11494.37
462.59	11573.95
462.77	11452.24
462.95	11534.16
463.13	11721.40
463.32	11632.46
463.50	11815.02
463.68	11955.46
463.86	11981.20
464.05	11744.81
464.23	11587.99
464.41	12121.63
464.59	11555.22
464.78	12203.55
464.96	11896.94
465.14	11639.48
465.32	12327.60
465.50	11955.46
465.69	12191.85
465.87	12112.27
466.05	12013.97
466.23	11995.25
466.41	12084.19
466.60	12535.91
466.78	12299.52
466.96	12351.01
467.14	12322.92
467.32	12409.52
467.51	12554.63
467.69	12119.29
467.87	12641.23
468.05	12688.04
468.23	12486.76
468.41	12493.78
468.60	12645.91
468.78	12748.90
468.96	12627.19
469.14	12837.84
469.32	12910.40
469.50	12638.89
469.69	12954.87
469.87	13174.88
470.05	12980.61
470.23	13245.09
470.41	13083.59
470.59	13369.14
470.77	13064.87
470.95	13132.75
471.14	13685.11
471.32	13186.58
471.50	13479.15
471.68	13500.21
471.86	13635.96
472.04	13900.44
472.22	14001.08
472.40	13544.68
472.58	14026.83
472.77	13973.00
472.95	14171.94
473.13	14562.81
473.31	13926.19
473.49	13980.02
473.67	14001.08
473.85	14525.36
474.03	14633.03
474.21	14508.98
474.39	14663.46
474.57	14703.25
474.75	14895.17
474.93	14979.43
475.12	15035.60
475.30	15250.93
475.48	15246.25
475.66	15262.63
475.84	15311.78
476.02	15440.51
476.20	15309.44
476.38	15648.82
476.56	15751.81
476.74	15854.79
476.92	15882.88
477.10	15969.48
477.28	16137.99
477.46	16011.60
477.64	16376.73
477.82	16758.24
478.00	16947.82
478.18	16924.41
478.36	16821.43
478.54	16954.84
478.72	17263.79
478.90	17352.73
479.08	17469.76
479.26	17509.55
479.44	17635.94
479.62	18090.00
479.80	18228.09
479.98	18235.11
480.16	19047.28
480.34	18361.50
480.52	18590.88
480.70	18724.29
480.88	18700.88
481.06	18780.46
481.24	18649.39
481.41	18960.68
481.59	19297.72
481.77	19765.82
481.95	19826.68
482.13	19936.68
482.31	19667.52
482.49	20365.00
482.67	20144.99
482.85	20348.62
483.03	20854.17
483.21	20685.65
483.39	20915.03
483.57	20458.62
483.74	21095.25
483.92	21231.00
484.10	21209.93
484.28	21879.33
484.46	22068.91
484.64	21893.37
484.82	22132.11
485.00	22148.49
485.18	22661.07
485.35	23311.74
485.53	22696.17
485.71	22885.76
485.89	23438.12
486.07	23328.12
486.25	23606.64
486.43	23384.29
486.61	23852.40
486.78	24210.50
486.96	24102.84
487.14	24709.04
487.32	24931.39
487.50	24624.78
487.68	24826.06
487.85	25104.59
488.03	25476.73
488.21	25617.16
488.39	25626.53
488.57	26225.70
488.75	25886.32
488.92	26520.61
489.10	26848.29
489.28	26536.99
489.46	26988.72
489.64	27182.98
489.81	27541.08
489.99	27442.78
490.17	28016.21
490.35	28222.18
490.53	28063.02
490.70	28418.78
490.88	28170.69
491.06	28481.98
491.24	28926.68
491.41	28872.85
491.59	29209.89
491.77	29127.97
491.95	29518.84
492.13	29715.44
492.30	30197.59
492.48	30387.18
492.66	30096.95
492.84	30361.43
493.01	30494.84
493.19	30316.96
493.37	30787.41
493.54	31115.08
493.72	31232.11
493.90	31536.38
494.08	31768.09
494.25	31840.65
494.43	32149.60
494.61	32414.08
494.79	32559.19
494.96	32472.59
495.14	32744.09
495.32	33076.45
495.49	33305.82
495.67	33029.64
495.85	33656.90
496.02	33968.19
496.20	33724.78
496.38	33998.62
496.55	34338.00
496.73	34707.80
496.91	34834.19
497.09	35070.59
497.26	34719.51
497.44	34639.93
497.62	35346.77
497.79	35770.41
497.97	35475.50
498.14	35882.75
498.32	35498.91
498.50	36250.22
498.67	36453.84
498.85	36360.22
499.03	36868.12
499.20	36559.17
499.38	36952.38
499.56	37003.87
499.73	36964.08
499.91	37640.50
500.08	37481.34
500.26	37574.96
500.44	37291.76
500.61	37935.40
500.79	37134.94
500.97	38167.12
501.14	38440.96
501.32	38609.48
501.49	38300.53
501.67	38672.67
501.84	39278.87
502.02	38855.23
502.20	39185.25
502.37	39180.57
502.55	39241.42
502.72	39639.31
502.90	39257.81
503.07	39669.74
503.25	39587.82
503.43	39639.31
503.60	40055.93
503.78	40116.78
503.95	40278.28
504.13	40362.54
504.30	40807.24
504.48	40470.20
504.65	40739.36
504.83	40678.51
505.01	41354.93
505.18	41118.53
505.36	41481.31
505.53	41123.21
505.71	41738.77
505.88	41450.89
506.06	41104.49
506.23	41673.24
506.41	41888.57
506.58	42192.84
506.76	42251.35
506.93	42373.06
507.11	41904.95
507.28	42574.34
507.46	42735.84
507.63	43042.45
507.81	43222.67
507.98	42913.72
508.16	42824.78
508.33	43171.18
508.50	43367.79
508.68	43393.53
508.85	43875.68
509.03	43995.05
509.20	44172.93
509.38	44121.44
509.55	44463.16
509.73	44360.17
509.90	44362.51
510.08	44624.65
510.25	44879.77
510.42	44722.96
510.60	45256.60
510.77	44928.92
510.95	45153.62
511.12	45132.55
511.30	45008.50
511.47	45558.53
511.64	45485.97
511.82	45675.55
511.99	45820.67
512.17	45989.19
512.34	46092.17
512.51	46490.06
512.69	46506.44
512.86	46256.01
513.04	46674.96
513.21	46899.65
513.38	46923.06
513.56	47117.32
513.73	46698.37
513.90	46763.90
514.08	46686.67
514.25	46990.94
514.43	47409.89
514.60	47435.64
514.77	47522.24
514.95	47639.26
515.12	47262.44
515.29	47480.11
515.47	47697.78
515.64	48098.01
515.81	48002.05
515.99	48601.22
516.16	48404.62
516.33	48418.66
516.51	48528.67
516.68	48196.31
516.85	48224.40
517.03	49010.82
517.20	48736.98
517.37	48680.80
517.54	49022.52
517.72	49003.80
517.89	48828.26
518.06	49263.60
518.24	48545.05
518.41	49284.66
518.58	49242.53
518.75	49235.51
518.93	49551.48
519.10	49467.22
519.27	49219.13
519.45	49502.33
519.62	50106.19
519.79	49818.30
519.96	50113.21
520.14	50019.59
520.31	50059.38
520.48	50763.88
520.65	50131.93
520.83	50658.56
521.00	50775.58
521.17	50490.04
521.34	50473.65
521.52	50721.75
521.69	50855.16
521.86	50862.18
522.03	50829.41
522.20	51269.43
522.38	51749.24
522.55	51414.55
522.72	51096.24
522.89	51262.41
523.07	51711.80
523.24	51660.30
523.41	51962.23
523.58	51330.29
523.75	51700.09
523.92	51739.88
524.10	51924.78
524.27	51934.15
524.44	52023.09
524.61	52247.78
524.78	52219.69
524.96	52205.65
525.13	51774.99
525.30	52357.78
525.47	52399.91
525.64	52556.73
525.81	52900.79
525.98	52622.26
526.16	52329.70
526.33	52875.04
526.50	52912.49
526.67	52743.97
526.84	52772.06
527.01	52868.02
527.18	52905.47
527.36	52907.81
527.53	53029.52
527.70	53106.76
527.87	53471.88
528.04	53162.93
528.21	53029.52
528.38	53198.04
528.55	53638.06
528.72	53392.30
528.89	53439.11
529.07	53350.17
529.24	53624.01
529.41	53523.37
529.58	53570.18
529.75	53413.37
529.92	53605.29
530.09	53736.36
530.26	53755.08
530.43	53890.83
530.60	53900.20
530.77	53860.41
530.94	54358.94
531.11	54101.48
531.28	54183.40
531.46	54012.54
531.63	53914.24
531.80	54202.13
531.97	54405.75
532.14	54663.21
532.31	54534.48
532.48	54511.08
532.65	54721.72
532.82	54501.71
532.99	54941.74
533.16	54637.47
533.33	54707.68
533.50	54951.10
533.67	54773.22
533.84	54745.13
534.01	54850.45
534.18	54869.18
534.35	55164.09
534.52	54974.50
534.69	55084.51
534.86	55201.53
535.03	55255.37
535.20	54965.14
535.37	55395.80
535.54	55304.52
535.71	55086.85
535.88	55503.46
536.05	55779.65
536.22	55428.57
536.38	55723.47
536.55	55660.28
536.72	55550.27
536.89	55353.67
537.06	55552.62
537.23	55503.46
537.40	55557.30
537.57	55718.79
537.74	55545.59
537.91	56128.39
538.08	56034.77
538.25	55894.33
538.42	56051.15
538.59	56097.96
538.75	55992.64
538.92	55695.39
539.09	56343.72
539.26	55948.17
539.43	56168.18
539.60	56186.90
539.77	55922.42
539.94	56446.70
540.11	56339.04
540.28	56165.84
540.44	56104.98
540.61	56250.09
540.78	56285.20
540.95	56514.58
541.12	56411.59
541.29	56214.99
541.46	56521.60
541.62	56367.12
541.79	56694.80
541.96	56411.59
542.13	56676.07
542.30	56718.20
542.47	56868.00
542.63	56921.83
542.80	56753.31
542.97	56935.87
543.14	57137.16
543.31	57198.01
543.48	57113.75
543.64	57495.26
543.81	57247.16
543.98	57357.17
544.15	57481.22
544.32	57237.80
544.48	57577.18
544.65	57146.52
544.82	57317.38
544.99	57209.71
545.16	57588.88
545.32	57322.06
545.49	57752.72
545.66	57645.05
545.83	57673.14
546.00	57705.91
546.16	57537.39
546.33	57542.07
546.50	57551.43
546.67	57645.05
546.83	57387.60
547.00	57581.86
547.17	57876.77
547.34	57822.93
547.50	57806.55
547.67	58061.67
547.84	58122.52
548.00	58064.01
548.17	58120.18
548.34	58073.37
548.51	58087.42
548.67	58192.74
548.84	58082.73
549.01	58199.76
549.18	58188.06
549.34	58401.05
549.51	58239.55
549.68	58340.19
549.84	58281.68
550.01	58361.26
550.18	58241.89
550.34	58578.93
550.51	58356.58
550.68	58108.48
550.84	58251.25
551.01	58663.19
551.18	58609.35
551.34	58415.09
551.51	58410.41
551.68	58637.44
551.84	58674.89
552.01	58733.40
552.18	58674.89
552.34	58541.48
552.51	58805.96
552.68	58618.72
552.84	58548.50
553.01	59065.76
553.18	58539.14
553.34	58927.67
553.51	58576.59
553.67	58817.66
553.84	58904.26
554.01	58864.47
554.17	59054.06
554.34	59063.42
554.51	58927.67
554.67	58981.50
554.84	58974.48
555.00	59171.08
555.17	58897.24
555.33	59187.47
555.50	59082.14
555.67	58948.73
555.83	58995.54
556.00	58941.71
556.16	59262.36
556.33	59159.38
556.50	59348.96
556.66	59576.00
556.83	59105.55
556.99	59421.52
557.16	59367.69
557.32	59379.39
557.49	59597.06
557.65	59262.36
557.82	59423.86
557.98	59440.24
558.15	59260.02
558.32	59449.61
558.48	59421.52
558.65	59482.37
558.81	59496.42
558.98	59473.01
559.14	59461.31
559.31	59526.84
559.47	59618.13
559.64	59786.64
559.80	59686.00
559.97	59664.94
560.13	59428.54
560.30	59781.96
560.46	59695.36
560.63	59693.02
560.79	59536.21
560.96	59613.44
561.12	59676.64
561.29	59842.82
561.45	59845.16
561.61	59894.31
561.78	59833.46
561.94	59777.28
562.11	59746.86
562.27	59891.97
562.44	60004.31
562.60	60020.70
562.77	59821.75
562.93	59931.76
563.10	60116.66
563.26	59831.11
563.42	60013.68
563.59	59896.65
563.75	59913.03
563.92	60149.43
564.08	59962.18
564.24	60097.94
564.41	60076.87
564.57	60238.37
564.74	60135.38
564.90	60217.30
565.07	60104.96
565.23	60039.42
565.39	60140.07
565.56	60130.70
565.72	60189.22
565.88	60207.94
566.05	60142.41
566.21	60154.11
566.38	60196.24
566.54	60268.79
566.70	60374.12
566.87	60523.91
567.03	60247.73
567.19	60336.67
567.36	60313.26
567.52	60210.28
567.68	60549.66
567.85	60423.27
568.01	60402.21
568.17	60200.92
568.34	60346.03
568.50	60217.30
568.66	60306.24
568.83	60374.12
568.99	60409.23
569.15	60484.12
569.32	60381.14
569.48	60331.99
569.64	60640.94
569.81	60449.02
569.97	60350.71
570.13	60533.28
570.30	60324.97
570.46	60451.36
570.62	60633.92
570.78	60486.46
570.95	60519.23
571.11	60566.04
571.27	60420.93
571.43	60289.86
571.60	60587.11
571.76	60619.88
571.92	60580.09
572.09	60484.12
572.25	60643.28
572.41	60701.79
572.57	60575.40
572.74	60692.43
572.90	60654.98
573.06	60488.80
573.22	60533.28
573.38	60776.69
573.55	60523.91
573.71	60926.49
573.87	60453.70
574.03	60673.71
574.20	60608.17
574.36	60741.58
574.52	60608.17
574.68	60725.20
574.84	60706.47
575.01	60580.09
575.17	60622.22
575.33	60727.54
575.49	60659.66
575.65	60615.19
575.82	60699.45
575.98	60570.72
576.14	61038.83
576.30	60842.23
576.46	60645.62
576.62	60694.77
576.79	60692.43
576.95	60446.68
577.11	60772.01
577.27	60893.72
577.43	60643.28
577.59	60697.11
577.75	60594.13
577.92	60704.13
578.08	60736.90
578.24	60774.35
578.40	61029.47
578.56	60959.25
578.72	60694.77
578.88	61001.38
579.04	60980.32
579.21	60743.92
579.37	61029.47
579.53	60970.96
579.69	60580.09
579.85	60811.80
580.01	60823.50
580.17	60748.60
580.33	60968.61
580.49	61001.38
580.65	60849.25
580.82	60863.29
580.98	60865.63
581.14	60706.47
581.30	60977.98
581.46	60926.49
581.62	60949.89
581.78	60788.39
581.94	61048.19
582.10	60884.36
582.26	60987.34
582.42	60900.74
582.58	61010.74
582.74	61078.62
582.90	60900.74
583.06	60828.18
583.22	60858.61
583.38	60666.69
583.54	60994.36
583.70	60940.53
583.86	61015.43
584.02	60769.67
584.18	60853.93
584.34	61083.30
584.50	61078.62
584.66	60879.67
584.82	60945.21
584.98	61010.74
585.14	61123.09
585.30	60996.70
585.46	61144.16
585.62	61029.47
585.78	61090.32
585.94	60666.69
586.10	61087.98
586.26	60912.44
586.42	61059.90
586.58	61057.56
586.74	61153.52
586.90	61022.45
587.06	60865.63
587.22	61104.37
587.38	61048.19
587.54	61162.88
587.70	61439.06
587.86	61069.26
588.02	61078.62
588.18	61282.25
588.34	61090.32
588.49	60956.91
