SpectraSuite Data File
++++++++++++++++++++++++++++++++++++
Date: Fri Oct 25 11:33:43 EDT 2013
User: price-jones
Dark Spectrum Present: No
Reference Spectrum Present: No
Number of Sampled Component Spectra: 1
Spectrometers: USB2+H05261
Integration Time (usec): 100000 (USB2+H05261)
Spectra Averaged: 1 (USB2+H05261)
Boxcar Smoothing: 0 (USB2+H05261)
Correct for Electrical Dark: No (USB2+H05261)
Strobe/Lamp Enabled: No (USB2+H05261)
Correct for Detector Non-linearity: No (USB2+H05261)
Correct for Stray Light: No (USB2+H05261)
Number of Pixels in Processed Spectrum: 2048
>>>>>Begin Processed Spectral Data<<<<<
365.73	301.93
365.92	301.93
366.12	301.93
366.32	154.48
366.52	163.84
366.72	250.44
366.91	107.66
367.11	184.90
367.31	154.48
367.51	201.29
367.70	159.16
367.90	166.18
368.10	124.05
368.30	212.99
368.49	187.24
368.69	182.56
368.89	201.29
369.09	142.77
369.28	182.56
369.48	222.35
369.68	255.12
369.87	212.99
370.07	266.82
370.27	269.16
370.47	353.42
370.66	465.77
370.86	498.53
371.06	491.51
371.25	587.47
371.45	599.18
371.65	594.50
371.84	531.30
372.04	493.85
372.24	575.77
372.44	561.73
372.63	608.54
372.83	599.18
373.03	608.54
373.22	638.97
373.42	613.22
373.62	603.86
373.81	674.07
374.01	681.10
374.21	596.84
374.40	624.92
374.60	662.37
374.79	648.33
374.99	653.01
375.19	655.35
375.38	592.16
375.58	643.65
375.78	692.80
375.97	697.48
376.17	727.91
376.37	627.26
376.56	723.23
376.76	727.91
376.95	620.24
377.15	692.80
377.35	716.20
377.54	660.03
377.74	669.39
377.93	676.41
378.13	702.16
378.33	723.23
378.52	674.07
378.72	683.44
378.91	767.70
379.11	692.80
379.31	662.37
379.50	713.86
379.70	755.99
379.89	746.63
380.09	692.80
380.28	812.17
380.48	753.65
380.68	713.86
380.87	793.44
381.07	763.01
381.26	741.95
381.46	812.17
381.65	840.25
381.85	781.74
382.04	744.29
382.24	727.91
382.43	814.51
382.63	774.72
382.83	791.10
383.02	784.08
383.22	709.18
383.41	751.31
383.61	800.46
383.80	833.23
384.00	821.53
384.19	779.40
384.39	866.00
384.58	807.48
384.78	809.83
384.97	788.76
385.17	821.53
385.36	917.49
385.56	945.58
385.75	884.72
385.95	882.38
386.14	842.59
386.34	863.66
386.53	870.68
386.72	791.10
386.92	887.06
387.11	849.61
387.31	912.81
387.50	821.53
387.70	856.64
387.89	887.06
388.09	1004.09
388.28	894.08
388.48	961.96
388.67	954.94
388.86	978.34
389.06	894.08
389.25	968.98
389.45	919.83
389.64	945.58
389.84	983.02
390.03	1025.15
390.22	1015.79
390.42	983.02
390.61	940.90
390.81	945.58
391.00	929.19
391.19	1032.18
391.39	1041.54
391.58	1074.31
391.78	976.00
391.97	929.19
392.16	924.51
392.36	1029.84
392.55	1074.31
392.75	1036.86
392.94	1013.45
393.13	1095.37
393.33	1036.86
393.52	983.02
393.71	1050.90
393.91	1083.67
394.10	1083.67
394.29	1053.24
394.49	1062.60
394.68	1130.48
394.88	1149.20
395.07	1198.35
395.26	1142.18
395.46	1074.31
395.65	1151.54
395.84	1212.40
396.04	1198.35
396.23	1235.80
396.42	1076.65
396.62	1196.01
396.81	1128.14
397.00	1179.63
397.19	1245.16
397.39	1256.87
397.58	1245.16
397.77	1291.98
397.97	1238.14
398.16	1254.53
398.35	1336.45
398.55	1228.78
398.74	1331.76
398.93	1387.94
399.12	1235.80
399.32	1296.66
399.51	1334.11
399.70	1322.40
399.90	1350.49
400.09	1401.98
400.28	1437.09
400.47	1273.25
400.67	1371.55
400.86	1418.36
401.05	1378.58
401.24	1425.39
401.44	1423.05
401.63	1462.83
401.82	1526.03
402.01	1434.75
402.21	1476.88
402.40	1476.88
402.59	1472.20
402.78	1530.71
402.97	1575.18
403.17	1610.29
403.36	1561.14
403.55	1481.56
403.74	1526.03
403.93	1439.43
404.13	1596.25
404.32	1600.93
404.51	1664.12
404.70	1654.76
404.89	1558.80
405.09	1717.95
405.28	1675.82
405.47	1607.95
405.66	1610.29
405.85	1762.42
406.05	1715.61
406.24	1682.85
406.43	1724.97
406.62	1757.74
406.81	1884.13
407.00	1778.81
407.20	1701.57
407.39	1703.91
407.58	1881.79
407.77	1961.37
407.96	1881.79
408.15	1834.98
408.34	1830.30
408.54	1942.64
408.73	1898.17
408.92	1923.92
409.11	1949.67
409.30	1820.94
409.49	1930.94
409.68	2010.52
409.87	2059.67
410.07	1996.48
410.26	2160.31
410.45	2104.14
410.64	2080.74
410.83	2045.63
411.02	2108.82
411.21	2148.61
411.40	2139.25
411.59	2190.74
411.78	2186.06
411.98	2176.70
412.17	2223.51
412.36	2303.09
412.55	2284.36
412.74	2237.55
412.93	2361.60
413.12	2298.41
413.31	2441.18
413.50	2333.51
413.69	2450.54
413.88	2361.60
414.07	2401.39
414.26	2457.56
414.45	2523.10
414.64	2530.12
414.83	2635.44
415.02	2499.69
415.22	2677.57
415.41	2691.62
415.60	2670.55
415.79	2775.88
415.98	2703.32
416.17	2803.96
416.36	2708.00
416.55	2729.06
416.74	2670.55
416.93	2675.23
417.12	2712.68
417.31	2715.02
417.50	2867.16
417.69	2862.48
417.88	3040.36
418.07	2916.31
418.26	2841.41
418.45	3000.57
418.64	3183.13
418.83	3108.23
419.02	3007.59
419.21	3192.49
419.39	3101.21
419.58	3115.25
419.77	3080.14
419.96	3054.40
420.15	3208.87
420.34	3105.89
420.53	3215.90
420.72	3314.20
420.91	3208.87
421.10	3236.96
421.29	3229.94
421.48	3199.51
421.67	3241.64
421.86	3283.77
422.05	3330.58
422.24	3351.65
422.43	3281.43
422.61	3342.28
422.80	3447.61
422.99	3318.88
423.18	3487.40
423.37	3421.86
423.56	3405.48
423.75	3400.80
423.94	3290.79
424.13	3234.62
424.32	3330.58
424.50	3365.69
424.69	3386.76
424.88	3419.52
425.07	3363.35
425.26	3375.05
425.45	3473.36
425.64	3351.65
425.83	3515.48
426.01	3475.70
426.20	3503.78
426.39	3550.59
426.58	3435.91
426.77	3431.23
426.96	3527.19
427.15	3510.80
427.33	3555.27
427.52	3531.87
427.71	3543.57
427.90	3728.47
428.09	3655.92
428.28	3733.15
428.46	3669.96
428.65	3744.86
428.84	3779.97
429.03	3868.91
429.22	3702.73
429.40	3674.64
429.59	3707.41
429.78	3691.02
429.97	3595.06
430.16	3737.84
430.34	3754.22
430.53	3796.35
430.72	3850.18
430.91	3772.94
431.10	3768.26
431.28	3854.86
431.47	3999.98
431.66	4098.28
431.85	3953.16
432.03	3929.76
432.22	4021.04
432.41	3985.93
432.60	4168.49
432.79	4074.87
432.97	4109.98
433.16	4156.79
433.35	4128.70
433.54	4072.53
433.72	4205.94
433.91	4177.86
434.10	4182.54
434.28	4257.43
434.47	4360.42
434.66	4337.01
434.85	4292.54
435.03	4273.82
435.22	4435.32
435.41	4528.94
435.59	4409.57
435.78	4243.39
435.97	4468.08
436.16	4318.29
436.34	4346.37
436.53	4510.21
436.72	4601.49
436.90	4381.48
437.09	4498.51
437.28	4318.29
437.46	4484.47
437.65	4528.94
437.84	4507.87
438.02	4507.87
438.21	4526.60
438.40	4526.60
438.58	4718.52
438.77	4760.65
438.96	4805.12
439.14	4952.57
439.33	4854.27
439.52	4868.31
439.70	5004.07
439.89	5090.67
440.08	5088.32
440.26	5097.69
440.45	4947.89
440.63	5001.72
440.82	5151.52
441.01	5158.54
441.19	5163.22
441.38	5231.10
441.57	5224.08
441.75	5160.88
441.94	5561.11
442.12	5315.36
442.31	5533.03
442.50	5483.88
442.68	5556.43
442.87	5600.90
443.05	5467.49
443.24	5504.94
443.43	5509.62
443.61	5544.73
443.80	5706.23
443.98	5441.75
444.17	5420.68
444.35	5509.62
444.54	5582.18
444.73	5659.42
444.91	5645.37
445.10	5849.00
445.28	5650.05
445.47	5687.50
445.65	5666.44
445.84	5783.46
446.02	5785.80
446.21	5568.13
446.39	5584.52
446.58	5827.93
446.77	5696.86
446.95	5654.73
447.14	5727.29
447.32	5696.86
447.51	5717.93
447.69	5853.68
447.88	5893.47
448.06	5778.78
448.25	5940.28
448.43	5715.59
448.62	5886.45
448.80	5867.72
448.99	5935.60
449.17	5860.70
449.36	5895.81
449.54	6122.84
449.73	6022.20
449.91	6054.97
450.10	6080.71
450.28	6242.21
450.46	6052.63
450.65	6181.35
450.83	6188.38
451.02	6319.45
451.20	6232.85
451.39	6218.80
451.57	6209.44
451.76	6272.64
451.94	6279.66
452.13	6335.83
452.31	6392.00
452.49	6253.91
452.68	6221.14
452.86	6249.23
453.05	6370.94
453.23	6415.41
453.42	6300.72
453.60	6399.02
453.78	6366.26
453.97	6349.87
454.15	6223.48
454.34	6403.71
454.52	6450.52
454.70	6494.99
454.89	6548.82
455.07	6544.14
455.26	6691.59
455.44	6546.48
455.62	6633.08
455.81	6558.18
455.99	6726.70
456.17	6775.85
456.36	6747.76
456.54	6850.75
456.73	6766.49
456.91	7080.12
457.09	7148.00
457.28	7290.77
457.46	7007.56
457.64	6960.75
457.83	7176.08
458.01	6953.73
458.19	7351.62
458.38	7164.38
458.56	7192.47
458.74	7215.87
458.93	7211.19
459.11	7349.28
459.29	7255.66
459.48	7323.54
459.66	7269.70
459.84	7225.23
460.03	7351.62
460.21	7412.48
460.39	7239.28
460.57	7307.15
460.76	7489.71
460.94	7639.51
461.12	7606.74
461.31	7651.21
461.49	7440.56
461.67	7349.28
461.85	7648.87
462.04	7545.89
462.22	8067.83
462.40	7733.13
462.59	7681.64
462.77	7691.00
462.95	7887.61
463.13	7836.11
463.32	7719.09
463.50	7920.37
463.68	7911.01
463.86	7815.05
464.05	7735.47
464.23	7719.09
464.41	8011.65
464.59	8032.72
464.78	8219.96
464.96	7999.95
465.14	7953.14
465.32	8152.09
465.50	8084.21
465.69	8205.92
465.87	8063.15
466.05	8308.90
466.23	8238.69
466.41	8051.44
466.60	8397.84
466.78	8229.32
466.96	8226.98
467.14	8435.29
467.32	8194.22
467.51	8482.10
467.69	8046.76
467.87	8308.90
468.05	8582.74
468.23	8542.96
468.41	8493.80
468.60	8458.70
468.78	8336.99
468.96	8470.40
469.14	8589.77
469.32	8571.04
469.50	8428.27
469.69	8659.98
469.87	8933.82
470.05	8688.07
470.23	8737.22
470.41	8713.81
470.59	8872.97
470.77	9004.04
470.95	8985.32
471.14	8978.30
471.32	8809.78
471.50	9118.73
471.68	9048.51
471.86	9200.65
472.04	9111.71
472.22	9277.88
472.40	9067.24
472.58	9305.97
472.77	9142.13
472.95	9479.17
473.13	9860.68
473.31	9387.89
473.49	9380.87
473.67	9458.10
473.85	9558.75
474.03	9858.34
474.21	9586.83
474.39	9624.28
474.57	9713.22
474.75	9689.82
474.93	10132.18
475.12	9839.61
475.30	10127.50
475.48	9982.38
475.66	10181.33
475.84	10024.51
476.02	10164.95
476.20	10274.95
476.38	10483.26
476.56	10888.17
476.74	10441.13
476.92	10436.45
477.10	10420.06
477.28	10516.03
477.46	10850.72
477.64	10855.40
477.82	10972.43
478.00	10993.50
478.18	11133.93
478.36	11150.31
478.54	11501.39
478.72	11414.79
478.90	11391.39
479.08	11646.51
479.26	11899.28
479.44	11742.47
479.62	11566.93
479.80	11808.00
479.98	11967.16
480.16	12079.50
480.34	12250.36
480.52	12100.57
480.70	12304.20
480.88	12226.96
481.06	12159.08
481.24	12458.67
481.41	12762.94
481.59	12884.65
481.77	13036.78
481.95	12751.24
482.13	13107.00
482.31	12933.80
482.49	13540.00
482.67	13385.52
482.85	13432.33
483.03	13296.58
483.21	13703.84
483.39	13757.67
483.57	13902.78
483.74	13862.99
483.92	13844.27
484.10	14026.83
484.28	14352.16
484.46	14787.50
484.64	14789.85
484.82	14366.21
485.00	14548.77
485.18	14923.26
485.35	15105.82
485.53	14867.08
485.71	15250.93
485.89	15363.28
486.07	15407.75
486.25	15496.69
486.43	15737.76
486.61	15716.70
486.78	15606.69
486.96	15805.64
487.14	16262.04
487.32	15920.32
487.50	16451.63
487.68	16430.56
487.85	16592.06
488.03	16842.50
488.21	17050.80
488.39	16812.07
488.57	17142.08
488.75	17109.32
488.92	17593.81
489.10	17483.80
489.28	17582.10
489.46	17902.76
489.64	17799.77
489.81	18338.10
489.99	18228.09
490.17	18302.99
490.35	18534.70
490.53	18485.55
490.70	18698.54
490.88	18476.19
491.06	18806.20
491.24	18890.46
491.41	18885.78
491.59	19232.18
491.77	19136.22
491.95	19112.81
492.13	19559.86
492.30	19929.66
492.48	19669.86
492.66	19709.65
492.84	19583.26
493.01	20215.21
493.19	19885.19
493.37	20458.62
493.54	20133.29
493.72	20898.64
493.90	20439.90
494.08	20994.61
494.25	21130.36
494.43	20943.11
494.61	21125.68
494.79	21240.36
494.96	21303.56
495.14	21415.90
495.32	21640.59
495.49	21802.09
495.67	21781.03
495.85	21914.44
496.02	22101.68
496.20	22171.89
496.38	22342.75
496.55	22338.07
496.73	22970.02
496.91	22721.92
497.09	22953.63
497.26	23388.97
497.44	22831.93
497.62	23246.20
497.79	23627.71
497.97	23625.37
498.14	23555.15
498.32	23623.03
498.50	23613.66
498.67	24009.22
498.85	23915.59
499.03	23857.08
499.20	24102.84
499.38	24102.84
499.56	24533.50
499.73	24535.84
499.91	24657.54
500.08	24479.66
500.26	24322.85
500.44	25132.67
500.61	24987.56
500.79	24409.45
500.97	25186.50
501.14	25308.21
501.32	25497.80
501.49	25163.10
501.67	25516.52
501.84	25729.51
502.02	25673.34
502.20	25778.66
502.37	25947.18
502.55	25832.49
502.72	26052.50
502.90	25979.95
503.07	26005.69
503.25	25909.73
503.43	26026.76
503.60	26424.65
503.78	26544.02
503.95	26389.54
504.13	26773.39
504.30	26724.24
504.48	26405.92
504.65	26752.32
504.83	26948.93
505.01	27133.83
505.18	26728.92
505.36	27253.20
505.53	27185.32
505.71	27323.41
505.88	27304.69
506.06	27367.88
506.23	27555.13
506.41	27414.69
506.58	27531.72
506.76	27812.59
506.93	28360.27
507.11	27946.00
507.28	28051.32
507.46	28451.55
507.63	28472.62
507.81	28823.70
507.98	28704.33
508.16	28278.35
508.33	28971.15
508.50	28535.81
508.68	28842.42
508.85	28896.25
509.03	28673.90
509.20	28776.89
509.38	29195.84
509.55	29158.39
509.73	29137.33
509.90	29472.03
510.08	29553.94
510.25	29603.10
510.42	29652.25
510.60	29556.28
510.77	29979.92
510.95	30075.88
511.12	30118.01
511.30	29860.55
511.47	29722.46
511.64	29982.26
511.82	30466.75
511.99	30061.84
512.17	30593.14
512.34	30597.82
512.51	31122.10
512.69	30705.49
512.86	30679.74
513.04	31295.30
513.21	31042.53
513.38	31000.40
513.56	31239.13
513.73	31082.31
513.90	31168.91
514.08	30728.89
514.25	31440.42
514.43	31859.37
514.60	31709.58
514.77	31910.86
514.95	32048.96
515.12	31690.85
515.29	31796.18
515.47	32472.59
515.64	32088.74
515.81	31789.16
515.99	32189.39
516.16	32322.80
516.33	32173.00
516.51	32496.00
516.68	32283.01
516.85	32517.06
517.03	32716.01
517.20	32591.96
517.37	33165.39
517.54	32823.67
517.72	32629.41
517.89	32545.15
518.06	33134.96
518.24	33387.74
518.41	33060.07
518.58	33209.86
518.75	32818.99
518.93	33207.52
519.10	33371.36
519.27	33818.40
519.45	33551.58
519.62	33919.04
519.79	33441.57
519.96	33804.36
520.14	33649.88
520.31	33734.14
520.48	34115.65
520.65	34293.53
520.83	34370.77
521.00	34628.23
521.17	34338.00
521.34	34375.45
521.52	34426.94
521.69	34359.06
521.86	34565.03
522.03	34759.30
522.20	34862.28
522.38	35124.42
522.55	35248.47
522.72	34398.85
522.89	35065.91
523.07	35648.70
523.24	34969.94
523.41	35693.17
523.58	35077.61
523.75	35723.60
523.92	35290.60
524.10	35503.59
524.27	36144.89
524.44	35648.70
524.61	35625.29
524.78	35737.64
524.96	35922.54
525.13	36378.95
525.30	36240.86
525.47	36062.97
525.64	36039.57
525.81	36481.93
525.98	36402.35
526.16	36098.08
526.33	36271.28
526.50	36971.10
526.67	36453.84
526.84	36641.09
527.01	36545.12
527.18	36804.92
527.36	36659.81
527.53	36657.47
527.70	37207.50
527.87	36926.63
528.04	37186.43
528.21	36996.85
528.38	37156.00
528.55	37242.60
528.72	37284.73
528.89	37202.82
529.07	36847.05
529.24	37163.03
529.41	37184.09
529.58	37209.84
529.75	37130.26
529.92	37766.88
530.09	37787.95
530.26	37926.04
530.43	38220.95
530.60	37598.37
530.77	37827.74
530.94	37628.79
531.11	37598.37
531.28	37626.45
531.46	37874.55
531.63	37872.21
531.80	38132.01
531.97	38532.24
532.14	38649.27
532.31	38040.73
532.48	38679.69
532.65	38670.33
532.82	38611.82
532.99	38733.53
533.16	38672.67
533.33	38981.62
533.50	38817.78
533.67	38534.58
533.84	38586.07
534.01	39075.24
534.18	39100.99
534.35	39440.37
534.52	39129.08
534.69	39742.30
534.86	39194.61
535.03	38855.23
535.20	39309.30
535.37	39461.43
535.54	39253.12
535.71	39739.96
535.88	39796.13
536.05	39126.74
536.22	39814.85
536.38	39761.02
536.55	39749.32
536.72	39175.89
536.89	39627.61
537.06	39690.80
537.23	40091.04
537.40	40144.87
537.57	39365.47
537.74	39990.39
537.91	40364.88
538.08	39936.56
538.25	40009.12
538.42	39966.99
538.59	41095.13
538.75	40069.97
538.92	40502.97
539.09	40395.31
539.26	40554.46
539.43	40568.51
539.60	40872.78
539.77	40467.86
539.94	40769.79
540.11	40795.54
540.28	40706.60
540.44	41031.93
540.61	40914.90
540.78	40580.21
540.95	40776.81
541.12	40659.79
541.29	40769.79
541.46	41273.01
541.62	41139.60
541.79	41366.63
541.96	41106.83
542.13	40802.56
542.30	41446.21
542.47	41270.67
542.63	41345.56
542.80	41558.55
542.97	42124.96
543.14	41598.34
543.31	41750.48
543.48	41869.84
543.64	42202.20
543.81	42129.64
543.98	42033.68
544.15	41940.06
544.32	42131.98
544.48	42464.34
544.65	42134.32
544.82	41900.27
544.99	42316.89
545.16	42071.13
545.32	42710.10
545.49	42349.65
545.66	42852.87
545.83	42656.26
546.00	42604.77
546.16	42590.73
546.33	42071.13
546.50	42302.84
546.67	42838.83
546.83	42244.33
547.00	42490.09
547.17	42445.62
547.34	42550.94
547.50	43328.00
547.67	42967.55
547.84	42878.61
548.00	42981.60
548.17	43145.44
548.34	43262.46
548.51	43430.98
548.67	43323.32
548.84	43021.39
549.01	43669.72
549.18	43578.43
549.34	42944.15
549.51	44135.48
549.68	43856.96
549.84	43641.63
550.01	43885.04
550.18	43445.02
550.34	43653.33
550.51	43349.06
550.68	43985.69
550.84	43414.60
551.01	43564.39
551.18	44123.78
551.34	43964.62
551.51	43786.74
551.68	43889.73
551.84	43445.02
552.01	43761.00
552.18	43889.73
552.34	43674.40
552.51	43971.64
552.68	43871.00
552.84	44301.66
553.01	44406.98
553.18	44425.71
553.34	44243.15
553.51	44016.11
553.67	43971.64
553.84	44437.41
554.01	44538.05
554.17	44184.63
554.34	44685.51
554.51	44481.88
554.67	44708.91
554.84	44612.95
555.00	44060.58
555.17	44240.81
555.33	44837.64
555.50	44465.50
555.67	44634.02
555.83	44561.46
556.00	44954.67
556.16	44891.48
556.33	45188.72
556.50	44832.96
556.66	44959.35
556.83	44926.58
556.99	45394.69
557.16	45170.00
557.32	44898.50
557.49	45186.38
557.65	44821.26
557.82	45240.21
557.98	44865.73
558.15	45153.62
558.32	45560.87
558.48	45071.70
558.65	45144.25
558.81	45322.13
558.98	45343.20
559.14	44949.99
559.31	45116.17
559.47	45230.85
559.64	45343.20
559.80	45436.82
559.97	45588.95
560.13	45261.28
560.30	45593.64
560.46	45846.41
560.63	45579.59
560.79	45797.26
560.96	45818.33
561.12	45996.21
561.29	45677.90
561.45	45659.17
561.61	45652.15
561.78	45640.45
561.94	45399.37
562.11	45673.21
562.27	45904.93
562.44	46014.93
562.60	46052.38
562.77	45743.43
562.93	46014.93
563.10	45993.87
563.26	45666.19
563.42	46160.05
563.59	45961.10
563.75	45698.96
563.92	45867.48
564.08	45717.68
564.24	46403.46
564.41	45883.86
564.57	45902.59
564.74	46167.07
564.90	45603.00
565.07	46319.20
565.23	46085.15
565.39	46241.96
565.56	46190.47
565.72	45853.44
565.88	45846.41
566.05	46373.03
566.21	46178.77
566.38	46305.16
566.54	46190.47
566.70	46328.56
566.87	45958.76
567.03	46115.58
567.19	46550.91
567.36	46370.69
567.52	46398.78
567.68	46525.17
567.85	46546.23
568.01	46712.41
568.17	46649.22
568.34	46724.11
568.50	46520.49
568.66	45925.99
568.83	46377.72
568.99	46403.46
569.15	46223.24
569.32	46059.40
569.48	46279.41
569.64	46850.50
569.81	46567.30
569.97	46309.84
570.13	46890.29
570.30	46469.00
570.46	46415.16
570.62	46848.16
570.78	46410.48
570.95	46597.73
571.11	46948.81
571.27	46672.62
571.43	46520.49
571.60	46492.40
571.76	46300.48
571.92	46724.11
572.09	46766.24
572.25	46539.21
572.41	46588.36
572.57	46396.44
572.74	47051.79
572.90	46955.83
573.06	46761.56
573.22	46808.37
573.38	47461.38
573.55	47267.12
573.71	46850.50
573.87	47267.12
574.03	46752.20
574.20	47358.40
574.36	46630.49
574.52	47288.18
574.68	47140.73
574.84	47349.04
575.01	47330.31
575.17	46731.14
575.33	46883.27
575.49	47136.05
575.65	47318.61
575.82	47196.90
575.98	47033.07
576.14	47196.90
576.30	47232.01
576.46	47267.12
576.62	46852.84
576.79	47166.48
576.95	46635.17
577.11	46948.81
577.27	47236.69
577.43	47002.64
577.59	47168.82
577.75	46431.55
577.92	46932.42
578.08	46754.54
578.24	47185.20
578.40	47384.15
578.56	47470.75
578.72	46745.18
578.88	47051.79
579.04	46925.40
579.21	47033.07
579.37	47187.54
579.53	47208.61
579.69	46990.94
579.85	46918.38
580.01	47110.30
580.17	46848.16
580.33	47320.95
580.49	47175.84
580.65	47241.37
580.82	47229.67
580.98	47093.92
581.14	46506.44
581.30	47201.58
581.46	46911.36
581.62	46740.50
581.78	47143.07
581.94	46904.34
582.10	47075.19
582.26	47772.67
582.42	47456.70
582.58	47484.79
582.74	47288.18
582.90	47555.00
583.06	47267.12
583.22	46831.78
583.38	47334.99
583.54	47349.04
583.70	47217.97
583.86	47407.55
584.02	47246.05
584.18	47482.45
584.34	47112.64
584.50	47592.45
584.66	47487.13
584.82	47421.59
584.98	47433.30
585.14	47470.75
585.30	47117.32
585.46	47723.52
585.62	47009.66
585.78	47129.03
585.94	47061.15
586.10	47334.99
586.26	46911.36
586.42	47653.31
586.58	47180.52
586.74	47412.23
586.90	47461.38
587.06	47423.93
587.22	47793.74
587.38	47426.28
587.54	47852.25
587.70	47896.72
587.86	47276.48
588.02	47461.38
588.18	47524.58
588.34	47407.55
588.49	47519.90
588.65	47669.69
588.81	47072.85
588.97	47562.03
589.13	47344.36
589.29	47508.19
589.45	47716.50
589.61	47566.71
589.77	47934.17
589.93	47878.00
590.08	47730.54
