SpectraSuite Data File
++++++++++++++++++++++++++++++++++++
Date: Fri Oct 25 11:23:42 EDT 2013
User: price-jones
Dark Spectrum Present: No
Reference Spectrum Present: No
Number of Sampled Component Spectra: 1
Spectrometers: USB2+H05261
Integration Time (usec): 100000 (USB2+H05261)
Spectra Averaged: 1 (USB2+H05261)
Boxcar Smoothing: 0 (USB2+H05261)
Correct for Electrical Dark: No (USB2+H05261)
Strobe/Lamp Enabled: No (USB2+H05261)
Correct for Detector Non-linearity: No (USB2+H05261)
Correct for Stray Light: No (USB2+H05261)
Number of Pixels in Processed Spectrum: 2048
>>>>>Begin Processed Spectral Data<<<<<
365.73	135.75
365.92	135.75
366.12	135.75
366.32	142.77
366.52	60.85
366.72	156.82
366.91	98.30
367.11	102.98
367.31	149.79
367.51	91.28
367.70	110.01
367.90	154.48
368.10	142.77
368.30	217.67
368.49	67.88
368.69	124.05
368.89	203.63
369.09	161.50
369.28	236.39
369.48	161.50
369.68	180.22
369.87	220.01
370.07	196.60
370.27	154.48
370.47	306.61
370.66	627.26
370.86	622.58
371.06	713.86
371.25	592.16
371.45	702.16
371.65	685.78
371.84	664.71
372.04	667.05
372.24	758.33
372.44	720.88
372.63	718.54
372.83	781.74
373.03	732.59
373.22	695.14
373.42	819.19
373.62	781.74
373.81	748.97
374.01	802.80
374.21	809.83
374.40	765.36
374.60	800.46
374.79	802.80
374.99	828.55
375.19	777.06
375.38	847.27
375.58	793.44
375.78	917.49
375.97	882.38
376.17	964.30
376.37	826.21
376.56	847.27
376.76	791.10
376.95	847.27
377.15	819.19
377.35	894.08
377.54	882.38
377.74	980.68
377.93	882.38
378.13	924.51
378.33	940.90
378.52	936.21
378.72	936.21
378.91	1050.90
379.11	915.15
379.31	940.90
379.50	938.55
379.70	1020.47
379.89	945.58
380.09	889.40
380.28	903.45
380.48	985.37
380.68	976.00
380.87	896.43
381.07	1034.52
381.26	1036.86
381.46	1053.24
381.65	1090.69
381.85	1015.79
382.04	980.68
382.24	1097.71
382.43	1081.33
382.63	1078.99
382.83	1018.13
383.02	1083.67
383.22	1097.71
383.41	1053.24
383.61	1011.11
383.80	1132.82
384.00	1011.11
384.19	1128.14
384.39	1170.27
384.58	1074.31
384.78	1214.74
384.97	1170.27
385.17	1139.84
385.36	1151.54
385.56	1093.03
385.75	1100.05
385.95	1144.52
386.14	1219.42
386.34	1191.33
386.53	1196.01
386.72	1146.86
386.92	1284.95
387.11	1181.97
387.31	1275.59
387.50	1273.25
387.70	1217.08
387.89	1320.06
388.09	1228.78
388.28	1219.42
388.48	1327.08
388.67	1320.06
388.86	1387.94
389.06	1266.23
389.25	1380.92
389.45	1301.34
389.64	1310.70
389.84	1327.08
390.03	1341.13
390.22	1359.85
390.42	1404.32
390.61	1427.73
390.81	1327.08
391.00	1390.28
391.19	1397.30
391.39	1331.76
391.58	1416.02
391.78	1416.02
391.97	1507.30
392.16	1364.53
392.36	1441.77
392.55	1570.50
392.75	1509.65
392.94	1537.73
393.13	1554.12
393.33	1621.99
393.52	1493.26
393.71	1577.52
393.91	1596.25
394.10	1554.12
394.29	1645.40
394.49	1607.95
394.68	1631.35
394.88	1596.25
395.07	1650.08
395.26	1701.57
395.46	1600.93
395.65	1739.02
395.84	1680.50
396.04	1778.81
396.23	1839.66
396.42	1706.25
396.62	1760.08
396.81	1746.04
397.00	1757.74
397.19	1802.21
397.39	1748.38
397.58	1795.19
397.77	1874.77
397.97	1769.44
398.16	1781.15
398.35	1912.22
398.55	1811.57
398.74	1834.98
398.93	1954.35
399.12	1935.62
399.32	1952.01
399.51	1891.15
399.70	1991.80
399.90	1937.96
400.09	1980.09
400.28	1975.41
400.47	2017.54
400.67	1991.80
400.86	2125.21
401.05	2108.82
401.24	2125.21
401.44	2078.40
401.63	2019.88
401.82	2218.83
402.01	2040.95
402.21	2090.10
402.40	2221.17
402.59	2136.91
402.78	2214.15
402.97	2279.68
403.17	2195.42
403.36	2134.57
403.55	2289.04
403.74	2361.60
403.93	2291.38
404.13	2335.85
404.32	2331.17
404.51	2427.14
404.70	2480.97
404.89	2450.54
405.09	2506.71
405.28	2452.88
405.47	2537.14
405.66	2499.69
405.85	2487.99
406.05	2532.46
406.24	2640.12
406.43	2602.68
406.62	2548.84
406.81	2654.17
407.00	2700.98
407.20	2705.66
407.39	2712.68
407.58	2712.68
407.77	2731.41
407.96	2757.15
408.15	2731.41
408.34	2766.51
408.54	2970.14
408.73	2792.26
408.92	2761.83
409.11	2963.12
409.30	2888.22
409.49	2909.29
409.68	2834.39
409.87	2920.99
410.07	3023.97
410.26	2970.14
410.45	2883.54
410.64	3000.57
410.83	3084.83
411.02	3101.21
411.21	3215.90
411.40	3220.58
411.59	3316.54
411.78	3232.28
411.98	3211.22
412.17	3393.78
412.36	3234.62
412.55	3440.59
412.74	3419.52
412.93	3454.63
413.12	3459.31
413.31	3658.26
413.50	3531.87
413.69	3517.83
413.88	3700.39
414.07	3515.48
414.26	3686.34
414.45	3676.98
414.64	3674.64
414.83	3627.83
415.02	3801.03
415.22	3723.79
415.41	3892.31
415.60	3857.20
415.79	3901.67
415.98	3845.50
416.17	3969.55
416.36	3901.67
416.55	4025.72
416.74	4074.87
416.93	4004.66
417.12	4114.66
417.31	4177.86
417.50	4248.07
417.69	4301.90
417.88	4259.78
418.07	4156.79
418.26	4362.76
418.45	4299.56
418.64	4435.32
418.83	4517.23
419.02	4432.97
419.21	4510.21
419.39	4463.40
419.58	4500.85
419.77	4442.34
419.96	4652.98
420.15	4519.57
420.34	4610.86
420.53	4624.90
420.72	4706.82
420.91	4638.94
421.10	4858.95
421.29	4833.21
421.48	4706.82
421.67	4814.48
421.86	4753.63
422.05	4875.34
422.24	4809.80
422.43	4875.34
422.61	5006.41
422.80	5067.26
422.99	4945.55
423.18	4868.31
423.37	5114.07
423.56	4990.02
423.75	4980.66
423.94	4854.27
424.13	4645.96
424.32	4732.56
424.50	4954.91
424.69	5029.81
424.88	5142.16
425.07	5011.09
425.26	4966.62
425.45	4990.02
425.64	5114.07
425.83	5135.14
426.01	4830.87
426.20	5116.41
426.39	5149.18
426.58	5043.85
426.77	4990.02
426.96	5118.75
427.15	5109.39
427.33	5093.01
427.52	5123.43
427.71	5172.58
427.90	5261.52
428.09	5329.40
428.28	5497.92
428.46	5357.49
428.65	5441.75
428.84	5481.53
429.03	5467.49
429.22	5233.44
429.40	5462.81
429.59	5486.22
429.78	5280.25
429.97	5158.54
430.16	5507.28
430.34	5455.79
430.53	5664.10
430.72	5818.57
430.91	5731.97
431.10	5556.43
431.28	5647.71
431.47	5813.89
431.66	5891.13
431.85	5870.06
432.03	5816.23
432.22	6022.20
432.41	5919.21
432.60	5839.64
432.79	6059.65
432.97	6076.03
433.16	6015.18
433.35	5895.81
433.54	6022.20
433.72	5966.03
433.91	6047.94
434.10	6078.37
434.28	6087.73
434.47	6150.93
434.66	6232.85
434.85	6410.73
435.03	6352.21
435.22	6267.95
435.41	6452.86
435.59	6403.71
435.78	6469.24
435.97	6497.33
436.16	6380.30
436.34	6471.58
436.53	6544.14
436.72	6771.17
436.90	6399.02
437.09	6602.65
437.28	6565.20
437.46	6621.38
437.65	6684.57
437.84	6801.60
438.02	6740.74
438.21	6822.66
438.40	6581.59
438.58	7108.21
438.77	7082.46
438.96	6862.45
439.14	7232.26
439.33	7178.42
439.52	7131.61
439.70	7215.87
439.89	7232.26
440.08	7311.83
440.26	7482.69
440.45	7232.26
440.63	7559.93
440.82	7543.55
441.01	7573.97
441.19	7592.70
441.38	7653.55
441.57	7861.86
441.75	7784.62
441.94	7824.41
442.12	7852.50
442.31	8229.32
442.50	8051.44
442.68	7918.03
442.87	8149.75
443.05	8138.04
443.24	8184.85
443.43	8187.19
443.61	8208.26
443.80	8219.96
443.98	8016.33
444.17	7833.77
444.35	8269.11
444.54	8250.39
444.73	8215.28
444.91	8336.99
445.10	8322.94
445.28	8449.33
445.47	8290.18
445.65	8299.54
445.84	8475.08
446.02	8500.83
446.21	8573.38
446.39	8367.42
446.58	8659.98
446.77	8554.66
446.95	8301.88
447.14	8456.36
447.32	8510.19
447.51	8442.31
447.69	8578.06
447.88	8287.84
448.06	8547.64
448.25	8512.53
448.43	8678.71
448.62	8645.94
448.80	8435.29
448.99	8748.92
449.17	8872.97
449.36	8561.68
449.54	8645.94
449.73	9186.60
449.91	9067.24
450.10	9128.09
450.28	9240.44
450.46	9193.62
450.65	8858.93
450.83	9170.22
451.02	9060.21
451.20	9020.42
451.39	9139.79
451.57	8943.19
451.76	9214.69
451.94	9202.99
452.13	9249.80
452.31	9385.55
452.49	9202.99
452.68	9469.81
452.86	9172.56
453.05	9383.21
453.23	9406.61
453.42	9219.37
453.60	9385.55
453.78	9413.63
453.97	9369.16
454.15	9481.51
454.34	9479.17
454.52	9935.57
454.70	9666.41
454.89	9593.86
455.07	9671.09
455.26	9804.50
455.44	10008.13
455.62	9837.27
455.81	9963.66
455.99	10031.54
456.17	10106.43
456.36	10015.15
456.54	10090.05
456.73	10326.44
456.91	10588.58
457.09	10296.02
457.28	10600.29
457.46	10516.03
457.64	10422.41
457.83	10759.44
458.01	10539.43
458.19	10827.32
458.38	10712.63
458.56	10892.85
458.74	10675.18
458.93	10813.28
459.11	10597.95
459.29	10738.38
459.48	10850.72
459.66	10754.76
459.84	10911.58
460.03	11037.97
460.21	10794.55
460.39	10995.84
460.57	10911.58
460.76	11157.33
460.94	11304.79
461.12	11239.25
461.31	11185.42
461.49	11080.10
461.67	11169.04
461.85	11538.84
462.04	11351.60
462.22	11571.61
462.40	11723.74
462.59	11571.61
462.77	11279.04
462.95	11595.01
463.13	11555.22
463.32	11782.26
463.50	11763.53
463.68	11651.19
463.86	11604.38
464.05	11747.15
464.23	12025.67
464.41	11761.19
464.59	11826.73
464.78	11960.14
464.96	11946.09
465.14	11620.76
465.32	12142.70
465.50	12245.68
465.69	12208.23
465.87	12339.30
466.05	12095.89
466.23	12294.83
466.41	12404.84
466.60	12580.38
466.78	12166.10
466.96	12065.46
467.14	12395.48
467.32	12489.10
467.51	12461.01
467.69	12030.35
467.87	12411.86
468.05	12713.79
468.23	12514.84
468.41	12465.69
468.60	12556.97
468.78	12685.70
468.96	12723.15
469.14	12636.55
469.32	12795.71
469.50	12631.87
469.69	13022.74
469.87	13186.58
470.05	13071.89
470.23	13067.21
470.41	13209.98
470.59	13111.68
470.77	13144.45
470.95	13359.78
471.14	13352.76
471.32	12978.27
471.50	13783.41
471.68	13474.46
471.86	13652.34
472.04	13556.38
472.22	14127.47
472.40	13818.52
472.58	13755.33
472.77	13900.44
472.95	13954.27
473.13	14441.11
473.31	14083.00
473.49	14068.96
473.67	14235.14
473.85	14382.59
474.03	14516.00
474.21	14846.02
474.39	14878.79
474.57	14946.66
474.75	14747.72
474.93	14920.92
475.12	14956.02
475.30	15103.48
475.48	15152.63
475.66	15192.42
475.84	15185.40
476.02	15440.51
476.20	15573.92
476.38	15421.79
476.56	15920.32
476.74	16168.42
476.92	15950.75
477.10	16074.80
477.28	16350.98
477.46	16128.63
477.64	16130.97
477.82	16620.14
478.00	17071.87
478.18	16870.58
478.36	16849.52
478.54	17123.36
478.72	17338.69
478.90	17399.54
479.08	17570.40
479.26	17626.57
479.44	17680.41
479.62	17949.57
479.80	18230.43
479.98	18190.64
480.16	18637.69
480.34	18455.12
480.52	18717.26
480.70	18539.38
480.88	18338.10
481.06	19037.92
481.24	18696.20
481.41	19278.99
481.59	19133.88
481.77	19822.00
481.95	19641.78
482.13	20065.41
482.31	19580.92
482.49	20086.48
482.67	20369.68
482.85	20348.62
483.03	20409.47
483.21	20950.14
483.39	21238.02
483.57	20884.60
483.74	21118.65
483.92	21142.06
484.10	21135.04
484.28	21699.11
484.46	22087.64
484.64	22335.73
484.82	21853.58
485.00	22354.46
485.18	22977.04
485.35	23126.83
485.53	23019.17
485.71	23183.01
485.89	23623.03
486.07	23358.55
486.25	23461.53
486.43	23412.38
486.61	23775.16
486.78	23864.10
486.96	24053.69
487.14	24669.25
487.32	24592.01
487.50	24961.81
487.68	24919.68
487.85	25310.55
488.03	25455.67
488.21	25951.86
488.39	25958.88
488.57	26380.18
488.75	26312.30
488.92	26719.56
489.10	26885.73
489.28	26408.26
489.46	27199.37
489.64	27204.05
489.81	27623.00
489.99	27683.86
490.17	27779.82
490.35	28320.48
490.53	27983.44
490.70	28411.76
490.88	28568.58
491.06	29237.97
491.24	29055.41
491.41	29181.80
491.59	29303.51
491.77	29429.90
491.95	29593.73
492.13	29893.32
492.30	30188.23
492.48	30157.80
492.66	30536.97
492.84	30333.34
493.01	30616.55
493.19	30693.79
493.37	31103.38
493.54	30857.62
493.72	31690.85
493.90	31512.97
494.08	31723.62
494.25	32133.21
494.43	32306.41
494.61	32388.33
494.79	32449.19
494.96	32692.60
495.14	33259.01
495.32	33364.34
495.49	33116.24
495.67	33479.02
495.85	33572.64
496.02	33764.57
496.20	34148.42
496.38	34005.64
496.55	33919.04
496.73	34511.20
496.91	34349.70
497.09	34843.56
497.26	34843.56
497.44	34590.78
497.62	35122.08
497.79	36116.81
497.97	35786.79
498.14	35969.35
498.32	36142.55
498.50	36182.34
498.67	36914.93
498.85	36453.84
499.03	36928.97
499.20	37146.64
499.38	36872.80
499.56	37038.98
499.73	37427.51
499.91	37249.63
500.08	37507.08
500.26	37518.79
500.44	37778.59
500.61	37937.74
500.79	37696.67
500.97	38548.62
501.14	38632.88
501.32	38417.55
501.49	38375.42
501.67	38904.38
501.84	39445.05
502.02	39061.20
502.20	39236.74
502.37	39416.96
502.55	39522.29
502.72	39864.00
502.90	39321.00
503.07	39337.38
503.25	39814.85
503.43	39512.92
503.60	40212.74
503.78	40198.70
503.95	40212.74
504.13	40545.10
504.30	40840.01
504.48	40818.94
504.65	40498.29
504.83	41123.21
505.01	41673.24
505.18	41050.66
505.36	41244.92
505.53	41804.31
505.71	41570.25
505.88	41848.78
506.06	41481.31
506.23	42033.68
506.41	42288.80
506.58	41963.46
506.76	42178.79
506.93	42742.86
507.11	42717.12
507.28	42939.47
507.46	42663.28
507.63	43005.00
507.81	43688.44
507.98	42930.11
508.16	43470.77
508.33	43035.43
508.50	43632.27
508.68	44013.77
508.85	43873.34
509.03	43789.08
509.20	44252.51
509.38	44666.78
509.55	44350.81
509.73	44797.85
509.90	44421.03
510.08	44444.43
510.25	44641.04
510.42	45134.89
510.60	44676.15
510.77	45254.26
510.95	45537.46
511.12	45462.57
511.30	45277.66
511.47	45663.85
511.64	45717.68
511.82	45680.24
511.99	45443.84
512.17	45603.00
512.34	45743.43
512.51	46256.01
512.69	46520.49
512.86	46122.60
513.04	46782.63
513.21	46476.02
513.38	47281.16
513.56	46721.77
513.73	46995.62
513.90	47133.71
514.08	46754.54
514.25	47393.51
514.43	47400.53
514.60	47622.88
514.77	47089.24
514.95	47955.24
515.12	47693.10
515.29	47402.87
515.47	47969.28
515.64	48203.33
515.81	48200.99
515.99	48575.48
516.16	48542.71
516.33	48381.21
516.51	48308.66
516.68	48428.02
516.85	48563.78
517.03	48673.78
517.20	49006.14
517.37	49251.89
517.54	49052.95
517.72	49010.82
517.89	49155.93
518.06	49434.45
518.24	49291.68
518.41	49310.41
518.58	49528.08
518.75	49382.96
518.93	49818.30
519.10	49677.87
519.27	49954.05
519.45	50024.27
519.62	50115.55
519.79	49925.97
519.96	50054.70
520.14	50576.64
520.31	50342.58
520.48	50298.11
520.65	50504.08
520.83	50937.08
521.00	50916.01
521.17	50798.99
521.34	50766.22
521.52	51030.70
521.69	50731.11
521.86	50955.80
522.03	51239.01
522.20	51512.85
522.38	51171.13
522.55	51552.64
522.72	51709.46
522.89	51346.67
523.07	51812.44
523.24	51442.63
523.41	52266.50
523.58	51442.63
523.75	52184.58
523.92	51875.63
524.10	52423.32
524.27	51913.08
524.44	52097.98
524.61	52133.09
524.78	52226.71
524.96	52535.66
525.13	52479.49
525.30	52435.02
525.47	52832.91
525.64	52341.40
525.81	52425.66
525.98	52804.83
526.16	52577.79
526.33	52741.63
526.50	53076.33
526.67	52664.39
526.84	53207.40
527.01	52903.13
527.18	52741.63
527.36	53148.88
527.53	53151.23
527.70	53448.47
527.87	53490.60
528.04	53322.08
528.21	53439.11
528.38	53340.81
528.55	53631.04
528.72	53041.22
528.89	53488.26
529.07	53502.31
529.24	53579.54
529.41	53844.02
529.58	53666.14
529.75	53652.10
529.92	54185.74
530.09	53928.28
530.26	54064.03
530.43	54049.99
530.60	53785.51
530.77	54094.46
530.94	54162.34
531.11	54110.85
531.28	54061.69
531.46	54415.11
531.63	54094.46
531.80	54213.83
531.97	54520.44
532.14	54588.31
532.31	54321.49
532.48	54611.72
532.65	54763.85
532.82	54494.69
532.99	54618.74
533.16	54965.14
533.33	54747.47
533.50	55196.85
533.67	54883.22
533.84	54590.66
534.01	55033.02
534.18	54780.24
534.35	55243.66
534.52	54845.77
534.69	55292.82
534.86	55164.09
535.03	54993.23
535.20	55222.60
535.37	55510.49
535.54	55269.41
535.71	55505.80
535.88	55458.99
536.05	55463.67
536.22	55594.74
536.38	55861.57
536.55	55550.27
536.72	55592.40
536.89	55470.70
537.06	55728.16
537.23	55676.66
537.40	55611.13
537.57	55611.13
537.74	55814.76
537.91	55997.32
538.08	56137.75
538.25	55838.16
538.42	56067.53
538.59	56191.58
538.75	56048.81
538.92	56020.72
539.09	56130.73
539.26	56172.86
539.43	56229.03
539.60	56095.62
539.77	56308.61
539.94	56519.26
540.11	56374.14
540.28	56334.35
540.44	56507.55
540.61	56715.86
540.78	56278.18
540.95	56580.11
541.12	56577.77
541.29	56509.89
541.46	56535.64
541.62	56636.28
541.79	56673.73
541.96	56324.99
542.13	56605.86
542.30	56765.01
542.47	56980.34
542.63	56706.50
542.80	56896.08
542.97	57022.47
543.14	57226.10
543.31	57249.50
543.48	57293.97
543.64	57525.69
543.81	57530.37
543.98	57572.50
544.15	57230.78
544.32	57675.48
544.48	57506.96
544.65	57411.00
544.82	57558.45
544.99	57387.60
545.16	57474.20
545.32	57396.96
545.49	57570.16
545.66	57827.62
545.83	57652.08
546.00	57741.02
546.16	57682.50
546.33	57733.99
546.50	57427.38
546.67	57930.60
546.83	57446.11
547.00	57787.83
547.17	57799.53
547.34	57752.72
547.50	57946.98
547.67	58045.29
547.84	58064.01
548.00	58024.22
548.17	58136.57
548.34	58202.10
548.51	58487.65
548.67	58260.62
548.84	58300.40
549.01	58164.65
549.18	58342.53
549.34	58382.32
549.51	58305.09
549.68	58293.38
549.84	58618.72
550.01	58677.23
550.18	58532.12
550.34	58550.84
550.51	58569.57
550.68	58653.82
550.84	58356.58
551.01	58759.15
551.18	58653.82
551.34	58649.14
551.51	58702.98
551.68	58674.89
551.84	58710.00
552.01	58541.48
552.18	58787.24
552.34	58548.50
552.51	58684.25
552.68	58639.78
552.84	58822.34
553.01	59016.61
553.18	58810.64
553.34	58887.88
553.51	58525.10
553.67	59011.93
553.84	58930.01
554.01	58976.82
554.17	59150.02
554.34	58941.71
554.51	59004.91
554.67	59222.58
554.84	59058.74
555.00	59082.14
555.17	58869.15
555.33	59302.15
555.50	58899.58
555.67	59061.08
555.83	59203.85
556.00	59007.25
556.16	59447.27
556.33	59346.62
556.50	59341.94
556.66	59402.80
556.83	59297.47
556.99	59367.69
557.16	59512.80
557.32	59543.23
557.49	59515.14
557.65	59576.00
557.82	59512.80
557.98	59360.67
558.15	59463.65
558.32	59442.59
558.48	59320.88
558.65	59517.48
558.81	59620.47
558.98	59648.55
559.14	59643.87
559.31	59849.84
559.47	59821.75
559.64	59657.91
559.80	59697.70
559.97	59906.01
560.13	59678.98
560.30	59884.95
560.46	59746.86
560.63	59779.62
560.79	59693.02
560.96	59973.89
561.12	59838.14
561.29	59824.09
561.45	59725.79
561.61	59870.90
561.78	59908.35
561.94	60001.97
562.11	59978.57
562.27	59903.67
562.44	59964.52
562.60	60275.82
562.77	60151.77
562.93	59901.33
563.10	60313.26
563.26	59898.99
563.42	60140.07
563.59	60067.51
563.75	60046.44
563.92	60032.40
564.08	60069.85
564.24	60308.58
564.41	60186.88
564.57	60081.55
564.74	60182.19
564.90	60025.38
565.07	60013.68
565.23	60093.25
565.39	60095.60
565.56	60205.60
565.72	60261.77
565.88	60580.09
566.05	60114.32
566.21	60236.03
566.38	60289.86
566.54	60245.39
566.70	60395.18
566.87	60331.99
567.03	60083.89
567.19	60334.33
567.36	60385.82
567.52	60334.33
567.68	60484.12
567.85	60411.57
568.01	60556.68
568.17	60507.53
568.34	60486.46
568.50	60439.65
568.66	60212.62
568.83	60514.55
568.99	60278.16
569.15	60626.90
569.32	60528.59
569.48	60348.37
569.64	60640.94
569.81	60575.40
569.97	60200.92
570.13	60715.84
570.30	60449.02
570.46	60470.08
570.62	60729.88
570.78	60582.43
570.95	60643.28
571.11	60708.82
571.27	60589.45
571.43	60446.68
571.60	60638.60
571.76	60762.65
571.92	60823.50
572.09	60647.96
572.25	60729.88
572.41	60573.06
572.57	60797.76
572.74	60788.39
572.90	60605.83
573.06	60804.78
573.22	60760.31
573.38	60633.92
573.55	60537.96
573.71	60959.25
573.87	60645.62
574.03	60451.36
574.20	60715.84
574.36	60776.69
574.52	60781.37
574.68	60746.26
574.84	60879.67
575.01	60839.89
575.17	60846.91
575.33	60842.23
575.49	60793.07
575.65	60842.23
575.82	60867.97
575.98	60828.18
576.14	61176.92
576.30	60825.84
576.46	60776.69
576.62	60800.10
576.79	60919.46
576.95	60638.60
577.11	60942.87
577.27	60926.49
577.43	60959.25
577.59	60788.39
577.75	61106.71
577.92	60725.20
578.08	60858.61
578.24	60692.43
578.40	61020.11
578.56	61036.49
578.72	61055.21
578.88	61090.32
579.04	60994.36
579.21	60963.93
579.37	61006.06
579.53	61048.19
579.69	60821.16
579.85	60741.58
580.01	61186.28
580.17	61022.45
580.33	61003.72
580.49	61036.49
580.65	61057.56
580.82	60919.46
580.98	60919.46
581.14	60886.70
581.30	61148.84
581.46	60907.76
581.62	60963.93
581.78	61045.85
581.94	60776.69
582.10	60994.36
582.26	61120.75
582.42	60961.59
582.58	61048.19
582.74	60963.93
582.90	61186.28
583.06	61146.50
583.22	60886.70
583.38	61240.12
583.54	61148.84
583.70	61116.07
583.86	61155.86
584.02	60863.29
584.18	61190.97
584.34	61069.26
584.50	60734.56
584.66	61031.81
584.82	60640.94
584.98	61043.51
585.14	61013.08
585.30	60987.34
585.46	61057.56
585.62	61172.24
585.78	61134.79
585.94	61036.49
586.10	61073.94
586.26	61181.60
586.42	61048.19
586.58	61307.99
586.74	61209.69
586.90	61116.07
587.06	61087.98
587.22	61029.47
587.38	61181.60
587.54	61258.84
587.70	61322.04
587.86	61118.41
588.02	61113.73
588.18	61179.26
588.34	60907.76
588.49	61031.81
