SpectraSuite Data File
++++++++++++++++++++++++++++++++++++
Date: Fri Oct 25 11:22:50 EDT 2013
User: price-jones
Dark Spectrum Present: No
Reference Spectrum Present: No
Number of Sampled Component Spectra: 1
Spectrometers: USB2+H05261
Integration Time (usec): 100000 (USB2+H05261)
Spectra Averaged: 1 (USB2+H05261)
Boxcar Smoothing: 0 (USB2+H05261)
Correct for Electrical Dark: No (USB2+H05261)
Strobe/Lamp Enabled: No (USB2+H05261)
Correct for Detector Non-linearity: No (USB2+H05261)
Correct for Stray Light: No (USB2+H05261)
Number of Pixels in Processed Spectrum: 2048
>>>>>Begin Processed Spectral Data<<<<<
365.73	217.67
365.92	217.67
366.12	217.67
366.32	131.07
366.52	182.56
366.72	182.56
366.91	112.35
367.11	133.41
367.31	163.84
367.51	133.41
367.70	67.88
367.90	145.11
368.10	128.73
368.30	217.67
368.49	135.75
368.69	194.26
368.89	168.52
369.09	184.90
369.28	147.45
369.48	135.75
369.68	159.16
369.87	184.90
370.07	173.20
370.27	245.76
370.47	358.10
370.66	517.26
370.86	603.86
371.06	615.56
371.25	627.26
371.45	638.97
371.65	667.05
371.84	648.33
372.04	678.76
372.24	727.91
372.44	685.78
372.63	866.00
372.83	781.74
373.03	723.23
373.22	657.69
373.42	720.88
373.62	732.59
373.81	753.65
374.01	751.31
374.21	784.08
374.40	819.19
374.60	898.77
374.79	784.08
374.99	751.31
375.19	809.83
375.38	903.45
375.58	814.51
375.78	887.06
375.97	772.38
376.17	910.47
376.37	922.17
376.56	793.44
376.76	793.44
376.95	837.91
377.15	908.13
377.35	908.13
377.54	835.57
377.74	793.44
377.93	938.55
378.13	954.94
378.33	952.60
378.52	943.24
378.72	994.73
378.91	912.81
379.11	936.21
379.31	990.05
379.50	870.68
379.70	973.66
379.89	1008.77
380.09	940.90
380.28	924.51
380.48	1076.65
380.68	994.73
380.87	947.92
381.07	976.00
381.26	931.53
381.46	997.07
381.65	1008.77
381.85	1020.47
382.04	1022.81
382.24	1067.28
382.43	1029.84
382.63	1104.73
382.83	1074.31
383.02	1086.01
383.22	1118.78
383.41	1027.50
383.61	1111.75
383.80	1111.75
384.00	1053.24
384.19	1100.05
384.39	1116.44
384.58	1184.31
384.78	1074.31
384.97	1149.20
385.17	1095.37
385.36	1121.12
385.56	1186.65
385.75	1144.52
385.95	1217.08
386.14	1196.01
386.34	1156.22
386.53	1179.63
386.72	1188.99
386.92	1282.61
387.11	1275.59
387.31	1329.42
387.50	1254.53
387.70	1259.21
387.89	1277.93
388.09	1301.34
388.28	1296.66
388.48	1296.66
388.67	1247.51
388.86	1291.98
389.06	1362.19
389.25	1336.45
389.45	1331.76
389.64	1352.83
389.84	1413.68
390.03	1423.05
390.22	1313.04
390.42	1322.40
390.61	1376.24
390.81	1455.81
391.00	1369.21
391.19	1423.05
391.39	1437.09
391.58	1444.11
391.78	1481.56
391.97	1430.07
392.16	1446.45
392.36	1460.49
392.55	1497.94
392.75	1528.37
392.94	1568.16
393.13	1617.31
393.33	1448.79
393.52	1523.69
393.71	1636.03
393.91	1511.99
394.10	1488.58
394.29	1591.56
394.49	1589.22
394.68	1657.10
394.88	1750.72
395.07	1610.29
395.26	1645.40
395.46	1621.99
395.65	1736.68
395.84	1694.55
396.04	1802.21
396.23	1722.63
396.42	1734.34
396.62	1701.57
396.81	1774.13
397.00	1905.20
397.19	1834.98
397.39	1795.19
397.58	1851.36
397.77	1849.02
397.97	1909.88
398.16	1921.58
398.35	1872.43
398.55	1912.22
398.74	1825.62
398.93	1912.22
399.12	1865.41
399.32	1860.73
399.51	2092.44
399.70	2057.33
399.90	2054.99
400.09	1968.39
400.28	2047.97
400.47	2073.71
400.67	2132.23
400.86	2162.66
401.05	2012.86
401.24	2108.82
401.44	2092.44
401.63	2083.08
401.82	2263.30
402.01	2232.87
402.21	2282.02
402.40	2242.23
402.59	2148.61
402.78	2221.17
402.97	2225.85
403.17	2235.21
403.36	2314.79
403.55	2249.25
403.74	2436.50
403.93	2389.69
404.13	2293.72
404.32	2368.62
404.51	2368.62
404.70	2387.35
404.89	2478.63
405.09	2408.41
405.28	2370.96
405.47	2502.03
405.66	2499.69
405.85	2558.21
406.05	2581.61
406.24	2551.18
406.43	2581.61
406.62	2572.25
406.81	2640.12
407.00	2595.65
407.20	2649.49
407.39	2588.63
407.58	2712.68
407.77	2726.72
407.96	2799.28
408.15	2768.85
408.34	2740.77
408.54	2867.16
408.73	2813.32
408.92	2949.08
409.11	2925.67
409.30	2883.54
409.49	2960.78
409.68	2876.52
409.87	2862.48
410.07	3005.25
410.26	3023.97
410.45	3052.06
410.64	3148.02
410.83	3141.00
411.02	3056.74
411.21	3253.34
411.40	3073.12
411.59	3267.39
411.78	3297.81
411.98	3281.43
412.17	3283.77
412.36	3269.73
412.55	3335.26
412.74	3466.33
412.93	3363.35
413.12	3552.93
413.31	3501.44
413.50	3463.99
413.69	3550.59
413.88	3630.17
414.07	3674.64
414.26	3576.34
414.45	3733.15
414.64	3637.19
414.83	3824.44
415.02	3751.88
415.22	3934.44
415.41	3885.29
415.60	3901.67
415.79	4009.34
415.98	4025.72
416.17	4021.04
416.36	4093.60
416.55	4016.36
416.74	4177.86
416.93	3962.53
417.12	4107.64
417.31	4187.22
417.50	4147.43
417.69	4374.46
417.88	4329.99
418.07	4180.20
418.26	4358.08
418.45	4418.93
418.64	4514.89
418.83	4395.53
419.02	4344.03
419.21	4404.89
419.39	4589.79
419.58	4582.77
419.77	4409.57
419.96	4524.26
420.15	4620.22
420.34	4596.81
420.53	4643.62
420.72	4664.69
420.91	4781.71
421.10	4812.14
421.29	4905.76
421.48	4777.03
421.67	4819.16
421.86	4861.29
422.05	4821.50
422.24	4891.72
422.43	4908.10
422.61	5046.20
422.80	5053.22
422.99	5029.81
423.18	5011.09
423.37	4975.98
423.56	4868.31
423.75	4931.51
423.94	5123.43
424.13	4615.54
424.32	4760.65
424.50	5085.98
424.69	5097.69
424.88	5160.88
425.07	4938.53
425.26	4858.95
425.45	4891.72
425.64	5025.13
425.83	5203.01
426.01	5242.80
426.20	5156.20
426.39	4990.02
426.58	4992.36
426.77	5121.09
426.96	5116.41
427.15	5088.32
427.33	5198.33
427.52	5146.84
427.71	5446.43
427.90	5242.80
428.09	5423.02
428.28	5411.32
428.46	5413.66
428.65	5465.15
428.84	5621.97
429.03	5650.05
429.22	5343.44
429.40	5313.02
429.59	5582.18
429.78	5266.21
429.97	5341.10
430.16	5453.45
430.34	5806.87
430.53	5650.05
430.72	5750.70
430.91	5731.97
431.10	5668.78
431.28	5638.35
431.47	5774.10
431.66	5872.40
431.85	5919.21
432.03	6026.88
432.22	6179.01
432.41	5959.00
432.60	5989.43
432.79	6181.35
432.97	6064.33
433.16	6045.60
433.35	5937.94
433.54	6167.31
433.72	6118.16
433.91	6239.87
434.10	6122.84
434.28	6176.67
434.47	6282.00
434.66	6272.64
434.85	6232.85
435.03	6331.15
435.22	6429.45
435.41	6427.11
435.59	6356.90
435.78	6607.33
435.97	6722.02
436.16	6623.72
436.34	6506.69
436.53	6506.69
436.72	6752.45
436.90	6558.18
437.09	6609.67
437.28	6534.78
437.46	6590.95
437.65	6773.51
437.84	6815.64
438.02	6684.57
438.21	6827.34
438.40	6754.79
438.58	7250.98
438.77	7059.06
438.96	6932.67
439.14	7358.64
439.33	7197.15
439.52	7295.45
439.70	7318.86
439.89	7318.86
440.08	7538.87
440.26	7452.27
440.45	7508.44
440.63	7609.08
440.82	7740.15
441.01	7426.52
441.19	7665.25
441.38	7889.95
441.57	7920.37
441.75	7906.33
441.94	7967.18
442.12	7978.89
442.31	8009.31
442.50	8126.34
442.68	7981.23
442.87	8236.35
443.05	8224.64
443.24	8219.96
443.43	8327.63
443.61	8175.49
443.80	8479.76
443.98	8091.23
444.17	7997.61
444.35	8313.58
444.54	8439.97
444.73	8475.08
444.91	8196.56
445.10	8437.63
445.28	8489.12
445.47	8369.76
445.65	8308.90
445.84	8559.34
446.02	8669.34
446.21	8517.21
446.39	8407.20
446.58	8435.29
446.77	8549.98
446.95	8297.20
447.14	8528.91
447.32	8617.85
447.51	8542.96
447.69	8592.11
447.88	8557.00
448.06	8798.07
448.25	8748.92
448.43	8779.35
448.62	8833.18
448.80	8645.94
448.99	8643.60
449.17	8781.69
449.36	8566.36
449.54	8856.59
449.73	9018.08
449.91	9139.79
450.10	8933.82
450.28	9114.05
450.46	9048.51
450.65	9202.99
450.83	9151.49
451.02	9226.39
451.20	9111.71
451.39	9259.16
451.57	9221.71
451.76	9060.21
451.94	9446.40
452.13	9490.87
452.31	9500.23
452.49	9128.09
452.68	9565.77
452.86	9415.98
453.05	9430.02
453.23	9446.40
453.42	9399.59
453.60	9406.61
453.78	9610.24
453.97	9408.95
454.15	9458.10
454.34	9743.65
454.52	9778.76
454.70	9900.47
454.89	9832.59
455.07	9671.09
455.26	10022.17
455.44	9940.26
455.62	10115.80
455.81	9977.70
455.99	10239.84
456.17	10080.69
456.36	10244.52
456.54	10361.55
456.73	10384.96
456.91	10434.11
457.09	10441.13
457.28	10504.32
457.46	10148.56
457.64	10843.70
457.83	10504.32
458.01	10471.56
458.19	10820.30
458.38	10686.89
458.56	10766.46
458.74	10532.41
458.93	10530.07
459.11	10700.93
459.29	10745.40
459.48	11052.01
459.66	10902.22
459.84	10942.00
460.03	10977.11
460.21	10918.60
460.39	11044.99
460.57	11131.59
460.76	11218.19
460.94	11185.42
461.12	11307.13
461.31	11073.07
461.49	11269.68
461.67	11265.00
461.85	11487.35
462.04	11187.76
462.22	11999.93
462.40	11793.96
462.59	11421.81
462.77	11548.20
462.95	11723.74
463.13	11576.29
463.32	11754.17
463.50	11934.39
463.68	12140.36
463.86	12091.21
464.05	11829.07
464.23	11810.34
464.41	12002.27
464.59	11733.11
464.78	12159.08
464.96	12079.50
465.14	12077.16
465.32	12121.63
465.50	12241.00
465.69	12238.66
465.87	12084.19
466.05	12308.88
466.23	12226.96
466.41	12301.86
466.60	12645.91
466.78	12409.52
466.96	12147.38
467.14	12332.28
467.32	12475.06
467.51	12599.10
467.69	12381.43
467.87	12596.76
468.05	12606.13
468.23	12634.21
468.41	12549.95
468.60	12643.57
468.78	12844.86
468.96	12559.31
469.14	12732.51
469.32	12994.65
469.50	12685.70
469.69	13046.15
469.87	13102.32
470.05	13191.26
470.23	13088.28
470.41	13303.60
470.59	13462.76
470.77	13081.25
470.95	13383.18
471.14	13610.22
471.32	13268.50
471.50	13937.89
471.68	13757.67
471.86	13790.44
472.04	13841.93
472.22	14073.64
472.40	13659.37
472.58	13958.96
472.77	14106.41
472.95	14029.17
473.13	14712.61
473.31	14342.80
473.49	14293.65
473.67	14352.16
473.85	14441.11
474.03	14532.39
474.21	14665.80
474.39	15023.90
474.57	14808.57
474.75	14834.32
474.93	15105.82
475.12	15098.80
475.30	15412.43
475.48	15407.75
475.66	15323.49
475.84	15131.56
476.02	15578.61
476.20	15562.22
476.38	15955.43
476.56	15878.19
476.74	16170.76
476.92	16163.74
477.10	16032.67
477.28	16348.64
477.46	16336.94
477.64	16339.28
477.82	16549.93
478.00	16816.75
478.18	16779.30
478.36	17088.25
478.54	17355.07
478.72	17397.20
478.90	17565.72
479.08	17874.67
479.26	17877.01
479.44	17738.92
479.62	18038.51
479.80	18359.16
479.98	18115.75
480.16	18836.63
480.34	18576.83
480.52	18796.84
480.70	18934.93
480.88	18487.89
481.06	18986.43
481.24	19316.44
481.41	19269.63
481.59	19585.60
481.77	19218.14
481.95	19721.35
482.13	19892.21
482.31	19913.28
482.49	20402.45
482.67	20421.17
482.85	20482.03
483.03	20961.84
483.21	20868.22
483.39	21235.68
483.57	20798.00
483.74	21158.44
483.92	21766.98
484.10	21439.31
484.28	21750.60
484.46	22059.55
484.64	22113.38
484.82	22019.76
485.00	22534.68
485.18	22902.14
485.35	23145.56
485.53	22946.61
485.71	23026.19
485.89	23690.90
486.07	23831.33
486.25	23204.07
486.43	23859.42
486.61	23892.19
486.78	24329.87
486.96	24250.29
487.14	24631.80
487.32	24652.86
487.50	25092.88
487.68	25315.23
487.85	25678.02
488.03	25993.99
488.21	25919.09
488.39	25834.83
488.57	26246.77
488.75	26253.79
488.92	26635.30
489.10	27091.70
489.28	27239.15
489.46	27484.91
489.64	27257.88
489.81	27796.20
489.99	27800.88
490.17	28058.34
490.35	28481.98
490.53	28304.10
490.70	28704.33
490.88	28648.16
491.06	28746.46
491.24	29010.94
491.41	29113.92
491.59	29237.97
491.77	29549.26
491.95	30064.18
492.13	30073.54
492.30	29902.68
492.48	30036.09
492.66	30333.34
492.84	30630.59
493.01	31075.29
493.19	30817.83
493.37	30874.01
493.54	31311.69
493.72	31723.62
493.90	31482.55
494.08	31861.71
494.25	32238.54
494.43	32355.57
494.61	32287.69
494.79	32830.69
494.96	33024.96
495.14	33174.75
495.32	33624.14
495.49	33476.68
495.67	33635.84
495.85	33460.30
496.02	33979.90
496.20	34195.23
496.38	34190.55
496.55	34522.90
496.73	35138.46
496.91	34705.46
497.09	35225.06
497.26	35283.58
497.44	35477.84
497.62	35468.48
497.79	36245.54
497.97	36432.78
498.14	36098.08
498.32	36549.81
498.50	36535.76
498.67	36790.88
498.85	36884.50
499.03	37298.78
499.20	37205.16
499.38	37148.98
499.56	37301.12
499.73	37528.15
499.91	37818.38
500.08	37572.62
500.26	37963.49
500.44	38204.56
500.61	38466.70
500.79	38026.68
500.97	38562.67
501.14	39023.75
501.32	38916.09
501.49	39370.15
501.67	39285.89
501.84	39491.86
502.02	39147.80
502.20	39019.07
502.37	39693.15
502.55	39655.70
502.72	39789.11
502.90	39950.60
503.07	40041.88
503.25	40289.98
503.43	40355.52
503.60	40486.59
503.78	40486.59
503.95	40629.36
504.13	40746.39
504.30	41207.47
504.48	41177.04
504.65	41310.46
504.83	41343.22
505.01	41521.10
505.18	41757.50
505.36	42342.63
505.53	41577.28
505.71	41696.64
505.88	42330.93
506.06	42213.90
506.23	42115.60
506.41	42419.87
506.58	41902.61
506.76	42607.11
506.93	42670.31
507.11	42487.74
507.28	43007.34
507.46	42878.61
507.63	43789.08
507.81	43915.47
507.98	43089.26
508.16	43672.06
508.33	43536.30
508.50	43784.40
508.68	43384.17
508.85	44617.63
509.03	44215.06
509.20	44591.89
509.38	44713.59
509.55	45085.74
509.73	44870.41
509.90	44982.76
510.08	44516.99
510.25	45048.29
510.42	45141.91
510.60	45467.25
510.77	45621.72
510.95	45418.10
511.12	45570.23
511.30	45610.02
511.47	45399.37
511.64	45900.25
511.82	46185.79
511.99	45888.54
512.17	46490.06
512.34	46040.68
512.51	46621.13
512.69	46754.54
512.86	46557.94
513.04	46742.84
513.21	46939.44
513.38	46974.55
513.56	47700.12
513.73	47236.69
513.90	47545.64
514.08	47477.77
514.25	47601.82
514.43	47735.23
514.60	47608.84
514.77	47777.36
514.95	47978.64
515.12	48083.97
515.29	47988.00
515.47	48275.89
515.64	48383.55
515.81	48289.93
515.99	48584.84
516.16	48966.35
516.33	48795.49
516.51	49233.17
516.68	49059.97
516.85	48846.98
517.03	48921.88
517.20	49055.29
517.37	49066.99
517.54	48971.03
517.72	49366.58
517.89	49661.49
518.06	49661.49
518.24	49336.15
518.41	49673.19
518.58	49762.13
518.75	49778.51
518.93	50199.81
519.10	49813.62
519.27	50019.59
519.45	49764.47
519.62	50253.64
519.79	50419.82
519.96	50536.85
520.14	50504.08
520.31	50380.03
520.48	50639.83
520.65	50733.45
520.83	50899.63
521.00	51192.20
521.17	50976.87
521.34	50916.01
521.52	50848.14
521.69	51227.31
521.86	51358.38
522.03	51428.59
522.20	51639.24
522.38	51854.57
522.55	51833.50
522.72	51161.77
522.89	51636.90
523.07	51957.55
523.24	51875.63
523.41	52179.90
523.58	51913.08
523.75	52296.93
523.92	51669.67
524.10	52296.93
524.27	52060.54
524.44	52369.49
524.61	52301.61
524.78	52264.16
524.96	52584.82
525.13	52502.90
525.30	52514.60
525.47	52849.30
525.64	52884.40
525.81	52772.06
525.98	52996.75
526.16	52844.62
526.33	52959.30
526.50	53116.12
526.67	52963.98
526.84	53226.12
527.01	53064.63
527.18	53303.36
527.36	53179.31
527.53	53343.15
527.70	53860.41
527.87	53495.28
528.04	53333.79
528.21	53820.62
528.38	53680.19
528.55	53724.66
528.72	53654.44
528.89	53787.85
529.07	53839.34
529.24	53696.57
529.41	54005.52
529.58	53666.14
529.75	54115.53
529.92	54370.64
530.09	54316.81
530.26	53902.54
530.43	54361.28
530.60	54167.02
530.77	54410.43
530.94	54504.06
531.11	54436.18
531.28	54281.70
531.46	54504.06
531.63	54384.69
531.80	54335.54
531.97	54749.81
532.14	54906.63
532.31	54553.21
532.48	54773.22
532.65	54974.50
532.82	54745.13
532.99	54932.37
533.16	54726.41
533.33	55089.19
533.50	55356.01
533.67	55042.38
533.84	54979.18
534.01	55412.18
534.18	55171.11
534.35	55341.97
534.52	55290.48
534.69	55503.46
534.86	55564.32
535.03	55470.70
535.20	55632.19
535.37	55585.38
535.54	55800.71
535.71	55519.85
535.88	55606.45
536.05	55760.92
536.22	55856.88
536.38	55955.19
536.55	55739.86
536.72	55964.55
536.89	55796.03
537.06	56140.09
537.23	56114.34
537.40	56002.00
537.57	55875.61
537.74	56123.71
537.91	56355.42
538.08	56196.26
538.25	55793.69
538.42	56002.00
538.59	56514.58
538.75	55997.32
538.92	56161.15
539.09	56371.80
539.26	56339.04
539.43	56217.33
539.60	56608.20
539.77	56556.70
539.94	56643.30
540.11	56598.83
540.28	56631.60
540.44	56718.20
540.61	56809.48
540.78	56708.84
540.95	56680.75
541.12	56718.20
541.29	56732.25
541.46	56961.62
541.62	56779.06
541.79	56886.72
541.96	56481.81
542.13	56844.59
542.30	56952.26
542.47	57153.54
542.63	57038.86
542.80	57038.86
542.97	57247.16
543.14	57312.70
543.31	57392.28
543.48	57502.28
543.64	57776.12
543.81	57499.94
543.98	57579.52
544.15	57584.20
544.32	57521.01
544.48	57769.10
544.65	57705.91
544.82	57771.44
544.99	57385.25
545.16	57574.84
545.32	57605.26
545.49	57900.17
545.66	57841.66
545.83	57785.49
546.00	57970.39
546.16	58108.48
546.33	57822.93
546.50	57726.97
546.67	57954.00
546.83	57605.26
547.00	58019.54
547.17	58078.05
547.34	57951.66
547.50	58148.27
547.67	58087.42
547.84	58101.46
548.00	58417.43
548.17	58422.11
548.34	58506.37
548.51	58396.37
548.67	58478.28
548.84	58379.98
549.01	58405.73
549.18	58260.62
549.34	58319.13
549.51	58616.38
549.68	58686.59
549.84	58599.99
550.01	58468.92
550.18	58405.73
550.34	58714.68
550.51	58738.08
550.68	58628.08
550.84	58562.54
551.01	58759.15
551.18	58794.26
551.34	58618.72
551.51	58822.34
551.68	58670.21
551.84	58705.32
552.01	58766.17
552.18	58932.35
552.34	58880.86
552.51	58969.80
552.68	58820.00
552.84	59253.00
553.01	59105.55
553.18	58932.35
553.34	58897.24
553.51	59084.48
553.67	59206.19
553.84	59257.68
554.01	59068.10
554.17	59152.36
554.34	59093.85
554.51	59131.29
554.67	59194.49
554.84	59257.68
555.00	59250.66
555.17	59054.06
555.33	59159.38
555.50	59203.85
555.67	59229.60
555.83	59276.41
556.00	59253.00
556.16	59674.30
556.33	59384.07
556.50	59475.35
556.66	59639.19
556.83	59245.98
556.99	59576.00
557.16	59711.75
557.32	59758.56
557.49	59671.96
557.65	59583.02
557.82	59377.05
557.98	59505.78
558.15	59650.89
558.32	59749.20
558.48	59515.14
558.65	59653.23
558.81	59585.36
558.98	59793.67
559.14	59643.87
559.31	59639.19
559.47	59798.35
559.64	59990.27
559.80	59749.20
559.97	60037.08
560.13	59772.60
560.30	60023.04
560.46	59840.48
560.63	60093.25
560.79	60009.00
560.96	60177.51
561.12	60191.56
561.29	59983.25
561.45	60151.77
561.61	59941.12
561.78	60046.44
561.94	60186.88
562.11	60163.47
562.27	60161.13
562.44	60266.45
562.60	60334.33
562.77	60193.90
562.93	60058.15
563.10	60292.20
563.26	60278.16
563.42	60481.78
563.59	60207.94
563.75	60032.40
563.92	60212.62
564.08	60406.89
564.24	60327.31
564.41	60378.80
564.57	60484.12
564.74	60285.18
564.90	60495.83
565.07	60128.36
565.23	60247.73
565.39	60350.71
565.56	60523.91
565.72	60470.08
565.88	60324.97
566.05	60463.06
566.21	60343.69
566.38	60409.23
566.54	60474.76
566.70	60493.49
566.87	60544.98
567.03	60535.62
567.19	60748.60
567.36	60402.21
567.52	60441.99
567.68	60605.83
567.85	60470.08
568.01	60781.37
568.17	60577.75
568.34	60697.11
568.50	60530.93
568.66	60385.82
568.83	60640.94
568.99	60673.71
569.15	60537.96
569.32	60680.73
569.48	60678.39
569.64	60718.18
569.81	60584.77
569.97	60589.45
570.13	60853.93
570.30	60659.66
570.46	60870.31
570.62	60701.79
570.78	60746.26
570.95	60528.59
571.11	60643.28
571.27	60779.03
571.43	60720.52
571.60	60949.89
571.76	60832.86
571.92	60809.46
572.09	60954.57
572.25	60734.56
572.41	60650.30
572.57	60989.68
572.74	61057.56
572.90	60891.38
573.06	60835.20
573.22	60753.29
573.38	60938.19
573.55	60879.67
573.71	60985.00
573.87	60935.85
574.03	60706.47
574.20	60928.83
574.36	60839.89
574.52	60851.59
574.68	60973.30
574.84	60896.06
575.01	60956.91
575.17	60858.61
575.33	60980.32
575.49	60757.97
575.65	60886.70
575.82	60804.78
575.98	61090.32
576.14	61300.97
576.30	61029.47
576.46	61041.17
576.62	61008.40
576.79	60783.71
576.95	60772.01
577.11	60992.02
577.27	61106.71
577.43	61017.77
577.59	60933.51
577.75	60959.25
577.92	60874.99
578.08	61024.79
578.24	60994.36
578.40	61127.77
578.56	61120.75
578.72	60945.21
578.88	61064.58
579.04	61062.24
579.21	61102.03
579.37	61148.84
579.53	61132.45
579.69	61052.87
579.85	61186.28
580.01	61270.54
580.17	60996.70
580.33	61111.39
580.49	61062.24
580.65	61256.50
580.82	60825.84
580.98	61008.40
581.14	60926.49
581.30	61174.58
581.46	61155.86
581.62	61345.44
581.78	61090.32
581.94	61190.97
582.10	61069.26
582.26	61064.58
582.42	61312.67
582.58	61146.50
582.74	61193.31
582.90	61036.49
583.06	61066.92
583.22	61064.58
583.38	61158.20
583.54	61254.16
583.70	61190.97
583.86	61071.60
584.02	61200.33
584.18	61240.12
584.34	61153.52
584.50	61263.52
584.66	60940.53
584.82	60800.10
584.98	61240.12
585.14	61174.58
585.30	60968.61
585.46	61228.41
585.62	61200.33
585.78	61244.80
585.94	61286.93
586.10	61291.61
586.26	61361.82
586.42	61413.32
586.58	61485.87
586.74	61254.16
586.90	61275.22
587.06	61195.65
587.22	61233.10
587.38	61343.10
587.54	61373.53
587.70	61406.30
587.86	61214.37
588.02	61249.48
588.18	61460.13
588.34	61230.75
588.49	61265.86
