SpectraSuite Data File
++++++++++++++++++++++++++++++++++++
Date: Fri Oct 25 10:47:18 EDT 2013
User: price-jones
Dark Spectrum Present: No
Reference Spectrum Present: No
Number of Sampled Component Spectra: 1
Spectrometers: USB2+H05261
Integration Time (usec): 100000 (USB2+H05261)
Spectra Averaged: 1 (USB2+H05261)
Boxcar Smoothing: 0 (USB2+H05261)
Correct for Electrical Dark: No (USB2+H05261)
Strobe/Lamp Enabled: No (USB2+H05261)
Correct for Detector Non-linearity: No (USB2+H05261)
Correct for Stray Light: No (USB2+H05261)
Number of Pixels in Processed Spectrum: 2048
>>>>>Begin Processed Spectral Data<<<<<
365.73	140.43
365.92	140.43
366.12	140.43
366.32	63.19
366.52	18.72
366.72	173.20
366.91	0.00
367.11	86.60
367.31	0.00
367.51	0.00
367.70	39.79
367.90	0.00
368.10	30.43
368.30	72.56
368.49	72.56
368.69	16.38
368.89	42.13
369.09	56.17
369.28	142.77
369.48	105.32
369.68	110.01
369.87	30.43
370.07	105.32
370.27	93.62
370.47	173.20
370.66	360.44
370.86	358.10
371.06	463.43
371.25	442.36
371.45	468.11
371.65	449.38
371.84	411.93
372.04	479.81
372.24	486.83
372.44	489.17
372.63	498.53
372.83	575.77
373.03	463.43
373.22	468.11
373.42	514.92
373.62	486.83
373.81	514.92
374.01	517.26
374.21	561.73
374.40	589.82
374.60	653.01
374.79	566.41
374.99	479.81
375.19	566.41
375.38	547.69
375.58	531.30
375.78	561.73
375.97	538.32
376.17	620.24
376.37	540.66
376.56	599.18
376.76	507.90
376.95	564.07
377.15	545.34
377.35	589.82
377.54	620.24
377.74	636.63
377.93	589.82
378.13	620.24
378.33	573.43
378.52	650.67
378.72	594.50
378.91	638.97
379.11	624.92
379.31	585.13
379.50	561.73
379.70	631.94
379.89	667.05
380.09	615.56
380.28	631.94
380.48	653.01
380.68	671.73
380.87	631.94
381.07	613.22
381.26	603.86
381.46	702.16
381.65	627.26
381.85	631.94
382.04	603.86
382.24	671.73
382.43	683.44
382.63	664.71
382.83	589.82
383.02	725.57
383.22	713.86
383.41	608.54
383.61	648.33
383.80	781.74
384.00	720.88
384.19	732.59
384.39	711.52
384.58	798.12
384.78	667.05
384.97	669.39
385.17	765.36
385.36	718.54
385.56	676.41
385.75	758.33
385.95	798.12
386.14	814.51
386.34	676.41
386.53	833.23
386.72	828.55
386.92	770.04
387.11	793.44
387.31	819.19
387.50	784.08
387.70	891.74
387.89	793.44
388.09	833.23
388.28	837.91
388.48	809.83
388.67	856.64
388.86	854.30
389.06	816.85
389.25	844.93
389.45	861.32
389.64	856.64
389.84	873.02
390.03	959.62
390.22	924.51
390.42	849.61
390.61	917.49
390.81	861.32
391.00	987.71
391.19	971.32
391.39	905.79
391.58	997.07
391.78	936.21
391.97	943.24
392.16	905.79
392.36	1025.15
392.55	947.92
392.75	936.21
392.94	854.30
393.13	919.83
393.33	943.24
393.52	987.71
393.71	992.39
393.91	1076.65
394.10	1050.90
394.29	943.24
394.49	976.00
394.68	1046.22
394.88	1034.52
395.07	1177.29
395.26	1107.07
395.46	1069.62
395.65	1055.58
395.84	1039.20
396.04	1233.46
396.23	1097.71
396.42	1086.01
396.62	1142.18
396.81	1121.12
397.00	1086.01
397.19	1064.94
397.39	1125.80
397.58	1123.46
397.77	1142.18
397.97	1151.54
398.16	1324.74
398.35	1345.81
398.55	1181.97
398.74	1324.74
398.93	1348.15
399.12	1224.10
399.32	1261.55
399.51	1228.78
399.70	1284.95
399.90	1320.06
400.09	1390.28
400.28	1341.13
400.47	1282.61
400.67	1348.15
400.86	1331.76
401.05	1334.11
401.24	1397.30
401.44	1390.28
401.63	1345.81
401.82	1441.77
402.01	1357.51
402.21	1441.77
402.40	1561.14
402.59	1416.02
402.78	1399.64
402.97	1486.24
403.17	1430.07
403.36	1380.92
403.55	1455.81
403.74	1528.37
403.93	1647.74
404.13	1696.89
404.32	1514.33
404.51	1600.93
404.70	1612.63
404.89	1605.61
405.09	1678.16
405.28	1558.80
405.47	1612.63
405.66	1682.85
405.85	1757.74
406.05	1645.40
406.24	1703.91
406.43	1783.49
406.62	1802.21
406.81	1785.83
407.00	1753.06
407.20	1727.32
407.39	1685.19
407.58	1792.85
407.77	1802.21
407.96	1858.39
408.15	1834.98
408.34	1856.04
408.54	1949.67
408.73	1954.35
408.92	1881.79
409.11	1921.58
409.30	1970.73
409.49	1928.60
409.68	2052.65
409.87	2047.97
410.07	1994.14
410.26	2033.93
410.45	2054.99
410.64	2019.88
410.83	2099.46
411.02	2141.59
411.21	2165.00
411.40	2094.78
411.59	2139.25
411.78	2118.18
411.98	2209.47
412.17	2174.36
412.36	2200.10
412.55	2349.90
412.74	2366.28
412.93	2487.99
413.12	2214.15
413.31	2455.22
413.50	2298.41
413.69	2370.96
413.88	2436.50
414.07	2361.60
414.26	2424.80
414.45	2499.69
414.64	2431.82
414.83	2504.37
415.02	2436.50
415.22	2703.32
415.41	2642.46
415.60	2558.21
415.79	2724.38
415.98	2832.05
416.17	2771.19
416.36	2761.83
416.55	2736.09
416.74	2759.49
416.93	2764.17
417.12	2789.92
417.31	2768.85
417.50	2808.64
417.69	2841.41
417.88	2853.11
418.07	2937.37
418.26	2944.39
418.45	2944.39
418.64	2963.12
418.83	3091.85
419.02	3038.02
419.21	2995.89
419.39	3180.79
419.58	3049.72
419.77	3080.14
419.96	3077.80
420.15	3180.79
420.34	3194.83
420.53	3150.36
420.72	3290.79
420.91	3251.00
421.10	3169.09
421.29	3243.98
421.48	3218.24
421.67	3243.98
421.86	3236.96
422.05	3194.83
422.24	3220.58
422.43	3318.88
422.61	3281.43
422.80	3272.07
422.99	3375.05
423.18	3337.60
423.37	3508.46
423.56	3309.52
423.75	3300.16
423.94	3330.58
424.13	3173.77
424.32	3218.24
424.50	3440.59
424.69	3421.86
424.88	3520.17
425.07	3485.06
425.26	3365.69
425.45	3307.18
425.64	3262.71
425.83	3494.42
426.01	3459.31
426.20	3363.35
426.39	3346.97
426.58	3351.65
426.77	3433.57
426.96	3370.37
427.15	3550.59
427.33	3517.83
427.52	3478.04
427.71	3524.85
427.90	3576.34
428.09	3660.60
428.28	3522.51
428.46	3616.13
428.65	3602.08
428.84	3721.45
429.03	3700.39
429.22	3501.44
429.40	3672.30
429.59	3681.66
429.78	3506.12
429.97	3424.20
430.16	3552.93
430.34	3749.54
430.53	3719.11
430.72	3751.88
430.91	3742.52
431.10	3754.22
431.28	3822.09
431.47	4002.32
431.66	3887.63
431.85	3941.46
432.03	4105.30
432.22	4023.38
432.41	3934.44
432.60	4070.19
432.79	3901.67
432.97	4161.47
433.16	4077.21
433.35	4011.68
433.54	4028.06
433.72	4053.81
433.91	4180.20
434.10	4121.68
434.28	4161.47
434.47	4175.52
434.66	4217.65
434.85	4388.50
435.03	4205.94
435.22	4369.78
435.41	4334.67
435.59	4344.03
435.78	4280.84
435.97	4397.87
436.16	4325.31
436.34	4367.44
436.53	4414.25
436.72	4461.06
436.90	4428.29
437.09	4411.91
437.28	4430.63
437.46	4585.11
437.65	4346.37
437.84	4524.26
438.02	4585.11
438.21	4416.59
438.40	4425.95
438.58	4732.56
438.77	4823.84
438.96	4545.32
439.14	4868.31
439.33	4898.74
439.52	4828.53
439.70	4903.42
439.89	4908.10
440.08	5078.96
440.26	5069.60
440.45	4997.04
440.63	5139.82
440.82	5032.15
441.01	5118.75
441.19	5149.18
441.38	5102.37
441.57	5210.03
441.75	5268.55
441.94	5254.50
442.12	5205.35
442.31	5444.09
442.50	5441.75
442.68	5556.43
442.87	5416.00
443.05	5432.38
443.24	5633.67
443.43	5455.79
443.61	5451.11
443.80	5774.10
443.98	5313.02
444.17	5270.89
444.35	5535.37
444.54	5771.76
444.73	5617.29
444.91	5558.77
445.10	5547.07
445.28	5535.37
445.47	5603.24
445.65	5476.85
445.84	5504.94
446.02	5701.54
446.21	5729.63
446.39	5657.07
446.58	5762.40
446.77	5804.53
446.95	5703.89
447.14	5614.95
447.32	5860.70
447.51	5689.84
447.69	5713.25
447.88	5671.12
448.06	5731.97
448.25	5664.10
448.43	5947.30
448.62	5841.98
448.80	5687.50
448.99	5837.30
449.17	5940.28
449.36	5727.29
449.54	5872.40
449.73	5902.83
449.91	6113.48
450.10	6146.25
450.28	6237.53
450.46	5994.11
450.65	6083.05
450.83	6080.71
451.02	6171.99
451.20	6202.42
451.39	6169.65
451.57	6160.29
451.76	6087.73
451.94	6190.72
452.13	6200.08
452.31	6104.12
452.49	6179.01
452.68	6253.91
452.86	6265.61
453.05	6368.60
453.23	6368.60
453.42	6279.66
453.60	6162.63
453.78	6328.81
453.97	6389.66
454.15	6253.91
454.34	6249.23
454.52	6794.58
454.70	6532.44
454.89	6820.32
455.07	6473.92
455.26	6726.70
455.44	6691.59
455.62	6487.96
455.81	6642.44
455.99	6726.70
456.17	6593.29
456.36	6616.69
456.54	6890.54
456.73	6918.62
456.91	7117.57
457.09	6871.81
457.28	7119.91
457.46	6895.22
457.64	6965.43
457.83	6979.48
458.01	6951.39
458.19	7052.03
458.38	6869.47
458.56	7288.43
458.74	7162.04
458.93	7040.33
459.11	7201.83
459.29	7169.06
459.48	7138.63
459.66	7318.86
459.84	7241.62
460.03	7449.93
460.21	7342.26
460.39	7363.33
460.57	7375.03
460.76	7302.47
460.94	7290.77
461.12	7653.55
461.31	7384.39
461.49	7510.78
461.67	7328.22
461.85	7496.74
462.04	7559.93
462.22	7864.20
462.40	7686.32
462.59	7597.38
462.77	7735.47
462.95	7798.66
463.13	7707.38
463.32	7765.90
463.50	7793.98
463.68	7793.98
463.86	7742.49
464.05	7644.19
464.23	7777.60
464.41	7840.79
464.59	7915.69
464.78	7962.50
464.96	7772.92
465.14	8018.68
465.32	7967.18
465.50	8081.87
465.69	8004.63
465.87	7922.71
466.05	8063.15
466.23	8098.25
466.41	7903.99
466.60	8081.87
466.78	7971.86
466.96	7880.58
467.14	7990.59
467.32	7927.39
467.51	8297.20
467.69	8063.15
467.87	8187.19
468.05	8353.37
468.23	8390.82
468.41	8152.09
468.60	8126.34
468.78	8365.07
468.96	8187.19
469.14	8397.84
469.32	8608.49
469.50	8163.79
469.69	8449.33
469.87	8636.58
470.05	8489.12
470.23	8617.85
470.41	8547.64
470.59	8599.13
470.77	8674.03
470.95	8814.46
471.14	8781.69
471.32	8538.27
471.50	9114.05
471.68	8872.97
471.86	8924.46
472.04	8872.97
472.22	9116.39
472.40	8889.35
472.58	9186.60
472.77	9085.96
472.95	9177.24
473.13	9572.79
473.31	9312.99
473.49	9198.31
473.67	9397.25
473.85	9397.25
474.03	9366.82
474.21	9504.92
474.39	9640.67
474.57	9509.60
474.75	9792.80
474.93	9745.99
475.12	9640.67
475.30	9870.04
475.48	9825.57
475.66	9844.29
475.84	9912.17
476.02	10040.90
476.20	9949.62
476.38	10286.65
476.56	10370.91
476.74	10420.06
476.92	10293.68
477.10	10406.02
477.28	10656.46
477.46	10590.92
477.64	10890.51
477.82	10764.12
478.00	10899.87
478.18	10951.37
478.36	11061.37
478.54	11063.71
478.72	11183.08
478.90	11286.06
479.08	11169.04
479.26	11480.33
479.44	11272.02
479.62	11786.94
479.80	11763.53
479.98	11765.87
480.16	12107.59
480.34	11971.84
480.52	11995.25
480.70	11967.16
480.88	11880.56
481.06	12030.35
481.24	12077.16
481.41	12453.99
481.59	12573.36
481.77	12634.21
481.95	12472.71
482.13	12992.31
482.31	12697.41
482.49	12973.59
482.67	13015.72
482.85	13301.26
483.03	13319.99
483.21	13397.23
483.39	13355.10
483.57	13582.13
483.74	13600.85
483.92	13870.01
484.10	13598.51
484.28	13874.70
484.46	14335.78
484.64	14415.36
484.82	13961.30
485.00	14218.75
485.18	14572.18
485.35	14490.26
485.53	14459.83
485.71	14757.08
485.89	15077.73
486.07	14799.21
486.25	14902.19
486.43	15101.14
486.61	15274.34
486.78	15136.24
486.96	15264.97
487.14	15604.35
487.32	15700.31
487.50	15784.57
487.68	16119.27
487.85	16446.94
488.03	16304.17
488.21	16266.72
488.39	16688.02
488.57	16535.88
488.75	16575.67
488.92	17013.35
489.10	16945.48
489.28	17336.35
489.46	17366.78
489.64	17216.98
489.81	17738.92
489.99	17493.16
490.17	17970.63
490.35	17965.95
490.53	18080.64
490.70	18305.33
490.88	18150.85
491.06	18146.17
491.24	18389.59
491.41	18405.97
491.59	18118.09
491.77	18668.11
491.95	18822.59
492.13	18920.89
492.30	19271.97
492.48	18815.57
492.66	19208.78
492.84	19391.34
493.01	19552.84
493.19	19335.17
493.37	19793.91
493.54	19793.91
493.72	20233.93
493.90	20238.61
494.08	20666.93
494.25	20559.27
494.43	20437.56
494.61	20587.35
494.79	21029.71
494.96	20449.26
495.14	20886.94
495.32	20793.32
495.49	21109.29
495.67	21338.66
495.85	21277.81
496.02	21626.55
496.20	21528.25
496.38	21572.72
496.55	21656.98
496.73	22155.51
496.91	21724.85
497.09	22115.72
497.26	22094.66
497.44	22356.80
497.62	22427.01
497.79	22625.96
497.97	22272.54
498.14	22808.52
498.32	22988.74
498.50	22965.34
498.67	23424.08
498.85	23110.45
499.03	23314.08
499.20	23510.68
499.38	23576.22
499.56	23447.49
499.73	23613.66
499.91	23723.67
500.08	24084.11
500.26	23740.05
500.44	23814.95
500.61	23690.90
500.79	24266.67
500.97	24304.12
501.14	24444.56
501.32	24561.58
501.49	24142.63
501.67	24669.25
501.84	24512.43
502.02	24554.56
502.20	25137.35
502.37	25076.50
502.55	24833.08
502.72	25139.69
502.90	25481.41
503.07	25060.12
503.25	25376.09
503.43	25287.15
503.60	25558.65
503.78	25305.87
503.95	25371.41
504.13	25731.85
504.30	25652.27
504.48	25853.56
504.65	25935.48
504.83	26223.36
505.01	26103.99
505.18	26150.81
505.36	26408.26
505.53	26288.90
505.71	26696.15
505.88	26836.58
506.06	26333.37
506.23	26806.16
506.41	26696.15
506.58	26941.91
506.76	26808.50
506.93	27215.75
507.11	26773.39
507.28	27517.68
507.46	26913.82
507.63	27204.05
507.81	27344.48
507.98	27185.32
508.16	27587.89
508.33	27686.20
508.50	27690.88
508.68	27590.24
508.85	27826.63
509.03	27889.82
509.20	27831.31
509.38	28041.96
509.55	28023.23
509.73	28212.82
509.90	28158.99
510.08	28194.09
510.25	28442.19
510.42	28535.81
510.60	28608.37
510.77	28725.39
510.95	29165.42
511.12	29118.60
511.30	28842.42
511.47	29064.77
511.64	29237.97
511.82	29390.11
511.99	29001.58
512.17	29390.11
512.34	29521.18
512.51	29497.77
512.69	29614.80
512.86	29532.88
513.04	29916.73
513.21	30000.99
513.38	29867.58
513.56	30087.59
513.73	29731.83
513.90	30485.48
514.08	29937.79
514.25	30008.01
514.43	30293.55
514.60	30387.18
514.77	30342.70
514.95	30525.27
515.12	30829.54
515.29	30597.82
515.47	30707.83
515.64	30813.15
515.81	30855.28
515.99	30471.43
516.16	30803.79
516.33	31206.36
516.51	31026.14
516.68	31246.15
516.85	30815.49
517.03	31164.23
517.20	31236.79
517.37	31709.58
517.54	31611.28
517.72	31204.02
517.89	31342.11
518.06	31501.27
518.24	31651.06
518.41	31253.17
518.58	31487.23
518.75	31908.52
518.93	31941.29
519.10	31938.95
519.27	31976.40
519.45	31756.39
519.62	32004.49
519.79	32297.05
519.96	32378.97
520.14	32561.53
520.31	32458.55
520.48	32252.58
520.65	32566.21
520.83	33167.73
521.00	32701.96
521.17	33001.55
521.34	32591.96
521.52	32627.07
521.69	32837.72
521.86	32882.19
522.03	33184.12
522.20	33359.66
522.38	33132.62
522.55	33528.17
522.72	33876.91
522.89	33319.87
523.07	33785.63
523.24	33172.41
523.41	33542.22
523.58	33706.05
523.75	34019.69
523.92	34235.02
524.10	34108.63
524.27	33860.53
524.44	34192.89
524.61	34405.88
524.78	34242.04
524.96	34410.56
525.13	34185.86
525.30	34382.47
525.47	34455.03
525.64	34520.56
525.81	34670.36
525.98	34448.00
526.16	34520.56
526.33	34607.16
526.50	34859.94
526.67	34686.74
526.84	35049.52
527.01	34775.68
527.18	34686.74
527.36	34904.41
527.53	35105.70
527.70	35246.13
527.87	35093.99
528.04	35239.11
528.21	34920.79
528.38	35328.05
528.55	35440.39
528.72	36041.91
528.89	35679.13
529.07	35665.08
529.24	35480.18
529.41	35693.17
529.58	35597.21
529.75	35517.63
529.92	35515.29
530.09	35847.64
530.26	35861.69
530.43	35922.54
530.60	36018.50
530.77	35931.90
530.94	36196.38
531.11	35707.21
531.28	36435.12
531.46	36315.75
531.63	36460.87
531.80	36198.73
531.97	36217.45
532.14	36559.17
532.31	36308.73
532.48	36577.89
532.65	36875.14
532.82	36357.88
532.99	36587.25
533.16	36341.50
533.33	37041.32
533.50	37195.79
533.67	37113.87
533.84	36950.04
534.01	37139.62
534.18	36982.80
534.35	37247.29
534.52	37280.05
534.69	37308.14
534.86	37500.06
535.03	37570.28
535.20	37532.83
535.37	37649.86
535.54	37647.52
535.71	37399.42
535.88	37715.39
536.05	37612.41
536.22	37916.68
536.38	37493.04
536.55	37567.94
536.72	37965.83
536.89	37390.06
537.06	37673.26
537.23	38099.24
537.40	37722.41
537.57	37565.60
537.74	38312.23
537.91	38176.48
538.08	38330.95
538.25	38129.67
538.42	38469.04
538.59	38356.70
538.75	38045.41
538.92	38108.60
539.09	38499.47
539.26	38162.43
539.43	37993.92
539.60	38632.88
539.77	38415.21
539.94	38696.08
540.11	38445.64
540.28	38401.17
540.44	38850.55
540.61	38986.30
540.78	39075.24
540.95	38876.30
541.12	38700.76
541.29	38501.81
541.46	38660.97
541.62	39051.84
541.79	38888.00
541.96	38508.83
542.13	38611.82
542.30	38990.98
542.47	38822.47
542.63	38934.81
542.80	39138.44
542.97	39709.53
543.14	39768.04
543.31	39707.19
543.48	39484.84
543.64	40051.25
543.81	40154.23
543.98	39861.66
544.15	39674.42
544.32	39761.02
544.48	40048.91
544.65	40142.53
544.82	39611.23
544.99	39770.38
545.16	39821.87
545.32	39629.95
545.49	40219.77
545.66	40339.13
545.83	40194.02
546.00	40067.63
546.16	40165.93
546.33	40114.44
546.50	39854.64
546.67	40210.40
546.83	39871.03
547.00	40479.57
547.17	40390.62
547.34	40112.10
547.50	40500.63
547.67	40458.50
547.84	39931.88
548.00	40643.40
548.17	41062.36
548.34	40751.07
548.51	41179.39
548.67	40718.30
548.84	40947.67
549.01	40772.13
549.18	40737.02
549.34	41109.17
549.51	40830.65
549.68	41120.87
549.84	41053.00
550.01	41310.46
550.18	41228.54
550.34	41083.42
550.51	41167.68
550.68	41120.87
550.84	40727.66
551.01	41422.80
551.18	41071.72
551.34	41422.80
551.51	41467.27
551.68	41523.44
551.84	41542.17
552.01	41287.05
552.18	41277.69
552.34	41027.25
552.51	41357.27
552.68	41722.39
552.84	41659.20
553.01	42059.43
553.18	41902.61
553.34	41710.69
553.51	41277.69
553.67	41675.58
553.84	41858.14
554.01	41844.10
554.17	42298.16
554.34	41956.44
554.51	41872.18
554.67	41893.25
554.84	42021.98
555.00	41993.89
555.17	41750.48
555.33	42234.97
555.50	42066.45
555.67	41907.29
555.83	41872.18
556.00	42281.78
556.16	42548.60
556.33	42237.31
556.50	42349.65
556.66	42639.88
556.83	42019.64
556.99	42220.92
557.16	42515.83
557.32	42689.03
557.49	42827.12
557.65	41909.63
557.82	41823.03
557.98	42073.47
558.15	42274.76
558.32	42883.30
558.48	42864.57
558.65	42452.64
558.81	42913.72
558.98	42710.10
559.14	42820.10
559.31	42204.54
559.47	42752.23
559.64	43243.74
559.80	43079.90
559.97	42635.20
560.13	42602.43
560.30	42553.28
560.46	43047.13
560.63	42714.78
560.79	43014.37
560.96	42939.47
561.12	42342.63
561.29	43014.37
561.45	42761.59
561.61	42806.06
561.78	42717.12
561.94	42857.55
562.11	42946.49
562.27	42642.22
562.44	42546.26
562.60	42625.84
562.77	43459.07
562.93	43093.94
563.10	42843.51
563.26	42693.71
563.42	42763.93
563.59	43047.13
563.75	43070.54
563.92	43377.15
564.08	43159.48
564.24	42845.85
564.41	43000.32
564.57	43360.76
564.74	43613.54
564.90	43196.93
565.07	43058.84
565.23	43447.36
565.39	43002.66
565.56	43604.18
565.72	43040.11
565.88	43430.98
566.05	43264.80
566.21	43576.09
566.38	43264.80
566.54	43299.91
566.70	43999.73
566.87	43524.60
567.03	43714.19
567.19	43739.93
567.36	43522.26
567.52	43484.81
567.68	43145.44
567.85	43131.39
568.01	43700.14
568.17	43175.86
568.34	43875.68
568.50	43140.75
568.66	43274.16
568.83	43468.43
568.99	43262.46
569.15	43199.27
569.32	43234.38
569.48	43550.35
569.64	43555.03
569.81	43688.44
569.97	43466.09
570.13	43775.04
570.30	43466.09
570.46	43433.32
570.62	43206.29
570.78	43372.47
570.95	43119.69
571.11	43639.29
571.27	43557.37
571.43	43576.09
571.60	43503.54
571.76	43636.95
571.92	43393.53
572.09	43475.45
572.25	43229.69
572.41	43613.54
572.57	43580.78
572.74	43948.24
572.90	43803.13
573.06	43374.81
573.22	43402.89
573.38	43866.32
573.55	44048.88
573.71	43810.15
573.87	43580.78
574.03	43461.41
574.20	43590.14
574.36	43538.65
574.52	43749.29
574.68	44062.93
574.84	43810.15
575.01	43473.11
575.17	43353.74
575.33	43681.42
575.49	43751.63
575.65	43892.07
575.82	44156.55
575.98	44002.07
576.14	44184.63
576.30	44130.80
576.46	43475.45
576.62	43449.70
576.79	43753.97
576.95	43386.51
577.11	43627.59
577.27	44198.68
577.43	44121.44
577.59	43775.04
577.75	43674.40
577.92	43920.15
578.08	43889.73
578.24	44027.82
578.40	43562.05
578.56	44212.72
578.72	44048.88
578.88	44130.80
579.04	43997.39
579.21	43859.30
579.37	43824.19
579.53	43952.92
579.69	43323.32
579.85	44011.43
580.01	44002.07
580.17	44013.77
580.33	43936.54
580.49	44076.97
580.65	43934.20
580.82	44280.60
580.98	43835.89
581.14	43622.90
581.30	43985.69
581.46	43810.15
581.62	44074.63
581.78	43896.75
581.94	44203.36
582.10	44519.33
582.26	43966.96
582.42	43704.82
582.58	43896.75
582.74	43985.69
582.90	43508.22
583.06	44142.50
583.22	44170.59
583.38	44664.44
583.54	43704.82
583.70	44128.46
583.86	43988.03
584.02	43540.99
584.18	44194.00
584.34	44086.33
584.50	44034.84
584.66	43871.00
584.82	43906.11
584.98	44383.58
585.14	44203.36
585.30	43744.61
585.46	44184.63
585.62	43866.32
585.78	44259.53
585.94	43796.10
586.10	43730.57
586.26	43833.55
586.42	44383.58
586.58	44088.67
586.74	43896.75
586.90	44114.42
587.06	44172.93
587.22	44231.44
587.38	43480.13
587.54	44596.57
587.70	44369.54
587.86	44163.57
588.02	43847.60
588.18	44392.94
588.34	43952.92
588.49	43814.83
588.65	43768.02
588.81	43604.18
588.97	43845.26
589.13	43896.75
589.29	43758.66
589.45	44219.74
589.61	44509.97
589.77	44282.94
589.93	44465.50
590.08	44285.28
590.24	44219.74
590.40	44313.36
