SpectraSuite Data File
++++++++++++++++++++++++++++++++++++
Date: Fri Oct 25 10:46:53 EDT 2013
User: price-jones
Dark Spectrum Present: No
Reference Spectrum Present: No
Number of Sampled Component Spectra: 1
Spectrometers: USB2+H05261
Integration Time (usec): 100000 (USB2+H05261)
Spectra Averaged: 1 (USB2+H05261)
Boxcar Smoothing: 0 (USB2+H05261)
Correct for Electrical Dark: No (USB2+H05261)
Strobe/Lamp Enabled: No (USB2+H05261)
Correct for Detector Non-linearity: No (USB2+H05261)
Correct for Stray Light: No (USB2+H05261)
Number of Pixels in Processed Spectrum: 2048
>>>>>Begin Processed Spectral Data<<<<<
365.73	131.07
365.92	131.07
366.12	131.07
366.32	23.41
366.52	32.77
366.72	72.56
366.91	0.00
367.11	32.77
367.31	32.77
367.51	39.79
367.70	21.06
367.90	25.75
368.10	35.11
368.30	18.72
368.49	0.00
368.69	0.00
368.89	21.06
369.09	51.49
369.28	14.04
369.48	105.32
369.68	74.90
369.87	131.07
370.07	93.62
370.27	117.03
370.47	163.84
370.66	332.36
370.86	461.09
371.06	512.58
371.25	540.66
371.45	362.78
371.65	458.74
371.84	500.87
372.04	425.98
372.24	437.68
372.44	454.06
372.63	517.26
372.83	564.07
373.03	514.92
373.22	517.26
373.42	496.19
373.62	447.04
373.81	503.22
374.01	599.18
374.21	575.77
374.40	505.56
374.60	566.41
374.79	589.82
374.99	568.75
375.19	547.69
375.38	552.37
375.58	533.64
375.78	561.73
375.97	552.37
376.17	496.19
376.37	636.63
376.56	645.99
376.76	685.78
376.95	615.56
377.15	596.84
377.35	608.54
377.54	685.78
377.74	613.22
377.93	718.54
378.13	695.14
378.33	674.07
378.52	681.10
378.72	692.80
378.91	706.84
379.11	648.33
379.31	690.46
379.50	706.84
379.70	629.60
379.89	613.22
380.09	657.69
380.28	685.78
380.48	657.69
380.68	669.39
380.87	678.76
381.07	634.29
381.26	741.95
381.46	643.65
381.65	770.04
381.85	657.69
382.04	730.25
382.24	653.01
382.43	720.88
382.63	730.25
382.83	709.18
383.02	748.97
383.22	791.10
383.41	744.29
383.61	615.56
383.80	816.85
384.00	795.78
384.19	760.67
384.39	837.91
384.58	823.87
384.78	805.14
384.97	788.76
385.17	837.91
385.36	847.27
385.56	819.19
385.75	814.51
385.95	847.27
386.14	898.77
386.34	779.40
386.53	732.59
386.72	798.12
386.92	847.27
387.11	830.89
387.31	875.36
387.50	828.55
387.70	826.21
387.89	854.30
388.09	823.87
388.28	873.02
388.48	945.58
388.67	901.11
388.86	908.13
389.06	901.11
389.25	938.55
389.45	940.90
389.64	943.24
389.84	1011.11
390.03	1006.43
390.22	994.73
390.42	1104.73
390.61	1008.77
390.81	959.62
391.00	1013.45
391.19	1036.86
391.39	1074.31
391.58	1008.77
391.78	994.73
391.97	1041.54
392.16	931.53
392.36	1081.33
392.55	1004.09
392.75	1081.33
392.94	1013.45
393.13	978.34
393.33	1048.56
393.52	1057.92
393.71	1043.88
393.91	1097.71
394.10	1144.52
394.29	1050.90
394.49	1121.12
394.68	1179.63
394.88	1156.22
395.07	1221.76
395.26	1217.08
395.46	1198.35
395.65	1210.06
395.84	1240.48
396.04	1205.38
396.23	1167.93
396.42	1165.59
396.62	1172.61
396.81	1245.16
397.00	1174.95
397.19	1350.49
397.39	1320.06
397.58	1455.81
397.77	1327.08
397.97	1385.60
398.16	1425.39
398.35	1437.09
398.55	1394.96
398.74	1355.17
398.93	1483.90
399.12	1427.73
399.32	1495.60
399.51	1411.34
399.70	1535.39
399.90	1563.48
400.09	1589.22
400.28	1509.65
400.47	1586.88
400.67	1596.25
400.86	1607.95
401.05	1547.09
401.24	1671.14
401.44	1668.80
401.63	1603.27
401.82	1717.95
402.01	1577.52
402.21	1743.70
402.40	1685.19
402.59	1778.81
402.78	1657.10
402.97	1797.53
403.17	1680.50
403.36	1717.95
403.55	1769.44
403.74	1832.64
403.93	1804.55
404.13	1809.23
404.32	1750.72
404.51	1778.81
404.70	1926.26
404.89	1853.70
405.09	1912.22
405.28	1830.30
405.47	1816.26
405.66	1846.68
405.85	1879.45
406.05	1937.96
406.24	2031.58
406.43	1940.30
406.62	1977.75
406.81	2008.18
407.00	2017.54
407.20	2017.54
407.39	2019.88
407.58	2104.14
407.77	2122.87
407.96	2132.23
408.15	2141.59
408.34	2218.83
408.54	2298.41
408.73	2132.23
408.92	2230.53
409.11	2214.15
409.30	2279.68
409.49	2172.02
409.68	2260.96
409.87	2333.51
410.07	2246.91
410.26	2420.11
410.45	2270.32
410.64	2293.72
410.83	2413.09
411.02	2392.03
411.21	2520.76
411.40	2445.86
411.59	2583.95
411.78	2396.71
411.98	2548.84
412.17	2612.04
412.36	2574.59
412.55	2609.70
412.74	2698.64
412.93	2700.98
413.12	2600.34
413.31	2672.89
413.50	2778.22
413.69	2747.79
413.88	2794.60
414.07	2773.53
414.26	2787.58
414.45	2780.56
414.64	2876.52
414.83	2895.24
415.02	3052.06
415.22	2930.35
415.41	3066.10
415.60	3005.25
415.79	2995.89
415.98	3059.08
416.17	3059.08
416.36	3255.69
416.55	3129.30
416.74	3166.74
416.93	3276.75
417.12	3222.92
417.31	3213.56
417.50	3346.97
417.69	3419.52
417.88	3361.01
418.07	3426.54
418.26	3283.77
418.45	3396.12
418.64	3637.19
418.83	3297.81
419.02	3527.19
419.21	3543.57
419.39	3433.57
419.58	3449.95
419.77	3419.52
419.96	3447.61
420.15	3571.66
420.34	3723.79
420.53	3641.87
420.72	3681.66
420.91	3641.87
421.10	3719.11
421.29	3772.94
421.48	3623.15
421.67	3798.69
421.86	3686.34
422.05	3770.60
422.24	3585.70
422.43	3691.02
422.61	3782.31
422.80	3789.33
422.99	3749.54
423.18	3831.46
423.37	3950.82
423.56	3859.54
423.75	3889.97
423.94	3719.11
424.13	3524.85
424.32	3651.24
424.50	3925.08
424.69	3936.78
424.88	3908.69
425.07	3812.73
425.26	3726.13
425.45	3815.07
425.64	3817.41
425.83	3875.93
426.01	4002.32
426.20	3911.04
426.39	3817.41
426.58	3906.35
426.77	3920.40
426.96	3852.52
427.15	3943.80
427.33	3894.65
427.52	3899.33
427.71	4007.00
427.90	4152.11
428.09	4098.28
428.28	3971.89
428.46	4163.81
428.65	4049.13
428.84	4077.21
429.03	4189.56
429.22	4154.45
429.40	4100.62
429.59	4028.06
429.78	3845.50
429.97	3969.55
430.16	4004.66
430.34	4046.79
430.53	4219.99
430.72	4273.82
430.91	4212.96
431.10	4217.65
431.28	4337.01
431.47	4449.36
431.66	4606.17
431.85	4337.01
432.03	4580.43
432.22	4557.02
432.41	4547.66
432.60	4484.47
432.79	4582.77
432.97	4554.68
433.16	4582.77
433.35	4517.23
433.54	4547.66
433.72	4535.96
433.91	4662.35
434.10	4645.96
434.28	4648.30
434.47	4727.88
434.66	4851.93
434.85	4704.48
435.03	4873.00
435.22	4823.84
435.41	4833.21
435.59	4912.78
435.78	4954.91
435.97	4894.06
436.16	4835.55
436.34	5071.94
436.53	4950.23
436.72	4999.38
436.90	4966.62
437.09	5018.11
437.28	4947.89
437.46	5118.75
437.65	5167.90
437.84	5060.24
438.02	5046.20
438.21	5104.71
438.40	5032.15
438.58	5338.76
438.77	5301.31
438.96	5336.42
439.14	5282.59
439.33	5483.88
439.52	5514.30
439.70	5540.05
439.89	5488.56
440.08	5650.05
440.26	5563.45
440.45	5455.79
440.63	5729.63
440.82	5741.33
441.01	5879.43
441.19	5809.21
441.38	5921.56
441.57	5921.56
441.75	5989.43
441.94	6071.35
442.12	6186.04
442.31	6164.97
442.50	6125.18
442.68	6267.95
442.87	6090.07
443.05	6190.72
443.24	6291.36
443.43	6434.13
443.61	6160.29
443.80	6340.51
443.98	6242.21
444.17	6097.10
444.35	6349.87
444.54	6321.79
444.73	6225.82
444.91	6417.75
445.10	6368.60
445.28	6274.98
445.47	6516.05
445.65	6277.32
445.84	6436.47
446.02	6427.11
446.21	6340.51
446.39	6293.70
446.58	6466.90
446.77	6473.92
446.95	6310.08
447.14	6431.79
447.32	6628.40
447.51	6560.52
447.69	6333.49
447.88	6487.96
448.06	6424.77
448.25	6600.31
448.43	6539.46
448.62	6668.19
448.80	6558.18
448.99	6576.91
449.17	6565.20
449.36	6675.21
449.54	6825.00
449.73	6874.15
449.91	6740.74
450.10	6995.86
450.28	7033.31
450.46	7012.24
450.65	6979.48
450.83	7077.78
451.02	7077.78
451.20	7030.97
451.39	7143.32
451.57	7014.59
451.76	6953.73
451.94	7026.29
452.13	7066.08
452.31	6944.37
452.49	6913.94
452.68	7166.72
452.86	7035.65
453.05	6925.65
453.23	6932.67
453.42	6895.22
453.60	7239.28
453.78	7314.17
453.97	7026.29
454.15	7314.17
454.34	7180.76
454.52	7424.18
454.70	7485.03
454.89	7297.79
455.07	7370.35
455.26	7307.15
455.44	7372.69
455.62	7412.48
455.81	7454.61
455.99	7613.76
456.17	7796.32
456.36	7569.29
456.54	7721.43
456.73	7737.81
456.91	7894.63
457.09	7779.94
457.28	7997.61
457.46	7833.77
457.64	7985.91
457.83	7822.07
458.01	7768.24
458.19	7988.25
458.38	8114.64
458.56	7887.61
458.74	7974.21
458.93	8042.08
459.11	8070.17
459.29	7950.80
459.48	7889.95
459.66	8088.89
459.84	8280.82
460.03	8278.47
460.21	8250.39
460.39	8304.22
460.57	8294.86
460.76	8383.80
460.94	8486.78
461.12	8292.52
461.31	8638.92
461.49	8533.59
461.67	8500.83
461.85	8641.26
462.04	8416.57
462.22	8830.84
462.40	8683.39
462.59	8634.24
462.77	8638.92
462.95	8627.21
463.13	8601.47
463.32	8751.26
463.50	8844.88
463.68	8692.75
463.86	8795.73
464.05	8737.22
464.23	8589.77
464.41	8798.07
464.59	8622.53
464.78	8959.57
464.96	8870.63
465.14	8861.27
465.32	8924.46
465.50	9156.18
465.69	9008.72
465.87	8887.01
466.05	9039.15
466.23	9039.15
466.41	8954.89
466.60	9226.39
466.78	8959.57
466.96	9130.43
467.14	8891.70
467.32	9238.09
467.51	9338.74
467.69	9027.45
467.87	9055.53
468.05	9263.84
468.23	9263.84
468.41	9114.05
468.60	9226.39
468.78	9334.06
468.96	9298.95
469.14	9551.73
469.32	9563.43
469.50	9217.03
469.69	9483.85
469.87	9556.41
470.05	9809.19
470.23	9682.80
470.41	9547.05
470.59	9645.35
470.77	9554.07
470.95	9680.46
471.14	9851.31
471.32	9521.30
471.50	9977.70
471.68	10031.54
471.86	10122.82
472.04	10068.98
472.22	10310.06
472.40	9973.02
472.58	10141.54
472.77	10162.61
472.95	10237.50
473.13	10628.37
473.31	10094.73
473.49	10235.16
473.67	10370.91
473.85	10361.55
474.03	10806.25
474.21	10689.23
474.39	10747.74
474.57	10782.85
474.75	10892.85
474.93	11016.90
475.12	11063.71
475.30	11075.42
475.48	10953.71
475.66	11077.76
475.84	11040.31
476.02	11091.80
476.20	11063.71
476.38	11286.06
476.56	11686.29
476.74	11459.26
476.92	11456.92
477.10	11562.25
477.28	11845.45
477.46	11850.13
477.64	12112.27
477.82	12084.19
478.00	12077.16
478.18	12173.13
478.36	12224.62
478.54	12187.17
478.72	12521.87
478.90	12620.17
479.08	12662.30
479.26	13076.57
479.44	12837.84
479.62	12807.41
479.80	13032.10
479.98	12961.89
480.16	13062.53
480.34	13315.31
480.52	13490.85
480.70	13476.80
480.88	13238.07
481.06	13413.61
481.24	13624.26
481.41	13984.70
481.59	14087.68
481.77	14019.81
481.95	14183.65
482.13	14345.14
482.31	14249.18
482.49	14504.30
482.67	14478.55
482.85	14497.28
483.03	14972.41
483.21	15023.90
483.39	14956.02
483.57	15051.99
483.74	15147.95
483.92	15110.50
484.10	15365.62
484.28	15477.96
484.46	15583.29
484.64	16107.57
484.82	15653.50
485.00	15819.68
485.18	15999.90
485.35	16091.18
485.53	16046.71
485.71	15957.77
485.89	16299.49
486.07	16121.61
486.25	16556.95
486.43	16507.80
486.61	16608.44
486.78	17015.69
486.96	17041.44
487.14	17376.14
487.32	17497.84
487.50	17418.27
487.68	17905.10
487.85	18012.76
488.03	18043.19
488.21	18338.10
488.39	17975.31
488.57	18476.19
488.75	18665.77
488.92	18665.77
489.10	18998.13
489.28	18853.02
489.46	19215.80
489.64	19227.50
489.81	19768.16
489.99	19627.73
490.17	19723.69
490.35	19831.36
490.53	19735.40
490.70	19585.60
490.88	20341.60
491.06	20531.18
491.24	20311.17
491.41	20425.86
491.59	20329.89
491.77	20280.74
491.95	20823.75
492.13	20929.07
492.30	20971.20
492.48	21193.55
492.66	21338.66
492.84	21303.56
493.01	21577.40
493.19	21699.11
493.37	21900.39
493.54	21926.14
493.72	22104.02
493.90	21977.63
494.08	22324.03
494.25	22614.26
494.43	22494.89
494.61	22871.72
494.79	22988.74
494.96	23152.58
495.14	22707.88
495.32	23349.18
495.49	23524.72
495.67	23431.10
495.85	23742.39
496.02	23997.51
496.20	23793.89
496.38	24056.03
496.55	24081.77
496.73	24493.71
496.91	24201.14
497.09	24233.91
497.26	24573.28
497.44	24723.08
497.62	24334.55
497.79	24563.92
497.97	24519.45
498.14	25380.77
498.32	24980.54
498.50	25235.66
498.67	25390.13
498.85	25294.17
499.03	25961.22
499.20	25612.48
499.38	25926.11
499.56	25516.52
499.73	25993.99
499.91	25832.49
500.08	26071.23
500.26	25965.90
500.44	26277.19
500.61	25954.20
500.79	26328.69
500.97	26354.43
501.14	26717.22
501.32	26614.23
501.49	26721.90
501.67	26309.96
501.84	27005.10
502.02	26752.32
502.20	27122.13
502.37	27353.84
502.55	27435.76
502.72	27754.07
502.90	27606.62
503.07	27653.43
503.25	27552.79
503.43	27566.83
503.60	27770.46
503.78	27742.37
503.95	27625.34
504.13	27835.99
504.30	28168.35
504.48	28158.99
504.65	28287.71
504.83	28540.49
505.01	28535.81
505.18	29111.58
505.36	29024.98
505.53	29020.30
505.71	29041.37
505.88	28940.72
506.06	28882.21
506.23	29275.42
506.41	29060.09
506.58	29064.77
506.76	28978.17
506.93	29483.73
507.11	29631.18
507.28	29797.36
507.46	29439.26
507.63	29486.07
507.81	29916.73
507.98	29912.05
508.16	29916.73
508.33	30064.18
508.50	30260.79
508.68	30143.76
508.85	30501.86
509.03	30422.28
509.20	30628.25
509.38	30866.98
509.55	30855.28
509.73	30764.00
509.90	30981.67
510.08	30885.71
510.25	31021.46
510.42	31349.14
510.60	31105.72
510.77	31229.77
510.95	31805.54
511.12	31393.61
511.30	31316.37
511.47	31578.51
511.64	31945.97
511.82	32165.98
511.99	31887.46
512.17	31964.70
512.34	31435.74
512.51	32037.25
512.69	31969.38
512.86	31957.67
513.04	32737.07
513.21	32074.70
513.38	32498.34
513.56	32638.77
513.73	32133.21
513.90	32734.73
514.08	32458.55
514.25	32641.11
514.43	32587.28
514.60	32570.90
514.77	33106.88
514.95	33134.96
515.12	33153.69
515.29	33137.30
515.47	33804.36
515.64	33111.56
515.81	32821.33
515.99	33436.89
516.16	33509.45
516.33	33364.34
516.51	33507.11
516.68	33064.75
516.85	32788.56
517.03	33406.47
517.20	33565.62
517.37	33546.90
517.54	34202.25
517.72	34141.39
517.89	33560.94
518.06	33558.60
518.24	34251.40
518.41	33769.25
518.58	34471.41
518.75	34267.78
518.93	34443.32
519.10	34129.69
519.27	34473.75
519.45	34562.69
519.62	35007.39
519.79	34691.42
519.96	34838.87
520.14	35276.55
520.31	35040.16
520.48	35037.82
520.65	35037.82
520.83	35541.03
521.00	35512.95
521.17	35639.34
521.34	35489.54
521.52	36187.02
521.69	35496.56
521.86	35962.33
522.03	35498.91
522.20	35667.42
522.38	35803.17
522.55	36084.04
522.72	35615.93
522.89	35885.09
523.07	36219.79
523.24	35833.60
523.41	36734.71
523.58	35988.08
523.75	36706.62
523.92	36786.20
524.10	36835.35
524.27	36865.78
524.44	36765.14
524.61	37167.71
524.78	37003.87
524.96	37067.06
525.13	37151.32
525.30	37490.70
525.47	37766.88
525.64	36870.46
525.81	37186.43
525.98	37275.37
526.16	37034.30
526.33	36884.50
526.50	37521.13
526.67	36779.18
526.84	37230.90
527.01	37008.55
527.18	37460.27
527.36	37752.84
527.53	37514.11
527.70	38380.10
527.87	37930.72
528.04	37926.04
528.21	37811.35
528.38	37965.83
528.55	37921.36
528.72	38412.87
528.89	38604.80
529.07	37928.38
529.24	38377.76
529.41	38347.34
529.58	38270.10
529.75	38330.95
529.92	38733.53
530.09	38490.11
530.26	38773.31
530.43	38866.94
530.60	38806.08
530.77	38834.17
530.94	38864.60
531.11	38731.18
531.28	38738.21
531.46	39061.20
531.63	39742.30
531.80	38845.87
531.97	39007.37
532.14	39112.69
532.31	38827.15
532.48	38911.41
532.65	39426.32
532.82	39220.36
532.99	39590.16
533.16	39194.61
533.33	39098.65
533.50	39241.42
533.67	39941.24
533.84	39583.14
534.01	39700.17
534.18	39400.58
534.35	39868.69
534.52	40069.97
534.69	40116.78
534.86	40659.79
535.03	39927.20
535.20	40112.10
535.37	40851.71
535.54	40795.54
535.71	40435.10
535.88	39981.03
536.05	40477.22
536.22	40493.61
536.38	40545.10
536.55	40521.69
536.72	40549.78
536.89	40280.62
537.06	40505.31
537.23	41029.59
537.40	40809.58
537.57	40432.75
537.74	40849.37
537.91	40987.46
538.08	41010.87
538.25	40549.78
538.42	40884.48
538.59	40882.14
538.75	40847.03
538.92	40863.41
539.09	41074.06
539.26	40957.03
539.43	41303.43
539.60	40966.40
539.77	41146.62
539.94	41130.23
540.11	41235.56
540.28	40877.46
540.44	41214.49
540.61	41235.56
540.78	41078.74
540.95	41317.48
541.12	41397.06
541.29	41155.98
541.46	41359.61
541.62	41579.62
541.79	42014.96
541.96	41186.41
542.13	41268.33
542.30	41617.07
542.47	41769.20
542.63	41588.98
542.80	42061.77
542.97	42066.45
543.14	42284.12
543.31	42012.62
543.48	42459.66
543.64	42658.60
543.81	42674.99
543.98	42190.50
544.15	42478.38
544.32	42656.26
544.48	42609.45
544.65	42426.89
544.82	42506.47
544.99	42403.49
545.16	42696.05
545.32	42307.52
545.49	42415.19
545.66	43189.91
545.83	42700.73
546.00	42642.22
546.16	42895.00
546.33	42983.94
546.50	42745.20
546.67	42838.83
546.83	42359.02
547.00	42735.84
547.17	43014.37
547.34	42644.56
547.50	43072.88
547.67	43213.31
547.84	43147.78
548.00	43819.51
548.17	43672.06
548.34	43482.47
548.51	43402.89
548.67	43536.30
548.84	43765.68
549.01	43662.69
549.18	43115.01
549.34	43629.93
549.51	43494.18
549.68	43835.89
549.84	43629.93
550.01	44112.08
550.18	43746.95
550.34	43807.81
550.51	43419.28
550.68	43868.66
550.84	43274.16
551.01	43803.13
551.18	43578.43
551.34	43590.14
551.51	44311.02
551.68	43803.13
551.84	44388.26
552.01	43908.45
552.18	44055.90
552.34	43981.01
552.51	44287.62
552.68	44170.59
552.84	44898.50
553.01	44308.68
553.18	44025.48
553.34	44254.85
553.51	44126.12
553.67	44102.71
553.84	44669.12
554.01	44648.06
554.17	44154.21
554.34	44535.71
554.51	44182.29
554.67	44231.44
554.84	44545.08
555.00	44343.79
555.17	44456.14
555.33	44842.32
555.50	44575.50
555.67	44296.98
555.83	44095.69
556.00	44399.96
556.16	44776.79
556.33	44535.71
556.50	44755.72
556.66	44376.56
556.83	44037.18
556.99	45017.86
557.16	45038.93
557.32	44872.75
557.49	45111.49
557.65	44690.19
557.82	44889.13
557.98	44626.99
558.15	44893.82
558.32	45125.53
558.48	44914.88
558.65	44715.93
558.81	44772.11
558.98	44746.36
559.14	44814.24
559.31	45153.62
559.47	45071.70
559.64	45511.72
559.80	45083.40
559.97	45340.86
560.13	45020.20
560.30	44844.66
560.46	45261.28
560.63	45521.08
560.79	45432.14
560.96	45497.67
561.12	45317.45
561.29	45090.42
561.45	45359.58
561.61	45336.18
561.78	44898.50
561.94	45422.78
562.11	45336.18
562.27	45324.47
562.44	45359.58
562.60	45170.00
562.77	45490.65
562.93	45514.06
563.10	45635.77
563.26	44882.11
563.42	45170.00
563.59	45485.97
563.75	45127.87
563.92	45565.55
564.08	45319.79
564.24	45434.48
564.41	45450.86
564.57	45296.39
564.74	45469.59
564.90	45507.04
565.07	45797.26
565.23	45303.41
565.39	45691.94
565.56	45684.92
565.72	45441.50
565.88	45591.30
566.05	45132.55
566.21	45546.82
566.38	45659.17
566.54	45556.19
566.70	45792.58
566.87	46073.45
567.03	45741.09
567.19	45970.46
567.36	45572.57
567.52	45890.88
567.68	45584.27
567.85	45198.09
568.01	45734.07
568.17	45474.27
568.34	45902.59
568.50	45731.73
568.66	45350.22
568.83	45963.44
568.99	45617.04
569.15	45881.52
569.32	45560.87
569.48	45427.46
569.64	45874.50
569.81	45794.92
569.97	45530.44
570.13	45986.85
570.30	45296.39
570.46	45724.71
570.62	45556.19
570.78	45689.60
570.95	45408.73
571.11	45759.81
571.27	45221.49
571.43	45839.39
571.60	45551.51
571.76	45551.51
571.92	45661.51
572.09	45942.38
572.25	45427.46
572.41	45724.71
572.57	45914.29
572.74	46071.10
572.90	45942.38
573.06	46017.27
573.22	45881.52
573.38	45900.25
573.55	45890.88
573.71	46370.69
573.87	45654.49
574.03	45530.44
574.20	45991.53
574.36	45441.50
574.52	46153.02
574.68	45844.07
574.84	46052.38
575.01	46314.52
575.17	45984.51
575.33	45497.67
575.49	45804.28
575.65	45991.53
575.82	46211.54
575.98	45801.94
576.14	46429.21
576.30	46087.49
576.46	46169.41
576.62	45525.76
576.79	45743.43
576.95	45677.90
577.11	45853.44
577.27	46206.86
577.43	45743.43
577.59	46190.47
577.75	45621.72
577.92	45720.02
578.08	45827.69
578.24	46106.21
578.40	45895.56
578.56	45858.12
578.72	45825.35
578.88	46096.85
579.04	46171.75
579.21	46160.05
579.37	46272.39
579.53	46085.15
579.69	45504.70
579.85	45818.33
580.01	46019.61
580.17	45432.14
580.33	45930.67
580.49	46218.56
580.65	46143.66
580.82	46113.23
580.98	46321.54
581.14	46085.15
581.30	46726.46
581.46	46314.52
581.62	46593.04
581.78	46141.32
581.94	46532.19
582.10	46096.85
582.26	46731.14
582.42	45766.84
582.58	45972.80
582.74	45865.14
582.90	45839.39
583.06	45869.82
583.22	46117.92
583.38	46387.08
583.54	46483.04
583.70	46012.59
583.86	46253.67
584.02	46099.19
584.18	46078.13
584.34	45769.18
584.50	46202.18
584.66	46000.89
584.82	46099.19
584.98	45813.65
585.14	46307.50
585.30	45750.45
585.46	46248.99
585.62	46183.45
585.78	45844.07
585.94	46117.92
586.10	46052.38
586.26	46361.33
586.42	46188.13
586.58	46326.22
586.74	45944.72
586.90	46134.30
587.06	45977.48
587.22	46487.72
587.38	45895.56
587.54	46440.91
587.70	46541.55
587.86	46263.03
588.02	46457.29
588.18	46483.04
588.34	45982.16
588.49	46096.85
588.65	45574.91
588.81	45879.18
588.97	46169.41
589.13	45984.51
589.29	45682.58
589.45	45558.53
589.61	46075.79
589.77	46195.15
589.93	46082.81
