SpectraSuite Data File
++++++++++++++++++++++++++++++++++++
Date: Fri Oct 25 10:47:34 EDT 2013
User: price-jones
Dark Spectrum Present: No
Reference Spectrum Present: No
Number of Sampled Component Spectra: 1
Spectrometers: USB2+H05261
Integration Time (usec): 100000 (USB2+H05261)
Spectra Averaged: 1 (USB2+H05261)
Boxcar Smoothing: 0 (USB2+H05261)
Correct for Electrical Dark: No (USB2+H05261)
Strobe/Lamp Enabled: No (USB2+H05261)
Correct for Detector Non-linearity: No (USB2+H05261)
Correct for Stray Light: No (USB2+H05261)
Number of Pixels in Processed Spectrum: 2048
>>>>>Begin Processed Spectral Data<<<<<
365.73	119.37
365.92	119.37
366.12	119.37
366.32	63.19
366.52	53.83
366.72	0.00
366.91	0.00
367.11	63.19
367.31	100.64
367.51	56.17
367.70	58.51
367.90	74.90
368.10	58.51
368.30	0.00
368.49	7.02
368.69	79.58
368.89	77.24
369.09	49.15
369.28	131.07
369.48	79.58
369.68	117.03
369.87	102.98
370.07	58.51
370.27	149.79
370.47	234.05
370.66	327.68
370.86	442.36
371.06	437.68
371.25	393.21
371.45	472.79
371.65	463.43
371.84	447.04
372.04	442.36
372.24	496.19
372.44	531.30
372.63	493.85
372.83	461.09
373.03	458.74
373.22	461.09
373.42	554.71
373.62	552.37
373.81	472.79
374.01	608.54
374.21	507.90
374.40	596.84
374.60	575.77
374.79	620.24
374.99	587.47
375.19	496.19
375.38	615.56
375.58	477.47
375.78	587.47
375.97	587.47
376.17	547.69
376.37	578.11
376.56	627.26
376.76	535.98
376.95	550.03
377.15	629.60
377.35	571.09
377.54	664.71
377.74	711.52
377.93	561.73
378.13	645.99
378.33	664.71
378.52	582.79
378.72	592.16
378.91	566.41
379.11	589.82
379.31	566.41
379.50	580.45
379.70	662.37
379.89	662.37
380.09	631.94
380.28	702.16
380.48	641.31
380.68	599.18
380.87	634.29
381.07	648.33
381.26	699.82
381.46	638.97
381.65	671.73
381.85	688.12
382.04	713.86
382.24	664.71
382.43	667.05
382.63	746.63
382.83	709.18
383.02	660.03
383.22	702.16
383.41	664.71
383.61	739.61
383.80	751.31
384.00	711.52
384.19	774.72
384.39	781.74
384.58	758.33
384.78	748.97
384.97	709.18
385.17	765.36
385.36	704.50
385.56	781.74
385.75	748.97
385.95	763.01
386.14	758.33
386.34	793.44
386.53	798.12
386.72	734.93
386.92	854.30
387.11	823.87
387.31	812.17
387.50	910.47
387.70	887.06
387.89	856.64
388.09	798.12
388.28	779.40
388.48	805.14
388.67	858.98
388.86	833.23
389.06	854.30
389.25	887.06
389.45	936.21
389.64	908.13
389.84	964.30
390.03	938.55
390.22	880.04
390.42	887.06
390.61	798.12
390.81	894.08
391.00	943.24
391.19	1046.22
391.39	1013.45
391.58	980.68
391.78	1004.09
391.97	936.21
392.16	858.98
392.36	1008.77
392.55	980.68
392.75	905.79
392.94	884.72
393.13	933.87
393.33	896.43
393.52	936.21
393.71	966.64
393.91	1043.88
394.10	983.02
394.29	978.34
394.49	992.39
394.68	1076.65
394.88	1043.88
395.07	1104.73
395.26	1226.44
395.46	1078.99
395.65	1135.16
395.84	1151.54
396.04	1093.03
396.23	1102.39
396.42	1088.35
396.62	1114.10
396.81	1226.44
397.00	1071.97
397.19	1158.57
397.39	1177.29
397.58	1118.78
397.77	1210.06
397.97	1188.99
398.16	1170.27
398.35	1249.85
398.55	1299.00
398.74	1254.53
398.93	1378.58
399.12	1217.08
399.32	1336.45
399.51	1284.95
399.70	1359.85
399.90	1352.83
400.09	1320.06
400.28	1341.13
400.47	1359.85
400.67	1406.66
400.86	1444.11
401.05	1357.51
401.24	1458.15
401.44	1411.34
401.63	1444.11
401.82	1444.11
402.01	1357.51
402.21	1420.71
402.40	1460.49
402.59	1621.99
402.78	1570.50
402.97	1448.79
403.17	1502.62
403.36	1612.63
403.55	1507.30
403.74	1626.67
403.93	1511.99
404.13	1678.16
404.32	1542.41
404.51	1624.33
404.70	1629.01
404.89	1563.48
405.09	1685.19
405.28	1689.87
405.47	1708.59
405.66	1781.15
405.85	1762.42
406.05	1708.59
406.24	1771.79
406.43	1734.34
406.62	1774.13
406.81	1757.74
407.00	1820.94
407.20	1792.85
407.39	1818.60
407.58	1886.47
407.77	1870.09
407.96	1942.64
408.15	1987.11
408.34	1905.20
408.54	1919.24
408.73	1989.46
408.92	1970.73
409.11	1966.05
409.30	1982.43
409.49	1982.43
409.68	2040.95
409.87	2024.56
410.07	2024.56
410.26	2094.78
410.45	2064.35
410.64	2099.46
410.83	2132.23
411.02	2202.44
411.21	2230.53
411.40	2209.47
411.59	2321.81
411.78	2296.07
411.98	2169.68
412.17	2260.96
412.36	2314.79
412.55	2359.26
412.74	2527.78
412.93	2366.28
413.12	2298.41
413.31	2448.20
413.50	2377.98
413.69	2466.92
413.88	2436.50
414.07	2619.06
414.26	2595.65
414.45	2534.80
414.64	2520.76
414.83	2579.27
415.02	2686.94
415.22	2827.37
415.41	2682.25
415.60	2766.51
415.79	2773.53
415.98	2885.88
416.17	2897.58
416.36	2848.43
416.55	2906.95
416.74	2799.28
416.93	2930.35
417.12	2841.41
417.31	2937.37
417.50	2909.29
417.69	3005.25
417.88	2979.50
418.07	3012.27
418.26	3005.25
418.45	2862.48
418.64	3157.38
418.83	3016.95
419.02	3103.55
419.21	3176.11
419.39	3124.62
419.58	3208.87
419.77	3166.74
419.96	3293.13
420.15	3258.03
420.34	3236.96
420.53	3290.79
420.72	3410.16
420.91	3318.88
421.10	3318.88
421.29	3279.09
421.48	3337.60
421.67	3471.01
421.86	3337.60
422.05	3323.56
422.24	3293.13
422.43	3323.56
422.61	3398.46
422.80	3485.06
422.99	3396.12
423.18	3391.44
423.37	3424.20
423.56	3370.37
423.75	3288.45
423.94	3449.95
424.13	3295.47
424.32	3302.50
424.50	3461.65
424.69	3482.72
424.88	3578.68
425.07	3368.03
425.26	3503.78
425.45	3520.17
425.64	3454.63
425.83	3440.59
426.01	3658.26
426.20	3508.46
426.39	3611.45
426.58	3524.85
426.77	3447.61
426.96	3637.19
427.15	3630.17
427.33	3555.27
427.52	3520.17
427.71	3756.56
427.90	3693.37
428.09	3611.45
428.28	3723.79
428.46	3749.54
428.65	3693.37
428.84	3784.65
429.03	3850.18
429.22	3684.00
429.40	3747.20
429.59	3770.60
429.78	3665.28
429.97	3461.65
430.16	3707.41
430.34	3777.62
430.53	3761.24
430.72	3819.75
430.91	3899.33
431.10	3852.52
431.28	4145.09
431.47	4114.66
431.66	4109.98
431.85	3988.27
432.03	4072.53
432.22	4084.23
432.41	4152.11
432.60	3967.21
432.79	4060.83
432.97	4177.86
433.16	4100.62
433.35	4086.58
433.54	4107.64
433.72	4269.14
433.91	4203.60
434.10	4294.88
434.28	4194.24
434.47	4423.61
434.66	4397.87
434.85	4327.65
435.03	4344.03
435.22	4182.54
435.41	4535.96
435.59	4573.41
435.78	4587.45
435.97	4451.70
436.16	4432.97
436.34	4585.11
436.53	4486.81
436.72	4610.86
436.90	4657.67
437.09	4458.72
437.28	4596.81
437.46	4564.04
437.65	4557.02
437.84	4559.36
438.02	4692.77
438.21	4688.09
438.40	4608.51
438.58	4716.18
438.77	4968.96
438.96	4784.06
439.14	4870.65
439.33	4964.28
439.52	4987.68
439.70	4961.94
439.89	5067.26
440.08	5029.81
440.26	5151.52
440.45	5160.88
440.63	5252.16
440.82	5268.55
441.01	5355.15
441.19	5303.65
441.38	5369.19
441.57	5245.14
441.75	5455.79
441.94	5699.20
442.12	5514.30
442.31	5554.09
442.50	5362.17
442.68	5619.63
442.87	5561.11
443.05	5760.06
443.24	5746.02
443.43	5715.59
443.61	5614.95
443.80	5746.02
443.98	5535.37
444.17	5523.66
444.35	5685.16
444.54	5849.00
444.73	5589.20
444.91	5675.80
445.10	5633.67
445.28	5568.13
445.47	5584.52
445.65	5678.14
445.84	5884.11
446.02	5858.36
446.21	5614.95
446.39	5767.08
446.58	5863.04
446.77	5853.68
446.95	5900.49
447.14	5905.17
447.32	5987.09
447.51	5774.10
447.69	5984.75
447.88	5837.30
448.06	5849.00
448.25	5961.34
448.43	5827.93
448.62	5947.30
448.80	6001.13
448.99	5874.74
449.17	6122.84
449.36	6061.99
449.54	6223.48
449.73	6228.17
449.91	6289.02
450.10	6354.55
450.28	6150.93
450.46	6328.81
450.65	6211.78
450.83	6300.72
451.02	6235.19
451.20	6359.24
451.39	6349.87
451.57	6197.74
451.76	6441.15
451.94	6211.78
452.13	6394.34
452.31	6347.53
452.49	6244.55
452.68	6511.37
452.86	6438.81
453.05	6469.24
453.23	6363.92
453.42	6520.73
453.60	6518.39
453.78	6509.03
453.97	6420.09
454.15	6429.45
454.34	6583.93
454.52	6874.15
454.70	6853.09
454.89	6724.36
455.07	6768.83
455.26	6705.63
455.44	6752.45
455.62	6839.05
455.81	6752.45
455.99	6920.96
456.17	6726.70
456.36	6923.30
456.54	7056.72
456.73	7108.21
456.91	7133.95
457.09	7225.23
457.28	7318.86
457.46	7098.84
457.64	7342.26
457.83	7119.91
458.01	7101.19
458.19	7400.77
458.38	7314.17
458.56	7159.70
458.74	7318.86
458.93	7286.09
459.11	7269.70
459.29	7197.15
459.48	7424.18
459.66	7321.20
459.84	7468.65
460.03	7592.70
460.21	7463.97
460.39	7419.50
460.57	7421.84
460.76	7531.84
460.94	7714.41
461.12	7590.36
461.31	7693.34
461.49	7653.55
461.67	7634.83
461.85	7765.90
462.04	7667.60
462.22	8369.76
462.40	7854.84
462.59	7644.19
462.77	7859.52
462.95	7857.18
463.13	7983.57
463.32	7693.34
463.50	7953.14
463.68	7962.50
463.86	7969.52
464.05	7894.63
464.23	7885.26
464.41	8168.47
464.59	7805.69
464.78	8053.78
464.96	8189.53
465.14	8245.71
465.32	8077.19
465.50	8353.37
465.69	8444.65
465.87	8187.19
466.05	8147.40
466.23	8060.80
466.41	8250.39
466.60	8589.77
466.78	8325.29
466.96	8198.90
467.14	8145.06
467.32	8400.18
467.51	8416.57
467.69	8334.65
467.87	8306.56
468.05	8437.63
468.23	8402.52
468.41	8390.82
468.60	8367.42
468.78	8678.71
468.96	8484.44
469.14	8765.31
469.32	8479.76
469.50	8393.16
469.69	8755.94
469.87	8879.99
470.05	8894.04
470.23	8709.13
470.41	8685.73
470.59	8924.46
470.77	8678.71
470.95	9013.40
471.14	9116.39
471.32	8973.61
471.50	9071.92
471.68	9102.34
471.86	9198.31
472.04	9537.68
472.22	9392.57
472.40	9195.96
472.58	9291.93
472.77	9455.76
472.95	9334.06
473.13	9685.14
473.31	9523.64
473.49	9474.49
473.67	9437.04
473.85	9643.01
474.03	9701.52
474.21	9699.18
474.39	9703.86
474.57	9954.30
474.75	9898.13
474.93	10045.58
475.12	9813.87
475.30	10029.20
475.48	10171.97
475.66	9933.23
475.84	9944.94
476.02	10310.06
476.20	10197.71
476.38	10469.22
476.56	10469.22
476.74	10595.61
476.92	10516.03
477.10	10565.18
477.28	10740.72
477.46	10682.20
477.64	10902.22
477.82	11012.22
478.00	11152.65
478.18	11311.81
478.36	10965.41
478.54	11375.00
478.72	11335.21
478.90	11538.84
479.08	11880.56
479.26	11908.65
479.44	11967.16
479.62	11789.28
479.80	12208.23
479.98	11894.60
480.16	12264.41
480.34	12233.98
480.52	12517.18
480.70	12297.17
480.88	12079.50
481.06	12397.82
481.24	12166.10
481.41	12606.13
481.59	12917.42
481.77	13006.36
481.95	12989.97
482.13	13121.04
482.31	13085.94
482.49	13404.25
482.67	13025.08
482.85	13474.46
483.03	13689.79
483.21	13689.79
483.39	13584.47
483.57	13741.29
483.74	14223.44
483.92	13888.74
484.10	14045.55
484.28	14176.62
484.46	14450.47
484.64	14480.89
484.82	14382.59
485.00	14710.27
485.18	14984.11
485.35	15012.20
485.53	14747.72
485.71	14846.02
485.89	15236.89
486.07	15080.07
486.25	15424.13
486.43	15690.95
486.61	15716.70
486.78	15707.34
486.96	15866.49
487.14	16109.91
487.32	16013.95
487.50	16549.93
487.68	16311.19
487.85	16608.44
488.03	16842.50
488.21	16460.99
488.39	16926.75
488.57	16816.75
488.75	17067.19
488.92	17324.65
489.10	17324.65
489.28	17537.63
489.46	17652.32
489.64	17813.82
489.81	18050.21
489.99	18148.51
490.17	18436.40
490.35	18288.95
490.53	18291.29
490.70	18754.71
490.88	18417.68
491.06	18883.44
491.24	18848.33
491.41	18691.52
491.59	18860.04
491.77	18820.25
491.95	19241.54
492.13	19267.29
492.30	19655.82
492.48	19838.38
492.66	19669.86
492.84	19723.69
493.01	20063.07
493.19	20105.20
493.37	20372.02
493.54	20320.53
493.72	20393.09
493.90	20603.74
494.08	20697.36
494.25	20821.41
494.43	20851.83
494.61	20961.84
494.79	20868.22
494.96	21055.46
495.14	21128.02
495.32	21551.65
495.49	21668.68
495.67	21432.29
495.85	22047.85
496.02	21778.68
496.20	22288.92
496.38	22239.77
496.55	22136.79
496.73	22647.02
496.91	22455.10
497.09	22611.92
497.26	22897.46
497.44	22941.93
497.62	22977.04
497.79	23096.41
497.97	23185.35
498.14	23262.58
498.32	23515.36
498.50	23681.54
498.67	23583.24
498.85	23716.65
499.03	24018.58
499.20	23683.88
499.38	24020.92
499.56	23988.15
499.73	24086.45
499.91	24336.89
500.08	24231.57
500.26	24093.47
500.44	24362.64
500.61	24542.86
500.79	24542.86
500.97	24428.17
501.14	24863.51
501.32	24945.43
501.49	24865.85
501.67	25034.37
501.84	24900.96
502.02	25022.67
502.20	25411.20
502.37	25359.70
502.55	25687.38
502.72	25715.47
502.90	25575.03
503.07	25584.40
503.25	25523.54
503.43	25902.71
503.60	25844.20
503.78	26078.25
503.95	25869.94
504.13	26267.83
504.30	26394.22
504.48	26204.64
504.65	26628.27
504.83	26934.88
505.01	26623.59
505.18	26499.55
505.36	26724.24
505.53	26775.73
505.71	27087.02
505.88	27311.71
506.06	26871.69
506.23	27206.39
506.41	26862.33
506.58	27300.01
506.76	27283.62
506.93	27744.71
507.11	27288.31
507.28	27468.53
507.46	27899.19
507.63	27330.44
507.81	27756.41
507.98	27646.41
508.16	27826.63
508.33	27957.70
508.50	28114.52
508.68	27922.59
508.85	28332.18
509.03	28545.17
509.20	28694.97
509.38	28627.09
509.55	28779.23
509.73	28379.00
509.90	28559.22
510.08	28985.19
510.25	28819.02
510.42	29001.58
510.60	29074.13
510.77	29326.91
510.95	29565.65
511.12	29378.40
511.30	29626.50
511.47	29455.64
511.64	29823.11
511.82	29848.85
511.99	29579.69
512.17	29619.48
512.34	29656.93
512.51	30162.48
512.69	29919.07
512.86	30073.54
513.04	30305.26
513.21	30387.18
513.38	30494.84
513.56	30066.52
513.73	29902.68
513.90	30567.40
514.08	30703.15
514.25	30593.14
514.43	30377.81
514.60	30398.88
514.77	30862.30
514.95	30916.14
515.12	30972.31
515.29	30962.95
515.47	31264.88
515.64	31101.04
515.81	31262.54
515.99	31449.78
516.16	31285.94
516.33	31442.76
516.51	31555.10
516.68	31290.62
516.85	30986.35
517.03	31562.12
517.20	31690.85
517.37	31847.67
517.54	31931.93
517.72	32030.23
517.89	31931.93
518.06	31772.77
518.24	32044.27
518.41	31630.00
518.58	32126.19
518.75	32306.41
518.93	32290.03
519.10	32390.67
519.27	32467.91
519.45	32350.88
519.62	32484.30
519.79	32936.02
519.96	32538.13
520.14	32844.74
520.31	32734.73
520.48	32781.54
520.65	33254.33
520.83	33214.54
521.00	33544.56
521.17	33207.52
521.34	33237.95
521.52	33464.98
521.69	33841.81
521.86	33270.72
522.03	34022.03
522.20	33942.45
522.38	33933.09
522.55	33902.66
522.72	34019.69
522.89	33816.06
523.07	33989.26
523.24	34167.14
523.41	34087.56
523.58	34195.23
523.75	34614.18
523.92	34565.03
524.10	34354.38
524.27	34686.74
524.44	34504.18
524.61	34834.19
524.78	34724.19
524.96	34651.63
525.13	35145.48
525.30	35199.32
525.47	35332.73
525.64	34852.92
525.81	34742.91
525.98	35061.22
526.16	35157.19
526.33	35091.65
526.50	35101.01
526.67	35466.14
526.84	35456.78
527.01	34824.83
527.18	35407.62
527.36	35536.35
527.53	35660.40
527.70	36081.70
527.87	35849.99
528.04	36067.66
528.21	35857.01
528.38	35789.13
528.55	36215.11
528.72	36055.95
528.89	36147.23
529.07	36257.24
529.24	35768.07
529.41	35644.02
529.58	35997.44
529.75	36245.54
529.92	36624.70
530.09	36147.23
530.26	36259.58
530.43	36570.87
530.60	36505.34
530.77	36477.25
530.94	36907.91
531.11	36966.42
531.28	36575.55
531.46	37020.25
531.63	36748.75
531.80	36730.03
531.97	37020.25
532.14	37099.83
532.31	37102.17
532.48	36926.63
532.65	37055.36
532.82	37748.16
532.99	37387.72
533.16	36685.56
533.33	37448.57
533.50	37937.74
533.67	37528.15
533.84	37411.12
534.01	37535.17
534.18	37560.92
534.35	37776.25
534.52	37315.16
534.69	37490.70
534.86	37858.17
535.03	37460.27
535.20	37949.45
535.37	38192.86
535.54	38843.53
535.71	38543.94
535.88	38253.72
536.05	38071.15
536.22	38089.88
536.38	38024.34
536.55	38284.14
536.72	38679.69
536.89	38148.39
537.06	38553.30
537.23	38501.81
537.40	38155.41
537.57	38431.60
537.74	38345.00
537.91	38925.45
538.08	38904.38
538.25	38541.60
538.42	38890.34
538.59	39096.31
538.75	38534.58
538.92	38787.36
539.09	39147.80
539.26	38653.95
539.43	39012.05
539.60	38817.78
539.77	38740.55
539.94	39117.37
540.11	39124.40
540.28	38717.14
540.44	38946.51
540.61	39150.14
540.78	38735.87
540.95	39615.91
541.12	39597.18
541.29	39175.89
541.46	39632.29
541.62	39725.91
541.79	39543.35
541.96	38939.49
542.13	39381.85
542.30	39594.84
542.47	39625.27
542.63	39702.51
542.80	39335.04
542.97	40156.57
543.14	40198.70
543.31	40205.72
543.48	40421.05
543.64	40755.75
543.81	40252.53
543.98	40271.26
544.15	40275.94
544.32	40645.74
544.48	40605.95
544.65	40570.85
544.82	40425.73
544.99	40004.44
545.16	40423.39
545.32	40488.93
545.49	40837.67
545.66	40882.14
545.83	40992.14
546.00	40994.48
546.16	40835.33
546.33	41003.85
546.50	40900.86
546.67	40921.93
546.83	40196.36
547.00	40463.18
547.17	40907.88
547.34	40917.25
547.50	41357.27
547.67	41221.52
547.84	41125.55
548.00	41092.79
548.17	40795.54
548.34	41177.04
548.51	41003.85
548.67	41680.26
548.84	41441.53
549.01	41198.11
549.18	41078.74
549.34	41443.87
549.51	41942.40
549.68	41413.44
549.84	41378.33
550.01	41579.62
550.18	41378.33
550.34	41528.13
550.51	41640.47
550.68	41373.65
550.84	41338.54
551.01	41486.00
551.18	41600.68
551.34	41928.36
551.51	42122.62
551.68	41790.27
551.84	42167.09
552.01	41787.92
552.18	42047.72
552.34	41816.01
552.51	42120.28
552.68	41778.56
552.84	42141.35
553.01	42232.63
553.18	41872.18
553.34	41996.23
553.51	41991.55
553.67	42270.08
553.84	42450.30
554.01	42663.28
554.17	42363.70
554.34	42586.05
554.51	42644.56
554.67	42469.02
554.84	42569.66
555.00	42143.69
555.17	42321.57
555.33	42862.23
555.50	42871.59
555.67	42426.89
555.83	42775.63
556.00	42539.24
556.16	43290.55
556.33	43133.73
556.50	42895.00
556.66	43236.72
556.83	42490.09
556.99	42801.38
557.16	42705.41
557.32	43037.77
557.49	42967.55
557.65	42195.18
557.82	42440.93
557.98	42452.64
558.15	43110.33
558.32	42953.51
558.48	42939.47
558.65	42883.30
558.81	42810.74
558.98	43332.68
559.14	43407.58
559.31	43065.86
559.47	43267.14
559.64	43192.25
559.80	43688.44
559.97	43196.93
560.13	43030.75
560.30	43206.29
560.46	42820.10
560.63	43398.21
560.79	43342.04
560.96	43278.85
561.12	43501.20
561.29	43466.09
561.45	43608.86
561.61	43232.04
561.78	43070.54
561.94	43316.29
562.11	43335.02
562.27	43255.44
562.44	43489.49
562.60	43196.93
562.77	43812.49
562.93	43517.58
563.10	43667.37
563.26	42902.02
563.42	43688.44
563.59	43318.64
563.75	43309.27
563.92	43597.16
564.08	43613.54
564.24	43849.94
564.41	43538.65
564.57	43606.52
564.74	43995.05
564.90	44013.77
565.07	43629.93
565.23	44098.03
565.39	43592.48
565.56	43477.79
565.72	43768.02
565.88	43435.66
566.05	43557.37
566.21	43821.85
566.38	42988.62
566.54	43892.07
566.70	43629.93
566.87	44224.42
567.03	44006.75
567.19	44425.71
567.36	44102.71
567.52	43683.76
567.68	43990.37
567.85	43739.93
568.01	43950.58
568.17	43962.28
568.34	44107.40
568.50	43885.04
568.66	43643.97
568.83	44439.75
568.99	43707.16
569.15	43875.68
569.32	43812.49
569.48	43952.92
569.64	43948.24
569.81	43995.05
569.97	43840.57
570.13	44336.77
570.30	43732.91
570.46	44055.90
570.62	43784.40
570.78	43854.62
570.95	43929.51
571.11	44135.48
571.27	43756.32
571.43	44404.64
571.60	44025.48
571.76	44257.19
571.92	44051.22
572.09	43983.35
572.25	44304.00
572.41	44289.96
572.57	43892.07
572.74	44596.57
572.90	44467.84
573.06	44584.86
573.22	44313.36
573.38	44229.10
573.55	43807.81
573.71	44210.38
573.87	44289.96
574.03	44294.64
574.20	43842.92
574.36	44020.80
574.52	44617.63
574.68	44219.74
574.84	44009.09
575.01	44371.88
575.17	44140.16
575.33	44107.40
575.49	44509.97
575.65	44570.82
575.82	44392.94
575.98	43901.43
576.14	44432.73
576.30	44428.05
576.46	43941.22
576.62	44013.77
576.79	44055.90
576.95	43796.10
577.11	44268.89
577.27	43999.73
577.43	44058.24
577.59	44224.42
577.75	44535.71
577.92	43868.66
578.08	43842.92
578.24	44304.00
578.40	44144.84
578.56	44100.37
578.72	44594.23
578.88	44395.28
579.04	44634.02
579.21	44526.35
579.37	43887.39
579.53	44156.55
579.69	43683.76
579.85	44304.00
580.01	44226.76
580.17	44406.98
580.33	44673.81
580.49	44395.28
580.65	44823.60
580.82	44282.94
580.98	44418.69
581.14	43990.37
581.30	44706.57
581.46	44526.35
581.62	44554.44
581.78	44484.22
581.94	44416.35
582.10	44491.24
582.26	44605.93
582.42	44334.43
582.58	44315.70
582.74	44226.76
582.90	44608.27
583.06	44369.54
583.22	44744.02
583.38	44837.64
583.54	44275.91
583.70	44477.20
583.86	44519.33
584.02	44140.16
584.18	44872.75
584.34	44818.92
584.50	44306.34
584.66	44362.51
584.82	44275.91
584.98	44334.43
585.14	44676.15
585.30	44451.45
585.46	44154.21
585.62	44549.76
585.78	44177.61
585.94	44053.56
586.10	44687.85
586.26	44266.55
586.42	43985.69
586.58	44737.00
586.74	44671.46
586.90	44617.63
587.06	44296.98
587.22	44519.33
587.38	44465.50
587.54	45116.17
587.70	45247.24
587.86	44879.77
588.02	44669.12
588.18	44744.02
588.34	44889.13
588.49	44409.32
588.65	44250.17
588.81	44282.94
588.97	44566.14
589.13	44060.58
589.29	44559.12
589.45	44575.50
589.61	44776.79
589.77	44528.69
589.93	44800.19
590.08	44563.80
590.24	45045.95
590.40	44767.43
