SpectraSuite Data File
++++++++++++++++++++++++++++++++++++
Date: Fri Oct 25 11:34:39 EDT 2013
User: price-jones
Dark Spectrum Present: No
Reference Spectrum Present: No
Number of Sampled Component Spectra: 1
Spectrometers: USB2+H05261
Integration Time (usec): 100000 (USB2+H05261)
Spectra Averaged: 1 (USB2+H05261)
Boxcar Smoothing: 0 (USB2+H05261)
Correct for Electrical Dark: No (USB2+H05261)
Strobe/Lamp Enabled: No (USB2+H05261)
Correct for Detector Non-linearity: No (USB2+H05261)
Correct for Stray Light: No (USB2+H05261)
Number of Pixels in Processed Spectrum: 2048
>>>>>Begin Processed Spectral Data<<<<<
365.73	264.48
365.92	264.48
366.12	264.48
366.32	203.63
366.52	198.95
366.72	135.75
366.91	156.82
367.11	250.44
367.31	156.82
367.51	168.52
367.70	182.56
367.90	191.92
368.10	187.24
368.30	308.95
368.49	229.37
368.69	227.03
368.89	159.16
369.09	168.52
369.28	229.37
369.48	203.63
369.68	161.50
369.87	264.48
370.07	283.20
370.27	271.50
370.47	318.31
370.66	433.00
370.86	479.81
371.06	465.77
371.25	505.56
371.45	496.19
371.65	552.37
371.84	585.13
372.04	564.07
372.24	550.03
372.44	594.50
372.63	643.65
372.83	554.71
373.03	645.99
373.22	568.75
373.42	594.50
373.62	627.26
373.81	671.73
374.01	631.94
374.21	676.41
374.40	603.86
374.60	655.35
374.79	606.20
374.99	585.13
375.19	650.67
375.38	631.94
375.58	648.33
375.78	634.29
375.97	606.20
376.17	650.67
376.37	657.69
376.56	629.60
376.76	709.18
376.95	683.44
377.15	732.59
377.35	690.46
377.54	777.06
377.74	720.88
377.93	678.76
378.13	683.44
378.33	716.20
378.52	662.37
378.72	587.47
378.91	737.27
379.11	678.76
379.31	653.01
379.50	676.41
379.70	692.80
379.89	730.25
380.09	744.29
380.28	713.86
380.48	678.76
380.68	732.59
380.87	695.14
381.07	753.65
381.26	732.59
381.46	791.10
381.65	730.25
381.85	734.93
382.04	765.36
382.24	699.82
382.43	819.19
382.63	755.99
382.83	753.65
383.02	748.97
383.22	758.33
383.41	753.65
383.61	830.89
383.80	739.61
384.00	828.55
384.19	870.68
384.39	727.91
384.58	786.42
384.78	830.89
384.97	767.70
385.17	821.53
385.36	814.51
385.56	798.12
385.75	777.06
385.95	791.10
386.14	851.96
386.34	861.32
386.53	903.45
386.72	858.98
386.92	882.38
387.11	821.53
387.31	938.55
387.50	835.57
387.70	912.81
387.89	917.49
388.09	870.68
388.28	945.58
388.48	931.53
388.67	903.45
388.86	931.53
389.06	875.36
389.25	887.06
389.45	929.19
389.64	861.32
389.84	884.72
390.03	901.11
390.22	877.70
390.42	976.00
390.61	903.45
390.81	968.98
391.00	903.45
391.19	1048.56
391.39	931.53
391.58	1032.18
391.78	870.68
391.97	973.66
392.16	987.71
392.36	1022.81
392.55	1018.13
392.75	1022.81
392.94	1100.05
393.13	1067.28
393.33	940.90
393.52	1013.45
393.71	1011.11
393.91	1001.75
394.10	1025.15
394.29	1053.24
394.49	950.26
394.68	1086.01
394.88	1055.58
395.07	1102.39
395.26	1104.73
395.46	1086.01
395.65	1128.14
395.84	1102.39
396.04	1177.29
396.23	1191.33
396.42	1207.72
396.62	1149.20
396.81	1221.76
397.00	1130.48
397.19	1128.14
397.39	1116.44
397.58	1228.78
397.77	1146.86
397.97	1184.31
398.16	1137.50
398.35	1142.18
398.55	1151.54
398.74	1284.95
398.93	1320.06
399.12	1242.82
399.32	1212.40
399.51	1259.21
399.70	1226.44
399.90	1268.57
400.09	1226.44
400.28	1362.19
400.47	1364.53
400.67	1425.39
400.86	1357.51
401.05	1301.34
401.24	1380.92
401.44	1446.45
401.63	1306.02
401.82	1460.49
402.01	1390.28
402.21	1465.18
402.40	1373.89
402.59	1427.73
402.78	1476.88
402.97	1446.45
403.17	1497.94
403.36	1495.60
403.55	1495.60
403.74	1476.88
403.93	1493.26
404.13	1589.22
404.32	1516.67
404.51	1502.62
404.70	1647.74
404.89	1507.30
405.09	1586.88
405.28	1607.95
405.47	1603.27
405.66	1565.82
405.85	1621.99
406.05	1666.46
406.24	1671.14
406.43	1675.82
406.62	1769.44
406.81	1795.19
407.00	1708.59
407.20	1739.02
407.39	1734.34
407.58	1710.93
407.77	1734.34
407.96	1825.62
408.15	1809.23
408.34	1764.76
408.54	1827.96
408.73	1825.62
408.92	1746.04
409.11	1898.17
409.30	1921.58
409.49	1989.46
409.68	1923.92
409.87	1895.83
410.07	1909.88
410.26	1944.99
410.45	1870.09
410.64	1982.43
410.83	1975.41
411.02	2026.90
411.21	2097.12
411.40	2029.24
411.59	2052.65
411.78	2087.76
411.98	2148.61
412.17	2153.29
412.36	2153.29
412.55	2073.71
412.74	2347.56
412.93	2165.00
413.12	2155.63
413.31	2373.30
413.50	2246.91
413.69	2317.13
413.88	2275.00
414.07	2293.72
414.26	2366.28
414.45	2392.03
414.64	2375.64
414.83	2438.84
415.02	2408.41
415.22	2614.38
415.41	2497.35
415.60	2523.10
415.79	2452.88
415.98	2567.57
416.17	2558.21
416.36	2516.08
416.55	2588.63
416.74	2719.70
416.93	2565.23
417.12	2661.19
417.31	2785.24
417.50	2745.45
417.69	2860.13
417.88	2869.50
418.07	2743.11
418.26	2698.64
418.45	2747.79
418.64	2949.08
418.83	2853.11
419.02	2885.88
419.21	2974.82
419.39	2918.65
419.58	2857.79
419.77	2923.33
419.96	3098.87
420.15	2972.48
420.34	2949.08
420.53	2974.82
420.72	3082.49
420.91	2958.44
421.10	3040.36
421.29	3155.04
421.48	3014.61
421.67	3094.19
421.86	3143.34
422.05	3176.11
422.24	3141.00
422.43	3136.32
422.61	3274.41
422.80	3220.58
422.99	3265.05
423.18	3361.01
423.37	3206.53
423.56	3314.20
423.75	3265.05
423.94	3169.09
424.13	3124.62
424.32	2960.78
424.50	3321.22
424.69	3332.92
424.88	3372.71
425.07	3314.20
425.26	3227.60
425.45	3372.71
425.64	3332.92
425.83	3272.07
426.01	3255.69
426.20	3295.47
426.39	3281.43
426.58	3197.17
426.77	3265.05
426.96	3302.50
427.15	3358.67
427.33	3316.54
427.52	3321.22
427.71	3417.18
427.90	3442.93
428.09	3466.33
428.28	3566.98
428.46	3536.55
428.65	3499.10
428.84	3592.72
429.03	3534.21
429.22	3449.95
429.40	3599.74
429.59	3566.98
429.78	3468.67
429.97	3431.23
430.16	3632.51
430.34	3681.66
430.53	3726.13
430.72	3630.17
430.91	3482.72
431.10	3566.98
431.28	3735.50
431.47	3904.01
431.66	3791.67
431.85	3660.60
432.03	3726.13
432.22	3920.40
432.41	3889.97
432.60	3892.31
432.79	3864.22
432.97	4021.04
433.16	3801.03
433.35	3826.78
433.54	3871.25
433.72	4049.13
433.91	3913.38
434.10	3950.82
434.28	4016.36
434.47	4007.00
434.66	4100.62
434.85	4063.17
435.03	4187.22
435.22	4112.32
435.41	4205.94
435.59	4170.83
435.78	4142.75
435.97	4194.24
436.16	4051.47
436.34	4095.94
436.53	4353.40
436.72	4212.96
436.90	4170.83
437.09	4273.82
437.28	4142.75
437.46	4287.86
437.65	4430.63
437.84	4395.53
438.02	4442.34
438.21	4407.23
438.40	4472.76
438.58	4561.70
438.77	4610.86
438.96	4491.49
439.14	4599.15
439.33	4580.43
439.52	4716.18
439.70	4732.56
439.89	4676.39
440.08	4830.87
440.26	4814.48
440.45	4770.01
440.63	4823.84
440.82	4931.51
441.01	4755.97
441.19	4851.93
441.38	5011.09
441.57	4985.34
441.75	4924.49
441.94	5203.01
442.12	5057.90
442.31	5188.97
442.50	5228.76
442.68	5100.03
442.87	5179.61
443.05	5224.08
443.24	5179.61
443.43	5149.18
443.61	5224.08
443.80	5401.96
443.98	5090.67
444.17	5029.81
444.35	5324.72
444.54	5476.85
444.73	5373.87
444.91	5404.30
445.10	5348.12
445.28	5406.64
445.47	5331.74
445.65	5362.17
445.84	5448.77
446.02	5341.10
446.21	5497.92
446.39	5441.75
446.58	5516.64
446.77	5497.92
446.95	5247.48
447.14	5596.22
447.32	5563.45
447.51	5462.81
447.69	5418.34
447.88	5469.83
448.06	5603.24
448.25	5514.30
448.43	5439.40
448.62	5530.69
448.80	5504.94
448.99	5636.01
449.17	5638.35
449.36	5430.04
449.54	5636.01
449.73	5806.87
449.91	5959.00
450.10	5860.70
450.28	5783.46
450.46	5867.72
450.65	5783.46
450.83	5696.86
451.02	5757.72
451.20	5865.38
451.39	5788.14
451.57	5785.80
451.76	5898.15
451.94	5841.98
452.13	6076.03
452.31	5980.07
452.49	6120.50
452.68	5858.36
452.86	5900.49
453.05	6076.03
453.23	6071.35
453.42	5966.03
453.60	6176.67
453.78	6050.28
453.97	6153.27
454.15	6279.66
454.34	6106.46
454.52	6338.17
454.70	6143.91
454.89	6190.72
455.07	6207.10
455.26	6267.95
455.44	6392.00
455.62	6298.38
455.81	6204.76
455.99	6331.15
456.17	6431.79
456.36	6487.96
456.54	6490.31
456.73	6642.44
456.91	6544.14
457.09	6740.74
457.28	6715.00
457.46	6485.62
457.64	6656.48
457.83	6593.29
458.01	6506.69
458.19	6815.64
458.38	6665.85
458.56	6815.64
458.74	6862.45
458.93	6754.79
459.11	6927.99
459.29	6883.52
459.48	6839.05
459.66	6993.52
459.84	6930.33
460.03	7112.89
460.21	7211.19
460.39	7026.29
460.57	6963.09
460.76	7045.01
460.94	7026.29
461.12	7272.04
461.31	7185.44
461.49	7047.35
461.67	7204.17
461.85	7227.57
462.04	7030.97
462.22	7501.42
462.40	7267.36
462.59	7578.65
462.77	7391.41
462.95	7398.43
463.13	7581.00
463.32	7337.58
463.50	7321.20
463.68	7372.69
463.86	7466.31
464.05	7459.29
464.23	7419.50
464.41	7595.04
464.59	7318.86
464.78	7604.40
464.96	7604.40
465.14	7545.89
465.32	7721.43
465.50	7709.72
465.69	7747.17
465.87	7658.23
466.05	7564.61
466.23	7623.12
466.41	7679.30
466.60	7817.39
466.78	7623.12
466.96	7597.38
467.14	7793.98
467.32	7861.86
467.51	7875.90
467.69	7660.57
467.87	7920.37
468.05	7950.80
468.23	7723.77
468.41	7812.71
468.60	8021.02
468.78	8011.65
468.96	7906.33
469.14	8084.21
469.32	8297.20
469.50	7976.55
469.69	8369.76
469.87	8318.26
470.05	8264.43
470.23	8465.72
470.41	8102.93
470.59	8313.58
470.77	8229.32
470.95	8322.94
471.14	8484.44
471.32	8507.85
471.50	8638.92
471.68	8306.56
471.86	8512.53
472.04	8725.52
472.22	8809.78
472.40	8819.14
472.58	8746.58
472.77	8631.90
472.95	8842.54
473.13	9071.92
473.31	8861.27
473.49	9027.45
473.67	8950.21
473.85	8863.61
474.03	9348.10
474.21	9228.73
474.39	9390.23
474.57	9219.37
474.75	9294.27
474.93	9474.49
475.12	9371.50
475.30	9453.42
475.48	9437.04
475.66	9439.38
475.84	9500.23
476.02	9743.65
476.20	9767.06
476.38	9750.67
476.56	9825.57
476.74	9942.60
476.92	9930.89
477.10	9982.38
477.28	10052.60
477.46	10104.09
477.64	10317.08
477.82	10326.44
478.00	10443.47
478.18	10494.96
478.36	10375.59
478.54	10733.70
478.72	10890.51
478.90	10710.29
479.08	11012.22
479.26	11042.65
479.44	10927.96
479.62	11197.12
479.80	11197.12
479.98	11342.24
480.16	11513.10
480.34	11585.65
480.52	11513.10
480.70	11634.80
480.88	11466.28
481.06	11688.64
481.24	11716.72
481.41	11857.15
481.59	11899.28
481.77	12091.21
481.95	12163.76
482.13	12182.49
482.31	12217.60
482.49	12489.10
482.67	12430.59
482.85	12739.54
483.03	12730.17
483.21	12765.28
483.39	13064.87
483.57	12966.57
483.74	13050.83
483.92	13275.52
484.10	13266.16
484.28	13605.53
484.46	13579.79
484.64	14029.17
484.82	13715.54
485.00	13949.59
485.18	14183.65
485.35	13937.89
485.53	14047.90
485.71	14155.56
485.89	14724.31
486.07	14527.71
486.25	14583.88
486.43	14670.48
486.61	14902.19
486.78	14939.64
486.96	15061.35
487.14	15332.85
487.32	15159.65
487.50	15522.43
487.68	15279.02
487.85	15740.10
488.03	15822.02
488.21	15917.98
488.39	16159.06
488.57	16166.08
488.75	15988.20
488.92	16301.83
489.10	16278.43
489.28	16889.31
489.46	16713.77
489.64	16765.26
489.81	17235.70
489.99	17151.45
490.17	17088.25
490.35	17465.08
490.53	17476.78
490.70	17806.80
490.88	17495.50
491.06	17961.27
491.24	17596.15
491.41	17762.33
491.59	18340.44
491.77	17874.67
491.95	18352.14
492.13	18677.48
492.30	18441.08
492.48	18527.68
492.66	18752.37
492.84	18609.60
493.01	18892.80
493.19	18768.76
493.37	19035.58
493.54	19527.09
493.72	19353.89
493.90	19606.67
494.08	19690.93
494.25	19580.92
494.43	19782.21
494.61	19756.46
494.79	19922.64
494.96	19868.81
495.14	20056.05
495.32	20519.48
495.49	20411.81
495.67	20774.60
495.85	20762.89
496.02	20823.75
496.20	21163.12
496.38	20879.92
496.55	21099.93
496.73	21614.85
496.91	21158.44
497.09	21364.41
497.26	21500.16
497.44	21605.49
497.62	21909.75
497.79	22246.79
497.97	21996.35
498.14	22272.54
498.32	22143.81
498.50	22253.81
498.67	22232.75
498.85	22162.53
499.03	22642.34
499.20	22817.88
499.38	22747.67
499.56	23194.71
499.73	23154.92
499.91	23454.51
500.08	23297.69
500.26	23094.07
500.44	23480.25
500.61	23054.28
500.79	23384.29
500.97	23688.56
501.14	24210.50
501.32	24105.18
501.49	23606.64
501.67	24107.52
501.84	24425.83
502.02	24236.25
502.20	23999.85
502.37	24135.60
502.55	24547.54
502.72	24790.95
502.90	24458.60
503.07	24381.36
503.25	24652.86
503.43	24297.10
503.60	24819.04
503.78	24999.26
503.95	24922.02
504.13	24790.95
504.30	25102.25
504.48	25111.61
504.65	25544.61
504.83	25530.56
505.01	25781.00
505.18	25418.22
505.36	25493.12
505.53	25755.26
505.71	25837.17
505.88	25745.89
506.06	26040.80
506.23	26125.06
506.41	25954.20
506.58	26647.00
506.76	26522.95
506.93	26398.90
507.11	26298.26
507.28	26822.54
507.46	26551.04
507.63	26672.74
507.81	26726.58
507.98	26651.68
508.16	26984.04
508.33	26780.41
508.50	26937.23
508.68	27424.06
508.85	27405.33
509.03	27407.67
509.20	27623.00
509.38	27576.19
509.55	27290.65
509.73	27438.10
509.90	27679.18
510.08	27555.13
510.25	27716.62
510.42	27882.80
510.60	28072.39
510.77	28245.58
510.95	28245.58
511.12	28229.20
511.30	28477.30
511.47	28173.03
511.64	28343.89
511.82	28444.53
511.99	28231.54
512.17	28704.33
512.34	28577.94
512.51	29116.26
512.69	29244.99
512.86	28811.99
513.04	29291.80
513.21	29317.55
513.38	29364.36
513.56	29263.72
513.73	29092.86
513.90	29329.25
514.08	29514.16
514.25	29394.79
514.43	29607.78
514.60	30061.84
514.77	29940.13
514.95	29769.27
515.12	29619.48
515.29	29979.92
515.47	30293.55
515.64	30008.01
515.81	30136.74
515.99	30223.34
516.16	30827.20
516.33	30225.68
516.51	30511.22
516.68	30307.60
516.85	30354.41
517.03	30878.69
517.20	30904.43
517.37	31028.48
517.54	30775.70
517.72	31157.21
517.89	31463.82
518.06	31075.29
518.24	31103.38
518.41	30836.56
518.58	31274.24
518.75	31072.95
518.93	31648.72
519.10	31159.55
519.27	31758.73
519.45	31557.44
519.62	31901.50
519.79	31644.04
519.96	31938.95
520.14	31920.23
520.31	31681.49
520.48	31929.59
520.65	32212.79
520.83	32313.44
521.00	32589.62
521.17	32472.59
521.34	32708.99
521.52	32416.42
521.69	32432.80
521.86	32622.39
522.03	32877.51
522.20	32952.40
522.38	33289.44
522.55	33067.09
522.72	32694.94
522.89	33132.62
523.07	33539.88
523.24	33521.15
523.41	33291.78
523.58	33317.53
523.75	33734.14
523.92	33572.64
524.10	33757.55
524.27	33542.22
524.44	33736.48
524.61	33750.52
524.78	33818.40
524.96	34050.11
525.13	33979.90
525.30	34101.61
525.47	33626.48
525.64	34218.63
525.81	34181.18
525.98	34377.79
526.16	34307.57
526.33	34356.72
526.50	34389.49
526.67	34361.40
526.84	34539.29
527.01	34604.82
527.18	34836.53
527.36	34717.17
527.53	34593.12
527.70	35030.80
527.87	35178.25
528.04	34679.72
528.21	35007.39
528.38	34487.79
528.55	35082.29
528.72	35166.55
528.89	34948.88
529.07	34923.13
529.24	34998.03
529.41	35569.12
529.58	35051.86
529.75	35377.20
529.92	35779.77
530.09	35309.32
530.26	35264.85
530.43	35501.25
530.60	35035.48
530.77	35236.77
530.94	35487.20
531.11	35861.69
531.28	36020.84
531.46	35721.26
531.63	36067.66
531.80	36126.17
531.97	35988.08
532.14	36243.20
532.31	36224.47
532.48	36194.04
532.65	36493.63
532.82	35906.16
532.99	36259.58
533.16	36198.73
533.33	36596.62
533.50	36587.25
533.67	36388.31
533.84	35978.72
534.01	36868.12
534.18	36786.20
534.35	36542.78
534.52	36683.22
534.69	37340.91
534.86	37317.50
535.03	37092.81
535.20	37198.13
535.37	37359.63
535.54	37195.79
535.71	37102.17
535.88	37493.04
536.05	37610.07
536.22	37467.30
536.38	37158.34
536.55	37144.30
536.72	37593.68
536.89	37338.57
537.06	37628.79
537.23	37975.19
537.40	37738.80
537.57	37542.19
537.74	37738.80
537.91	38396.49
538.08	38169.46
538.25	37535.17
538.42	37684.97
538.59	38162.43
538.75	38171.80
538.92	38141.37
539.09	38384.79
539.26	38703.10
539.43	37897.95
539.60	38380.10
539.77	38059.45
539.94	38471.39
540.11	38462.02
540.28	38550.96
540.44	38707.78
540.61	38635.22
540.78	38403.51
540.95	38693.74
541.12	38471.39
541.29	38628.20
541.46	38785.02
541.62	38735.87
541.79	38749.91
541.96	38565.01
542.13	38682.03
542.30	38806.08
542.47	39220.36
542.63	38672.67
542.80	39262.49
542.97	39152.48
543.14	39456.75
543.31	39482.50
543.48	39557.39
543.64	39702.51
543.81	40278.28
543.98	39859.32
544.15	39835.92
544.32	39613.57
544.48	40137.85
544.65	39885.07
544.82	39709.53
544.99	39824.22
545.16	40252.53
545.32	39782.09
545.49	39927.20
545.66	40409.35
545.83	39910.82
546.00	40519.35
546.16	40231.47
546.33	40217.43
546.50	40179.98
546.67	40598.93
546.83	39859.32
547.00	40435.10
547.17	40020.82
547.34	40793.20
547.50	40486.59
547.67	40563.82
547.84	40790.86
548.00	40858.73
548.17	41357.27
548.34	40687.87
548.51	40935.97
548.67	40795.54
548.84	40884.48
549.01	40882.14
549.18	40861.07
549.34	41265.99
549.51	40781.49
549.68	40828.30
549.84	40854.05
550.01	41532.81
550.18	40854.05
550.34	41106.83
550.51	41184.07
550.68	41502.38
550.84	40879.80
551.01	41710.69
551.18	41338.54
551.34	41270.67
551.51	41553.87
551.68	41228.54
551.84	41064.70
552.01	41387.69
552.18	41427.48
552.34	41244.92
552.51	41698.98
552.68	41287.05
552.84	41521.10
553.01	42024.32
553.18	41703.67
553.34	41993.89
553.51	41652.17
553.67	41780.90
553.84	41460.25
554.01	41888.57
554.17	41935.38
554.34	41944.74
554.51	42108.58
554.67	41876.86
554.84	42101.56
555.00	42178.79
555.17	41811.33
555.33	42518.17
555.50	42321.57
555.67	41794.95
555.83	42183.48
556.00	42401.14
556.16	42932.45
556.33	42494.77
556.50	42150.71
556.66	42239.65
556.83	42253.69
556.99	42993.30
557.16	43093.94
557.32	42747.54
557.49	42749.88
557.65	42078.15
557.82	42899.68
557.98	42829.46
558.15	42515.83
558.32	42801.38
558.48	42799.04
558.65	42745.20
558.81	42756.91
558.98	42707.76
559.14	42707.76
559.31	43342.04
559.47	42864.57
559.64	42813.08
559.80	42902.02
559.97	42902.02
560.13	42958.19
560.30	43103.31
560.46	42981.60
560.63	43019.05
560.79	43107.99
560.96	43555.03
561.12	43082.24
561.29	43054.15
561.45	43435.66
561.61	42890.32
561.78	43201.61
561.94	43522.26
562.11	43405.23
562.27	43365.45
562.44	43454.39
562.60	43496.52
562.77	43374.81
562.93	43002.66
563.10	43468.43
563.26	43372.47
563.42	43545.67
563.59	43220.33
563.75	43210.97
563.92	42735.84
564.08	43938.88
564.24	43681.42
564.41	43505.88
564.57	43199.27
564.74	43611.20
564.90	43643.97
565.07	43475.45
565.23	43274.16
565.39	43384.17
565.56	44006.75
565.72	43510.56
565.88	43885.04
566.05	43447.36
566.21	43625.25
566.38	43845.26
566.54	43728.23
566.70	44341.45
566.87	43887.39
567.03	43604.18
567.19	44013.77
567.36	43878.02
567.52	43756.32
567.68	44100.37
567.85	44032.50
568.01	43835.89
568.17	43716.53
568.34	44212.72
568.50	44208.04
568.66	43402.89
568.83	43969.30
568.99	43819.51
569.15	43906.11
569.32	44121.44
569.48	44231.44
569.64	44538.05
569.81	43775.04
569.97	44364.85
570.13	44119.10
570.30	43999.73
570.46	44299.32
570.62	44266.55
570.78	44151.87
570.95	44018.46
571.11	44514.65
571.27	44013.77
571.43	44184.63
571.60	44210.38
571.76	43969.30
571.92	44252.51
572.09	44069.95
572.25	44231.44
572.41	44088.67
572.57	44430.39
572.74	44722.96
572.90	44245.49
573.06	44678.49
573.22	44589.55
573.38	44385.92
573.55	44435.07
573.71	44533.37
573.87	44694.87
574.03	44304.00
574.20	44472.52
574.36	44676.15
574.52	44481.88
574.68	44790.83
574.84	44615.29
575.01	44650.40
575.17	44446.77
575.33	44626.99
575.49	44414.01
575.65	44470.18
575.82	44449.11
575.98	44385.92
576.14	44617.63
576.30	44552.10
576.46	44491.24
576.62	44318.04
576.79	44594.23
576.95	44217.40
577.11	44098.03
577.27	44514.65
577.43	44458.48
577.59	44453.79
577.75	44411.67
577.92	44669.12
578.08	44545.08
578.24	44732.32
578.40	45045.95
578.56	44966.37
578.72	44861.05
578.88	44832.96
579.04	44832.96
579.21	44561.46
579.37	44638.70
579.53	44863.39
579.69	44762.75
579.85	44690.19
580.01	44807.22
580.17	44535.71
580.33	44666.78
580.49	44584.86
580.65	44914.88
580.82	44809.56
580.98	44690.19
581.14	44378.90
581.30	44889.13
581.46	44437.41
581.62	44783.81
581.78	44521.67
581.94	44839.98
582.10	44713.59
582.26	44409.32
582.42	44385.92
582.58	44741.68
582.74	44516.99
582.90	44582.52
583.06	44697.21
583.22	44491.24
583.38	44797.85
583.54	44893.82
583.70	44837.64
583.86	45184.04
584.02	45202.77
584.18	45111.49
584.34	44678.49
584.50	44973.39
584.66	45226.17
584.82	44856.37
584.98	45067.02
585.14	45329.16
585.30	44261.87
585.46	44715.93
585.62	44545.08
585.78	44776.79
585.94	44538.05
586.10	44524.01
586.26	44758.06
586.42	44715.93
586.58	45088.08
586.74	44910.20
586.90	45127.87
587.06	45113.83
587.22	45294.05
587.38	44369.54
587.54	44982.76
587.70	45439.16
587.86	45244.90
588.02	44900.84
588.18	45125.53
588.34	45050.63
588.49	45048.29
588.65	44933.60
588.81	44739.34
588.97	44809.56
589.13	45031.91
589.29	44905.52
589.45	45406.39
589.61	45301.07
589.77	45280.00
589.93	44732.32
590.08	45542.14
590.24	45567.89
