SpectraSuite Data File
++++++++++++++++++++++++++++++++++++
Date: Fri Oct 25 11:25:11 EDT 2013
User: price-jones
Dark Spectrum Present: No
Reference Spectrum Present: No
Number of Sampled Component Spectra: 1
Spectrometers: USB2+H05261
Integration Time (usec): 100000 (USB2+H05261)
Spectra Averaged: 1 (USB2+H05261)
Boxcar Smoothing: 0 (USB2+H05261)
Correct for Electrical Dark: No (USB2+H05261)
Strobe/Lamp Enabled: No (USB2+H05261)
Correct for Detector Non-linearity: No (USB2+H05261)
Correct for Stray Light: No (USB2+H05261)
Number of Pixels in Processed Spectrum: 2048
>>>>>Begin Processed Spectral Data<<<<<
365.73	234.05
365.92	234.05
366.12	234.05
366.32	175.54
366.52	126.39
366.72	149.79
366.91	124.05
367.11	39.79
367.31	135.75
367.51	126.39
367.70	152.13
367.90	166.18
368.10	163.84
368.30	114.69
368.49	215.33
368.69	163.84
368.89	140.43
369.09	86.60
369.28	117.03
369.48	161.50
369.68	145.11
369.87	161.50
370.07	189.58
370.27	306.61
370.47	365.12
370.66	615.56
370.86	533.64
371.06	561.73
371.25	629.60
371.45	575.77
371.65	678.76
371.84	678.76
372.04	671.73
372.24	732.59
372.44	690.46
372.63	723.23
372.83	767.70
373.03	753.65
373.22	753.65
373.42	760.67
373.62	746.63
373.81	723.23
374.01	760.67
374.21	716.20
374.40	758.33
374.60	849.61
374.79	711.52
374.99	746.63
375.19	844.93
375.38	854.30
375.58	814.51
375.78	809.83
375.97	844.93
376.17	994.73
376.37	898.77
376.56	842.59
376.76	896.43
376.95	837.91
377.15	816.85
377.35	915.15
377.54	926.85
377.74	910.47
377.93	875.36
378.13	957.28
378.33	863.66
378.52	903.45
378.72	994.73
378.91	980.68
379.11	929.19
379.31	966.64
379.50	912.81
379.70	898.77
379.89	992.39
380.09	889.40
380.28	964.30
380.48	997.07
380.68	957.28
380.87	964.30
381.07	1039.20
381.26	1095.37
381.46	976.00
381.65	973.66
381.85	1011.11
382.04	1034.52
382.24	1095.37
382.43	1076.65
382.63	1076.65
382.83	1036.86
383.02	1083.67
383.22	1149.20
383.41	1109.41
383.61	1128.14
383.80	1095.37
384.00	1160.91
384.19	1135.16
384.39	1156.22
384.58	1165.59
384.78	1212.40
384.97	1184.31
385.17	1125.80
385.36	1055.58
385.56	1125.80
385.75	1135.16
385.95	1046.22
386.14	1200.69
386.34	1256.87
386.53	1350.49
386.72	1137.50
386.92	1179.63
387.11	1170.27
387.31	1109.41
387.50	1249.85
387.70	1242.82
387.89	1256.87
388.09	1275.59
388.28	1231.12
388.48	1390.28
388.67	1270.91
388.86	1233.46
389.06	1320.06
389.25	1252.19
389.45	1324.74
389.64	1362.19
389.84	1329.42
390.03	1341.13
390.22	1291.98
390.42	1373.89
390.61	1446.45
390.81	1430.07
391.00	1406.66
391.19	1432.41
391.39	1420.71
391.58	1394.96
391.78	1472.20
391.97	1430.07
392.16	1413.68
392.36	1586.88
392.55	1472.20
392.75	1486.24
392.94	1439.43
393.13	1481.56
393.33	1481.56
393.52	1617.31
393.71	1568.16
393.91	1533.05
394.10	1523.69
394.29	1629.01
394.49	1504.96
394.68	1638.38
394.88	1640.72
395.07	1598.59
395.26	1586.88
395.46	1715.61
395.65	1734.34
395.84	1689.87
396.04	1825.62
396.23	1643.06
396.42	1722.63
396.62	1750.72
396.81	1720.29
397.00	1760.08
397.19	1905.20
397.39	1844.34
397.58	1858.39
397.77	1856.04
397.97	1788.17
398.16	1771.79
398.35	1921.58
398.55	1771.79
398.74	1982.43
398.93	1968.39
399.12	1881.79
399.32	1881.79
399.51	1989.46
399.70	2015.20
399.90	1851.36
400.09	1984.77
400.28	2062.01
400.47	1984.77
400.67	2073.71
400.86	2083.08
401.05	2050.31
401.24	2139.25
401.44	2026.90
401.63	2120.53
401.82	1998.82
402.01	2104.14
402.21	2139.25
402.40	2232.87
402.59	2195.42
402.78	2246.91
402.97	2106.48
403.17	2157.97
403.36	2237.55
403.55	2258.62
403.74	2324.15
403.93	2289.04
404.13	2429.48
404.32	2387.35
404.51	2314.79
404.70	2459.90
404.89	2450.54
405.09	2520.76
405.28	2401.39
405.47	2422.45
405.66	2417.77
405.85	2427.14
406.05	2518.42
406.24	2487.99
406.43	2553.52
406.62	2654.17
406.81	2689.28
407.00	2593.31
407.20	2572.25
407.39	2626.08
407.58	2733.75
407.77	2722.04
407.96	2647.15
408.15	2572.25
408.34	2745.45
408.54	2789.92
408.73	2764.17
408.92	2850.77
409.11	2810.98
409.30	2832.05
409.49	2988.86
409.68	2857.79
409.87	2977.16
410.07	2995.89
410.26	3054.40
410.45	2965.46
410.64	3089.51
410.83	3030.99
411.02	3105.89
411.21	3122.27
411.40	3145.68
411.59	3265.05
411.78	3145.68
411.98	3082.49
412.17	3176.11
412.36	3304.84
412.55	3288.45
412.74	3335.26
412.93	3358.67
413.12	3276.75
413.31	3454.63
413.50	3466.33
413.69	3442.93
413.88	3641.87
414.07	3595.06
414.26	3630.17
414.45	3623.15
414.64	3758.90
414.83	3655.92
415.02	3672.30
415.22	3723.79
415.41	3859.54
415.60	3812.73
415.79	3974.23
415.98	4007.00
416.17	3997.64
416.36	3999.98
416.55	4016.36
416.74	4042.11
416.93	4044.45
417.12	3967.21
417.31	4100.62
417.50	4217.65
417.69	4381.48
417.88	4203.60
418.07	4173.18
418.26	4194.24
418.45	4252.75
418.64	4346.37
418.83	4238.71
419.02	4372.12
419.21	4435.32
419.39	4351.06
419.58	4496.17
419.77	4346.37
419.96	4444.68
420.15	4456.38
420.34	4578.09
420.53	4533.62
420.72	4552.34
420.91	4648.30
421.10	4692.77
421.29	4631.92
421.48	4709.16
421.67	4753.63
421.86	4840.23
422.05	4800.44
422.24	4610.86
422.43	4807.46
422.61	4858.95
422.80	4908.10
422.99	4936.19
423.18	5090.67
423.37	4961.94
423.56	4826.18
423.75	4849.59
423.94	4779.37
424.13	4521.92
424.32	4657.67
424.50	4959.60
424.69	4945.55
424.88	5165.56
425.07	4746.61
425.26	4830.87
425.45	4821.50
425.64	4891.72
425.83	5048.54
426.01	5156.20
426.20	5025.13
426.39	5048.54
426.58	5132.79
426.77	5018.11
426.96	5046.20
427.15	4983.00
427.33	5205.35
427.52	5186.63
427.71	5238.12
427.90	5172.58
428.09	5303.65
428.28	5493.24
428.46	5247.48
428.65	5275.57
428.84	5329.40
429.03	5493.24
429.22	5423.02
429.40	5441.75
429.59	5418.34
429.78	5266.21
429.97	5320.04
430.16	5469.83
430.34	5579.84
430.53	5504.94
430.72	5645.37
430.91	5540.05
431.10	5624.31
431.28	5797.51
431.47	5593.88
431.66	5804.53
431.85	5790.49
432.03	5900.49
432.22	5914.53
432.41	5870.06
432.60	5949.64
432.79	5926.24
432.97	6001.13
433.16	6071.35
433.35	5947.30
433.54	6017.52
433.72	6003.47
433.91	6017.52
434.10	5898.15
434.28	6005.81
434.47	6157.95
434.66	6085.39
434.85	6359.24
435.03	6335.83
435.22	6040.92
435.41	6375.62
435.59	6429.45
435.78	6363.92
435.97	6274.98
436.16	6289.02
436.34	6354.55
436.53	6382.64
436.72	6581.59
436.90	6438.81
437.09	6466.90
437.28	6380.30
437.46	6539.46
437.65	6565.20
437.84	6665.85
438.02	6621.38
438.21	6689.25
438.40	6588.61
438.58	7030.97
438.77	7143.32
438.96	6920.96
439.14	7021.61
439.33	7133.95
439.52	7318.86
439.70	7232.26
439.89	7162.04
440.08	7372.69
440.26	7468.65
440.45	7412.48
440.63	7431.20
440.82	7508.44
441.01	7449.93
441.19	7611.42
441.38	7597.38
441.57	7492.05
441.75	7861.86
441.94	7812.71
442.12	7882.92
442.31	7882.92
442.50	7925.05
442.68	7733.13
442.87	8093.57
443.05	8053.78
443.24	8304.22
443.43	7943.78
443.61	8112.30
443.80	8411.89
443.98	8273.79
444.17	7740.15
444.35	8243.37
444.54	8388.48
444.73	8280.82
444.91	8084.21
445.10	8212.94
445.28	8390.82
445.47	8145.06
445.65	8358.05
445.84	8386.14
446.02	8465.72
446.21	8196.56
446.39	8404.86
446.58	8557.00
446.77	8332.31
446.95	8156.77
447.14	8177.83
447.32	8517.21
447.51	8388.48
447.69	8449.33
447.88	8685.73
448.06	8554.66
448.25	8517.21
448.43	8624.87
448.62	8538.27
448.80	8346.35
448.99	8741.90
449.17	8650.62
449.36	8404.86
449.54	8730.20
449.73	8908.08
449.91	8816.80
450.10	8908.08
450.28	8999.36
450.46	8987.66
450.65	9036.81
450.83	9102.34
451.02	8950.21
451.20	9034.47
451.39	9137.45
451.57	9158.52
451.76	9128.09
451.94	9188.94
452.13	9427.68
452.31	9163.20
452.49	9039.15
452.68	9195.96
452.86	9268.52
453.05	9327.03
453.23	9385.55
453.42	9387.89
453.60	9135.11
453.78	9439.38
453.97	9362.14
454.15	9565.77
454.34	9533.00
454.52	9605.56
454.70	9537.68
454.89	9514.28
455.07	9603.22
455.26	9666.41
455.44	9919.19
455.62	9607.90
455.81	9823.23
455.99	9916.85
456.17	10015.15
456.36	10150.90
456.54	9963.66
456.73	10200.05
456.91	10509.01
457.09	10253.89
457.28	10354.53
457.46	10143.88
457.64	10473.90
457.83	10415.38
458.01	10317.08
458.19	10621.35
458.38	10494.96
458.56	10792.21
458.74	10455.17
458.93	10534.75
459.11	10462.19
459.29	10647.10
459.48	10693.91
459.66	10785.19
459.84	10829.66
460.03	11014.56
460.21	10899.87
460.39	10885.83
460.57	10883.49
460.76	11021.58
460.94	11021.58
461.12	11089.46
461.31	10885.83
461.49	11145.63
461.67	11136.27
461.85	11367.98
462.04	11227.55
462.22	11819.71
462.40	11583.31
462.59	11510.75
462.77	11346.92
462.95	11485.01
463.13	11786.94
463.32	11318.83
463.50	11693.32
463.68	11630.12
463.86	11934.39
464.05	11737.79
464.23	11506.07
464.41	11758.85
464.59	11660.55
464.78	12119.29
464.96	12004.61
465.14	11639.48
465.32	11812.68
465.50	11955.46
465.69	11908.65
465.87	11824.39
466.05	11756.51
466.23	12156.74
466.41	12173.13
466.60	12603.78
466.78	12203.55
466.96	12105.25
467.14	12241.00
467.32	12351.01
467.51	12627.19
467.69	12086.53
467.87	12194.19
468.05	12367.39
468.23	12304.20
468.41	12325.26
468.60	12486.76
468.78	12692.73
468.96	12571.02
469.14	12638.89
469.32	12603.78
469.50	12725.49
469.69	12692.73
469.87	12891.67
470.05	13004.02
470.23	13109.34
470.41	12912.74
470.59	13109.34
470.77	13034.44
470.95	13053.17
471.14	13441.70
471.32	13111.68
471.50	13233.39
471.68	13448.72
471.86	13870.01
472.04	13577.45
472.22	13809.16
472.40	13710.86
472.58	13760.01
472.77	13949.59
472.95	13865.33
473.13	14466.85
473.31	14171.94
473.49	13991.72
473.67	14094.71
473.85	14242.16
474.03	14546.43
474.21	14523.02
474.39	14523.02
474.57	14633.03
474.75	14813.25
474.93	14824.95
475.12	14853.04
475.30	14937.30
475.48	14874.10
475.66	15311.78
475.84	15070.71
476.02	15403.07
476.20	15272.00
476.38	15653.50
476.56	15702.65
476.74	15939.05
476.92	15613.71
477.10	15679.25
477.28	16088.84
477.46	15960.11
477.64	16198.85
477.82	16442.26
478.00	16863.56
478.18	16561.63
478.36	16877.60
478.54	17095.27
478.72	17163.15
478.90	17153.79
479.08	17179.53
479.26	17362.09
479.44	17596.15
479.62	17689.77
479.80	18024.47
479.98	18024.47
480.16	18347.46
480.34	18141.49
480.52	18501.93
480.70	18134.47
480.88	18408.31
481.06	18230.43
481.24	18691.52
481.41	18836.63
481.59	19316.44
481.77	19091.75
481.95	19456.87
482.13	19742.42
482.31	19623.05
482.49	19957.75
482.67	19983.49
482.85	20306.49
483.03	20706.72
483.21	20507.77
483.39	20685.65
483.57	20943.11
483.74	20905.66
483.92	21401.86
484.10	21132.70
484.28	21680.38
484.46	21500.16
484.64	22209.34
484.82	22097.00
485.00	21968.27
485.18	22485.53
485.35	22796.82
485.53	22628.30
485.71	22878.74
485.89	23307.05
486.07	23005.13
486.25	23386.63
486.43	23236.84
486.61	23697.92
486.78	23845.38
486.96	23768.14
487.14	24671.59
487.32	24114.54
487.50	24802.66
487.68	24599.03
487.85	25233.32
488.03	25252.04
488.21	25605.46
488.39	25504.82
488.57	25689.72
488.75	26169.53
488.92	26270.17
489.10	26331.03
489.28	26656.36
489.46	26855.31
489.64	26913.82
489.81	27185.32
489.99	27410.01
490.17	27676.83
490.35	27845.35
490.53	27896.85
490.70	28081.75
490.88	27641.73
491.06	28650.50
491.24	28610.71
491.41	28503.04
491.59	29060.09
491.77	29067.11
491.95	29366.70
492.13	29340.96
492.30	29640.54
492.48	29942.47
492.66	30080.56
492.84	30178.87
493.01	30525.27
493.19	30300.58
493.37	30628.25
493.54	30684.42
493.72	31318.71
493.90	31005.08
494.08	31297.64
494.25	31964.70
494.43	31693.19
494.61	32098.11
494.79	31920.23
494.96	32105.13
495.14	32713.67
495.32	32694.94
495.49	32975.81
495.67	33179.43
495.85	33649.88
496.02	33432.21
496.20	33759.89
496.38	33567.96
496.55	33715.42
496.73	34501.84
496.91	34473.75
497.09	33975.22
497.26	34806.11
497.44	34562.69
497.62	34953.56
497.79	35370.18
497.97	34965.26
498.14	35381.88
498.32	35824.24
498.50	35744.66
498.67	36470.23
498.85	36156.60
499.03	36364.90
499.20	36147.23
499.38	36591.94
499.56	36877.48
499.73	36662.15
499.91	36856.42
500.08	37209.84
500.26	37041.32
500.44	37439.21
500.61	37188.77
500.79	37490.70
500.97	37832.42
501.14	38440.96
501.32	38249.03
501.49	38469.04
501.67	38550.96
501.84	38237.33
502.02	38667.99
502.20	38660.97
502.37	38895.02
502.55	39159.50
502.72	39096.31
502.90	39431.01
503.07	38689.06
503.25	39372.49
503.43	39538.67
503.60	39686.12
503.78	39831.24
503.95	40236.15
504.13	40751.07
504.30	40641.06
504.48	40065.29
504.65	40196.36
504.83	40493.61
505.01	40844.69
505.18	41380.67
505.36	41450.89
505.53	41017.89
505.71	41453.23
505.88	41312.80
506.06	41387.69
506.23	41528.13
506.41	41706.01
506.58	41500.04
506.76	42113.26
506.93	42443.27
507.11	41846.44
507.28	41996.23
507.46	42410.51
507.63	42543.92
507.81	43220.33
507.98	42576.69
508.16	42976.92
508.33	42932.45
508.50	43239.06
508.68	43260.12
508.85	43466.09
509.03	43299.91
509.20	43889.73
509.38	44254.85
509.55	43578.43
509.73	44470.18
509.90	44168.25
510.08	44137.82
510.25	44423.37
510.42	44142.50
510.60	45036.59
510.77	44779.13
510.95	45038.93
511.12	44931.26
511.30	45062.33
511.47	45092.76
511.64	45326.81
511.82	45989.19
511.99	45570.23
512.17	45734.07
512.34	45591.30
512.51	45834.71
512.69	45830.03
512.86	46003.23
513.04	46855.18
513.21	45954.08
513.38	46894.97
513.56	46319.20
513.73	46569.64
513.90	46803.69
514.08	46232.60
514.25	46974.55
514.43	47079.88
514.60	47262.44
514.77	46721.77
514.95	47416.91
515.12	47494.15
515.29	47667.35
515.47	47386.49
515.64	47639.26
515.81	47744.59
515.99	47772.67
516.16	47978.64
516.33	48119.07
516.51	48444.41
516.68	48088.65
516.85	48062.90
517.03	48509.94
517.20	48179.93
517.37	48502.92
517.54	48493.56
517.72	48594.20
517.89	48619.95
518.06	48914.86
518.24	49043.59
518.41	48891.45
518.58	49560.84
518.75	49095.08
518.93	49219.13
519.10	49333.81
519.27	49499.99
519.45	49670.85
519.62	49638.08
519.79	49715.32
519.96	49588.93
520.14	49851.07
520.31	49855.75
520.48	50394.07
520.65	49944.69
520.83	50440.89
521.00	50529.83
521.17	50174.06
521.34	50447.91
521.52	50281.73
521.69	50508.76
521.86	50593.02
522.03	50908.99
522.20	51114.96
522.38	51473.06
522.55	51522.21
522.72	51089.21
522.89	50946.44
523.07	51264.75
523.24	51327.95
523.41	51667.33
523.58	51356.03
523.75	51578.39
523.92	51494.13
524.10	51547.96
524.27	51870.95
524.44	51798.40
524.61	51470.72
524.78	51868.61
524.96	51976.28
525.13	52030.11
525.30	52025.43
525.47	52278.21
525.64	52175.22
525.81	52397.57
525.98	52556.73
526.16	52205.65
526.33	52163.52
526.50	52584.82
526.67	52470.13
526.84	52772.06
527.01	52680.78
527.18	52758.02
527.36	52399.91
527.53	52987.39
527.70	53116.12
527.87	53226.12
528.04	52842.27
528.21	52804.83
528.38	53207.40
528.55	53270.59
528.72	53062.29
528.89	53228.46
529.07	53193.36
529.24	53036.54
529.41	53574.86
529.58	53502.31
529.75	53455.50
529.92	53464.86
530.09	53422.73
530.26	53790.19
530.43	53661.46
530.60	53595.93
530.77	53698.91
530.94	53923.60
531.11	53729.34
531.28	53717.64
531.46	54028.93
531.63	53998.50
531.80	53993.82
531.97	54197.44
532.14	54204.47
532.31	54010.20
532.48	54330.86
532.65	54340.22
532.82	54176.38
532.99	54340.22
533.16	54380.01
533.33	54497.03
533.50	54733.43
533.67	54635.13
533.84	54316.81
534.01	54567.25
534.18	54707.68
534.35	54810.67
534.52	54815.35
534.69	54988.55
534.86	54944.08
535.03	54712.36
535.20	55171.11
535.37	55168.77
535.54	55096.21
535.71	54693.64
535.88	54979.18
536.05	55545.59
536.22	55337.29
536.38	55604.11
536.55	55365.37
536.72	55353.67
536.89	55199.19
537.06	55435.59
537.23	55430.91
537.40	55367.71
537.57	55554.96
537.74	55709.43
537.91	55849.86
538.08	55676.66
538.25	55650.92
538.42	55618.15
538.59	55779.65
538.75	55760.92
538.92	55730.50
539.09	56065.19
539.26	55903.70
539.43	56037.11
539.60	56041.79
539.77	55955.19
539.94	56161.15
540.11	56308.61
540.28	56177.54
540.44	56009.02
540.61	56278.18
540.78	56006.68
540.95	56282.86
541.12	56252.44
541.29	56523.94
541.46	56154.13
541.62	56369.46
541.79	56243.07
541.96	55983.27
542.13	56577.77
542.30	56479.47
542.47	56814.16
542.63	56692.46
542.80	56552.02
542.97	56736.93
543.14	57024.81
543.31	56910.13
543.48	56956.94
543.64	57427.38
543.81	57254.18
543.98	56959.28
544.15	57158.22
544.32	57181.63
544.48	57209.71
544.65	57153.54
544.82	57312.70
544.99	56992.04
545.16	57223.76
545.32	56942.89
545.49	57308.02
545.66	57382.91
545.83	57553.77
546.00	57513.98
546.16	57371.21
546.33	57415.68
546.50	57181.63
546.67	57485.90
546.83	57448.45
547.00	57656.76
547.17	57663.78
547.34	57560.79
547.50	57829.96
547.67	57799.53
547.84	57633.35
548.00	58014.86
548.17	58068.69
548.34	58007.84
548.51	57930.60
548.67	57893.15
548.84	57799.53
549.01	57640.37
549.18	57972.73
549.34	57939.96
549.51	58127.20
549.68	58183.38
549.84	58300.40
550.01	58021.88
550.18	58000.82
550.34	58349.56
550.51	58253.59
550.68	58326.15
550.84	58080.39
551.01	58550.84
551.18	58279.34
551.34	58199.76
551.51	58440.84
551.68	58438.50
551.84	58450.20
552.01	58277.00
552.18	58206.78
552.34	58211.46
552.51	58525.10
552.68	58363.60
552.84	58560.20
553.01	58798.94
553.18	58461.90
553.34	58635.10
553.51	58567.23
553.67	58658.51
553.84	58925.33
554.01	58695.95
554.17	58803.62
554.34	58850.43
554.51	58581.27
554.67	58864.47
554.84	58857.45
555.00	58677.23
555.17	58848.09
555.33	58728.72
555.50	58857.45
555.67	58763.83
555.83	58869.15
556.00	59000.22
556.16	59192.15
556.33	59175.76
556.50	58887.88
556.66	59236.62
556.83	58773.19
556.99	59250.66
557.16	59257.68
557.32	59234.28
557.49	59344.28
557.65	59143.00
557.82	59213.21
557.98	59428.54
558.15	59269.39
558.32	59304.49
558.48	59264.70
558.65	59449.61
558.81	59320.88
558.98	59475.35
559.14	59276.41
559.31	59526.84
559.47	59416.84
559.64	59538.55
559.80	59337.26
559.97	59655.57
560.13	59475.35
560.30	59292.79
560.46	59454.29
560.63	59613.44
560.79	59636.85
560.96	59561.95
561.12	59592.38
561.29	59578.34
561.45	59732.81
561.61	59756.22
561.78	59540.89
561.94	59494.08
562.11	59683.66
562.27	59540.89
562.44	59723.45
562.60	59936.44
562.77	59973.89
562.93	59636.85
563.10	59840.48
563.26	59517.48
563.42	60013.68
563.59	59796.01
563.75	59690.68
563.92	59817.07
564.08	59952.82
564.24	60041.76
564.41	59976.23
564.57	59798.35
564.74	59821.75
564.90	59917.71
565.07	59929.42
565.23	59873.24
565.39	60055.81
565.56	60055.81
565.72	59931.76
565.88	60126.02
566.05	60009.00
566.21	59896.65
566.38	60001.97
566.54	60102.62
566.70	60207.94
566.87	60051.12
567.03	59852.18
567.19	60266.45
567.36	60175.17
567.52	60030.06
567.68	60282.84
567.85	60214.96
568.01	60224.32
568.17	60207.94
568.34	60409.23
568.50	60004.31
568.66	60177.51
568.83	60280.50
568.99	60175.17
569.15	60247.73
569.32	60062.83
569.48	60172.83
569.64	60229.01
569.81	60355.39
569.97	59943.46
570.13	60149.43
570.30	60301.56
570.46	60273.48
570.62	60423.27
570.78	60252.41
570.95	60128.36
571.11	60360.08
571.27	60236.03
571.43	60219.64
571.60	60390.50
571.76	60310.92
571.92	60495.83
572.09	60594.13
572.25	60334.33
572.41	60500.51
572.57	60254.75
572.74	60626.90
572.90	60430.29
573.06	60369.44
573.22	60343.69
573.38	60519.23
573.55	60449.02
573.71	60554.34
573.87	60619.88
574.03	60479.44
574.20	60481.78
574.36	60458.38
574.52	60549.66
574.68	60458.38
574.84	60683.07
575.01	60577.75
575.17	60568.38
575.33	60388.16
575.49	60561.36
575.65	60706.47
575.82	60608.17
575.98	60582.43
576.14	60701.79
576.30	60622.22
576.46	60512.21
576.62	60552.00
576.79	60547.32
576.95	60500.51
577.11	60521.57
577.27	60465.40
577.43	60839.89
577.59	60547.32
577.75	60547.32
577.92	60406.89
578.08	60463.06
578.24	60608.17
578.40	60552.00
578.56	60814.14
578.72	60764.99
578.88	60692.43
579.04	60849.25
579.21	60495.83
579.37	60865.63
579.53	60781.37
579.69	60535.62
579.85	60406.89
580.01	60404.55
580.17	60612.85
580.33	60704.13
580.49	60722.86
580.65	60879.67
580.82	60914.78
580.98	60762.65
581.14	60645.62
581.30	60882.02
581.46	60647.96
581.62	60734.56
581.78	60608.17
581.94	60846.91
582.10	60615.19
582.26	60561.36
582.42	60647.96
582.58	60753.29
582.74	60509.87
582.90	60823.50
583.06	60711.16
583.22	60685.41
583.38	60542.64
583.54	60746.26
583.70	60767.33
583.86	60753.29
584.02	60772.01
584.18	60877.33
584.34	60739.24
584.50	60853.93
584.66	60764.99
584.82	60678.39
584.98	61076.28
585.14	60807.12
585.30	60844.57
585.46	60973.30
585.62	60874.99
585.78	60940.53
585.94	60519.23
586.10	60626.90
586.26	60846.91
586.42	61034.15
586.58	60889.04
586.74	61001.38
586.90	60851.59
587.06	60722.86
587.22	60889.04
587.38	60863.29
587.54	60942.87
587.70	61066.92
587.86	60800.10
588.02	61010.74
588.18	60968.61
588.34	60725.20
588.49	60919.46
