SpectraSuite Data File
++++++++++++++++++++++++++++++++++++
Date: Fri Oct 25 11:26:28 EDT 2013
User: price-jones
Dark Spectrum Present: No
Reference Spectrum Present: No
Number of Sampled Component Spectra: 1
Spectrometers: USB2+H05261
Integration Time (usec): 100000 (USB2+H05261)
Spectra Averaged: 1 (USB2+H05261)
Boxcar Smoothing: 0 (USB2+H05261)
Correct for Electrical Dark: No (USB2+H05261)
Strobe/Lamp Enabled: No (USB2+H05261)
Correct for Detector Non-linearity: No (USB2+H05261)
Correct for Stray Light: No (USB2+H05261)
Number of Pixels in Processed Spectrum: 2048
>>>>>Begin Processed Spectral Data<<<<<
365.73	154.48
365.92	154.48
366.12	154.48
366.32	145.11
366.52	180.22
366.72	168.52
366.91	147.45
367.11	135.75
367.31	135.75
367.51	149.79
367.70	149.79
367.90	145.11
368.10	128.73
368.30	131.07
368.49	149.79
368.69	138.09
368.89	159.16
369.09	194.26
369.28	168.52
369.48	187.24
369.68	259.80
369.87	168.52
370.07	180.22
370.27	250.44
370.47	292.57
370.66	582.79
370.86	650.67
371.06	528.96
371.25	695.14
371.45	765.36
371.65	702.16
371.84	718.54
372.04	655.35
372.24	706.84
372.44	777.06
372.63	763.01
372.83	718.54
373.03	758.33
373.22	704.50
373.42	770.04
373.62	770.04
373.81	704.50
374.01	823.87
374.21	830.89
374.40	828.55
374.60	821.53
374.79	851.96
374.99	856.64
375.19	854.30
375.38	950.26
375.58	854.30
375.78	812.17
375.97	823.87
376.17	905.79
376.37	854.30
376.56	933.87
376.76	805.14
376.95	835.57
377.15	884.72
377.35	936.21
377.54	943.24
377.74	882.38
377.93	842.59
378.13	938.55
378.33	849.61
378.52	849.61
378.72	966.64
378.91	997.07
379.11	908.13
379.31	945.58
379.50	957.28
379.70	905.79
379.89	957.28
380.09	954.94
380.28	978.34
380.48	961.96
380.68	1018.13
380.87	1008.77
381.07	1057.92
381.26	976.00
381.46	1057.92
381.65	1071.97
381.85	1100.05
382.04	1107.07
382.24	1086.01
382.43	1032.18
382.63	1055.58
382.83	1064.94
383.02	1083.67
383.22	1111.75
383.41	945.58
383.61	1130.48
383.80	1078.99
384.00	1043.88
384.19	1100.05
384.39	1109.41
384.58	1095.37
384.78	1114.10
384.97	1214.74
385.17	1135.16
385.36	1156.22
385.56	1235.80
385.75	1135.16
385.95	1219.42
386.14	1249.85
386.34	1146.86
386.53	1172.61
386.72	1165.59
386.92	1135.16
387.11	1212.40
387.31	1242.82
387.50	1252.19
387.70	1289.64
387.89	1238.14
388.09	1301.34
388.28	1210.06
388.48	1299.00
388.67	1343.47
388.86	1277.93
389.06	1313.04
389.25	1387.94
389.45	1266.23
389.64	1301.34
389.84	1289.64
390.03	1460.49
390.22	1380.92
390.42	1413.68
390.61	1394.96
390.81	1310.70
391.00	1357.51
391.19	1383.26
391.39	1448.79
391.58	1430.07
391.78	1486.24
391.97	1458.15
392.16	1469.86
392.36	1528.37
392.55	1476.88
392.75	1579.86
392.94	1596.25
393.13	1504.96
393.33	1495.60
393.52	1533.05
393.71	1561.14
393.91	1572.84
394.10	1699.23
394.29	1652.42
394.49	1586.88
394.68	1523.69
394.88	1626.67
395.07	1640.72
395.26	1741.36
395.46	1680.50
395.65	1652.42
395.84	1657.10
396.04	1741.36
396.23	1755.40
396.42	1696.89
396.62	1736.68
396.81	1837.32
397.00	1760.08
397.19	1853.70
397.39	1750.72
397.58	1734.34
397.77	1757.74
397.97	1858.39
398.16	1881.79
398.35	1902.86
398.55	1959.03
398.74	1942.64
398.93	1952.01
399.12	1991.80
399.32	1830.30
399.51	1893.49
399.70	2003.50
399.90	2040.95
400.09	1907.54
400.28	2022.22
400.47	2062.01
400.67	2104.14
400.86	2104.14
401.05	2073.71
401.24	2155.63
401.44	2169.68
401.63	2115.84
401.82	2207.13
402.01	2155.63
402.21	2242.23
402.40	2122.87
402.59	2242.23
402.78	2139.25
402.97	2083.08
403.17	2265.64
403.36	2214.15
403.55	2380.32
403.74	2293.72
403.93	2401.39
404.13	2289.04
404.32	2349.90
404.51	2392.03
404.70	2434.16
404.89	2335.85
405.09	2487.99
405.28	2511.39
405.47	2635.44
405.66	2551.18
405.85	2532.46
406.05	2553.52
406.24	2602.68
406.43	2607.36
406.62	2649.49
406.81	2689.28
407.00	2541.82
407.20	2691.62
407.39	2605.02
407.58	2722.04
407.77	2623.74
407.96	2724.38
408.15	2745.45
408.34	2520.76
408.54	2843.75
408.73	2853.11
408.92	2731.41
409.11	2801.62
409.30	2892.90
409.49	3023.97
409.68	2972.48
409.87	2799.28
410.07	2981.84
410.26	2935.03
410.45	2977.16
410.64	3005.25
410.83	3045.04
411.02	3155.04
411.21	3089.51
411.40	3204.19
411.59	3251.00
411.78	3136.32
411.98	3201.85
412.17	3169.09
412.36	3328.24
412.55	3314.20
412.74	3463.99
412.93	3435.91
413.12	3473.36
413.31	3449.95
413.50	3492.08
413.69	3515.48
413.88	3538.89
414.07	3503.78
414.26	3616.13
414.45	3658.26
414.64	3590.38
414.83	3777.62
415.02	3782.31
415.22	3892.31
415.41	3861.88
415.60	3782.31
415.79	3726.13
415.98	3901.67
416.17	4007.00
416.36	3929.76
416.55	3999.98
416.74	4079.55
416.93	4018.70
417.12	4159.13
417.31	4250.41
417.50	4191.90
417.69	4365.10
417.88	4224.67
418.07	4365.10
418.26	4189.56
418.45	4191.90
418.64	4383.82
418.83	4250.41
419.02	4435.32
419.21	4411.91
419.39	4468.08
419.58	4425.95
419.77	4510.21
419.96	4594.47
420.15	4758.31
420.34	4510.21
420.53	4573.41
420.72	4662.35
420.91	4674.05
421.10	4739.58
421.29	4908.10
421.48	4692.77
421.67	4627.24
421.86	4678.73
422.05	4870.65
422.24	4788.74
422.43	5029.81
422.61	4905.76
422.80	5039.17
422.99	4849.59
423.18	4926.83
423.37	4943.21
423.56	5004.07
423.75	4922.15
423.94	4973.64
424.13	4559.36
424.32	4688.09
424.50	5060.24
424.69	5125.77
424.88	5104.71
425.07	4990.02
425.26	4924.49
425.45	5064.92
425.64	4915.12
425.83	4997.04
426.01	5179.61
426.20	5015.77
426.39	5046.20
426.58	4973.64
426.77	5013.43
426.96	5118.75
427.15	5107.05
427.33	5090.67
427.52	5191.31
427.71	5390.25
427.90	5261.52
428.09	5219.39
428.28	5366.85
428.46	5313.02
428.65	5067.26
428.84	5563.45
429.03	5430.04
429.22	5291.95
429.40	5500.26
429.59	5446.43
429.78	5390.25
429.97	5390.25
430.16	5341.10
430.34	5628.99
430.53	5607.92
430.72	5692.18
430.91	5579.84
431.10	5645.37
431.28	5820.91
431.47	5731.97
431.66	5975.39
431.85	5813.89
432.03	5844.32
432.22	5980.07
432.41	5844.32
432.60	5802.19
432.79	5884.11
432.97	5753.04
433.16	5888.79
433.35	5944.96
433.54	6160.29
433.72	6113.48
433.91	6136.88
434.10	6097.10
434.28	6190.72
434.47	6209.44
434.66	6352.21
434.85	6298.38
435.03	6492.65
435.22	6333.49
435.41	6614.35
435.59	6471.58
435.78	6492.65
435.97	6513.71
436.16	6298.38
436.34	6494.99
436.53	6469.24
436.72	6731.38
436.90	6544.14
437.09	6434.13
437.28	6361.58
437.46	6424.77
437.65	6649.46
437.84	6619.04
438.02	6612.01
438.21	6726.70
438.40	6546.48
438.58	7096.50
438.77	6949.05
438.96	6787.55
439.14	7222.89
439.33	7094.16
439.52	7089.48
439.70	7145.66
439.89	7302.47
440.08	7372.69
440.26	7349.28
440.45	7309.49
440.63	7379.71
440.82	7506.10
441.01	7393.75
441.19	7548.23
441.38	7726.11
441.57	7662.91
441.75	7588.02
441.94	7983.57
442.12	7831.43
442.31	8124.00
442.50	8063.15
442.68	7913.35
442.87	8077.19
443.05	8058.46
443.24	8341.67
443.43	8196.56
443.61	8067.83
443.80	8252.73
443.98	7962.50
444.17	7801.01
444.35	8074.85
444.54	8243.37
444.73	8362.73
444.91	8184.85
445.10	8084.21
445.28	8217.62
445.47	8339.33
445.65	8428.27
445.84	8395.50
446.02	8439.97
446.21	8411.89
446.39	8526.57
446.58	8461.04
446.77	8390.82
446.95	8212.94
447.14	8421.25
447.32	8613.17
447.51	8402.52
447.69	8578.06
447.88	8435.29
448.06	8617.85
448.25	8292.52
448.43	8498.49
448.62	8599.13
448.80	8493.80
448.99	8587.43
449.17	8620.19
449.36	8741.90
449.54	8732.54
449.73	8975.95
449.91	9078.94
450.10	8814.46
450.28	8952.55
450.46	8889.35
450.65	9151.49
450.83	9104.68
451.02	8954.89
451.20	9160.86
451.39	9008.72
451.57	9259.16
451.76	9004.04
451.94	9144.47
452.13	9406.61
452.31	9336.40
452.49	9050.85
452.68	9254.48
452.86	9254.48
453.05	9371.50
453.23	9451.08
453.42	9511.94
453.60	9336.40
453.78	9556.41
453.97	9366.82
454.15	9533.00
454.34	9376.19
454.52	9617.26
454.70	9661.73
454.89	9818.55
455.07	9652.37
455.26	9870.04
455.44	9764.72
455.62	9834.93
455.81	9771.74
455.99	9893.44
456.17	9858.34
456.36	10033.88
456.54	10188.35
456.73	10188.35
456.91	10455.17
457.09	10347.51
457.28	10738.38
457.46	10427.09
457.64	10431.77
457.83	10487.94
458.01	10373.25
458.19	10614.33
458.38	10682.20
458.56	10509.01
458.74	10537.09
458.93	10698.59
459.11	10813.28
459.29	10899.87
459.48	10738.38
459.66	10640.08
459.84	11136.27
460.03	10939.66
460.21	10792.21
460.39	10705.61
460.57	10874.13
460.76	11180.74
460.94	11122.23
461.12	11365.64
461.31	11054.35
461.49	10895.19
461.67	11037.97
461.85	11426.50
462.04	11332.87
462.22	11737.79
462.40	11690.98
462.59	11375.00
462.77	11449.90
462.95	11721.40
463.13	11545.86
463.32	11627.78
463.50	11887.58
463.68	11782.26
463.86	11920.35
464.05	11557.57
464.23	11667.57
464.41	12067.80
464.59	11632.46
464.78	12077.16
464.96	11840.77
465.14	11943.75
465.32	12114.61
465.50	12058.44
465.69	12285.47
465.87	11873.54
466.05	12219.94
466.23	11910.99
466.41	12159.08
466.60	12339.30
466.78	12224.62
466.96	12189.51
467.14	12348.67
467.32	12315.90
467.51	12468.03
467.69	11934.39
467.87	12395.48
468.05	12463.35
468.23	12315.90
468.41	12259.73
468.60	12772.30
468.78	12585.06
468.96	12428.24
469.14	12596.76
469.32	12894.01
469.50	12657.62
469.69	12994.65
469.87	13074.23
470.05	13125.72
470.23	13116.36
470.41	13268.50
470.59	13401.91
470.77	13095.30
470.95	13163.17
471.14	13355.10
471.32	13186.58
471.50	13415.95
471.68	13437.02
471.86	13631.28
472.04	13944.91
472.22	13984.70
472.40	13565.74
472.58	13820.86
472.77	14038.53
472.95	14127.47
473.13	14675.16
473.31	13951.93
473.49	14136.84
473.67	14045.55
473.85	14324.08
474.03	14539.41
474.21	14719.63
474.39	14656.43
474.57	14508.98
474.75	14806.23
474.93	15082.41
475.12	14906.87
475.30	14911.55
475.48	14750.06
475.66	15494.35
475.84	14965.39
476.02	15428.81
476.20	15379.66
476.38	15709.68
476.56	15939.05
476.74	16027.99
476.92	15831.38
477.10	15667.55
477.28	16367.37
477.46	15962.45
477.64	16442.26
477.82	16404.81
478.00	16774.62
478.18	16919.73
478.36	16699.72
478.54	17055.48
478.72	17116.34
478.90	17317.62
479.08	17390.18
479.26	17575.08
479.44	17591.47
479.62	17558.70
479.80	17858.29
479.98	18120.43
480.16	18670.45
480.34	18232.77
480.52	18485.55
480.70	18427.04
480.88	18441.08
481.06	18621.30
481.24	18902.17
481.41	19009.83
481.59	19168.99
481.77	19370.27
481.95	19264.95
482.13	19353.89
482.31	19524.75
482.49	20177.76
482.67	19922.64
482.85	20332.23
483.03	20666.93
483.21	20676.29
483.39	20858.85
483.57	20592.03
483.74	21280.15
483.92	21214.62
484.10	21263.77
484.28	21558.67
484.46	21935.50
484.64	22417.65
484.82	21905.07
485.00	22129.77
485.18	22415.31
485.35	23157.26
485.53	22455.10
485.71	22801.50
485.89	23772.82
486.07	23367.91
486.25	23381.95
486.43	23538.77
486.61	23749.42
486.78	23850.06
486.96	23992.83
487.14	24273.70
487.32	24594.35
487.50	25083.52
487.68	24903.30
487.85	25078.84
488.03	25158.42
488.21	25568.01
488.39	25795.04
488.57	26197.62
488.75	26057.18
488.92	26288.90
489.10	27019.14
489.28	26618.91
489.46	27260.22
489.64	26787.43
489.81	27339.80
489.99	27601.94
490.17	27672.15
490.35	28018.55
490.53	28135.58
490.70	28732.42
490.88	28280.69
491.06	28641.14
491.24	28563.90
491.41	28739.44
491.59	29472.03
491.77	29071.79
491.95	29310.53
492.13	29429.90
492.30	29841.83
492.48	29771.61
492.66	30192.91
492.84	30085.25
493.01	30410.58
493.19	30417.60
493.37	30419.94
493.54	31395.95
493.72	31630.00
493.90	31945.97
494.08	31697.88
494.25	31845.33
494.43	31859.37
494.61	32158.96
494.79	32114.49
494.96	32240.88
495.14	32723.03
495.32	33088.15
495.49	32954.74
495.67	33092.83
495.85	33661.58
496.02	33624.14
496.20	33762.23
496.38	33993.94
496.55	33811.38
496.73	34288.85
496.91	34141.39
497.09	34888.03
497.26	34759.30
497.44	34941.86
497.62	34962.92
497.79	35498.91
497.97	35325.71
498.14	35587.85
498.32	35981.06
498.50	36002.12
498.67	36374.27
498.85	36383.63
499.03	36491.29
499.20	36275.96
499.38	36486.61
499.56	36608.32
499.73	37120.90
499.91	37242.60
500.08	37596.03
500.26	37031.96
500.44	37439.21
500.61	37645.18
500.79	37123.24
500.97	38115.62
501.14	38260.74
501.32	38398.83
501.49	38347.34
501.67	38164.78
501.84	38820.13
502.02	38602.46
502.20	38934.81
502.37	39243.76
502.55	39199.29
502.72	39267.17
502.90	39206.31
503.07	39281.21
503.25	39487.18
503.43	39669.74
503.60	39796.13
503.78	40165.93
503.95	40460.84
504.13	40327.43
504.30	40437.44
504.48	40488.93
504.65	40643.40
504.83	41053.00
505.01	41340.88
505.18	40760.43
505.36	41109.17
505.53	41022.57
505.71	41427.48
505.88	41673.24
506.06	41565.57
506.23	41748.14
506.41	41848.78
506.58	41778.56
506.76	42110.92
506.93	41961.12
507.11	42106.24
507.28	42401.14
507.46	42635.20
507.63	42555.62
507.81	42974.58
507.98	42700.73
508.16	43161.82
508.33	43447.36
508.50	43065.86
508.68	43480.13
508.85	43894.41
509.03	43578.43
509.20	43849.94
509.38	44261.87
509.55	44439.75
509.73	44385.92
509.90	44318.04
510.08	44210.38
510.25	44278.25
510.42	44790.83
510.60	44275.91
510.77	44942.97
510.95	44980.42
511.12	45102.12
511.30	45247.24
511.47	44917.22
511.64	45020.20
511.82	46040.68
511.99	45830.03
512.17	45490.65
512.34	45963.44
512.51	46150.68
512.69	46237.28
512.86	46501.76
513.04	46506.44
513.21	46564.96
513.38	46684.33
513.56	46373.03
513.73	46424.53
513.90	47232.01
514.08	46965.19
514.25	47313.93
514.43	46855.18
514.60	47004.98
514.77	47002.64
514.95	47456.70
515.12	47030.72
515.29	47412.23
515.47	47704.80
515.64	47735.23
515.81	47552.66
515.99	47779.70
516.16	48282.91
516.33	47952.90
516.51	48512.28
516.68	48423.34
516.85	48264.19
517.03	48545.05
517.20	48736.98
517.37	48690.16
517.54	48421.00
517.72	49017.84
517.89	49092.74
518.06	48987.41
518.24	49254.23
518.41	49059.97
518.58	49017.84
518.75	49022.52
518.93	49345.51
519.10	49279.98
519.27	49600.63
519.45	49567.87
519.62	49392.33
519.79	49509.35
519.96	49551.48
520.14	50035.97
520.31	49780.85
520.48	50391.73
520.65	50232.58
520.83	50691.32
521.00	50667.92
521.17	50244.28
521.34	50527.48
521.52	50621.11
521.69	50365.99
521.86	50894.95
522.03	50813.03
522.20	51269.43
522.38	51208.58
522.55	51154.75
522.72	50997.93
522.89	51047.08
523.07	51480.08
523.24	51393.48
523.41	51543.28
523.58	51337.31
523.75	51337.31
523.92	51566.68
524.10	51779.67
524.27	51948.19
524.44	51971.60
524.61	51669.67
524.78	51856.91
524.96	52151.82
525.13	52055.85
525.30	52254.80
525.47	52542.69
525.64	52624.60
525.81	52521.62
525.98	52633.97
526.16	52385.87
526.33	52458.43
526.50	52921.85
526.67	52362.46
526.84	52729.93
527.01	52481.83
527.18	52554.39
527.36	52725.25
527.53	52666.73
527.70	53310.38
527.87	53249.53
528.04	53286.98
528.21	53331.45
528.38	53256.55
528.55	53207.40
528.72	53354.85
528.89	53450.81
529.07	53277.61
529.24	53188.67
529.41	53411.02
529.58	53759.76
529.75	53762.11
529.92	53621.67
530.09	53628.69
530.26	53738.70
530.43	53865.09
530.60	53759.76
530.77	53673.16
530.94	53815.94
531.11	53588.91
531.28	54143.61
531.46	54330.86
531.63	54372.99
531.80	54253.62
531.97	54328.52
532.14	54286.39
532.31	54232.55
532.48	54092.12
532.65	54382.35
532.82	54087.44
532.99	54539.16
533.16	54628.10
533.33	54721.72
533.50	54908.97
533.67	54796.62
533.84	54461.93
534.01	54827.05
534.18	54887.90
534.35	54932.37
534.52	55192.17
534.69	54951.10
534.86	55339.63
535.03	55028.34
535.20	55334.95
535.37	55213.24
535.54	55203.88
535.71	55178.13
535.88	55395.80
536.05	55285.79
536.22	55622.83
536.38	55489.42
536.55	55458.99
536.72	55496.44
536.89	55253.03
537.06	55341.97
537.23	55690.71
537.40	55292.82
537.57	55451.97
537.74	55545.59
537.91	55927.10
538.08	55571.34
538.25	55599.43
538.42	55908.38
538.59	56100.30
538.75	55688.37
538.92	55807.73
539.09	55922.42
539.26	55983.27
539.43	56055.83
539.60	56247.75
539.77	56219.67
539.94	56264.14
540.11	56224.35
540.28	56306.27
540.44	56435.00
540.61	56341.38
540.78	56353.08
540.95	56320.31
541.12	56568.41
541.29	56411.59
541.46	56507.55
541.62	56556.70
541.79	56404.57
541.96	56233.71
542.13	56479.47
542.30	56650.33
542.47	56816.50
542.63	56800.12
542.80	56905.44
542.97	57083.33
543.14	57190.99
543.31	57179.29
543.48	56963.96
543.64	57385.25
543.81	57361.85
543.98	57111.41
544.15	57237.80
544.32	57237.80
544.48	57324.40
544.65	57118.43
544.82	57132.48
544.99	57181.63
545.16	57523.35
545.32	57453.13
545.49	57553.77
545.66	57537.39
545.83	57614.63
546.00	57602.92
546.16	57317.38
546.33	57460.15
546.50	57244.82
546.67	57574.84
546.83	57366.53
547.00	57652.08
547.17	57560.79
547.34	57750.38
547.50	57862.72
547.67	57860.38
547.84	57848.68
548.00	57881.45
548.17	57867.40
548.34	57778.46
548.51	58197.42
548.67	58064.01
548.84	58202.10
549.01	58014.86
549.18	57851.02
549.34	58192.74
549.51	57942.30
549.68	58309.77
549.84	58234.87
550.01	58234.87
550.18	58024.22
550.34	58298.06
550.51	58372.96
550.68	58078.05
550.84	58075.71
551.01	58319.13
551.18	58192.74
551.34	58431.47
551.51	58616.38
551.68	58581.27
551.84	58419.77
552.01	58553.18
552.18	58370.62
552.34	58405.73
552.51	58370.62
552.68	58253.59
552.84	58475.94
553.01	58782.55
553.18	58614.04
553.34	58939.37
553.51	58717.02
553.67	58475.94
553.84	58953.41
554.01	58894.90
554.17	58794.26
554.34	58787.24
554.51	58649.14
554.67	58857.45
554.84	58803.62
555.00	58782.55
555.17	58930.01
555.33	58932.35
555.50	58742.77
555.67	59056.40
555.83	58988.52
556.00	59091.51
556.16	59199.17
556.33	59112.57
556.50	58983.84
556.66	59208.53
556.83	59278.75
556.99	59128.95
557.16	59365.35
557.32	59405.14
557.49	59468.33
557.65	59028.31
557.82	59442.59
557.98	59313.86
558.15	59185.13
558.32	59405.14
558.48	59253.00
558.65	59409.82
558.81	59325.56
558.98	59578.34
559.14	59407.48
559.31	59339.60
559.47	59552.59
559.64	59531.53
559.80	59487.06
559.97	59475.35
560.13	59484.72
560.30	59482.37
560.46	59683.66
560.63	59793.67
560.79	59519.82
560.96	59788.98
561.12	59646.21
561.29	59805.37
561.45	59786.64
561.61	59536.21
561.78	59648.55
561.94	59746.86
562.11	59620.47
562.27	59749.20
562.44	59882.61
562.60	60046.44
562.77	59784.30
562.93	59781.96
563.10	60074.53
563.26	59686.00
563.42	60374.12
563.59	59969.21
563.75	59915.37
563.92	59957.50
564.08	60006.65
564.24	60069.85
564.41	59962.18
564.57	59948.14
564.74	59962.18
564.90	60114.32
565.07	60018.36
565.23	59973.89
565.39	59980.91
565.56	60011.34
565.72	59999.63
565.88	60081.55
566.05	60130.70
566.21	60051.12
566.38	59983.25
566.54	59994.95
566.70	60238.37
566.87	60353.05
567.03	60083.89
567.19	60221.98
567.36	60097.94
567.52	60175.17
567.68	60411.57
567.85	60367.10
568.01	60317.95
568.17	60299.22
568.34	60271.14
568.50	60193.90
568.66	60149.43
568.83	60299.22
568.99	60381.14
569.15	60327.31
569.32	60413.91
569.48	60413.91
569.64	60357.74
569.81	60397.52
569.97	60161.13
570.13	60308.58
570.30	60238.37
570.46	60247.73
570.62	60343.69
570.78	60444.33
570.95	60306.24
571.11	60364.76
571.27	60385.82
571.43	60154.11
571.60	60484.12
571.76	60350.71
571.92	60528.59
572.09	60430.29
572.25	60420.93
572.41	60467.74
572.57	60542.64
572.74	60741.58
572.90	60676.05
573.06	60498.17
573.22	60523.91
573.38	60479.44
573.55	60423.27
573.71	60647.96
573.87	60523.91
574.03	60500.51
574.20	60533.28
574.36	60252.41
574.52	60720.52
574.68	60615.19
574.84	60701.79
575.01	60755.63
575.17	60509.87
575.33	60516.89
575.49	60615.19
575.65	60645.62
575.82	60797.76
575.98	60643.28
576.14	60804.78
576.30	60519.23
576.46	60711.16
576.62	60582.43
576.79	60734.56
576.95	60757.97
577.11	60687.75
577.27	60605.83
577.43	60633.92
577.59	60523.91
577.75	60582.43
577.92	60783.71
578.08	60676.05
578.24	60654.98
578.40	60666.69
578.56	60554.34
578.72	60713.50
578.88	61001.38
579.04	61071.60
579.21	60591.79
579.37	60931.17
579.53	60926.49
579.69	60570.72
579.85	60694.77
580.01	60825.84
580.17	60566.04
580.33	60865.63
580.49	60882.02
580.65	60741.58
580.82	60711.16
580.98	60781.37
581.14	60748.60
581.30	60900.74
581.46	60804.78
581.62	60935.85
581.78	60772.01
581.94	60797.76
582.10	60664.35
582.26	60685.41
582.42	60687.75
582.58	60867.97
582.74	60718.18
582.90	60804.78
583.06	60893.72
583.22	60493.49
583.38	60664.35
583.54	60743.92
583.70	60786.05
583.86	61078.62
584.02	60783.71
584.18	60917.12
584.34	60985.00
584.50	61006.06
584.66	60647.96
584.82	60762.65
584.98	60912.44
585.14	60903.08
585.30	60727.54
585.46	60975.64
585.62	60851.59
585.78	60919.46
585.94	60795.42
586.10	61078.62
586.26	60729.88
586.42	61073.94
586.58	61087.98
586.74	60968.61
586.90	61006.06
587.06	60776.69
587.22	61244.80
587.38	60931.17
587.54	60982.66
587.70	61139.47
587.86	60870.31
588.02	61024.79
588.18	60966.27
588.34	61055.21
588.49	61045.85
