SpectraSuite Data File
++++++++++++++++++++++++++++++++++++
Date: Fri Oct 25 10:48:12 EDT 2013
User: price-jones
Dark Spectrum Present: No
Reference Spectrum Present: No
Number of Sampled Component Spectra: 1
Spectrometers: USB2+H05261
Integration Time (usec): 100000 (USB2+H05261)
Spectra Averaged: 1 (USB2+H05261)
Boxcar Smoothing: 0 (USB2+H05261)
Correct for Electrical Dark: No (USB2+H05261)
Strobe/Lamp Enabled: No (USB2+H05261)
Correct for Detector Non-linearity: No (USB2+H05261)
Correct for Stray Light: No (USB2+H05261)
Number of Pixels in Processed Spectrum: 2048
>>>>>Begin Processed Spectral Data<<<<<
365.73	81.92
365.92	81.92
366.12	81.92
366.32	110.01
366.52	11.70
366.72	72.56
366.91	35.11
367.11	166.18
367.31	65.54
367.51	11.70
367.70	9.36
367.90	49.15
368.10	77.24
368.30	42.13
368.49	79.58
368.69	100.64
368.89	74.90
369.09	23.41
369.28	72.56
369.48	44.47
369.68	72.56
369.87	140.43
370.07	133.41
370.27	152.13
370.47	236.39
370.66	362.78
370.86	421.30
371.06	528.96
371.25	447.04
371.45	456.40
371.65	477.47
371.84	454.06
372.04	416.62
372.24	531.30
372.44	521.94
372.63	592.16
372.83	531.30
373.03	578.11
373.22	503.22
373.42	484.49
373.62	514.92
373.81	507.90
374.01	521.94
374.21	660.03
374.40	594.50
374.60	580.45
374.79	547.69
374.99	540.66
375.19	594.50
375.38	580.45
375.58	613.22
375.78	580.45
375.97	594.50
376.17	587.47
376.37	641.31
376.56	582.79
376.76	592.16
376.95	627.26
377.15	657.69
377.35	580.45
377.54	573.43
377.74	550.03
377.93	596.84
378.13	631.94
378.33	645.99
378.52	608.54
378.72	674.07
378.91	667.05
379.11	585.13
379.31	648.33
379.50	624.92
379.70	706.84
379.89	699.82
380.09	636.63
380.28	636.63
380.48	662.37
380.68	690.46
380.87	699.82
381.07	683.44
381.26	636.63
381.46	601.52
381.65	763.01
381.85	608.54
382.04	779.40
382.24	653.01
382.43	650.67
382.63	704.50
382.83	662.37
383.02	844.93
383.22	713.86
383.41	676.41
383.61	770.04
383.80	767.70
384.00	753.65
384.19	706.84
384.39	830.89
384.58	786.42
384.78	713.86
384.97	713.86
385.17	812.17
385.36	748.97
385.56	826.21
385.75	830.89
385.95	840.25
386.14	779.40
386.34	807.48
386.53	779.40
386.72	765.36
386.92	884.72
387.11	732.59
387.31	889.40
387.50	830.89
387.70	795.78
387.89	866.00
388.09	779.40
388.28	887.06
388.48	833.23
388.67	821.53
388.86	858.98
389.06	896.43
389.25	891.74
389.45	877.70
389.64	847.27
389.84	926.85
390.03	961.96
390.22	926.85
390.42	919.83
390.61	947.92
390.81	964.30
391.00	875.36
391.19	915.15
391.39	929.19
391.58	943.24
391.78	938.55
391.97	922.17
392.16	915.15
392.36	908.13
392.55	978.34
392.75	976.00
392.94	1027.50
393.13	954.94
393.33	957.28
393.52	922.17
393.71	1088.35
393.91	1020.47
394.10	1109.41
394.29	957.28
394.49	1050.90
394.68	1064.94
394.88	1156.22
395.07	1139.84
395.26	1217.08
395.46	1144.52
395.65	1135.16
395.84	1221.76
396.04	1228.78
396.23	1144.52
396.42	1153.88
396.62	1193.67
396.81	1086.01
397.00	1153.88
397.19	1207.72
397.39	1207.72
397.58	1350.49
397.77	1231.12
397.97	1219.42
398.16	1247.51
398.35	1270.91
398.55	1308.36
398.74	1334.11
398.93	1446.45
399.12	1317.72
399.32	1296.66
399.51	1313.04
399.70	1380.92
399.90	1425.39
400.09	1355.17
400.28	1430.07
400.47	1472.20
400.67	1465.18
400.86	1465.18
401.05	1418.36
401.24	1418.36
401.44	1451.13
401.63	1472.20
401.82	1441.77
402.01	1369.21
402.21	1460.49
402.40	1629.01
402.59	1509.65
402.78	1502.62
402.97	1600.93
403.17	1626.67
403.36	1514.33
403.55	1650.08
403.74	1610.29
403.93	1614.97
404.13	1750.72
404.32	1624.33
404.51	1600.93
404.70	1715.61
404.89	1713.27
405.09	1699.23
405.28	1694.55
405.47	1771.79
405.66	1696.89
405.85	1769.44
406.05	1823.28
406.24	1743.70
406.43	1785.83
406.62	1799.87
406.81	1849.02
407.00	1879.45
407.20	1933.28
407.39	1898.17
407.58	1907.54
407.77	1980.09
407.96	2064.35
408.15	2031.58
408.34	1975.41
408.54	2062.01
408.73	1989.46
408.92	1909.88
409.11	2108.82
409.30	1980.09
409.49	1987.11
409.68	2040.95
409.87	2092.44
410.07	2043.29
410.26	2085.42
410.45	2134.57
410.64	2174.36
410.83	2209.47
411.02	2099.46
411.21	2319.47
411.40	2239.89
411.59	2296.07
411.78	2221.17
411.98	2303.09
412.17	2370.96
412.36	2380.32
412.55	2459.90
412.74	2387.35
412.93	2448.20
413.12	2434.16
413.31	2527.78
413.50	2462.24
413.69	2572.25
413.88	2693.96
414.07	2523.10
414.26	2628.42
414.45	2658.85
414.64	2628.42
414.83	2663.53
415.02	2829.71
415.22	2778.22
415.41	2834.39
415.60	2780.56
415.79	2691.62
415.98	2848.43
416.17	2839.07
416.36	2888.22
416.55	2942.05
416.74	2981.84
416.93	2862.48
417.12	2822.69
417.31	2935.03
417.50	2871.84
417.69	3155.04
417.88	3019.29
418.07	3197.17
418.26	3112.91
418.45	3185.47
418.64	3185.47
418.83	3124.62
419.02	3260.37
419.21	3349.31
419.39	3194.83
419.58	3105.89
419.77	3185.47
419.96	3297.81
420.15	3356.33
420.34	3332.92
420.53	3281.43
420.72	3372.71
420.91	3414.84
421.10	3538.89
421.29	3473.36
421.48	3337.60
421.67	3471.01
421.86	3365.69
422.05	3485.06
422.24	3421.86
422.43	3410.16
422.61	3482.72
422.80	3545.91
422.99	3564.64
423.18	3562.30
423.37	3623.15
423.56	3618.47
423.75	3576.34
423.94	3468.67
424.13	3300.16
424.32	3353.99
424.50	3742.52
424.69	3623.15
424.88	3669.96
425.07	3662.94
425.26	3463.99
425.45	3503.78
425.64	3506.12
425.83	3634.85
426.01	3585.70
426.20	3508.46
426.39	3548.25
426.58	3599.74
426.77	3536.55
426.96	3684.00
427.15	3606.77
427.33	3686.34
427.52	3784.65
427.71	3777.62
427.90	3627.83
428.09	3740.18
428.28	3873.59
428.46	3742.52
428.65	3808.05
428.84	3873.59
429.03	3920.40
429.22	3775.28
429.40	3866.56
429.59	3817.41
429.78	3606.77
429.97	3660.60
430.16	3705.07
430.34	3918.06
430.53	4060.83
430.72	3815.07
430.91	3908.69
431.10	3936.78
431.28	4117.00
431.47	4236.37
431.66	4315.95
431.85	4133.39
432.03	4161.47
432.22	4184.88
432.41	4009.34
432.60	4182.54
432.79	4266.80
432.97	4271.48
433.16	4329.99
433.35	4257.43
433.54	4278.50
433.72	4311.27
433.91	4325.31
434.10	4362.76
434.28	4344.03
434.47	4362.76
434.66	4344.03
434.85	4388.50
435.03	4489.15
435.22	4390.84
435.41	4524.26
435.59	4554.68
435.78	4620.22
435.97	4662.35
436.16	4634.26
436.34	4517.23
436.53	4571.07
436.72	4788.74
436.90	4561.70
437.09	4706.82
437.28	4472.76
437.46	4561.70
437.65	4683.41
437.84	4753.63
438.02	4830.87
438.21	4830.87
438.40	4755.97
438.58	4940.87
438.77	4938.53
438.96	4877.68
439.14	5008.75
439.33	5128.11
439.52	5095.35
439.70	5219.39
439.89	5121.09
440.08	5076.62
440.26	5158.54
440.45	5294.29
440.63	5373.87
440.82	5439.40
441.01	5390.25
441.19	5404.30
441.38	5516.64
441.57	5481.53
441.75	5575.16
441.94	5614.95
442.12	5603.24
442.31	5671.12
442.50	5741.33
442.68	5504.94
442.87	5748.36
443.05	5685.16
443.24	5586.86
443.43	5631.33
443.61	5731.97
443.80	6024.54
443.98	5788.14
444.17	5614.95
444.35	5844.32
444.54	5893.47
444.73	5919.21
444.91	6017.52
445.10	5799.85
445.28	6064.33
445.47	5811.55
445.65	5748.36
445.84	6001.13
446.02	5877.09
446.21	5902.83
446.39	5860.70
446.58	5865.38
446.77	5923.90
446.95	5900.49
447.14	6019.86
447.32	6031.56
447.51	5987.09
447.69	5942.62
447.88	6045.60
448.06	6164.97
448.25	6104.12
448.43	6026.88
448.62	6179.01
448.80	6059.65
448.99	6040.92
449.17	6136.88
449.36	6179.01
449.54	6317.11
449.73	6490.31
449.91	6366.26
450.10	6394.34
450.28	6396.68
450.46	6347.53
450.65	6513.71
450.83	6539.46
451.02	6478.60
451.20	6438.81
451.39	6478.60
451.57	6361.58
451.76	6314.77
451.94	6504.35
452.13	6544.14
452.31	6555.84
452.49	6476.26
452.68	6586.27
452.86	6586.27
453.05	6738.40
453.23	6593.29
453.42	6511.37
453.60	6392.00
453.78	6792.23
453.97	6607.33
454.15	6691.59
454.34	6752.45
454.52	6602.65
454.70	6525.41
454.89	6745.42
455.07	6686.91
455.26	6902.24
455.44	7061.40
455.62	7145.66
455.81	6988.84
455.99	6789.89
456.17	6904.58
456.36	6909.26
456.54	7148.00
456.73	7410.14
456.91	7414.82
457.09	7328.22
457.28	7482.69
457.46	7138.63
457.64	7323.54
457.83	7424.18
458.01	7302.47
458.19	7421.84
458.38	7466.31
458.56	7330.56
458.74	7468.65
458.93	7531.84
459.11	7325.88
459.29	7365.67
459.48	7564.61
459.66	7562.27
459.84	7592.70
460.03	7599.72
460.21	7721.43
460.39	7712.07
460.57	7597.38
460.76	7681.64
460.94	7770.58
461.12	7669.94
461.31	7829.09
461.49	7805.69
461.67	7695.68
461.85	7826.75
462.04	7817.39
462.22	8411.89
462.40	8184.85
462.59	7997.61
462.77	8161.45
462.95	8177.83
463.13	7857.18
463.32	8070.17
463.50	8063.15
463.68	8037.40
463.86	8152.09
464.05	7941.44
464.23	8262.09
464.41	8226.98
464.59	7941.44
464.78	8173.15
464.96	8374.44
465.14	8163.79
465.32	8437.63
465.50	8388.48
465.69	8411.89
465.87	8418.91
466.05	8126.34
466.23	8531.25
466.41	8257.41
466.60	8393.16
466.78	8287.84
466.96	8308.90
467.14	8325.29
467.32	8336.99
467.51	8557.00
467.69	8573.38
467.87	8482.10
468.05	8720.84
468.23	8592.11
468.41	8315.92
468.60	8751.26
468.78	8819.14
468.96	8662.32
469.14	8842.54
469.32	9013.40
469.50	8552.32
469.69	8908.08
469.87	8872.97
470.05	8837.86
470.23	9043.83
470.41	8739.56
470.59	9212.35
470.77	9067.24
470.95	9121.07
471.14	9151.49
471.32	9060.21
471.50	9184.26
471.68	9294.27
471.86	9233.41
472.04	9369.16
472.22	9621.94
472.40	9179.58
472.58	9373.85
472.77	9465.13
472.95	9458.10
473.13	9937.91
473.31	9638.33
473.49	9614.92
473.67	9781.10
473.85	9731.95
474.03	9994.09
474.21	9734.29
474.39	9991.75
474.57	9984.73
474.75	10078.35
474.93	10291.34
475.12	10181.33
475.30	10349.85
475.48	10366.23
475.66	10200.05
475.84	10415.38
476.02	10291.34
476.20	10445.81
476.38	10619.01
476.56	10939.66
476.74	10555.82
476.92	10647.10
477.10	10604.97
477.28	10895.19
477.46	11044.99
477.64	11101.16
477.82	11391.39
478.00	11431.18
478.18	11295.43
478.36	11721.40
478.54	11503.73
478.72	11587.99
478.90	11690.98
479.08	11875.88
479.26	11932.05
479.44	12049.08
479.62	12060.78
479.80	12051.42
479.98	12292.49
480.16	12542.93
480.34	12231.64
480.52	12285.47
480.70	12538.25
480.88	12435.27
481.06	12451.65
481.24	12652.94
481.41	12908.05
481.59	13029.76
481.77	13158.49
481.95	13156.15
482.13	13420.63
482.31	13287.22
482.49	13593.83
482.67	13217.01
482.85	13504.89
483.03	13685.11
483.21	13825.54
483.39	13954.27
483.57	13994.06
483.74	14256.20
483.92	14263.22
484.10	14310.04
484.28	14291.31
484.46	14452.81
484.64	15070.71
484.82	14689.20
485.00	14960.70
485.18	15136.24
485.35	15215.82
485.53	15054.33
485.71	15206.46
485.89	15524.77
486.07	15541.16
486.25	15431.15
486.43	15697.97
486.61	16044.37
486.78	16037.35
486.96	16060.76
487.14	16063.10
487.32	16273.74
487.50	16620.14
487.68	16573.33
487.85	16629.51
488.03	16950.16
488.21	17240.39
488.39	17125.70
488.57	17146.76
488.75	17624.23
488.92	17446.35
489.10	17841.90
489.28	17584.44
489.46	17841.90
489.64	17832.54
489.81	18270.22
489.99	18471.51
490.17	18471.51
490.35	18747.69
490.53	18548.75
490.70	18663.43
490.88	18579.17
491.06	18984.09
491.24	18827.27
491.41	19180.69
491.59	19171.33
491.77	19016.85
491.95	19379.64
492.13	19798.59
492.30	19786.89
492.48	20018.60
492.66	20215.21
492.84	20100.52
493.01	20198.82
493.19	20250.32
493.37	20133.29
493.54	20549.90
493.72	20751.19
493.90	20786.30
494.08	21109.29
494.25	21216.96
494.43	21181.85
494.61	21366.75
494.79	21200.57
494.96	21298.88
495.14	21518.89
495.32	22066.57
495.49	21736.56
495.67	22078.27
495.85	22024.44
496.02	22398.93
496.20	22618.94
496.38	22555.74
496.55	22668.09
496.73	22944.27
496.91	22530.00
497.09	22986.40
497.26	22981.72
497.44	23199.39
497.62	23344.50
497.79	23718.99
497.97	23524.72
498.14	23513.02
498.32	23754.10
498.50	23836.02
498.67	24032.62
498.85	24175.39
499.03	24252.63
499.20	24266.67
499.38	24170.71
499.56	24456.26
499.73	24346.25
499.91	24533.50
500.08	24376.68
500.26	24512.43
500.44	24608.39
500.61	24659.88
500.79	24676.27
500.97	24755.85
501.14	25228.63
501.32	25230.98
501.49	25317.57
501.67	25303.53
501.84	25476.73
502.02	25425.24
502.20	25579.71
502.37	25940.16
502.55	26111.02
502.72	25806.75
502.90	25989.31
503.07	26043.14
503.25	25752.91
503.43	26064.21
503.60	25940.16
503.78	26511.25
503.95	26024.42
504.13	26700.83
504.30	26958.29
504.48	26340.39
504.65	26974.67
504.83	26766.37
505.01	27145.53
505.18	26742.96
505.36	27201.71
505.53	27007.44
505.71	27688.54
505.88	27377.25
506.06	26806.16
506.23	27541.08
506.41	27550.45
506.58	27466.19
506.76	27562.15
506.93	27964.72
507.11	27639.39
507.28	27903.87
507.46	27864.08
507.63	27756.41
507.81	28105.15
507.98	28208.14
508.16	28470.28
508.33	28503.04
508.50	28446.87
508.68	28481.98
508.85	28627.09
509.03	28613.05
509.20	29142.01
509.38	29387.77
509.55	29125.63
509.73	28875.19
509.90	29111.58
510.08	29312.87
510.25	29455.64
510.42	29237.97
510.60	29769.27
510.77	29940.13
510.95	30045.46
511.12	29722.46
511.30	29993.97
511.47	30022.05
511.64	30155.46
511.82	30569.74
511.99	30031.41
512.17	30349.73
512.34	30443.35
512.51	30426.96
512.69	30698.47
512.86	30698.47
513.04	30675.06
513.21	30665.70
513.38	30728.89
513.56	30579.10
513.73	30654.00
513.90	30824.86
514.08	30937.20
514.25	30604.84
514.43	31145.51
514.60	31019.12
514.77	31363.18
514.95	31651.06
515.12	31056.57
515.29	31349.14
515.47	31793.84
515.64	31814.90
515.81	31974.06
515.99	31374.88
516.16	31978.74
516.33	31700.22
516.51	32222.16
516.68	31744.69
516.85	31639.36
517.03	32198.75
517.20	31999.80
517.37	32189.39
517.54	31938.95
517.72	32575.58
517.89	32460.89
518.06	32388.33
518.24	32247.90
518.41	32032.57
518.58	32587.28
518.75	32409.40
518.93	32762.82
519.10	32950.06
519.27	33127.94
519.45	32503.02
519.62	33158.37
519.79	33092.83
519.96	33614.77
520.14	33612.43
520.31	33223.90
520.48	33149.01
520.65	33434.55
520.83	33507.11
521.00	33986.92
521.17	33869.89
521.34	33818.40
521.52	34139.05
521.69	34286.51
521.86	33998.62
522.03	33895.64
522.20	33940.11
522.38	34370.77
522.55	34565.03
522.72	34003.30
522.89	34239.70
523.07	34658.65
523.24	34298.21
523.41	34305.23
523.58	34553.33
523.75	34988.67
523.92	35040.16
524.10	35054.20
524.27	34799.08
524.44	35126.76
524.61	35288.26
524.78	35215.70
524.96	35168.89
525.13	35679.13
525.30	35697.85
525.47	36018.50
525.64	35220.38
525.81	35555.08
525.98	35583.16
526.16	35030.80
526.33	35306.98
526.50	35859.35
526.67	35466.14
526.84	35360.81
527.01	35800.83
527.18	35353.79
527.36	36034.89
527.53	36133.19
527.70	36694.92
527.87	36442.14
528.04	36161.28
528.21	36334.48
528.38	36217.45
528.55	36184.68
528.72	36261.92
528.89	36421.08
529.07	36381.29
529.24	36524.06
529.41	36453.84
529.58	36704.28
529.75	36519.38
529.92	36692.58
530.09	36870.46
530.26	36671.51
530.43	36891.52
530.60	36774.50
530.77	36851.73
530.94	37177.07
531.11	37017.91
531.28	37401.76
531.46	37453.25
531.63	37523.47
531.80	37518.79
531.97	37160.69
532.14	37474.32
532.31	37500.06
532.48	37584.32
532.65	37956.47
532.82	37581.98
532.99	37855.82
533.16	37886.25
533.33	37553.90
533.50	38096.90
533.67	38082.86
533.84	37708.37
534.01	38122.65
534.18	37720.07
534.35	38520.54
534.52	38642.24
534.69	38279.46
534.86	38279.46
535.03	37928.38
535.20	38450.32
535.37	38731.18
535.54	39051.84
535.71	38192.86
535.88	38597.77
536.05	38403.51
536.22	38614.16
536.38	38602.46
536.55	38700.76
536.72	38675.01
536.89	38780.34
537.06	39023.75
537.23	39044.82
537.40	38871.62
537.57	38667.99
537.74	38888.00
537.91	39426.32
538.08	39133.76
538.25	38682.03
538.42	39100.99
538.59	39313.98
538.75	39061.20
538.92	39075.24
539.09	39295.25
539.26	39459.09
539.43	39402.92
539.60	39648.68
539.77	39622.93
539.94	39442.71
540.11	39559.73
540.28	39491.86
540.44	39592.50
540.61	39660.38
540.78	39323.34
540.95	39625.27
541.12	39636.97
541.29	39728.25
541.46	40142.53
541.62	40076.99
541.79	39763.36
541.96	39578.46
542.13	39880.39
542.30	40062.95
542.47	39892.09
542.63	39894.43
542.80	40088.70
542.97	40060.61
543.14	40751.07
543.31	40479.57
543.48	40706.60
543.64	41237.90
543.81	40399.99
543.98	41022.57
544.15	41132.57
544.32	40734.68
544.48	41146.62
544.65	41095.13
544.82	40985.12
544.99	40535.74
545.16	41090.44
545.32	40854.05
545.49	41008.53
545.66	40968.74
545.83	40966.40
546.00	41549.19
546.16	41097.47
546.33	40964.06
546.50	40964.06
546.67	40964.06
546.83	40659.79
547.00	41235.56
547.17	41544.51
547.34	41111.51
547.50	41500.04
547.67	41691.96
547.84	41439.18
548.00	41813.67
548.17	42073.47
548.34	41808.99
548.51	41631.11
548.67	42045.38
548.84	41668.56
549.01	41968.15
549.18	41626.43
549.34	42150.71
549.51	41914.31
549.68	41862.82
549.84	41811.33
550.01	42171.77
550.18	41933.04
550.34	42232.63
550.51	41797.29
550.68	41787.92
550.84	41745.80
551.01	42335.61
551.18	41848.78
551.34	42202.20
551.51	41956.44
551.68	42410.51
551.84	42433.91
552.01	42225.60
552.18	42417.53
552.34	42232.63
552.51	42038.36
552.68	42230.29
552.84	42625.84
553.01	42705.41
553.18	42511.15
553.34	42387.10
553.51	42253.69
553.67	42827.12
553.84	42967.55
554.01	43056.50
554.17	42735.84
554.34	43215.65
554.51	42773.29
554.67	43119.69
554.84	42777.97
555.00	42522.85
555.17	42438.59
555.33	43225.01
555.50	43136.07
555.67	42820.10
555.83	43115.01
556.00	42822.44
556.16	43660.35
556.33	43505.88
556.50	43070.54
556.66	43438.00
556.83	43093.94
556.99	43210.97
557.16	43260.12
557.32	43276.51
557.49	43194.59
557.65	43386.51
557.82	43065.86
557.98	43452.05
558.15	43655.67
558.32	43658.01
558.48	43386.51
558.65	43475.45
558.81	43510.56
558.98	43257.78
559.14	43510.56
559.31	43791.42
559.47	43461.41
559.64	43826.53
559.80	44161.23
559.97	43765.68
560.13	43669.72
560.30	43175.86
560.46	43395.87
560.63	43438.00
560.79	43728.23
560.96	43576.09
561.12	43522.26
561.29	43721.21
561.45	43828.87
561.61	43688.44
561.78	43189.91
561.94	43126.71
562.11	43697.80
562.27	43966.96
562.44	44224.42
562.60	43849.94
562.77	43934.20
562.93	43592.48
563.10	43896.75
563.26	43761.00
563.42	44259.53
563.59	43917.81
563.75	43824.19
563.92	44182.29
564.08	44006.75
564.24	44339.11
564.41	43859.30
564.57	43838.23
564.74	43548.01
564.90	44275.91
565.07	43936.54
565.23	44081.65
565.39	44065.27
565.56	44320.38
565.72	43789.08
565.88	44245.49
566.05	44109.74
566.21	44313.36
566.38	43899.09
566.54	44243.15
566.70	44395.28
566.87	44570.82
567.03	44060.58
567.19	44205.70
567.36	44357.83
567.52	44119.10
567.68	44336.77
567.85	43931.86
568.01	44060.58
568.17	44184.63
568.34	44392.94
568.50	44435.07
568.66	44023.14
568.83	44135.48
568.99	44491.24
569.15	44294.64
569.32	44072.29
569.48	44194.00
569.64	44233.78
569.81	44425.71
569.97	44378.90
570.13	44615.29
570.30	43957.60
570.46	44095.69
570.62	44163.57
570.78	44020.80
570.95	44088.67
571.11	44509.97
571.27	44587.21
571.43	44610.61
571.60	44767.43
571.76	44521.67
571.92	44538.05
572.09	44285.28
572.25	44126.12
572.41	44563.80
572.57	44336.77
572.74	45099.78
572.90	44215.06
573.06	44898.50
573.22	44800.19
573.38	44591.89
573.55	44662.10
573.71	44957.01
573.87	44233.78
574.03	44772.11
574.20	44776.79
574.36	44474.86
574.52	44547.42
574.68	45036.59
574.84	45069.36
575.01	44760.40
575.17	44758.06
575.33	44989.78
575.49	44399.96
575.65	44601.25
575.82	44795.51
575.98	44477.20
576.14	45228.51
576.30	44605.93
576.46	44264.21
576.62	44526.35
576.79	44680.83
576.95	44144.84
577.11	44722.96
577.27	44472.52
577.43	44968.71
577.59	44315.70
577.75	44575.50
577.92	44704.23
578.08	44278.25
578.24	44701.89
578.40	44552.10
578.56	44722.96
578.72	45057.65
578.88	44678.49
579.04	44444.43
579.21	44734.66
579.37	44643.38
579.53	44456.14
579.69	44481.88
579.85	44697.21
580.01	44502.95
580.17	44369.54
580.33	44659.76
580.49	44748.70
580.65	44905.52
580.82	44683.17
580.98	44751.04
581.14	44388.26
581.30	44807.22
581.46	44849.35
581.62	44765.09
581.78	44865.73
581.94	44814.24
582.10	44980.42
582.26	44662.10
582.42	45020.20
582.58	44423.37
582.74	44949.99
582.90	44903.18
583.06	45057.65
583.22	44938.29
583.38	44980.42
583.54	44493.58
583.70	45209.79
583.86	44524.01
584.02	44643.38
584.18	44732.32
584.34	44858.71
584.50	45179.36
584.66	44704.23
584.82	44587.21
584.98	44774.45
585.14	45319.79
585.30	44856.37
585.46	44872.75
585.62	44910.20
585.78	44559.12
585.94	44355.49
586.10	44804.88
586.26	44830.62
586.42	44968.71
586.58	45036.59
586.74	44989.78
586.90	44781.47
587.06	44626.99
587.22	45247.24
587.38	44589.55
587.54	45464.91
587.70	45170.00
587.86	45301.07
588.02	44975.73
588.18	45345.54
588.34	44973.39
588.49	44598.91
588.65	44704.23
588.81	44896.16
588.97	44477.20
589.13	44435.07
589.29	45258.94
589.45	44935.95
589.61	45188.72
589.77	45067.02
589.93	44690.19
590.08	44978.07
590.24	45263.62
