SpectraSuite Data File
++++++++++++++++++++++++++++++++++++
Date: Fri Oct 25 11:26:26 EDT 2013
User: price-jones
Dark Spectrum Present: No
Reference Spectrum Present: No
Number of Sampled Component Spectra: 1
Spectrometers: USB2+H05261
Integration Time (usec): 100000 (USB2+H05261)
Spectra Averaged: 1 (USB2+H05261)
Boxcar Smoothing: 0 (USB2+H05261)
Correct for Electrical Dark: No (USB2+H05261)
Strobe/Lamp Enabled: No (USB2+H05261)
Correct for Detector Non-linearity: No (USB2+H05261)
Correct for Stray Light: No (USB2+H05261)
Number of Pixels in Processed Spectrum: 2048
>>>>>Begin Processed Spectral Data<<<<<
365.73	266.82
365.92	266.82
366.12	266.82
366.32	138.09
366.52	152.13
366.72	215.33
366.91	77.24
367.11	156.82
367.31	177.88
367.51	191.92
367.70	194.26
367.90	191.92
368.10	95.96
368.30	177.88
368.49	154.48
368.69	187.24
368.89	198.95
369.09	163.84
369.28	142.77
369.48	159.16
369.68	191.92
369.87	205.97
370.07	217.67
370.27	210.65
370.47	334.70
370.66	620.24
370.86	601.52
371.06	699.82
371.25	685.78
371.45	716.20
371.65	643.65
371.84	627.26
372.04	688.12
372.24	758.33
372.44	699.82
372.63	737.27
372.83	760.67
373.03	720.88
373.22	739.61
373.42	809.83
373.62	697.48
373.81	777.06
374.01	849.61
374.21	814.51
374.40	788.76
374.60	870.68
374.79	835.57
374.99	840.25
375.19	830.89
375.38	891.74
375.58	858.98
375.78	992.39
375.97	870.68
376.17	873.02
376.37	868.34
376.56	887.06
376.76	889.40
376.95	903.45
377.15	896.43
377.35	896.43
377.54	985.37
377.74	950.26
377.93	889.40
378.13	931.53
378.33	908.13
378.52	898.77
378.72	933.87
378.91	924.51
379.11	950.26
379.31	929.19
379.50	877.70
379.70	908.13
379.89	1004.09
380.09	912.81
380.28	936.21
380.48	943.24
380.68	990.05
380.87	1055.58
381.07	1029.84
381.26	1109.41
381.46	1013.45
381.65	1069.62
381.85	1050.90
382.04	1004.09
382.24	1004.09
382.43	1107.07
382.63	1095.37
382.83	1008.77
383.02	1039.20
383.22	1046.22
383.41	1008.77
383.61	1083.67
383.80	1139.84
384.00	1142.18
384.19	1174.95
384.39	1132.82
384.58	1167.93
384.78	1125.80
384.97	1186.65
385.17	1214.74
385.36	1158.57
385.56	1095.37
385.75	1179.63
385.95	1135.16
386.14	1039.20
386.34	1170.27
386.53	1093.03
386.72	1109.41
386.92	1289.64
387.11	1226.44
387.31	1355.17
387.50	1252.19
387.70	1181.97
387.89	1317.72
388.09	1291.98
388.28	1289.64
388.48	1205.38
388.67	1268.57
388.86	1306.02
389.06	1401.98
389.25	1369.21
389.45	1331.76
389.64	1371.55
389.84	1380.92
390.03	1397.30
390.22	1334.11
390.42	1306.02
390.61	1324.74
390.81	1430.07
391.00	1392.62
391.19	1390.28
391.39	1418.36
391.58	1437.09
391.78	1362.19
391.97	1483.90
392.16	1516.67
392.36	1551.78
392.55	1542.41
392.75	1507.30
392.94	1472.20
393.13	1387.94
393.33	1549.43
393.52	1509.65
393.71	1617.31
393.91	1526.03
394.10	1556.46
394.29	1530.71
394.49	1605.61
394.68	1605.61
394.88	1542.41
395.07	1678.16
395.26	1685.19
395.46	1699.23
395.65	1640.72
395.84	1708.59
396.04	1832.64
396.23	1785.83
396.42	1783.49
396.62	1767.10
396.81	1811.57
397.00	1757.74
397.19	1762.42
397.39	1809.23
397.58	1806.89
397.77	2010.52
397.97	1811.57
398.16	1816.26
398.35	1804.55
398.55	1863.07
398.74	1949.67
398.93	1877.11
399.12	1928.60
399.32	1888.81
399.51	2043.29
399.70	2017.54
399.90	1961.37
400.09	1935.62
400.28	1963.71
400.47	1975.41
400.67	2076.06
400.86	2085.42
401.05	2036.27
401.24	2090.10
401.44	2073.71
401.63	2111.16
401.82	2108.82
402.01	2125.21
402.21	2129.89
402.40	2146.27
402.59	2129.89
402.78	2230.53
402.97	2265.64
403.17	2317.13
403.36	2282.02
403.55	2424.80
403.74	2272.66
403.93	2239.89
404.13	2375.64
404.32	2312.45
404.51	2265.64
404.70	2394.37
404.89	2415.43
405.09	2434.16
405.28	2436.50
405.47	2331.17
405.66	2480.97
405.85	2516.08
406.05	2548.84
406.24	2511.39
406.43	2544.16
406.62	2485.65
406.81	2569.91
407.00	2712.68
407.20	2605.02
407.39	2609.70
407.58	2663.53
407.77	2768.85
407.96	2705.66
408.15	2834.39
408.34	2682.25
408.54	2841.41
408.73	2789.92
408.92	2850.77
409.11	2785.24
409.30	2771.19
409.49	2867.16
409.68	2965.46
409.87	2778.22
410.07	2951.42
410.26	2916.31
410.45	2871.84
410.64	3096.53
410.83	3052.06
411.02	3070.78
411.21	3133.98
411.40	3173.77
411.59	3208.87
411.78	3180.79
411.98	3206.53
412.17	3255.69
412.36	3201.85
412.55	3339.94
412.74	3309.52
412.93	3384.41
413.12	3424.20
413.31	3541.23
413.50	3522.51
413.69	3400.80
413.88	3585.70
414.07	3597.40
414.26	3700.39
414.45	3681.66
414.64	3555.27
414.83	3655.92
415.02	3686.34
415.22	3721.45
415.41	3836.14
415.60	3901.67
415.79	3716.77
415.98	3953.16
416.17	3892.31
416.36	4056.15
416.55	3911.04
416.74	4021.04
416.93	4112.32
417.12	4063.17
417.31	4051.47
417.50	4180.20
417.69	4259.78
417.88	4177.86
418.07	4187.22
418.26	4245.73
418.45	4161.47
418.64	4393.19
418.83	4299.56
419.02	4425.95
419.21	4596.81
419.39	4451.70
419.58	4435.32
419.77	4463.40
419.96	4507.87
420.15	4636.60
420.34	4531.28
420.53	4589.79
420.72	4798.10
420.91	4723.20
421.10	4566.39
421.29	4798.10
421.48	4753.63
421.67	4681.07
421.86	4741.93
422.05	4828.53
422.24	4781.71
422.43	4851.93
422.61	4861.29
422.80	4943.21
422.99	4952.57
423.18	4938.53
423.37	4901.08
423.56	5057.90
423.75	4685.75
423.94	4917.47
424.13	4585.11
424.32	4667.03
424.50	4952.57
424.69	5036.83
424.88	5121.09
425.07	5015.77
425.26	4751.29
425.45	5081.30
425.64	4922.15
425.83	4973.64
426.01	5123.43
426.20	4887.04
426.39	5027.47
426.58	5083.64
426.77	4945.55
426.96	5231.10
427.15	5095.35
427.33	5095.35
427.52	5195.99
427.71	5266.21
427.90	5301.31
428.09	5188.97
428.28	5479.19
428.46	5287.27
428.65	5277.91
428.84	5394.93
429.03	5554.09
429.22	5240.46
429.40	5479.19
429.59	5500.26
429.78	5320.04
429.97	5125.77
430.16	5446.43
430.34	5577.50
430.53	5638.35
430.72	5495.58
430.91	5542.39
431.10	5540.05
431.28	5741.33
431.47	5696.86
431.66	5937.94
431.85	5767.08
432.03	5792.83
432.22	5863.04
432.41	5895.81
432.60	5823.25
432.79	5898.15
432.97	5956.66
433.16	6036.24
433.35	6026.88
433.54	5909.85
433.72	6111.14
433.91	5884.11
434.10	6012.84
434.28	6031.56
434.47	6216.46
434.66	6291.36
434.85	6129.86
435.03	6251.57
435.22	6392.00
435.41	6221.14
435.59	6319.45
435.78	6340.51
435.97	6333.49
436.16	6509.03
436.34	6345.19
436.53	6399.02
436.72	6691.59
436.90	6441.15
437.09	6672.87
437.28	6377.96
437.46	6485.62
437.65	6457.54
437.84	6581.59
438.02	6766.49
438.21	6789.89
438.40	6715.00
438.58	6878.83
438.77	7037.99
438.96	6869.47
439.14	7187.79
439.33	7201.83
439.52	7229.91
439.70	7300.13
439.89	7258.00
440.08	7328.22
440.26	7243.96
440.45	7260.34
440.63	7452.27
440.82	7742.49
441.01	7297.79
441.19	7375.03
441.38	7566.95
441.57	7667.60
441.75	7793.98
441.94	7946.12
442.12	7775.26
442.31	8018.68
442.50	8084.21
442.68	7833.77
442.87	8065.49
443.05	8126.34
443.24	8180.17
443.43	8051.44
443.61	8140.38
443.80	8346.35
443.98	8147.40
444.17	7716.75
444.35	8145.06
444.54	8355.71
444.73	8409.54
444.91	8175.49
445.10	8189.53
445.28	8315.92
445.47	8215.28
445.65	8168.47
445.84	8320.60
446.02	8538.27
446.21	8449.33
446.39	8273.79
446.58	8411.89
446.77	8498.49
446.95	8142.72
447.14	8381.46
447.32	8451.67
447.51	8432.95
447.69	8404.86
447.88	8545.30
448.06	8428.27
448.25	8521.89
448.43	8690.41
448.62	8535.93
448.80	8369.76
448.99	8454.02
449.17	8606.15
449.36	8442.31
449.54	8788.71
449.73	8795.73
449.91	8863.61
450.10	8884.67
450.28	8882.33
450.46	8961.91
450.65	9004.04
450.83	9170.22
451.02	8868.29
451.20	8964.25
451.39	9039.15
451.57	9046.17
451.76	8854.25
451.94	9062.55
452.13	9425.34
452.31	9350.44
452.49	9018.08
452.68	9202.99
452.86	9439.38
453.05	9362.14
453.23	9465.13
453.42	9350.44
453.60	9273.20
453.78	9497.89
453.97	9163.20
454.15	9408.95
454.34	9378.53
454.52	9614.92
454.70	9624.28
454.89	9745.99
455.07	9563.43
455.26	9523.64
455.44	9624.28
455.62	9856.00
455.81	9886.42
455.99	9916.85
456.17	9958.98
456.36	10178.99
456.54	10071.33
456.73	10167.29
456.91	10312.40
457.09	10291.34
457.28	10335.81
457.46	10171.97
457.64	10370.91
457.83	10511.35
458.01	10270.27
458.19	10494.96
458.38	10335.81
458.56	10628.37
458.74	10850.72
458.93	10707.95
459.11	10714.97
459.29	10328.78
459.48	10750.08
459.66	10490.28
459.84	10581.56
460.03	11000.52
460.21	10902.22
460.39	10754.76
460.57	10911.58
460.76	11194.78
460.94	11089.46
461.12	11169.04
461.31	11049.67
461.49	10930.30
461.67	11112.86
461.85	11290.74
462.04	11166.70
462.22	11658.21
462.40	11243.93
462.59	11501.39
462.77	11318.83
462.95	11459.26
463.13	11407.77
463.32	11534.16
463.50	11522.46
463.68	11569.27
463.86	11875.88
464.05	11630.12
464.23	11499.05
464.41	11793.96
464.59	11494.37
464.78	11920.35
464.96	11845.45
465.14	11744.81
465.32	11824.39
465.50	11999.93
465.69	11946.09
465.87	12002.27
466.05	12224.62
466.23	11927.37
466.41	12351.01
466.60	12280.79
466.78	12018.65
466.96	11918.01
467.14	12259.73
467.32	12208.23
467.51	12388.46
467.69	12051.42
467.87	12259.73
468.05	12400.16
468.23	12444.63
468.41	12334.62
468.60	12603.78
468.78	12582.72
468.96	12407.18
469.14	12641.23
469.32	12805.07
469.50	12325.26
469.69	13043.81
469.87	12957.21
470.05	12854.22
470.23	12982.95
470.41	13004.02
470.59	13277.86
470.77	12912.74
470.95	13163.17
471.14	13469.78
471.32	12982.95
471.50	13486.17
471.68	13554.04
471.86	13549.36
472.04	13720.22
472.22	13858.31
472.40	13867.67
472.58	13785.76
472.77	14015.13
472.95	14001.08
473.13	14373.23
473.31	13984.70
473.49	14094.71
473.67	14134.50
473.85	14469.19
474.03	14668.14
474.21	14499.62
474.39	14626.01
474.57	14609.62
474.75	14675.16
474.93	14951.34
475.12	14731.33
475.30	14876.44
475.48	14661.12
475.66	15002.83
475.84	15192.42
476.02	15307.10
476.20	15222.84
476.38	15683.93
476.56	15637.12
476.74	15634.78
476.92	15805.64
477.10	15681.59
477.28	15646.48
477.46	15840.75
477.64	16360.34
477.82	16437.58
478.00	16559.29
478.18	16395.45
478.36	16926.75
478.54	16957.18
478.72	16856.54
478.90	17032.08
479.08	17619.55
479.26	17813.82
479.44	17385.50
479.62	17804.46
479.80	18031.49
479.98	17841.90
480.16	18434.06
480.34	17900.42
480.52	18431.72
480.70	18391.93
480.88	18148.51
481.06	18602.58
481.24	18455.12
481.41	19033.24
481.59	19161.97
481.77	19391.34
481.95	19370.27
482.13	19613.69
482.31	19473.26
482.49	20180.10
482.67	19887.53
482.85	20119.24
483.03	20280.74
483.21	20582.67
483.39	20606.08
483.57	20659.91
483.74	21256.75
483.92	21329.30
484.10	20964.18
484.28	21666.34
484.46	21907.41
484.64	21940.18
484.82	21858.26
485.00	22340.41
485.18	22616.60
485.35	22963.00
485.53	22546.38
485.71	22892.78
485.89	23140.88
486.07	22986.40
486.25	23103.43
486.43	23208.75
486.61	24004.53
486.78	24037.30
486.96	24222.20
487.14	24301.78
487.32	24479.66
487.50	24505.41
487.68	24957.13
487.85	25113.95
488.03	25610.14
488.21	25605.46
488.39	25638.23
488.57	25879.30
488.75	26054.84
488.92	26225.70
489.10	26230.38
489.28	26352.09
489.46	26635.30
489.64	26672.74
489.81	27505.98
489.99	27400.65
490.17	27562.15
490.35	27758.75
490.53	27934.29
490.70	28292.40
490.88	28166.01
491.06	28329.84
491.24	28570.92
491.41	28889.23
491.59	28680.92
491.77	29048.39
491.95	29254.36
492.13	29324.57
492.30	29610.12
492.48	30099.29
492.66	29743.53
492.84	29963.54
493.01	30050.14
493.19	30391.86
493.37	30878.69
493.54	31087.00
493.72	31459.14
493.90	31372.54
494.08	31365.52
494.25	31669.79
494.43	31861.71
494.61	32100.45
494.79	32378.97
494.96	32189.39
495.14	32093.43
495.32	32870.48
495.49	32690.26
495.67	32966.45
495.85	33064.75
496.02	33586.69
496.20	33860.53
496.38	33457.96
496.55	33874.57
496.73	34436.30
496.91	34199.91
497.09	34426.94
497.26	34511.20
497.44	34628.23
497.62	35166.55
497.79	35365.49
497.97	34588.44
498.14	35381.88
498.32	35934.24
498.50	35899.14
498.67	36079.36
498.85	36009.14
499.03	36149.57
499.20	36030.21
499.38	36800.24
499.56	37081.11
499.73	37071.75
499.91	36907.91
500.08	37120.90
500.26	37188.77
500.44	37289.42
500.61	37471.98
500.79	37312.82
500.97	37722.41
501.14	38534.58
501.32	37909.66
501.49	38274.78
501.67	38249.03
501.84	38579.05
502.02	38675.01
502.20	38377.76
502.37	38689.06
502.55	39014.39
502.72	39229.72
502.90	39063.54
503.07	39529.31
503.25	39538.67
503.43	39538.67
503.60	39381.85
503.78	39840.60
503.95	39842.94
504.13	40343.81
504.30	40346.15
504.48	40517.01
504.65	40161.25
504.83	40783.83
505.01	41088.10
505.18	40645.74
505.36	41640.47
505.53	40694.89
505.71	40861.07
505.88	40821.28
506.06	41345.56
506.23	41291.73
506.41	41794.95
506.58	41691.96
506.76	41886.23
506.93	41911.97
507.11	41947.08
507.28	42337.95
507.46	42106.24
507.63	42075.81
507.81	42768.61
507.98	42660.94
508.16	43070.54
508.33	42972.24
508.50	43519.92
508.68	43569.07
508.85	43948.24
509.03	43110.33
509.20	43606.52
509.38	43962.28
509.55	44236.12
509.73	44376.56
509.90	44196.34
510.08	44341.45
510.25	44252.51
510.42	44589.55
510.60	44636.36
510.77	44994.46
510.95	45069.36
511.12	45052.97
511.30	44875.09
511.47	45275.32
511.64	44800.19
511.82	45584.27
511.99	45223.83
512.17	45612.36
512.34	45518.74
512.51	45804.28
512.69	45904.93
512.86	45855.78
513.04	46440.91
513.21	46094.51
513.38	46628.15
513.56	46136.64
513.73	46405.80
513.90	46525.17
514.08	46298.14
514.25	46934.76
514.43	47065.83
514.60	46911.36
514.77	46871.57
514.95	47239.03
515.12	47026.04
515.29	47196.90
515.47	47587.77
515.64	47555.00
515.81	47648.63
515.99	47976.30
516.16	48491.22
516.33	47988.00
516.51	48109.71
516.68	48074.60
516.85	47988.00
517.03	48690.16
517.20	48669.10
517.37	48495.90
517.54	49001.46
517.72	48739.32
517.89	48385.89
518.06	48875.07
518.24	48917.20
518.41	48968.69
518.58	48994.43
518.75	49003.80
518.93	48928.90
519.10	49169.97
519.27	49310.41
519.45	49265.94
519.62	49549.14
519.79	49752.77
519.96	49593.61
520.14	49869.79
520.31	49949.37
520.48	49986.82
520.65	50255.98
520.83	50263.00
521.00	50349.60
521.17	49867.45
521.34	50677.28
521.52	50773.24
521.69	50506.42
521.86	50543.87
522.03	50787.28
522.20	51004.95
522.38	51253.05
522.55	51341.99
522.72	50904.31
522.89	50993.25
523.07	51536.26
523.24	51208.58
523.41	51489.45
523.58	51334.97
523.75	51473.06
523.92	51487.10
524.10	51789.03
524.27	51693.07
524.44	51643.92
524.61	51585.41
524.78	51913.08
524.96	51812.44
525.13	51892.02
525.30	52222.03
525.47	52142.45
525.64	52168.20
525.81	52320.34
525.98	52376.51
526.16	52498.22
526.33	52219.69
526.50	52624.60
526.67	52666.73
526.84	52619.92
527.01	52624.60
527.18	52559.07
527.36	52861.00
527.53	52669.08
527.70	53027.18
527.87	53275.27
528.04	53013.13
528.21	53130.16
528.38	52851.64
528.55	53352.51
528.72	53364.21
528.89	53319.74
529.07	53322.08
529.24	53226.12
529.41	53605.29
529.58	53352.51
529.75	53586.57
529.92	53549.12
530.09	53593.59
530.26	53724.66
530.43	53846.36
530.60	53408.68
530.77	53659.12
530.94	53825.30
531.11	53776.15
531.28	53902.54
531.46	54204.47
531.63	54096.80
531.80	53947.01
531.97	54185.74
532.14	54372.99
532.31	54174.04
532.48	54459.58
532.65	54569.59
532.82	54300.43
532.99	54482.99
533.16	54284.04
533.33	54518.10
533.50	55086.85
533.67	54452.56
533.84	54464.27
534.01	54939.39
534.18	54581.29
534.35	55023.65
534.52	54951.10
534.69	54953.44
534.86	55037.70
535.03	54794.28
535.20	55061.10
535.37	54979.18
535.54	54904.29
535.71	54663.21
535.88	55304.52
536.05	55201.53
536.22	55327.92
536.38	55309.20
536.55	55236.64
536.72	55292.82
536.89	55402.82
537.06	55189.83
537.23	55409.84
537.40	55224.94
537.57	55552.62
537.74	55536.23
537.91	55765.60
538.08	55657.94
538.25	55718.79
538.42	55730.50
538.59	56006.68
538.75	55580.70
538.92	55903.70
539.09	56055.83
539.26	55880.29
539.43	56086.26
539.60	56104.98
539.77	55999.66
539.94	56261.80
540.11	56224.35
540.28	56163.50
540.44	56109.66
540.61	56287.54
540.78	56109.66
540.95	56488.83
541.12	56130.73
541.29	56474.79
541.46	56542.66
541.62	56362.44
541.79	56327.33
541.96	56287.54
542.13	56420.95
542.30	56647.99
542.47	56839.91
542.63	56563.73
542.80	56750.97
542.97	56928.85
543.14	56926.51
543.31	56825.87
543.48	56898.42
543.64	57308.02
543.81	57216.74
543.98	56851.61
544.15	57020.13
544.32	57265.89
544.48	57403.98
544.65	57153.54
544.82	57247.16
544.99	56999.07
545.16	57434.41
545.32	57214.40
545.49	57631.01
545.66	57588.88
545.83	57532.71
546.00	57656.76
546.16	57502.28
546.33	57368.87
546.50	57282.27
546.67	57436.75
546.83	57247.16
547.00	57570.16
547.17	57427.38
547.34	57556.11
547.50	57724.63
547.67	57663.78
547.84	57776.12
548.00	57705.91
548.17	58068.69
548.34	57907.19
548.51	58131.89
548.67	58185.72
548.84	57834.64
549.01	57921.24
549.18	58124.86
549.34	57925.92
549.51	58361.26
549.68	58363.60
549.84	58197.42
550.01	58223.17
550.18	58049.97
550.34	58260.62
550.51	58344.87
550.68	58089.76
550.84	57979.75
551.01	58279.34
551.18	58255.93
551.34	58258.27
551.51	58204.44
551.68	58688.93
551.84	58529.78
552.01	58368.28
552.18	58328.49
552.34	58618.72
552.51	58394.03
552.68	58576.59
552.84	58555.52
553.01	58543.82
553.18	58571.91
553.34	58782.55
553.51	58574.25
553.67	58646.80
553.84	58930.01
554.01	58777.87
554.17	58731.06
554.34	58876.18
554.51	58770.85
554.67	58904.26
554.84	58702.98
555.00	58745.11
555.17	58801.28
555.33	58698.30
555.50	58590.63
555.67	58756.81
555.83	58862.13
556.00	58780.21
556.16	59243.64
556.33	59044.69
556.50	59028.31
556.66	59299.81
556.83	59002.56
556.99	59274.07
557.16	59461.31
557.32	59243.64
557.49	59615.79
557.65	59126.61
557.82	59126.61
557.98	59290.45
558.15	59290.45
558.32	59398.12
558.48	59386.41
558.65	59152.36
558.81	59180.45
558.98	59306.83
559.14	59213.21
559.31	59494.08
559.47	59442.59
559.64	59463.65
559.80	59573.66
559.97	59678.98
560.13	59409.82
560.30	59332.58
560.46	59437.90
560.63	59519.82
560.79	59554.93
560.96	59643.87
561.12	59615.79
561.29	59686.00
561.45	59945.80
561.61	59552.59
561.78	59625.15
561.94	59421.52
562.11	59594.72
562.27	59594.72
562.44	59669.62
562.60	59716.43
562.77	59760.90
562.93	59774.94
563.10	59817.07
563.26	59751.54
563.42	60086.23
563.59	59908.35
563.75	59716.43
563.92	59941.12
564.08	59826.43
564.24	60126.02
564.41	59938.78
564.57	59791.33
564.74	59875.58
564.90	59985.59
565.07	59817.07
565.23	60128.36
565.39	59997.29
565.56	60058.15
565.72	59957.50
565.88	59943.46
566.05	60214.96
566.21	60044.10
566.38	59861.54
566.54	60074.53
566.70	60224.32
566.87	60053.47
567.03	60067.51
567.19	60327.31
567.36	60186.88
567.52	60240.71
567.68	60444.33
567.85	60303.90
568.01	60151.77
568.17	60011.34
568.34	60271.14
568.50	60046.44
568.66	60289.86
568.83	60184.54
568.99	60196.24
569.15	60161.13
569.32	60053.47
569.48	60119.00
569.64	60322.63
569.81	60062.83
569.97	60069.85
570.13	60292.20
570.30	60121.34
570.46	60245.39
570.62	60306.24
570.78	60310.92
570.95	60430.29
571.11	60397.52
571.27	60191.56
571.43	60229.01
571.60	60402.21
571.76	60114.32
571.92	60315.61
572.09	60308.58
572.25	60254.75
572.41	60458.38
572.57	60376.46
572.74	60654.98
572.90	60367.10
573.06	60339.01
573.22	60404.55
573.38	60519.23
573.55	60369.44
573.71	60420.93
573.87	60502.85
574.03	60402.21
574.20	60388.16
574.36	60299.22
574.52	60575.40
574.68	60399.86
574.84	60484.12
575.01	60610.51
575.17	60484.12
575.33	60432.63
575.49	60502.85
575.65	60676.05
575.82	60786.05
575.98	60467.74
576.14	60811.80
576.30	60392.84
576.46	60306.24
576.62	60732.22
576.79	60533.28
576.95	60486.46
577.11	60544.98
577.27	60549.66
577.43	60676.05
577.59	60528.59
577.75	60584.77
577.92	60406.89
578.08	60741.58
578.24	60624.56
578.40	60956.91
578.56	60715.84
578.72	60610.51
578.88	60701.79
579.04	60935.85
579.21	60575.40
579.37	60568.38
579.53	60697.11
579.69	60552.00
579.85	60608.17
580.01	60622.22
580.17	60659.66
580.33	60706.47
580.49	60776.69
580.65	60617.53
580.82	60610.51
580.98	60823.50
581.14	60683.07
581.30	60928.83
581.46	60671.37
581.62	60591.79
581.78	60594.13
581.94	60601.15
582.10	60633.92
582.26	60788.39
582.42	60697.11
582.58	60926.49
582.74	60760.31
582.90	60790.73
583.06	60903.08
583.22	60481.78
583.38	60809.46
583.54	60830.52
583.70	60942.87
583.86	60764.99
584.02	60683.07
584.18	60956.91
584.34	60842.23
584.50	60755.63
584.66	60697.11
584.82	60554.34
584.98	61095.00
585.14	60800.10
585.30	60816.48
585.46	60839.89
585.62	60800.10
585.78	60814.14
585.94	60434.97
586.10	60788.39
586.26	60977.98
586.42	60879.67
586.58	60970.96
586.74	60931.17
586.90	60830.52
587.06	60732.22
587.22	60858.61
587.38	60886.70
587.54	60825.84
587.70	60977.98
587.86	60837.54
588.02	60654.98
588.18	61162.88
588.34	60825.84
588.49	60830.52
