SpectraSuite Data File
++++++++++++++++++++++++++++++++++++
Date: Fri Oct 25 11:23:26 EDT 2013
User: price-jones
Dark Spectrum Present: No
Reference Spectrum Present: No
Number of Sampled Component Spectra: 1
Spectrometers: USB2+H05261
Integration Time (usec): 100000 (USB2+H05261)
Spectra Averaged: 1 (USB2+H05261)
Boxcar Smoothing: 0 (USB2+H05261)
Correct for Electrical Dark: No (USB2+H05261)
Strobe/Lamp Enabled: No (USB2+H05261)
Correct for Detector Non-linearity: No (USB2+H05261)
Correct for Stray Light: No (USB2+H05261)
Number of Pixels in Processed Spectrum: 2048
>>>>>Begin Processed Spectral Data<<<<<
365.73	231.71
365.92	231.71
366.12	231.71
366.32	149.79
366.52	124.05
366.72	142.77
366.91	126.39
367.11	112.35
367.31	117.03
367.51	170.86
367.70	102.98
367.90	91.28
368.10	128.73
368.30	128.73
368.49	84.26
368.69	119.37
368.89	189.58
369.09	88.94
369.28	140.43
369.48	175.54
369.68	262.14
369.87	131.07
370.07	152.13
370.27	236.39
370.47	341.72
370.66	566.41
370.86	566.41
371.06	627.26
371.25	674.07
371.45	622.58
371.65	578.11
371.84	617.90
372.04	744.29
372.24	674.07
372.44	723.23
372.63	709.18
372.83	695.14
373.03	774.72
373.22	711.52
373.42	718.54
373.62	725.57
373.81	720.88
374.01	816.85
374.21	847.27
374.40	849.61
374.60	847.27
374.79	809.83
374.99	727.91
375.19	819.19
375.38	887.06
375.58	833.23
375.78	835.57
375.97	788.76
376.17	891.74
376.37	866.00
376.56	940.90
376.76	917.49
376.95	894.08
377.15	922.17
377.35	840.25
377.54	870.68
377.74	905.79
377.93	788.76
378.13	887.06
378.33	973.66
378.52	976.00
378.72	877.70
378.91	926.85
379.11	957.28
379.31	994.73
379.50	887.06
379.70	954.94
379.89	1029.84
380.09	929.19
380.28	1011.11
380.48	929.19
380.68	936.21
380.87	1043.88
381.07	1004.09
381.26	1032.18
381.46	1034.52
381.65	1064.94
381.85	1011.11
382.04	1090.69
382.24	1074.31
382.43	1043.88
382.63	994.73
382.83	1055.58
383.02	1139.84
383.22	1083.67
383.41	1025.15
383.61	1102.39
383.80	1132.82
384.00	1163.25
384.19	1100.05
384.39	1160.91
384.58	1104.73
384.78	1078.99
384.97	1221.76
385.17	1200.69
385.36	1184.31
385.56	1196.01
385.75	1170.27
385.95	1186.65
386.14	1177.29
386.34	1200.69
386.53	1291.98
386.72	1231.12
386.92	1123.46
387.11	1205.38
387.31	1214.74
387.50	1228.78
387.70	1280.27
387.89	1341.13
388.09	1268.57
388.28	1301.34
388.48	1371.55
388.67	1380.92
388.86	1359.85
389.06	1282.61
389.25	1401.98
389.45	1348.15
389.64	1327.08
389.84	1380.92
390.03	1348.15
390.22	1404.32
390.42	1387.94
390.61	1406.66
390.81	1460.49
391.00	1448.79
391.19	1469.86
391.39	1427.73
391.58	1451.13
391.78	1462.83
391.97	1467.52
392.16	1425.39
392.36	1448.79
392.55	1540.07
392.75	1523.69
392.94	1528.37
393.13	1558.80
393.33	1596.25
393.52	1535.39
393.71	1537.73
393.91	1614.97
394.10	1675.82
394.29	1650.08
394.49	1612.63
394.68	1647.74
394.88	1586.88
395.07	1689.87
395.26	1626.67
395.46	1563.48
395.65	1734.34
395.84	1661.78
396.04	1809.23
396.23	1673.48
396.42	1703.91
396.62	1739.02
396.81	1750.72
397.00	1781.15
397.19	1769.44
397.39	1781.15
397.58	1865.41
397.77	1769.44
397.97	1872.43
398.16	1870.09
398.35	1839.66
398.55	1923.92
398.74	1898.17
398.93	1909.88
399.12	2031.58
399.32	1937.96
399.51	1982.43
399.70	1994.14
399.90	2017.54
400.09	1930.94
400.28	2090.10
400.47	2047.97
400.67	2162.66
400.86	2012.86
401.05	2064.35
401.24	2223.51
401.44	2165.00
401.63	2108.82
401.82	2148.61
402.01	2153.29
402.21	2054.99
402.40	2181.38
402.59	2118.18
402.78	2195.42
402.97	2186.06
403.17	2256.28
403.36	2338.20
403.55	2298.41
403.74	2335.85
403.93	2328.83
404.13	2380.32
404.32	2385.01
404.51	2431.82
404.70	2434.16
404.89	2476.29
405.09	2548.84
405.28	2499.69
405.47	2312.45
405.66	2588.63
405.85	2576.93
406.05	2579.27
406.24	2602.68
406.43	2459.90
406.62	2607.36
406.81	2670.55
407.00	2616.72
407.20	2609.70
407.39	2621.40
407.58	2818.00
407.77	2602.68
407.96	2663.53
408.15	2717.36
408.34	2768.85
408.54	2778.22
408.73	2803.96
408.92	2780.56
409.11	2832.05
409.30	2986.52
409.49	2757.15
409.68	2939.71
409.87	3014.61
410.07	3030.99
410.26	3089.51
410.45	3007.59
410.64	3033.33
410.83	3000.57
411.02	2984.18
411.21	3070.78
411.40	3115.25
411.59	3251.00
411.78	3234.62
411.98	3131.64
412.17	3192.49
412.36	3318.88
412.55	3368.03
412.74	3332.92
412.93	3400.80
413.12	3407.82
413.31	3585.70
413.50	3487.40
413.69	3517.83
413.88	3648.90
414.07	3641.87
414.26	3574.00
414.45	3585.70
414.64	3751.88
414.83	3833.80
415.02	3798.69
415.22	3850.18
415.41	3852.52
415.60	3934.44
415.79	3906.35
415.98	3967.21
416.17	3911.04
416.36	3927.42
416.55	4053.81
416.74	3983.59
416.93	4084.23
417.12	3962.53
417.31	4098.28
417.50	4327.65
417.69	4205.94
417.88	4208.28
418.07	4425.95
418.26	4341.69
418.45	4390.84
418.64	4552.34
418.83	4383.82
419.02	4442.34
419.21	4582.77
419.39	4564.04
419.58	4449.36
419.77	4477.44
419.96	4535.96
420.15	4610.86
420.34	4601.49
420.53	4477.44
420.72	4601.49
420.91	4779.37
421.10	4711.50
421.29	4819.16
421.48	4662.35
421.67	4849.59
421.86	4812.14
422.05	4861.29
422.24	4781.71
422.43	4807.46
422.61	4985.34
422.80	5050.88
422.99	4924.49
423.18	4924.49
423.37	5114.07
423.56	5008.75
423.75	4936.19
423.94	4744.27
424.13	4638.94
424.32	4865.97
424.50	4851.93
424.69	5198.33
424.88	5074.28
425.07	4954.91
425.26	4858.95
425.45	4971.30
425.64	4926.83
425.83	4968.96
426.01	5083.64
426.20	4943.21
426.39	5060.24
426.58	5004.07
426.77	5170.24
426.96	5212.37
427.15	5214.71
427.33	5177.26
427.52	5205.35
427.71	5156.20
427.90	5167.90
428.09	5221.74
428.28	5408.98
428.46	5380.89
428.65	5334.08
428.84	5528.35
429.03	5638.35
429.22	5430.04
429.40	5467.49
429.59	5472.17
429.78	5385.57
429.97	5331.74
430.16	5502.60
430.34	5640.69
430.53	5659.42
430.72	5685.16
430.91	5507.28
431.10	5579.84
431.28	5778.78
431.47	5767.08
431.66	5809.21
431.85	5813.89
432.03	5877.09
432.22	6125.18
432.41	5919.21
432.60	5844.32
432.79	5914.53
432.97	6022.20
433.16	6094.76
433.35	5863.04
433.54	6099.44
433.72	6307.74
433.91	6242.21
434.10	6113.48
434.28	6195.40
434.47	6221.14
434.66	6286.68
434.85	6394.34
435.03	6359.24
435.22	6277.32
435.41	6382.64
435.59	6244.55
435.78	6553.50
435.97	6539.46
436.16	6396.68
436.34	6305.40
436.53	6415.41
436.72	6661.16
436.90	6370.94
437.09	6663.51
437.28	6384.98
437.46	6626.06
437.65	6579.25
437.84	6670.53
438.02	6782.87
438.21	6881.18
438.40	6834.36
438.58	7073.10
438.77	7307.15
438.96	6963.09
439.14	7162.04
439.33	7112.89
439.52	7145.66
439.70	7229.91
439.89	7286.09
440.08	7379.71
440.26	7588.02
440.45	7489.71
440.63	7475.67
440.82	7653.55
441.01	7651.21
441.19	7765.90
441.38	7669.94
441.57	7854.84
441.75	7779.94
441.94	8032.72
442.12	8042.08
442.31	8065.49
442.50	8091.23
442.68	8105.28
442.87	8065.49
443.05	8044.42
443.24	8140.38
443.43	8119.32
443.61	8231.66
443.80	8631.90
443.98	8051.44
444.17	7810.37
444.35	8177.83
444.54	8138.04
444.73	8404.86
444.91	8395.50
445.10	8386.14
445.28	8355.71
445.47	8346.35
445.65	8360.39
445.84	8526.57
446.02	8718.50
446.21	8582.74
446.39	8425.93
446.58	8475.08
446.77	8486.78
446.95	8514.87
447.14	8423.59
447.32	8613.17
447.51	8524.23
447.69	8360.39
447.88	8573.38
448.06	8589.77
448.25	8561.68
448.43	8648.28
448.62	8704.45
448.80	8704.45
448.99	8692.75
449.17	8823.82
449.36	8655.30
449.54	8894.04
449.73	8959.57
449.91	8978.30
450.10	9078.94
450.28	9205.33
450.46	9235.75
450.65	9067.24
450.83	9142.13
451.02	9114.05
451.20	9224.05
451.39	9254.48
451.57	8990.00
451.76	9198.31
451.94	9142.13
452.13	9312.99
452.31	9364.48
452.49	9186.60
452.68	9390.23
452.86	9327.03
453.05	9425.34
453.23	9460.45
453.42	9327.03
453.60	9324.69
453.78	9568.11
453.97	9390.23
454.15	9654.71
454.34	9352.78
454.52	9710.88
454.70	9806.84
454.89	9806.84
455.07	10026.86
455.26	9912.17
455.44	10057.28
455.62	9839.61
455.81	10061.96
455.99	9900.47
456.17	10270.27
456.36	10111.11
456.54	10167.29
456.73	10235.16
456.91	10303.04
457.09	10324.10
457.28	10459.85
457.46	10399.00
457.64	10520.71
457.83	10429.43
458.01	10476.24
458.19	10766.46
458.38	10555.82
458.56	10876.47
458.74	10649.44
458.93	10789.87
459.11	10740.72
459.29	10787.53
459.48	10885.83
459.66	10834.34
459.84	10949.03
460.03	10925.62
460.21	10916.26
460.39	11044.99
460.57	11035.63
460.76	11192.44
460.94	11164.36
461.12	11052.01
461.31	11180.74
461.49	10988.82
461.67	11255.64
461.85	11639.48
462.04	11314.15
462.22	11566.93
462.40	11454.58
462.59	11499.05
462.77	11674.59
462.95	11522.46
463.13	11573.95
463.32	11627.78
463.50	11831.41
463.68	11798.64
463.86	11796.30
464.05	12133.34
464.23	11672.25
464.41	11892.26
464.59	11906.31
464.78	12273.77
464.96	12208.23
465.14	11817.36
465.32	12177.81
465.50	12250.36
465.69	12121.63
465.87	12299.52
466.05	12294.83
466.23	12107.59
466.41	12262.07
466.60	12468.03
466.78	12248.02
466.96	12290.15
467.14	12182.49
467.32	12620.17
467.51	12451.65
467.69	12266.75
467.87	12566.34
468.05	12917.42
468.23	12559.31
468.41	12521.87
468.60	12758.26
468.78	12915.08
468.96	12533.57
469.14	12849.54
469.32	13062.53
469.50	12507.82
469.69	13048.49
469.87	13081.25
470.05	13200.62
470.23	13422.97
470.41	13076.57
470.59	13287.22
470.77	13027.42
470.95	13303.60
471.14	13563.40
471.32	13317.65
471.50	13680.43
471.68	13745.97
471.86	13991.72
472.04	13832.57
472.22	14317.06
472.40	13954.27
472.58	13731.92
472.77	13902.78
472.95	14181.31
473.13	14862.40
473.31	14057.26
473.49	14146.20
473.67	14136.84
473.85	14534.73
474.03	14717.29
474.21	14808.57
474.39	14925.60
474.57	14740.69
474.75	15044.96
474.93	15051.99
475.12	14780.48
475.30	15225.18
475.48	15201.78
475.66	15489.67
475.84	15311.78
476.02	15311.78
476.20	15396.04
476.38	15840.75
476.56	16264.38
476.74	16088.84
476.92	15903.94
477.10	15875.85
477.28	16023.31
477.46	16086.50
477.64	16552.27
477.82	16386.09
478.00	17006.33
478.18	17099.95
478.36	17025.06
478.54	17053.14
478.72	17240.39
478.90	17497.84
479.08	17907.44
479.26	17586.79
479.44	17951.91
479.62	17762.33
479.80	18225.75
479.98	18218.73
480.16	18864.72
480.34	18314.69
480.52	18789.82
480.70	18801.52
480.88	18497.25
481.06	18862.38
481.24	19082.39
481.41	18991.11
481.59	19548.15
481.77	19580.92
481.95	19726.04
482.13	19924.98
482.31	19723.69
482.49	20156.69
482.67	20393.09
482.85	20350.96
483.03	20428.20
483.21	20893.96
483.39	20861.19
483.57	20989.92
483.74	21245.04
483.92	21546.97
484.10	21521.23
484.28	21872.31
484.46	22281.90
484.64	22216.36
484.82	22120.40
485.00	22478.50
485.18	22941.93
485.35	23065.98
485.53	22824.90
485.71	23087.04
485.89	23520.04
486.07	23765.80
486.25	23580.90
486.43	23583.24
486.61	24100.50
486.78	24182.42
486.96	24273.70
487.14	24694.99
487.32	24833.08
487.50	25064.80
487.68	25130.33
487.85	25745.89
488.03	25869.94
488.21	25750.57
488.39	26068.89
488.57	26429.33
488.75	26267.83
488.92	26267.83
489.10	26796.79
489.28	26656.36
489.46	27360.86
489.64	27080.00
489.81	27606.62
489.99	27840.67
490.17	27854.72
490.35	28397.72
490.53	28231.54
490.70	28568.58
490.88	28301.76
491.06	29104.56
491.24	29298.83
491.41	29371.38
491.59	29654.59
491.77	29462.66
491.95	29776.30
492.13	30113.33
492.30	30101.63
492.48	30235.04
492.66	30403.56
492.84	30745.28
493.01	30771.02
493.19	31042.53
493.37	31250.83
493.54	31220.41
493.72	31494.25
493.90	31861.71
494.08	31821.92
494.25	31978.74
494.43	32023.21
494.61	32713.67
494.79	32594.30
494.96	32573.24
495.14	33481.36
495.32	33261.35
495.49	33275.40
495.67	33720.10
495.85	33422.85
496.02	34162.46
496.20	34342.68
496.38	34473.75
496.55	34134.37
496.73	34789.72
496.91	34663.33
497.09	34925.47
497.26	35323.36
497.44	35140.80
497.62	35147.82
497.79	35959.99
497.97	35716.58
498.14	36072.34
498.32	36465.55
498.50	36498.31
498.67	36786.20
498.85	36926.63
499.03	36954.72
499.20	36713.64
499.38	36903.23
499.56	37247.29
499.73	37003.87
499.91	37687.31
500.08	38033.71
500.26	37570.28
500.44	37605.39
500.61	37914.34
500.79	37930.72
500.97	38230.31
501.14	38848.21
501.32	38623.52
501.49	38852.89
501.67	38740.55
501.84	39611.23
502.02	38836.51
502.20	39196.95
502.37	39400.58
502.55	39597.18
502.72	39531.65
502.90	40245.51
503.07	39859.32
503.25	39906.13
503.43	39819.53
503.60	40612.98
503.78	40261.90
503.95	40500.63
504.13	40671.49
504.30	41001.50
504.48	40357.86
504.65	40980.44
504.83	41556.21
505.01	41787.92
505.18	41584.30
505.36	41783.24
505.53	41626.43
505.71	41577.28
505.88	42054.75
506.06	41928.36
506.23	42122.62
506.41	42061.77
506.58	42569.66
506.76	42462.00
506.93	42564.98
507.11	42733.50
507.28	42656.26
507.46	42560.30
507.63	42969.90
507.81	43309.27
507.98	43119.69
508.16	43370.13
508.33	43288.21
508.50	43466.09
508.68	44289.96
508.85	44069.95
509.03	43627.59
509.20	44247.83
509.38	44678.49
509.55	44507.63
509.73	44720.62
509.90	44741.68
510.08	44685.51
510.25	45024.89
510.42	44577.84
510.60	45212.13
510.77	45361.92
510.95	45879.18
511.12	45514.06
511.30	45294.05
511.47	45731.73
511.64	45865.14
511.82	46202.18
511.99	46017.27
512.17	46478.36
512.34	46000.89
512.51	46239.62
512.69	46831.78
512.86	46714.75
513.04	46693.69
513.21	46859.87
513.38	47150.09
513.56	47374.78
513.73	46461.97
513.90	47299.89
514.08	46953.49
514.25	47379.46
514.43	47639.26
514.60	47405.21
514.77	47744.59
514.95	47880.34
515.12	47611.18
515.29	48030.13
515.47	48521.65
515.64	48556.75
515.81	47988.00
515.99	48720.59
516.16	48472.49
516.33	48580.16
516.51	48722.93
516.68	48542.71
516.85	48795.49
517.03	49244.87
517.20	48781.45
517.37	49132.53
517.54	49275.30
517.72	49420.41
517.89	49523.40
518.06	49523.40
518.24	49652.12
518.41	49507.01
518.58	49516.37
518.75	49738.72
518.93	50026.61
519.10	49876.82
519.27	49958.73
519.45	49727.02
519.62	50272.37
519.79	50094.49
519.96	50197.47
520.14	50040.65
520.31	49991.50
520.48	50829.41
520.65	50504.08
520.83	50726.43
521.00	51040.06
521.17	51023.68
521.34	51054.11
521.52	50939.42
521.69	50848.14
521.86	51220.28
522.03	51433.27
522.20	51449.66
522.38	51456.68
522.55	51540.94
522.72	51210.92
522.89	51763.29
523.07	51796.06
523.24	51763.29
523.41	52016.07
523.58	51552.64
523.75	52353.10
523.92	51772.65
524.10	52090.96
524.27	52261.82
524.44	52339.06
524.61	52402.25
524.78	52587.16
524.96	52348.42
525.13	52095.64
525.30	52519.28
525.47	52528.64
525.64	52781.42
525.81	52713.55
525.98	52933.56
526.16	52786.10
526.33	53078.67
526.50	52980.37
526.67	52879.72
526.84	53008.45
527.01	52795.46
527.18	53088.03
527.36	53191.01
527.53	53373.58
527.70	53677.85
527.87	53710.61
528.04	53537.41
528.21	53621.67
528.38	53645.08
528.55	53619.33
528.72	53396.98
528.89	53642.74
529.07	53703.59
529.24	53427.41
529.41	53851.05
529.58	53544.44
529.75	53813.60
529.92	53902.54
530.09	54073.40
530.26	53895.52
530.43	54356.60
530.60	53930.62
530.77	54005.52
530.94	54389.37
531.11	54042.97
531.28	54354.26
531.46	54363.62
531.63	54267.66
531.80	54349.58
531.97	54635.13
532.14	54784.92
532.31	54597.68
532.48	54642.15
532.65	54710.02
532.82	54738.11
532.99	54740.45
533.16	54780.24
533.33	55070.46
533.50	55304.52
533.67	54906.63
533.84	55110.25
534.01	54934.71
534.18	55224.94
534.35	55533.89
534.52	55458.99
534.69	55292.82
534.86	55573.68
535.03	55206.22
535.20	55505.80
535.37	55561.98
535.54	55632.19
535.71	55405.16
535.88	55561.98
536.05	55592.40
536.22	55845.18
536.38	55704.75
536.55	55646.24
536.72	55763.26
536.89	55721.13
537.06	55611.13
537.23	55936.46
537.40	55774.97
537.57	55894.33
537.74	55870.93
537.91	56198.60
538.08	56046.47
538.25	55931.78
538.42	55941.14
538.59	56332.01
538.75	56100.30
538.92	56411.59
539.09	56420.95
539.26	56233.71
539.43	56189.24
539.60	56458.40
539.77	56509.89
539.94	56685.43
540.11	56484.15
540.28	56580.11
540.44	56420.95
540.61	56680.75
540.78	56505.21
540.95	56727.56
541.12	56779.06
541.29	56523.94
541.46	56807.14
541.62	56863.32
541.79	56615.22
541.96	56519.26
542.13	56708.84
542.30	56743.95
542.47	56968.64
542.63	57050.56
542.80	57022.47
542.97	56982.68
543.14	57434.41
543.31	57371.21
543.48	57401.64
543.64	57682.50
543.81	57530.37
543.98	57375.89
544.15	57584.20
544.32	57635.69
544.48	57675.48
544.65	57680.16
544.82	57710.59
544.99	57453.13
545.16	57502.28
545.32	57535.05
545.49	57661.44
545.66	57930.60
545.83	57797.19
546.00	57869.75
546.16	57923.58
546.33	57652.08
546.50	57621.65
546.67	57869.75
546.83	57598.24
547.00	57928.26
547.17	57900.17
547.34	57984.43
547.50	58269.98
547.67	58305.09
547.84	58010.18
548.00	58370.62
548.17	58361.26
548.34	58042.95
548.51	58403.39
548.67	58363.60
548.84	58035.92
549.01	58349.56
549.18	58291.04
549.34	58232.53
549.51	58525.10
549.68	58560.20
549.84	58599.99
550.01	58478.28
550.18	58398.71
550.34	58623.40
550.51	58646.80
550.68	58691.27
550.84	58431.47
551.01	58597.65
551.18	58782.55
551.34	58742.77
551.51	58941.71
551.68	58726.38
551.84	58564.88
552.01	58522.76
552.18	59016.61
552.34	58693.61
552.51	59009.59
552.68	58770.85
552.84	58773.19
553.01	58930.01
553.18	59044.69
553.34	59044.69
553.51	58890.22
553.67	59098.53
553.84	59185.13
554.01	59040.01
554.17	58894.90
554.34	59161.72
554.51	59070.44
554.67	59299.81
554.84	59161.72
555.00	59159.38
555.17	59025.97
555.33	59337.26
555.50	58974.48
555.67	59011.93
555.83	59152.36
556.00	59114.91
556.16	59501.10
556.33	59440.24
556.50	59470.67
556.66	59515.14
556.83	59292.79
556.99	59552.59
557.16	59498.76
557.32	59554.93
557.49	59800.69
557.65	59592.38
557.82	59458.97
557.98	59351.30
558.15	59456.63
558.32	59568.97
558.48	59681.32
558.65	59788.98
558.81	59746.86
558.98	59576.00
559.14	59655.57
559.31	59648.55
559.47	59810.05
559.64	59791.33
559.80	59880.27
559.97	59861.54
560.13	59777.28
560.30	59781.96
560.46	60065.17
560.63	59999.63
560.79	59875.58
560.96	60044.10
561.12	60062.83
561.29	59779.62
561.45	60055.81
561.61	60142.41
561.78	60104.96
561.94	60090.91
562.11	60006.65
562.27	60191.56
562.44	60079.21
562.60	60079.21
562.77	60163.47
562.93	59938.78
563.10	60149.43
563.26	59924.74
563.42	60402.21
563.59	60264.11
563.75	60072.19
563.92	60331.99
564.08	60081.55
564.24	60315.61
564.41	60292.20
564.57	60329.65
564.74	60252.41
564.90	60411.57
565.07	60060.49
565.23	60376.46
565.39	60224.32
565.56	60121.34
565.72	60083.89
565.88	60350.71
566.05	60336.67
566.21	60451.36
566.38	60392.84
566.54	60472.42
566.70	60479.44
566.87	60519.23
567.03	60301.56
567.19	60486.46
567.36	60367.10
567.52	60231.35
567.68	60484.12
567.85	60544.98
568.01	60353.05
568.17	60654.98
568.34	60486.46
568.50	60729.88
568.66	60505.19
568.83	60598.81
568.99	60456.04
569.15	60507.53
569.32	60685.41
569.48	60580.09
569.64	60818.82
569.81	60659.66
569.97	60577.75
570.13	60467.74
570.30	60568.38
570.46	60769.67
570.62	60783.71
570.78	60659.66
570.95	60458.38
571.11	60617.53
571.27	60694.77
571.43	60495.83
571.60	60769.67
571.76	60500.51
571.92	60767.33
572.09	60589.45
572.25	60690.09
572.41	60774.35
572.57	60711.16
572.74	60910.10
572.90	60746.26
573.06	60699.45
573.22	60530.93
573.38	60654.98
573.55	60879.67
573.71	61013.08
573.87	60863.29
574.03	60500.51
574.20	61013.08
574.36	60949.89
574.52	60882.02
574.68	60914.78
574.84	60959.25
575.01	60882.02
575.17	60755.63
575.33	60659.66
575.49	60680.73
575.65	60926.49
575.82	60828.18
575.98	60970.96
576.14	60863.29
576.30	60750.94
576.46	60795.42
576.62	60882.02
576.79	61064.58
576.95	60816.48
577.11	60963.93
577.27	61062.24
577.43	60928.83
577.59	60814.14
577.75	60893.72
577.92	60830.52
578.08	60947.55
578.24	60743.92
578.40	61020.11
578.56	61193.31
578.72	61029.47
578.88	61113.73
579.04	60987.34
579.21	61090.32
579.37	61197.99
579.53	61137.13
579.69	60987.34
579.85	60870.31
580.01	61059.90
580.17	60774.35
580.33	60994.36
580.49	61296.29
580.65	61284.59
580.82	61001.38
580.98	60729.88
581.14	60973.30
581.30	61113.73
581.46	60952.23
581.62	61125.43
581.78	61244.80
581.94	61153.52
582.10	61097.34
582.26	61090.32
582.42	61125.43
582.58	60994.36
582.74	60921.80
582.90	61118.41
583.06	61006.06
583.22	61006.06
583.38	61085.64
583.54	61265.86
583.70	61247.14
583.86	61071.60
584.02	61041.17
584.18	61242.46
584.34	61130.11
584.50	61256.50
584.66	61064.58
584.82	60886.70
584.98	61368.85
585.14	61200.33
585.30	60926.49
585.46	60907.76
585.62	61076.28
585.78	61488.21
585.94	61031.81
586.10	61087.98
586.26	61123.09
586.42	61118.41
586.58	61375.87
586.74	61186.28
586.90	61109.05
587.06	61123.09
587.22	61317.35
587.38	61254.16
587.54	61329.06
587.70	61193.31
587.86	61148.84
588.02	61345.44
588.18	61324.38
588.34	61130.11
588.49	61197.99
