SpectraSuite Data File
++++++++++++++++++++++++++++++++++++
Date: Fri Oct 25 11:25:47 EDT 2013
User: price-jones
Dark Spectrum Present: No
Reference Spectrum Present: No
Number of Sampled Component Spectra: 1
Spectrometers: USB2+H05261
Integration Time (usec): 100000 (USB2+H05261)
Spectra Averaged: 1 (USB2+H05261)
Boxcar Smoothing: 0 (USB2+H05261)
Correct for Electrical Dark: No (USB2+H05261)
Strobe/Lamp Enabled: No (USB2+H05261)
Correct for Detector Non-linearity: No (USB2+H05261)
Correct for Stray Light: No (USB2+H05261)
Number of Pixels in Processed Spectrum: 2048
>>>>>Begin Processed Spectral Data<<<<<
365.73	208.31
365.92	208.31
366.12	208.31
366.32	156.82
366.52	107.66
366.72	88.94
366.91	131.07
367.11	149.79
367.31	166.18
367.51	140.43
367.70	208.31
367.90	107.66
368.10	168.52
368.30	142.77
368.49	189.58
368.69	140.43
368.89	156.82
369.09	149.79
369.28	140.43
369.48	161.50
369.68	191.92
369.87	264.48
370.07	222.35
370.27	287.89
370.47	280.86
370.66	559.39
370.86	648.33
371.06	688.12
371.25	706.84
371.45	685.78
371.65	746.63
371.84	620.24
372.04	667.05
372.24	753.65
372.44	751.31
372.63	760.67
372.83	706.84
373.03	765.36
373.22	718.54
373.42	882.38
373.62	695.14
373.81	770.04
374.01	854.30
374.21	809.83
374.40	840.25
374.60	835.57
374.79	814.51
374.99	835.57
375.19	814.51
375.38	830.89
375.58	791.10
375.78	847.27
375.97	816.85
376.17	997.07
376.37	905.79
376.56	926.85
376.76	896.43
376.95	894.08
377.15	896.43
377.35	877.70
377.54	849.61
377.74	884.72
377.93	922.17
378.13	983.02
378.33	952.60
378.52	875.36
378.72	947.92
378.91	931.53
379.11	936.21
379.31	1027.50
379.50	954.94
379.70	940.90
379.89	924.51
380.09	915.15
380.28	966.64
380.48	1001.75
380.68	1001.75
380.87	1020.47
381.07	1025.15
381.26	1114.10
381.46	1022.81
381.65	1193.67
381.85	1055.58
382.04	1121.12
382.24	1025.15
382.43	1041.54
382.63	1062.60
382.83	1053.24
383.02	1067.28
383.22	1078.99
383.41	1118.78
383.61	1196.01
383.80	1053.24
384.00	1144.52
384.19	1050.90
384.39	1142.18
384.58	1078.99
384.78	1146.86
384.97	1053.24
385.17	1245.16
385.36	1121.12
385.56	1132.82
385.75	1179.63
385.95	1165.59
386.14	1160.91
386.34	1181.97
386.53	1277.93
386.72	1210.06
386.92	1172.61
387.11	1186.65
387.31	1226.44
387.50	1261.55
387.70	1226.44
387.89	1252.19
388.09	1345.81
388.28	1308.36
388.48	1291.98
388.67	1284.95
388.86	1249.85
389.06	1238.14
389.25	1240.48
389.45	1401.98
389.64	1217.08
389.84	1451.13
390.03	1362.19
390.22	1399.64
390.42	1385.60
390.61	1451.13
390.81	1514.33
391.00	1488.58
391.19	1451.13
391.39	1474.54
391.58	1441.77
391.78	1462.83
391.97	1462.83
392.16	1479.22
392.36	1607.95
392.55	1497.94
392.75	1511.99
392.94	1507.30
393.13	1519.01
393.33	1572.84
393.52	1607.95
393.71	1526.03
393.91	1572.84
394.10	1493.26
394.29	1678.16
394.49	1629.01
394.68	1633.69
394.88	1563.48
395.07	1722.63
395.26	1696.89
395.46	1724.97
395.65	1724.97
395.84	1685.19
396.04	1650.08
396.23	1673.48
396.42	1769.44
396.62	1778.81
396.81	1724.97
397.00	1743.70
397.19	1900.52
397.39	1827.96
397.58	1750.72
397.77	1753.06
397.97	1811.57
398.16	1851.36
398.35	1853.70
398.55	1792.85
398.74	1884.13
398.93	2047.97
399.12	1916.90
399.32	1900.52
399.51	1926.26
399.70	2033.93
399.90	2073.71
400.09	1968.39
400.28	1956.69
400.47	1987.11
400.67	2094.78
400.86	1998.82
401.05	2106.48
401.24	2122.87
401.44	2052.65
401.63	2092.44
401.82	2136.91
402.01	2062.01
402.21	2106.48
402.40	2090.10
402.59	2143.93
402.78	2321.81
402.97	2181.38
403.17	2207.13
403.36	2249.25
403.55	2211.81
403.74	2319.47
403.93	2504.37
404.13	2377.98
404.32	2319.47
404.51	2436.50
404.70	2413.09
404.89	2394.37
405.09	2490.33
405.28	2413.09
405.47	2544.16
405.66	2417.77
405.85	2459.90
406.05	2471.61
406.24	2614.38
406.43	2471.61
406.62	2565.23
406.81	2600.34
407.00	2612.04
407.20	2544.16
407.39	2544.16
407.58	2658.85
407.77	2715.02
407.96	2759.49
408.15	2827.37
408.34	2719.70
408.54	2743.11
408.73	2789.92
408.92	2764.17
409.11	2773.53
409.30	2888.22
409.49	2977.16
409.68	2862.48
409.87	2799.28
410.07	2916.31
410.26	3026.31
410.45	2853.11
410.64	3021.63
410.83	3023.97
411.02	3038.02
411.21	3187.81
411.40	3061.42
411.59	3138.66
411.78	3148.02
411.98	3080.14
412.17	3295.47
412.36	3248.66
412.55	3318.88
412.74	3370.37
412.93	3421.86
413.12	3433.57
413.31	3527.19
413.50	3368.03
413.69	3590.38
413.88	3595.06
414.07	3618.47
414.26	3616.13
414.45	3735.50
414.64	3700.39
414.83	3613.79
415.02	3688.68
415.22	3702.73
415.41	3709.75
415.60	3859.54
415.79	3850.18
415.98	3962.53
416.17	3882.95
416.36	3913.38
416.55	3957.85
416.74	3992.95
416.93	3988.27
417.12	4135.73
417.31	4004.66
417.50	4025.72
417.69	4421.27
417.88	4311.27
418.07	4229.35
418.26	4435.32
418.45	4173.18
418.64	4496.17
418.83	4521.92
419.02	4390.84
419.21	4383.82
419.39	4557.02
419.58	4388.50
419.77	4472.76
419.96	4662.35
420.15	4547.66
420.34	4486.81
420.53	4540.64
420.72	4699.80
420.91	4648.30
421.10	4641.28
421.29	4896.40
421.48	4788.74
421.67	4870.65
421.86	4716.18
422.05	4795.76
422.24	4734.90
422.43	4652.98
422.61	4943.21
422.80	4826.18
422.99	5004.07
423.18	4798.10
423.37	4903.42
423.56	4959.60
423.75	4802.78
423.94	4727.88
424.13	4678.73
424.32	4723.20
424.50	4894.06
424.69	5116.41
424.88	5149.18
425.07	4987.68
425.26	4938.53
425.45	4884.70
425.64	5001.72
425.83	4966.62
426.01	4947.89
426.20	4858.95
426.39	4945.55
426.58	5057.90
426.77	4975.98
426.96	5198.33
427.15	5071.94
427.33	5210.03
427.52	5095.35
427.71	5146.84
427.90	5188.97
428.09	5282.59
428.28	5221.74
428.46	5308.34
428.65	5329.40
428.84	5408.98
429.03	5366.85
429.22	5280.25
429.40	5528.35
429.59	5425.36
429.78	5394.93
429.97	5228.76
430.16	5359.83
430.34	5542.39
430.53	5652.39
430.72	5455.79
430.91	5530.69
431.10	5636.01
431.28	5823.25
431.47	5617.29
431.66	5724.95
431.85	5685.16
432.03	5809.21
432.22	5895.81
432.41	5984.75
432.60	5877.09
432.79	6066.67
432.97	5863.04
433.16	6022.20
433.35	5912.19
433.54	6136.88
433.72	5951.98
433.91	6097.10
434.10	6059.65
434.28	6083.05
434.47	6249.23
434.66	6246.89
434.85	6176.67
435.03	6267.95
435.22	6083.05
435.41	6480.94
435.59	6424.77
435.78	6282.00
435.97	6370.94
436.16	6321.79
436.34	6417.75
436.53	6373.28
436.72	6462.22
436.90	6422.43
437.09	6504.35
437.28	6328.81
437.46	6441.15
437.65	6579.25
437.84	6719.68
438.02	6602.65
438.21	6733.72
438.40	6494.99
438.58	6881.18
438.77	7000.54
438.96	7026.29
439.14	6935.01
439.33	7091.82
439.52	7117.57
439.70	7515.46
439.89	7215.87
440.08	7379.71
440.26	7286.09
440.45	7503.76
440.63	7419.50
440.82	7592.70
441.01	7449.93
441.19	7393.75
441.38	7695.68
441.57	7833.77
441.75	7777.60
441.94	7850.16
442.12	8044.42
442.31	7997.61
442.50	8156.77
442.68	8093.57
442.87	7953.14
443.05	8018.68
443.24	8011.65
443.43	8145.06
443.61	7990.59
443.80	8425.93
443.98	8011.65
444.17	7838.45
444.35	8152.09
444.54	8381.46
444.73	8248.05
444.91	8177.83
445.10	8189.53
445.28	8376.78
445.47	8329.97
445.65	8388.48
445.84	8512.53
446.02	8493.80
446.21	8386.14
446.39	8297.20
446.58	8400.18
446.77	8379.12
446.95	8315.92
447.14	8390.82
447.32	8332.31
447.51	8339.33
447.69	8428.27
447.88	8650.62
448.06	8486.78
448.25	8549.98
448.43	8559.34
448.62	8308.90
448.80	8514.87
448.99	8652.96
449.17	8596.79
449.36	8599.13
449.54	8795.73
449.73	8788.71
449.91	8795.73
450.10	8889.35
450.28	9146.81
450.46	8851.91
450.65	8961.91
450.83	8926.80
451.02	8929.14
451.20	9266.18
451.39	9139.79
451.57	9104.68
451.76	8931.48
451.94	8987.66
452.13	9212.35
452.31	9092.98
452.49	9064.89
452.68	9331.72
452.86	9315.33
453.05	9357.46
453.23	9277.88
453.42	9343.42
453.60	9315.33
453.78	9437.04
453.97	9408.95
454.15	9516.62
454.34	9430.02
454.52	9509.60
454.70	9645.35
454.89	9731.95
455.07	9694.50
455.26	9678.12
455.44	9827.91
455.62	9940.26
455.81	9865.36
455.99	10115.80
456.17	9930.89
456.36	10150.90
456.54	10108.77
456.73	10300.70
456.91	10150.90
457.09	10544.11
457.28	10707.95
457.46	10270.27
457.64	10303.04
457.83	10340.49
458.01	10347.51
458.19	10775.83
458.38	10675.18
458.56	10743.06
458.74	10403.68
458.93	10721.99
459.11	10712.63
459.29	10717.31
459.48	10846.04
459.66	10525.39
459.84	10726.68
460.03	10892.85
460.21	10906.90
460.39	11126.91
460.57	10841.36
460.76	11197.12
460.94	11250.96
461.12	11068.39
461.31	10958.39
461.49	11037.97
461.67	11180.74
461.85	11323.51
462.04	11234.57
462.22	11573.95
462.40	11602.04
462.59	11496.71
462.77	11468.62
462.95	11426.50
463.13	11473.31
463.32	11435.86
463.50	11510.75
463.68	11400.75
463.86	11765.87
464.05	11695.66
464.23	11421.81
464.41	11686.29
464.59	11470.97
464.78	12112.27
464.96	11885.24
465.14	11812.68
465.32	12152.06
465.50	11927.37
465.69	12035.03
465.87	12451.65
466.05	12105.25
466.23	12060.78
466.41	12016.31
466.60	12437.61
466.78	12147.38
466.96	11971.84
467.14	12212.92
467.32	12325.26
467.51	12432.93
467.69	12095.89
467.87	12411.86
468.05	12505.48
468.23	12266.75
468.41	12446.97
468.60	12606.13
468.78	12421.22
468.96	12573.36
469.14	12833.16
469.32	12929.12
469.50	12479.74
469.69	12987.63
469.87	12809.75
470.05	12922.10
470.23	13055.51
470.41	12987.63
470.59	13165.51
470.77	13130.41
470.95	13312.97
471.14	13422.97
471.32	12922.10
471.50	13511.91
471.68	13348.08
471.86	13598.51
472.04	13713.20
472.22	13898.10
472.40	13500.21
472.58	13825.54
472.77	13919.17
472.95	14083.00
473.13	14340.46
473.31	14150.88
473.49	14118.11
473.67	14178.97
473.85	14188.33
474.03	14651.75
474.21	14480.89
474.39	14597.92
474.57	14406.00
474.75	14733.67
474.93	15075.39
475.12	14724.31
475.30	15234.55
475.48	14813.25
475.66	15068.37
475.84	14946.66
476.02	15171.35
476.20	15016.88
476.38	15506.05
476.56	15889.90
476.74	16039.69
476.92	15887.56
477.10	15611.37
477.28	15992.88
477.46	16175.44
477.64	16084.16
477.82	16409.50
478.00	16561.63
478.18	16884.62
478.36	16676.32
478.54	17118.68
478.72	16989.95
478.90	17057.82
479.08	17476.78
479.26	17635.94
479.44	17565.72
479.62	17736.58
479.80	17958.93
479.98	18192.98
480.16	18642.37
480.34	18057.23
480.52	18340.44
480.70	18256.18
480.88	18225.75
481.06	18604.92
481.24	18373.21
481.41	19091.75
481.59	19290.70
481.77	19421.77
481.95	19318.78
482.13	19566.88
482.31	19555.18
482.49	20140.31
482.67	19967.11
482.85	20460.96
483.03	20615.44
483.21	20697.36
483.39	20526.50
483.57	20655.23
483.74	21032.05
483.92	21125.68
484.10	21102.27
484.28	21673.36
484.46	21699.11
484.64	22153.17
484.82	21708.47
485.00	21895.71
485.18	22829.59
485.35	22817.88
485.53	23005.13
485.71	22934.91
485.89	23374.93
486.07	23515.36
486.25	23218.11
486.43	23735.37
486.61	23758.78
486.78	23817.29
486.96	24063.05
487.14	24505.41
487.32	24753.51
487.50	24704.35
487.68	24847.13
487.85	25135.01
488.03	25238.00
488.21	25834.83
488.39	25472.05
488.57	25727.17
488.75	26183.57
488.92	26331.03
489.10	26476.14
489.28	26232.72
489.46	26719.56
489.64	26707.85
489.81	27285.97
489.99	27487.25
490.17	27775.14
490.35	27985.79
490.53	27777.48
490.70	27941.32
490.88	28371.97
491.06	28678.58
491.24	28292.40
491.41	28905.62
491.59	28886.89
491.77	29357.34
491.95	29333.93
492.13	29577.35
492.30	29677.99
492.48	29883.96
492.66	30164.82
492.84	30277.17
493.01	30265.47
493.19	30595.48
493.37	31061.25
493.54	31000.40
493.72	31297.64
493.90	31108.06
494.08	31660.43
494.25	31695.53
494.43	32203.43
494.61	32385.99
494.79	32102.79
494.96	32095.77
495.14	32868.14
495.32	32776.86
495.49	33153.69
495.67	33174.75
495.85	33813.72
496.02	33621.80
496.20	33591.37
496.38	33787.97
496.55	34213.95
496.73	34462.05
496.91	34260.76
497.09	34677.38
497.26	34679.72
497.44	34799.08
497.62	35054.20
497.79	35571.46
497.97	35304.64
498.14	36086.38
498.32	36109.78
498.50	35889.77
498.67	36065.31
498.85	35800.83
499.03	36341.50
499.20	36811.95
499.38	36301.71
499.56	37038.98
499.73	37165.37
499.91	37139.62
500.08	37336.23
500.26	37413.46
500.44	37720.07
500.61	37151.32
500.79	37373.67
500.97	37633.47
501.14	38195.20
501.32	38106.26
501.49	38452.66
501.67	38253.72
501.84	38658.63
502.02	39133.76
502.20	38579.05
502.37	39063.54
502.55	39143.12
502.72	39313.98
502.90	39288.23
503.07	39318.66
503.25	39569.10
503.43	39658.04
503.60	40009.12
503.78	40084.01
503.95	40109.76
504.13	40297.00
504.30	40715.96
504.48	40282.96
504.65	40580.21
504.83	40725.32
505.01	40783.83
505.18	41050.66
505.36	41209.81
505.53	40896.18
505.71	41277.69
505.88	41326.84
506.06	41352.58
506.23	41621.75
506.41	41298.75
506.58	41659.20
506.76	42071.13
506.93	42319.23
507.11	41902.61
507.28	42244.33
507.46	42564.98
507.63	42522.85
507.81	42972.24
507.98	42698.39
508.16	42955.85
508.33	43295.23
508.50	43262.46
508.68	43601.84
508.85	43536.30
509.03	43278.85
509.20	43908.45
509.38	44343.79
509.55	44458.48
509.73	44079.31
509.90	44196.34
510.08	44243.15
510.25	44313.36
510.42	44638.70
510.60	44451.45
510.77	45045.95
510.95	45443.84
511.12	44877.43
511.30	45001.48
511.47	45081.06
511.64	45090.42
511.82	45755.13
511.99	45326.81
512.17	45975.14
512.34	45411.07
512.51	46127.28
512.69	45968.12
512.86	46265.37
513.04	46763.90
513.21	46237.28
513.38	46260.69
513.56	46480.70
513.73	46824.76
513.90	46862.21
514.08	46754.54
514.25	46944.12
514.43	47342.02
514.60	47213.29
514.77	47131.37
514.95	47320.95
515.12	47470.75
515.29	47098.60
515.47	47969.28
515.64	47767.99
515.81	48002.05
515.99	47702.46
516.16	48339.08
516.33	48306.32
516.51	48303.98
516.68	48175.25
516.85	48088.65
517.03	48751.02
517.20	48846.98
517.37	48212.70
517.54	48318.02
517.72	48563.78
517.89	49038.90
518.06	48690.16
518.24	48875.07
518.41	49179.34
518.58	49003.80
518.75	49092.74
518.93	49188.70
519.10	49478.92
519.27	49670.85
519.45	49900.22
519.62	49567.87
519.79	49649.78
519.96	49488.29
520.14	49780.85
520.31	50127.25
520.48	50131.93
520.65	50075.76
520.83	50454.93
521.00	50401.10
521.17	50263.00
521.34	50309.82
521.52	50618.77
521.69	50567.27
521.86	50836.44
522.03	50862.18
522.20	50894.95
522.38	51302.20
522.55	51037.72
522.72	50930.06
522.89	51119.64
523.07	51283.48
523.24	51388.80
523.41	51594.77
523.58	50843.46
523.75	51924.78
523.92	51552.64
524.10	51728.18
524.27	51976.28
524.44	51885.00
524.61	51887.34
524.78	51742.22
524.96	51906.06
525.13	52163.52
525.30	52165.86
525.47	52378.85
525.64	52325.02
525.81	52369.49
525.98	52662.05
526.16	52266.50
526.33	52467.79
526.50	52809.51
526.67	52463.11
526.84	52765.04
527.01	52706.52
527.18	52664.39
527.36	52910.15
527.53	52783.76
527.70	53261.23
527.87	52947.60
528.04	52858.66
528.21	53338.47
528.38	53219.10
528.55	53347.83
528.72	53481.24
528.89	53420.39
529.07	53186.33
529.24	53106.76
529.41	53663.80
529.58	53275.27
529.75	53687.21
529.92	53663.80
530.09	53736.36
530.26	53867.43
530.43	53841.68
530.60	53521.03
530.77	53738.70
530.94	53961.05
531.11	53970.41
531.28	53939.99
531.46	54122.55
531.63	54258.30
531.80	54174.04
531.97	54232.55
532.14	54227.87
532.31	54073.40
532.48	54316.81
532.65	54447.88
532.82	54326.17
532.99	54450.22
533.16	54478.31
533.33	54630.44
533.50	54789.60
533.67	54548.53
533.84	54473.63
534.01	54934.71
534.18	54871.52
534.35	55168.77
534.52	55030.68
534.69	55086.85
534.86	55192.17
535.03	54691.30
535.20	54986.21
535.37	55199.19
535.54	55238.98
535.71	55185.15
535.88	55159.41
536.05	55313.88
536.22	55440.27
536.38	55356.01
536.55	55487.08
536.72	55196.85
536.89	55480.06
537.06	55627.51
537.23	55564.32
537.40	55426.23
537.57	55585.38
537.74	55800.71
537.91	55779.65
538.08	55887.31
538.25	55634.53
538.42	55990.30
538.59	56086.26
538.75	55908.38
538.92	55938.80
539.09	55945.83
539.26	55941.14
539.43	56184.56
539.60	56016.04
539.77	56245.41
539.94	56210.31
540.11	56315.63
540.28	56423.29
540.44	56360.10
540.61	56362.44
540.78	56388.19
540.95	56264.14
541.12	56100.30
541.29	56051.15
541.46	56238.39
541.62	56409.25
541.79	56542.66
541.96	56032.42
542.13	56591.81
542.30	56514.58
542.47	56640.96
542.63	56811.82
542.80	56762.67
542.97	56889.06
543.14	56891.40
543.31	57010.77
543.48	57144.18
543.64	57382.91
543.81	57364.19
543.98	57027.15
544.15	56935.87
544.32	57270.57
544.48	57549.09
544.65	57286.95
544.82	57401.64
544.99	57062.26
545.16	57258.87
545.32	57282.27
545.49	57752.72
545.66	57776.12
545.83	57666.12
546.00	57542.07
546.16	57497.60
546.33	57434.41
546.50	57366.53
546.67	57701.23
546.83	57406.32
547.00	57511.64
547.17	57783.15
547.34	57645.05
547.50	57703.57
547.67	57993.79
547.84	57925.92
548.00	57965.71
548.17	58232.53
548.34	57815.91
548.51	58073.37
548.67	57930.60
548.84	58113.16
549.01	58092.10
549.18	57984.43
549.34	57984.43
549.51	58504.03
549.68	58188.06
549.84	57932.94
550.01	58246.57
550.18	58049.97
550.34	58319.13
550.51	58347.21
550.68	58567.23
550.84	57975.07
551.01	58417.43
551.18	58176.36
551.34	58211.46
551.51	58562.54
551.68	58548.50
551.84	58337.85
552.01	58452.54
552.18	58405.73
552.34	58635.10
552.51	58632.76
552.68	58372.96
552.84	58548.50
553.01	58876.18
553.18	58527.44
553.34	58780.21
553.51	58604.67
553.67	58543.82
553.84	58927.67
554.01	58782.55
554.17	58988.52
554.34	58777.87
554.51	58969.80
554.67	58738.08
554.84	58791.92
555.00	58679.57
555.17	59157.04
555.33	59084.48
555.50	58892.56
555.67	58880.86
555.83	58948.73
556.00	59056.40
556.16	59147.68
556.33	59346.62
556.50	59126.61
556.66	59166.40
556.83	58972.14
556.99	59295.13
557.16	59381.73
557.32	59281.09
557.49	59245.98
557.65	59210.87
557.82	59208.53
557.98	59124.27
558.15	59339.60
558.32	59269.39
558.48	59180.45
558.65	59496.42
558.81	59419.18
558.98	59381.73
559.14	59367.69
559.31	59374.71
559.47	59489.40
559.64	59501.10
559.80	59568.97
559.97	59681.32
560.13	59405.14
560.30	59608.76
560.46	59543.23
560.63	59728.13
560.79	59559.61
560.96	59709.41
561.12	59737.49
561.29	59599.40
561.45	59739.83
561.61	59601.74
561.78	59697.70
561.94	59590.04
562.11	59704.73
562.27	59859.20
562.44	59749.20
562.60	59901.33
562.77	59714.09
562.93	59639.19
563.10	60069.85
563.26	59793.67
563.42	60025.38
563.59	60030.06
563.75	60025.38
563.92	59845.16
564.08	59770.26
564.24	60027.72
564.41	60055.81
564.57	60214.96
564.74	59948.14
564.90	59990.27
565.07	59917.71
565.23	60243.05
565.39	59934.10
565.56	60168.15
565.72	60032.40
565.88	60308.58
566.05	59973.89
566.21	60130.70
566.38	59971.55
566.54	60165.81
566.70	60142.41
566.87	60367.10
567.03	59901.33
567.19	60205.60
567.36	60130.70
567.52	60144.75
567.68	60348.37
567.85	60177.51
568.01	60392.84
568.17	60072.19
568.34	60299.22
568.50	60189.22
568.66	60229.01
568.83	60294.54
568.99	60315.61
569.15	60336.67
569.32	60282.84
569.48	60315.61
569.64	60339.01
569.81	60191.56
569.97	60250.07
570.13	60306.24
570.30	60081.55
570.46	60444.33
570.62	60353.05
570.78	60486.46
570.95	60299.22
571.11	60399.86
571.27	60341.35
571.43	60479.44
571.60	60568.38
571.76	60451.36
571.92	60441.99
572.09	60395.18
572.25	60568.38
572.41	60430.29
572.57	60423.27
572.74	60673.71
572.90	60434.97
573.06	60486.46
573.22	60460.72
573.38	60680.73
573.55	60441.99
573.71	60741.58
573.87	60577.75
574.03	60467.74
574.20	60694.77
574.36	60416.25
574.52	60587.11
574.68	60566.04
574.84	60612.85
575.01	60659.66
575.17	60528.59
575.33	60427.95
575.49	60542.64
575.65	60587.11
575.82	60580.09
575.98	60734.56
576.14	60837.54
576.30	60654.98
576.46	60587.11
576.62	60350.71
576.79	60610.51
576.95	60528.59
577.11	60612.85
577.27	60481.78
577.43	60617.53
577.59	60626.90
577.75	60657.32
577.92	60392.84
578.08	60720.52
578.24	60856.27
578.40	60865.63
578.56	60757.97
578.72	60762.65
578.88	60769.67
579.04	61024.79
579.21	60570.72
579.37	60874.99
579.53	60722.86
579.69	60601.15
579.85	60568.38
580.01	60612.85
580.17	60563.70
580.33	60743.92
580.49	60889.04
580.65	60715.84
580.82	60673.71
580.98	60743.92
581.14	60764.99
581.30	60900.74
581.46	60659.66
581.62	61020.11
581.78	60601.15
581.94	61020.11
582.10	60779.03
582.26	60823.50
582.42	60788.39
582.58	60823.50
582.74	60732.22
582.90	60748.60
583.06	60774.35
583.22	60626.90
583.38	60697.11
583.54	60753.29
583.70	60701.79
583.86	60914.78
584.02	60687.75
584.18	60900.74
584.34	60762.65
584.50	60727.54
584.66	60683.07
584.82	60654.98
584.98	61064.58
585.14	60924.14
585.30	60643.28
585.46	60891.38
585.62	60832.86
585.78	60963.93
585.94	60556.68
586.10	60985.00
586.26	61024.79
586.42	60757.97
586.58	60947.55
586.74	60828.18
586.90	60734.56
587.06	61008.40
587.22	61134.79
587.38	60910.10
587.54	61003.72
587.70	61034.15
587.86	60874.99
588.02	60769.67
588.18	61272.88
588.34	60839.89
