SpectraSuite Data File
++++++++++++++++++++++++++++++++++++
Date: Fri Oct 25 11:23:39 EDT 2013
User: price-jones
Dark Spectrum Present: No
Reference Spectrum Present: No
Number of Sampled Component Spectra: 1
Spectrometers: USB2+H05261
Integration Time (usec): 100000 (USB2+H05261)
Spectra Averaged: 1 (USB2+H05261)
Boxcar Smoothing: 0 (USB2+H05261)
Correct for Electrical Dark: No (USB2+H05261)
Strobe/Lamp Enabled: No (USB2+H05261)
Correct for Detector Non-linearity: No (USB2+H05261)
Correct for Stray Light: No (USB2+H05261)
Number of Pixels in Processed Spectrum: 2048
>>>>>Begin Processed Spectral Data<<<<<
365.73	271.50
365.92	271.50
366.12	271.50
366.32	154.48
366.52	156.82
366.72	133.41
366.91	168.52
367.11	124.05
367.31	145.11
367.51	119.37
367.70	105.32
367.90	140.43
368.10	140.43
368.30	198.95
368.49	128.73
368.69	88.94
368.89	147.45
369.09	243.42
369.28	142.77
369.48	166.18
369.68	173.20
369.87	175.54
370.07	245.76
370.27	212.99
370.47	416.62
370.66	596.84
370.86	624.92
371.06	695.14
371.25	617.90
371.45	706.84
371.65	683.44
371.84	648.33
372.04	631.94
372.24	688.12
372.44	664.71
372.63	699.82
372.83	711.52
373.03	765.36
373.22	788.76
373.42	779.40
373.62	758.33
373.81	751.31
374.01	814.51
374.21	732.59
374.40	751.31
374.60	856.64
374.79	772.38
374.99	791.10
375.19	856.64
375.38	816.85
375.58	840.25
375.78	821.53
375.97	821.53
376.17	858.98
376.37	875.36
376.56	807.48
376.76	908.13
376.95	863.66
377.15	835.57
377.35	800.46
377.54	959.62
377.74	868.34
377.93	884.72
378.13	896.43
378.33	830.89
378.52	877.70
378.72	971.32
378.91	971.32
379.11	887.06
379.31	847.27
379.50	985.37
379.70	959.62
379.89	1022.81
380.09	1004.09
380.28	1053.24
380.48	1018.13
380.68	1013.45
380.87	961.96
381.07	980.68
381.26	1053.24
381.46	1004.09
381.65	961.96
381.85	1062.60
382.04	1025.15
382.24	1015.79
382.43	1100.05
382.63	1015.79
382.83	1039.20
383.02	1004.09
383.22	1032.18
383.41	1067.28
383.61	1097.71
383.80	1163.25
384.00	1100.05
384.19	1107.07
384.39	1184.31
384.58	1172.61
384.78	1039.20
384.97	1053.24
385.17	1172.61
385.36	1174.95
385.56	1174.95
385.75	1074.31
385.95	1057.92
386.14	1160.91
386.34	1111.75
386.53	1165.59
386.72	1167.93
386.92	1151.54
387.11	1299.00
387.31	1289.64
387.50	1268.57
387.70	1153.88
387.89	1310.70
388.09	1303.68
388.28	1336.45
388.48	1186.65
388.67	1446.45
388.86	1303.68
389.06	1350.49
389.25	1322.40
389.45	1385.60
389.64	1329.42
389.84	1315.38
390.03	1336.45
390.22	1387.94
390.42	1437.09
390.61	1383.26
390.81	1315.38
391.00	1416.02
391.19	1401.98
391.39	1366.87
391.58	1387.94
391.78	1446.45
391.97	1409.00
392.16	1439.43
392.36	1495.60
392.55	1519.01
392.75	1551.78
392.94	1544.75
393.13	1563.48
393.33	1544.75
393.52	1551.78
393.71	1542.41
393.91	1643.06
394.10	1537.73
394.29	1659.44
394.49	1551.78
394.68	1652.42
394.88	1673.48
395.07	1675.82
395.26	1636.03
395.46	1703.91
395.65	1687.53
395.84	1736.68
396.04	1729.66
396.23	1654.76
396.42	1708.59
396.62	1839.66
396.81	1769.44
397.00	1764.76
397.19	1834.98
397.39	1750.72
397.58	1827.96
397.77	1935.62
397.97	1851.36
398.16	1839.66
398.35	1966.05
398.55	1774.13
398.74	1870.09
398.93	2008.18
399.12	1919.24
399.32	1996.48
399.51	1886.47
399.70	2019.88
399.90	1982.43
400.09	1940.30
400.28	2040.95
400.47	1963.71
400.67	2146.27
400.86	2115.84
401.05	2017.54
401.24	2071.37
401.44	2148.61
401.63	2134.57
401.82	2153.29
402.01	2106.48
402.21	2101.80
402.40	2132.23
402.59	2195.42
402.78	2200.10
402.97	2160.31
403.17	2197.76
403.36	2333.51
403.55	2249.25
403.74	2415.43
403.93	2296.07
404.13	2464.58
404.32	2417.77
404.51	2359.26
404.70	2394.37
404.89	2277.34
405.09	2534.80
405.28	2537.14
405.47	2377.98
405.66	2548.84
405.85	2525.44
406.05	2495.01
406.24	2516.08
406.43	2530.12
406.62	2602.68
406.81	2787.58
407.00	2593.31
407.20	2544.16
407.39	2623.74
407.58	2651.83
407.77	2670.55
407.96	2665.87
408.15	2820.35
408.34	2708.00
408.54	2677.57
408.73	2834.39
408.92	2820.35
409.11	2920.99
409.30	2843.75
409.49	2986.52
409.68	2953.76
409.87	2904.60
410.07	2888.22
410.26	3038.02
410.45	3040.36
410.64	3108.23
410.83	2946.73
411.02	2930.35
411.21	3089.51
411.40	3155.04
411.59	3279.09
411.78	3103.55
411.98	3260.37
412.17	3311.86
412.36	3351.65
412.55	3456.97
412.74	3461.65
412.93	3449.95
413.12	3246.32
413.31	3466.33
413.50	3307.18
413.69	3396.12
413.88	3480.38
414.07	3684.00
414.26	3559.95
414.45	3707.41
414.64	3747.20
414.83	3583.36
415.02	3744.86
415.22	3826.78
415.41	3981.25
415.60	3859.54
415.79	3803.37
415.98	4007.00
416.17	3948.48
416.36	3990.61
416.55	3974.23
416.74	4088.92
416.93	4084.23
417.12	3992.95
417.31	4238.71
417.50	4215.30
417.69	4271.48
417.88	4252.75
418.07	4252.75
418.26	4325.31
418.45	4278.50
418.64	4449.36
418.83	4432.97
419.02	4355.74
419.21	4531.28
419.39	4542.98
419.58	4489.15
419.77	4463.40
419.96	4594.47
420.15	4667.03
420.34	4514.89
420.53	4550.00
420.72	4690.43
420.91	4622.56
421.10	4685.75
421.29	4924.49
421.48	4594.47
421.67	4933.85
421.86	4812.14
422.05	4798.10
422.24	4861.29
422.43	4975.98
422.61	4987.68
422.80	4990.02
422.99	5097.69
423.18	4915.12
423.37	5060.24
423.56	4868.31
423.75	4940.87
423.94	4765.33
424.13	4645.96
424.32	4786.40
424.50	4931.51
424.69	5046.20
424.88	5022.79
425.07	4964.28
425.26	4924.49
425.45	4961.94
425.64	4950.23
425.83	4858.95
426.01	5041.51
426.20	4985.34
426.39	5109.39
426.58	5034.49
426.77	5135.14
426.96	5247.48
427.15	5064.92
427.33	5132.79
427.52	5090.67
427.71	5217.05
427.90	5142.16
428.09	5233.44
428.28	5373.87
428.46	5341.10
428.65	5282.59
428.84	5521.32
429.03	5516.64
429.22	5315.36
429.40	5481.53
429.59	5561.11
429.78	5397.28
429.97	5369.19
430.16	5518.98
430.34	5687.50
430.53	5706.23
430.72	5490.90
430.91	5736.65
431.10	5483.88
431.28	5741.33
431.47	5827.93
431.66	5797.51
431.85	5809.21
432.03	5963.68
432.22	5977.73
432.41	5989.43
432.60	5994.11
432.79	5994.11
432.97	6036.24
433.16	6069.01
433.35	6005.81
433.54	6071.35
433.72	6256.25
433.91	6045.60
434.10	5996.45
434.28	6045.60
434.47	6195.40
434.66	6235.19
434.85	6335.83
435.03	6340.51
435.22	6420.09
435.41	6565.20
435.59	6520.73
435.78	6445.84
435.97	6590.95
436.16	6527.75
436.34	6544.14
436.53	6588.61
436.72	6747.76
436.90	6272.64
437.09	6562.86
437.28	6235.19
437.46	6595.63
437.65	6715.00
437.84	6738.40
438.02	6649.46
438.21	6843.73
438.40	6619.04
438.58	6916.28
438.77	6932.67
438.96	6967.77
439.14	7063.74
439.33	7059.06
439.52	7258.00
439.70	7243.96
439.89	7403.11
440.08	7368.01
440.26	7583.34
440.45	7265.02
440.63	7463.97
440.82	7623.12
441.01	7634.83
441.19	7449.93
441.38	7667.60
441.57	7789.30
441.75	7918.03
441.94	7798.66
442.12	7932.08
442.31	8060.80
442.50	8168.47
442.68	7957.82
442.87	7950.80
443.05	8140.38
443.24	8231.66
443.43	8222.30
443.61	8262.09
443.80	8308.90
443.98	8072.51
444.17	8013.99
444.35	8416.57
444.54	8379.12
444.73	8252.73
444.91	8393.16
445.10	8381.46
445.28	8252.73
445.47	8222.30
445.65	8491.46
445.84	8479.76
446.02	8442.31
446.21	8451.67
446.39	8414.23
446.58	8514.87
446.77	8491.46
446.95	8306.56
447.14	8292.52
447.32	8603.81
447.51	8425.93
447.69	8613.17
447.88	8645.94
448.06	8601.47
448.25	8676.37
448.43	8423.59
448.62	8638.92
448.80	8723.18
448.99	8451.67
449.17	8758.28
449.36	8674.03
449.54	8879.99
449.73	9088.30
449.91	8973.61
450.10	8823.82
450.28	9170.22
450.46	9097.66
450.65	9081.28
450.83	9015.74
451.02	8882.33
451.20	9303.63
451.39	9191.28
451.57	9312.99
451.76	8940.85
451.94	9121.07
452.13	9191.28
452.31	9341.08
452.49	9273.20
452.68	9514.28
452.86	9275.54
453.05	9575.13
453.23	9511.94
453.42	9415.98
453.60	9448.74
453.78	9593.86
453.97	9439.38
454.15	9441.72
454.34	9593.86
454.52	9544.70
454.70	9666.41
454.89	9837.27
455.07	9774.08
455.26	9605.56
455.44	10083.03
455.62	9898.13
455.81	10040.90
455.99	9907.49
456.17	10022.17
456.36	10078.35
456.54	10274.95
456.73	10401.34
456.91	10651.78
457.09	10391.98
457.28	10544.11
457.46	10413.04
457.64	10619.01
457.83	10501.98
458.01	10375.59
458.19	10714.97
458.38	10509.01
458.56	10778.17
458.74	10764.12
458.93	10705.61
459.11	10726.68
459.29	10827.32
459.48	10595.61
459.66	10803.91
459.84	10927.96
460.03	11035.63
460.21	11087.12
460.39	10946.69
460.57	11162.01
460.76	11105.84
460.94	11145.63
461.12	11571.61
461.31	11169.04
461.49	11150.31
461.67	11293.08
461.85	11456.92
462.04	11332.87
462.22	11541.18
462.40	11786.94
462.59	11365.64
462.77	11386.71
462.95	11784.60
463.13	11578.63
463.32	11604.38
463.50	11660.55
463.68	11922.69
463.86	11826.73
464.05	11566.93
464.23	11655.87
464.41	11847.79
464.59	11688.64
464.78	12025.67
464.96	12142.70
465.14	11866.52
465.32	11941.41
465.50	12196.53
465.69	12402.50
465.87	12229.30
466.05	12210.57
466.23	11964.82
466.41	12276.11
466.60	12564.00
466.78	12081.85
466.96	12208.23
467.14	12053.76
467.32	12482.08
467.51	12512.50
467.69	12222.28
467.87	12451.65
468.05	12741.88
468.23	12439.95
468.41	12514.84
468.60	12713.79
468.78	12702.09
468.96	12695.07
469.14	12802.73
469.32	13036.78
469.50	12510.16
469.69	12945.50
469.87	13111.68
470.05	13013.38
470.23	13062.53
470.41	13123.38
470.59	13266.16
470.77	13074.23
470.95	13474.46
471.14	13708.52
471.32	13121.04
471.50	13451.06
471.68	13612.56
471.86	13795.12
472.04	13748.31
472.22	13827.88
472.40	13565.74
472.58	13841.93
472.77	13977.68
472.95	14176.62
473.13	14595.58
473.31	13980.02
473.49	14324.08
473.67	14083.00
473.85	14108.75
474.03	14583.88
474.21	14726.65
474.39	15056.67
474.57	14700.90
474.75	14916.23
474.93	14946.66
475.12	14820.27
475.30	15339.87
475.48	15339.87
475.66	15260.29
475.84	15091.77
476.02	15410.09
476.20	15358.60
476.38	15697.97
476.56	16306.51
476.74	15885.22
476.92	16053.73
477.10	15847.77
477.28	16273.74
477.46	16266.72
477.64	16475.03
477.82	16786.32
478.00	17114.00
478.18	16624.83
478.36	17270.81
478.54	17516.57
478.72	17331.67
478.90	17554.02
479.08	17514.23
479.26	17720.20
479.44	17565.72
479.62	18043.19
479.80	18111.07
479.98	18223.41
480.16	18663.43
480.34	18314.69
480.52	18934.93
480.70	18679.82
480.88	18642.37
481.06	18810.89
481.24	18979.40
481.41	18956.00
481.59	19461.55
481.77	19456.87
481.95	19381.98
482.13	19527.09
482.31	19637.09
482.49	20465.64
482.67	20191.80
482.85	20617.78
483.03	20472.67
483.21	20582.67
483.39	20980.56
483.57	21062.48
483.74	21191.21
483.92	21303.56
484.10	21310.58
484.28	21727.19
484.46	22314.67
484.64	22111.04
484.82	22284.24
485.00	22373.18
485.18	22621.28
485.35	23138.54
485.53	23065.98
485.71	23110.45
485.89	23412.38
486.07	23403.02
486.25	23529.41
486.43	23461.53
486.61	24018.58
486.78	24250.29
486.96	24297.10
487.14	24807.34
487.32	24748.82
487.50	25172.46
487.68	25188.85
487.85	25144.38
488.03	25600.78
488.21	25956.54
488.39	26225.70
488.57	25883.98
488.75	26506.57
488.92	26118.04
489.10	26782.75
489.28	26642.32
489.46	27234.47
489.64	27262.56
489.81	27992.81
489.99	27611.30
490.17	27690.88
490.35	28203.46
490.53	28402.40
490.70	28601.35
490.88	28268.99
491.06	28720.71
491.24	28975.83
491.41	29111.58
491.59	29123.29
491.77	29511.81
491.95	29848.85
492.13	29916.73
492.30	30047.80
492.48	30043.12
492.66	30082.91
492.84	30623.57
493.01	30920.82
493.19	31007.42
493.37	31182.96
493.54	31264.88
493.72	31395.95
493.90	31456.80
494.08	31660.43
494.25	31854.69
494.43	32055.98
494.61	32680.90
494.79	33034.32
494.96	32926.66
495.14	33172.41
495.32	33287.10
495.49	33460.30
495.67	33366.68
495.85	33411.15
496.02	33900.32
496.20	34080.54
496.38	34359.06
496.55	34117.99
496.73	35117.40
496.91	34555.67
497.09	34415.24
497.26	35159.53
497.44	35098.67
497.62	35524.65
497.79	35931.90
497.97	35398.26
498.14	35749.34
498.32	35885.09
498.50	36112.13
498.67	36465.55
498.85	36596.62
499.03	36568.53
499.20	36814.29
499.38	36713.64
499.56	36996.85
499.73	37329.20
499.91	37062.38
500.08	37823.06
500.26	37715.39
500.44	37633.47
500.61	38085.20
500.79	37675.60
500.97	38213.93
501.14	38838.85
501.32	38380.10
501.49	38862.26
501.67	38909.07
501.84	38888.00
502.02	39002.69
502.20	39201.63
502.37	39489.52
502.55	39714.21
502.72	39342.06
502.90	39676.76
503.07	39295.25
503.25	39976.35
503.43	39966.99
503.60	40203.38
503.78	40313.39
503.95	40502.97
504.13	40563.82
504.30	40739.36
504.48	40542.76
504.65	40713.62
504.83	40882.14
505.01	41895.59
505.18	41031.93
505.36	41701.32
505.53	41603.02
505.71	41759.84
505.88	41881.55
506.06	41762.18
506.23	42136.66
506.41	42024.32
506.58	42176.45
506.76	42450.30
506.93	42682.01
507.11	42564.98
507.28	42462.00
507.46	42976.92
507.63	43084.58
507.81	43927.17
507.98	43140.75
508.16	43332.68
508.33	43262.46
508.50	43594.82
508.68	43662.69
508.85	43959.94
509.03	43985.69
509.20	44142.50
509.38	44381.24
509.55	44835.30
509.73	44287.62
509.90	44547.42
510.08	44783.81
510.25	44549.76
510.42	44601.25
510.60	45083.40
510.77	45186.38
510.95	45361.92
511.12	45270.64
511.30	45209.79
511.47	45502.35
511.64	45485.97
511.82	45790.24
511.99	45848.75
512.17	45766.84
512.34	45928.33
512.51	46597.73
512.69	46520.49
512.86	46358.99
513.04	46721.77
513.21	46707.73
513.38	46733.48
513.56	47131.37
513.73	46902.00
513.90	47320.95
514.08	47395.85
514.25	47550.32
514.43	47433.30
514.60	47545.64
514.77	47751.61
514.95	47856.93
515.12	47381.80
515.29	47824.17
515.47	48350.79
515.64	48098.01
515.81	48233.76
515.99	48486.54
516.16	48807.19
516.33	48636.33
516.51	48753.36
516.68	48636.33
516.85	48692.50
517.03	48776.76
517.20	49233.17
517.37	48875.07
517.54	48718.25
517.72	49020.18
517.89	48971.03
518.06	49368.92
518.24	49420.41
518.41	49331.47
518.58	49741.06
518.75	49165.29
518.93	49736.38
519.10	49375.94
519.27	49881.50
519.45	50232.58
519.62	50307.47
519.79	50054.70
519.96	50021.93
520.14	50225.56
520.31	50073.42
520.48	50396.42
520.65	50412.80
520.83	50707.71
521.00	50890.27
521.17	50623.45
521.34	50630.47
521.52	51243.69
521.69	50974.53
521.86	50988.57
522.03	51283.48
522.20	51674.35
522.38	51423.91
522.55	51646.26
522.72	51690.73
522.89	51491.79
523.07	51646.26
523.24	51583.07
523.41	51627.54
523.58	51559.66
523.75	51877.97
523.92	51395.82
524.10	52165.86
524.27	52261.82
524.44	52039.47
524.61	51859.25
524.78	52273.52
524.96	52261.82
525.13	52397.57
525.30	52470.13
525.47	52734.61
525.64	52467.79
525.81	52643.33
525.98	52559.07
526.16	52711.20
526.33	52755.68
526.50	53144.20
526.67	52809.51
526.84	52589.50
527.01	52886.74
527.18	52767.38
527.36	52896.11
527.53	53212.08
527.70	53696.57
527.87	53598.27
528.04	53144.20
528.21	53511.67
528.38	53200.38
528.55	53624.01
528.72	53467.20
528.89	53600.61
529.07	53474.22
529.24	53389.96
529.41	54049.99
529.58	53991.48
529.75	53724.66
529.92	53827.64
530.09	54248.94
530.26	54082.76
530.43	53895.52
530.60	53839.34
530.77	53626.35
530.94	54347.24
531.11	54333.20
531.28	54160.00
531.46	54412.77
531.63	54417.46
531.80	54497.03
531.97	54452.56
532.14	54571.93
532.31	54344.90
532.48	54532.14
532.65	54684.28
532.82	54864.50
532.99	54897.27
533.16	54768.54
533.33	54688.96
533.50	55192.17
533.67	54857.48
533.84	54866.84
534.01	55084.51
534.18	55311.54
534.35	55306.86
534.52	55395.80
534.69	55260.05
534.86	55402.82
535.03	55327.92
535.20	55126.64
535.37	55531.55
535.54	55327.92
535.71	55484.74
535.88	55444.95
536.05	55662.62
536.22	55384.10
536.38	55861.57
536.55	55552.62
536.72	55824.12
536.89	55564.32
537.06	55405.16
537.23	56055.83
537.40	55573.68
537.57	55891.99
537.74	55901.36
537.91	55931.78
538.08	55821.78
538.25	55845.18
538.42	55854.54
538.59	56102.64
538.75	56100.30
538.92	56006.68
539.09	56495.85
539.26	56324.99
539.43	56198.60
539.60	56104.98
539.77	56320.31
539.94	56704.16
540.11	56376.48
540.28	56303.93
540.44	56711.18
540.61	56594.15
540.78	56397.55
540.95	56308.61
541.12	56488.83
541.29	56640.96
541.46	56645.65
541.62	56568.41
541.79	56512.23
541.96	56624.58
542.13	56652.67
542.30	56659.69
542.47	56825.87
542.63	56858.63
542.80	56837.57
542.97	57120.77
543.14	57214.40
543.31	57183.97
543.48	57190.99
543.64	57556.11
543.81	57326.74
543.98	57471.85
544.15	57275.25
544.32	57476.54
544.48	57675.48
544.65	57359.51
544.82	57443.77
544.99	57385.25
545.16	57729.31
545.32	57499.94
545.49	57741.02
545.66	58073.37
545.83	57612.29
546.00	57904.85
546.16	57757.40
546.33	57563.14
546.50	57588.88
546.67	57963.37
546.83	57724.63
547.00	57764.42
547.17	57710.59
547.34	57778.46
547.50	58092.10
547.67	58262.96
547.84	58115.50
548.00	58122.52
548.17	58379.98
548.34	58202.10
548.51	58253.59
548.67	58284.02
548.84	58239.55
549.01	58171.67
549.18	58225.51
549.34	58335.51
549.51	58562.54
549.68	58567.23
549.84	58590.63
550.01	58475.94
550.18	58581.27
550.34	58438.50
550.51	58494.67
550.68	58438.50
550.84	58323.81
551.01	58688.93
551.18	58604.67
551.34	58653.82
551.51	58768.51
551.68	58674.89
551.84	58637.44
552.01	58754.47
552.18	58691.27
552.34	58569.57
552.51	58607.01
552.68	58602.33
552.84	58899.58
553.01	58894.90
553.18	58937.03
553.34	59040.01
553.51	58731.06
553.67	58803.62
553.84	59035.33
554.01	58967.46
554.17	58831.71
554.34	59164.06
554.51	59334.92
554.67	59147.68
554.84	58969.80
555.00	58922.99
555.17	58864.47
555.33	59206.19
555.50	59018.95
555.67	59107.89
555.83	59168.74
556.00	59025.97
556.16	59458.97
556.33	59344.28
556.50	59138.32
556.66	59590.04
556.83	59100.87
556.99	59355.99
557.16	59587.70
557.32	59430.88
557.49	59590.04
557.65	59313.86
557.82	59508.12
557.98	59365.35
558.15	59358.33
558.32	59681.32
558.48	59353.65
558.65	59620.47
558.81	59519.82
558.98	59730.47
559.14	59742.17
559.31	59604.08
559.47	59718.77
559.64	59833.46
559.80	59779.62
559.97	59828.77
560.13	59664.94
560.30	59728.13
560.46	59842.82
560.63	59833.46
560.79	59887.29
560.96	59840.48
561.12	59997.29
561.29	59805.37
561.45	59835.80
561.61	59854.52
561.78	59875.58
561.94	59891.97
562.11	59901.33
562.27	60062.83
562.44	60097.94
562.60	60062.83
562.77	60083.89
562.93	60020.70
563.10	59957.50
563.26	59976.23
563.42	60271.14
563.59	60126.02
563.75	60168.15
563.92	60254.75
564.08	60083.89
564.24	60107.30
564.41	60238.37
564.57	60137.72
564.74	60219.64
564.90	60177.51
565.07	60247.73
565.23	60111.98
565.39	60214.96
565.56	60282.84
565.72	60081.55
565.88	60079.21
566.05	60233.69
566.21	60224.32
566.38	60163.47
566.54	60484.12
566.70	60526.25
566.87	60250.07
567.03	60331.99
567.19	60535.62
567.36	60369.44
567.52	60285.18
567.68	60790.73
567.85	60399.86
568.01	60589.45
568.17	60369.44
568.34	60474.76
568.50	60397.52
568.66	60505.19
568.83	60357.74
568.99	60350.71
569.15	60477.10
569.32	60446.68
569.48	60285.18
569.64	60559.02
569.81	60416.25
569.97	60500.51
570.13	60484.12
570.30	60603.49
570.46	60715.84
570.62	60395.18
570.78	60416.25
570.95	60573.06
571.11	60811.80
571.27	60430.29
571.43	60542.64
571.60	60685.41
571.76	60757.97
571.92	60631.58
572.09	60678.39
572.25	60647.96
572.41	60678.39
572.57	60516.89
572.74	60837.54
572.90	60706.47
573.06	60889.04
573.22	60825.84
573.38	60713.50
573.55	60652.64
573.71	60851.59
573.87	60851.59
574.03	60643.28
574.20	60797.76
574.36	60554.34
574.52	60830.52
574.68	60718.18
574.84	60945.21
575.01	60764.99
575.17	60959.25
575.33	60767.33
575.49	60769.67
575.65	60669.03
575.82	60867.97
575.98	60769.67
576.14	60694.77
576.30	60940.53
576.46	60760.31
576.62	60807.12
576.79	60842.23
576.95	60739.24
577.11	60903.08
577.27	61001.38
577.43	60839.89
577.59	60788.39
577.75	60898.40
577.92	60830.52
578.08	60877.33
578.24	60610.51
578.40	61036.49
578.56	61064.58
578.72	60942.87
578.88	61118.41
579.04	61186.28
579.21	60919.46
579.37	61087.98
579.53	61111.39
579.69	60793.07
579.85	60872.65
580.01	60828.18
580.17	60942.87
580.33	61151.18
580.49	61137.13
580.65	60975.64
580.82	60788.39
580.98	60952.23
581.14	60945.21
581.30	61127.77
581.46	60910.10
581.62	61155.86
581.78	60711.16
581.94	61085.64
582.10	60933.51
582.26	61104.37
582.42	61151.18
582.58	61076.28
582.74	60940.53
582.90	61116.07
583.06	60940.53
583.22	60947.55
583.38	60973.30
583.54	60952.23
583.70	61069.26
583.86	61109.05
584.02	60935.85
584.18	61162.88
584.34	61010.74
584.50	60804.78
584.66	60933.51
584.82	60928.83
584.98	61052.87
585.14	61160.54
585.30	60996.70
585.46	61073.94
585.62	61373.53
585.78	61130.11
585.94	60839.89
586.10	61001.38
586.26	61148.84
586.42	61385.23
586.58	61216.71
586.74	61144.16
586.90	61183.94
587.06	60938.19
587.22	61237.78
587.38	61160.54
587.54	61195.65
587.70	61485.87
587.86	61160.54
588.02	60975.64
588.18	61240.12
588.34	61130.11
