SpectraSuite Data File
++++++++++++++++++++++++++++++++++++
Date: Fri Oct 25 11:25:36 EDT 2013
User: price-jones
Dark Spectrum Present: No
Reference Spectrum Present: No
Number of Sampled Component Spectra: 1
Spectrometers: USB2+H05261
Integration Time (usec): 100000 (USB2+H05261)
Spectra Averaged: 1 (USB2+H05261)
Boxcar Smoothing: 0 (USB2+H05261)
Correct for Electrical Dark: No (USB2+H05261)
Strobe/Lamp Enabled: No (USB2+H05261)
Correct for Detector Non-linearity: No (USB2+H05261)
Correct for Stray Light: No (USB2+H05261)
Number of Pixels in Processed Spectrum: 2048
>>>>>Begin Processed Spectral Data<<<<<
365.73	269.16
365.92	269.16
366.12	269.16
366.32	189.58
366.52	93.62
366.72	222.35
366.91	135.75
367.11	102.98
367.31	124.05
367.51	194.26
367.70	93.62
367.90	222.35
368.10	128.73
368.30	203.63
368.49	142.77
368.69	133.41
368.89	121.71
369.09	79.58
369.28	124.05
369.48	198.95
369.68	210.65
369.87	227.03
370.07	196.60
370.27	210.65
370.47	322.99
370.66	561.73
370.86	660.03
371.06	636.63
371.25	681.10
371.45	709.18
371.65	653.01
371.84	657.69
372.04	669.39
372.24	725.57
372.44	655.35
372.63	648.33
372.83	770.04
373.03	716.20
373.22	730.25
373.42	692.80
373.62	784.08
373.81	763.01
374.01	741.95
374.21	744.29
374.40	798.12
374.60	861.32
374.79	800.46
374.99	828.55
375.19	788.76
375.38	800.46
375.58	837.91
375.78	894.08
375.97	858.98
376.17	919.83
376.37	819.19
376.56	821.53
376.76	887.06
376.95	849.61
377.15	798.12
377.35	835.57
377.54	889.40
377.74	891.74
377.93	943.24
378.13	929.19
378.33	985.37
378.52	957.28
378.72	887.06
378.91	983.02
379.11	950.26
379.31	936.21
379.50	858.98
379.70	1015.79
379.89	968.98
380.09	971.32
380.28	976.00
380.48	861.32
380.68	983.02
380.87	999.41
381.07	1064.94
381.26	992.39
381.46	1013.45
381.65	1064.94
381.85	1088.35
382.04	1064.94
382.24	1074.31
382.43	1055.58
382.63	1137.50
382.83	1043.88
383.02	1071.97
383.22	1053.24
383.41	1032.18
383.61	1093.03
383.80	1163.25
384.00	1088.35
384.19	1226.44
384.39	1184.31
384.58	1109.41
384.78	1212.40
384.97	1156.22
385.17	1181.97
385.36	1158.57
385.56	1167.93
385.75	1163.25
385.95	1212.40
386.14	1188.99
386.34	1121.12
386.53	1221.76
386.72	1205.38
386.92	1259.21
387.11	1144.52
387.31	1308.36
387.50	1301.34
387.70	1217.08
387.89	1245.16
388.09	1242.82
388.28	1308.36
388.48	1205.38
388.67	1280.27
388.86	1334.11
389.06	1275.59
389.25	1317.72
389.45	1317.72
389.64	1317.72
389.84	1364.53
390.03	1364.53
390.22	1451.13
390.42	1425.39
390.61	1348.15
390.81	1357.51
391.00	1448.79
391.19	1439.43
391.39	1416.02
391.58	1420.71
391.78	1451.13
391.97	1469.86
392.16	1481.56
392.36	1479.22
392.55	1439.43
392.75	1493.26
392.94	1502.62
393.13	1493.26
393.33	1497.94
393.52	1516.67
393.71	1551.78
393.91	1514.33
394.10	1558.80
394.29	1643.06
394.49	1647.74
394.68	1626.67
394.88	1596.25
395.07	1591.56
395.26	1741.36
395.46	1762.42
395.65	1727.32
395.84	1708.59
396.04	1834.98
396.23	1713.27
396.42	1654.76
396.62	1729.66
396.81	1778.81
397.00	1797.53
397.19	1816.26
397.39	1921.58
397.58	1783.49
397.77	1872.43
397.97	1905.20
398.16	1900.52
398.35	1944.99
398.55	1846.68
398.74	1893.49
398.93	1977.75
399.12	1893.49
399.32	1907.54
399.51	1891.15
399.70	1966.05
399.90	1984.77
400.09	2019.88
400.28	2097.12
400.47	1952.01
400.67	2029.24
400.86	1937.96
401.05	2136.91
401.24	1984.77
401.44	2157.97
401.63	2157.97
401.82	2150.95
402.01	2064.35
402.21	2120.53
402.40	2174.36
402.59	2064.35
402.78	2174.36
402.97	2242.23
403.17	2190.74
403.36	2279.68
403.55	2216.49
403.74	2296.07
403.93	2406.07
404.13	2382.67
404.32	2396.71
404.51	2300.75
404.70	2495.01
404.89	2312.45
405.09	2492.67
405.28	2443.52
405.47	2417.77
405.66	2532.46
405.85	2455.22
406.05	2408.41
406.24	2490.33
406.43	2607.36
406.62	2672.89
406.81	2661.19
407.00	2602.68
407.20	2520.76
407.39	2576.93
407.58	2658.85
407.77	2796.94
407.96	2782.90
408.15	2759.49
408.34	2696.30
408.54	2850.77
408.73	2731.41
408.92	2806.30
409.11	2930.35
409.30	2815.66
409.49	2740.77
409.68	2920.99
409.87	2974.82
410.07	3007.59
410.26	3073.12
410.45	3077.80
410.64	2953.76
410.83	2986.52
411.02	3066.10
411.21	3101.21
411.40	3141.00
411.59	3150.36
411.78	3162.06
411.98	3117.59
412.17	3279.09
412.36	3283.77
412.55	3393.78
412.74	3300.16
412.93	3349.31
413.12	3353.99
413.31	3562.30
413.50	3592.72
413.69	3510.80
413.88	3611.45
414.07	3623.15
414.26	3641.87
414.45	3574.00
414.64	3723.79
414.83	3803.37
415.02	3576.34
415.22	3733.15
415.41	3843.16
415.60	4074.87
415.79	3857.20
415.98	3939.12
416.17	4044.45
416.36	4007.00
416.55	4002.32
416.74	4072.53
416.93	4128.70
417.12	4093.60
417.31	4163.81
417.50	4128.70
417.69	4170.83
417.88	4276.16
418.07	4212.96
418.26	4231.69
418.45	4348.72
418.64	4437.66
418.83	4360.42
419.02	4451.70
419.21	4407.23
419.39	4493.83
419.58	4512.55
419.77	4285.52
419.96	4442.34
420.15	4587.45
420.34	4526.60
420.53	4582.77
420.72	4526.60
420.91	4777.03
421.10	4664.69
421.29	4865.97
421.48	4697.46
421.67	4636.60
421.86	4805.12
422.05	4835.55
422.24	4683.41
422.43	4959.60
422.61	4858.95
422.80	4961.94
422.99	4870.65
423.18	4908.10
423.37	4912.78
423.56	4898.74
423.75	5069.60
423.94	4720.86
424.13	4629.58
424.32	4772.35
424.50	4999.38
424.69	5078.96
424.88	4943.21
425.07	4905.76
425.26	4903.42
425.45	5022.79
425.64	5100.03
425.83	4856.61
426.01	4987.68
426.20	5111.73
426.39	4940.87
426.58	5060.24
426.77	4908.10
426.96	5025.13
427.15	5041.51
427.33	5137.48
427.52	5095.35
427.71	5310.68
427.90	5048.54
428.09	5245.14
428.28	5327.06
428.46	5291.95
428.65	5245.14
428.84	5528.35
429.03	5383.23
429.22	5327.06
429.40	5380.89
429.59	5469.83
429.78	5259.18
429.97	5228.76
430.16	5425.36
430.34	5530.69
430.53	5605.58
430.72	5633.67
430.91	5591.54
431.10	5425.36
431.28	5619.63
431.47	5741.33
431.66	5884.11
431.85	5795.17
432.03	5914.53
432.22	5841.98
432.41	5865.38
432.60	5877.09
432.79	6045.60
432.97	5930.92
433.16	5947.30
433.35	5844.32
433.54	6026.88
433.72	6118.16
433.91	6001.13
434.10	6197.74
434.28	5949.64
434.47	6202.42
434.66	6106.46
434.85	6050.28
435.03	6380.30
435.22	6300.72
435.41	6558.18
435.59	6221.14
435.78	6537.12
435.97	6513.71
436.16	6293.70
436.34	6464.56
436.53	6410.73
436.72	6642.44
436.90	6499.67
437.09	6621.38
437.28	6310.08
437.46	6651.80
437.65	6548.82
437.84	6771.17
438.02	6668.19
438.21	6808.62
438.40	6689.25
438.58	7105.87
438.77	6991.18
438.96	6888.20
439.14	7059.06
439.33	7178.42
439.52	7052.03
439.70	7194.81
439.89	7239.28
440.08	7279.07
440.26	7279.07
440.45	7258.00
440.63	7297.79
440.82	7658.23
441.01	7391.41
441.19	7452.27
441.38	7702.70
441.57	7583.34
441.75	7634.83
441.94	7803.35
442.12	7705.04
442.31	7903.99
442.50	7964.84
442.68	7822.07
442.87	7840.79
443.05	7868.88
443.24	8114.64
443.43	8086.55
443.61	8255.07
443.80	8311.24
443.98	7882.92
444.17	7742.49
444.35	8238.69
444.54	8128.68
444.73	8271.45
444.91	8234.00
445.10	8208.26
445.28	8088.89
445.47	8060.80
445.65	8353.37
445.84	8397.84
446.02	8355.71
446.21	8341.67
446.39	8313.58
446.58	8439.97
446.77	8535.93
446.95	8329.97
447.14	8358.05
447.32	8706.79
447.51	8400.18
447.69	8608.49
447.88	8716.16
448.06	8320.60
448.25	8250.39
448.43	8592.11
448.62	8566.36
448.80	8491.46
448.99	8659.98
449.17	8540.61
449.36	8617.85
449.54	8945.53
449.73	9006.38
449.91	8889.35
450.10	8961.91
450.28	9116.39
450.46	9205.33
450.65	9228.73
450.83	9231.07
451.02	8990.00
451.20	9039.15
451.39	9081.28
451.57	8971.27
451.76	8896.38
451.94	9151.49
452.13	8992.34
452.31	9181.92
452.49	9172.56
452.68	9172.56
452.86	9055.53
453.05	9446.40
453.23	9423.00
453.42	9207.67
453.60	9298.95
453.78	9619.60
453.97	9301.29
454.15	9296.61
454.34	9221.71
454.52	9753.01
454.70	9385.55
454.89	9645.35
455.07	9792.80
455.26	9748.33
455.44	9998.77
455.62	9942.60
455.81	9720.24
455.99	10022.17
456.17	10047.92
456.36	10232.82
456.54	10113.45
456.73	10331.12
456.91	10239.84
457.09	10345.17
457.28	10562.84
457.46	10317.08
457.64	10347.51
457.83	10422.41
458.01	10427.09
458.19	10750.08
458.38	10532.41
458.56	10733.70
458.74	10604.97
458.93	10487.94
459.11	10635.39
459.29	10693.91
459.48	11007.54
459.66	10572.20
459.84	10810.93
460.03	10995.84
460.21	11019.24
460.39	11014.56
460.57	10850.72
460.76	10956.05
460.94	10967.75
461.12	11052.01
461.31	11115.20
461.49	11012.22
461.67	11094.14
461.85	11225.21
462.04	11206.48
462.22	11709.70
462.40	11328.19
462.59	11501.39
462.77	11367.98
462.95	11644.17
463.13	11424.15
463.32	11550.54
463.50	11658.21
463.68	11791.62
463.86	11873.54
464.05	11595.01
464.23	11566.93
464.41	11679.27
464.59	11461.60
464.78	12018.65
464.96	11960.14
465.14	11763.53
465.32	12063.12
465.50	11892.26
465.69	12156.74
465.87	12194.19
466.05	12025.67
466.23	12081.85
466.41	12191.85
466.60	12294.83
466.78	11995.25
466.96	12149.72
467.14	12231.64
467.32	12131.00
467.51	12524.21
467.69	11967.16
467.87	12170.79
468.05	12615.49
468.23	12482.08
468.41	12465.69
468.60	12510.16
468.78	12774.64
468.96	12432.93
469.14	12510.16
469.32	12784.01
469.50	12404.84
469.69	12842.52
469.87	13053.17
470.05	12854.22
470.23	12975.93
470.41	12987.63
470.59	13015.72
470.77	13184.24
470.95	12929.12
471.14	13214.66
471.32	12999.34
471.50	13701.50
471.68	13242.75
471.86	13572.77
472.04	13750.65
472.22	13855.97
472.40	13366.80
472.58	13673.41
472.77	13825.54
472.95	13944.91
473.13	14649.41
473.31	13994.06
473.49	13980.02
473.67	14267.91
473.85	14092.37
474.03	14497.28
474.21	14834.32
474.39	14558.13
474.57	14548.77
474.75	14799.21
474.93	14780.48
475.12	14712.61
475.30	15012.20
475.48	15070.71
475.66	15110.50
475.84	15009.86
476.02	15108.16
476.20	15349.23
476.38	15726.06
476.56	15880.53
476.74	15777.55
476.92	15653.50
477.10	15744.78
477.28	15786.91
477.46	16135.65
477.64	16084.16
477.82	16404.81
478.00	16943.14
478.18	16673.98
478.36	17008.67
478.54	16734.83
478.72	17062.51
478.90	17032.08
479.08	17572.74
479.26	17415.93
479.44	17722.54
479.62	17783.39
479.80	18036.17
479.98	17867.65
480.16	18483.21
480.34	18160.22
480.52	18408.31
480.70	18490.23
480.88	18429.38
481.06	18614.28
481.24	18782.80
481.41	19089.41
481.59	19147.92
481.77	19040.26
481.95	19501.34
482.13	19707.31
482.31	19751.78
482.49	19988.18
482.67	19960.09
482.85	20072.43
483.03	20137.97
483.21	20851.83
483.39	20812.04
483.57	20744.17
483.74	20924.39
483.92	21343.35
484.10	20968.86
484.28	21722.51
484.46	21853.58
484.64	22253.81
484.82	21923.80
485.00	22352.12
485.18	22658.73
485.35	23190.03
485.53	22649.36
485.71	22939.59
485.89	23606.64
486.07	23665.16
486.25	23145.56
486.43	23166.62
486.61	23704.95
486.78	23969.43
486.96	24023.26
487.14	24217.52
487.32	24727.76
487.50	25132.67
487.68	24936.07
487.85	25102.25
488.03	25488.43
488.21	25635.89
488.39	25523.54
488.57	25926.11
488.75	25820.79
488.92	26302.94
489.10	26609.55
489.28	26487.84
489.46	26829.56
489.64	27161.92
489.81	27384.27
489.99	27501.29
490.17	27611.30
490.35	27828.97
490.53	28386.02
490.70	28439.85
490.88	27852.38
491.06	28451.55
491.24	28847.10
491.41	28978.17
491.59	28779.23
491.77	28830.72
491.95	29619.48
492.13	29766.93
492.30	29907.37
492.48	30050.14
492.66	29900.34
492.84	30448.03
493.01	30693.79
493.19	30511.22
493.37	31239.13
493.54	30869.33
493.72	31501.27
493.90	30969.97
494.08	31613.62
494.25	31569.15
494.43	31936.61
494.61	32201.09
494.79	32187.05
494.96	32360.25
495.14	32435.14
495.32	32931.34
495.49	33251.99
495.67	32797.93
495.85	33202.84
496.02	33628.82
496.20	33799.68
496.38	33420.51
496.55	33825.42
496.73	34785.04
496.91	34553.33
497.09	34642.27
497.26	35054.20
497.44	34485.45
497.62	35264.85
497.79	35747.00
497.97	35379.54
498.14	35667.42
498.32	35615.93
498.50	36212.77
498.67	36180.00
498.85	36058.29
499.03	36180.00
499.20	36540.44
499.38	36552.15
499.56	37017.91
499.73	37008.55
499.91	37174.73
500.08	37237.92
500.26	37111.53
500.44	37296.44
500.61	37682.62
500.79	37366.65
500.97	37804.33
501.14	38132.01
501.32	38396.49
501.49	38171.80
501.67	38108.60
501.84	38675.01
502.02	38965.24
502.20	38780.34
502.37	38962.90
502.55	38864.60
502.72	39325.68
502.90	39454.41
503.07	39222.70
503.25	39239.08
503.43	39718.89
503.60	39885.07
503.78	40327.43
503.95	40182.32
504.13	40177.64
504.30	40612.98
504.48	40425.73
504.65	40325.09
504.83	40975.76
505.01	41071.72
505.18	41207.47
505.36	41502.38
505.53	40793.20
505.71	41158.32
505.88	41464.93
506.06	41109.17
506.23	41682.60
506.41	41317.48
506.58	41596.00
506.76	41876.86
506.93	42291.14
507.11	42508.81
507.28	42768.61
507.46	42305.18
507.63	42319.23
507.81	42878.61
507.98	42527.53
508.16	42843.51
508.33	43255.44
508.50	43122.03
508.68	43370.13
508.85	43524.60
509.03	43353.74
509.20	43732.91
509.38	44170.59
509.55	44411.67
509.73	44481.88
509.90	44191.65
510.08	44561.46
510.25	44514.65
510.42	44435.07
510.60	44898.50
510.77	45071.70
510.95	45020.20
511.12	45041.27
511.30	45052.97
511.47	45319.79
511.64	45310.43
511.82	45551.51
511.99	45141.91
512.17	45603.00
512.34	45846.41
512.51	46174.09
512.69	46071.10
512.86	46148.34
513.04	46593.04
513.21	46181.11
513.38	46611.77
513.56	46707.73
513.73	46588.36
513.90	47023.70
514.08	46752.20
514.25	47100.94
514.43	47344.36
514.60	47246.05
514.77	47110.30
514.95	47426.28
515.12	47555.00
515.29	47255.42
515.47	47730.54
515.64	47730.54
515.81	47227.33
515.99	48332.06
516.16	48072.26
516.33	47908.43
516.51	48399.94
516.68	48432.71
516.85	48367.17
517.03	48245.46
517.20	48671.44
517.37	48191.63
517.54	48889.11
517.72	48793.15
517.89	48933.58
518.06	48807.19
518.24	48973.37
518.41	49263.60
518.58	49081.03
518.75	48879.75
518.93	49038.90
519.10	49146.57
519.27	49490.63
519.45	49514.03
519.62	49689.57
519.79	49504.67
519.96	49429.77
520.14	50052.36
520.31	49722.34
520.48	50155.34
520.65	50024.27
520.83	50784.94
521.00	50356.63
521.17	50028.95
521.34	50667.92
521.52	50712.39
521.69	50667.92
521.86	50738.13
522.03	50852.82
522.20	51019.00
522.38	51332.63
522.55	51131.34
522.72	51360.72
522.89	51044.74
523.07	51412.21
523.24	51414.55
523.41	51686.05
523.58	51112.62
523.75	51744.56
523.92	51508.17
524.10	51889.68
524.27	51875.63
524.44	51828.82
524.61	51980.96
524.78	52076.92
524.96	51983.30
525.13	52065.22
525.30	52301.61
525.47	52493.54
525.64	52144.80
525.81	52420.98
525.98	52711.20
526.16	52472.47
526.33	52158.84
526.50	52968.66
526.67	52545.03
526.84	52673.76
527.01	52582.48
527.18	52758.02
527.36	52793.12
527.53	52626.95
527.70	53153.57
527.87	52921.85
528.04	52992.07
528.21	53359.53
528.38	53144.20
528.55	53396.98
528.72	53352.51
528.89	53247.19
529.07	53202.72
529.24	52905.47
529.41	53488.26
529.58	53411.02
529.75	53364.21
529.92	53422.73
530.09	53469.54
530.26	53811.26
530.43	53755.08
530.60	53661.46
530.77	53684.87
530.94	54042.97
531.11	53829.98
531.28	53991.48
531.46	53989.14
531.63	54040.63
531.80	53989.14
531.97	54382.35
532.14	54344.90
532.31	54195.10
532.48	54429.16
532.65	54232.55
532.82	54164.68
532.99	54508.74
533.16	54436.18
533.33	54684.28
533.50	54642.15
533.67	54574.27
533.84	54471.29
534.01	54604.70
534.18	54918.33
534.35	55089.19
534.52	55084.51
534.69	54848.11
534.86	55054.08
535.03	54836.41
535.20	55058.76
535.37	55044.72
535.54	55224.94
535.71	55187.49
535.88	55061.10
536.05	55276.43
536.22	55257.71
536.38	55508.14
536.55	55093.87
536.72	55374.73
536.89	55374.73
537.06	55414.52
537.23	55800.71
537.40	55468.36
537.57	55505.80
537.74	55576.02
537.91	55835.82
538.08	55821.78
538.25	55433.25
538.42	55807.73
538.59	56051.15
538.75	55550.27
538.92	55847.52
539.09	55718.79
539.26	56088.60
539.43	56009.02
539.60	55866.25
539.77	56329.67
539.94	56116.68
540.11	56142.43
540.28	56018.38
540.44	56219.67
540.61	56303.93
540.78	56090.94
540.95	56313.29
541.12	56126.05
541.29	56144.77
541.46	56697.14
541.62	56505.21
541.79	56306.27
541.96	56165.84
542.13	56545.00
542.30	56537.98
542.47	56715.86
542.63	56765.01
542.80	56676.07
542.97	56999.07
543.14	57251.84
543.31	57116.09
543.48	56978.00
543.64	57359.51
543.81	57331.42
543.98	57078.64
544.15	57200.35
544.32	57371.21
544.48	57153.54
544.65	57052.90
544.82	57256.53
544.99	57242.48
545.16	57134.82
545.32	57216.74
545.49	57565.48
545.66	57455.47
545.83	57476.54
546.00	57705.91
546.16	57448.45
546.33	57497.60
546.50	57333.76
546.67	57586.54
546.83	57176.95
547.00	57481.22
547.17	57703.57
547.34	57701.23
547.50	57836.98
547.67	57846.34
547.84	57654.42
548.00	57888.47
548.17	58017.20
548.34	57858.04
548.51	58190.40
548.67	57991.45
548.84	57935.28
549.01	57911.88
549.18	58026.56
549.34	58115.50
549.51	57942.30
549.68	57939.96
549.84	58178.70
550.01	58319.13
550.18	58052.31
550.34	58162.31
550.51	58134.23
550.68	58379.98
550.84	58265.30
551.01	58363.60
551.18	58368.28
551.34	58199.76
551.51	58452.54
551.68	58658.51
551.84	58511.05
552.01	58433.81
552.18	58475.94
552.34	58365.94
552.51	58433.81
552.68	58382.32
552.84	58501.69
553.01	58885.54
553.18	58375.30
553.34	58843.41
553.51	58602.33
553.67	58592.97
553.84	58808.30
554.01	58632.76
554.17	58754.47
554.34	58848.09
554.51	58925.33
554.67	58955.75
554.84	58850.43
555.00	58815.32
555.17	58670.21
555.33	58871.49
555.50	58745.11
555.67	58922.99
555.83	58976.82
556.00	58876.18
556.16	59440.24
556.33	59082.14
556.50	59164.06
556.66	59353.65
556.83	59084.48
556.99	59213.21
557.16	59494.08
557.32	59189.81
557.49	59571.32
557.65	59124.27
557.82	59283.43
557.98	59180.45
558.15	59199.17
558.32	59304.49
558.48	59236.62
558.65	59405.14
558.81	59285.77
558.98	59426.20
559.14	59449.61
559.31	59330.24
559.47	59559.61
559.64	59566.63
559.80	59461.31
559.97	59583.02
560.13	59430.88
560.30	59402.80
560.46	59568.97
560.63	59650.89
560.79	59662.60
560.96	59529.19
561.12	59578.34
561.29	59686.00
561.45	59831.11
561.61	59660.26
561.78	59494.08
561.94	59538.55
562.11	59702.38
562.27	59639.19
562.44	59781.96
562.60	59817.07
562.77	59590.04
562.93	59700.04
563.10	59779.62
563.26	59667.28
563.42	60184.54
563.59	59819.41
563.75	59898.99
563.92	59891.97
564.08	59931.76
564.24	59976.23
564.41	60154.11
564.57	60020.70
564.74	60053.47
564.90	60006.65
565.07	59978.57
565.23	60137.72
565.39	59793.67
565.56	60133.04
565.72	60104.96
565.88	59976.23
566.05	60060.49
566.21	59948.14
566.38	60044.10
566.54	60081.55
566.70	60278.16
566.87	60055.81
567.03	60034.74
567.19	60266.45
567.36	60224.32
567.52	60229.01
567.68	60383.48
567.85	60470.08
568.01	60196.24
568.17	60060.49
568.34	60409.23
568.50	60303.90
568.66	60193.90
568.83	60343.69
568.99	60165.81
569.15	60219.64
569.32	60191.56
569.48	60250.07
569.64	60388.16
569.81	60165.81
569.97	59992.61
570.13	60140.07
570.30	60233.69
570.46	60264.11
570.62	60261.77
570.78	60329.65
570.95	60245.39
571.11	60357.74
571.27	60247.73
571.43	60434.97
571.60	60449.02
571.76	60453.70
571.92	60409.23
572.09	60526.25
572.25	60327.31
572.41	60449.02
572.57	60427.95
572.74	60615.19
572.90	60327.31
573.06	60463.06
573.22	60549.66
573.38	60519.23
573.55	60647.96
573.71	60680.73
573.87	60355.39
574.03	60402.21
574.20	60533.28
574.36	60348.37
574.52	60552.00
574.68	60690.09
574.84	60769.67
575.01	60544.98
575.17	60449.02
575.33	60418.59
575.49	60390.50
575.65	60519.23
575.82	60598.81
575.98	60573.06
576.14	60832.86
576.30	60662.00
576.46	60507.53
576.62	60554.34
576.79	60526.25
576.95	60470.08
577.11	60519.23
577.27	60725.20
577.43	60715.84
577.59	60643.28
577.75	60573.06
577.92	60715.84
578.08	60755.63
578.24	60849.25
578.40	60760.31
578.56	60919.46
578.72	60486.46
578.88	60945.21
579.04	60910.10
579.21	60683.07
579.37	60687.75
579.53	60891.38
579.69	60481.78
579.85	60750.94
580.01	60619.88
580.17	60643.28
580.33	60774.35
580.49	60769.67
580.65	60924.14
580.82	60640.94
580.98	60636.26
581.14	60743.92
581.30	60968.61
581.46	60954.57
581.62	60697.11
581.78	60519.23
581.94	60947.55
582.10	60769.67
582.26	60601.15
582.42	60645.62
582.58	60692.43
582.74	60886.70
582.90	60809.46
583.06	60823.50
583.22	60659.66
583.38	60741.58
583.54	60708.82
583.70	60711.16
583.86	60856.27
584.02	60608.17
584.18	60776.69
584.34	60821.16
584.50	60874.99
584.66	60624.56
584.82	60790.73
584.98	61153.52
585.14	60898.40
585.30	60891.38
585.46	60970.96
585.62	60966.27
585.78	60970.96
585.94	60949.89
586.10	60945.21
586.26	60807.12
586.42	60846.91
586.58	61010.74
586.74	60776.69
586.90	60968.61
587.06	60870.31
587.22	60844.57
587.38	60846.91
587.54	60858.61
587.70	61212.03
587.86	60963.93
588.02	60970.96
588.18	61148.84
588.34	60842.23
588.49	60956.91
