SpectraSuite Data File
++++++++++++++++++++++++++++++++++++
Date: Fri Oct 25 11:34:47 EDT 2013
User: price-jones
Dark Spectrum Present: No
Reference Spectrum Present: No
Number of Sampled Component Spectra: 1
Spectrometers: USB2+H05261
Integration Time (usec): 100000 (USB2+H05261)
Spectra Averaged: 1 (USB2+H05261)
Boxcar Smoothing: 0 (USB2+H05261)
Correct for Electrical Dark: No (USB2+H05261)
Strobe/Lamp Enabled: No (USB2+H05261)
Correct for Detector Non-linearity: No (USB2+H05261)
Correct for Stray Light: No (USB2+H05261)
Number of Pixels in Processed Spectrum: 2048
>>>>>Begin Processed Spectral Data<<<<<
365.73	266.82
365.92	266.82
366.12	266.82
366.32	285.55
366.52	215.33
366.72	173.20
366.91	93.62
367.11	243.42
367.31	124.05
367.51	198.95
367.70	149.79
367.90	227.03
368.10	203.63
368.30	191.92
368.49	180.22
368.69	227.03
368.89	187.24
369.09	177.88
369.28	234.05
369.48	245.76
369.68	208.31
369.87	238.73
370.07	269.16
370.27	278.52
370.47	348.74
370.66	491.51
370.86	486.83
371.06	585.13
371.25	521.94
371.45	528.96
371.65	566.41
371.84	568.75
372.04	521.94
372.24	500.87
372.44	589.82
372.63	617.90
372.83	564.07
373.03	578.11
373.22	650.67
373.42	627.26
373.62	636.63
373.81	568.75
374.01	653.01
374.21	631.94
374.40	617.90
374.60	648.33
374.79	592.16
374.99	751.31
375.19	634.29
375.38	645.99
375.58	660.03
375.78	650.67
375.97	613.22
376.17	636.63
376.37	620.24
376.56	638.97
376.76	608.54
376.95	690.46
377.15	681.10
377.35	681.10
377.54	578.11
377.74	669.39
377.93	655.35
378.13	727.91
378.33	723.23
378.52	746.63
378.72	622.58
378.91	692.80
379.11	688.12
379.31	681.10
379.50	699.82
379.70	725.57
379.89	697.48
380.09	709.18
380.28	657.69
380.48	631.94
380.68	709.18
380.87	720.88
381.07	732.59
381.26	718.54
381.46	744.29
381.65	816.85
381.85	788.76
382.04	741.95
382.24	791.10
382.43	709.18
382.63	697.48
382.83	828.55
383.02	767.70
383.22	849.61
383.41	772.38
383.61	819.19
383.80	788.76
384.00	798.12
384.19	725.57
384.39	772.38
384.58	751.31
384.78	816.85
384.97	814.51
385.17	844.93
385.36	826.21
385.56	887.06
385.75	877.70
385.95	861.32
386.14	844.93
386.34	812.17
386.53	908.13
386.72	840.25
386.92	866.00
387.11	901.11
387.31	793.44
387.50	842.59
387.70	791.10
387.89	835.57
388.09	910.47
388.28	861.32
388.48	917.49
388.67	901.11
388.86	978.34
389.06	966.64
389.25	936.21
389.45	929.19
389.64	1022.81
389.84	957.28
390.03	973.66
390.22	915.15
390.42	973.66
390.61	903.45
390.81	943.24
391.00	978.34
391.19	898.77
391.39	950.26
391.58	978.34
391.78	978.34
391.97	1043.88
392.16	987.71
392.36	1034.52
392.55	1018.13
392.75	1008.77
392.94	961.96
393.13	973.66
393.33	1039.20
393.52	999.41
393.71	1071.97
393.91	1034.52
394.10	978.34
394.29	1011.11
394.49	1018.13
394.68	1086.01
394.88	1118.78
395.07	1083.67
395.26	1086.01
395.46	1081.33
395.65	1203.04
395.84	1118.78
396.04	1191.33
396.23	1123.46
396.42	1043.88
396.62	1114.10
396.81	1188.99
397.00	1179.63
397.19	1207.72
397.39	1177.29
397.58	1210.06
397.77	1163.25
397.97	1252.19
398.16	1296.66
398.35	1254.53
398.55	1193.67
398.74	1282.61
398.93	1221.76
399.12	1188.99
399.32	1294.32
399.51	1273.25
399.70	1233.46
399.90	1289.64
400.09	1263.89
400.28	1420.71
400.47	1448.79
400.67	1270.91
400.86	1404.32
401.05	1352.83
401.24	1263.89
401.44	1313.04
401.63	1434.75
401.82	1320.06
402.01	1291.98
402.21	1385.60
402.40	1441.77
402.59	1469.86
402.78	1462.83
402.97	1488.58
403.17	1472.20
403.36	1488.58
403.55	1474.54
403.74	1521.35
403.93	1572.84
404.13	1556.46
404.32	1481.56
404.51	1577.52
404.70	1542.41
404.89	1598.59
405.09	1675.82
405.28	1619.65
405.47	1614.97
405.66	1701.57
405.85	1636.03
406.05	1605.61
406.24	1708.59
406.43	1633.69
406.62	1769.44
406.81	1734.34
407.00	1760.08
407.20	1734.34
407.39	1760.08
407.58	1753.06
407.77	1750.72
407.96	1820.94
408.15	1799.87
408.34	1888.81
408.54	1849.02
408.73	1933.28
408.92	1755.40
409.11	1823.28
409.30	1837.32
409.49	1898.17
409.68	1863.07
409.87	1900.52
410.07	1909.88
410.26	1970.73
410.45	1961.37
410.64	1956.69
410.83	2010.52
411.02	2101.80
411.21	2076.06
411.40	2022.22
411.59	2111.16
411.78	2066.69
411.98	2085.42
412.17	2160.31
412.36	2190.74
412.55	2183.72
412.74	2193.08
412.93	2253.94
413.12	2230.53
413.31	2310.11
413.50	2396.71
413.69	2188.40
413.88	2424.80
414.07	2338.20
414.26	2380.32
414.45	2319.47
414.64	2370.96
414.83	2464.58
415.02	2495.01
415.22	2537.14
415.41	2462.24
415.60	2495.01
415.79	2635.44
415.98	2502.03
416.17	2532.46
416.36	2473.95
416.55	2548.84
416.74	2740.77
416.93	2548.84
417.12	2726.72
417.31	2743.11
417.50	2647.15
417.69	2832.05
417.88	2764.17
418.07	2885.88
418.26	2712.68
418.45	2815.66
418.64	2960.78
418.83	2984.18
419.02	2867.16
419.21	2883.54
419.39	2923.33
419.58	2958.44
419.77	2857.79
419.96	2951.42
420.15	3009.93
420.34	3077.80
420.53	3068.44
420.72	3122.27
420.91	3162.06
421.10	3080.14
421.29	3070.78
421.48	3164.40
421.67	3117.59
421.86	3138.66
422.05	3150.36
422.24	3276.75
422.43	3356.33
422.61	3049.72
422.80	3220.58
422.99	3325.90
423.18	3192.49
423.37	3194.83
423.56	3199.51
423.75	3241.64
423.94	3166.74
424.13	3040.36
424.32	3059.08
424.50	3372.71
424.69	3335.26
424.88	3288.45
425.07	3157.38
425.26	3246.32
425.45	3253.34
425.64	3145.68
425.83	3145.68
426.01	3274.41
426.20	3370.37
426.39	3246.32
426.58	3353.99
426.77	3344.63
426.96	3335.26
427.15	3368.03
427.33	3400.80
427.52	3386.76
427.71	3417.18
427.90	3480.38
428.09	3466.33
428.28	3510.80
428.46	3611.45
428.65	3489.74
428.84	3438.25
429.03	3478.04
429.22	3583.36
429.40	3529.53
429.59	3440.59
429.78	3435.91
429.97	3527.19
430.16	3569.32
430.34	3672.30
430.53	3634.85
430.72	3545.91
430.91	3686.34
431.10	3684.00
431.28	3808.05
431.47	3803.37
431.66	3871.25
431.85	3618.47
432.03	3882.95
432.22	3859.54
432.41	3960.19
432.60	3868.91
432.79	3831.46
432.97	3969.55
433.16	3997.64
433.35	3840.82
433.54	3894.65
433.72	4035.08
433.91	3999.98
434.10	4086.58
434.28	3913.38
434.47	3976.57
434.66	4039.76
434.85	4117.00
435.03	4028.06
435.22	4065.51
435.41	4292.54
435.59	4198.92
435.78	4086.58
435.97	4255.09
436.16	4002.32
436.34	4210.62
436.53	4264.46
436.72	4353.40
436.90	4152.11
437.09	4294.88
437.28	4170.83
437.46	4386.16
437.65	4273.82
437.84	4358.08
438.02	4315.95
438.21	4269.14
438.40	4351.06
438.58	4465.74
438.77	4629.58
438.96	4683.41
439.14	4568.73
439.33	4681.07
439.52	4648.30
439.70	4681.07
439.89	4601.49
440.08	4863.63
440.26	4791.08
440.45	4779.37
440.63	4716.18
440.82	5004.07
441.01	4718.52
441.19	4861.29
441.38	4961.94
441.57	4968.96
441.75	4973.64
441.94	5184.29
442.12	5062.58
442.31	5118.75
442.50	5130.45
442.68	5156.20
442.87	5104.71
443.05	5188.97
443.24	5331.74
443.43	5231.10
443.61	5439.40
443.80	5427.70
443.98	5411.32
444.17	5097.69
444.35	5308.34
444.54	5352.81
444.73	5167.90
444.91	5291.95
445.10	5212.37
445.28	5177.26
445.47	5357.49
445.65	5364.51
445.84	5448.77
446.02	5343.44
446.21	5254.50
446.39	5261.52
446.58	5493.24
446.77	5483.88
446.95	5301.31
447.14	5397.28
447.32	5575.16
447.51	5507.28
447.69	5413.66
447.88	5516.64
448.06	5488.56
448.25	5483.88
448.43	5518.98
448.62	5643.03
448.80	5432.38
448.99	5673.46
449.17	5502.60
449.36	5554.09
449.54	5753.04
449.73	5767.08
449.91	5790.49
450.10	5746.02
450.28	5968.37
450.46	5844.32
450.65	5776.44
450.83	5797.51
451.02	5816.23
451.20	5881.77
451.39	5851.34
451.57	5940.28
451.76	5724.95
451.94	5975.39
452.13	5898.15
452.31	5844.32
452.49	6033.90
452.68	6043.26
452.86	6024.54
453.05	6113.48
453.23	6099.44
453.42	5954.32
453.60	5799.85
453.78	6146.25
453.97	5935.60
454.15	6008.16
454.34	6097.10
454.52	6289.02
454.70	6113.48
454.89	6237.53
455.07	6106.46
455.26	6310.08
455.44	6373.28
455.62	6296.04
455.81	6387.32
455.99	6181.35
456.17	6436.47
456.36	6342.85
456.54	6389.66
456.73	6511.37
456.91	6534.78
457.09	6569.88
457.28	6693.93
457.46	6523.07
457.64	6792.23
457.83	6703.29
458.01	6771.17
458.19	6785.21
458.38	6722.02
458.56	6862.45
458.74	6869.47
458.93	6869.47
459.11	6675.21
459.29	6738.40
459.48	6944.37
459.66	6766.49
459.84	6977.14
460.03	6740.74
460.21	7000.54
460.39	7124.59
460.57	6944.37
460.76	7108.21
460.94	7260.34
461.12	7150.34
461.31	7332.90
461.49	6927.99
461.67	7019.27
461.85	7309.49
462.04	7316.51
462.22	7246.30
462.40	7332.90
462.59	7246.30
462.77	7314.17
462.95	7346.94
463.13	7258.00
463.32	7300.13
463.50	7494.40
463.68	7452.27
463.86	7576.31
464.05	7396.09
464.23	7442.90
464.41	7669.94
464.59	7342.26
464.78	7749.51
464.96	7651.21
465.14	7573.97
465.32	7609.08
465.50	7620.78
465.69	7686.32
465.87	7616.10
466.05	7508.44
466.23	7723.77
466.41	7667.60
466.60	7613.76
466.78	7683.98
466.96	7627.81
467.14	7714.41
467.32	7854.84
467.51	7936.76
467.69	7595.04
467.87	7971.86
468.05	7908.67
468.23	7922.71
468.41	7810.37
468.60	7955.48
468.78	8067.83
468.96	8009.31
469.14	8173.15
469.32	8341.67
469.50	7983.57
469.69	8119.32
469.87	8184.85
470.05	8320.60
470.23	8119.32
470.41	8325.29
470.59	8383.80
470.77	8217.62
470.95	8421.25
471.14	8538.27
471.32	8313.58
471.50	8496.14
471.68	8430.61
471.86	8531.25
472.04	8493.80
472.22	8725.52
472.40	8592.11
472.58	8659.98
472.77	8648.28
472.95	8767.65
473.13	9207.67
473.31	8695.09
473.49	8919.78
473.67	8727.86
473.85	8896.38
474.03	9088.30
474.21	9146.81
474.39	9092.98
474.57	9118.73
474.75	9301.29
474.93	9310.65
475.12	9210.01
475.30	9458.10
475.48	9556.41
475.66	9497.89
475.84	9563.43
476.02	9348.10
476.20	9586.83
476.38	9696.84
476.56	10026.86
476.74	9942.60
476.92	10019.83
477.10	9891.10
477.28	10286.65
477.46	10207.08
477.64	10237.50
477.82	10293.68
478.00	10485.60
478.18	10373.25
478.36	10616.67
478.54	10682.20
478.72	10579.22
478.90	10707.95
479.08	10857.75
479.26	10834.34
479.44	10839.02
479.62	11019.24
479.80	11269.68
479.98	11115.20
480.16	11435.86
480.34	11452.24
480.52	11506.07
480.70	11686.29
480.88	11541.18
481.06	11845.45
481.24	11988.22
481.41	11913.33
481.59	12035.03
481.77	12030.35
481.95	11969.50
482.13	12301.86
482.31	12458.67
482.49	12468.03
482.67	12418.88
482.85	12475.06
483.03	12575.70
483.21	12938.48
483.39	12894.01
483.57	12898.69
483.74	13312.97
483.92	13181.90
484.10	13188.92
484.28	13455.74
484.46	13535.32
484.64	13926.19
484.82	13675.75
485.00	13722.56
485.18	14260.88
485.35	14314.72
485.53	14078.32
485.71	14272.59
485.89	14443.45
486.07	14445.79
486.25	14345.14
486.43	14600.26
486.61	14705.59
486.78	14881.13
486.96	14974.75
487.14	14944.32
487.32	15009.86
487.50	15398.38
487.68	15470.94
487.85	15393.70
488.03	15730.74
488.21	15929.69
488.39	15962.45
488.57	15999.90
488.75	16285.45
488.92	16189.49
489.10	16580.36
489.28	16301.83
489.46	16615.46
489.64	16603.76
489.81	16980.59
489.99	16996.97
490.17	17172.51
490.35	17301.24
490.53	17514.23
490.70	17563.38
490.88	17200.60
491.06	17640.62
491.24	17551.68
491.41	17827.86
491.59	17907.44
491.77	18043.19
491.95	18420.02
492.13	18129.79
492.30	18445.76
492.48	18789.82
492.66	18625.98
492.84	18892.80
493.01	19140.90
493.19	18932.59
493.37	19185.37
493.54	19084.73
493.72	19501.34
493.90	19297.72
494.08	19211.12
494.25	19564.54
494.43	19669.86
494.61	19765.82
494.79	19878.17
494.96	20219.89
495.14	20009.24
495.32	20257.34
495.49	20311.17
495.67	20467.98
495.85	20751.19
496.02	20753.53
496.20	20725.44
496.38	21226.32
496.55	21238.02
496.73	21553.99
496.91	21249.72
497.09	21561.02
497.26	21315.26
497.44	21235.68
497.62	21537.61
497.79	21579.74
497.97	21858.26
498.14	22260.84
498.32	22101.68
498.50	21970.61
498.67	22625.96
498.85	22361.48
499.03	22478.50
499.20	22532.34
499.38	22750.01
499.56	23007.47
499.73	23208.75
499.91	23016.83
500.08	23171.30
500.26	23199.39
500.44	22817.88
500.61	23332.80
500.79	23260.24
500.97	23278.97
501.14	23796.23
501.32	23751.76
501.49	23761.12
501.67	23482.59
501.84	24212.84
502.02	23695.58
502.20	23875.80
502.37	24318.17
502.55	24301.78
502.72	24500.73
502.90	24304.12
503.07	24418.81
503.25	24226.89
503.43	24467.96
503.60	24767.55
503.78	25408.86
503.95	24961.81
504.13	24884.58
504.30	25057.78
504.48	25074.16
504.65	25303.53
504.83	25127.99
505.01	25696.74
505.18	25502.48
505.36	25399.49
505.53	25553.97
505.71	25933.14
505.88	25755.26
506.06	25619.50
506.23	25944.84
506.41	25820.79
506.58	26164.85
506.76	26040.80
506.93	26382.52
507.11	26312.30
507.28	26183.57
507.46	26176.55
507.63	26588.49
507.81	26927.86
507.98	26534.65
508.16	26817.86
508.33	27105.74
508.50	26981.70
508.68	27030.85
508.85	26888.07
509.03	27192.34
509.20	27402.99
509.38	27454.48
509.55	27796.20
509.73	27894.50
509.90	27473.21
510.08	27482.57
510.25	27728.33
510.42	27494.27
510.60	27850.03
510.77	27789.18
510.95	28437.51
511.12	27662.79
511.30	28231.54
511.47	28308.78
511.64	28341.55
511.82	28364.95
511.99	28519.43
512.17	28802.63
512.34	28594.32
512.51	28826.04
512.69	29134.99
512.86	28746.46
513.04	29165.42
513.21	29481.39
513.38	29036.69
513.56	29287.12
513.73	29198.18
513.90	29062.43
514.08	29081.16
514.25	29511.81
514.43	29507.13
514.60	29465.00
514.77	29883.96
514.95	29593.73
515.12	29752.89
515.29	29600.76
515.47	30015.03
515.64	29881.62
515.81	30000.99
515.99	30326.32
516.16	30506.54
516.33	30485.48
516.51	30314.62
516.68	30113.33
516.85	30185.89
517.03	30876.35
517.20	30679.74
517.37	30789.75
517.54	31072.95
517.72	31143.17
517.89	31304.67
518.06	31108.06
518.24	31197.00
518.41	30841.24
518.58	31236.79
518.75	31063.59
518.93	31201.68
519.10	31632.34
519.27	31566.81
519.45	31255.51
519.62	31702.56
519.79	31550.42
519.96	31517.65
520.14	31487.23
520.31	31693.19
520.48	32123.85
520.65	31782.13
520.83	32100.45
521.00	32247.90
521.17	32313.44
521.34	31945.97
521.52	32402.38
521.69	32535.79
521.86	32634.09
522.03	32421.10
522.20	32891.55
522.38	32797.93
522.55	32926.66
522.72	32835.38
522.89	33050.70
523.07	33296.46
523.24	33036.66
523.41	32797.93
523.58	33067.09
523.75	33549.24
523.92	33455.62
524.10	33186.46
524.27	33621.80
524.44	33427.53
524.61	33830.10
524.78	33310.50
524.96	33713.08
525.13	33638.18
525.30	33954.15
525.47	33755.21
525.64	33773.93
525.81	33862.87
525.98	34396.51
526.16	34024.37
526.33	34022.03
526.50	34651.63
526.67	34176.50
526.84	34597.80
527.01	34373.11
527.18	34239.70
527.36	34223.31
527.53	34389.49
527.70	34628.23
527.87	34696.10
528.04	34668.02
528.21	35061.22
528.38	34923.13
528.55	35119.74
528.72	35072.93
528.89	34979.31
529.07	35255.49
529.24	34595.46
529.41	35253.15
529.58	35166.55
529.75	35318.68
529.92	35274.21
530.09	35325.71
530.26	35363.15
530.43	35393.58
530.60	35248.47
530.77	35484.86
530.94	35484.86
531.11	35248.47
531.28	35969.35
531.46	35606.57
531.63	35849.99
531.80	35665.08
531.97	36257.24
532.14	35763.39
532.31	35496.56
532.48	36617.68
532.65	36526.40
532.82	36006.80
532.99	36570.87
533.16	36151.91
533.33	35974.03
533.50	36514.70
533.67	36201.07
533.84	36154.26
534.01	36540.44
534.18	36243.20
534.35	36870.46
534.52	36704.28
534.69	37507.08
534.86	36889.18
535.03	36629.38
535.20	37256.65
535.37	37163.03
535.54	36996.85
535.71	36781.52
535.88	37589.00
536.05	36978.12
536.22	37181.75
536.38	37336.23
536.55	37273.03
536.72	37195.79
536.89	37207.50
537.06	37490.70
537.23	37537.51
537.40	37542.19
537.57	37188.77
537.74	37289.42
537.91	37872.21
538.08	37691.99
538.25	37338.57
538.42	37783.27
538.59	38129.67
538.75	38089.88
538.92	38164.78
539.09	38326.27
539.26	38099.24
539.43	37881.57
539.60	38401.17
539.77	37776.25
539.94	38740.55
540.11	38628.20
540.28	38047.75
540.44	38291.16
540.61	38588.41
540.78	38206.90
540.95	38064.13
541.12	38675.01
541.29	38548.62
541.46	38387.13
541.62	38504.15
541.79	38803.74
541.96	38213.93
542.13	38862.26
542.30	38820.13
542.47	39005.03
542.63	39201.63
542.80	39168.87
542.97	39253.12
543.14	39234.40
543.31	39189.93
543.48	39395.90
543.64	39885.07
543.81	39796.13
543.98	39299.94
544.15	39218.02
544.32	39590.16
544.48	39749.32
544.65	39842.94
544.82	39709.53
544.99	39306.96
545.16	39665.06
545.32	39566.76
545.49	40116.78
545.66	39791.45
545.83	40112.10
546.00	40046.57
546.16	40226.79
546.33	39889.75
546.50	39786.77
546.67	39866.34
546.83	39704.85
547.00	40018.48
547.17	40112.10
547.34	40465.52
547.50	40053.59
547.67	40486.59
547.84	40610.64
548.00	40708.94
548.17	40730.00
548.34	40524.04
548.51	40612.98
548.67	40273.60
548.84	40840.01
549.01	40414.03
549.18	40720.64
549.34	40708.94
549.51	41020.23
549.68	40912.56
549.84	40659.79
550.01	40921.93
550.18	40636.38
550.34	41027.25
550.51	40973.42
550.68	41205.13
550.84	40617.66
551.01	40921.93
551.18	41134.92
551.34	41160.66
551.51	41167.68
551.68	40945.33
551.84	41486.00
552.01	41141.94
552.18	41698.98
552.34	41083.42
552.51	41722.39
552.68	41132.57
552.84	41528.13
553.01	41874.52
553.18	41495.36
553.34	41553.87
553.51	41736.43
553.67	41773.88
553.84	41689.62
554.01	41626.43
554.17	41787.92
554.34	41970.49
554.51	41457.91
554.67	42253.69
554.84	41757.50
555.00	41900.27
555.17	41832.39
555.33	41640.47
555.50	41914.31
555.67	41858.14
555.83	42124.96
556.00	41801.97
556.16	42562.64
556.33	42209.22
556.50	42103.90
556.66	42347.31
556.83	42274.76
556.99	42249.01
557.16	42759.25
557.32	42124.96
557.49	42422.21
557.65	42043.04
557.82	42443.27
557.98	42405.83
558.15	42298.16
558.32	42576.69
558.48	42316.89
558.65	42183.48
558.81	42630.52
558.98	42497.11
559.14	42157.73
559.31	42637.54
559.47	42902.02
559.64	42911.38
559.80	42667.97
559.97	42740.52
560.13	42452.64
560.30	42586.05
560.46	43152.46
560.63	43426.30
560.79	42850.53
560.96	42986.28
561.12	42656.26
561.29	42862.23
561.45	43477.79
561.61	42834.14
561.78	43166.50
561.94	42787.33
562.11	43070.54
562.27	43239.06
562.44	43229.69
562.60	43143.09
562.77	43407.58
562.93	42902.02
563.10	43746.95
563.26	43276.51
563.42	43590.14
563.59	42801.38
563.75	43203.95
563.92	43517.58
564.08	42960.53
564.24	43386.51
564.41	43356.08
564.57	43407.58
564.74	43196.93
564.90	42939.47
565.07	43423.96
565.23	42850.53
565.39	43606.52
565.56	43332.68
565.72	43363.11
565.88	43386.51
566.05	43618.22
566.21	43667.37
566.38	43344.38
566.54	43449.70
566.70	43592.48
566.87	43620.56
567.03	43391.19
567.19	43854.62
567.36	43978.67
567.52	43620.56
567.68	43765.68
567.85	43945.90
568.01	43796.10
568.17	43683.76
568.34	43849.94
568.50	43871.00
568.66	43625.25
568.83	44343.79
568.99	43370.13
569.15	43814.83
569.32	44027.82
569.48	43817.17
569.64	44069.95
569.81	44041.86
569.97	44037.18
570.13	44360.17
570.30	44065.27
570.46	43786.74
570.62	43941.22
570.78	44018.46
570.95	43718.87
571.11	44437.41
571.27	43910.79
571.43	43772.70
571.60	44318.04
571.76	43613.54
571.92	43976.33
572.09	44030.16
572.25	44034.84
572.41	43983.35
572.57	44449.11
572.74	44414.01
572.90	44044.20
573.06	44502.95
573.22	44168.25
573.38	44612.95
573.55	44191.65
573.71	44425.71
573.87	43889.73
574.03	43772.70
574.20	44402.30
574.36	44086.33
574.52	44238.47
574.68	44416.35
574.84	44151.87
575.01	44931.26
575.17	44552.10
575.33	44282.94
575.49	44161.23
575.65	44680.83
575.82	44411.67
575.98	43709.50
576.14	44577.84
576.30	44521.67
576.46	44547.42
576.62	44383.58
576.79	44568.48
576.95	43746.95
577.11	44552.10
577.27	44428.05
577.43	44339.11
577.59	44137.82
577.75	44023.14
577.92	44002.07
578.08	44339.11
578.24	44399.96
578.40	44479.54
578.56	44580.18
578.72	44582.52
578.88	44292.30
579.04	44390.60
579.21	44215.06
579.37	44257.19
579.53	44346.13
579.69	44257.19
579.85	44414.01
580.01	44460.82
580.17	44598.91
580.33	44383.58
580.49	44926.58
580.65	44456.14
580.82	44629.34
580.98	43887.39
581.14	44098.03
581.30	44720.62
581.46	44336.77
581.62	44360.17
581.78	44278.25
581.94	44439.75
582.10	44233.78
582.26	44612.95
582.42	44741.68
582.58	44594.23
582.74	44531.03
582.90	44500.61
583.06	44751.04
583.22	44399.96
583.38	44847.00
583.54	44545.08
583.70	44418.69
583.86	44926.58
584.02	44449.11
584.18	45074.04
584.34	45036.59
584.50	44910.20
584.66	44540.39
584.82	44851.69
584.98	45151.27
585.14	44687.85
585.30	44191.65
585.46	45132.55
585.62	44898.50
585.78	44704.23
585.94	44704.23
586.10	44442.09
586.26	44547.42
586.42	44720.62
586.58	44961.69
586.74	44587.21
586.90	44547.42
587.06	44685.51
587.22	44509.97
587.38	44722.96
587.54	45015.52
587.70	45118.51
587.86	44830.62
588.02	45020.20
588.18	44814.24
588.34	44849.35
588.49	44952.33
588.65	44540.39
588.81	44453.79
588.97	44746.36
589.13	44877.43
589.29	44669.12
589.45	45088.08
589.61	45326.81
589.77	45081.06
589.93	44687.85
590.08	45071.70
590.24	45200.43
