SpectraSuite Data File
++++++++++++++++++++++++++++++++++++
Date: Fri Oct 25 11:25:52 EDT 2013
User: price-jones
Dark Spectrum Present: No
Reference Spectrum Present: No
Number of Sampled Component Spectra: 1
Spectrometers: USB2+H05261
Integration Time (usec): 100000 (USB2+H05261)
Spectra Averaged: 1 (USB2+H05261)
Boxcar Smoothing: 0 (USB2+H05261)
Correct for Electrical Dark: No (USB2+H05261)
Strobe/Lamp Enabled: No (USB2+H05261)
Correct for Detector Non-linearity: No (USB2+H05261)
Correct for Stray Light: No (USB2+H05261)
Number of Pixels in Processed Spectrum: 2048
>>>>>Begin Processed Spectral Data<<<<<
365.73	250.44
365.92	250.44
366.12	250.44
366.32	154.48
366.52	191.92
366.72	95.96
366.91	128.73
367.11	194.26
367.31	105.32
367.51	79.58
367.70	215.33
367.90	121.71
368.10	117.03
368.30	189.58
368.49	138.09
368.69	135.75
368.89	198.95
369.09	175.54
369.28	236.39
369.48	180.22
369.68	131.07
369.87	231.71
370.07	198.95
370.27	234.05
370.47	299.59
370.66	631.94
370.86	606.20
371.06	669.39
371.25	650.67
371.45	571.09
371.65	655.35
371.84	727.91
372.04	681.10
372.24	706.84
372.44	702.16
372.63	751.31
372.83	753.65
373.03	847.27
373.22	763.01
373.42	779.40
373.62	753.65
373.81	800.46
374.01	833.23
374.21	847.27
374.40	711.52
374.60	823.87
374.79	884.72
374.99	835.57
375.19	849.61
375.38	812.17
375.58	849.61
375.78	884.72
375.97	807.48
376.17	959.62
376.37	795.78
376.56	908.13
376.76	870.68
376.95	882.38
377.15	875.36
377.35	870.68
377.54	908.13
377.74	945.58
377.93	973.66
378.13	985.37
378.33	954.94
378.52	908.13
378.72	968.98
378.91	926.85
379.11	880.04
379.31	931.53
379.50	936.21
379.70	1013.45
379.89	901.11
380.09	922.17
380.28	985.37
380.48	931.53
380.68	994.73
380.87	966.64
381.07	1018.13
381.26	1027.50
381.46	1067.28
381.65	994.73
381.85	1062.60
382.04	1062.60
382.24	983.02
382.43	1069.62
382.63	1001.75
382.83	1057.92
383.02	1149.20
383.22	1125.80
383.41	968.98
383.61	1046.22
383.80	1186.65
384.00	1074.31
384.19	1090.69
384.39	1132.82
384.58	1193.67
384.78	1160.91
384.97	1174.95
385.17	1174.95
385.36	1095.37
385.56	1231.12
385.75	1170.27
385.95	1153.88
386.14	1200.69
386.34	1198.35
386.53	1270.91
386.72	1151.54
386.92	1177.29
387.11	1217.08
387.31	1261.55
387.50	1177.29
387.70	1247.51
387.89	1308.36
388.09	1299.00
388.28	1284.95
388.48	1226.44
388.67	1306.02
388.86	1266.23
389.06	1418.36
389.25	1317.72
389.45	1334.11
389.64	1249.85
389.84	1425.39
390.03	1294.32
390.22	1303.68
390.42	1345.81
390.61	1401.98
390.81	1345.81
391.00	1420.71
391.19	1460.49
391.39	1488.58
391.58	1451.13
391.78	1455.81
391.97	1392.62
392.16	1474.54
392.36	1563.48
392.55	1547.09
392.75	1542.41
392.94	1486.24
393.13	1526.03
393.33	1488.58
393.52	1568.16
393.71	1558.80
393.91	1631.35
394.10	1598.59
394.29	1699.23
394.49	1650.08
394.68	1643.06
394.88	1619.65
395.07	1645.40
395.26	1743.70
395.46	1636.03
395.65	1650.08
395.84	1860.73
396.04	1781.15
396.23	1753.06
396.42	1722.63
396.62	1710.93
396.81	1792.85
397.00	1781.15
397.19	1781.15
397.39	1750.72
397.58	1809.23
397.77	1872.43
397.97	1870.09
398.16	1823.28
398.35	1792.85
398.55	1858.39
398.74	1856.04
398.93	1933.28
399.12	1991.80
399.32	1811.57
399.51	1865.41
399.70	1930.94
399.90	1968.39
400.09	1959.03
400.28	2015.20
400.47	1886.47
400.67	1956.69
400.86	1982.43
401.05	2087.76
401.24	2165.00
401.44	2148.61
401.63	2160.31
401.82	2167.34
402.01	2064.35
402.21	2181.38
402.40	2150.95
402.59	2221.17
402.78	2064.35
402.97	2207.13
403.17	2253.94
403.36	2237.55
403.55	2312.45
403.74	2408.41
403.93	2296.07
404.13	2314.79
404.32	2413.09
404.51	2352.24
404.70	2464.58
404.89	2338.20
405.09	2417.77
405.28	2382.67
405.47	2523.10
405.66	2385.01
405.85	2471.61
406.05	2574.59
406.24	2530.12
406.43	2464.58
406.62	2513.74
406.81	2647.15
407.00	2595.65
407.20	2597.99
407.39	2654.17
407.58	2546.50
407.77	2726.72
407.96	2745.45
408.15	2663.53
408.34	2729.06
408.54	2820.35
408.73	2818.00
408.92	2953.76
409.11	2897.58
409.30	2846.09
409.49	2897.58
409.68	2869.50
409.87	2895.24
410.07	2988.86
410.26	2939.71
410.45	2995.89
410.64	3049.72
410.83	3124.62
411.02	2963.12
411.21	3119.93
411.40	3007.59
411.59	3197.17
411.78	3110.57
411.98	3208.87
412.17	3330.58
412.36	3225.26
412.55	3281.43
412.74	3361.01
412.93	3358.67
413.12	3283.77
413.31	3583.36
413.50	3510.80
413.69	3613.79
413.88	3651.24
414.07	3566.98
414.26	3655.92
414.45	3646.55
414.64	3606.77
414.83	3756.56
415.02	3585.70
415.22	3777.62
415.41	3791.67
415.60	3763.58
415.79	3756.56
415.98	3978.91
416.17	3999.98
416.36	3948.48
416.55	4011.68
416.74	3936.78
416.93	4037.42
417.12	4086.58
417.31	4187.22
417.50	4107.64
417.69	4044.45
417.88	4227.01
418.07	4095.94
418.26	4166.15
418.45	4257.43
418.64	4400.21
418.83	4369.78
419.02	4458.72
419.21	4620.22
419.39	4535.96
419.58	4526.60
419.77	4430.63
419.96	4610.86
420.15	4645.96
420.34	4477.44
420.53	4468.08
420.72	4741.93
420.91	4660.01
421.10	4767.67
421.29	4833.21
421.48	4798.10
421.67	4521.92
421.86	4823.84
422.05	4765.33
422.24	4802.78
422.43	4760.65
422.61	4968.96
422.80	4903.42
422.99	4985.34
423.18	4896.40
423.37	4985.34
423.56	4847.25
423.75	5011.09
423.94	4924.49
424.13	4489.15
424.32	4676.39
424.50	4898.74
424.69	5048.54
424.88	5006.41
425.07	4800.44
425.26	4868.31
425.45	4931.51
425.64	5041.51
425.83	4830.87
426.01	5093.01
426.20	4910.44
426.39	5029.81
426.58	5048.54
426.77	5062.58
426.96	5139.82
427.15	5069.60
427.33	5200.67
427.52	5163.22
427.71	5111.73
427.90	5284.93
428.09	5170.24
428.28	5334.08
428.46	5432.38
428.65	5310.68
428.84	5479.19
429.03	5376.21
429.22	5341.10
429.40	5469.83
429.59	5397.28
429.78	5270.89
429.97	5287.27
430.16	5518.98
430.34	5591.54
430.53	5636.01
430.72	5706.23
430.91	5598.56
431.10	5565.79
431.28	5755.38
431.47	5764.74
431.66	5806.87
431.85	5717.93
432.03	5748.36
432.22	5856.02
432.41	5898.15
432.60	5956.66
432.79	5940.28
432.97	5977.73
433.16	5891.13
433.35	5919.21
433.54	6094.76
433.72	6136.88
433.91	6136.88
434.10	6066.67
434.28	5984.75
434.47	5989.43
434.66	6118.16
434.85	6277.32
435.03	6181.35
435.22	6480.94
435.41	6239.87
435.59	6541.80
435.78	6511.37
435.97	6609.67
436.16	6403.71
436.34	6394.34
436.53	6487.96
436.72	6698.61
436.90	6448.18
437.09	6607.33
437.28	6518.39
437.46	6438.81
437.65	6602.65
437.84	6633.08
438.02	6813.30
438.21	6867.13
438.40	6586.27
438.58	6810.96
438.77	7023.95
438.96	7014.59
439.14	7206.51
439.33	7173.74
439.52	7272.04
439.70	7169.06
439.89	7143.32
440.08	7307.15
440.26	7253.32
440.45	7222.89
440.63	7398.43
440.82	7609.08
441.01	7463.97
441.19	7499.08
441.38	7630.15
441.57	7576.31
441.75	7742.49
441.94	7896.97
442.12	8039.74
442.31	8009.31
442.50	7974.21
442.68	7950.80
442.87	7901.65
443.05	7999.95
443.24	8400.18
443.43	8149.75
443.61	8271.45
443.80	8470.40
443.98	8077.19
444.17	7698.02
444.35	8079.53
444.54	8180.17
444.73	8245.71
444.91	8234.00
445.10	8355.71
445.28	8152.09
445.47	8198.90
445.65	8379.12
445.84	8451.67
446.02	8355.71
446.21	8397.84
446.39	8411.89
446.58	8505.51
446.77	8423.59
446.95	8135.70
447.14	8376.78
447.32	8655.30
447.51	8634.24
447.69	8383.80
447.88	8461.04
448.06	8416.57
448.25	8533.59
448.43	8531.25
448.62	8463.38
448.80	8589.77
448.99	8489.12
449.17	8863.61
449.36	8748.92
449.54	8779.35
449.73	8772.33
449.91	8912.76
450.10	8968.93
450.28	8966.59
450.46	8985.32
450.65	9048.51
450.83	9048.51
451.02	9039.15
451.20	8936.17
451.39	9048.51
451.57	9238.09
451.76	8922.12
451.94	9137.45
452.13	9242.78
452.31	9376.19
452.49	9165.54
452.68	9310.65
452.86	9268.52
453.05	9315.33
453.23	9434.70
453.42	9458.10
453.60	9324.69
453.78	9591.52
453.97	9252.14
454.15	9659.39
454.34	9376.19
454.52	9509.60
454.70	9626.62
454.89	9715.56
455.07	9811.53
455.26	9778.76
455.44	10024.51
455.62	9954.30
455.81	9626.62
455.99	9980.04
456.17	9980.04
456.36	9893.44
456.54	9961.32
456.73	10188.35
456.91	10377.94
457.09	10232.82
457.28	10478.58
457.46	10377.94
457.64	10518.37
457.83	10331.12
458.01	10263.25
458.19	10773.49
458.38	10597.95
458.56	10572.20
458.74	10738.38
458.93	10642.42
459.11	10806.25
459.29	10527.73
459.48	10663.48
459.66	10490.28
459.84	10738.38
460.03	11126.91
460.21	10930.30
460.39	10707.95
460.57	11056.69
460.76	11227.55
460.94	10972.43
461.12	11152.65
461.31	11234.57
461.49	10939.66
461.67	10995.84
461.85	11517.78
462.04	11206.48
462.22	11658.21
462.40	11716.72
462.59	11365.64
462.77	11358.62
462.95	11520.12
463.13	11721.40
463.32	11705.02
463.50	11744.81
463.68	11566.93
463.86	11941.41
464.05	11414.79
464.23	11705.02
464.41	11625.44
464.59	11751.83
464.78	12126.32
464.96	12002.27
465.14	11808.00
465.32	11978.86
465.50	11946.09
465.69	11983.54
465.87	11967.16
466.05	12133.34
466.23	11901.62
466.41	12044.40
466.60	12425.90
466.78	12161.42
466.96	12152.06
467.14	12498.46
467.32	12386.12
467.51	12379.09
467.69	12152.06
467.87	12400.16
468.05	12477.40
468.23	12484.42
468.41	12549.95
468.60	12470.37
468.78	12786.35
468.96	12674.00
469.14	12596.76
469.32	12758.26
469.50	12538.25
469.69	13057.85
469.87	13102.32
470.05	12975.93
470.23	13174.88
470.41	13078.91
470.59	13041.46
470.77	13247.43
470.95	12954.87
471.14	13680.43
471.32	12863.58
471.50	13493.19
471.68	13685.11
471.86	13425.31
472.04	13785.76
472.22	14052.58
472.40	13525.96
472.58	13755.33
472.77	14125.13
472.95	14310.04
473.13	14424.72
473.31	14040.87
473.49	14094.71
473.67	13987.04
473.85	14258.54
474.03	14408.34
474.21	14478.55
474.39	14642.39
474.57	14464.51
474.75	14670.48
474.93	14892.83
475.12	15051.99
475.30	15023.90
475.48	14885.81
475.66	15040.28
475.84	14988.79
476.02	15342.21
476.20	15122.20
476.38	15548.18
476.56	16095.86
476.74	15704.99
476.92	15536.48
477.10	15786.91
477.28	15953.09
477.46	15990.54
477.64	16248.00
477.82	16446.94
478.00	16798.02
478.18	16760.58
478.36	16901.01
478.54	17071.87
478.72	17092.93
478.90	17326.99
479.08	17483.80
479.26	17584.44
479.44	17647.64
479.62	17759.98
479.80	18134.47
479.98	18092.34
480.16	18525.34
480.34	18181.28
480.52	18403.63
480.70	18616.62
480.88	18097.02
481.06	18764.07
481.24	18806.20
481.41	19211.12
481.59	19192.39
481.77	19433.47
481.95	19604.33
482.13	19779.87
482.31	19878.17
482.49	20212.87
482.67	20285.42
482.85	20311.17
483.03	20514.80
483.21	20748.85
483.39	20833.11
483.57	20769.91
483.74	21188.87
483.92	21308.24
484.10	21249.72
484.28	21434.63
484.46	21752.94
484.64	22291.26
484.82	21855.92
485.00	22164.87
485.18	22572.13
485.35	22766.39
485.53	22558.08
485.71	23040.23
485.89	23290.67
486.07	23126.83
486.25	22958.31
486.43	23613.66
486.61	23887.51
486.78	24107.52
486.96	24222.20
487.14	24617.75
487.32	24636.48
487.50	25106.93
487.68	24915.00
487.85	25282.47
488.03	25652.27
488.21	25614.82
488.39	25523.54
488.57	26218.68
488.75	26146.12
488.92	26094.63
489.10	26422.31
489.28	26796.79
489.46	27091.70
489.64	27016.80
489.81	27681.52
489.99	27552.79
490.17	27826.63
490.35	27875.78
490.53	27693.22
490.70	28294.74
490.88	28329.84
491.06	28795.61
491.24	28765.18
491.41	29125.63
491.59	28884.55
491.77	28898.59
491.95	29537.56
492.13	29687.36
492.30	29949.50
492.48	30017.37
492.66	30141.42
492.84	30050.14
493.01	30724.21
493.19	30452.71
493.37	31037.84
493.54	31304.67
493.72	31548.08
493.90	31206.36
494.08	31826.60
494.25	31868.73
494.43	31974.06
494.61	32018.53
494.79	32561.53
494.96	32409.40
495.14	32299.39
495.32	33460.30
495.49	32830.69
495.67	33191.14
495.85	33404.13
496.02	33357.32
496.20	33528.17
496.38	34113.31
496.55	34045.43
496.73	34274.80
496.91	34312.25
497.09	34864.62
497.26	34881.00
497.44	34925.47
497.62	35016.75
497.79	35700.19
497.97	35269.53
498.14	35644.02
498.32	36259.58
498.50	36294.69
498.67	36755.77
498.85	36601.30
499.03	36680.88
499.20	36708.96
499.38	36685.56
499.56	37102.17
499.73	36566.19
499.91	36861.10
500.08	37530.49
500.26	37111.53
500.44	37441.55
500.61	37745.82
500.79	37778.59
500.97	37780.93
501.14	38270.10
501.32	38136.69
501.49	38211.59
501.67	38298.19
501.84	38651.61
502.02	38658.63
502.20	39030.77
502.37	38974.60
502.55	38988.64
502.72	39442.71
502.90	39405.26
503.07	39842.94
503.25	39250.78
503.43	39634.63
503.60	39838.26
503.78	40238.49
503.95	39826.56
504.13	40540.42
504.30	40271.26
504.48	40554.46
504.65	40409.35
504.83	40748.73
505.01	41226.20
505.18	40935.97
505.36	41317.48
505.53	41078.74
505.71	41366.63
505.88	41691.96
506.06	41462.59
506.23	41846.44
506.41	41998.57
506.58	41696.64
506.76	42089.85
506.93	42618.81
507.11	42288.80
507.28	42195.18
507.46	42288.80
507.63	42866.91
507.81	42607.11
507.98	42616.47
508.16	43138.41
508.33	43430.98
508.50	43377.15
508.68	43594.82
508.85	43875.68
509.03	43679.08
509.20	44020.80
509.38	44189.31
509.55	44027.82
509.73	44336.77
509.90	44493.58
510.08	44250.17
510.25	44626.99
510.42	44306.34
510.60	44919.56
510.77	45214.47
510.95	45081.06
511.12	45160.64
511.30	44928.92
511.47	45432.14
511.64	45193.40
511.82	45666.19
511.99	45291.71
512.17	45640.45
512.34	45567.89
512.51	46169.41
512.69	46244.30
512.86	46396.44
513.04	46693.69
513.21	46309.84
513.38	46244.30
513.56	46707.73
513.73	46686.67
513.90	46829.44
514.08	46836.46
514.25	47047.11
514.43	47498.83
514.60	47430.96
514.77	47143.07
514.95	47449.68
515.12	47232.01
515.29	47585.43
515.47	47365.42
515.64	47863.96
515.81	47707.14
515.99	48062.90
516.16	48381.21
516.33	48334.40
516.51	48474.84
516.68	48435.05
516.85	48336.74
517.03	48776.76
517.20	48760.38
517.37	48200.99
517.54	48648.03
517.72	49013.16
517.89	49029.54
518.06	49088.06
518.24	48985.07
518.41	49083.37
518.58	49429.77
518.75	49198.06
518.93	49806.60
519.10	49324.45
519.27	49530.42
519.45	49528.08
519.62	49649.78
519.79	49764.47
519.96	50164.70
520.14	49755.11
520.31	50094.49
520.48	50232.58
520.65	50120.23
520.83	50553.23
521.00	50576.64
521.17	50590.68
521.34	50398.76
521.52	50644.51
521.69	51086.87
521.86	51002.61
522.03	50745.15
522.20	51466.04
522.38	51028.36
522.55	51192.20
522.72	50976.87
522.89	51182.84
523.07	51393.48
523.24	51285.82
523.41	51608.81
523.58	51473.06
523.75	51545.62
523.92	51805.42
524.10	51620.52
524.27	51690.73
524.44	51824.14
524.61	51941.17
524.78	52378.85
524.96	51875.63
525.13	52114.37
525.30	52048.83
525.47	52076.92
525.64	52247.78
525.81	52420.98
525.98	52231.40
526.16	52603.54
526.33	52392.89
526.50	53125.48
526.67	52746.31
526.84	52858.66
527.01	52949.94
527.18	52708.86
527.36	53151.23
527.53	52961.64
527.70	53432.09
527.87	53289.32
528.04	53057.60
528.21	53319.74
528.38	53446.13
528.55	53476.56
528.72	53310.38
528.89	53272.93
529.07	53137.18
529.24	53394.64
529.41	53616.99
529.58	53382.94
529.75	53614.65
529.92	53647.42
530.09	53675.51
530.26	54017.22
530.43	53874.45
530.60	53813.60
530.77	53640.40
530.94	54244.26
531.11	53703.59
531.28	54148.29
531.46	54000.84
531.63	53975.09
531.80	54092.12
531.97	54227.87
532.14	54293.41
532.31	54216.17
532.48	54471.29
532.65	54431.50
532.82	54497.03
532.99	54721.72
533.16	54625.76
533.33	54485.33
533.50	54735.77
533.67	54539.16
533.84	54541.50
534.01	54798.96
534.18	54625.76
534.35	55054.08
534.52	54827.05
534.69	55140.68
534.86	55325.58
535.03	54951.10
535.20	54979.18
535.37	55334.95
535.54	55084.51
535.71	55199.19
535.88	55269.41
536.05	55304.52
536.22	55393.46
536.38	55601.77
536.55	55419.20
536.72	55688.37
536.89	55348.99
537.06	55496.44
537.23	55749.22
537.40	55559.64
537.57	55557.30
537.74	55503.46
537.91	55920.08
538.08	55756.24
538.25	55428.57
538.42	55920.08
538.59	56184.56
538.75	55763.26
538.92	55945.83
539.09	56306.27
539.26	56051.15
539.43	56046.47
539.60	56172.86
539.77	56032.42
539.94	56140.09
540.11	56247.75
540.28	56287.54
540.44	56573.09
540.61	56467.76
540.78	56418.61
540.95	56310.95
541.12	56214.99
541.29	56278.18
541.46	56341.38
541.62	56477.13
541.79	56640.96
541.96	56425.64
542.13	56381.16
542.30	56699.48
542.47	56727.56
542.63	56711.18
542.80	56603.52
542.97	57099.71
543.14	57022.47
543.31	56933.53
543.48	57165.24
543.64	57476.54
543.81	57209.71
543.98	57312.70
544.15	57176.95
544.32	57205.03
544.48	57469.51
544.65	57198.01
544.82	57382.91
544.99	57389.94
545.16	57340.78
545.32	57289.29
545.49	57460.15
545.66	57602.92
545.83	57560.79
546.00	57663.78
546.16	57406.32
546.33	57544.41
546.50	57261.21
546.67	57616.97
546.83	57324.40
547.00	57577.18
547.17	57375.89
547.34	57743.36
547.50	57911.88
547.67	58007.84
547.84	57944.64
548.00	57825.28
548.17	58136.57
548.34	57757.40
548.51	58262.96
548.67	58061.67
548.84	57853.36
549.01	57893.15
549.18	58155.29
549.34	58096.78
549.51	58087.42
549.68	58284.02
549.84	58223.17
550.01	58574.25
550.18	58356.58
550.34	58412.75
550.51	58220.83
550.68	58340.19
550.84	58162.31
551.01	58335.51
551.18	58340.19
551.34	58379.98
551.51	58464.24
551.68	58569.57
551.84	58443.18
552.01	58405.73
552.18	58728.72
552.34	58457.22
552.51	58630.42
552.68	58286.36
552.84	58578.93
553.01	58862.13
553.18	58536.80
553.34	58808.30
553.51	58707.66
553.67	58780.21
553.84	58698.30
554.01	59021.29
554.17	58934.69
554.34	58962.78
554.51	59051.72
554.67	59103.21
554.84	58651.48
555.00	58798.94
555.17	58951.07
555.33	58822.34
555.50	58649.14
555.67	58972.14
555.83	58827.02
556.00	59145.34
556.16	59063.42
556.33	59248.32
556.50	58939.37
556.66	59194.49
556.83	59091.51
556.99	59138.32
557.16	59470.67
557.32	59348.96
557.49	59386.41
557.65	59063.42
557.82	59245.98
557.98	59592.38
558.15	59400.46
558.32	59543.23
558.48	59253.00
558.65	59395.77
558.81	59608.76
558.98	59405.14
559.14	59456.63
559.31	59351.30
559.47	59604.08
559.64	59580.68
559.80	59650.89
559.97	59669.62
560.13	59531.53
560.30	59728.13
560.46	59714.09
560.63	59620.47
560.79	59622.81
560.96	59826.43
561.12	59826.43
561.29	59831.11
561.45	59929.42
561.61	59583.02
561.78	59641.53
561.94	59557.27
562.11	59704.73
562.27	59847.50
562.44	59906.01
562.60	59971.55
562.77	59992.61
562.93	59861.54
563.10	59969.21
563.26	59711.75
563.42	60289.86
563.59	59971.55
563.75	59898.99
563.92	59941.12
564.08	59756.22
564.24	60170.49
564.41	60095.60
564.57	60114.32
564.74	59896.65
564.90	60123.68
565.07	60053.47
565.23	60214.96
565.39	60032.40
565.56	60046.44
565.72	59971.55
565.88	60163.47
566.05	60001.97
566.21	60154.11
566.38	60161.13
566.54	60046.44
566.70	60179.85
566.87	60219.64
567.03	60186.88
567.19	60336.67
567.36	60266.45
567.52	60193.90
567.68	60285.18
567.85	60186.88
568.01	60425.61
568.17	60292.20
568.34	60245.39
568.50	60266.45
568.66	60339.01
568.83	60205.60
568.99	60233.69
569.15	60313.26
569.32	60233.69
569.48	60156.45
569.64	60264.11
569.81	60299.22
569.97	60313.26
570.13	60331.99
570.30	60191.56
570.46	60470.08
570.62	60165.81
570.78	60299.22
570.95	60348.37
571.11	60514.55
571.27	60252.41
571.43	60315.61
571.60	60591.79
571.76	60378.80
571.92	60374.12
572.09	60547.32
572.25	60692.43
572.41	60537.96
572.57	60402.21
572.74	60664.35
572.90	60446.68
573.06	60594.13
573.22	60619.88
573.38	60573.06
573.55	60484.12
573.71	60764.99
573.87	60519.23
574.03	60390.50
574.20	60669.03
574.36	60652.64
574.52	60339.01
574.68	60444.33
574.84	60701.79
575.01	60486.46
575.17	60664.35
575.33	60509.87
575.49	60636.26
575.65	60647.96
575.82	60795.42
575.98	60633.92
576.14	60825.84
576.30	60713.50
576.46	60601.15
576.62	60701.79
576.79	60837.54
576.95	60601.15
577.11	60793.07
577.27	60715.84
577.43	60832.86
577.59	60790.73
577.75	60692.43
577.92	60708.82
578.08	60692.43
578.24	60776.69
578.40	61029.47
578.56	60823.50
578.72	60647.96
578.88	60919.46
579.04	60863.29
579.21	60701.79
579.37	60893.72
579.53	60926.49
579.69	60591.79
579.85	60451.36
580.01	60640.94
580.17	60823.50
580.33	60846.91
580.49	60886.70
580.65	60786.05
580.82	60931.17
580.98	60669.03
581.14	60774.35
581.30	60919.46
581.46	60767.33
581.62	60896.06
581.78	60720.52
581.94	60891.38
582.10	60673.71
582.26	60818.82
582.42	60874.99
582.58	60949.89
582.74	60683.07
582.90	60587.11
583.06	60928.83
583.22	60687.75
583.38	60905.42
583.54	61006.06
583.70	60952.23
583.86	60963.93
584.02	60701.79
584.18	61244.80
584.34	60886.70
584.50	60802.44
584.66	60898.40
584.82	60729.88
584.98	60952.23
585.14	60924.14
585.30	60889.04
585.46	61041.17
585.62	61024.79
585.78	61031.81
585.94	60769.67
586.10	60949.89
586.26	60942.87
586.42	60821.16
586.58	61003.72
586.74	60919.46
586.90	60956.91
587.06	60882.02
587.22	61130.11
587.38	60935.85
587.54	61148.84
587.70	61029.47
587.86	61001.38
588.02	60893.72
588.18	61034.15
588.34	61076.28
588.49	60914.78
