SpectraSuite Data File
++++++++++++++++++++++++++++++++++++
Date: Fri Oct 25 11:22:51 EDT 2013
User: price-jones
Dark Spectrum Present: No
Reference Spectrum Present: No
Number of Sampled Component Spectra: 1
Spectrometers: USB2+H05261
Integration Time (usec): 100000 (USB2+H05261)
Spectra Averaged: 1 (USB2+H05261)
Boxcar Smoothing: 0 (USB2+H05261)
Correct for Electrical Dark: No (USB2+H05261)
Strobe/Lamp Enabled: No (USB2+H05261)
Correct for Detector Non-linearity: No (USB2+H05261)
Correct for Stray Light: No (USB2+H05261)
Number of Pixels in Processed Spectrum: 2048
>>>>>Begin Processed Spectral Data<<<<<
365.73	290.23
365.92	290.23
366.12	290.23
366.32	133.41
366.52	79.58
366.72	124.05
366.91	159.16
367.11	119.37
367.31	154.48
367.51	173.20
367.70	177.88
367.90	161.50
368.10	53.83
368.30	88.94
368.49	126.39
368.69	121.71
368.89	163.84
369.09	119.37
369.28	205.97
369.48	161.50
369.68	236.39
369.87	215.33
370.07	255.12
370.27	266.82
370.47	348.74
370.66	500.87
370.86	617.90
371.06	699.82
371.25	636.63
371.45	685.78
371.65	739.61
371.84	657.69
372.04	662.37
372.24	589.82
372.44	737.27
372.63	723.23
372.83	763.01
373.03	650.67
373.22	730.25
373.42	779.40
373.62	683.44
373.81	751.31
374.01	826.21
374.21	840.25
374.40	772.38
374.60	826.21
374.79	791.10
374.99	814.51
375.19	898.77
375.38	807.48
375.58	812.17
375.78	830.89
375.97	723.23
376.17	908.13
376.37	873.02
376.56	812.17
376.76	880.04
376.95	903.45
377.15	882.38
377.35	919.83
377.54	915.15
377.74	961.96
377.93	947.92
378.13	866.00
378.33	983.02
378.52	936.21
378.72	898.77
378.91	901.11
379.11	943.24
379.31	938.55
379.50	999.41
379.70	1015.79
379.89	1018.13
380.09	983.02
380.28	985.37
380.48	931.53
380.68	919.83
380.87	987.71
381.07	1041.54
381.26	1011.11
381.46	938.55
381.65	1008.77
381.85	1071.97
382.04	1015.79
382.24	1083.67
382.43	1008.77
382.63	1062.60
382.83	1160.91
383.02	1167.93
383.22	1142.18
383.41	1095.37
383.61	1125.80
383.80	1167.93
384.00	1095.37
384.19	1144.52
384.39	1142.18
384.58	1177.29
384.78	1074.31
384.97	1144.52
385.17	1137.50
385.36	1132.82
385.56	1135.16
385.75	1139.84
385.95	1200.69
386.14	1130.48
386.34	1167.93
386.53	1160.91
386.72	1151.54
386.92	1350.49
387.11	1245.16
387.31	1313.04
387.50	1231.12
387.70	1210.06
387.89	1254.53
388.09	1217.08
388.28	1268.57
388.48	1301.34
388.67	1291.98
388.86	1329.42
389.06	1355.17
389.25	1306.02
389.45	1299.00
389.64	1242.82
389.84	1380.92
390.03	1390.28
390.22	1352.83
390.42	1481.56
390.61	1350.49
390.81	1394.96
391.00	1392.62
391.19	1357.51
391.39	1416.02
391.58	1563.48
391.78	1584.54
391.97	1465.18
392.16	1413.68
392.36	1460.49
392.55	1589.22
392.75	1556.46
392.94	1563.48
393.13	1514.33
393.33	1455.81
393.52	1535.39
393.71	1563.48
393.91	1500.28
394.10	1511.99
394.29	1631.35
394.49	1600.93
394.68	1638.38
394.88	1680.50
395.07	1607.95
395.26	1682.85
395.46	1586.88
395.65	1804.55
395.84	1785.83
396.04	1830.30
396.23	1769.44
396.42	1724.97
396.62	1788.17
396.81	1877.11
397.00	1788.17
397.19	1767.10
397.39	1928.60
397.58	1813.92
397.77	1839.66
397.97	1956.69
398.16	1806.89
398.35	1919.24
398.55	1825.62
398.74	1966.05
398.93	1975.41
399.12	1863.07
399.32	1895.83
399.51	2012.86
399.70	2101.80
399.90	1942.64
400.09	2005.84
400.28	2073.71
400.47	2097.12
400.67	2083.08
400.86	2087.76
401.05	2012.86
401.24	2017.54
401.44	2054.99
401.63	2228.19
401.82	2076.06
402.01	2012.86
402.21	2064.35
402.40	2195.42
402.59	2179.04
402.78	2218.83
402.97	2305.43
403.17	2148.61
403.36	2293.72
403.55	2183.72
403.74	2389.69
403.93	2300.75
404.13	2270.32
404.32	2361.60
404.51	2347.56
404.70	2478.63
404.89	2459.90
405.09	2406.07
405.28	2553.52
405.47	2553.52
405.66	2499.69
405.85	2506.71
406.05	2504.37
406.24	2574.59
406.43	2635.44
406.62	2593.31
406.81	2724.38
407.00	2574.59
407.20	2661.19
407.39	2597.99
407.58	2670.55
407.77	2785.24
407.96	2724.38
408.15	2810.98
408.34	2708.00
408.54	2782.90
408.73	2897.58
408.92	2951.42
409.11	2832.05
409.30	2930.35
409.49	2925.67
409.68	2998.23
409.87	2846.09
410.07	3054.40
410.26	2949.08
410.45	3098.87
410.64	3119.93
410.83	3101.21
411.02	3227.60
411.21	3227.60
411.40	3082.49
411.59	3143.34
411.78	3129.30
411.98	3375.05
412.17	3222.92
412.36	3328.24
412.55	3384.41
412.74	3391.44
412.93	3323.56
413.12	3412.50
413.31	3506.12
413.50	3480.38
413.69	3353.99
413.88	3695.71
414.07	3538.89
414.26	3564.64
414.45	3719.11
414.64	3735.50
414.83	3719.11
415.02	3735.50
415.22	3808.05
415.41	3833.80
415.60	3969.55
415.79	3822.09
415.98	3894.65
416.17	3995.29
416.36	3929.76
416.55	4131.05
416.74	4072.53
416.93	4086.58
417.12	4030.40
417.31	4105.30
417.50	4264.46
417.69	4468.08
417.88	4273.82
418.07	4334.67
418.26	4329.99
418.45	4341.69
418.64	4498.51
418.83	4498.51
419.02	4510.21
419.21	4451.70
419.39	4489.15
419.58	4423.61
419.77	4493.83
419.96	4676.39
420.15	4636.60
420.34	4716.18
420.53	4727.88
420.72	4741.93
420.91	4599.15
421.10	4741.93
421.29	4809.80
421.48	4662.35
421.67	4777.03
421.86	4772.35
422.05	4704.48
422.24	4898.74
422.43	4828.53
422.61	4865.97
422.80	4849.59
422.99	4975.98
423.18	4933.85
423.37	4870.65
423.56	4933.85
423.75	4947.89
423.94	4844.91
424.13	4683.41
424.32	4833.21
424.50	4943.21
424.69	5261.52
424.88	4919.81
425.07	5053.22
425.26	4957.25
425.45	4968.96
425.64	4973.64
425.83	4978.32
426.01	4950.23
426.20	5149.18
426.39	5036.83
426.58	5027.47
426.77	5081.30
426.96	5188.97
427.15	5195.99
427.33	5153.86
427.52	5343.44
427.71	5291.95
427.90	5259.18
428.09	5341.10
428.28	5434.72
428.46	5387.91
428.65	5399.62
428.84	5462.81
429.03	5701.54
429.22	5240.46
429.40	5245.14
429.59	5472.17
429.78	5413.66
429.97	5270.89
430.16	5547.07
430.34	5701.54
430.53	5654.73
430.72	5760.06
430.91	5504.94
431.10	5703.89
431.28	5832.62
431.47	5853.68
431.66	5886.45
431.85	5783.46
432.03	6019.86
432.22	6029.22
432.41	6078.37
432.60	5937.94
432.79	5818.57
432.97	6127.52
433.16	6118.16
433.35	6010.50
433.54	6139.23
433.72	6059.65
433.91	6122.84
434.10	6101.78
434.28	6167.31
434.47	6314.77
434.66	6115.82
434.85	6480.94
435.03	6459.88
435.22	6380.30
435.41	6511.37
435.59	6490.31
435.78	6361.58
435.97	6651.80
436.16	6394.34
436.34	6539.46
436.53	6394.34
436.72	6483.28
436.90	6490.31
437.09	6764.15
437.28	6597.97
437.46	6527.75
437.65	6715.00
437.84	6743.08
438.02	6787.55
438.21	6855.43
438.40	6518.39
438.58	7131.61
438.77	7166.72
438.96	7126.93
439.14	6951.39
439.33	7260.34
439.52	7396.09
439.70	7356.30
439.89	7351.62
440.08	7365.67
440.26	7475.67
440.45	7454.61
440.63	7379.71
440.82	7709.72
441.01	7513.12
441.19	7763.56
441.38	7817.39
441.57	7906.33
441.75	7822.07
441.94	8035.06
442.12	7971.86
442.31	8006.97
442.50	8196.56
442.68	8013.99
442.87	8152.09
443.05	8243.37
443.24	8280.82
443.43	8252.73
443.61	8173.15
443.80	8613.17
443.98	8259.75
444.17	8009.31
444.35	8491.46
444.54	8528.91
444.73	8444.65
444.91	8397.84
445.10	8435.29
445.28	8507.85
445.47	8336.99
445.65	8255.07
445.84	8475.08
446.02	8561.68
446.21	8390.82
446.39	8402.52
446.58	8559.34
446.77	8674.03
446.95	8299.54
447.14	8458.70
447.32	8472.74
447.51	8346.35
447.69	8650.62
447.88	8594.45
448.06	8477.42
448.25	8608.49
448.43	8779.35
448.62	8601.47
448.80	8442.31
448.99	8716.16
449.17	8674.03
449.36	8755.94
449.54	8786.37
449.73	8990.00
449.91	9174.90
450.10	9029.79
450.28	9092.98
450.46	9200.65
450.65	9142.13
450.83	8985.32
451.02	9205.33
451.20	9207.67
451.39	9181.92
451.57	9128.09
451.76	9097.66
451.94	9221.71
452.13	9500.23
452.31	9341.08
452.49	9261.50
452.68	9380.87
452.86	9441.72
453.05	9404.27
453.23	9731.95
453.42	9507.26
453.60	9458.10
453.78	9507.26
453.97	9282.56
454.15	9418.32
454.34	9666.41
454.52	9720.24
454.70	9696.84
454.89	9963.66
455.07	9764.72
455.26	10094.73
455.44	10092.39
455.62	9984.73
455.81	9741.31
455.99	10237.50
456.17	10022.17
456.36	10225.80
456.54	10246.87
456.73	10476.24
456.91	10431.77
457.09	10452.83
457.28	10714.97
457.46	10307.72
457.64	10546.45
457.83	10635.39
458.01	10356.87
458.19	10897.53
458.38	10696.25
458.56	10729.02
458.74	10661.14
458.93	10721.99
459.11	10738.38
459.29	10867.11
459.48	11108.18
459.66	10761.78
459.84	10944.34
460.03	11154.99
460.21	10963.07
460.39	11194.78
460.57	11023.92
460.76	11269.68
460.94	11267.34
461.12	11157.33
461.31	11265.00
461.49	11293.08
461.67	11140.95
461.85	11433.52
462.04	11433.52
462.22	11679.27
462.40	11449.90
462.59	11363.30
462.77	11592.67
462.95	11808.00
463.13	11861.84
463.32	11843.11
463.50	11875.88
463.68	11779.92
463.86	12011.63
464.05	11726.08
464.23	11929.71
464.41	11808.00
464.59	11784.60
464.78	12154.40
464.96	12079.50
465.14	12009.29
465.32	12308.88
465.50	12271.43
465.69	12248.02
465.87	12198.87
466.05	12226.96
466.23	12442.29
466.41	12212.92
466.60	12652.94
466.78	12224.62
466.96	11988.22
467.14	12465.69
467.32	12547.61
467.51	12699.75
467.69	12386.12
467.87	12453.99
468.05	12786.35
468.23	12360.37
468.41	12526.55
468.60	12585.06
468.78	13048.49
468.96	12650.60
469.14	12854.22
469.32	13186.58
469.50	12870.61
469.69	13235.73
469.87	13261.48
470.05	13174.88
470.23	13357.44
470.41	13104.66
470.59	13336.37
470.77	13355.10
470.95	13474.46
471.14	13696.82
471.32	12943.16
471.50	13673.41
471.68	13509.57
471.86	13659.37
472.04	13888.74
472.22	14073.64
472.40	13603.19
472.58	13617.24
472.77	14380.25
472.95	14202.37
473.13	14766.44
473.31	14209.39
473.49	14284.29
473.67	14176.62
473.85	14497.28
474.03	14693.88
474.21	14590.90
474.39	15049.64
474.57	15061.35
474.75	15042.62
474.93	15255.61
475.12	15117.52
475.30	15384.34
475.48	15140.93
475.66	15330.51
475.84	15171.35
476.02	15440.51
476.20	15466.26
476.38	15822.02
476.56	16163.74
476.74	16521.84
476.92	16142.67
477.10	16093.52
477.28	16285.45
477.46	16294.81
477.64	16510.14
477.82	16702.06
478.00	16903.35
478.18	16959.52
478.36	17015.69
478.54	17319.96
478.72	17219.32
478.90	17170.17
479.08	17862.97
479.26	18031.49
479.44	17823.18
479.62	18050.21
479.80	18181.28
479.98	18317.03
480.16	18609.60
480.34	18368.52
480.52	18824.93
480.70	18766.42
480.88	18218.73
481.06	18848.33
481.24	19147.92
481.41	18977.06
481.59	19386.66
481.77	19730.72
481.95	20217.55
482.13	19807.95
482.31	19962.43
482.49	20332.23
482.67	20482.03
482.85	20627.14
483.03	20776.94
483.21	20727.78
483.39	20891.62
483.57	20868.22
483.74	21198.23
483.92	21804.43
484.10	21413.56
484.28	21933.16
484.46	22059.55
484.64	22515.95
484.82	22338.07
485.00	22644.68
485.18	22822.56
485.35	23150.24
485.53	22963.00
485.71	23311.74
485.89	23545.79
486.07	23552.81
486.25	23571.54
486.43	23648.77
486.61	24294.76
486.78	24259.65
486.96	24184.76
487.14	24592.01
487.32	24690.31
487.50	24973.52
487.68	25034.37
487.85	25291.83
488.03	25715.47
488.21	26118.04
488.39	26057.18
488.57	26288.90
488.75	26539.33
488.92	26520.61
489.10	27009.78
489.28	26740.62
489.46	27456.82
489.64	27367.88
489.81	27751.73
489.99	28084.09
490.17	27924.93
490.35	28538.15
490.53	28334.53
490.70	28854.12
490.88	28383.68
491.06	29160.73
491.24	29050.73
491.41	29174.78
491.59	29205.20
491.77	29434.58
491.95	29699.06
492.13	29507.13
492.30	30176.53
492.48	30403.56
492.66	30164.82
492.84	30471.43
493.01	30654.00
493.19	30520.59
493.37	31187.64
493.54	31379.56
493.72	31777.45
493.90	31793.84
494.08	31751.71
494.25	32442.17
494.43	32350.88
494.61	32629.41
494.79	32671.54
494.96	32718.35
495.14	32910.27
495.32	33418.17
495.49	33249.65
495.67	33083.47
495.85	33940.11
496.02	33876.91
496.20	34349.70
496.38	34064.16
496.55	34532.26
496.73	35321.02
496.91	35000.37
497.09	35236.77
497.26	35220.38
497.44	34930.16
497.62	35442.73
497.79	36135.53
497.97	35688.49
498.14	36128.51
498.32	36161.28
498.50	35976.37
498.67	36449.16
498.85	36879.82
499.03	36800.24
499.20	37291.76
499.38	37144.30
499.56	37406.44
499.73	37303.46
499.91	37497.72
500.08	37696.67
500.26	37792.63
500.44	37809.01
500.61	38185.84
500.79	38204.56
500.97	38335.63
501.14	38775.66
501.32	38888.00
501.49	38890.34
501.67	38869.28
501.84	39470.79
502.02	39145.46
502.20	39330.36
502.37	39288.23
502.55	39608.89
502.72	39807.83
502.90	39856.98
503.07	39936.56
503.25	39864.00
503.43	40114.44
503.60	40179.98
503.78	40573.19
503.95	40589.57
504.13	40947.67
504.30	41017.89
504.48	41111.51
504.65	40847.03
504.83	41120.87
505.01	41411.10
505.18	41661.54
505.36	41764.52
505.53	41717.71
505.71	41874.52
505.88	42171.77
506.06	41865.16
506.23	42000.91
506.41	42270.08
506.58	42581.37
506.76	42801.38
506.93	42845.85
507.11	42501.79
507.28	42920.74
507.46	43136.07
507.63	43452.05
507.81	43297.57
507.98	43540.99
508.16	43751.63
508.33	43517.58
508.50	43400.55
508.68	43859.30
508.85	44339.11
509.03	44165.91
509.20	44278.25
509.38	44341.45
509.55	44706.57
509.73	44737.00
509.90	44790.83
510.08	44954.67
510.25	45013.18
510.42	44903.18
510.60	45436.82
510.77	45251.92
510.95	45511.72
511.12	45439.16
511.30	45408.73
511.47	45801.94
511.64	45890.88
511.82	46185.79
511.99	45867.48
512.17	46595.38
512.34	46082.81
512.51	46710.07
512.69	46885.61
512.86	46541.55
513.04	46855.18
513.21	46979.23
513.38	47140.73
513.56	47182.86
513.73	47042.43
513.90	47086.90
514.08	47398.19
514.25	47372.44
514.43	48095.67
514.60	47842.89
514.77	47515.22
514.95	47908.43
515.12	47978.64
515.29	47952.90
515.47	47985.66
515.64	48285.25
515.81	48313.34
515.99	48444.41
516.16	48577.82
516.33	48921.88
516.51	49287.00
516.68	48636.33
516.85	48769.74
517.03	48994.43
517.20	49205.08
517.37	49041.24
517.54	49261.26
517.72	49392.33
517.89	49317.43
518.06	49640.42
518.24	49682.55
518.41	49439.14
518.58	49745.75
518.75	49680.21
518.93	50134.28
519.10	49439.14
519.27	49879.16
519.45	50124.91
519.62	50155.34
519.79	49993.84
519.96	50160.02
520.14	50588.34
520.31	50494.72
520.48	50595.36
520.65	50639.83
520.83	50803.67
521.00	51239.01
521.17	50621.11
521.34	50890.27
521.52	50864.52
521.69	51178.15
521.86	51498.81
522.03	51283.48
522.20	51753.93
522.38	51791.37
522.55	51454.34
522.72	51337.31
522.89	51601.79
523.07	51819.46
523.24	51646.26
523.41	51716.48
523.58	51751.59
523.75	52257.14
523.92	51906.06
524.10	52041.81
524.27	52250.12
524.44	51870.95
524.61	52624.60
524.78	52271.18
524.96	52514.60
525.13	52362.46
525.30	52479.49
525.47	52753.33
525.64	52561.41
525.81	52746.31
525.98	52971.00
526.16	52498.22
526.33	52893.77
526.50	53235.48
526.67	52989.73
526.84	53331.45
527.01	53263.57
527.18	53045.90
527.36	53464.86
527.53	53310.38
527.70	53303.36
527.87	53525.71
528.04	53240.17
528.21	53441.45
528.38	53815.94
528.55	53895.52
528.72	53525.71
528.89	53584.22
529.07	53593.59
529.24	53734.02
529.41	54167.02
529.58	53888.49
529.75	53628.69
529.92	53947.01
530.09	53853.39
530.26	54078.08
530.43	54162.34
530.60	54141.27
530.77	53961.05
530.94	54003.18
531.11	54038.29
531.28	54314.47
531.46	54480.65
531.63	54468.95
531.80	54438.52
531.97	54705.34
532.14	54653.85
532.31	54513.42
532.48	54686.62
532.65	54543.84
532.82	54742.79
532.99	54939.39
533.16	54878.54
533.33	54883.22
533.50	55416.86
533.67	54927.69
533.84	54965.14
534.01	55075.15
534.18	54976.84
534.35	55440.27
534.52	55421.55
534.69	55377.08
534.86	55388.78
535.03	55234.30
535.20	55229.62
535.37	55409.84
535.54	55615.81
535.71	55505.80
535.88	55753.90
536.05	55679.00
536.22	55868.59
536.38	55833.48
536.55	55725.81
536.72	55987.95
536.89	55700.07
537.06	55805.39
537.23	55938.80
537.40	55910.72
537.57	55896.67
537.74	56002.00
537.91	56116.68
538.08	56161.15
538.25	55966.89
538.42	55945.83
538.59	56186.90
538.75	56076.90
538.92	56135.41
539.09	56362.44
539.26	56411.59
539.43	56427.98
539.60	56301.59
539.77	56168.18
539.94	56362.44
540.11	56392.87
540.28	56699.48
540.44	56563.73
540.61	56662.03
540.78	56624.58
540.95	56514.58
541.12	56568.41
541.29	56774.37
541.46	56633.94
541.62	56935.87
541.79	56978.00
541.96	56559.05
542.13	56753.31
542.30	56963.96
542.47	56935.87
542.63	56912.47
542.80	57392.28
542.97	57242.48
543.14	57162.90
543.31	57352.49
543.48	57258.87
543.64	57640.37
543.81	57422.70
543.98	57450.79
544.15	57570.16
544.32	57745.70
544.48	57769.10
544.65	57584.20
544.82	57619.31
544.99	57326.74
545.16	57586.54
545.32	57670.80
545.49	57865.06
545.66	57710.59
545.83	57752.72
546.00	57907.19
546.16	57757.40
546.33	57827.62
546.50	57738.68
546.67	57858.04
546.83	57780.81
547.00	57907.19
547.17	57942.30
547.34	57867.40
547.50	58047.63
547.67	58181.04
547.84	57998.48
548.00	58190.40
548.17	58281.68
548.34	58244.23
548.51	58384.66
548.67	58258.27
548.84	58480.63
549.01	58326.15
549.18	58269.98
549.34	58293.38
549.51	58504.03
549.68	58492.33
549.84	58504.03
550.01	58541.48
550.18	58279.34
550.34	58738.08
550.51	58609.35
550.68	58555.52
550.84	58365.94
551.01	58915.96
551.18	58752.13
551.34	58597.65
551.51	58791.92
551.68	58801.28
551.84	58574.25
552.01	58698.30
552.18	58878.52
552.34	58749.79
552.51	58841.07
552.68	58829.37
552.84	58710.00
553.01	59154.70
553.18	58845.75
553.34	59000.22
553.51	58904.26
553.67	59117.25
553.84	58892.56
554.01	59124.27
554.17	59135.98
554.34	59110.23
554.51	59147.68
554.67	59281.09
554.84	59171.08
555.00	59084.48
555.17	59084.48
555.33	59213.21
555.50	59084.48
555.67	59175.76
555.83	59222.58
556.00	59281.09
556.16	59529.19
556.33	59346.62
556.50	59498.76
556.66	59632.17
556.83	59274.07
556.99	59618.13
557.16	59697.70
557.32	59620.47
557.49	59636.85
557.65	59515.14
557.82	59407.48
557.98	59477.69
558.15	59456.63
558.32	59683.66
558.48	59377.05
558.65	59456.63
558.81	59753.88
558.98	59702.38
559.14	59866.22
559.31	59704.73
559.47	60016.02
559.64	60097.94
559.80	59945.80
559.97	60058.15
560.13	59707.07
560.30	59831.11
560.46	59721.11
560.63	60151.77
560.79	59934.10
560.96	60046.44
561.12	60191.56
561.29	60079.21
561.45	59969.21
561.61	60006.65
561.78	59889.63
561.94	60032.40
562.11	60083.89
562.27	60055.81
562.44	60116.66
562.60	60177.51
562.77	60280.50
562.93	59760.90
563.10	60264.11
563.26	60107.30
563.42	60179.85
563.59	60128.36
563.75	60324.97
563.92	60245.39
564.08	60224.32
564.24	60378.80
564.41	60434.97
564.57	60355.39
564.74	60315.61
564.90	60350.71
565.07	60151.77
565.23	60079.21
565.39	60170.49
565.56	60537.96
565.72	60233.69
565.88	60432.63
566.05	60416.25
566.21	60406.89
566.38	60472.42
566.54	60512.21
566.70	60470.08
566.87	60594.13
567.03	60360.08
567.19	60552.00
567.36	60624.56
567.52	60404.55
567.68	60626.90
567.85	60306.24
568.01	60516.89
568.17	60411.57
568.34	60519.23
568.50	60378.80
568.66	60570.72
568.83	60762.65
568.99	60495.83
569.15	60411.57
569.32	60456.04
569.48	60514.55
569.64	60844.57
569.81	60622.22
569.97	60591.79
570.13	60708.82
570.30	60474.76
570.46	60786.05
570.62	60638.60
570.78	60767.33
570.95	60596.47
571.11	60734.56
571.27	60669.03
571.43	60687.75
571.60	60741.58
571.76	60790.73
571.92	60832.86
572.09	60725.20
572.25	60863.29
572.41	60580.09
572.57	60718.18
572.74	60779.03
572.90	60781.37
573.06	60746.26
573.22	60713.50
573.38	60608.17
573.55	60963.93
573.71	60996.70
573.87	60753.29
574.03	60722.86
574.20	60851.59
574.36	60615.19
574.52	60851.59
574.68	60882.02
574.84	61015.43
575.01	60914.78
575.17	60952.23
575.33	60718.18
575.49	60816.48
575.65	61064.58
575.82	61109.05
575.98	60952.23
576.14	61062.24
576.30	60973.30
576.46	60874.99
576.62	60926.49
576.79	60954.57
576.95	60809.46
577.11	60898.40
577.27	61041.17
577.43	60935.85
577.59	60844.57
577.75	60975.64
577.92	60970.96
578.08	61083.30
578.24	61127.77
578.40	60884.36
578.56	61017.77
578.72	61066.92
578.88	61340.76
579.04	61066.92
579.21	61169.90
579.37	61038.83
579.53	61123.09
579.69	60769.67
579.85	61022.45
580.01	60858.61
580.17	60842.23
580.33	61205.01
580.49	61020.11
580.65	61102.03
580.82	60767.33
580.98	61038.83
581.14	61050.53
581.30	61083.30
581.46	60865.63
581.62	61205.01
581.78	60949.89
581.94	61118.41
582.10	61073.94
582.26	61092.66
582.42	60987.34
582.58	61172.24
582.74	61071.60
582.90	61095.00
583.06	61155.86
583.22	60919.46
583.38	61403.95
583.54	61195.65
583.70	61102.03
583.86	61214.37
584.02	60985.00
584.18	61120.75
584.34	61148.84
584.50	61256.50
584.66	60914.78
584.82	61062.24
584.98	61315.01
585.14	61162.88
585.30	61092.66
585.46	61097.34
585.62	61200.33
585.78	61450.77
585.94	61130.11
586.10	61244.80
586.26	61153.52
586.42	61338.42
586.58	61286.93
586.74	61272.88
586.90	61249.48
587.06	61010.74
587.22	61378.21
587.38	61172.24
587.54	61305.65
587.70	61490.55
587.86	61366.51
588.02	61291.61
588.18	61357.14
588.34	61333.74
588.49	61158.20
