SpectraSuite Data File
++++++++++++++++++++++++++++++++++++
Date: Fri Oct 25 11:25:52 EDT 2013
User: price-jones
Dark Spectrum Present: No
Reference Spectrum Present: No
Number of Sampled Component Spectra: 1
Spectrometers: USB2+H05261
Integration Time (usec): 100000 (USB2+H05261)
Spectra Averaged: 1 (USB2+H05261)
Boxcar Smoothing: 0 (USB2+H05261)
Correct for Electrical Dark: No (USB2+H05261)
Strobe/Lamp Enabled: No (USB2+H05261)
Correct for Detector Non-linearity: No (USB2+H05261)
Correct for Stray Light: No (USB2+H05261)
Number of Pixels in Processed Spectrum: 2048
>>>>>Begin Processed Spectral Data<<<<<
365.73	259.80
365.92	259.80
366.12	259.80
366.32	138.09
366.52	145.11
366.72	91.28
366.91	142.77
367.11	142.77
367.31	175.54
367.51	74.90
367.70	65.54
367.90	124.05
368.10	117.03
368.30	131.07
368.49	107.66
368.69	154.48
368.89	198.95
369.09	191.92
369.28	105.32
369.48	161.50
369.68	187.24
369.87	208.31
370.07	266.82
370.27	142.77
370.47	346.40
370.66	587.47
370.86	620.24
371.06	636.63
371.25	662.37
371.45	671.73
371.65	725.57
371.84	720.88
372.04	645.99
372.24	699.82
372.44	704.50
372.63	711.52
372.83	704.50
373.03	830.89
373.22	819.19
373.42	788.76
373.62	786.42
373.81	758.33
374.01	821.53
374.21	856.64
374.40	772.38
374.60	791.10
374.79	795.78
374.99	835.57
375.19	901.11
375.38	851.96
375.58	823.87
375.78	858.98
375.97	905.79
376.17	959.62
376.37	924.51
376.56	933.87
376.76	861.32
376.95	800.46
377.15	866.00
377.35	905.79
377.54	844.93
377.74	896.43
377.93	854.30
378.13	868.34
378.33	990.05
378.52	933.87
378.72	964.30
378.91	877.70
379.11	882.38
379.31	938.55
379.50	840.25
379.70	1041.54
379.89	1111.75
380.09	992.39
380.28	992.39
380.48	1018.13
380.68	896.43
380.87	976.00
381.07	1027.50
381.26	1004.09
381.46	971.32
381.65	1076.65
381.85	973.66
382.04	1029.84
382.24	1086.01
382.43	1060.26
382.63	1067.28
382.83	1078.99
383.02	1057.92
383.22	1095.37
383.41	1034.52
383.61	1118.78
383.80	1114.10
384.00	1121.12
384.19	1179.63
384.39	1184.31
384.58	1048.56
384.78	1196.01
384.97	1158.57
385.17	1217.08
385.36	1193.67
385.56	1151.54
385.75	1135.16
385.95	1149.20
386.14	1198.35
386.34	1231.12
386.53	1247.51
386.72	1146.86
386.92	1280.27
387.11	1401.98
387.31	1327.08
387.50	1256.87
387.70	1270.91
387.89	1219.42
388.09	1287.29
388.28	1233.46
388.48	1249.85
388.67	1317.72
388.86	1387.94
389.06	1317.72
389.25	1352.83
389.45	1383.26
389.64	1315.38
389.84	1352.83
390.03	1317.72
390.22	1397.30
390.42	1336.45
390.61	1394.96
390.81	1394.96
391.00	1430.07
391.19	1476.88
391.39	1401.98
391.58	1439.43
391.78	1504.96
391.97	1444.11
392.16	1441.77
392.36	1476.88
392.55	1526.03
392.75	1537.73
392.94	1575.18
393.13	1624.33
393.33	1572.84
393.52	1556.46
393.71	1598.59
393.91	1629.01
394.10	1600.93
394.29	1511.99
394.49	1706.25
394.68	1636.03
394.88	1647.74
395.07	1636.03
395.26	1584.54
395.46	1650.08
395.65	1675.82
395.84	1652.42
396.04	1816.26
396.23	1795.19
396.42	1664.12
396.62	1802.21
396.81	1760.08
397.00	1795.19
397.19	1755.40
397.39	1757.74
397.58	1823.28
397.77	1879.45
397.97	1851.36
398.16	1844.34
398.35	1923.92
398.55	1865.41
398.74	1867.75
398.93	1921.58
399.12	1870.09
399.32	1863.07
399.51	1905.20
399.70	1956.69
399.90	1898.17
400.09	2040.95
400.28	1947.33
400.47	1977.75
400.67	2090.10
400.86	2066.69
401.05	2029.24
401.24	2054.99
401.44	2069.03
401.63	2174.36
401.82	2174.36
402.01	2043.29
402.21	2078.40
402.40	2122.87
402.59	2225.85
402.78	2195.42
402.97	2155.63
403.17	2342.88
403.36	2310.11
403.55	2249.25
403.74	2380.32
403.93	2291.38
404.13	2342.88
404.32	2286.70
404.51	2333.51
404.70	2459.90
404.89	2401.39
405.09	2490.33
405.28	2492.67
405.47	2434.16
405.66	2438.84
405.85	2513.74
406.05	2509.05
406.24	2527.78
406.43	2658.85
406.62	2637.78
406.81	2684.59
407.00	2602.68
407.20	2567.57
407.39	2553.52
407.58	2668.21
407.77	2724.38
407.96	2672.89
408.15	2818.00
408.34	2832.05
408.54	2923.33
408.73	2740.77
408.92	2841.41
409.11	2853.11
409.30	2923.33
409.49	2867.16
409.68	2864.82
409.87	2885.88
410.07	2920.99
410.26	3045.04
410.45	2953.76
410.64	3124.62
410.83	3143.34
411.02	3021.63
411.21	3000.57
411.40	3148.02
411.59	3222.92
411.78	3208.87
411.98	3136.32
412.17	3150.36
412.36	3295.47
412.55	3248.66
412.74	3400.80
412.93	3332.92
413.12	3274.41
413.31	3552.93
413.50	3435.91
413.69	3501.44
413.88	3524.85
414.07	3520.17
414.26	3749.54
414.45	3648.90
414.64	3698.05
414.83	3808.05
415.02	3784.65
415.22	3805.71
415.41	3936.78
415.60	3655.92
415.79	3859.54
415.98	3932.10
416.17	4098.28
416.36	4037.42
416.55	4037.42
416.74	4011.68
416.93	3953.16
417.12	4084.23
417.31	4086.58
417.50	4117.00
417.69	4367.44
417.88	4196.58
418.07	4292.54
418.26	4334.67
418.45	4208.28
418.64	4407.23
418.83	4531.28
419.02	4498.51
419.21	4414.25
419.39	4484.47
419.58	4528.94
419.77	4470.42
419.96	4510.21
420.15	4524.26
420.34	4489.15
420.53	4594.47
420.72	4594.47
420.91	4582.77
421.10	4751.29
421.29	4706.82
421.48	4809.80
421.67	4809.80
421.86	4713.84
422.05	4865.97
422.24	4915.12
422.43	4802.78
422.61	4884.70
422.80	4844.91
422.99	4873.00
423.18	4795.76
423.37	4891.72
423.56	5064.92
423.75	4957.25
423.94	4784.06
424.13	4620.22
424.32	4774.69
424.50	5067.26
424.69	5163.22
424.88	5144.50
425.07	4910.44
425.26	4933.85
425.45	4711.50
425.64	4882.36
425.83	4861.29
426.01	5111.73
426.20	4987.68
426.39	4987.68
426.58	4999.38
426.77	4875.34
426.96	5060.24
427.15	5088.32
427.33	5348.12
427.52	5060.24
427.71	5245.14
427.90	5416.00
428.09	5371.53
428.28	5357.49
428.46	5324.72
428.65	5437.06
428.84	5603.24
429.03	5465.15
429.22	5390.25
429.40	5329.40
429.59	5458.13
429.78	5198.33
429.97	5373.87
430.16	5617.29
430.34	5596.22
430.53	5516.64
430.72	5640.69
430.91	5689.84
431.10	5701.54
431.28	5631.33
431.47	5767.08
431.66	5820.91
431.85	5762.40
432.03	5809.21
432.22	5937.94
432.41	5851.34
432.60	5921.56
432.79	5966.03
432.97	6012.84
433.16	6092.41
433.35	6010.50
433.54	5996.45
433.72	6101.78
433.91	6087.73
434.10	6094.76
434.28	6162.63
434.47	6171.99
434.66	6492.65
434.85	6326.47
435.03	6317.11
435.22	6284.34
435.41	6452.86
435.59	6345.19
435.78	6415.41
435.97	6530.09
436.16	6539.46
436.34	6347.53
436.53	6464.56
436.72	6663.51
436.90	6473.92
437.09	6558.18
437.28	6431.79
437.46	6562.86
437.65	6736.06
437.84	6911.60
438.02	6722.02
438.21	6738.40
438.40	6715.00
438.58	6897.56
438.77	7047.35
438.96	6801.60
439.14	7166.72
439.33	7185.44
439.52	7056.72
439.70	7056.72
439.89	7506.10
440.08	7370.35
440.26	7438.22
440.45	7201.83
440.63	7431.20
440.82	7613.76
441.01	7508.44
441.19	7424.18
441.38	7728.45
441.57	7639.51
441.75	7789.30
441.94	7901.65
442.12	7852.50
442.31	7953.14
442.50	7962.50
442.68	8058.46
442.87	8060.80
443.05	8030.38
443.24	8196.56
443.43	8025.70
443.61	8322.94
443.80	8290.18
443.98	8105.28
444.17	7936.76
444.35	8086.55
444.54	8489.12
444.73	8245.71
444.91	8320.60
445.10	8442.31
445.28	8311.24
445.47	8294.86
445.65	8297.20
445.84	8444.65
446.02	8418.91
446.21	8329.97
446.39	8484.44
446.58	8479.76
446.77	8648.28
446.95	8046.76
447.14	8311.24
447.32	8559.34
447.51	8292.52
447.69	8351.03
447.88	8503.17
448.06	8547.64
448.25	8533.59
448.43	8514.87
448.62	8549.98
448.80	8596.79
448.99	8723.18
449.17	8566.36
449.36	8500.83
449.54	8664.66
449.73	8931.48
449.91	8816.80
450.10	8868.29
450.28	8999.36
450.46	8950.21
450.65	8922.12
450.83	9022.77
451.02	8889.35
451.20	9137.45
451.39	9100.00
451.57	9181.92
451.76	9029.79
451.94	9137.45
452.13	9378.53
452.31	9334.06
452.49	9249.80
452.68	9390.23
452.86	9352.78
453.05	9514.28
453.23	9575.13
453.42	9238.09
453.60	9472.15
453.78	9355.12
453.97	9554.07
454.15	9399.59
454.34	9308.31
454.52	9589.17
454.70	9547.05
454.89	9790.46
455.07	9724.93
455.26	9919.19
455.44	9921.53
455.62	9905.15
455.81	9785.78
455.99	10008.13
456.17	9919.19
456.36	10127.50
456.54	10094.73
456.73	10256.23
456.91	10347.51
457.09	10494.96
457.28	10590.92
457.46	10328.78
457.64	10611.99
457.83	10511.35
458.01	10422.41
458.19	10602.63
458.38	10373.25
458.56	10581.56
458.74	10729.02
458.93	10934.98
459.11	10787.53
459.29	10567.52
459.48	10958.39
459.66	10733.70
459.84	10965.41
460.03	11040.31
460.21	11014.56
460.39	10897.53
460.57	10986.47
460.76	10904.56
460.94	11269.68
461.12	11243.93
461.31	11112.86
461.49	11035.63
461.67	11342.24
461.85	11496.71
462.04	11197.12
462.22	11859.49
462.40	11679.27
462.59	11215.85
462.77	11559.91
462.95	11761.19
463.13	11630.12
463.32	11470.97
463.50	11772.89
463.68	11824.39
463.86	11815.02
464.05	11644.17
464.23	11562.25
464.41	11616.08
464.59	11449.90
464.78	12187.17
464.96	12018.65
465.14	11796.30
465.32	11908.65
465.50	12088.87
465.69	12088.87
465.87	12065.46
466.05	12215.26
466.23	12138.02
466.41	12236.32
466.60	12484.42
466.78	12025.67
466.96	12217.60
467.14	12168.45
467.32	12533.57
467.51	12540.59
467.69	12175.47
467.87	12290.15
468.05	12685.70
468.23	12351.01
468.41	12271.43
468.60	12634.21
468.78	12681.02
468.96	12585.06
469.14	12765.28
469.32	12760.60
469.50	12627.19
469.69	12751.24
469.87	13015.72
470.05	13254.45
470.23	13081.25
470.41	13174.88
470.59	13109.34
470.77	13291.90
470.95	13308.29
471.14	13193.60
471.32	13083.59
471.50	13451.06
471.68	13593.83
471.86	13760.01
472.04	13720.22
472.22	13914.48
472.40	13654.69
472.58	13659.37
472.77	13937.89
472.95	13947.25
473.13	14628.35
473.31	14160.24
473.49	14019.81
473.67	14127.47
473.85	14377.91
474.03	14890.49
474.21	14391.95
474.39	14487.92
474.57	14270.25
474.75	14923.26
474.93	14927.94
475.12	14930.28
475.30	15084.75
475.48	15026.24
475.66	15276.68
475.84	14986.45
476.02	15442.85
476.20	15587.97
476.38	15538.82
476.56	15857.13
476.74	15709.68
476.92	15800.96
477.10	15707.34
477.28	16128.63
477.46	16112.25
477.64	16383.75
477.82	16208.21
478.00	16954.84
478.18	16875.26
478.36	17116.34
478.54	17121.02
478.72	17233.36
478.90	17233.36
479.08	17352.73
479.26	17811.48
479.44	17392.52
479.62	17862.97
479.80	17919.14
479.98	18471.51
480.16	18614.28
480.34	18185.96
480.52	18640.03
480.70	18480.87
480.88	18113.41
481.06	18576.83
481.24	19063.66
481.41	18937.27
481.59	19454.53
481.77	19379.64
481.95	19353.89
482.13	19543.47
482.31	19573.90
482.49	20217.55
482.67	20240.95
482.85	20379.04
483.03	20313.51
483.21	20697.36
483.39	21177.17
483.57	20968.86
483.74	20900.98
483.92	21135.04
484.10	21135.04
484.28	21359.73
484.46	21710.81
484.64	22054.87
484.82	21792.73
485.00	22146.15
485.18	22625.96
485.35	22981.72
485.53	22984.06
485.71	22881.08
485.89	23304.71
486.07	22934.91
486.25	23342.16
486.43	23503.66
486.61	23770.48
486.78	24269.01
486.96	24147.31
487.14	24861.17
487.32	24650.52
487.50	24570.94
487.68	25282.47
487.85	25071.82
488.03	25542.27
488.21	25937.82
488.39	25846.54
488.57	26101.65
488.75	26141.44
488.92	26508.91
489.10	26829.56
489.28	26916.16
489.46	26946.59
489.64	26939.57
489.81	27339.80
489.99	27728.33
490.17	27381.93
490.35	28135.58
490.53	28142.60
490.70	28219.84
490.88	28217.50
491.06	28767.52
491.24	28271.33
491.41	29130.31
491.59	29301.17
491.77	29177.12
491.95	29596.07
492.13	29366.70
492.30	29940.13
492.48	30118.01
492.66	30192.91
492.84	29965.88
493.01	30494.84
493.19	30480.80
493.37	30845.92
493.54	31061.25
493.72	31786.82
493.90	31456.80
494.08	31534.04
494.25	31915.54
494.43	32215.13
494.61	32414.08
494.79	32517.06
494.96	32418.76
495.14	32772.18
495.32	33390.08
495.49	33228.59
495.67	33270.72
495.85	33408.81
496.02	33649.88
496.20	34089.90
496.38	33897.98
496.55	33839.47
496.73	34735.89
496.91	34672.70
497.09	34438.64
497.26	34941.86
497.44	34918.45
497.62	35351.45
497.79	36055.95
497.97	35512.95
498.14	35531.67
498.32	36177.66
498.50	35777.43
498.67	36617.68
498.85	36355.54
499.03	36666.83
499.20	36568.53
499.38	37020.25
499.56	36629.38
499.73	37282.39
499.91	37043.66
500.08	37617.09
500.26	37411.12
500.44	37343.25
500.61	38007.96
500.79	38007.96
500.97	38132.01
501.14	38525.22
501.32	38349.68
501.49	38373.08
501.67	38473.73
501.84	38892.68
502.02	38911.41
502.20	38801.40
502.37	38962.90
502.55	39126.74
502.72	39365.47
502.90	39210.99
503.07	39384.19
503.25	39295.25
503.43	39522.29
503.60	40238.49
503.78	39924.86
503.95	40100.40
504.13	40409.35
504.30	40289.98
504.48	40297.00
504.65	40772.13
504.83	41064.70
505.01	41291.73
505.18	41003.85
505.36	41237.90
505.53	41125.55
505.71	41305.77
505.88	41542.17
506.06	41413.44
506.23	41757.50
506.41	41867.50
506.58	42094.53
506.76	41865.16
506.93	42646.90
507.11	42234.97
507.28	42628.18
507.46	42525.19
507.63	42628.18
507.81	43019.05
507.98	42995.64
508.16	42576.69
508.33	43320.98
508.50	43225.01
508.68	43489.49
508.85	43356.08
509.03	43313.95
509.20	44032.50
509.38	44079.31
509.55	44161.23
509.73	44346.13
509.90	44533.37
510.08	44666.78
510.25	44175.27
510.42	44491.24
510.60	44706.57
510.77	44896.16
510.95	44912.54
511.12	44566.14
511.30	45418.10
511.47	45556.19
511.64	45317.45
511.82	45799.60
511.99	45483.63
512.17	45979.82
512.34	45879.18
512.51	46043.02
512.69	46047.70
512.86	46541.55
513.04	46227.92
513.21	46660.92
513.38	46461.97
513.56	47299.89
513.73	46328.56
513.90	46564.96
514.08	47037.75
514.25	47033.07
514.43	47051.79
514.60	47447.34
514.77	47480.11
514.95	47878.00
515.12	47395.85
515.29	47681.39
515.47	47878.00
515.64	47765.65
515.81	47676.71
515.99	48329.72
516.16	48032.47
516.33	48200.99
516.51	48559.09
516.68	48339.08
516.85	48339.08
517.03	48980.39
517.20	49151.25
517.37	48318.02
517.54	49296.36
517.72	48818.89
517.89	48772.08
518.06	49141.89
518.24	49230.83
518.41	48942.94
518.58	48830.60
518.75	49111.46
518.93	49443.82
519.10	49195.72
519.27	49745.75
519.45	49549.14
519.62	50124.91
519.79	49804.26
519.96	49830.01
520.14	49855.75
520.31	50106.19
520.48	50326.20
520.65	49844.05
520.83	50529.83
521.00	50824.73
521.17	50302.79
521.34	50969.85
521.52	50398.76
521.69	50871.54
521.86	51084.53
522.03	50913.67
522.20	51253.05
522.38	51292.84
522.55	51166.45
522.72	51246.03
522.89	51721.16
523.07	51643.92
523.24	51231.99
523.41	51583.07
523.58	51562.00
523.75	51681.37
523.92	51730.52
524.10	51774.99
524.27	52062.88
524.44	52278.21
524.61	52058.20
524.78	52095.64
524.96	52362.46
525.13	52135.43
525.30	52170.54
525.47	52500.56
525.64	52376.51
525.81	52266.50
525.98	52505.24
526.16	52465.45
526.33	52409.28
526.50	52905.47
526.67	52690.14
526.84	53155.91
527.01	52631.63
527.18	52701.84
527.36	52645.67
527.53	53146.54
527.70	53317.40
527.87	52973.34
528.04	53017.82
528.21	53073.99
528.38	53216.76
528.55	53408.68
528.72	53214.42
528.89	53338.47
529.07	53368.90
529.24	53420.39
529.41	53708.27
529.58	53605.29
529.75	53605.29
529.92	53785.51
530.09	53822.96
530.26	53834.66
530.43	53963.39
530.60	53921.26
530.77	54007.86
530.94	54134.25
531.11	54094.46
531.28	54150.63
531.46	54389.37
531.63	53965.73
531.80	53954.03
531.97	54230.21
532.14	54307.45
532.31	54490.01
532.48	54337.88
532.65	54574.27
532.82	54447.88
532.99	54866.84
533.16	54384.69
533.33	54770.88
533.50	54873.86
533.67	54787.26
533.84	54461.93
534.01	54813.01
534.18	54780.24
534.35	55138.34
534.52	55096.21
534.69	55051.74
534.86	55061.10
535.03	55285.79
535.20	55128.98
535.37	55381.76
535.54	55260.05
535.71	55098.55
535.88	55370.05
536.05	55552.62
536.22	55599.43
536.38	55433.25
536.55	55458.99
536.72	55695.39
536.89	55306.86
537.06	55384.10
537.23	55810.07
537.40	55618.15
537.57	55545.59
537.74	55571.34
537.91	55861.57
538.08	55821.78
538.25	55585.38
538.42	55498.78
538.59	55931.78
538.75	55948.17
538.92	55976.25
539.09	56011.36
539.26	56034.77
539.43	55903.70
539.60	56158.81
539.77	56112.00
539.94	56598.83
540.11	56423.29
540.28	56640.96
540.44	56437.34
540.61	56123.71
540.78	56315.63
540.95	56435.00
541.12	56467.76
541.29	56095.62
541.46	56643.30
541.62	56519.26
541.79	56559.05
541.96	56292.22
542.13	56350.74
542.30	56516.92
542.47	56739.27
542.63	56743.95
542.80	56772.03
542.97	57223.76
543.14	57151.20
543.31	57078.64
543.48	57055.24
543.64	57389.94
543.81	57312.70
543.98	57190.99
544.15	57205.03
544.32	57476.54
544.48	57317.38
544.65	57244.82
544.82	57439.09
544.99	57382.91
545.16	57083.33
545.32	57528.03
545.49	57453.13
545.66	57689.52
545.83	57741.02
546.00	57675.48
546.16	57553.77
546.33	57434.41
546.50	57502.28
546.67	57792.51
546.83	57420.36
547.00	57602.92
547.17	57626.33
547.34	57813.57
547.50	58064.01
547.67	58056.99
547.84	57822.93
548.00	58066.35
548.17	57998.48
548.34	58012.52
548.51	58078.05
548.67	58012.52
548.84	58054.65
549.01	57951.66
549.18	58138.91
549.34	58234.87
549.51	58169.33
549.68	58220.83
549.84	58248.91
550.01	58501.69
550.18	58241.89
550.34	58461.90
550.51	58536.80
550.68	58466.58
550.84	58003.16
551.01	58482.97
551.18	58609.35
551.34	58333.17
551.51	58621.06
551.68	58707.66
551.84	58487.65
552.01	58335.51
552.18	58674.89
552.34	58379.98
552.51	58599.99
552.68	58607.01
552.84	58808.30
553.01	58930.01
553.18	58892.56
553.34	58789.58
553.51	58918.31
553.67	58618.72
553.84	58866.81
554.01	58817.66
554.17	58892.56
554.34	59096.19
554.51	58756.81
554.67	59037.67
554.84	59058.74
555.00	58815.32
555.17	58796.60
555.33	58993.20
555.50	59011.93
555.67	58831.71
555.83	58944.05
556.00	59414.50
556.16	59276.41
556.33	59096.19
556.50	59215.55
556.66	59320.88
556.83	59208.53
556.99	59370.03
557.16	59442.59
557.32	59337.26
557.49	59571.32
557.65	59260.02
557.82	59355.99
557.98	59292.79
558.15	59309.18
558.32	59440.24
558.48	59330.24
558.65	59224.92
558.81	59297.47
558.98	59426.20
559.14	59590.04
559.31	59309.18
559.47	59540.89
559.64	59494.08
559.80	59819.41
559.97	59779.62
560.13	59463.65
560.30	59697.70
560.46	59650.89
560.63	59821.75
560.79	59664.94
560.96	59744.51
561.12	59838.14
561.29	59681.32
561.45	59821.75
561.61	59772.60
561.78	59608.76
561.94	59688.34
562.11	59695.36
562.27	59763.24
562.44	59901.33
562.60	60060.49
562.77	59896.65
562.93	59917.71
563.10	60186.88
563.26	59884.95
563.42	60097.94
563.59	60231.35
563.75	59920.05
563.92	60039.42
564.08	59814.73
564.24	60142.41
564.41	60137.72
564.57	60245.39
564.74	60128.36
564.90	60111.98
565.07	60191.56
565.23	60114.32
565.39	60172.83
565.56	60271.14
565.72	60083.89
565.88	60133.04
566.05	60121.34
566.21	60268.79
566.38	60123.68
566.54	59920.05
566.70	60224.32
566.87	60376.46
567.03	60231.35
567.19	60369.44
567.36	60336.67
567.52	60184.54
567.68	60390.50
567.85	60306.24
568.01	60413.91
568.17	60364.76
568.34	60423.27
568.50	60149.43
568.66	60287.52
568.83	60420.93
568.99	60133.04
569.15	60156.45
569.32	60357.74
569.48	60250.07
569.64	60236.03
569.81	60406.89
569.97	60322.63
570.13	60432.63
570.30	60402.21
570.46	60458.38
570.62	60378.80
570.78	60327.31
570.95	60425.61
571.11	60477.10
571.27	60341.35
571.43	60479.44
571.60	60465.40
571.76	60418.59
571.92	60465.40
572.09	60757.97
572.25	60456.04
572.41	60453.70
572.57	60568.38
572.74	60657.32
572.90	60624.56
573.06	60757.97
573.22	60378.80
573.38	60418.59
573.55	60512.21
573.71	60912.44
573.87	60463.06
574.03	60331.99
574.20	60355.39
574.36	60650.30
574.52	60608.17
574.68	60666.69
574.84	60786.05
575.01	60741.58
575.17	60608.17
575.33	60486.46
575.49	60596.47
575.65	60645.62
575.82	60622.22
575.98	60783.71
576.14	60795.42
576.30	60769.67
576.46	60774.35
576.62	60587.11
576.79	60680.73
576.95	60598.81
577.11	60839.89
577.27	60837.54
577.43	60722.86
577.59	60701.79
577.75	60561.36
577.92	60711.16
578.08	60647.96
578.24	60739.24
578.40	60835.20
578.56	60757.97
578.72	60884.36
578.88	60942.87
579.04	60968.61
579.21	60832.86
579.37	60699.45
579.53	60870.31
579.69	60622.22
579.85	60767.33
580.01	60743.92
580.17	60626.90
580.33	60921.80
580.49	61034.15
580.65	60762.65
580.82	60718.18
580.98	60898.40
581.14	60711.16
581.30	60921.80
581.46	60598.81
581.62	60931.17
581.78	60905.42
581.94	60764.99
582.10	60790.73
582.26	60940.53
582.42	60746.26
582.58	60811.80
582.74	60814.14
582.90	60842.23
583.06	60746.26
583.22	60701.79
583.38	60821.16
583.54	60896.06
583.70	60933.51
583.86	60954.57
584.02	60718.18
584.18	60959.25
584.34	60889.04
584.50	60926.49
584.66	60556.68
584.82	60757.97
584.98	61263.52
585.14	61034.15
585.30	60865.63
585.46	60921.80
585.62	60933.51
585.78	60996.70
585.94	60889.04
586.10	60844.57
586.26	60921.80
586.42	61001.38
586.58	61027.13
586.74	60860.95
586.90	61006.06
587.06	60797.76
587.22	61008.40
587.38	60917.12
587.54	61109.05
587.70	61069.26
587.86	60750.94
588.02	60872.65
588.18	61141.81
588.34	61048.19
588.49	60800.10
