SpectraSuite Data File
++++++++++++++++++++++++++++++++++++
Date: Fri Oct 25 11:34:15 EDT 2013
User: price-jones
Dark Spectrum Present: No
Reference Spectrum Present: No
Number of Sampled Component Spectra: 1
Spectrometers: USB2+H05261
Integration Time (usec): 100000 (USB2+H05261)
Spectra Averaged: 1 (USB2+H05261)
Boxcar Smoothing: 0 (USB2+H05261)
Correct for Electrical Dark: No (USB2+H05261)
Strobe/Lamp Enabled: No (USB2+H05261)
Correct for Detector Non-linearity: No (USB2+H05261)
Correct for Stray Light: No (USB2+H05261)
Number of Pixels in Processed Spectrum: 2048
>>>>>Begin Processed Spectral Data<<<<<
365.73	355.76
365.92	355.76
366.12	355.76
366.32	156.82
366.52	170.86
366.72	191.92
366.91	175.54
367.11	189.58
367.31	191.92
367.51	217.67
367.70	175.54
367.90	170.86
368.10	201.29
368.30	147.45
368.49	205.97
368.69	201.29
368.89	231.71
369.09	168.52
369.28	255.12
369.48	241.08
369.68	250.44
369.87	255.12
370.07	269.16
370.27	257.46
370.47	355.76
370.66	472.79
370.86	573.43
371.06	505.56
371.25	543.00
371.45	547.69
371.65	580.45
371.84	486.83
372.04	510.24
372.24	615.56
372.44	589.82
372.63	580.45
372.83	641.31
373.03	655.35
373.22	641.31
373.42	650.67
373.62	631.94
373.81	587.47
374.01	674.07
374.21	676.41
374.40	681.10
374.60	720.88
374.79	601.52
374.99	634.29
375.19	657.69
375.38	671.73
375.58	634.29
375.78	685.78
375.97	638.97
376.17	690.46
376.37	662.37
376.56	601.52
376.76	641.31
376.95	624.92
377.15	669.39
377.35	589.82
377.54	800.46
377.74	678.76
377.93	730.25
378.13	653.01
378.33	641.31
378.52	678.76
378.72	765.36
378.91	793.44
379.11	631.94
379.31	678.76
379.50	800.46
379.70	807.48
379.89	791.10
380.09	812.17
380.28	753.65
380.48	706.84
380.68	695.14
380.87	737.27
381.07	791.10
381.26	793.44
381.46	718.54
381.65	798.12
381.85	798.12
382.04	851.96
382.24	702.16
382.43	772.38
382.63	767.70
382.83	730.25
383.02	758.33
383.22	748.97
383.41	814.51
383.61	744.29
383.80	802.80
384.00	802.80
384.19	784.08
384.39	842.59
384.58	809.83
384.78	819.19
384.97	858.98
385.17	840.25
385.36	788.76
385.56	823.87
385.75	779.40
385.95	847.27
386.14	821.53
386.34	830.89
386.53	823.87
386.72	814.51
386.92	793.44
387.11	814.51
387.31	833.23
387.50	809.83
387.70	917.49
387.89	877.70
388.09	908.13
388.28	884.72
388.48	837.91
388.67	945.58
388.86	856.64
389.06	870.68
389.25	830.89
389.45	922.17
389.64	922.17
389.84	912.81
390.03	980.68
390.22	985.37
390.42	919.83
390.61	919.83
390.81	994.73
391.00	954.94
391.19	954.94
391.39	1053.24
391.58	999.41
391.78	983.02
391.97	950.26
392.16	987.71
392.36	1050.90
392.55	990.05
392.75	1100.05
392.94	987.71
393.13	1055.58
393.33	1018.13
393.52	1067.28
393.71	1116.44
393.91	1064.94
394.10	1107.07
394.29	1034.52
394.49	1013.45
394.68	1109.41
394.88	1219.42
395.07	1158.57
395.26	1186.65
395.46	1158.57
395.65	1174.95
395.84	1151.54
396.04	1132.82
396.23	1224.10
396.42	1118.78
396.62	1191.33
396.81	1163.25
397.00	1200.69
397.19	1167.93
397.39	1156.22
397.58	1238.14
397.77	1128.14
397.97	1203.04
398.16	1217.08
398.35	1235.80
398.55	1238.14
398.74	1306.02
398.93	1301.34
399.12	1338.79
399.32	1310.70
399.51	1249.85
399.70	1324.74
399.90	1366.87
400.09	1362.19
400.28	1291.98
400.47	1343.47
400.67	1387.94
400.86	1350.49
401.05	1310.70
401.24	1474.54
401.44	1376.24
401.63	1404.32
401.82	1493.26
402.01	1425.39
402.21	1474.54
402.40	1486.24
402.59	1399.64
402.78	1460.49
402.97	1547.09
403.17	1497.94
403.36	1488.58
403.55	1474.54
403.74	1582.20
403.93	1598.59
404.13	1572.84
404.32	1500.28
404.51	1486.24
404.70	1619.65
404.89	1493.26
405.09	1519.01
405.28	1722.63
405.47	1570.50
405.66	1682.85
405.85	1729.66
406.05	1666.46
406.24	1748.38
406.43	1694.55
406.62	1654.76
406.81	1708.59
407.00	1771.79
407.20	1717.95
407.39	1701.57
407.58	1856.04
407.77	1844.34
407.96	1720.29
408.15	1834.98
408.34	1834.98
408.54	1757.74
408.73	1933.28
408.92	1956.69
409.11	1973.07
409.30	1916.90
409.49	1928.60
409.68	1980.09
409.87	1926.26
410.07	1984.77
410.26	1930.94
410.45	1949.67
410.64	2036.27
410.83	2012.86
411.02	2106.48
411.21	2101.80
411.40	2122.87
411.59	1984.77
411.78	2193.08
411.98	2195.42
412.17	2223.51
412.36	2204.78
412.55	2296.07
412.74	2211.81
412.93	2307.77
413.12	2249.25
413.31	2246.91
413.50	2282.02
413.69	2303.09
413.88	2333.51
414.07	2370.96
414.26	2525.44
414.45	2504.37
414.64	2438.84
414.83	2459.90
415.02	2464.58
415.22	2576.93
415.41	2516.08
415.60	2579.27
415.79	2623.74
415.98	2649.49
416.17	2605.02
416.36	2712.68
416.55	2661.19
416.74	2803.96
416.93	2745.45
417.12	2846.09
417.31	2937.37
417.50	2829.71
417.69	2869.50
417.88	2796.94
418.07	2874.18
418.26	2958.44
418.45	2984.18
418.64	3049.72
418.83	2911.63
419.02	2984.18
419.21	3066.10
419.39	3138.66
419.58	3023.97
419.77	3073.12
419.96	3005.25
420.15	3040.36
420.34	3023.97
420.53	3075.46
420.72	3220.58
420.91	3045.04
421.10	3272.07
421.29	3187.81
421.48	3283.77
421.67	3138.66
421.86	3084.83
422.05	3164.40
422.24	3180.79
422.43	3234.62
422.61	3358.67
422.80	3323.56
422.99	3258.03
423.18	3253.34
423.37	3389.10
423.56	3351.65
423.75	3342.28
423.94	3236.96
424.13	3101.21
424.32	3119.93
424.50	3391.44
424.69	3304.84
424.88	3290.79
425.07	3211.22
425.26	3368.03
425.45	3353.99
425.64	3419.52
425.83	3269.73
426.01	3508.46
426.20	3393.78
426.39	3506.12
426.58	3258.03
426.77	3414.84
426.96	3468.67
427.15	3428.88
427.33	3473.36
427.52	3456.97
427.71	3618.47
427.90	3559.95
428.09	3482.72
428.28	3676.98
428.46	3623.15
428.65	3541.23
428.84	3627.83
429.03	3651.24
429.22	3515.48
429.40	3660.60
429.59	3648.90
429.78	3616.13
429.97	3613.79
430.16	3737.84
430.34	3686.34
430.53	3658.26
430.72	3730.81
430.91	3906.35
431.10	3761.24
431.28	3786.99
431.47	3857.20
431.66	3906.35
431.85	3908.69
432.03	4074.87
432.22	3997.64
432.41	3948.48
432.60	4011.68
432.79	4079.55
432.97	4051.47
433.16	3964.87
433.35	4138.07
433.54	4095.94
433.72	4084.23
433.91	4065.51
434.10	4077.21
434.28	4166.15
434.47	4241.05
434.66	4121.68
434.85	4187.22
435.03	4219.99
435.22	4154.45
435.41	4379.14
435.59	4353.40
435.78	4360.42
435.97	4198.92
436.16	4301.90
436.34	4301.90
436.53	4353.40
436.72	4425.95
436.90	4245.73
437.09	4318.29
437.28	4297.22
437.46	4400.21
437.65	4423.61
437.84	4475.10
438.02	4547.66
438.21	4482.13
438.40	4514.89
438.58	4526.60
438.77	4636.60
438.96	4648.30
439.14	4760.65
439.33	4678.73
439.52	4578.09
439.70	4674.05
439.89	4791.08
440.08	4837.89
440.26	5088.32
440.45	4849.59
440.63	4758.31
440.82	5102.37
441.01	4975.98
441.19	5013.43
441.38	5137.48
441.57	5071.94
441.75	5085.98
441.94	5158.54
442.12	5203.01
442.31	5324.72
442.50	5320.04
442.68	5301.31
442.87	5282.59
443.05	5533.03
443.24	5483.88
443.43	5420.68
443.61	5334.08
443.80	5596.22
443.98	5336.42
444.17	5343.44
444.35	5387.91
444.54	5528.35
444.73	5366.85
444.91	5441.75
445.10	5486.22
445.28	5495.58
445.47	5547.07
445.65	5467.49
445.84	5584.52
446.02	5565.79
446.21	5589.20
446.39	5682.82
446.58	5458.13
446.77	5685.16
446.95	5579.84
447.14	5542.39
447.32	5605.58
447.51	5577.50
447.69	5626.65
447.88	5741.33
448.06	5619.63
448.25	5682.82
448.43	5776.44
448.62	5722.61
448.80	5710.91
448.99	5640.69
449.17	5797.51
449.36	5769.42
449.54	5708.57
449.73	5762.40
449.91	5813.89
450.10	5806.87
450.28	6157.95
450.46	5975.39
450.65	6057.31
450.83	6052.63
451.02	5919.21
451.20	5891.13
451.39	6251.57
451.57	5970.71
451.76	5937.94
451.94	5933.26
452.13	5963.68
452.31	6038.58
452.49	6022.20
452.68	6054.97
452.86	6132.20
453.05	6286.68
453.23	6221.14
453.42	6040.92
453.60	6183.70
453.78	6525.41
453.97	6305.40
454.15	6171.99
454.34	6071.35
454.52	6272.64
454.70	6289.02
454.89	6373.28
455.07	6314.77
455.26	6490.31
455.44	6614.35
455.62	6546.48
455.81	6387.32
455.99	6553.50
456.17	6476.26
456.36	6773.51
456.54	6715.00
456.73	6773.51
456.91	6684.57
457.09	6895.22
457.28	6768.83
457.46	6616.69
457.64	6794.58
457.83	6757.13
458.01	6780.53
458.19	6984.16
458.38	6927.99
458.56	6881.18
458.74	6998.20
458.93	6988.84
459.11	7002.88
459.29	7033.31
459.48	7045.01
459.66	7138.63
459.84	7019.27
460.03	7274.38
460.21	7124.59
460.39	7094.16
460.57	7138.63
460.76	7070.76
460.94	7400.77
461.12	7243.96
461.31	7344.60
461.49	7274.38
461.67	7206.51
461.85	7433.54
462.04	7321.20
462.22	7756.54
462.40	7573.97
462.59	7559.93
462.77	7573.97
462.95	7513.12
463.13	7595.04
463.32	7623.12
463.50	7599.72
463.68	7480.35
463.86	7789.30
464.05	7676.96
464.23	7660.57
464.41	7679.30
464.59	7454.61
464.78	7740.15
464.96	7817.39
465.14	7712.07
465.32	7990.59
465.50	7932.08
465.69	7810.37
465.87	7995.27
466.05	7925.05
466.23	7941.44
466.41	7896.97
466.60	8081.87
466.78	7925.05
466.96	7915.69
467.14	7885.26
467.32	8128.68
467.51	8154.43
467.69	7826.75
467.87	8081.87
468.05	8196.56
468.23	7957.82
468.41	8095.91
468.60	8285.50
468.78	8175.49
468.96	8287.84
469.14	8351.03
469.32	8416.57
469.50	8126.34
469.69	8554.66
469.87	8383.80
470.05	8491.46
470.23	8325.29
470.41	8446.99
470.59	8627.21
470.77	8535.93
470.95	8533.59
471.14	8765.31
471.32	8531.25
471.50	8751.26
471.68	8856.59
471.86	9015.74
472.04	8774.67
472.22	8968.93
472.40	8898.72
472.58	9090.64
472.77	9092.98
472.95	9034.47
473.13	9275.54
473.31	9226.39
473.49	9252.14
473.67	9130.43
473.85	9270.86
474.03	9413.63
474.21	9362.14
474.39	9610.24
474.57	9355.12
474.75	9570.45
474.93	9778.76
475.12	9666.41
475.30	9497.89
475.48	9858.34
475.66	9628.96
475.84	9813.87
476.02	9956.64
476.20	10148.56
476.38	10094.73
476.56	10452.83
476.74	10078.35
476.92	10111.11
477.10	10298.36
477.28	10527.73
477.46	10375.59
477.64	10675.18
477.82	10604.97
478.00	10869.45
478.18	10904.56
478.36	10848.38
478.54	10988.82
478.72	10829.66
478.90	11112.86
479.08	11321.17
479.26	11346.92
479.44	11300.11
479.62	11332.87
479.80	11286.06
479.98	11674.59
480.16	11716.72
480.34	11723.74
480.52	11892.26
480.70	11784.60
480.88	12065.46
481.06	11997.59
481.24	12058.44
481.41	12198.87
481.59	12425.90
481.77	12486.76
481.95	12287.81
482.13	12526.55
482.31	12491.44
482.49	13153.81
482.67	12889.33
482.85	12947.84
483.03	13083.59
483.21	13247.43
483.39	13191.26
483.57	13338.71
483.74	13420.63
483.92	13514.25
484.10	13322.33
484.28	13870.01
484.46	14085.34
484.64	14321.74
484.82	14057.26
485.00	14396.64
485.18	14361.53
485.35	14583.88
485.53	14565.15
485.71	14623.67
485.89	15042.62
486.07	14792.19
486.25	14801.55
486.43	14885.81
486.61	15159.65
486.78	15342.21
486.96	15630.10
487.14	15611.37
487.32	15786.91
487.50	15800.96
487.68	15854.79
487.85	16137.99
488.03	16334.60
488.21	16662.27
488.39	16322.90
488.57	16627.17
488.75	16704.40
488.92	16886.97
489.10	17165.49
489.28	17032.08
489.46	17020.38
489.64	17270.81
489.81	17664.02
489.99	17467.42
490.17	17584.44
490.35	18064.25
490.53	17752.96
490.70	17799.77
490.88	18230.43
491.06	18544.06
491.24	18443.42
491.41	18438.74
491.59	18326.39
491.77	18466.83
491.95	18750.03
492.13	18862.38
492.30	19145.58
492.48	19171.33
492.66	19293.04
492.84	19278.99
493.01	19695.61
493.19	19447.51
493.37	19941.36
493.54	19885.19
493.72	19976.47
493.90	19861.79
494.08	19995.20
494.25	20205.84
494.43	20627.14
494.61	20521.82
494.79	20713.74
494.96	20475.01
495.14	20879.92
495.32	21170.15
495.49	20851.83
495.67	21118.65
495.85	21277.81
496.02	21631.23
496.20	21586.76
496.38	21816.13
496.55	21804.43
496.73	21869.97
496.91	21905.07
497.09	22017.42
497.26	22277.22
497.44	22270.20
497.62	22258.49
497.79	22600.21
497.97	22445.74
498.14	22644.68
498.32	23201.73
498.50	23236.84
498.67	23073.00
498.85	23126.83
499.03	23269.61
499.20	23164.28
499.38	23396.00
499.56	23344.50
499.73	23510.68
499.91	24142.63
500.08	24100.50
500.26	23931.98
500.44	24018.58
500.61	23775.16
500.79	24112.20
500.97	24140.29
501.14	24467.96
501.32	24671.59
501.49	24458.60
501.67	24524.13
501.84	24463.28
502.02	24636.48
502.20	24676.27
502.37	25001.60
502.55	24959.47
502.72	25142.03
502.90	25528.22
503.07	25118.63
503.25	25392.47
503.43	25109.27
503.60	25486.09
503.78	25755.26
503.95	25778.66
504.13	25352.68
504.30	25596.10
504.48	25806.75
504.65	25937.82
504.83	26270.17
505.01	26361.45
505.18	26064.21
505.36	26511.25
505.53	26459.76
505.71	26520.61
505.88	26590.83
506.06	26544.02
506.23	26771.05
506.41	26764.03
506.58	27019.14
506.76	26735.94
506.93	27274.26
507.11	27239.15
507.28	26941.91
507.46	27330.44
507.63	27683.86
507.81	27681.52
507.98	27615.98
508.16	27211.07
508.33	27639.39
508.50	27786.84
508.68	27716.62
508.85	28163.67
509.03	27835.99
509.20	28306.44
509.38	28498.36
509.55	28465.60
509.73	28247.93
509.90	28573.26
510.08	28498.36
510.25	28432.83
510.42	28830.72
510.60	28797.95
510.77	28943.06
510.95	28987.53
511.12	28659.86
511.30	29216.91
511.47	29333.93
511.64	29277.76
511.82	29106.90
511.99	29497.77
512.17	29427.56
512.34	29439.26
512.51	29930.77
512.69	30008.01
512.86	29883.96
513.04	30008.01
513.21	30270.15
513.38	30167.16
513.56	30574.42
513.73	30192.91
513.90	30092.27
514.08	30206.95
514.25	30543.99
514.43	30808.47
514.60	30581.44
514.77	30485.48
514.95	31108.06
515.12	30998.06
515.29	30553.35
515.47	31178.28
515.64	30848.26
515.81	30438.67
515.99	31166.57
516.16	31264.88
516.33	31250.83
516.51	31658.09
516.68	31175.94
516.85	31562.12
517.03	31543.40
517.20	31562.12
517.37	31707.24
517.54	31864.05
517.72	31789.16
517.89	32086.40
518.06	32194.07
518.24	32140.24
518.41	32357.91
518.58	31791.50
518.75	31842.99
518.93	32727.71
519.10	32048.96
519.27	32720.69
519.45	32400.04
519.62	32613.02
519.79	32421.10
519.96	32903.25
520.14	32821.33
520.31	32741.75
520.48	32847.08
520.65	32842.40
520.83	33324.55
521.00	33156.03
521.17	33013.26
521.34	33446.26
521.52	33305.82
521.69	33329.23
521.86	33621.80
522.03	33940.11
522.20	33715.42
522.38	34078.20
522.55	34253.74
522.72	34040.75
522.89	34216.29
523.07	34494.82
523.24	34209.27
523.41	34529.92
523.58	34103.95
523.75	34146.08
523.92	34483.11
524.10	34113.31
524.27	34761.64
524.44	34445.66
524.61	34319.28
524.78	34731.21
524.96	34319.28
525.13	34932.50
525.30	34714.83
525.47	35255.49
525.64	35051.86
525.81	35269.53
525.98	35316.34
526.16	35447.41
526.33	35035.48
526.50	35737.64
526.67	35115.06
526.84	35264.85
527.01	35608.91
527.18	35459.12
527.36	35196.98
527.53	35948.29
527.70	35601.89
527.87	36013.82
528.04	35749.34
528.21	35730.62
528.38	35857.01
528.55	35967.01
528.72	36465.55
528.89	35632.32
529.07	35857.01
529.24	36070.00
529.41	36414.05
529.58	36006.80
529.75	36336.82
529.92	36439.80
530.09	36528.74
530.26	36737.05
530.43	36465.55
530.60	37020.25
530.77	36517.04
530.94	36795.56
531.11	36538.10
531.28	36804.92
531.46	36811.95
531.63	37294.10
531.80	36760.45
531.97	37266.01
532.14	37333.89
532.31	37174.73
532.48	37474.32
532.65	37198.13
532.82	37394.74
532.99	37694.33
533.16	37050.68
533.33	37610.07
533.50	37507.08
533.67	37364.31
533.84	37525.81
534.01	37958.81
534.18	37432.19
534.35	38155.41
534.52	38129.67
534.69	38092.22
534.86	38555.64
535.03	37986.89
535.20	38356.70
535.37	38410.53
535.54	38670.33
535.71	38000.94
535.88	38087.54
536.05	38026.68
536.22	38300.53
536.38	38576.71
536.55	38728.84
536.72	38415.21
536.89	38316.91
537.06	38635.22
537.23	38920.77
537.40	38352.02
537.57	38410.53
537.74	38710.12
537.91	39002.69
538.08	39063.54
538.25	38525.22
538.42	38988.64
538.59	39328.02
538.75	39466.11
538.92	39175.89
539.09	39140.78
539.26	39632.29
539.43	39187.59
539.60	39342.06
539.77	39292.91
539.94	39278.87
540.11	39562.08
540.28	39526.97
540.44	39316.32
540.61	39150.14
540.78	39562.08
540.95	39821.87
541.12	39281.21
541.29	39744.64
541.46	39948.26
541.62	39714.21
541.79	40278.28
541.96	39814.85
542.13	39175.89
542.30	39629.95
542.47	39784.43
542.63	40027.84
542.80	40299.34
542.97	40488.93
543.14	40615.32
543.31	40247.85
543.48	40526.38
543.64	40825.96
543.81	40776.81
543.98	40545.10
544.15	40687.87
544.32	40950.01
544.48	40837.67
544.65	40856.39
544.82	41212.15
544.99	40849.37
545.16	40879.80
545.32	40872.78
545.49	41137.26
545.66	41766.86
545.83	40973.42
546.00	41392.37
546.16	41373.65
546.33	40994.48
546.50	41081.08
546.67	41895.59
546.83	40659.79
547.00	41170.02
547.17	41038.95
547.34	41759.84
547.50	41839.42
547.67	41741.11
547.84	41851.12
548.00	41586.64
548.17	41846.44
548.34	42078.15
548.51	41923.68
548.67	41715.37
548.84	41879.21
549.01	41996.23
549.18	41837.08
549.34	42134.32
549.51	42089.85
549.68	42454.98
549.84	42234.97
550.01	42127.30
550.18	41984.53
550.34	42380.08
550.51	42595.41
550.68	42656.26
550.84	42052.41
551.01	42546.26
551.18	42356.67
551.34	42075.81
551.51	42658.60
551.68	42230.29
551.84	42777.97
552.01	42579.03
552.18	43154.80
552.34	42604.77
552.51	42965.21
552.68	42459.66
552.84	42667.97
553.01	43012.02
553.18	42625.84
553.34	42859.89
553.51	42852.87
553.67	42960.53
553.84	43054.15
554.01	43313.95
554.17	42953.51
554.34	43166.50
554.51	43194.59
554.67	43349.06
554.84	43173.52
555.00	43283.53
555.17	43615.88
555.33	43529.28
555.50	43297.57
555.67	43496.52
555.83	43543.33
556.00	43662.69
556.16	43847.60
556.33	43915.47
556.50	43445.02
556.66	43498.86
556.83	43730.57
556.99	43749.29
557.16	44072.29
557.32	43770.36
557.49	43660.35
557.65	43461.41
557.82	43648.65
557.98	43824.19
558.15	43875.68
558.32	43625.25
558.48	43917.81
558.65	43842.92
558.81	44011.43
558.98	43810.15
559.14	43473.11
559.31	43849.94
559.47	43941.22
559.64	43999.73
559.80	43669.72
559.97	44524.01
560.13	43873.34
560.30	44048.88
560.46	44472.52
560.63	44114.42
560.79	44264.21
560.96	44367.20
561.12	44128.46
561.29	44437.41
561.45	44629.34
561.61	44802.53
561.78	44617.63
561.94	44315.70
562.11	44238.47
562.27	44495.92
562.44	44587.21
562.60	44868.07
562.77	44540.39
562.93	44233.78
563.10	44842.32
563.26	44713.59
563.42	45092.76
563.59	44414.01
563.75	44252.51
563.92	44444.43
564.08	44498.26
564.24	44505.29
564.41	44622.31
564.57	44732.32
564.74	44399.96
564.90	44636.36
565.07	44882.11
565.23	44605.93
565.39	44556.78
565.56	45263.62
565.72	44711.25
565.88	44994.46
566.05	44854.03
566.21	44596.57
566.38	44926.58
566.54	45069.36
566.70	44816.58
566.87	44851.69
567.03	44828.28
567.19	45027.23
567.36	44870.41
567.52	45064.67
567.68	45310.43
567.85	44751.04
568.01	45181.70
568.17	44662.10
568.34	45200.43
568.50	45155.96
568.66	45027.23
568.83	45057.65
568.99	45015.52
569.15	45305.75
569.32	44781.47
569.48	45041.27
569.64	45652.15
569.81	45244.90
569.97	45343.20
570.13	45722.37
570.30	45008.50
570.46	45221.49
570.62	45610.02
570.78	45418.10
570.95	45240.21
571.11	45703.64
571.27	45373.63
571.43	45333.84
571.60	45284.68
571.76	44980.42
571.92	45382.99
572.09	45301.07
572.25	45024.89
572.41	44772.11
572.57	45546.82
572.74	45738.75
572.90	45481.29
573.06	45282.34
573.22	45474.27
573.38	45813.65
573.55	45415.76
573.71	45897.91
573.87	45858.12
574.03	45801.94
574.20	46000.89
574.36	45771.52
574.52	46040.68
574.68	45544.48
574.84	45666.19
575.01	45595.98
575.17	45949.40
575.33	45645.13
575.49	45523.42
575.65	45925.99
575.82	45778.54
575.98	45551.51
576.14	46220.90
576.30	45996.21
576.46	45759.81
576.62	45799.60
576.79	45769.18
576.95	45268.30
577.11	45298.73
577.27	46050.04
577.43	45645.13
577.59	45727.05
577.75	45450.86
577.92	45436.82
578.08	45872.16
578.24	45762.15
578.40	45815.99
578.56	45698.96
578.72	45830.03
578.88	45963.44
579.04	45565.55
579.21	45916.63
579.37	46122.60
579.53	45958.76
579.69	45574.91
579.85	45687.26
580.01	45925.99
580.17	45811.31
580.33	45986.85
580.49	45677.90
580.65	46328.56
580.82	46014.93
580.98	45811.31
581.14	45495.33
581.30	45904.93
581.46	45715.34
581.62	45586.61
581.78	45116.17
581.94	46066.42
582.10	45940.04
582.26	45581.93
582.42	45593.64
582.58	45797.26
582.74	45734.07
582.90	45705.98
583.06	45715.34
583.22	45743.43
583.38	45909.61
583.54	46078.13
583.70	45572.57
583.86	45954.08
584.02	46024.29
584.18	46607.09
584.34	46005.57
584.50	45975.14
584.66	46192.81
584.82	46010.25
584.98	46714.75
585.14	45930.67
585.30	46026.63
585.46	46082.81
585.62	46138.98
585.78	46092.17
585.94	45797.26
586.10	45893.22
586.26	45804.28
586.42	46050.04
586.58	46258.35
586.74	46031.32
586.90	46000.89
587.06	46057.06
587.22	46478.36
587.38	45736.41
587.54	46305.16
587.70	46405.80
587.86	46258.35
588.02	46101.53
588.18	46206.86
588.34	46134.30
588.49	46061.74
588.65	46604.75
588.81	46349.63
588.97	46176.43
589.13	45911.95
589.29	46206.86
589.45	46131.96
589.61	46459.63
589.77	46487.72
589.93	46380.06
590.08	46429.21
