SpectraSuite Data File
++++++++++++++++++++++++++++++++++++
Date: Fri Oct 25 11:34:39 EDT 2013
User: price-jones
Dark Spectrum Present: No
Reference Spectrum Present: No
Number of Sampled Component Spectra: 1
Spectrometers: USB2+H05261
Integration Time (usec): 100000 (USB2+H05261)
Spectra Averaged: 1 (USB2+H05261)
Boxcar Smoothing: 0 (USB2+H05261)
Correct for Electrical Dark: No (USB2+H05261)
Strobe/Lamp Enabled: No (USB2+H05261)
Correct for Detector Non-linearity: No (USB2+H05261)
Correct for Stray Light: No (USB2+H05261)
Number of Pixels in Processed Spectrum: 2048
>>>>>Begin Processed Spectral Data<<<<<
365.73	330.02
365.92	330.02
366.12	330.02
366.32	124.05
366.52	175.54
366.72	215.33
366.91	140.43
367.11	187.24
367.31	156.82
367.51	121.71
367.70	168.52
367.90	138.09
368.10	210.65
368.30	168.52
368.49	184.90
368.69	208.31
368.89	283.20
369.09	159.16
369.28	191.92
369.48	215.33
369.68	285.55
369.87	205.97
370.07	264.48
370.27	276.18
370.47	304.27
370.66	486.83
370.86	489.17
371.06	512.58
371.25	461.09
371.45	540.66
371.65	538.32
371.84	592.16
372.04	568.75
372.24	568.75
372.44	575.77
372.63	631.94
372.83	545.34
373.03	603.86
373.22	578.11
373.42	547.69
373.62	678.76
373.81	564.07
374.01	580.45
374.21	641.31
374.40	589.82
374.60	704.50
374.79	631.94
374.99	648.33
375.19	685.78
375.38	657.69
375.58	706.84
375.78	645.99
375.97	685.78
376.17	711.52
376.37	587.47
376.56	720.88
376.76	610.88
376.95	664.71
377.15	660.03
377.35	608.54
377.54	720.88
377.74	662.37
377.93	758.33
378.13	671.73
378.33	678.76
378.52	690.46
378.72	676.41
378.91	685.78
379.11	711.52
379.31	674.07
379.50	601.52
379.70	690.46
379.89	713.86
380.09	821.53
380.28	690.46
380.48	669.39
380.68	772.38
380.87	758.33
381.07	746.63
381.26	744.29
381.46	770.04
381.65	784.08
381.85	741.95
382.04	744.29
382.24	699.82
382.43	711.52
382.63	720.88
382.83	751.31
383.02	800.46
383.22	861.32
383.41	844.93
383.61	753.65
383.80	819.19
384.00	826.21
384.19	791.10
384.39	828.55
384.58	821.53
384.78	828.55
384.97	858.98
385.17	882.38
385.36	835.57
385.56	826.21
385.75	877.70
385.95	882.38
386.14	915.15
386.34	861.32
386.53	835.57
386.72	819.19
386.92	777.06
387.11	875.36
387.31	919.83
387.50	840.25
387.70	868.34
387.89	866.00
388.09	837.91
388.28	854.30
388.48	926.85
388.67	847.27
388.86	889.40
389.06	908.13
389.25	814.51
389.45	957.28
389.64	866.00
389.84	976.00
390.03	938.55
390.22	929.19
390.42	870.68
390.61	919.83
390.81	917.49
391.00	938.55
391.19	940.90
391.39	973.66
391.58	954.94
391.78	971.32
391.97	1004.09
392.16	983.02
392.36	933.87
392.55	976.00
392.75	1083.67
392.94	1076.65
393.13	1090.69
393.33	1022.81
393.52	1050.90
393.71	1069.62
393.91	1055.58
394.10	1114.10
394.29	1076.65
394.49	1069.62
394.68	1064.94
394.88	1057.92
395.07	1179.63
395.26	1135.16
395.46	1109.41
395.65	1118.78
395.84	1046.22
396.04	1179.63
396.23	1172.61
396.42	1097.71
396.62	1104.73
396.81	1128.14
397.00	1111.75
397.19	1247.51
397.39	1217.08
397.58	1179.63
397.77	1219.42
397.97	1273.25
398.16	1245.16
398.35	1221.76
398.55	1125.80
398.74	1219.42
398.93	1256.87
399.12	1261.55
399.32	1301.34
399.51	1313.04
399.70	1266.23
399.90	1249.85
400.09	1291.98
400.28	1287.29
400.47	1280.27
400.67	1366.87
400.86	1299.00
401.05	1343.47
401.24	1308.36
401.44	1263.89
401.63	1345.81
401.82	1404.32
402.01	1465.18
402.21	1430.07
402.40	1371.55
402.59	1371.55
402.78	1462.83
402.97	1547.09
403.17	1547.09
403.36	1439.43
403.55	1455.81
403.74	1530.71
403.93	1633.69
404.13	1483.90
404.32	1579.86
404.51	1481.56
404.70	1549.43
404.89	1568.16
405.09	1572.84
405.28	1633.69
405.47	1636.03
405.66	1703.91
405.85	1685.19
406.05	1584.54
406.24	1638.38
406.43	1614.97
406.62	1682.85
406.81	1818.60
407.00	1657.10
407.20	1746.04
407.39	1645.40
407.58	1710.93
407.77	1692.21
407.96	1706.25
408.15	1743.70
408.34	1764.76
408.54	1844.34
408.73	1849.02
408.92	1844.34
409.11	1919.24
409.30	1830.30
409.49	1907.54
409.68	1954.35
409.87	1963.71
410.07	1921.58
410.26	2040.95
410.45	1923.92
410.64	1968.39
410.83	2062.01
411.02	1991.80
411.21	2012.86
411.40	2118.18
411.59	2106.48
411.78	2036.27
411.98	2195.42
412.17	2062.01
412.36	2050.31
412.55	2167.34
412.74	2232.87
412.93	2113.50
413.12	2193.08
413.31	2310.11
413.50	2326.49
413.69	2256.28
413.88	2469.27
414.07	2331.17
414.26	2410.75
414.45	2478.63
414.64	2466.92
414.83	2497.35
415.02	2562.89
415.22	2513.74
415.41	2623.74
415.60	2562.89
415.79	2593.31
415.98	2642.46
416.17	2558.21
416.36	2558.21
416.55	2576.93
416.74	2738.43
416.93	2766.51
417.12	2693.96
417.31	2661.19
417.50	2773.53
417.69	2874.18
417.88	2906.95
418.07	2761.83
418.26	2729.06
418.45	2836.73
418.64	2897.58
418.83	2881.20
419.02	2892.90
419.21	2944.39
419.39	3148.02
419.58	3033.33
419.77	2808.64
419.96	3023.97
420.15	3019.29
420.34	3054.40
420.53	3012.27
420.72	3199.51
420.91	3260.37
421.10	2977.16
421.29	3183.13
421.48	3002.91
421.67	3239.30
421.86	3117.59
422.05	3206.53
422.24	3026.31
422.43	3183.13
422.61	3150.36
422.80	3265.05
422.99	3246.32
423.18	3258.03
423.37	3288.45
423.56	3290.79
423.75	3213.56
423.94	3204.19
424.13	3038.02
424.32	3115.25
424.50	3260.37
424.69	3559.95
424.88	3389.10
425.07	3262.71
425.26	3304.84
425.45	3208.87
425.64	3304.84
425.83	3297.81
426.01	3389.10
426.20	3426.54
426.39	3351.65
426.58	3269.73
426.77	3438.25
426.96	3286.11
427.15	3433.57
427.33	3353.99
427.52	3403.14
427.71	3440.59
427.90	3503.78
428.09	3494.42
428.28	3503.78
428.46	3543.57
428.65	3576.34
428.84	3637.19
429.03	3620.81
429.22	3534.21
429.40	3684.00
429.59	3576.34
429.78	3468.67
429.97	3515.48
430.16	3576.34
430.34	3606.77
430.53	3676.98
430.72	3590.38
430.91	3712.09
431.10	3709.75
431.28	3599.74
431.47	3779.97
431.66	3777.62
431.85	3913.38
432.03	3953.16
432.22	3953.16
432.41	3925.08
432.60	3925.08
432.79	3955.51
432.97	3911.04
433.16	3878.27
433.35	3887.63
433.54	3911.04
433.72	4004.66
433.91	4049.13
434.10	4007.00
434.28	4021.04
434.47	4014.02
434.66	3974.23
434.85	4156.79
435.03	4154.45
435.22	4046.79
435.41	4196.58
435.59	4124.02
435.78	4093.60
435.97	4184.88
436.16	4362.76
436.34	4212.96
436.53	4156.79
436.72	4402.55
436.90	4283.18
437.09	4315.95
437.28	4301.90
437.46	4201.26
437.65	4245.73
437.84	4400.21
438.02	4320.63
438.21	4397.87
438.40	4407.23
438.58	4550.00
438.77	4489.15
438.96	4344.03
439.14	4559.36
439.33	4683.41
439.52	4655.33
439.70	4638.94
439.89	4873.00
440.08	4786.40
440.26	4774.69
440.45	4664.69
440.63	4774.69
440.82	5041.51
441.01	4842.57
441.19	4990.02
441.38	5046.20
441.57	4973.64
441.75	4945.55
441.94	5170.24
442.12	5198.33
442.31	5270.89
442.50	5179.61
442.68	5046.20
442.87	5142.16
443.05	5338.76
443.24	5413.66
443.43	5163.22
443.61	5205.35
443.80	5418.34
443.98	5188.97
444.17	5025.13
444.35	5322.38
444.54	5378.55
444.73	5378.55
444.91	5387.91
445.10	5324.72
445.28	5252.16
445.47	5320.04
445.65	5366.85
445.84	5357.49
446.02	5434.72
446.21	5434.72
446.39	5411.32
446.58	5289.61
446.77	5401.96
446.95	5301.31
447.14	5474.51
447.32	5575.16
447.51	5584.52
447.69	5598.56
447.88	5408.98
448.06	5444.09
448.25	5416.00
448.43	5514.30
448.62	5537.71
448.80	5554.09
448.99	5568.13
449.17	5584.52
449.36	5741.33
449.54	5619.63
449.73	5743.67
449.91	5706.23
450.10	5722.61
450.28	5671.12
450.46	5881.77
450.65	5783.46
450.83	5905.17
451.02	5837.30
451.20	5940.28
451.39	5774.10
451.57	5987.09
451.76	5963.68
451.94	5870.06
452.13	5980.07
452.31	5944.96
452.49	5996.45
452.68	6113.48
452.86	5914.53
453.05	5942.62
453.23	6197.74
453.42	6031.56
453.60	6017.52
453.78	6167.31
453.97	6176.67
454.15	6076.03
454.34	6047.94
454.52	6193.06
454.70	6242.21
454.89	6150.93
455.07	6179.01
455.26	6036.24
455.44	6265.61
455.62	6221.14
455.81	6354.55
455.99	6408.39
456.17	6389.66
456.36	6408.39
456.54	6492.65
456.73	6586.27
456.91	6691.59
457.09	6511.37
457.28	6722.02
457.46	6764.15
457.64	6846.07
457.83	6787.55
458.01	6616.69
458.19	6841.39
458.38	6703.29
458.56	6860.11
458.74	6909.26
458.93	6757.13
459.11	6892.88
459.29	6689.25
459.48	6923.30
459.66	7042.67
459.84	7012.24
460.03	7014.59
460.21	6932.67
460.39	7105.87
460.57	6916.28
460.76	7115.23
460.94	7073.10
461.12	7272.04
461.31	7112.89
461.49	7131.61
461.67	7136.29
461.85	7248.64
462.04	7063.74
462.22	7707.38
462.40	7365.67
462.59	7379.71
462.77	7386.73
462.95	7620.78
463.13	7300.13
463.32	7368.01
463.50	7192.47
463.68	7480.35
463.86	7524.82
464.05	7295.45
464.23	7302.47
464.41	7627.81
464.59	7314.17
464.78	7681.64
464.96	7557.59
465.14	7466.31
465.32	7522.48
465.50	7639.51
465.69	7801.01
465.87	7768.24
466.05	7618.44
466.23	7880.58
466.41	7803.35
466.60	7939.10
466.78	7850.16
466.96	7653.55
467.14	7721.43
467.32	7901.65
467.51	7819.73
467.69	7585.68
467.87	7985.91
468.05	7934.42
468.23	7871.22
468.41	7822.07
468.60	8051.44
468.78	7847.82
468.96	7873.56
469.14	8217.62
469.32	8051.44
469.50	8072.51
469.69	8149.75
469.87	8266.77
470.05	8449.33
470.23	8428.27
470.41	8535.93
470.59	8276.13
470.77	8362.73
470.95	8264.43
471.14	8578.06
471.32	8259.75
471.50	8386.14
471.68	8549.98
471.86	8461.04
472.04	8667.00
472.22	8702.11
472.40	8814.46
472.58	8594.45
472.77	8760.63
472.95	8868.29
473.13	9202.99
473.31	8952.55
473.49	8751.26
473.67	9001.70
473.85	8987.66
474.03	9359.80
474.21	9371.50
474.39	9329.38
474.57	9235.75
474.75	9249.80
474.93	9542.36
475.12	9348.10
475.30	9500.23
475.48	9430.02
475.66	9628.96
475.84	9549.39
476.02	9542.36
476.20	9621.94
476.38	10064.30
476.56	9942.60
476.74	9912.17
476.92	10010.47
477.10	10101.75
477.28	10143.88
477.46	10202.40
477.64	10190.69
477.82	10478.58
478.00	10649.44
478.18	10511.35
478.36	10839.02
478.54	10637.73
478.72	10548.79
478.90	10850.72
479.08	11075.42
479.26	11136.27
479.44	11019.24
479.62	10827.32
479.80	11094.14
479.98	11424.15
480.16	11618.42
480.34	11501.39
480.52	11616.08
480.70	11674.59
480.88	11592.67
481.06	11686.29
481.24	11644.17
481.41	12250.36
481.59	11974.18
481.77	12177.81
481.95	12453.99
482.13	12500.80
482.31	12238.66
482.49	12486.76
482.67	12533.57
482.85	12856.56
483.03	12720.81
483.21	13034.44
483.39	13008.70
483.57	12858.90
483.74	13195.94
483.92	13027.42
484.10	13111.68
484.28	13589.15
484.46	13621.92
484.64	13958.96
484.82	13703.84
485.00	14148.54
485.18	14148.54
485.35	14478.55
485.53	14125.13
485.71	14370.89
485.89	14574.52
486.07	14394.29
486.25	14555.79
486.43	14841.34
486.61	14799.21
486.78	15161.99
486.96	15023.90
487.14	15304.76
487.32	15501.37
487.50	15459.24
487.68	15573.92
487.85	15653.50
488.03	16004.58
488.21	16189.49
488.39	15992.88
488.57	15981.18
488.75	16114.59
488.92	16587.38
489.10	16734.83
489.28	16538.23
489.46	16861.22
489.64	16814.41
489.81	17064.85
489.99	17198.26
490.17	16877.60
490.35	17369.12
490.53	17420.61
490.70	17537.63
490.88	17750.62
491.06	17734.24
491.24	17738.92
491.41	17867.65
491.59	18232.77
491.77	18192.98
491.95	18480.87
492.13	18541.72
492.30	18602.58
492.48	18604.92
492.66	18532.36
492.84	19070.68
493.01	19021.53
493.19	19424.11
493.37	19183.03
493.54	19489.64
493.72	19513.05
493.90	19433.47
494.08	19669.86
494.25	19814.98
494.43	19578.58
494.61	20182.44
494.79	20365.00
494.96	20032.65
495.14	20360.32
495.32	20858.85
495.49	20517.14
495.67	20655.23
495.85	20875.24
496.02	20992.26
496.20	20903.32
496.38	21259.09
496.55	21029.71
496.73	21610.17
496.91	21214.62
497.09	21385.47
497.26	21432.29
497.44	21462.71
497.62	22078.27
497.79	21872.31
497.97	21764.64
498.14	22073.59
498.32	22389.56
498.50	22483.19
498.67	22813.20
498.85	22548.72
499.03	22668.09
499.20	22960.66
499.38	23101.09
499.56	23187.69
499.73	22920.87
499.91	22869.37
500.08	23168.96
500.26	22778.09
500.44	23274.29
500.61	23236.84
500.79	23353.87
500.97	23779.84
501.14	24173.05
501.32	23789.20
501.49	24156.67
501.67	23878.15
501.84	24332.21
502.02	24173.05
502.20	24123.90
502.37	24229.23
502.55	24226.89
502.72	24360.30
502.90	24367.32
503.07	24343.91
503.25	24936.07
503.43	24816.70
503.60	25219.27
503.78	24769.89
503.95	24964.15
504.13	24959.47
504.30	25020.33
504.48	25436.94
504.65	25308.21
504.83	25656.95
505.01	25748.23
505.18	25764.62
505.36	26075.91
505.53	25841.85
505.71	25837.17
505.88	26010.37
506.06	25907.39
506.23	25968.24
506.41	25837.17
506.58	26237.41
506.76	26394.22
506.93	26529.97
507.11	26600.19
507.28	26677.43
507.46	26464.44
507.63	26532.31
507.81	26888.07
507.98	26792.11
508.16	26684.45
508.33	26977.01
508.50	27112.77
508.68	27054.25
508.85	27285.97
509.03	27573.85
509.20	27271.92
509.38	27826.63
509.55	27552.79
509.73	27833.65
509.90	27828.97
510.08	27924.93
510.25	27953.02
510.42	27999.83
510.60	27992.81
510.77	28411.76
510.95	28257.29
511.12	27901.53
511.30	28240.90
511.47	28098.13
511.64	28453.89
511.82	28847.10
511.99	28552.20
512.17	28933.70
512.34	28795.61
512.51	28566.24
512.69	29397.13
512.86	29050.73
513.04	29345.64
513.21	29329.25
513.38	29483.73
513.56	29586.71
513.73	29474.37
513.90	29326.91
514.08	29074.13
514.25	29937.79
514.43	30115.67
514.60	29528.20
514.77	29663.95
514.95	29827.79
515.12	29883.96
515.29	29600.76
515.47	30183.55
515.64	30223.34
515.81	30216.32
515.99	30249.08
516.16	31236.79
516.33	30738.26
516.51	30775.70
516.68	30764.00
516.85	30675.06
517.03	30937.20
517.20	31213.38
517.37	30558.03
517.54	31063.59
517.72	31421.69
517.89	30991.03
518.06	31126.78
518.24	31133.81
518.41	31274.24
518.58	30944.22
518.75	31292.96
518.93	31756.39
519.10	31302.32
519.27	31491.91
519.45	31845.33
519.62	32077.04
519.79	31608.93
519.96	31861.71
520.14	31840.65
520.31	31924.91
520.48	32027.89
520.65	32627.07
520.83	32397.70
521.00	32570.90
521.17	32173.00
521.34	32608.34
521.52	32591.96
521.69	32432.80
521.86	32989.85
522.03	32762.82
522.20	33057.73
522.38	32968.79
522.55	33387.74
522.72	32921.98
522.89	33277.74
523.07	33362.00
523.24	33043.68
523.41	33326.89
523.58	33074.11
523.75	33806.70
523.92	33539.88
524.10	33621.80
524.27	33584.35
524.44	33558.60
524.61	33748.18
524.78	33654.56
524.96	33998.62
525.13	34281.83
525.30	34417.58
525.47	34005.64
525.64	33986.92
525.81	34574.39
525.98	34459.71
526.16	34216.29
526.33	34190.55
526.50	34499.50
526.67	34562.69
526.84	34623.54
527.01	34675.04
527.18	34747.59
527.36	34766.32
527.53	34534.60
527.70	35159.53
527.87	34682.06
528.04	35075.27
528.21	35332.73
528.38	34902.07
528.55	35185.27
528.72	34981.65
528.89	35363.15
529.07	35166.55
529.24	34995.69
529.41	35274.21
529.58	35150.17
529.75	35435.71
529.92	35704.87
530.09	35454.44
530.26	35515.29
530.43	35887.43
530.60	35484.86
530.77	35536.35
530.94	36123.83
531.11	35550.40
531.28	36151.91
531.46	36147.23
531.63	36170.64
531.80	36126.17
531.97	36392.99
532.14	36282.98
532.31	36374.27
532.48	36067.66
532.65	36449.16
532.82	36292.35
532.99	36385.97
533.16	36605.98
533.33	36650.45
533.50	37113.87
533.67	36556.83
533.84	36809.61
534.01	37095.15
534.18	36891.52
534.35	37209.84
534.52	37064.72
534.69	37251.97
534.86	37364.31
535.03	37057.70
535.20	36982.80
535.37	37284.73
535.54	37464.96
535.71	37287.07
535.88	37158.34
536.05	37443.89
536.22	37406.44
536.38	37869.87
536.55	37844.12
536.72	37834.76
536.89	37357.29
537.06	37537.51
537.23	37680.28
537.40	37661.56
537.57	37591.34
537.74	37488.36
537.91	37748.16
538.08	38185.84
538.25	37493.04
538.42	38213.93
538.59	38319.25
538.75	37628.79
538.92	38066.47
539.09	38546.28
539.26	38387.13
539.43	38405.85
539.60	38373.08
539.77	38101.58
539.94	38401.17
540.11	38604.80
540.28	38375.42
540.44	38581.39
540.61	38607.14
540.78	38410.53
540.95	38625.86
541.12	39042.48
541.29	39009.71
541.46	38981.62
541.62	38810.76
541.79	38890.34
541.96	38438.62
542.13	38962.90
542.30	39178.23
542.47	39173.55
542.63	39262.49
542.80	39192.27
542.97	39431.01
543.14	39796.13
543.31	39367.81
543.48	39379.51
543.64	39903.79
543.81	39873.37
543.98	40065.29
544.15	39632.29
544.32	39615.91
544.48	40229.13
544.65	40236.15
544.82	39941.24
544.99	39768.04
545.16	40130.83
545.32	40088.70
545.49	40240.83
545.66	40645.74
545.83	40208.06
546.00	40341.47
546.16	40341.47
546.33	39955.29
546.50	40133.17
546.67	40402.33
546.83	40231.47
547.00	40350.84
547.17	40161.25
547.34	40605.95
547.50	40692.55
547.67	41069.38
547.84	40545.10
548.00	40891.50
548.17	40851.71
548.34	41048.32
548.51	41167.68
548.67	40629.36
548.84	41127.89
549.01	40509.99
549.18	41155.98
549.34	40657.45
549.51	40982.78
549.68	41104.49
549.84	41219.17
550.01	41425.14
550.18	41085.76
550.34	41610.04
550.51	41083.42
550.68	41350.24
550.84	41383.01
551.01	41544.51
551.18	41780.90
551.34	41289.39
551.51	41734.09
551.68	41076.40
551.84	41818.35
552.01	41434.50
552.18	41780.90
552.34	41193.43
552.51	41364.29
552.68	41474.29
552.84	41570.25
553.01	41659.20
553.18	41752.82
553.34	41825.37
553.51	41897.93
553.67	41949.42
553.84	42370.72
554.01	42040.70
554.17	42092.19
554.34	42347.31
554.51	41729.41
554.67	42602.43
554.84	42195.18
555.00	41799.63
555.17	41867.50
555.33	42752.23
555.50	42375.40
555.67	42295.82
555.83	42181.13
556.00	42588.39
556.16	42539.24
556.33	42359.02
556.50	42759.25
556.66	42459.66
556.83	42183.48
556.99	42710.10
557.16	42997.98
557.32	42497.11
557.49	42799.04
557.65	41989.21
557.82	42550.94
557.98	42663.28
558.15	43016.71
558.32	42611.79
558.48	42471.36
558.65	42885.64
558.81	42494.77
558.98	42773.29
559.14	42742.86
559.31	42775.63
559.47	43105.65
559.64	42993.30
559.80	43105.65
559.97	43007.34
560.13	42642.22
560.30	42955.85
560.46	43398.21
560.63	43562.05
560.79	43587.80
560.96	43522.26
561.12	43871.00
561.29	43421.62
561.45	43360.76
561.61	42946.49
561.78	43072.88
561.94	43220.33
562.11	43220.33
562.27	43580.78
562.44	43639.29
562.60	43660.35
562.77	43697.80
562.93	43248.42
563.10	43512.90
563.26	43491.83
563.42	43550.35
563.59	42979.26
563.75	43700.14
563.92	43384.17
564.08	43388.85
564.24	43423.96
564.41	43622.90
564.57	43718.87
564.74	43936.54
564.90	43622.90
565.07	43639.29
565.23	43578.43
565.39	43690.78
565.56	43868.66
565.72	43423.96
565.88	43842.92
566.05	43800.79
566.21	43770.36
566.38	43618.22
566.54	43723.55
566.70	43812.49
566.87	43875.68
567.03	43798.44
567.19	44205.70
567.36	43976.33
567.52	44116.76
567.68	43847.60
567.85	44151.87
568.01	44306.34
568.17	43995.05
568.34	44189.31
568.50	43948.24
568.66	43608.86
568.83	43990.37
568.99	44194.00
569.15	44493.58
569.32	43662.69
569.48	43896.75
569.64	44322.72
569.81	44355.49
569.97	44231.44
570.13	44395.28
570.30	44245.49
570.46	44268.89
570.62	44130.80
570.78	44126.12
570.95	44271.23
571.11	44418.69
571.27	44011.43
571.43	44191.65
571.60	44051.22
571.76	44109.74
571.92	44105.06
572.09	43805.47
572.25	44156.55
572.41	44584.86
572.57	44388.26
572.74	44542.74
572.90	43957.60
573.06	44355.49
573.22	44816.58
573.38	44868.07
573.55	44774.45
573.71	44931.26
573.87	44741.68
574.03	44006.75
574.20	44692.53
574.36	44245.49
574.52	44524.01
574.68	44516.99
574.84	44772.11
575.01	44540.39
575.17	45202.77
575.33	44514.65
575.49	44570.82
575.65	44463.16
575.82	44804.88
575.98	44201.02
576.14	44872.75
576.30	44680.83
576.46	44886.79
576.62	44729.98
576.79	45043.61
576.95	44320.38
577.11	44322.72
577.27	44617.63
577.43	44453.79
577.59	44533.37
577.75	44486.56
577.92	44479.54
578.08	44701.89
578.24	44828.28
578.40	44521.67
578.56	44790.83
578.72	44769.77
578.88	44987.44
579.04	44828.28
579.21	44224.42
579.37	44786.15
579.53	44882.11
579.69	44680.83
579.85	44479.54
580.01	44692.53
580.17	44502.95
580.33	44610.61
580.49	45106.80
580.65	45113.83
580.82	44484.22
580.98	44378.90
581.14	44542.74
581.30	44460.82
581.46	44542.74
581.62	44678.49
581.78	45043.61
581.94	45057.65
582.10	45162.98
582.26	44940.63
582.42	44877.43
582.58	45020.20
582.74	45090.42
582.90	45013.18
583.06	44957.01
583.22	44673.81
583.38	44994.46
583.54	44643.38
583.70	44746.36
583.86	44945.31
584.02	44671.46
584.18	45317.45
584.34	44811.90
584.50	45088.08
584.66	45134.89
584.82	44729.98
584.98	45443.84
585.14	45017.86
585.30	44786.15
585.46	44839.98
585.62	44854.03
585.78	44933.60
585.94	44900.84
586.10	45071.70
586.26	44814.24
586.42	44755.72
586.58	44903.18
586.74	44849.35
586.90	44793.17
587.06	44917.22
587.22	45038.93
587.38	44666.78
587.54	45343.20
587.70	45223.83
587.86	44982.76
588.02	44858.71
588.18	45485.97
588.34	44877.43
588.49	45020.20
588.65	45109.14
588.81	45270.64
588.97	45357.24
589.13	45092.76
589.29	45160.64
589.45	45422.78
589.61	45343.20
589.77	45422.78
589.93	44931.26
590.08	45343.20
