SpectraSuite Data File
++++++++++++++++++++++++++++++++++++
Date: Fri Oct 25 11:23:22 EDT 2013
User: price-jones
Dark Spectrum Present: No
Reference Spectrum Present: No
Number of Sampled Component Spectra: 1
Spectrometers: USB2+H05261
Integration Time (usec): 100000 (USB2+H05261)
Spectra Averaged: 1 (USB2+H05261)
Boxcar Smoothing: 0 (USB2+H05261)
Correct for Electrical Dark: No (USB2+H05261)
Strobe/Lamp Enabled: No (USB2+H05261)
Correct for Detector Non-linearity: No (USB2+H05261)
Correct for Stray Light: No (USB2+H05261)
Number of Pixels in Processed Spectrum: 2048
>>>>>Begin Processed Spectral Data<<<<<
365.73	212.99
365.92	212.99
366.12	212.99
366.32	175.54
366.52	110.01
366.72	124.05
366.91	110.01
367.11	105.32
367.31	93.62
367.51	105.32
367.70	124.05
367.90	93.62
368.10	128.73
368.30	177.88
368.49	215.33
368.69	135.75
368.89	161.50
369.09	182.56
369.28	182.56
369.48	175.54
369.68	145.11
369.87	231.71
370.07	168.52
370.27	255.12
370.47	292.57
370.66	582.79
370.86	608.54
371.06	653.01
371.25	725.57
371.45	704.50
371.65	716.20
371.84	699.82
372.04	702.16
372.24	741.95
372.44	772.38
372.63	746.63
372.83	720.88
373.03	690.46
373.22	760.67
373.42	746.63
373.62	767.70
373.81	840.25
374.01	716.20
374.21	809.83
374.40	739.61
374.60	767.70
374.79	753.65
374.99	784.08
375.19	807.48
375.38	889.40
375.58	833.23
375.78	816.85
375.97	840.25
376.17	882.38
376.37	915.15
376.56	784.08
376.76	805.14
376.95	873.02
377.15	809.83
377.35	875.36
377.54	903.45
377.74	912.81
377.93	821.53
378.13	851.96
378.33	873.02
378.52	929.19
378.72	915.15
378.91	1048.56
379.11	903.45
379.31	870.68
379.50	952.60
379.70	952.60
379.89	1004.09
380.09	882.38
380.28	1029.84
380.48	978.34
380.68	966.64
380.87	976.00
381.07	1004.09
381.26	1034.52
381.46	1001.75
381.65	908.13
381.85	1013.45
382.04	1011.11
382.24	1029.84
382.43	1111.75
382.63	1008.77
382.83	1097.71
383.02	1069.62
383.22	1174.95
383.41	1153.88
383.61	1048.56
383.80	1165.59
384.00	1067.28
384.19	1095.37
384.39	1144.52
384.58	1074.31
384.78	1149.20
384.97	1121.12
385.17	1174.95
385.36	1121.12
385.56	1163.25
385.75	1086.01
385.95	1242.82
386.14	1062.60
386.34	1137.50
386.53	1259.21
386.72	1177.29
386.92	1341.13
387.11	1163.25
387.31	1184.31
387.50	1249.85
387.70	1240.48
387.89	1256.87
388.09	1259.21
388.28	1233.46
388.48	1308.36
388.67	1299.00
388.86	1289.64
389.06	1270.91
389.25	1261.55
389.45	1331.76
389.64	1294.32
389.84	1352.83
390.03	1320.06
390.22	1378.58
390.42	1324.74
390.61	1373.89
390.81	1345.81
391.00	1394.96
391.19	1406.66
391.39	1373.89
391.58	1439.43
391.78	1434.75
391.97	1390.28
392.16	1411.34
392.36	1479.22
392.55	1504.96
392.75	1519.01
392.94	1612.63
393.13	1549.43
393.33	1526.03
393.52	1514.33
393.71	1537.73
393.91	1556.46
394.10	1666.46
394.29	1624.33
394.49	1519.01
394.68	1638.38
394.88	1523.69
395.07	1544.75
395.26	1621.99
395.46	1708.59
395.65	1757.74
395.84	1643.06
396.04	1680.50
396.23	1732.00
396.42	1767.10
396.62	1778.81
396.81	1781.15
397.00	1809.23
397.19	1764.76
397.39	1706.25
397.58	1788.17
397.77	1746.04
397.97	1858.39
398.16	1757.74
398.35	1888.81
398.55	1888.81
398.74	1802.21
398.93	1982.43
399.12	1900.52
399.32	1886.47
399.51	1898.17
399.70	2071.37
399.90	1895.83
400.09	1982.43
400.28	1980.09
400.47	2031.58
400.67	1966.05
400.86	1982.43
401.05	1998.82
401.24	2001.16
401.44	2157.97
401.63	2179.04
401.82	2172.02
402.01	2104.14
402.21	2097.12
402.40	2120.53
402.59	2232.87
402.78	2253.94
402.97	2282.02
403.17	2211.81
403.36	2284.36
403.55	2211.81
403.74	2289.04
403.93	2251.60
404.13	2356.92
404.32	2410.75
404.51	2347.56
404.70	2326.49
404.89	2286.70
405.09	2452.88
405.28	2480.97
405.47	2394.37
405.66	2438.84
405.85	2485.65
406.05	2619.06
406.24	2476.29
406.43	2480.97
406.62	2532.46
406.81	2579.27
407.00	2635.44
407.20	2597.99
407.39	2619.06
407.58	2705.66
407.77	2656.51
407.96	2787.58
408.15	2745.45
408.34	2696.30
408.54	2860.13
408.73	2775.88
408.92	2832.05
409.11	2818.00
409.30	2806.30
409.49	2871.84
409.68	2857.79
409.87	2867.16
410.07	2967.80
410.26	2937.37
410.45	2981.84
410.64	3009.93
410.83	2944.39
411.02	3103.55
411.21	3152.70
411.40	3157.38
411.59	3229.94
411.78	3229.94
411.98	3089.51
412.17	3159.72
412.36	3159.72
412.55	3281.43
412.74	3391.44
412.93	3288.45
413.12	3309.52
413.31	3616.13
413.50	3517.83
413.69	3489.74
413.88	3662.94
414.07	3466.33
414.26	3566.98
414.45	3653.58
414.64	3613.79
414.83	3702.73
415.02	3716.77
415.22	3691.02
415.41	3878.27
415.60	3873.59
415.79	3812.73
415.98	3857.20
416.17	3904.01
416.36	3974.23
416.55	3934.44
416.74	3843.16
416.93	4161.47
417.12	4098.28
417.31	4273.82
417.50	4208.28
417.69	4182.54
417.88	4308.93
418.07	4234.03
418.26	4292.54
418.45	4243.39
418.64	4404.89
418.83	4505.53
419.02	4348.72
419.21	4482.13
419.39	4505.53
419.58	4407.23
419.77	4482.13
419.96	4477.44
420.15	4690.43
420.34	4479.79
420.53	4601.49
420.72	4643.62
420.91	4709.16
421.10	4791.08
421.29	4641.28
421.48	4695.11
421.67	4774.69
421.86	4781.71
422.05	4723.20
422.24	4734.90
422.43	4812.14
422.61	4779.37
422.80	4910.44
422.99	4908.10
423.18	4926.83
423.37	5116.41
423.56	4875.34
423.75	4784.06
423.94	4709.16
424.13	4517.23
424.32	4704.48
424.50	5043.85
424.69	5104.71
424.88	5034.49
425.07	5029.81
425.26	4873.00
425.45	4877.68
425.64	4856.61
425.83	4882.36
426.01	5095.35
426.20	4891.72
426.39	4999.38
426.58	5004.07
426.77	5090.67
426.96	5121.09
427.15	5132.79
427.33	5036.83
427.52	5071.94
427.71	5107.05
427.90	5317.70
428.09	5359.83
428.28	5259.18
428.46	5401.96
428.65	5315.36
428.84	5472.17
429.03	5516.64
429.22	5167.90
429.40	5563.45
429.59	5444.09
429.78	5210.03
429.97	5231.10
430.16	5432.38
430.34	5659.42
430.53	5863.04
430.72	5710.91
430.91	5591.54
431.10	5678.14
431.28	5724.95
431.47	5675.80
431.66	5867.72
431.85	5666.44
432.03	5874.74
432.22	5881.77
432.41	5870.06
432.60	5912.19
432.79	5858.36
432.97	6012.84
433.16	5949.64
433.35	6059.65
433.54	6045.60
433.72	6125.18
433.91	5977.73
434.10	6040.92
434.28	6076.03
434.47	6101.78
434.66	6101.78
434.85	6186.04
435.03	6207.10
435.22	6352.21
435.41	6312.42
435.59	6314.77
435.78	6424.77
435.97	6401.37
436.16	6403.71
436.34	6375.62
436.53	6504.35
436.72	6658.82
436.90	6548.82
437.09	6494.99
437.28	6441.15
437.46	6502.01
437.65	6712.66
437.84	6616.69
438.02	6785.21
438.21	6754.79
438.40	6801.60
438.58	7045.01
438.77	6932.67
438.96	6782.87
439.14	7119.91
439.33	7028.63
439.52	7063.74
439.70	7110.55
439.89	7344.60
440.08	7229.91
440.26	7456.95
440.45	7274.38
440.63	7550.57
440.82	7578.65
441.01	7349.28
441.19	7639.51
441.38	7620.78
441.57	7693.34
441.75	7763.56
441.94	7953.14
442.12	7978.89
442.31	7927.39
442.50	8049.10
442.68	7992.93
442.87	8063.15
443.05	8116.98
443.24	8264.43
443.43	8053.78
443.61	8065.49
443.80	8334.65
443.98	7983.57
444.17	7920.37
444.35	8163.79
444.54	8266.77
444.73	8215.28
444.91	8292.52
445.10	8280.82
445.28	8259.75
445.47	8145.06
445.65	8304.22
445.84	8079.53
446.02	8535.93
446.21	8432.95
446.39	8287.84
446.58	8299.54
446.77	8519.55
446.95	8116.98
447.14	8472.74
447.32	8496.14
447.51	8229.32
447.69	8430.61
447.88	8510.19
448.06	8360.39
448.25	8477.42
448.43	8458.70
448.62	8524.23
448.80	8379.12
448.99	8683.39
449.17	8622.53
449.36	8500.83
449.54	8727.86
449.73	9071.92
449.91	9020.42
450.10	8947.87
450.28	8849.57
450.46	9008.72
450.65	8950.21
450.83	9191.28
451.02	9006.38
451.20	9146.81
451.39	9221.71
451.57	9149.15
451.76	9032.13
451.94	9060.21
452.13	9296.61
452.31	9324.69
452.49	9179.58
452.68	9296.61
452.86	9291.93
453.05	9362.14
453.23	9385.55
453.42	9221.71
453.60	9240.44
453.78	9563.43
453.97	9387.89
454.15	9460.45
454.34	9448.74
454.52	9619.60
454.70	9650.03
454.89	9664.07
455.07	9778.76
455.26	9593.86
455.44	10003.45
455.62	9844.29
455.81	9909.83
455.99	10171.97
456.17	10143.88
456.36	9970.68
456.54	10237.50
456.73	10223.46
456.91	10349.85
457.09	10359.21
457.28	10602.63
457.46	10183.67
457.64	10335.81
457.83	10382.62
458.01	10361.55
458.19	10576.88
458.38	10558.16
458.56	10553.48
458.74	10555.82
458.93	10628.37
459.11	10665.82
459.29	10607.31
459.48	10963.07
459.66	10780.51
459.84	10747.74
460.03	10986.47
460.21	11007.54
460.39	11091.80
460.57	10885.83
460.76	11103.50
460.94	11131.59
461.12	11089.46
461.31	11075.42
461.49	11044.99
461.67	11201.80
461.85	11389.05
462.04	11197.12
462.22	11391.39
462.40	11445.22
462.59	11506.07
462.77	11473.31
462.95	11494.37
463.13	11529.48
463.32	11494.37
463.50	11800.98
463.68	11789.28
463.86	11875.88
464.05	11676.93
464.23	11522.46
464.41	11707.36
464.59	11569.27
464.78	11939.07
464.96	12051.42
465.14	11798.64
465.32	11920.35
465.50	12004.61
465.69	12032.69
465.87	12287.81
466.05	12196.53
466.23	12046.74
466.41	12191.85
466.60	12442.29
466.78	12053.76
466.96	12290.15
467.14	12346.33
467.32	12156.74
467.51	12341.64
467.69	12428.24
467.87	12425.90
468.05	12430.59
468.23	12280.79
468.41	12505.48
468.60	12278.45
468.78	12641.23
468.96	12559.31
469.14	12727.83
469.32	12748.90
469.50	12650.60
469.69	12835.50
469.87	12989.97
470.05	13193.60
470.23	12975.93
470.41	12940.82
470.59	13174.88
470.77	13083.59
470.95	12910.40
471.14	13561.06
471.32	13205.30
471.50	13392.55
471.68	13429.99
471.86	13603.19
472.04	13689.79
472.22	13994.06
472.40	13816.18
472.58	13422.97
472.77	14033.85
472.95	14125.13
473.13	14436.42
473.31	13774.05
473.49	14155.56
473.67	14050.24
473.85	14251.52
474.03	14232.80
474.21	14476.21
474.39	14712.61
474.57	14473.87
474.75	14885.81
474.93	14934.96
475.12	14757.08
475.30	15051.99
475.48	15070.71
475.66	14993.47
475.84	15236.89
476.02	15342.21
476.20	15470.94
476.38	15838.41
476.56	15922.66
476.74	15896.92
476.92	15840.75
477.10	15646.48
477.28	15941.39
477.46	15903.94
477.64	16198.85
477.82	16552.27
478.00	16774.62
478.18	16730.15
478.36	16814.41
478.54	17095.27
478.72	16776.96
478.90	17167.83
479.08	17610.19
479.26	17448.69
479.44	17495.50
479.62	17738.92
479.80	17926.16
479.98	18197.67
480.16	18663.43
480.34	18415.34
480.52	18480.87
480.70	18682.16
480.88	18356.82
481.06	18487.89
481.24	18848.33
481.41	19138.56
481.59	19164.31
481.77	19339.85
481.95	19541.13
482.13	19866.47
482.31	19559.86
482.49	20105.20
482.67	19981.15
482.85	20336.91
483.03	20512.46
483.21	20666.93
483.39	20861.19
483.57	20807.36
483.74	21174.83
483.92	21305.90
484.10	21074.18
484.28	21631.23
484.46	21886.35
484.64	22410.63
484.82	21846.56
485.00	22057.21
485.18	23089.38
485.35	22902.14
485.53	22897.46
485.71	22850.65
485.89	23573.88
486.07	22941.93
486.25	23482.59
486.43	23473.23
486.61	23665.16
486.78	24287.74
486.96	24095.82
487.14	24294.76
487.32	24343.91
487.50	25104.59
487.68	25010.96
487.85	25069.48
488.03	25364.39
488.21	25907.39
488.39	25921.43
488.57	25727.17
488.75	26146.12
488.92	26581.46
489.10	26689.13
489.28	26742.96
489.46	27175.96
489.64	27236.81
489.81	27562.15
489.99	27770.46
490.17	27562.15
490.35	27873.44
490.53	28177.71
490.70	28002.17
490.88	28297.08
491.06	28727.74
491.24	28383.68
491.41	29043.71
491.59	29460.32
491.77	29352.66
491.95	29633.52
492.13	29310.53
492.30	29799.70
492.48	30089.93
492.66	30089.93
492.84	30127.38
493.01	30569.74
493.19	30244.40
493.37	31026.14
493.54	31269.56
493.72	31529.36
493.90	31517.65
494.08	31784.48
494.25	32217.47
494.43	31784.48
494.61	31952.99
494.79	32025.55
494.96	32315.78
495.14	32648.13
495.32	33251.99
495.49	33090.49
495.67	32994.53
495.85	33179.43
496.02	33649.88
496.20	33567.96
496.38	34361.40
496.55	33804.36
496.73	34873.98
496.91	34536.94
497.09	34487.79
497.26	34780.36
497.44	34682.06
497.62	35253.15
497.79	35470.82
497.97	35339.75
498.14	35849.99
498.32	35672.10
498.50	36318.09
498.67	36446.82
498.85	36561.51
499.03	36603.64
499.20	36591.94
499.38	36584.91
499.56	36584.91
499.73	36907.91
499.91	37102.17
500.08	37591.34
500.26	37034.30
500.44	37624.11
500.61	37846.46
500.79	37633.47
500.97	37883.91
501.14	38153.07
501.32	38440.96
501.49	38660.97
501.67	38328.61
501.84	38735.87
502.02	38600.12
502.20	39096.31
502.37	39236.74
502.55	39100.99
502.72	39550.37
502.90	39445.05
503.07	39838.26
503.25	39529.31
503.43	39913.16
503.60	39915.50
503.78	40306.37
503.95	40315.73
504.13	40463.18
504.30	40369.56
504.48	40514.67
504.65	40411.69
504.83	40978.10
505.01	41027.25
505.18	40893.84
505.36	41254.28
505.53	40772.13
505.71	41186.41
505.88	41453.23
506.06	41144.28
506.23	41661.54
506.41	41736.43
506.58	41993.89
506.76	42410.51
506.93	42288.80
507.11	42157.73
507.28	42415.19
507.46	42656.26
507.63	42937.13
507.81	43318.64
507.98	42663.28
508.16	42962.87
508.33	43253.10
508.50	43281.19
508.68	43313.95
508.85	43709.50
509.03	43643.97
509.20	43316.29
509.38	44128.46
509.55	43985.69
509.73	44421.03
509.90	44928.92
510.08	44524.01
510.25	44299.32
510.42	44430.39
510.60	44811.90
510.77	45024.89
510.95	45153.62
511.12	45003.82
511.30	44957.01
511.47	45209.79
511.64	45394.69
511.82	45888.54
511.99	45591.30
512.17	46117.92
512.34	45869.82
512.51	45958.76
512.69	46508.79
512.86	46436.23
513.04	46689.01
513.21	46550.91
513.38	46293.46
513.56	46564.96
513.73	46539.21
513.90	46665.60
514.08	46916.04
514.25	47023.70
514.43	47224.99
514.60	47498.83
514.77	47086.90
514.95	47407.55
515.12	46951.15
515.29	47377.12
515.47	47826.51
515.64	48065.24
515.81	48016.09
515.99	47870.98
516.16	48355.47
516.33	47924.81
516.51	48594.20
516.68	48271.21
516.85	48769.74
517.03	48851.66
517.20	48980.39
517.37	48999.12
517.54	48889.11
517.72	48507.60
517.89	48828.26
518.06	49284.66
518.24	49146.57
518.41	48849.32
518.58	49193.38
518.75	49212.10
518.93	49081.03
519.10	49427.43
519.27	49773.83
519.45	49254.23
519.62	49827.66
519.79	50085.12
519.96	49663.83
520.14	49822.98
520.31	49947.03
520.48	50211.51
520.65	50333.22
520.83	50136.62
521.00	50670.26
521.17	50660.90
521.34	50644.51
521.52	50850.48
521.69	50794.31
521.86	51096.24
522.03	51075.17
522.20	51330.29
522.38	51089.21
522.55	51206.24
522.72	51299.86
522.89	51180.49
523.07	51569.02
523.24	51468.38
523.41	51742.22
523.58	51433.27
523.75	51906.06
523.92	51562.00
524.10	52072.24
524.27	51945.85
524.44	51838.18
524.61	51831.16
524.78	52128.41
524.96	51526.89
525.13	52013.73
525.30	52083.94
525.47	52076.92
525.64	52624.60
525.81	52140.11
525.98	52631.63
526.16	52491.19
526.33	52690.14
526.50	52783.76
526.67	52652.69
526.84	52753.33
527.01	52540.35
527.18	52896.11
527.36	52676.10
527.53	52940.58
527.70	53191.01
527.87	53404.00
528.04	52954.62
528.21	53078.67
528.38	53343.15
528.55	53315.06
528.72	53291.66
528.89	53436.77
529.07	53282.30
529.24	53176.97
529.41	53553.80
529.58	53670.82
529.75	53471.88
529.92	53485.92
530.09	53893.18
530.26	53886.15
530.43	53921.26
530.60	53748.06
530.77	54017.22
530.94	54171.70
531.11	53888.49
531.28	54017.22
531.46	54061.69
531.63	54459.58
531.80	54092.12
531.97	54220.85
532.14	54391.71
532.31	54447.88
532.48	54417.46
532.65	54492.35
532.82	54356.60
532.99	54780.24
533.16	54415.11
533.33	54756.83
533.50	55065.78
533.67	54686.62
533.84	54468.95
534.01	54789.60
534.18	54976.84
534.35	55007.27
534.52	55014.29
534.69	55285.79
534.86	55112.59
535.03	55000.25
535.20	55269.41
535.37	55215.58
535.54	55274.09
535.71	55014.29
535.88	55271.75
536.05	55458.99
536.22	55374.73
536.38	55505.80
536.55	55690.71
536.72	55487.08
536.89	55482.40
537.06	55608.79
537.23	55903.70
537.40	55763.26
537.57	55613.47
537.74	55707.09
537.91	56018.38
538.08	56023.06
538.25	55592.40
538.42	55721.13
538.59	56016.04
538.75	55765.60
538.92	55950.51
539.09	56198.60
539.26	56037.11
539.43	55767.94
539.60	56296.91
539.77	55978.59
539.94	56465.42
540.11	56285.20
540.28	56360.10
540.44	56289.88
540.61	56378.82
540.78	56334.35
540.95	56140.09
541.12	56301.59
541.29	56435.00
541.46	56603.52
541.62	56561.39
541.79	56556.70
541.96	56411.59
542.13	56676.07
542.30	56406.91
542.47	56685.43
542.63	57001.41
542.80	56940.55
542.97	56975.66
543.14	57102.05
543.31	57031.83
543.48	57207.37
543.64	57542.07
543.81	57350.15
543.98	57305.68
544.15	57172.27
544.32	57148.86
544.48	57446.11
544.65	57179.29
544.82	57261.21
544.99	57237.80
545.16	57446.11
545.32	57343.12
545.49	57446.11
545.66	57474.20
545.83	57712.93
546.00	57598.24
546.16	57623.99
546.33	57497.60
546.50	57022.47
546.67	57385.25
546.83	57359.51
547.00	57633.35
547.17	57726.97
547.34	57609.95
547.50	57811.23
547.67	58108.48
547.84	57944.64
548.00	58042.95
548.17	58159.97
548.34	58073.37
548.51	58099.12
548.67	58267.64
548.84	58211.46
549.01	58078.05
549.18	58117.84
549.34	58014.86
549.51	58181.04
549.68	58438.50
549.84	58239.55
550.01	58246.57
550.18	58066.35
550.34	58492.33
550.51	58560.20
550.68	58518.07
550.84	58122.52
551.01	58438.50
551.18	58541.48
551.34	58548.50
551.51	58347.21
551.68	58475.94
551.84	58541.48
552.01	58185.72
552.18	58740.42
552.34	58508.71
552.51	58464.24
552.68	58522.76
552.84	58717.02
553.01	58829.37
553.18	58471.26
553.34	58815.32
553.51	58569.57
553.67	58817.66
553.84	58719.36
554.01	58791.92
554.17	58920.65
554.34	58906.60
554.51	58808.30
554.67	59028.31
554.84	58904.26
555.00	58937.03
555.17	58857.45
555.33	58976.82
555.50	58927.67
555.67	58831.71
555.83	58899.58
556.00	59213.21
556.16	59358.33
556.33	59093.85
556.50	59128.95
556.66	59229.60
556.83	59042.35
556.99	59323.22
557.16	59290.45
557.32	59503.44
557.49	59618.13
557.65	59217.89
557.82	59297.47
557.98	59269.39
558.15	59391.09
558.32	59508.12
558.48	59161.72
558.65	59465.99
558.81	59573.66
558.98	59634.51
559.14	59615.79
559.31	59416.84
559.47	59552.59
559.64	59524.50
559.80	59812.39
559.97	59772.60
560.13	59587.70
560.30	59690.68
560.46	59697.70
560.63	59667.28
560.79	59756.22
560.96	59721.11
561.12	59660.26
561.29	59807.71
561.45	59693.02
561.61	59856.86
561.78	59784.30
561.94	59882.61
562.11	59842.82
562.27	59920.05
562.44	59856.86
562.60	59828.77
562.77	59957.50
562.93	59824.09
563.10	60107.30
563.26	59749.20
563.42	59943.46
563.59	60062.83
563.75	59796.01
563.92	60121.34
564.08	60081.55
564.24	60142.41
564.41	60027.72
564.57	60130.70
564.74	60020.70
564.90	60100.28
565.07	60102.62
565.23	60111.98
565.39	59999.63
565.56	59978.57
565.72	60184.54
565.88	60151.77
566.05	60126.02
566.21	60030.06
566.38	60156.45
566.54	60095.60
566.70	60168.15
566.87	60280.50
567.03	60147.09
567.19	60317.95
567.36	60423.27
567.52	60142.41
567.68	60465.40
567.85	60303.90
568.01	60413.91
568.17	60189.22
568.34	60308.58
568.50	60226.66
568.66	60207.94
568.83	60271.14
568.99	60371.78
569.15	60243.05
569.32	60046.44
569.48	60252.41
569.64	60264.11
569.81	60252.41
569.97	60362.42
570.13	60355.39
570.30	60301.56
570.46	60484.12
570.62	60643.28
570.78	60479.44
570.95	60245.39
571.11	60605.83
571.27	60430.29
571.43	60378.80
571.60	60673.71
571.76	60662.00
571.92	60643.28
572.09	60559.02
572.25	60509.87
572.41	60542.64
572.57	60502.85
572.74	60811.80
572.90	60622.22
573.06	60477.10
573.22	60549.66
573.38	60622.22
573.55	60477.10
573.71	60746.26
573.87	60652.64
574.03	60378.80
574.20	60561.36
574.36	60463.06
574.52	60636.26
574.68	60683.07
574.84	60633.92
575.01	60720.52
575.17	60692.43
575.33	60500.51
575.49	60568.38
575.65	60755.63
575.82	60760.31
575.98	60666.69
576.14	60734.56
576.30	60942.87
576.46	60617.53
576.62	60573.06
576.79	60537.96
576.95	60608.17
577.11	60589.45
577.27	60849.25
577.43	60846.91
577.59	60563.70
577.75	60608.17
577.92	60404.55
578.08	60491.15
578.24	60722.86
578.40	60966.27
578.56	60809.46
578.72	60896.06
578.88	60907.76
579.04	61106.71
579.21	60938.19
579.37	60907.76
579.53	60863.29
579.69	60856.27
579.85	60893.72
580.01	60664.35
580.17	60729.88
580.33	60931.17
580.49	61001.38
580.65	60947.55
580.82	60907.76
580.98	60699.45
581.14	60732.22
581.30	61020.11
581.46	60889.04
581.62	61090.32
581.78	60844.57
581.94	60830.52
582.10	60856.27
582.26	60977.98
582.42	60762.65
582.58	61029.47
582.74	60828.18
582.90	60928.83
583.06	60884.36
583.22	60676.05
583.38	60926.49
583.54	60877.33
583.70	60968.61
583.86	60893.72
584.02	60753.29
584.18	61146.50
584.34	60846.91
584.50	60989.68
584.66	60654.98
584.82	60788.39
584.98	61176.92
585.14	61069.26
585.30	60685.41
585.46	60917.12
585.62	60938.19
585.78	61036.49
585.94	60912.44
586.10	60879.67
586.26	60853.93
586.42	61050.53
586.58	61127.77
586.74	60764.99
586.90	60966.27
587.06	60891.38
587.22	61062.24
587.38	60954.57
587.54	61172.24
587.70	61272.88
587.86	60931.17
588.02	61024.79
588.18	61003.72
588.34	60867.97
588.49	60935.85
