SpectraSuite Data File
++++++++++++++++++++++++++++++++++++
Date: Fri Oct 25 11:33:44 EDT 2013
User: price-jones
Dark Spectrum Present: No
Reference Spectrum Present: No
Number of Sampled Component Spectra: 1
Spectrometers: USB2+H05261
Integration Time (usec): 100000 (USB2+H05261)
Spectra Averaged: 1 (USB2+H05261)
Boxcar Smoothing: 0 (USB2+H05261)
Correct for Electrical Dark: No (USB2+H05261)
Strobe/Lamp Enabled: No (USB2+H05261)
Correct for Detector Non-linearity: No (USB2+H05261)
Correct for Stray Light: No (USB2+H05261)
Number of Pixels in Processed Spectrum: 2048
>>>>>Begin Processed Spectral Data<<<<<
365.73	248.10
365.92	248.10
366.12	248.10
366.32	236.39
366.52	220.01
366.72	208.31
366.91	182.56
367.11	241.08
367.31	166.18
367.51	191.92
367.70	140.43
367.90	198.95
368.10	276.18
368.30	280.86
368.49	198.95
368.69	177.88
368.89	273.84
369.09	205.97
369.28	212.99
369.48	177.88
369.68	269.16
369.87	269.16
370.07	292.57
370.27	304.27
370.47	332.36
370.66	442.36
370.86	493.85
371.06	517.26
371.25	535.98
371.45	517.26
371.65	538.32
371.84	507.90
372.04	578.11
372.24	512.58
372.44	559.39
372.63	624.92
372.83	585.13
373.03	559.39
373.22	685.78
373.42	645.99
373.62	596.84
373.81	683.44
374.01	681.10
374.21	627.26
374.40	610.88
374.60	667.05
374.79	702.16
374.99	620.24
375.19	610.88
375.38	608.54
375.58	653.01
375.78	645.99
375.97	688.12
376.17	650.67
376.37	702.16
376.56	669.39
376.76	667.05
376.95	674.07
377.15	676.41
377.35	732.59
377.54	660.03
377.74	744.29
377.93	610.88
378.13	667.05
378.33	671.73
378.52	657.69
378.72	690.46
378.91	732.59
379.11	704.50
379.31	650.67
379.50	690.46
379.70	744.29
379.89	704.50
380.09	795.78
380.28	709.18
380.48	730.25
380.68	706.84
380.87	732.59
381.07	791.10
381.26	758.33
381.46	774.72
381.65	777.06
381.85	791.10
382.04	807.48
382.24	734.93
382.43	763.01
382.63	734.93
382.83	751.31
383.02	833.23
383.22	816.85
383.41	784.08
383.61	798.12
383.80	793.44
384.00	910.47
384.19	798.12
384.39	875.36
384.58	844.93
384.78	844.93
384.97	793.44
385.17	830.89
385.36	861.32
385.56	901.11
385.75	891.74
385.95	924.51
386.14	809.83
386.34	837.91
386.53	805.14
386.72	812.17
386.92	858.98
387.11	910.47
387.31	807.48
387.50	849.61
387.70	849.61
387.89	922.17
388.09	898.77
388.28	882.38
388.48	938.55
388.67	1001.75
388.86	957.28
389.06	870.68
389.25	905.79
389.45	945.58
389.64	950.26
389.84	940.90
390.03	976.00
390.22	950.26
390.42	1069.62
390.61	964.30
390.81	915.15
391.00	947.92
391.19	992.39
391.39	978.34
391.58	1027.50
391.78	1088.35
391.97	1069.62
392.16	1039.20
392.36	1062.60
392.55	1076.65
392.75	1050.90
392.94	1039.20
393.13	1013.45
393.33	1060.26
393.52	1053.24
393.71	1088.35
393.91	1137.50
394.10	1114.10
394.29	1057.92
394.49	1041.54
394.68	1039.20
394.88	1109.41
395.07	1055.58
395.26	1109.41
395.46	1188.99
395.65	1165.59
395.84	1170.27
396.04	1280.27
396.23	1198.35
396.42	1238.14
396.62	1287.29
396.81	1100.05
397.00	1125.80
397.19	1268.57
397.39	1158.57
397.58	1249.85
397.77	1273.25
397.97	1212.40
398.16	1296.66
398.35	1291.98
398.55	1277.93
398.74	1343.47
398.93	1378.58
399.12	1338.79
399.32	1296.66
399.51	1345.81
399.70	1411.34
399.90	1392.62
400.09	1404.32
400.28	1345.81
400.47	1380.92
400.67	1401.98
400.86	1462.83
401.05	1418.36
401.24	1462.83
401.44	1472.20
401.63	1446.45
401.82	1359.85
402.01	1423.05
402.21	1418.36
402.40	1572.84
402.59	1504.96
402.78	1570.50
402.97	1549.43
403.17	1535.39
403.36	1589.22
403.55	1621.99
403.74	1605.61
403.93	1586.88
404.13	1598.59
404.32	1624.33
404.51	1647.74
404.70	1621.99
404.89	1614.97
405.09	1638.38
405.28	1629.01
405.47	1753.06
405.66	1680.50
405.85	1739.02
406.05	1750.72
406.24	1678.16
406.43	1680.50
406.62	1909.88
406.81	1762.42
407.00	1834.98
407.20	1736.68
407.39	1717.95
407.58	1783.49
407.77	1893.49
407.96	1863.07
408.15	1916.90
408.34	1916.90
408.54	1919.24
408.73	1900.52
408.92	1991.80
409.11	1907.54
409.30	2040.95
409.49	1914.56
409.68	1956.69
409.87	1980.09
410.07	2085.42
410.26	2015.20
410.45	1959.03
410.64	2092.44
410.83	2099.46
411.02	2066.69
411.21	2211.81
411.40	2190.74
411.59	2256.28
411.78	2176.70
411.98	2216.49
412.17	2286.70
412.36	2321.81
412.55	2324.15
412.74	2307.77
412.93	2293.72
413.12	2326.49
413.31	2480.97
413.50	2445.86
413.69	2506.71
413.88	2527.78
414.07	2480.97
414.26	2605.02
414.45	2523.10
414.64	2544.16
414.83	2616.72
415.02	2633.10
415.22	2672.89
415.41	2677.57
415.60	2623.74
415.79	2759.49
415.98	2684.59
416.17	2743.11
416.36	2614.38
416.55	2675.23
416.74	2857.79
416.93	2918.65
417.12	2878.86
417.31	2745.45
417.50	2766.51
417.69	2841.41
417.88	2925.67
418.07	2939.71
418.26	3021.63
418.45	3040.36
418.64	3028.65
418.83	2895.24
419.02	3070.78
419.21	3178.45
419.39	3049.72
419.58	3080.14
419.77	3126.96
419.96	3197.17
420.15	3253.34
420.34	3136.32
420.53	3260.37
420.72	3286.11
420.91	3255.69
421.10	3258.03
421.29	3283.77
421.48	3288.45
421.67	3346.97
421.86	3159.72
422.05	3370.37
422.24	3328.24
422.43	3365.69
422.61	3339.94
422.80	3358.67
422.99	3482.72
423.18	3515.48
423.37	3428.88
423.56	3358.67
423.75	3421.86
423.94	3351.65
424.13	3201.85
424.32	3363.35
424.50	3396.12
424.69	3559.95
424.88	3506.12
425.07	3550.59
425.26	3344.63
425.45	3405.48
425.64	3618.47
425.83	3468.67
426.01	3578.68
426.20	3485.06
426.39	3475.70
426.58	3412.50
426.77	3517.83
426.96	3538.89
427.15	3590.38
427.33	3574.00
427.52	3529.53
427.71	3630.17
427.90	3735.50
428.09	3665.28
428.28	3728.47
428.46	3669.96
428.65	3744.86
428.84	3702.73
429.03	3946.14
429.22	3815.07
429.40	3772.94
429.59	3616.13
429.78	3700.39
429.97	3688.68
430.16	3719.11
430.34	3878.27
430.53	3967.21
430.72	3936.78
430.91	3763.58
431.10	3852.52
431.28	3967.21
431.47	3918.06
431.66	4018.70
431.85	3843.16
432.03	3946.14
432.22	4018.70
432.41	4142.75
432.60	4105.30
432.79	3913.38
432.97	4077.21
433.16	4095.94
433.35	4079.55
433.54	4114.66
433.72	4161.47
433.91	4173.18
434.10	4182.54
434.28	4084.23
434.47	4320.63
434.66	4257.43
434.85	4320.63
435.03	4297.22
435.22	4374.46
435.41	4477.44
435.59	4496.17
435.78	4388.50
435.97	4428.29
436.16	4442.34
436.34	4418.93
436.53	4355.74
436.72	4477.44
436.90	4432.97
437.09	4669.37
437.28	4491.49
437.46	4559.36
437.65	4535.96
437.84	4564.04
438.02	4627.24
438.21	4660.01
438.40	4510.21
438.58	4840.23
438.77	5006.41
438.96	4711.50
439.14	4940.87
439.33	4961.94
439.52	4957.25
439.70	5008.75
439.89	4917.47
440.08	5064.92
440.26	5034.49
440.45	5064.92
440.63	5128.11
440.82	5268.55
441.01	5121.09
441.19	5048.54
441.38	5114.07
441.57	5320.04
441.75	5453.45
441.94	5483.88
442.12	5427.70
442.31	5537.71
442.50	5322.38
442.68	5434.72
442.87	5547.07
443.05	5441.75
443.24	5521.32
443.43	5518.98
443.61	5668.78
443.80	5727.29
443.98	5596.22
444.17	5296.63
444.35	5661.76
444.54	5668.78
444.73	5650.05
444.91	5418.34
445.10	5680.48
445.28	5755.38
445.47	5703.89
445.65	5706.23
445.84	5834.96
446.02	5944.96
446.21	5535.37
446.39	5689.84
446.58	5783.46
446.77	5816.23
446.95	5827.93
447.14	5849.00
447.32	5844.32
447.51	5624.31
447.69	5680.48
447.88	5577.50
448.06	5708.57
448.25	5717.93
448.43	5743.67
448.62	5870.06
448.80	5746.02
448.99	6003.47
449.17	5933.26
449.36	5856.02
449.54	6040.92
449.73	6052.63
449.91	6083.05
450.10	6003.47
450.28	6237.53
450.46	6155.61
450.65	5994.11
450.83	6146.25
451.02	6211.78
451.20	6251.57
451.39	6239.87
451.57	6200.08
451.76	6289.02
451.94	6132.20
452.13	6352.21
452.31	6260.93
452.49	6272.64
452.68	6286.68
452.86	6263.27
453.05	6502.01
453.23	6389.66
453.42	6389.66
453.60	6345.19
453.78	6464.56
453.97	6487.96
454.15	6502.01
454.34	6509.03
454.52	6532.44
454.70	6565.20
454.89	6530.09
455.07	6462.22
455.26	6656.48
455.44	6693.93
455.62	6750.10
455.81	6567.54
455.99	6719.68
456.17	6768.83
456.36	6740.74
456.54	6703.29
456.73	6897.56
456.91	6965.43
457.09	7101.19
457.28	7145.66
457.46	6970.12
457.64	7140.97
457.83	7133.95
458.01	7000.54
458.19	7211.19
458.38	7133.95
458.56	7218.21
458.74	7150.34
458.93	7211.19
459.11	7246.30
459.29	7155.02
459.48	7302.47
459.66	7304.81
459.84	7258.00
460.03	7405.46
460.21	7398.43
460.39	7281.41
460.57	7449.93
460.76	7482.69
460.94	7466.31
461.12	7667.60
461.31	7480.35
461.49	7473.33
461.67	7421.84
461.85	7936.76
462.04	7571.63
462.22	8238.69
462.40	7676.96
462.59	7660.57
462.77	7730.79
462.95	7716.75
463.13	7808.03
463.32	7836.11
463.50	7681.64
463.68	7861.86
463.86	8056.12
464.05	7861.86
464.23	7999.95
464.41	8011.65
464.59	7765.90
464.78	7901.65
464.96	8004.63
465.14	7999.95
465.32	8049.10
465.50	8365.07
465.69	8173.15
465.87	8002.29
466.05	8205.92
466.23	8072.51
466.41	8152.09
466.60	8463.38
466.78	8177.83
466.96	8201.24
467.14	8271.45
467.32	8442.31
467.51	8510.19
467.69	8154.43
467.87	8475.08
468.05	8442.31
468.23	8351.03
468.41	8512.53
468.60	8236.35
468.78	8692.75
468.96	8589.77
469.14	8580.40
469.32	8697.43
469.50	8498.49
469.69	8725.52
469.87	8667.00
470.05	8638.92
470.23	8809.78
470.41	8683.39
470.59	8992.34
470.77	8875.31
470.95	9043.83
471.14	9123.41
471.32	8908.08
471.50	8896.38
471.68	9151.49
471.86	9219.37
472.04	9177.24
472.22	9399.59
472.40	9298.95
472.58	9430.02
472.77	9301.29
472.95	9441.72
473.13	9755.35
473.31	9523.64
473.49	9495.55
473.67	9193.62
473.85	9481.51
474.03	9701.52
474.21	9685.14
474.39	9874.72
474.57	9919.19
474.75	9837.27
474.93	10033.88
475.12	9870.04
475.30	10162.61
475.48	10101.75
475.66	10094.73
475.84	10012.81
476.02	10054.94
476.20	10389.64
476.38	10574.54
476.56	10537.09
476.74	10551.14
476.92	10597.95
477.10	10572.20
477.28	10775.83
477.46	10684.55
477.64	10864.77
477.82	10864.77
478.00	11194.78
478.18	11384.37
478.36	11328.19
478.54	11648.85
478.72	11403.09
478.90	11590.33
479.08	11644.17
479.26	11707.36
479.44	11798.64
479.62	11861.84
479.80	12074.82
479.98	11836.09
480.16	12294.83
480.34	12013.97
480.52	12596.76
480.70	12571.02
480.88	12381.43
481.06	12287.81
481.24	12458.67
481.41	12627.19
481.59	12870.61
481.77	12884.65
481.95	13083.59
482.13	13245.09
482.31	12952.52
482.49	13523.62
482.67	13341.05
482.85	13554.04
483.03	13600.85
483.21	13762.35
483.39	13757.67
483.57	13642.98
483.74	13994.06
483.92	13970.66
484.10	14242.16
484.28	14153.22
484.46	14539.41
484.64	14911.55
484.82	14195.35
485.00	14815.59
485.18	14874.10
485.35	15213.48
485.53	15161.99
485.71	15325.83
485.89	15562.22
486.07	15318.81
486.25	15520.09
486.43	15433.49
486.61	15777.55
486.78	15770.53
486.96	15999.90
487.14	15913.30
487.32	16180.12
487.50	16217.57
487.68	16425.88
487.85	16568.65
488.03	16652.91
488.21	16950.16
488.39	16819.09
488.57	17209.96
488.75	17284.86
488.92	17486.14
489.10	17357.41
489.28	17671.04
489.46	18003.40
489.64	17767.01
489.81	17909.78
489.99	18148.51
490.17	18223.41
490.35	18766.42
490.53	18410.65
490.70	18700.88
490.88	18553.43
491.06	18714.92
491.24	19075.37
491.41	19021.53
491.59	19407.72
491.77	19552.84
491.95	19550.49
492.13	19690.93
492.30	19421.77
492.48	19871.15
492.66	19810.29
492.84	19946.05
493.01	20290.10
493.19	20046.69
493.37	20428.20
493.54	20482.03
493.72	20664.59
493.90	20807.36
494.08	21146.74
494.25	20919.71
494.43	21057.80
494.61	21556.33
494.79	21525.91
494.96	21338.66
495.14	21319.94
495.32	21729.53
495.49	21881.67
495.67	21795.07
495.85	21965.93
496.02	22183.60
496.20	22291.26
496.38	22408.29
496.55	22483.19
496.73	22965.34
496.91	22733.62
497.09	23005.13
497.26	23276.63
497.44	23044.91
497.62	22852.99
497.79	23393.65
497.97	23520.04
498.14	23723.67
498.32	23826.65
498.50	23777.50
498.67	24226.89
498.85	23969.43
499.03	24196.46
499.20	24123.90
499.38	24151.99
499.56	24540.52
499.73	24416.47
499.91	24594.35
500.08	24872.87
500.26	24524.13
500.44	24776.91
500.61	24650.52
500.79	24854.15
500.97	25106.93
501.14	25371.41
501.32	25340.98
501.49	25188.85
501.67	25642.91
501.84	25600.78
502.02	25455.67
502.20	25326.94
502.37	26045.48
502.55	25769.30
502.72	25614.82
502.90	26286.56
503.07	26033.78
503.25	26373.16
503.43	26288.90
503.60	26597.85
503.78	26703.17
503.95	26600.19
504.13	26536.99
504.30	26862.33
504.48	27063.61
504.65	26918.50
504.83	27063.61
505.01	27042.55
505.18	27054.25
505.36	27395.97
505.53	27300.01
505.71	27728.33
505.88	27608.96
506.06	27255.54
506.23	27789.18
506.41	27522.36
506.58	27798.54
506.76	27704.92
506.93	28238.56
507.11	28388.36
507.28	28212.82
507.46	28467.94
507.63	28596.67
507.81	28772.21
507.98	28460.91
508.16	28493.68
508.33	28723.05
508.50	28580.28
508.68	28807.31
508.85	28673.90
509.03	28830.72
509.20	29237.97
509.38	29315.21
509.55	29132.65
509.73	29317.55
509.90	29703.74
510.08	29486.07
510.25	29818.42
510.42	29720.12
510.60	29872.26
510.77	29879.28
510.95	29895.66
511.12	30223.34
511.30	30073.54
511.47	30188.23
511.64	30253.76
511.82	30419.94
511.99	30286.53
512.17	30230.36
512.34	30595.48
512.51	31145.51
512.69	30859.96
512.86	30824.86
513.04	30991.03
513.21	31096.36
513.38	31381.90
513.56	31417.01
513.73	31379.56
513.90	31187.64
514.08	31648.72
514.25	31400.63
514.43	31789.16
514.60	31552.76
514.77	32027.89
514.95	31744.69
515.12	32063.00
515.29	31777.45
515.47	32339.18
515.64	32119.17
515.81	31964.70
515.99	32636.43
516.16	32467.91
516.33	32259.60
516.51	32587.28
516.68	32369.61
516.85	32776.86
517.03	32818.99
517.20	32734.73
517.37	32783.88
517.54	33146.67
517.72	33137.30
517.89	33062.41
518.06	33109.22
518.24	33305.82
518.41	33120.92
518.58	33202.84
518.75	33202.84
518.93	33415.83
519.10	33467.32
519.27	33680.31
519.45	33703.71
519.62	33645.20
519.79	33701.37
519.96	33989.26
520.14	33841.81
520.31	33855.85
520.48	34005.64
520.65	34052.45
520.83	34520.56
521.00	34684.40
521.17	34508.86
521.34	34459.71
521.52	34710.14
521.69	34881.00
521.86	34646.95
522.03	35086.97
522.20	34991.01
522.38	35157.19
522.55	34773.34
522.72	35255.49
522.89	35030.80
523.07	35419.33
523.24	35381.88
523.41	35531.67
523.58	35185.27
523.75	35566.78
523.92	35414.65
524.10	35721.26
524.27	35917.86
524.44	35702.53
524.61	35992.76
524.78	35711.89
524.96	36231.49
525.13	36215.11
525.30	36676.19
525.47	36329.80
525.64	36212.77
525.81	36088.72
525.98	36428.10
526.16	36507.68
526.33	36116.81
526.50	36381.29
526.67	36266.60
526.84	36697.26
527.01	36840.03
527.18	36772.16
527.36	37179.41
527.53	37170.05
527.70	37500.06
527.87	37450.91
528.04	36973.44
528.21	37258.99
528.38	37319.84
528.55	37209.84
528.72	37350.27
528.89	37333.89
529.07	37134.94
529.24	37511.77
529.41	37652.20
529.58	37404.10
529.75	37640.50
529.92	37743.48
530.09	37724.75
530.26	37731.78
530.43	37675.60
530.60	37111.53
530.77	37689.65
530.94	37790.29
531.11	37787.95
531.28	37900.29
531.46	38012.64
531.63	38480.75
531.80	38284.14
531.97	37904.98
532.14	38452.66
532.31	38342.66
532.48	38665.65
532.65	38822.47
532.82	38897.36
532.99	39210.99
533.16	38852.89
533.33	38841.19
533.50	38803.74
533.67	38983.96
533.84	39072.90
534.01	39112.69
534.18	39178.23
534.35	39154.82
534.52	39070.56
534.69	39189.93
534.86	39318.66
535.03	39395.90
535.20	39110.35
535.37	39360.79
535.54	39573.78
535.71	39508.24
535.88	39772.72
536.05	39475.48
536.22	39906.13
536.38	39683.78
536.55	39519.95
536.72	40627.02
536.89	39812.51
537.06	39735.27
537.23	40470.20
537.40	40093.38
537.57	39934.22
537.74	40004.44
537.91	40297.00
538.08	39768.04
538.25	40072.31
538.42	40863.41
538.59	40556.80
538.75	40355.52
538.92	40844.69
539.09	40587.23
539.26	40425.73
539.43	40783.83
539.60	40816.60
539.77	40542.76
539.94	40982.78
540.11	40950.01
540.28	40825.96
540.44	40912.56
540.61	40748.73
540.78	40671.49
540.95	40968.74
541.12	41130.23
541.29	41109.17
541.46	40952.35
541.62	41343.22
541.79	41645.15
541.96	40989.80
542.13	41048.32
542.30	41062.36
542.47	41567.91
542.63	41500.04
542.80	42218.58
542.97	41890.91
543.14	42260.71
543.31	41675.58
543.48	41940.06
543.64	42487.74
543.81	42162.41
543.98	41661.54
544.15	42328.59
544.32	42548.60
544.48	42471.36
544.65	42642.22
544.82	42492.43
544.99	41813.67
545.16	42199.86
545.32	41937.72
545.49	42646.90
545.66	42883.30
545.83	42777.97
546.00	42513.49
546.16	42803.72
546.33	42244.33
546.50	42391.78
546.67	42707.76
546.83	42064.11
547.00	42590.73
547.17	42452.64
547.34	43023.73
547.50	43070.54
547.67	43295.23
547.84	42780.31
548.00	43700.14
548.17	43091.60
548.34	43220.33
548.51	43367.79
548.67	43257.78
548.84	43901.43
549.01	43189.91
549.18	43669.72
549.34	43384.17
549.51	43540.99
549.68	43697.80
549.84	43328.00
550.01	43559.71
550.18	43407.58
550.34	43264.80
550.51	43524.60
550.68	44203.36
550.84	43468.43
551.01	44390.60
551.18	43821.85
551.34	44060.58
551.51	43849.94
551.68	44046.54
551.84	43744.61
552.01	43489.49
552.18	44027.82
552.34	44397.62
552.51	44194.00
552.68	44044.20
552.84	44224.42
553.01	44491.24
553.18	44313.36
553.34	44481.88
553.51	44088.67
553.67	44753.38
553.84	44657.42
554.01	44240.81
554.17	44395.28
554.34	44669.12
554.51	44514.65
554.67	44729.98
554.84	44601.25
555.00	44751.04
555.17	44664.44
555.33	44882.11
555.50	44451.45
555.67	44584.86
555.83	44776.79
556.00	44821.26
556.16	44938.29
556.33	44753.38
556.50	45090.42
556.66	44849.35
556.83	45268.30
556.99	45331.50
557.16	45645.13
557.32	45282.34
557.49	45312.77
557.65	45188.72
557.82	44973.39
557.98	45439.16
558.15	45214.47
558.32	45228.51
558.48	44837.64
558.65	45113.83
558.81	45366.60
558.98	45656.83
559.14	45404.05
559.31	45017.86
559.47	45441.50
559.64	45710.66
559.80	45333.84
559.97	45619.38
560.13	45354.90
560.30	45537.46
560.46	46071.10
560.63	45677.90
560.79	45642.79
560.96	46141.32
561.12	45846.41
561.29	45874.50
561.45	46014.93
561.61	45446.18
561.78	45560.87
561.94	45385.33
562.11	45911.95
562.27	45703.64
562.44	45991.53
562.60	45837.05
562.77	46075.79
562.93	45769.18
563.10	46117.92
563.26	46075.79
563.42	46066.42
563.59	45834.71
563.75	46122.60
563.92	45567.89
564.08	46248.99
564.24	46124.94
564.41	45954.08
564.57	46195.15
564.74	46092.17
564.90	45783.22
565.07	46087.49
565.23	46260.69
565.39	46270.05
565.56	46466.66
565.72	46256.01
565.88	46422.19
566.05	46167.07
566.21	46323.88
566.38	46007.91
566.54	46267.71
566.70	46513.47
566.87	46258.35
567.03	46220.90
567.19	46436.23
567.36	46546.23
567.52	46288.77
567.68	46766.24
567.85	46464.32
568.01	46923.06
568.17	46274.73
568.34	46885.61
568.50	46852.84
568.66	46611.77
568.83	46773.27
568.99	46487.72
569.15	46604.75
569.32	46454.95
569.48	46190.47
569.64	46700.71
569.81	46756.88
569.97	46766.24
570.13	46574.32
570.30	46497.08
570.46	46759.22
570.62	46478.36
570.78	46829.44
570.95	46480.70
571.11	47414.57
571.27	46653.90
571.43	46665.60
571.60	46719.43
571.76	46534.53
571.92	46623.47
572.09	46300.48
572.25	46941.78
572.41	46358.99
572.57	46986.25
572.74	47430.96
572.90	47035.41
573.06	47182.86
573.22	47075.19
573.38	46700.71
573.55	47075.19
573.71	47199.24
573.87	46899.65
574.03	46801.35
574.20	47421.59
574.36	47182.86
574.52	46845.82
574.68	47264.78
574.84	47337.33
575.01	47246.05
575.17	47114.98
575.33	47243.71
575.49	46913.70
575.65	47196.90
575.82	47255.42
575.98	47112.64
576.14	47093.92
576.30	47194.56
576.46	47248.39
576.62	47257.76
576.79	47407.55
576.95	46363.67
577.11	46857.52
577.27	47199.24
577.43	47522.24
577.59	46930.08
577.75	46843.48
577.92	47021.36
578.08	47236.69
578.24	47143.07
578.40	47454.36
578.56	47332.65
578.72	47353.72
578.88	47072.85
579.04	47473.09
579.21	47044.77
579.37	47363.08
579.53	47665.01
579.69	46930.08
579.85	46880.93
580.01	47339.68
580.17	47445.00
580.33	47222.65
580.49	47767.99
580.65	47194.56
580.82	47168.82
580.98	47143.07
581.14	47152.43
581.30	47168.82
581.46	47622.88
581.62	47297.55
581.78	47285.84
581.94	47573.73
582.10	47334.99
582.26	47533.94
582.42	47325.63
582.58	47426.28
582.74	47098.60
582.90	47611.18
583.06	47313.93
583.22	47122.01
583.38	47119.66
583.54	47634.58
583.70	47463.72
583.86	47627.56
584.02	47543.30
584.18	47739.91
584.34	47498.83
584.50	47779.70
584.66	48030.13
584.82	47615.86
584.98	47964.60
585.14	47466.06
585.30	47297.55
585.46	47152.43
585.62	47054.13
585.78	47423.93
585.94	47096.26
586.10	47320.95
586.26	47327.97
586.42	47402.87
586.58	47489.47
586.74	47763.31
586.90	47086.90
587.06	47103.28
587.22	47569.05
587.38	47487.13
587.54	47821.83
587.70	47688.42
587.86	47753.95
588.02	47206.26
588.18	47665.01
588.34	47206.26
588.49	47800.76
588.65	47468.40
588.81	47466.06
588.97	47711.82
589.13	47660.33
589.29	47386.49
589.45	47512.88
589.61	47674.37
589.77	48016.09
589.93	47529.26
