SpectraSuite Data File
++++++++++++++++++++++++++++++++++++
Date: Fri Oct 25 10:47:30 EDT 2013
User: price-jones
Dark Spectrum Present: No
Reference Spectrum Present: No
Number of Sampled Component Spectra: 1
Spectrometers: USB2+H05261
Integration Time (usec): 100000 (USB2+H05261)
Spectra Averaged: 1 (USB2+H05261)
Boxcar Smoothing: 0 (USB2+H05261)
Correct for Electrical Dark: No (USB2+H05261)
Strobe/Lamp Enabled: No (USB2+H05261)
Correct for Detector Non-linearity: No (USB2+H05261)
Correct for Stray Light: No (USB2+H05261)
Number of Pixels in Processed Spectrum: 2048
>>>>>Begin Processed Spectral Data<<<<<
365.73	147.45
365.92	147.45
366.12	147.45
366.32	63.19
366.52	86.60
366.72	84.26
366.91	11.70
367.11	100.64
367.31	23.41
367.51	25.75
367.70	88.94
367.90	156.82
368.10	46.81
368.30	23.41
368.49	21.06
368.69	39.79
368.89	18.72
369.09	0.00
369.28	131.07
369.48	100.64
369.68	154.48
369.87	72.56
370.07	112.35
370.27	72.56
370.47	257.46
370.66	320.65
370.86	297.25
371.06	458.74
371.25	418.96
371.45	402.57
371.65	470.45
371.84	444.70
372.04	451.72
372.24	435.34
372.44	383.85
372.63	477.47
372.83	519.60
373.03	505.56
373.22	454.06
373.42	512.58
373.62	486.83
373.81	491.51
374.01	603.86
374.21	606.20
374.40	543.00
374.60	594.50
374.79	554.71
374.99	601.52
375.19	543.00
375.38	608.54
375.58	615.56
375.78	526.62
375.97	578.11
376.17	615.56
376.37	601.52
376.56	557.05
376.76	615.56
376.95	648.33
377.15	566.41
377.35	610.88
377.54	636.63
377.74	507.90
377.93	648.33
378.13	578.11
378.33	610.88
378.52	585.13
378.72	603.86
378.91	550.03
379.11	571.09
379.31	627.26
379.50	622.58
379.70	655.35
379.89	585.13
380.09	608.54
380.28	634.29
380.48	578.11
380.68	690.46
380.87	608.54
381.07	676.41
381.26	732.59
381.46	622.58
381.65	664.71
381.85	660.03
382.04	669.39
382.24	667.05
382.43	685.78
382.63	655.35
382.83	711.52
383.02	732.59
383.22	702.16
383.41	634.29
383.61	812.17
383.80	781.74
384.00	716.20
384.19	716.20
384.39	784.08
384.58	716.20
384.78	774.72
384.97	690.46
385.17	685.78
385.36	713.86
385.56	664.71
385.75	758.33
385.95	748.97
386.14	741.95
386.34	774.72
386.53	716.20
386.72	767.70
386.92	793.44
387.11	777.06
387.31	844.93
387.50	819.19
387.70	835.57
387.89	746.63
388.09	793.44
388.28	746.63
388.48	770.04
388.67	837.91
388.86	856.64
389.06	884.72
389.25	866.00
389.45	919.83
389.64	856.64
389.84	936.21
390.03	966.64
390.22	851.96
390.42	908.13
390.61	905.79
390.81	964.30
391.00	922.17
391.19	905.79
391.39	952.60
391.58	1039.20
391.78	922.17
391.97	945.58
392.16	858.98
392.36	1006.43
392.55	954.94
392.75	976.00
392.94	898.77
393.13	1013.45
393.33	966.64
393.52	983.02
393.71	1057.92
393.91	1069.62
394.10	940.90
394.29	1032.18
394.49	1034.52
394.68	1001.75
394.88	1071.97
395.07	1100.05
395.26	1032.18
395.46	1032.18
395.65	1097.71
395.84	1081.33
396.04	1142.18
396.23	1071.97
396.42	1048.56
396.62	1188.99
396.81	1160.91
397.00	1151.54
397.19	1093.03
397.39	1228.78
397.58	1174.95
397.77	1275.59
397.97	1273.25
398.16	1252.19
398.35	1320.06
398.55	1299.00
398.74	1167.93
398.93	1299.00
399.12	1362.19
399.32	1203.04
399.51	1233.46
399.70	1254.53
399.90	1277.93
400.09	1306.02
400.28	1345.81
400.47	1334.11
400.67	1387.94
400.86	1359.85
401.05	1366.87
401.24	1430.07
401.44	1348.15
401.63	1465.18
401.82	1437.09
402.01	1465.18
402.21	1519.01
402.40	1416.02
402.59	1521.35
402.78	1521.35
402.97	1598.59
403.17	1549.43
403.36	1565.82
403.55	1586.88
403.74	1542.41
403.93	1614.97
404.13	1614.97
404.32	1675.82
404.51	1605.61
404.70	1596.25
404.89	1509.65
405.09	1673.48
405.28	1753.06
405.47	1626.67
405.66	1703.91
405.85	1650.08
406.05	1664.12
406.24	1703.91
406.43	1701.57
406.62	1809.23
406.81	1905.20
407.00	1708.59
407.20	1781.15
407.39	1881.79
407.58	1842.00
407.77	1832.64
407.96	1867.75
408.15	1902.86
408.34	1844.34
408.54	1907.54
408.73	1975.41
408.92	1921.58
409.11	2001.16
409.30	1919.24
409.49	1987.11
409.68	1907.54
409.87	1963.71
410.07	2050.31
410.26	2059.67
410.45	2127.55
410.64	2059.67
410.83	2157.97
411.02	2204.78
411.21	2193.08
411.40	2172.02
411.59	2232.87
411.78	2275.00
411.98	2307.77
412.17	2244.57
412.36	2356.92
412.55	2291.38
412.74	2382.67
412.93	2338.20
413.12	2396.71
413.31	2375.64
413.50	2377.98
413.69	2462.24
413.88	2506.71
414.07	2464.58
414.26	2438.84
414.45	2485.65
414.64	2583.95
414.83	2675.23
415.02	2499.69
415.22	2647.15
415.41	2799.28
415.60	2848.43
415.79	2785.24
415.98	2785.24
416.17	2803.96
416.36	2750.13
416.55	2874.18
416.74	2871.84
416.93	2883.54
417.12	2736.09
417.31	2946.73
417.50	2916.31
417.69	3002.91
417.88	2857.79
418.07	3047.38
418.26	2953.76
418.45	3009.93
418.64	3075.46
418.83	3133.98
419.02	2946.73
419.21	3096.53
419.39	3148.02
419.58	3108.23
419.77	3059.08
419.96	3042.70
420.15	3206.53
420.34	3166.74
420.53	3328.24
420.72	3386.76
420.91	3197.17
421.10	3232.28
421.29	3335.26
421.48	3349.31
421.67	3382.07
421.86	3375.05
422.05	3288.45
422.24	3173.77
422.43	3288.45
422.61	3335.26
422.80	3396.12
422.99	3300.16
423.18	3314.20
423.37	3478.04
423.56	3300.16
423.75	3489.74
423.94	3426.54
424.13	3117.59
424.32	3302.50
424.50	3447.61
424.69	3555.27
424.88	3569.32
425.07	3356.33
425.26	3375.05
425.45	3442.93
425.64	3501.44
425.83	3499.10
426.01	3597.40
426.20	3520.17
426.39	3410.16
426.58	3475.70
426.77	3396.12
426.96	3604.42
427.15	3564.64
427.33	3550.59
427.52	3679.32
427.71	3452.29
427.90	3588.04
428.09	3700.39
428.28	3782.31
428.46	3707.41
428.65	3669.96
428.84	3737.84
429.03	3688.68
429.22	3669.96
429.40	3775.28
429.59	3691.02
429.78	3571.66
429.97	3534.21
430.16	3606.77
430.34	3815.07
430.53	3829.12
430.72	3754.22
430.91	3824.44
431.10	3892.31
431.28	3901.67
431.47	4149.77
431.66	4030.40
431.85	4095.94
432.03	4152.11
432.22	4086.58
432.41	4042.11
432.60	4189.56
432.79	4212.96
432.97	4201.26
433.16	4128.70
433.35	3946.14
433.54	4135.73
433.72	4177.86
433.91	4135.73
434.10	4126.36
434.28	4236.37
434.47	4177.86
434.66	4332.33
434.85	4367.44
435.03	4273.82
435.22	4355.74
435.41	4381.48
435.59	4423.61
435.78	4383.82
435.97	4444.68
436.16	4432.97
436.34	4386.16
436.53	4535.96
436.72	4652.98
436.90	4454.04
437.09	4601.49
437.28	4435.32
437.46	4587.45
437.65	4510.21
437.84	4662.35
438.02	4610.86
438.21	4592.13
438.40	4617.88
438.58	4781.71
438.77	4713.84
438.96	4739.58
439.14	4889.38
439.33	4842.57
439.52	4828.53
439.70	4954.91
439.89	5060.24
440.08	5123.43
440.26	4985.34
440.45	4999.38
440.63	5226.42
440.82	5198.33
441.01	5214.71
441.19	5240.46
441.38	5296.63
441.57	5308.34
441.75	5334.08
441.94	5364.51
442.12	5289.61
442.31	5666.44
442.50	5425.36
442.68	5474.51
442.87	5678.14
443.05	5514.30
443.24	5579.84
443.43	5575.16
443.61	5694.52
443.80	5820.91
443.98	5598.56
444.17	5416.00
444.35	5518.98
444.54	5734.31
444.73	5682.82
444.91	5734.31
445.10	5621.97
445.28	5710.91
445.47	5577.50
445.65	5832.62
445.84	5811.55
446.02	5792.83
446.21	5797.51
446.39	5827.93
446.58	5767.08
446.77	5844.32
446.95	5776.44
447.14	5689.84
447.32	5694.52
447.51	5823.25
447.69	5900.49
447.88	5820.91
448.06	5841.98
448.25	5806.87
448.43	5973.05
448.62	5916.87
448.80	5809.21
448.99	5900.49
449.17	5916.87
449.36	5895.81
449.54	6001.13
449.73	6204.76
449.91	6303.06
450.10	6267.95
450.28	6361.58
450.46	6047.94
450.65	6373.28
450.83	6331.15
451.02	6270.30
451.20	6153.27
451.39	6363.92
451.57	6272.64
451.76	6399.02
451.94	6253.91
452.13	6413.07
452.31	6415.41
452.49	6267.95
452.68	6342.85
452.86	6293.70
453.05	6387.32
453.23	6502.01
453.42	6394.34
453.60	6361.58
453.78	6546.48
453.97	6312.42
454.15	6401.37
454.34	6410.73
454.52	6623.72
454.70	6560.52
454.89	6651.80
455.07	6693.93
455.26	6534.78
455.44	6771.17
455.62	6686.91
455.81	6775.85
455.99	6857.77
456.17	6853.09
456.36	6764.15
456.54	6953.73
456.73	6988.84
456.91	7349.28
457.09	7054.37
457.28	7166.72
457.46	7206.51
457.64	7222.89
457.83	7082.46
458.01	6927.99
458.19	7269.70
458.38	7052.03
458.56	7227.57
458.74	7117.57
458.93	7232.26
459.11	7173.74
459.29	7438.22
459.48	7140.97
459.66	7225.23
459.84	7499.08
460.03	7445.24
460.21	7428.86
460.39	7377.37
460.57	7440.56
460.76	7442.90
460.94	7583.34
461.12	7569.29
461.31	7592.70
461.49	7609.08
461.67	7534.18
461.85	7613.76
462.04	7644.19
462.22	8119.32
462.40	7829.09
462.59	7805.69
462.77	7742.49
462.95	7880.58
463.13	7885.26
463.32	7777.60
463.50	7985.91
463.68	7901.65
463.86	7932.08
464.05	7819.73
464.23	7962.50
464.41	8006.97
464.59	7772.92
464.78	7976.55
464.96	7976.55
465.14	7925.05
465.32	8084.21
465.50	8042.08
465.69	8252.73
465.87	8131.02
466.05	8194.22
466.23	8222.30
466.41	8107.62
466.60	8374.44
466.78	8046.76
466.96	8145.06
467.14	8189.53
467.32	8205.92
467.51	8393.16
467.69	8032.72
467.87	8241.03
468.05	8475.08
468.23	8475.08
468.41	8482.10
468.60	8454.02
468.78	8524.23
468.96	8290.18
469.14	8718.50
469.32	8578.06
469.50	8411.89
469.69	8674.03
469.87	8549.98
470.05	8575.72
470.23	8699.77
470.41	8732.54
470.59	8791.05
470.77	8711.47
470.95	8980.64
471.14	9149.15
471.32	8725.52
471.50	8898.72
471.68	8938.51
471.86	9081.28
472.04	9097.66
472.22	9294.27
472.40	9165.54
472.58	9252.14
472.77	9418.32
472.95	9331.72
473.13	9554.07
473.31	9254.48
473.49	9385.55
473.67	9301.29
473.85	9598.54
474.03	9586.83
474.21	9570.45
474.39	9923.87
474.57	9589.17
474.75	9912.17
474.93	9989.41
475.12	10047.92
475.30	9977.70
475.48	10190.69
475.66	10157.92
475.84	9767.06
476.02	10150.90
476.20	10090.05
476.38	10384.96
476.56	10621.35
476.74	10186.01
476.92	10633.05
477.10	10347.51
477.28	10689.23
477.46	10782.85
477.64	10836.68
477.82	10874.13
478.00	11035.63
478.18	10965.41
478.36	11470.97
478.54	11087.12
478.72	11243.93
478.90	11609.06
479.08	11555.22
479.26	11618.42
479.44	11871.20
479.62	11552.88
479.80	11836.09
479.98	11939.07
480.16	12292.49
480.34	11988.22
480.52	12011.63
480.70	12084.19
480.88	12042.06
481.06	12308.88
481.24	12409.52
481.41	12774.64
481.59	12922.10
481.77	12739.54
481.95	12966.57
482.13	12915.08
482.31	13128.06
482.49	13121.04
482.67	13132.75
482.85	13380.84
483.03	13607.87
483.21	13617.24
483.39	13673.41
483.57	13987.04
483.74	13916.83
483.92	13944.91
484.10	14012.79
484.28	14094.71
484.46	14363.87
484.64	14438.76
484.82	14104.07
485.00	14595.58
485.18	14750.06
485.35	15089.43
485.53	14733.67
485.71	14829.63
485.89	15089.43
486.07	14696.22
486.25	15096.46
486.43	15145.61
486.61	15241.57
486.78	15744.78
486.96	15527.11
487.14	15981.18
487.32	15873.51
487.50	16042.03
487.68	16336.94
487.85	16294.81
488.03	16819.09
488.21	16772.28
488.39	16673.98
488.57	16924.41
488.75	16992.29
488.92	17102.29
489.10	17315.28
489.28	17432.31
489.46	17401.88
489.64	17532.95
489.81	18164.90
489.99	18265.54
490.17	18012.76
490.35	18373.21
490.53	18223.41
490.70	18497.25
490.88	18420.02
491.06	18604.92
491.24	18665.77
491.41	18679.82
491.59	18845.99
491.77	18719.60
491.95	18970.04
492.13	19124.52
492.30	19157.28
492.48	19531.77
492.66	19569.22
492.84	19431.13
493.01	19997.54
493.19	19702.63
493.37	20044.35
493.54	20205.84
493.72	20357.98
493.90	20430.54
494.08	20416.49
494.25	21081.21
494.43	20767.57
494.61	20833.11
494.79	20905.66
494.96	20957.16
495.14	21399.52
495.32	21378.45
495.49	21488.46
495.67	21411.22
495.85	21717.83
496.02	21584.42
496.20	21710.81
496.38	22298.28
496.55	21621.87
496.73	22764.05
496.91	22263.18
497.09	22099.34
497.26	22136.79
497.44	22480.85
497.62	22560.42
497.79	23068.32
497.97	22682.13
498.14	22668.09
498.32	23213.43
498.50	23016.83
498.67	23515.36
498.85	23606.64
499.03	23564.51
499.20	23819.63
499.38	24079.43
499.56	23510.68
499.73	23939.00
499.91	24196.46
500.08	24154.33
500.26	23791.55
500.44	24079.43
500.61	24404.77
500.79	23817.29
500.97	24786.27
501.14	24959.47
501.32	24790.95
501.49	24751.17
501.67	24561.58
501.84	24835.42
502.02	25118.63
502.20	25343.32
502.37	25242.68
502.55	25200.55
502.72	25287.15
502.90	25596.10
503.07	25523.54
503.25	25706.10
503.43	25486.09
503.60	26082.93
503.78	26010.37
503.95	25453.33
504.13	25781.00
504.30	25956.54
504.48	26239.75
504.65	26487.84
504.83	26211.66
505.01	26679.77
505.18	26333.37
505.36	26698.49
505.53	26604.87
505.71	27082.34
505.88	26757.00
506.06	26850.63
506.23	27267.24
506.41	26953.61
506.58	27075.32
506.76	27056.59
506.93	27744.71
507.11	27096.38
507.28	27449.80
507.46	27227.45
507.63	27550.45
507.81	28020.89
507.98	27513.00
508.16	27758.75
508.33	27983.44
508.50	28053.66
508.68	28217.50
508.85	28290.06
509.03	28254.95
509.20	28393.04
509.38	28425.81
509.55	28634.11
509.73	28591.98
509.90	28769.86
510.08	28444.53
510.25	28552.20
510.42	28711.35
510.60	29205.20
510.77	29020.30
510.95	29160.73
511.12	29439.26
511.30	29481.39
511.47	29535.22
511.64	29493.09
511.82	29926.09
511.99	29268.40
512.17	29448.62
512.34	30080.56
512.51	29727.14
512.69	30008.01
512.86	30108.65
513.04	30375.47
513.21	30043.12
513.38	30368.45
513.56	30164.82
513.73	30015.03
513.90	30426.96
514.08	30239.72
514.25	30536.97
514.43	30251.42
514.60	30799.11
514.77	30277.17
514.95	31040.18
515.12	30614.21
515.29	30794.43
515.47	31054.23
515.64	31075.29
515.81	31030.82
515.99	31005.08
516.16	31182.96
516.33	31477.86
516.51	31236.79
516.68	31445.10
516.85	31021.46
517.03	31571.49
517.20	31433.39
517.37	31606.59
517.54	31875.76
517.72	31702.56
517.89	31517.65
518.06	31999.80
518.24	31655.75
518.41	31850.01
518.58	31538.72
518.75	31974.06
518.93	32393.01
519.10	32165.98
519.27	32463.23
519.45	32587.28
519.62	32664.52
519.79	32669.20
519.96	32510.04
520.14	33347.95
520.31	32613.02
520.48	32914.95
520.65	33244.97
520.83	33230.93
521.00	33223.90
521.17	33289.44
521.34	32931.34
521.52	33282.42
521.69	33076.45
521.86	33134.96
522.03	33394.76
522.20	33649.88
522.38	33563.28
522.55	33631.16
522.72	33909.68
522.89	33549.24
523.07	33790.31
523.24	33640.52
523.41	34316.93
523.58	34113.31
523.75	34174.16
523.92	34426.94
524.10	34031.39
524.27	34155.44
524.44	34286.51
524.61	34450.35
524.78	34813.13
524.96	34869.30
525.13	34576.73
525.30	35026.12
525.47	34696.10
525.64	34817.81
525.81	34686.74
525.98	34628.23
526.16	35381.88
526.33	34885.68
526.50	35529.33
526.67	34927.81
526.84	35325.71
527.01	34843.56
527.18	35096.33
527.36	35208.68
527.53	35131.44
527.70	35716.58
527.87	35779.77
528.04	35461.46
528.21	35894.46
528.38	35868.71
528.55	35915.52
528.72	35821.90
528.89	36037.23
529.07	35810.20
529.24	35763.39
529.41	36126.17
529.58	36009.14
529.75	36095.74
529.92	36163.62
530.09	35892.12
530.26	36194.04
530.43	36481.93
530.60	35988.08
530.77	36088.72
530.94	36292.35
531.11	36437.46
531.28	36528.74
531.46	37242.60
531.63	36500.65
531.80	36734.71
531.97	36512.36
532.14	36945.36
532.31	36706.62
532.48	36987.49
532.65	37167.71
532.82	37071.75
532.99	37062.38
533.16	36828.33
533.33	37123.24
533.50	37251.97
533.67	37439.21
533.84	36872.80
534.01	37247.29
534.18	37361.97
534.35	37659.22
534.52	37610.07
534.69	37581.98
534.86	37275.37
535.03	37710.71
535.20	37972.85
535.37	37998.60
535.54	37935.40
535.71	37935.40
535.88	37797.31
536.05	37794.97
536.22	38143.71
536.38	37846.46
536.55	37937.74
536.72	38162.43
536.89	37907.32
537.06	37998.60
537.23	38089.88
537.40	38019.66
537.57	38216.27
537.74	38834.17
537.91	38586.07
538.08	38883.32
538.25	38064.13
538.42	38319.25
538.59	38958.22
538.75	38363.72
538.92	38527.56
539.09	38665.65
539.26	38780.34
539.43	38686.71
539.60	39175.89
539.77	38644.59
539.94	38911.41
540.11	38487.77
540.28	38930.13
540.44	39159.50
540.61	38932.47
540.78	38817.78
540.95	39093.97
541.12	38930.13
541.29	39304.62
541.46	39089.29
541.62	39386.54
541.79	39522.29
541.96	39154.82
542.13	39419.30
542.30	39159.50
542.47	39405.26
542.63	39494.20
542.80	39674.42
542.97	39988.05
543.14	39770.38
543.31	40006.78
543.48	39856.98
543.64	40835.33
543.81	40105.08
543.98	40336.79
544.15	39807.83
544.32	40074.65
544.48	40353.18
544.65	40495.95
544.82	40318.07
544.99	40091.04
545.16	40179.98
545.32	40149.55
545.49	40863.41
545.66	40673.83
545.83	40423.39
546.00	40432.75
546.16	40638.72
546.33	40392.97
546.50	40474.88
546.67	40582.55
546.83	40208.06
547.00	40306.37
547.17	40500.63
547.34	40561.48
547.50	40809.58
547.67	41127.89
547.84	40722.98
548.00	40566.16
548.17	41368.97
548.34	40832.99
548.51	41280.03
548.67	40919.59
548.84	41345.56
549.01	41497.70
549.18	40861.07
549.34	41258.96
549.51	41265.99
549.68	41392.37
549.84	41684.94
550.01	41404.08
550.18	41399.40
550.34	41305.77
550.51	41420.46
550.68	41251.94
550.84	41071.72
551.01	41621.75
551.18	41448.55
551.34	41684.94
551.51	41385.35
551.68	41518.76
551.84	41549.19
552.01	41359.61
552.18	41785.58
552.34	41481.31
552.51	41923.68
552.68	41682.60
552.84	41785.58
553.01	42806.06
553.18	41820.69
553.34	41963.46
553.51	42014.96
553.67	41776.22
553.84	42234.97
554.01	42564.98
554.17	42113.26
554.34	42195.18
554.51	42134.32
554.67	42141.35
554.84	42457.32
555.00	42005.59
555.17	42071.13
555.33	42256.03
555.50	42045.38
555.67	42342.63
555.83	42497.11
556.00	42363.70
556.16	42796.70
556.33	42614.13
556.50	42146.03
556.66	42735.84
556.83	42333.27
556.99	42777.97
557.16	42845.85
557.32	42546.26
557.49	42384.76
557.65	42714.78
557.82	42679.67
557.98	42799.04
558.15	42658.60
558.32	42801.38
558.48	42803.72
558.65	42487.74
558.81	42703.07
558.98	42506.47
559.14	42911.38
559.31	43122.03
559.47	42995.64
559.64	42972.24
559.80	43058.84
559.97	43136.07
560.13	42848.19
560.30	42946.49
560.46	43012.02
560.63	42939.47
560.79	43283.53
560.96	43210.97
561.12	42939.47
561.29	43068.20
561.45	42979.26
561.61	42925.42
561.78	43335.02
561.94	43131.39
562.11	43093.94
562.27	43035.43
562.44	43082.24
562.60	43690.78
562.77	43440.34
562.93	43299.91
563.10	43374.81
563.26	43145.44
563.42	43536.30
563.59	43524.60
563.75	43185.22
563.92	43676.74
564.08	43538.65
564.24	43833.55
564.41	43477.79
564.57	43496.52
564.74	43171.18
564.90	44095.69
565.07	43173.52
565.23	43536.30
565.39	43386.51
565.56	43494.18
565.72	43215.65
565.88	43402.89
566.05	43517.58
566.21	43342.04
566.38	43636.95
566.54	43344.38
566.70	44212.72
566.87	43803.13
567.03	43540.99
567.19	43856.96
567.36	43782.06
567.52	43915.47
567.68	43665.03
567.85	43770.36
568.01	43571.41
568.17	43592.48
568.34	43929.51
568.50	43714.19
568.66	43510.56
568.83	43873.34
568.99	43739.93
569.15	43660.35
569.32	43880.36
569.48	43969.30
569.64	43686.10
569.81	44105.06
569.97	43608.86
570.13	43950.58
570.30	43615.88
570.46	43625.25
570.62	43590.14
570.78	43452.05
570.95	43885.04
571.11	44257.19
571.27	43744.61
571.43	43646.31
571.60	43948.24
571.76	44069.95
571.92	43625.25
572.09	43580.78
572.25	43931.86
572.41	43700.14
572.57	44430.39
572.74	44135.48
572.90	43990.37
573.06	44004.41
573.22	44126.12
573.38	43683.76
573.55	44032.50
573.71	43711.84
573.87	43728.23
574.03	43737.59
574.20	44264.21
574.36	43725.89
574.52	44435.07
574.68	44308.68
574.84	44179.95
575.01	43856.96
575.17	44137.82
575.33	43950.58
575.49	43711.84
575.65	44446.77
575.82	44439.75
575.98	44041.86
576.14	44580.18
576.30	43964.62
576.46	43782.06
576.62	44027.82
576.79	43735.25
576.95	43859.30
577.11	43966.96
577.27	43978.67
577.43	43791.42
577.59	44002.07
577.75	44186.97
577.92	44072.29
578.08	43931.86
578.24	44254.85
578.40	43784.40
578.56	44079.31
578.72	44095.69
578.88	44287.62
579.04	44374.22
579.21	43791.42
579.37	44191.65
579.53	44158.89
579.69	43826.53
579.85	44091.01
580.01	44172.93
580.17	44332.09
580.33	44395.28
580.49	44186.97
580.65	44381.24
580.82	44465.50
580.98	44006.75
581.14	44254.85
581.30	44308.68
581.46	44364.85
581.62	44184.63
581.78	44161.23
581.94	44692.53
582.10	43894.41
582.26	44332.09
582.42	44105.06
582.58	43856.96
582.74	43990.37
582.90	44041.86
583.06	44222.08
583.22	44549.76
583.38	44594.23
583.54	44500.61
583.70	44154.21
583.86	44034.84
584.02	44165.91
584.18	44325.07
584.34	44133.14
584.50	44329.75
584.66	44388.26
584.82	44095.69
584.98	44395.28
585.14	44528.69
585.30	44016.11
585.46	44243.15
585.62	44229.10
585.78	43910.79
585.94	43601.84
586.10	43847.60
586.26	44233.78
586.42	44208.04
586.58	44414.01
586.74	44493.58
586.90	44140.16
587.06	43920.15
587.22	44470.18
587.38	44236.12
587.54	44678.49
587.70	44687.85
587.86	44432.73
588.02	44486.56
588.18	44676.15
588.34	44416.35
588.49	44409.32
588.65	44156.55
588.81	43892.07
588.97	44154.21
589.13	44236.12
589.29	44488.90
589.45	44467.84
589.61	44285.28
589.77	44608.27
589.93	44500.61
590.08	44706.57
590.24	44898.50
