SpectraSuite Data File
++++++++++++++++++++++++++++++++++++
Date: Fri Oct 25 11:25:21 EDT 2013
User: price-jones
Dark Spectrum Present: No
Reference Spectrum Present: No
Number of Sampled Component Spectra: 1
Spectrometers: USB2+H05261
Integration Time (usec): 100000 (USB2+H05261)
Spectra Averaged: 1 (USB2+H05261)
Boxcar Smoothing: 0 (USB2+H05261)
Correct for Electrical Dark: No (USB2+H05261)
Strobe/Lamp Enabled: No (USB2+H05261)
Correct for Detector Non-linearity: No (USB2+H05261)
Correct for Stray Light: No (USB2+H05261)
Number of Pixels in Processed Spectrum: 2048
>>>>>Begin Processed Spectral Data<<<<<
365.73	191.92
365.92	191.92
366.12	191.92
366.32	124.05
366.52	98.30
366.72	117.03
366.91	121.71
367.11	124.05
367.31	145.11
367.51	191.92
367.70	138.09
367.90	191.92
368.10	166.18
368.30	159.16
368.49	128.73
368.69	250.44
368.89	222.35
369.09	135.75
369.28	88.94
369.48	184.90
369.68	203.63
369.87	215.33
370.07	177.88
370.27	184.90
370.47	278.52
370.66	535.98
370.86	627.26
371.06	650.67
371.25	690.46
371.45	716.20
371.65	662.37
371.84	650.67
372.04	662.37
372.24	788.76
372.44	723.23
372.63	763.01
372.83	699.82
373.03	763.01
373.22	711.52
373.42	793.44
373.62	812.17
373.81	795.78
374.01	760.67
374.21	807.48
374.40	755.99
374.60	805.14
374.79	765.36
374.99	823.87
375.19	858.98
375.38	851.96
375.58	940.90
375.78	910.47
375.97	821.53
376.17	964.30
376.37	887.06
376.56	849.61
376.76	837.91
376.95	912.81
377.15	922.17
377.35	861.32
377.54	887.06
377.74	866.00
377.93	894.08
378.13	861.32
378.33	992.39
378.52	945.58
378.72	933.87
378.91	1001.75
379.11	917.49
379.31	1022.81
379.50	954.94
379.70	950.26
379.89	933.87
380.09	1013.45
380.28	957.28
380.48	990.05
380.68	1086.01
380.87	950.26
381.07	1055.58
381.26	1048.56
381.46	1046.22
381.65	1086.01
381.85	1050.90
382.04	1025.15
382.24	1102.39
382.43	1125.80
382.63	999.41
382.83	1006.43
383.02	1055.58
383.22	1144.52
383.41	1067.28
383.61	1043.88
383.80	1205.38
384.00	1074.31
384.19	1104.73
384.39	1046.22
384.58	1109.41
384.78	1097.71
384.97	1205.38
385.17	1093.03
385.36	1088.35
385.56	1172.61
385.75	1205.38
385.95	1191.33
386.14	1137.50
386.34	1203.04
386.53	1179.63
386.72	1219.42
386.92	1296.66
387.11	1203.04
387.31	1200.69
387.50	1284.95
387.70	1306.02
387.89	1273.25
388.09	1214.74
388.28	1317.72
388.48	1228.78
388.67	1284.95
388.86	1348.15
389.06	1270.91
389.25	1284.95
389.45	1294.32
389.64	1296.66
389.84	1308.36
390.03	1329.42
390.22	1343.47
390.42	1359.85
390.61	1256.87
390.81	1437.09
391.00	1387.94
391.19	1479.22
391.39	1394.96
391.58	1542.41
391.78	1444.11
391.97	1455.81
392.16	1511.99
392.36	1462.83
392.55	1474.54
392.75	1614.97
392.94	1511.99
393.13	1549.43
393.33	1481.56
393.52	1493.26
393.71	1600.93
393.91	1638.38
394.10	1636.03
394.29	1643.06
394.49	1554.12
394.68	1687.53
394.88	1671.14
395.07	1666.46
395.26	1680.50
395.46	1619.65
395.65	1699.23
395.84	1743.70
396.04	1832.64
396.23	1701.57
396.42	1834.98
396.62	1764.76
396.81	1687.53
397.00	1778.81
397.19	1851.36
397.39	1703.91
397.58	1788.17
397.77	1830.30
397.97	1811.57
398.16	1757.74
398.35	1820.94
398.55	1916.90
398.74	1923.92
398.93	1963.71
399.12	1991.80
399.32	1930.94
399.51	1968.39
399.70	2092.44
399.90	1919.24
400.09	1949.67
400.28	2015.20
400.47	1994.14
400.67	2153.29
400.86	2057.33
401.05	2129.89
401.24	2078.40
401.44	2099.46
401.63	2090.10
401.82	2251.60
402.01	2094.78
402.21	2150.95
402.40	2129.89
402.59	2043.29
402.78	2176.70
402.97	2260.96
403.17	2218.83
403.36	2099.46
403.55	2335.85
403.74	2436.50
403.93	2324.15
404.13	2312.45
404.32	2314.79
404.51	2338.20
404.70	2293.72
404.89	2345.22
405.09	2525.44
405.28	2441.18
405.47	2527.78
405.66	2537.14
405.85	2471.61
406.05	2541.82
406.24	2553.52
406.43	2537.14
406.62	2672.89
406.81	2605.02
407.00	2567.57
407.20	2553.52
407.39	2651.83
407.58	2696.30
407.77	2766.51
407.96	2724.38
408.15	2782.90
408.34	2799.28
408.54	2810.98
408.73	2785.24
408.92	2860.13
409.11	2787.58
409.30	2782.90
409.49	2853.11
409.68	2836.73
409.87	2848.43
410.07	3019.29
410.26	3063.76
410.45	2960.78
410.64	3073.12
410.83	2995.89
411.02	3000.57
411.21	3126.96
411.40	3185.47
411.59	3286.11
411.78	3164.40
411.98	3159.72
412.17	3155.04
412.36	3290.79
412.55	3386.76
412.74	3389.10
412.93	3351.65
413.12	3353.99
413.31	3555.27
413.50	3463.99
413.69	3499.10
413.88	3611.45
414.07	3559.95
414.26	3613.79
414.45	3602.08
414.64	3496.76
414.83	3721.45
415.02	3709.75
415.22	3768.26
415.41	3831.46
415.60	3686.34
415.79	3889.97
415.98	4065.51
416.17	4004.66
416.36	4070.19
416.55	3974.23
416.74	3990.61
416.93	3957.85
417.12	4056.15
417.31	3962.53
417.50	4135.73
417.69	4208.28
417.88	4198.92
418.07	4210.62
418.26	4351.06
418.45	4367.44
418.64	4514.89
418.83	4447.02
419.02	4432.97
419.21	4557.02
419.39	4540.64
419.58	4517.23
419.77	4290.20
419.96	4596.81
420.15	4671.71
420.34	4568.73
420.53	4596.81
420.72	4699.80
420.91	4762.99
421.10	4732.56
421.29	4851.93
421.48	4624.90
421.67	4765.33
421.86	4791.08
422.05	4798.10
422.24	4716.18
422.43	4737.24
422.61	4751.29
422.80	4908.10
422.99	4971.30
423.18	4856.61
423.37	5121.09
423.56	4933.85
423.75	4894.06
423.94	4854.27
424.13	4627.24
424.32	4781.71
424.50	4924.49
424.69	4959.60
424.88	5006.41
425.07	4882.36
425.26	4933.85
425.45	5041.51
425.64	4968.96
425.83	4908.10
426.01	5008.75
426.20	4990.02
426.39	5057.90
426.58	4992.36
426.77	4903.42
426.96	5130.45
427.15	5111.73
427.33	5158.54
427.52	5104.71
427.71	5125.77
427.90	5235.78
428.09	5329.40
428.28	5387.91
428.46	5364.51
428.65	5305.99
428.84	5479.19
429.03	5383.23
429.22	5259.18
429.40	5245.14
429.59	5390.25
429.78	5188.97
429.97	5195.99
430.16	5542.39
430.34	5523.66
430.53	5652.39
430.72	5577.50
430.91	5645.37
431.10	5507.28
431.28	5881.77
431.47	5818.57
431.66	5872.40
431.85	5774.10
432.03	5923.90
432.22	5912.19
432.41	5879.43
432.60	5851.34
432.79	5872.40
432.97	5966.03
433.16	5975.39
433.35	5795.17
433.54	5963.68
433.72	6080.71
433.91	6043.26
434.10	6057.31
434.28	6122.84
434.47	6169.65
434.66	6235.19
434.85	6384.98
435.03	6251.57
435.22	6249.23
435.41	6392.00
435.59	6408.39
435.78	6417.75
435.97	6366.26
436.16	6282.00
436.34	6417.75
436.53	6422.43
436.72	6693.93
436.90	6534.78
437.09	6490.31
437.28	6466.90
437.46	6567.54
437.65	6520.73
437.84	6719.68
438.02	6621.38
438.21	6768.83
438.40	6649.46
438.58	6965.43
438.77	6967.77
438.96	6874.15
439.14	7148.00
439.33	7045.01
439.52	7077.78
439.70	7063.74
439.89	7435.88
440.08	7356.30
440.26	7183.10
440.45	7318.86
440.63	7295.45
440.82	7550.57
441.01	7534.18
441.19	7478.01
441.38	7564.61
441.57	7674.62
441.75	7852.50
441.94	7772.92
442.12	7819.73
442.31	8051.44
442.50	8006.97
442.68	7915.69
442.87	7896.97
443.05	8133.36
443.24	8018.68
443.43	7889.95
443.61	8168.47
443.80	8271.45
443.98	7943.78
444.17	7730.79
444.35	8072.51
444.54	8278.47
444.73	8191.88
444.91	8142.72
445.10	8292.52
445.28	8381.46
445.47	8107.62
445.65	8257.41
445.84	8283.16
446.02	8266.77
446.21	8435.29
446.39	8313.58
446.58	8505.51
446.77	8360.39
446.95	8353.37
447.14	8418.91
447.32	8411.89
447.51	8381.46
447.69	8435.29
447.88	8358.05
448.06	8446.99
448.25	8222.30
448.43	8322.94
448.62	8528.91
448.80	8503.17
448.99	8716.16
449.17	8870.63
449.36	8725.52
449.54	8828.50
449.73	8973.61
449.91	8795.73
450.10	8603.81
450.28	8990.00
450.46	9081.28
450.65	8777.01
450.83	8887.01
451.02	9001.70
451.20	9137.45
451.39	9170.22
451.57	9142.13
451.76	9245.12
451.94	9252.14
452.13	9125.75
452.31	9139.79
452.49	9310.65
452.68	9371.50
452.86	9270.86
453.05	9385.55
453.23	9430.02
453.42	9448.74
453.60	9254.48
453.78	9408.95
453.97	9280.22
454.15	9568.11
454.34	9441.72
454.52	9701.52
454.70	9795.14
454.89	9870.04
455.07	9790.46
455.26	9635.99
455.44	9818.55
455.62	9942.60
455.81	9769.40
455.99	9998.77
456.17	10164.95
456.36	10076.01
456.54	10136.86
456.73	10420.06
456.91	10370.91
457.09	10260.91
457.28	10497.30
457.46	10324.10
457.64	10384.96
457.83	10684.55
458.01	10335.81
458.19	10668.16
458.38	10539.43
458.56	10740.72
458.74	10485.60
458.93	10691.57
459.11	10675.18
459.29	10483.26
459.48	10918.60
459.66	10626.03
459.84	10789.87
460.03	11056.69
460.21	11087.12
460.39	11164.36
460.57	11089.46
460.76	11063.71
460.94	11286.06
461.12	11204.14
461.31	11042.65
461.49	11049.67
461.67	11257.98
461.85	11405.43
462.04	11255.64
462.22	11674.59
462.40	11463.94
462.59	11367.98
462.77	11435.86
462.95	11611.40
463.13	11573.95
463.32	11517.78
463.50	11602.04
463.68	11693.32
463.86	11644.17
464.05	11571.61
464.23	11686.29
464.41	11913.33
464.59	11742.47
464.78	12107.59
464.96	11946.09
465.14	11786.94
465.32	11875.88
465.50	12079.50
465.69	12201.21
465.87	12074.82
466.05	11861.84
466.23	12159.08
466.41	12203.55
466.60	12341.64
466.78	12198.87
466.96	12470.37
467.14	12285.47
467.32	12243.34
467.51	12439.95
467.69	12112.27
467.87	12390.80
468.05	12545.27
468.23	12446.97
468.41	12304.20
468.60	12610.81
468.78	12746.56
468.96	12444.63
469.14	12926.78
469.32	12802.73
469.50	12617.83
469.69	12772.30
469.87	13011.04
470.05	12975.93
470.23	13153.81
470.41	13142.11
470.59	13123.38
470.77	12905.71
470.95	12908.05
471.14	13437.02
471.32	13041.46
471.50	13500.21
471.68	13640.64
471.86	13617.24
472.04	13521.27
472.22	13973.00
472.40	13727.24
472.58	13645.32
472.77	14047.90
472.95	14218.75
473.13	14518.34
473.31	14061.94
473.49	14059.60
473.67	14139.18
473.85	14040.87
474.03	14656.43
474.21	14431.74
474.39	14544.09
474.57	14857.72
474.75	14941.98
474.93	15016.88
475.12	14953.68
475.30	15047.30
475.48	14754.74
475.66	15124.54
475.84	15253.27
476.02	15414.77
476.20	15307.10
476.38	15524.77
476.56	15770.53
476.74	15917.98
476.92	15791.59
477.10	15810.32
477.28	15913.30
477.46	16219.91
477.64	16231.62
477.82	16346.30
478.00	16795.68
478.18	16828.45
478.36	17121.02
478.54	16975.91
478.72	17226.34
478.90	17277.83
479.08	17547.00
479.26	17350.39
479.44	17752.96
479.62	17809.14
479.80	17909.78
479.98	17937.87
480.16	18501.93
480.34	18188.30
480.52	18478.53
480.70	18677.48
480.88	18455.12
481.06	18459.81
481.24	18731.31
481.41	18892.80
481.59	18979.40
481.77	19681.56
481.95	19356.23
482.13	19616.03
482.31	19431.13
482.49	20180.10
482.67	19955.41
482.85	20416.49
483.03	20379.04
483.21	20381.38
483.39	20847.15
483.57	20748.85
483.74	21116.31
483.92	21102.27
484.10	21013.33
484.28	21317.60
484.46	21642.93
484.64	22387.22
484.82	22125.08
485.00	22050.19
485.18	22607.23
485.35	22778.09
485.53	22801.50
485.71	23136.20
485.89	23379.61
486.07	23157.26
486.25	23042.57
486.43	23428.76
486.61	23981.13
486.78	23964.75
486.96	24374.34
487.14	24603.71
487.32	24584.99
487.50	24748.82
487.68	25008.62
487.85	25481.41
488.03	25441.62
488.21	25420.56
488.39	25446.30
488.57	25886.32
488.75	25968.24
488.92	26263.15
489.10	26443.37
489.28	26691.47
489.46	27115.11
489.64	26703.17
489.81	27513.00
489.99	27187.66
490.17	27487.25
490.35	27880.46
490.53	28065.36
490.70	28301.76
490.88	28283.03
491.06	28521.77
491.24	28613.05
491.41	28439.85
491.59	29048.39
491.77	29193.50
491.95	29500.11
492.13	29722.46
492.30	30043.12
492.48	29617.14
492.66	30169.51
492.84	30263.13
493.01	30602.50
493.19	30756.98
493.37	30986.35
493.54	31358.50
493.72	31285.94
493.90	31047.21
494.08	31594.89
494.25	32243.22
494.43	31852.35
494.61	32191.73
494.79	32325.14
494.96	32350.88
495.14	32648.13
495.32	32788.56
495.49	32734.73
495.67	32699.62
495.85	33163.05
496.02	33642.86
496.20	33890.96
496.38	34108.63
496.55	34073.52
496.73	35208.68
496.91	34422.26
497.09	34295.87
497.26	34763.98
497.44	34834.19
497.62	34656.31
497.79	35576.14
497.97	35290.60
498.14	35791.47
498.32	36086.38
498.50	35866.37
498.67	36119.15
498.85	36182.34
499.03	36278.30
499.20	36364.90
499.38	36765.14
499.56	36577.89
499.73	36980.46
499.91	37001.53
500.08	37244.94
500.26	37495.38
500.44	37628.79
500.61	37617.09
500.79	37530.49
500.97	38113.28
501.14	38560.33
501.32	38176.48
501.49	38504.15
501.67	38476.07
501.84	38712.46
502.02	38359.04
502.20	38841.19
502.37	39145.46
502.55	38389.47
502.72	39199.29
502.90	39386.54
503.07	39098.65
503.25	39487.18
503.43	39459.09
503.60	39931.88
503.78	39880.39
503.95	40025.50
504.13	40524.04
504.30	40182.32
504.48	40449.14
504.65	40250.19
504.83	40814.26
505.01	41092.79
505.18	40521.69
505.36	41195.77
505.53	41237.90
505.71	41055.34
505.88	41420.46
506.06	41216.83
506.23	41991.55
506.41	41546.85
506.58	41638.13
506.76	41937.72
506.93	42256.03
507.11	42134.32
507.28	42462.00
507.46	42560.30
507.63	42789.67
507.81	42976.92
507.98	42632.86
508.16	43164.16
508.33	43166.50
508.50	43236.72
508.68	43622.90
508.85	43412.26
509.03	43377.15
509.20	43508.22
509.38	44102.71
509.55	43943.56
509.73	44266.55
509.90	44236.12
510.08	43981.01
510.25	44598.91
510.42	44725.30
510.60	44832.96
510.77	44882.11
510.95	45284.68
511.12	44807.22
511.30	44533.37
511.47	45249.58
511.64	45467.25
511.82	45450.86
511.99	45968.12
512.17	45591.30
512.34	45848.75
512.51	46036.00
512.69	45801.94
512.86	46265.37
513.04	46527.51
513.21	45982.16
513.38	46824.76
513.56	46803.69
513.73	46518.15
513.90	46529.85
514.08	46356.65
514.25	47292.86
514.43	47037.75
514.60	47278.82
514.77	47175.84
514.95	47217.97
515.12	47304.57
515.29	47550.32
515.47	47714.16
515.64	47772.67
515.81	47672.03
515.99	48079.28
516.16	47922.47
516.33	48126.10
516.51	48479.52
516.68	48341.42
516.85	47973.96
517.03	48350.79
517.20	48708.89
517.37	48615.27
517.54	48755.70
517.72	49001.46
517.89	48680.80
518.06	48947.62
518.24	49425.09
518.41	48924.22
518.58	49177.00
518.75	49088.06
518.93	49523.40
519.10	49151.25
519.27	49556.16
519.45	49492.97
519.62	49743.41
519.79	49881.50
519.96	49757.45
520.14	49645.10
520.31	49715.32
520.48	50183.43
520.65	49649.78
520.83	50447.91
521.00	50412.80
521.17	50532.17
521.34	50630.47
521.52	50611.74
521.69	50616.43
521.86	50784.94
522.03	51140.71
522.20	51129.00
522.38	51054.11
522.55	51126.66
522.72	51288.16
522.89	51044.74
523.07	51447.32
523.24	51257.73
523.41	51264.75
523.58	51281.14
523.75	51704.77
523.92	51604.13
524.10	51910.74
524.27	51681.37
524.44	51826.48
524.61	51934.15
524.78	51711.80
524.96	51847.55
525.13	52027.77
525.30	52325.02
525.47	52299.27
525.64	51913.08
525.81	52395.23
525.98	52371.83
526.16	52505.24
526.33	52676.10
526.50	52942.92
526.67	52692.48
526.84	52940.58
527.01	52879.72
527.18	52545.03
527.36	52629.29
527.53	52758.02
527.70	53270.59
527.87	53333.79
528.04	52842.27
528.21	53200.38
528.38	53092.71
528.55	53357.19
528.72	53380.60
528.89	53223.78
529.07	53251.87
529.24	53279.96
529.41	53654.44
529.58	53392.30
529.75	53207.40
529.92	53530.39
530.09	53745.72
530.26	53785.51
530.43	53764.45
530.60	53661.46
530.77	53593.59
530.94	54120.21
531.11	53916.58
531.28	53893.18
531.46	54049.99
531.63	54099.14
531.80	54113.19
531.97	54319.15
532.14	54326.17
532.31	54211.49
532.48	54539.16
532.65	54597.68
532.82	54239.57
532.99	54667.89
533.16	54541.50
533.33	54408.09
533.50	54506.40
533.67	54532.14
533.84	54539.16
534.01	54480.65
534.18	54787.26
534.35	55217.92
534.52	54770.88
534.69	55072.81
534.86	55386.44
535.03	54878.54
535.20	55009.61
535.37	55093.87
535.54	54951.10
535.71	55014.29
535.88	54969.82
536.05	55171.11
536.22	55414.52
536.38	55313.88
536.55	55540.91
536.72	55447.29
536.89	54965.14
537.06	55227.28
537.23	55681.34
537.40	55538.57
537.57	55192.17
537.74	55547.93
537.91	55817.10
538.08	55484.74
538.25	55419.20
538.42	55707.09
538.59	55903.70
538.75	55494.10
538.92	55821.78
539.09	55990.30
539.26	56140.09
539.43	55770.28
539.60	55927.10
539.77	56273.50
539.94	56133.07
540.11	56378.82
540.28	56250.09
540.44	56229.03
540.61	56278.18
540.78	56404.57
540.95	56055.83
541.12	56313.29
541.29	56121.37
541.46	56383.51
541.62	56610.54
541.79	56334.35
541.96	56343.72
542.13	56418.61
542.30	56559.05
542.47	56643.30
542.63	56463.08
542.80	56591.81
542.97	57036.51
543.14	57097.37
543.31	56994.39
543.48	57240.14
543.64	57193.33
543.81	57205.03
543.98	56970.98
544.15	57305.68
544.32	57258.87
544.48	57139.50
544.65	57172.27
544.82	57251.84
544.99	57036.51
545.16	57240.14
545.32	57448.45
545.49	57506.96
545.66	57368.87
545.83	57483.56
546.00	57623.99
546.16	57350.15
546.33	57242.48
546.50	57368.87
546.67	57780.81
546.83	57242.48
547.00	57560.79
547.17	57764.42
547.34	57715.27
547.50	57907.19
547.67	58064.01
547.84	57935.28
548.00	57925.92
548.17	58176.36
548.34	57968.05
548.51	57949.32
548.67	58141.25
548.84	57832.30
549.01	57867.40
549.18	57832.30
549.34	58120.18
549.51	58417.43
549.68	58127.20
549.84	58127.20
550.01	58218.49
550.18	58141.25
550.34	58424.45
550.51	58527.44
550.68	58075.71
550.84	57998.48
551.01	58319.13
551.18	58342.53
551.34	58375.30
551.51	58333.17
551.68	58431.47
551.84	58534.46
552.01	58340.19
552.18	58515.73
552.34	58379.98
552.51	58389.34
552.68	58342.53
552.84	58632.76
553.01	58932.35
553.18	58621.06
553.34	58838.73
553.51	58700.64
553.67	58595.31
553.84	58897.24
554.01	58726.38
554.17	58979.16
554.34	59000.22
554.51	58728.72
554.67	58791.92
554.84	58803.62
555.00	58908.94
555.17	58913.62
555.33	59030.65
555.50	58607.01
555.67	58890.22
555.83	58962.78
556.00	59229.60
556.16	59386.41
556.33	59250.66
556.50	59159.38
556.66	59276.41
556.83	59084.48
556.99	59222.58
557.16	59454.29
557.32	59465.99
557.49	59573.66
557.65	59105.55
557.82	59400.46
557.98	59271.73
558.15	59306.83
558.32	59374.71
558.48	59222.58
558.65	59470.67
558.81	59213.21
558.98	59334.92
559.14	59461.31
559.31	59475.35
559.47	59501.10
559.64	59552.59
559.80	59421.52
559.97	59547.91
560.13	59517.48
560.30	59489.40
560.46	59746.86
560.63	59564.29
560.79	59524.50
560.96	59788.98
561.12	59721.11
561.29	59660.26
561.45	59707.07
561.61	59831.11
561.78	59606.42
561.94	59648.55
562.11	59700.04
562.27	59765.58
562.44	59814.73
562.60	59927.08
562.77	59725.79
562.93	59718.77
563.10	59896.65
563.26	59833.46
563.42	59894.31
563.59	60037.08
563.75	59718.77
563.92	59812.39
564.08	59910.69
564.24	60076.87
564.41	60123.68
564.57	59955.16
564.74	60027.72
564.90	59922.40
565.07	60018.36
565.23	59941.12
565.39	59943.46
565.56	59950.48
565.72	59997.29
565.88	60193.90
566.05	59831.11
566.21	60069.85
566.38	60238.37
566.54	60301.56
566.70	60224.32
566.87	60331.99
567.03	60104.96
567.19	60060.49
567.36	60095.60
567.52	60189.22
567.68	60252.41
567.85	60186.88
568.01	60343.69
568.17	60170.49
568.34	60339.01
568.50	60130.70
568.66	60221.98
568.83	60198.58
568.99	60315.61
569.15	60257.09
569.32	60577.75
569.48	60093.25
569.64	60463.06
569.81	60278.16
569.97	60266.45
570.13	60456.04
570.30	60182.19
570.46	60500.51
570.62	60334.33
570.78	60315.61
570.95	60240.71
571.11	60275.82
571.27	60175.17
571.43	60449.02
571.60	60608.17
571.76	60477.10
571.92	60535.62
572.09	60591.79
572.25	60327.31
572.41	60486.46
572.57	60374.12
572.74	60554.34
572.90	60519.23
573.06	60582.43
573.22	60535.62
573.38	60528.59
573.55	60530.93
573.71	60678.39
573.87	60610.51
574.03	60367.10
574.20	60439.65
574.36	60622.22
574.52	60652.64
574.68	60589.45
574.84	60720.52
575.01	60566.04
575.17	60741.58
575.33	60533.28
575.49	60355.39
575.65	60624.56
575.82	60594.13
575.98	60652.64
576.14	60914.78
576.30	60882.02
576.46	60636.26
576.62	60402.21
576.79	60713.50
576.95	60477.10
577.11	60807.12
577.27	60549.66
577.43	60643.28
577.59	60554.34
577.75	60629.24
577.92	60566.04
578.08	60860.95
578.24	60786.05
578.40	60809.46
578.56	60816.48
578.72	60549.66
578.88	60760.31
579.04	60711.16
579.21	60793.07
579.37	61031.81
579.53	60729.88
579.69	60514.55
579.85	60706.47
580.01	60472.42
580.17	60764.99
580.33	60865.63
580.49	61083.30
580.65	60755.63
580.82	60633.92
580.98	60697.11
581.14	60441.99
581.30	60867.97
581.46	60772.01
581.62	60711.16
581.78	60734.56
581.94	60956.91
582.10	60809.46
582.26	60734.56
582.42	60685.41
582.58	60736.90
582.74	60821.16
582.90	60793.07
583.06	60940.53
583.22	60608.17
583.38	60863.29
583.54	60764.99
583.70	60772.01
583.86	60729.88
584.02	60568.38
584.18	60907.76
584.34	60739.24
584.50	60720.52
584.66	60694.77
584.82	60654.98
584.98	60935.85
585.14	60870.31
585.30	60814.14
585.46	61024.79
585.62	60874.99
585.78	61008.40
585.94	60746.26
586.10	60980.32
586.26	60814.14
586.42	60851.59
586.58	60994.36
586.74	60814.14
586.90	60762.65
587.06	60711.16
587.22	60947.55
587.38	60910.10
587.54	60849.25
587.70	60977.98
587.86	60999.04
588.02	60734.56
588.18	61172.24
588.34	60853.93
588.49	61144.16
