SpectraSuite Data File
++++++++++++++++++++++++++++++++++++
Date: Fri Oct 25 11:23:18 EDT 2013
User: price-jones
Dark Spectrum Present: No
Reference Spectrum Present: No
Number of Sampled Component Spectra: 1
Spectrometers: USB2+H05261
Integration Time (usec): 100000 (USB2+H05261)
Spectra Averaged: 1 (USB2+H05261)
Boxcar Smoothing: 0 (USB2+H05261)
Correct for Electrical Dark: No (USB2+H05261)
Strobe/Lamp Enabled: No (USB2+H05261)
Correct for Detector Non-linearity: No (USB2+H05261)
Correct for Stray Light: No (USB2+H05261)
Number of Pixels in Processed Spectrum: 2048
>>>>>Begin Processed Spectral Data<<<<<
365.73	255.12
365.92	255.12
366.12	255.12
366.32	114.69
366.52	173.20
366.72	236.39
366.91	156.82
367.11	74.90
367.31	77.24
367.51	135.75
367.70	128.73
367.90	203.63
368.10	74.90
368.30	112.35
368.49	154.48
368.69	149.79
368.89	166.18
369.09	86.60
369.28	117.03
369.48	159.16
369.68	215.33
369.87	238.73
370.07	135.75
370.27	194.26
370.47	294.91
370.66	643.65
370.86	608.54
371.06	667.05
371.25	697.48
371.45	657.69
371.65	725.57
371.84	678.76
372.04	676.41
372.24	648.33
372.44	753.65
372.63	741.95
372.83	770.04
373.03	751.31
373.22	732.59
373.42	774.72
373.62	720.88
373.81	763.01
374.01	812.17
374.21	786.42
374.40	805.14
374.60	842.59
374.79	763.01
374.99	844.93
375.19	837.91
375.38	819.19
375.58	826.21
375.78	826.21
375.97	896.43
376.17	924.51
376.37	947.92
376.56	858.98
376.76	821.53
376.95	847.27
377.15	788.76
377.35	898.77
377.54	908.13
377.74	905.79
377.93	884.72
378.13	910.47
378.33	894.08
378.52	912.81
378.72	940.90
378.91	922.17
379.11	1008.77
379.31	1011.11
379.50	910.47
379.70	947.92
379.89	966.64
380.09	945.58
380.28	968.98
380.48	1027.50
380.68	1018.13
380.87	945.58
381.07	1025.15
381.26	1121.12
381.46	964.30
381.65	1006.43
381.85	1074.31
382.04	999.41
382.24	1100.05
382.43	1046.22
382.63	1055.58
382.83	1135.16
383.02	1123.46
383.22	1039.20
383.41	1032.18
383.61	1102.39
383.80	1088.35
384.00	1233.46
384.19	1118.78
384.39	1153.88
384.58	1114.10
384.78	1146.86
384.97	1139.84
385.17	1104.73
385.36	1200.69
385.56	1083.67
385.75	1198.35
385.95	1200.69
386.14	1268.57
386.34	1102.39
386.53	1294.32
386.72	1341.13
386.92	1315.38
387.11	1369.21
387.31	1252.19
387.50	1329.42
387.70	1315.38
387.89	1210.06
388.09	1207.72
388.28	1256.87
388.48	1284.95
388.67	1320.06
388.86	1207.72
389.06	1369.21
389.25	1320.06
389.45	1359.85
389.64	1254.53
389.84	1364.53
390.03	1380.92
390.22	1479.22
390.42	1427.73
390.61	1331.76
390.81	1390.28
391.00	1446.45
391.19	1441.77
391.39	1420.71
391.58	1418.36
391.78	1451.13
391.97	1504.96
392.16	1586.88
392.36	1533.05
392.55	1430.07
392.75	1619.65
392.94	1570.50
393.13	1526.03
393.33	1504.96
393.52	1575.18
393.71	1591.56
393.91	1549.43
394.10	1502.62
394.29	1621.99
394.49	1561.14
394.68	1769.44
394.88	1708.59
395.07	1626.67
395.26	1664.12
395.46	1687.53
395.65	1739.02
395.84	1792.85
396.04	1820.94
396.23	1746.04
396.42	1736.68
396.62	1703.91
396.81	1858.39
397.00	1795.19
397.19	1792.85
397.39	1778.81
397.58	1867.75
397.77	1886.47
397.97	1912.22
398.16	1825.62
398.35	1968.39
398.55	1895.83
398.74	1954.35
398.93	2052.65
399.12	1860.73
399.32	1961.37
399.51	2031.58
399.70	2078.40
399.90	2026.90
400.09	2111.16
400.28	2125.21
400.47	2012.86
400.67	2026.90
400.86	2076.06
401.05	2122.87
401.24	2146.27
401.44	2062.01
401.63	2083.08
401.82	2160.31
402.01	2176.70
402.21	2230.53
402.40	2223.51
402.59	2300.75
402.78	2195.42
402.97	2232.87
403.17	2275.00
403.36	2296.07
403.55	2349.90
403.74	2382.67
403.93	2427.14
404.13	2441.18
404.32	2415.43
404.51	2291.38
404.70	2394.37
404.89	2417.77
405.09	2548.84
405.28	2537.14
405.47	2544.16
405.66	2497.35
405.85	2544.16
406.05	2544.16
406.24	2480.97
406.43	2485.65
406.62	2654.17
406.81	2696.30
407.00	2637.78
407.20	2689.28
407.39	2574.59
407.58	2654.17
407.77	2775.88
407.96	2736.09
408.15	2813.32
408.34	2642.46
408.54	2820.35
408.73	2857.79
408.92	2993.55
409.11	2871.84
409.30	2972.48
409.49	2909.29
409.68	2967.80
409.87	2766.51
410.07	2984.18
410.26	3014.61
410.45	2930.35
410.64	3066.10
410.83	3033.33
411.02	3164.40
411.21	3171.43
411.40	3150.36
411.59	3162.06
411.78	3180.79
411.98	3187.81
412.17	3260.37
412.36	3225.26
412.55	3363.35
412.74	3405.48
412.93	3384.41
413.12	3419.52
413.31	3529.53
413.50	3531.87
413.69	3485.06
413.88	3705.07
414.07	3735.50
414.26	3730.81
414.45	3623.15
414.64	3777.62
414.83	3875.93
415.02	3754.22
415.22	3854.86
415.41	3861.88
415.60	3885.29
415.79	4009.34
415.98	3981.25
416.17	4098.28
416.36	3969.55
416.55	4030.40
416.74	4112.32
416.93	4067.85
417.12	4234.03
417.31	4229.35
417.50	4133.39
417.69	4269.14
417.88	4407.23
418.07	4278.50
418.26	4266.80
418.45	4468.08
418.64	4664.69
418.83	4479.79
419.02	4468.08
419.21	4566.39
419.39	4540.64
419.58	4482.13
419.77	4475.10
419.96	4545.32
420.15	4564.04
420.34	4681.07
420.53	4676.39
420.72	4657.67
420.91	4709.16
421.10	4812.14
421.29	4727.88
421.48	4795.76
421.67	4847.25
421.86	4795.76
422.05	4894.06
422.24	4704.48
422.43	4828.53
422.61	4954.91
422.80	4980.66
422.99	5114.07
423.18	5006.41
423.37	5095.35
423.56	5121.09
423.75	5046.20
423.94	4868.31
424.13	4688.09
424.32	4887.04
424.50	5132.79
424.69	5170.24
424.88	5184.29
425.07	5011.09
425.26	4950.23
425.45	5090.67
425.64	5144.50
425.83	5018.11
426.01	5097.69
426.20	5195.99
426.39	5135.14
426.58	5233.44
426.77	5280.25
426.96	5188.97
427.15	5123.43
427.33	5163.22
427.52	5135.14
427.71	5284.93
427.90	5184.29
428.09	5392.59
428.28	5565.79
428.46	5359.83
428.65	5322.38
428.84	5579.84
429.03	5636.01
429.22	5441.75
429.40	5701.54
429.59	5666.44
429.78	5310.68
429.97	5327.06
430.16	5631.33
430.34	5659.42
430.53	5701.54
430.72	5614.95
430.91	5715.59
431.10	5579.84
431.28	5905.17
431.47	5900.49
431.66	5760.06
431.85	5722.61
432.03	5900.49
432.22	6047.94
432.41	5989.43
432.60	5827.93
432.79	5940.28
432.97	5956.66
433.16	6125.18
433.35	5991.77
433.54	6115.82
433.72	6150.93
433.91	6270.30
434.10	6162.63
434.28	6115.82
434.47	6258.59
434.66	6225.82
434.85	6211.78
435.03	6483.28
435.22	6370.94
435.41	6478.60
435.59	6513.71
435.78	6347.53
435.97	6413.07
436.16	6415.41
436.34	6693.93
436.53	6604.99
436.72	6876.49
436.90	6597.97
437.09	6656.48
437.28	6448.18
437.46	6459.88
437.65	6459.88
437.84	6984.16
438.02	6869.47
438.21	6904.58
438.40	6841.39
438.58	7014.59
438.77	7180.76
438.96	7066.08
439.14	7155.02
439.33	7159.70
439.52	7382.05
439.70	7349.28
439.89	7520.14
440.08	7428.86
440.26	7506.10
440.45	7536.52
440.63	7548.23
440.82	7693.34
441.01	7431.20
441.19	7847.82
441.38	7779.94
441.57	7749.51
441.75	7911.01
441.94	8166.13
442.12	8116.98
442.31	8060.80
442.50	7988.25
442.68	8102.93
442.87	8154.43
443.05	8182.51
443.24	8126.34
443.43	8182.51
443.61	8280.82
443.80	8535.93
443.98	8037.40
444.17	7889.95
444.35	8297.20
444.54	8465.72
444.73	8271.45
444.91	8367.42
445.10	8458.70
445.28	8325.29
445.47	8718.50
445.65	8528.91
445.84	8627.21
446.02	8657.64
446.21	8531.25
446.39	8404.86
446.58	8388.48
446.77	8709.13
446.95	8322.94
447.14	8716.16
447.32	8589.77
447.51	8535.93
447.69	8657.64
447.88	8496.14
448.06	8631.90
448.25	8720.84
448.43	8769.99
448.62	8968.93
448.80	8524.23
448.99	8748.92
449.17	8746.58
449.36	8844.88
449.54	9015.74
449.73	8940.85
449.91	9104.68
450.10	9109.36
450.28	9261.50
450.46	9224.05
450.65	9102.34
450.83	9158.52
451.02	9174.90
451.20	9280.22
451.39	9177.24
451.57	9458.10
451.76	9359.80
451.94	9418.32
452.13	9415.98
452.31	9415.98
452.49	9172.56
452.68	9561.09
452.86	9315.33
453.05	9420.66
453.23	9479.17
453.42	9518.96
453.60	9476.83
453.78	9790.46
453.97	9387.89
454.15	9607.90
454.34	9411.29
454.52	9654.71
454.70	9701.52
454.89	9713.22
455.07	9832.59
455.26	9912.17
455.44	9933.23
455.62	10054.94
455.81	10097.07
455.99	10134.52
456.17	10195.37
456.36	10008.13
456.54	10380.28
456.73	10565.18
456.91	10607.31
457.09	10464.54
457.28	10677.52
457.46	10459.85
457.64	10530.07
457.83	10427.09
458.01	10452.83
458.19	10923.28
458.38	10661.14
458.56	10878.81
458.74	10937.32
458.93	10733.70
459.11	10817.96
459.29	10932.64
459.48	10942.00
459.66	11279.04
459.84	11028.60
460.03	11213.51
460.21	11096.48
460.39	11150.31
460.57	11087.12
460.76	11250.96
460.94	11456.92
461.12	11314.15
461.31	11159.67
461.49	11307.13
461.67	11304.79
461.85	11611.40
462.04	11414.79
462.22	11665.23
462.40	11709.70
462.59	11852.47
462.77	11831.41
462.95	11721.40
463.13	12056.10
463.32	12009.29
463.50	11751.83
463.68	11889.92
463.86	11978.86
464.05	11960.14
464.23	11971.84
464.41	11868.86
464.59	11815.02
464.78	12170.79
464.96	12009.29
465.14	12315.90
465.32	12224.62
465.50	12318.24
465.69	12238.66
465.87	12411.86
466.05	12187.17
466.23	12210.57
466.41	12196.53
466.60	12702.09
466.78	12116.95
466.96	12351.01
467.14	12442.29
467.32	12716.13
467.51	12582.72
467.69	12224.62
467.87	12489.10
468.05	12769.96
468.23	12545.27
468.41	12465.69
468.60	12776.98
468.78	12936.14
468.96	12751.24
469.14	12994.65
469.32	13249.77
469.50	12896.35
469.69	13277.86
469.87	13156.15
470.05	13392.55
470.23	13294.24
470.41	13437.02
470.59	13392.55
470.77	13614.90
470.95	13371.48
471.14	13664.05
471.32	13324.67
471.50	13788.10
471.68	13862.99
471.86	13893.42
472.04	13947.25
472.22	14052.58
472.40	13792.78
472.58	13888.74
472.77	14015.13
472.95	14406.00
473.13	14679.84
473.31	14408.34
473.49	14181.31
473.67	14401.32
473.85	14635.37
474.03	14796.87
474.21	14686.86
474.39	14717.29
474.57	15119.86
474.75	15019.22
474.93	15171.35
475.12	14998.15
475.30	15389.02
475.48	15241.57
475.66	15484.98
475.84	15618.39
476.02	15407.75
476.20	15386.68
476.38	15990.54
476.56	16294.81
476.74	16002.24
476.92	15913.30
477.10	15988.20
477.28	16166.08
477.46	16250.34
477.64	16428.22
477.82	16978.25
478.00	17156.13
478.18	16697.38
478.36	17219.32
478.54	17472.10
478.72	17516.57
478.90	17722.54
479.08	17919.14
479.26	17886.37
479.44	17806.80
479.62	18092.34
479.80	18455.12
479.98	18471.51
480.16	18902.17
480.34	18462.15
480.52	18747.69
480.70	18923.23
480.88	18647.05
481.06	18960.68
481.24	19178.35
481.41	19693.27
481.59	19438.15
481.77	19672.20
481.95	20053.71
482.13	20074.77
482.31	19946.05
482.49	20673.95
482.67	20720.76
482.85	21010.99
483.03	20769.91
483.21	21413.56
483.39	21343.35
483.57	21144.40
483.74	21565.70
483.92	21556.33
484.10	21263.77
484.28	22026.78
484.46	22274.88
484.64	22845.97
484.82	22333.39
485.00	23124.49
485.18	23147.90
485.35	23447.49
485.53	23117.47
485.71	23136.20
485.89	23508.34
486.07	23597.28
486.25	23662.82
486.43	23693.24
486.61	24348.59
486.78	24526.47
486.96	24428.17
487.14	25144.38
487.32	24805.00
487.50	25254.38
487.68	25329.28
487.85	25568.01
488.03	25766.96
488.21	26139.10
488.39	26206.98
488.57	26642.32
488.75	26485.50
488.92	26792.11
489.10	27026.17
489.28	27246.18
489.46	27316.39
489.64	27325.75
489.81	28107.49
489.99	27995.15
490.17	28081.75
490.35	28554.54
490.53	28472.62
490.70	29057.75
490.88	28645.82
491.06	29158.39
491.24	28971.15
491.41	29039.03
491.59	29572.67
491.77	29710.76
491.95	30085.25
492.13	29757.57
492.30	30363.77
492.48	30429.30
492.66	30733.57
492.84	30567.40
493.01	30911.46
493.19	30866.98
493.37	31576.17
493.54	31592.55
493.72	31866.39
493.90	31878.10
494.08	31742.35
494.25	32751.12
494.43	32421.10
494.61	32198.75
494.79	32982.83
494.96	32905.59
495.14	33317.53
495.32	33539.88
495.49	33771.59
495.67	33717.76
495.85	34258.42
496.02	34183.52
496.20	34796.74
496.38	34464.39
496.55	34274.80
496.73	35281.24
496.91	34766.32
497.09	35557.42
497.26	35381.88
497.44	35541.03
497.62	35688.49
497.79	36100.42
497.97	36163.62
498.14	36308.73
498.32	36814.29
498.50	36620.02
498.67	37085.79
498.85	37111.53
499.03	37312.82
499.20	37116.22
499.38	37352.61
499.56	37193.45
499.73	37804.33
499.91	38115.62
500.08	38167.12
500.26	37933.06
500.44	38337.98
500.61	38398.83
500.79	37998.60
500.97	38780.34
501.14	39232.06
501.32	39201.63
501.49	39119.71
501.67	39061.20
501.84	39566.76
502.02	39519.95
502.20	39739.96
502.37	39695.49
502.55	39651.02
502.72	39892.09
502.90	40027.84
503.07	39845.28
503.25	40385.94
503.43	40512.33
503.60	40540.42
503.78	40657.45
503.95	40950.01
504.13	41401.74
504.30	41064.70
504.48	41060.02
504.65	41151.30
504.83	41790.27
505.01	41961.12
505.18	41954.10
505.36	42185.82
505.53	41724.73
505.71	42131.98
505.88	42040.70
506.06	42103.90
506.23	42478.38
506.41	42227.95
506.58	42679.67
506.76	42583.71
506.93	43131.39
507.11	42677.33
507.28	43194.59
507.46	43494.18
507.63	43863.98
507.81	44081.65
507.98	43817.17
508.16	43817.17
508.33	43526.94
508.50	44196.34
508.68	44495.92
508.85	44201.02
509.03	44353.15
509.20	44758.06
509.38	44641.04
509.55	45069.36
509.73	44891.48
509.90	45155.96
510.08	45057.65
510.25	45460.23
510.42	45305.75
510.60	45408.73
510.77	45963.44
510.95	45923.65
511.12	45530.44
511.30	45790.24
511.47	46108.55
511.64	45895.56
511.82	46141.32
511.99	45921.31
512.17	46841.14
512.34	46408.14
512.51	47124.35
512.69	46958.17
512.86	46864.55
513.04	47248.39
513.21	47276.48
513.38	47398.19
513.56	47461.38
513.73	47124.35
513.90	47697.78
514.08	47622.88
514.25	47445.00
514.43	48058.22
514.60	48002.05
514.77	47688.42
514.95	48020.77
515.12	48336.74
515.29	47852.25
515.47	48336.74
515.64	48451.43
515.81	48252.48
515.99	48521.65
516.16	49099.76
516.33	48992.09
516.51	49682.55
516.68	48919.54
516.85	48987.41
517.03	49446.16
517.20	49322.11
517.37	49261.26
517.54	49397.01
517.72	49148.91
517.89	49584.25
518.06	49736.38
518.24	49656.81
518.41	50059.38
518.58	50202.15
518.75	49677.87
518.93	49986.82
519.10	49984.48
519.27	50387.05
519.45	50520.46
519.62	50188.11
519.79	50361.31
519.96	50394.07
520.14	50396.42
520.31	50370.67
520.48	50731.11
520.65	50817.71
520.83	51253.05
521.00	51365.40
521.17	50986.23
521.34	50848.14
521.52	51416.89
521.69	51384.12
521.86	51491.79
522.03	51714.14
522.20	51793.71
522.38	51992.66
522.55	51835.84
522.72	52018.41
522.89	51889.68
523.07	52296.93
523.24	52055.85
523.41	52046.49
523.58	51800.74
523.75	52343.74
523.92	52126.07
524.10	52289.91
524.27	52528.64
524.44	52589.50
524.61	52397.57
524.78	52561.41
524.96	52704.18
525.13	52587.16
525.30	52772.06
525.47	52875.04
525.64	53036.54
525.81	52863.34
525.98	53191.01
526.16	53343.15
526.33	52987.39
526.50	53481.24
526.67	53249.53
526.84	53408.68
527.01	53254.21
527.18	53235.48
527.36	53415.71
527.53	53572.52
527.70	53886.15
527.87	53734.02
528.04	53715.29
528.21	53829.98
528.38	53705.93
528.55	53904.88
528.72	53942.33
528.89	53886.15
529.07	53837.00
529.24	53890.83
529.41	54251.28
529.58	53958.71
529.75	53776.15
529.92	53989.14
530.09	54178.72
530.26	54248.94
530.43	54560.23
530.60	54066.38
530.77	54174.04
530.94	54581.29
531.11	54501.71
531.28	54740.45
531.46	54628.10
531.63	54623.42
531.80	54628.10
531.97	54731.09
532.14	54918.33
532.31	54906.63
532.48	54782.58
532.65	54693.64
532.82	54848.11
532.99	55030.68
533.16	55096.21
533.33	55386.44
533.50	55437.93
533.67	55194.51
533.84	54901.95
534.01	55327.92
534.18	55217.92
534.35	55599.43
534.52	55444.95
534.69	55522.19
534.86	55391.12
535.03	55700.07
535.20	55765.60
535.37	55688.37
535.54	55566.66
535.71	55629.85
535.88	55756.24
536.05	55683.69
536.22	55716.45
536.38	55957.53
536.55	55838.16
536.72	55943.48
536.89	55693.05
537.06	56203.28
537.23	56247.75
537.40	56083.92
537.57	56186.90
537.74	56207.97
537.91	56427.98
538.08	56275.84
538.25	56041.79
538.42	56313.29
538.59	56486.49
538.75	56191.58
538.92	56479.47
539.09	56622.24
539.26	56460.74
539.43	56495.85
539.60	56769.69
539.77	56549.68
539.94	56889.06
540.11	56559.05
540.28	56734.59
540.44	56619.90
540.61	56781.40
540.78	56774.37
540.95	56591.81
541.12	56729.90
541.29	56938.21
541.46	57123.11
541.62	56804.80
541.79	57181.63
541.96	56828.21
542.13	56725.22
542.30	56987.36
542.47	57200.35
542.63	57198.01
542.80	57130.14
542.97	57352.49
543.14	57504.62
543.31	57513.98
543.48	57677.82
543.64	57865.06
543.81	57769.10
543.98	57818.25
544.15	57457.81
544.32	57860.38
544.48	57762.08
544.65	57879.11
544.82	57815.91
544.99	57801.87
545.16	57719.95
545.32	57619.31
545.49	58047.63
545.66	57956.35
545.83	57982.09
546.00	58040.60
546.16	57923.58
546.33	58038.26
546.50	57759.74
546.67	58031.24
546.83	57588.88
547.00	58012.52
547.17	58211.46
547.34	58007.84
547.50	58277.00
547.67	58588.29
547.84	58225.51
548.00	58473.60
548.17	58611.70
548.34	58560.20
548.51	58649.14
548.67	58564.88
548.84	58461.90
549.01	58429.13
549.18	58351.90
549.34	58520.41
549.51	58506.37
549.68	58747.45
549.84	58944.05
550.01	58754.47
550.18	58614.04
550.34	58684.25
550.51	58791.92
550.68	58597.65
550.84	58576.59
551.01	58869.15
551.18	58834.05
551.34	58822.34
551.51	58731.06
551.68	59131.29
551.84	59049.38
552.01	58754.47
552.18	59353.65
552.34	58937.03
552.51	59159.38
552.68	58911.28
552.84	59054.06
553.01	59372.37
553.18	59215.55
553.34	59269.39
553.51	59147.68
553.67	59135.98
553.84	59227.26
554.01	59292.79
554.17	59271.73
554.34	59363.01
554.51	59306.83
554.67	59372.37
554.84	59276.41
555.00	59161.72
555.17	59084.48
555.33	59316.20
555.50	59267.05
555.67	59119.59
555.83	59274.07
556.00	59327.90
556.16	59681.32
556.33	59718.77
556.50	59510.46
556.66	59646.21
556.83	59456.63
556.99	59814.73
557.16	59887.29
557.32	59760.90
557.49	59945.80
557.65	59697.70
557.82	59807.71
557.98	59690.68
558.15	59760.90
558.32	59648.55
558.48	59681.32
558.65	60025.38
558.81	59866.22
558.98	59716.43
559.14	60111.98
559.31	59966.87
559.47	59852.18
559.64	60144.75
559.80	59941.12
559.97	60182.19
560.13	59891.97
560.30	60051.12
560.46	60282.84
560.63	60100.28
560.79	60247.73
560.96	60231.35
561.12	60027.72
561.29	60121.34
561.45	60362.42
561.61	60107.30
561.78	60130.70
561.94	60109.64
562.11	60296.88
562.27	60210.28
562.44	60301.56
562.60	60329.65
562.77	60158.79
562.93	60097.94
563.10	60212.62
563.26	60067.51
563.42	60346.03
563.59	60390.50
563.75	60224.32
563.92	60315.61
564.08	60423.27
564.24	60542.64
564.41	60399.86
564.57	60406.89
564.74	60350.71
564.90	60339.01
565.07	60406.89
565.23	60561.36
565.39	60420.93
565.56	60640.94
565.72	60451.36
565.88	60795.42
566.05	60390.50
566.21	60465.40
566.38	60554.34
566.54	60514.55
566.70	60601.15
566.87	60804.78
567.03	60465.40
567.19	60760.31
567.36	60654.98
567.52	60631.58
567.68	60828.18
567.85	60526.25
568.01	60603.49
568.17	60636.26
568.34	60802.44
568.50	60650.30
568.66	60800.10
568.83	60584.77
568.99	60495.83
569.15	60800.10
569.32	60697.11
569.48	60683.07
569.64	60846.91
569.81	60767.33
569.97	60781.37
570.13	60725.20
570.30	60645.62
570.46	60818.82
570.62	60891.38
570.78	60704.13
570.95	60914.78
571.11	60844.57
571.27	60783.71
571.43	61006.06
571.60	61001.38
571.76	60856.27
571.92	60959.25
572.09	61055.21
572.25	60837.54
572.41	60931.17
572.57	60956.91
572.74	61104.37
572.90	60879.67
573.06	60720.52
573.22	61055.21
573.38	61024.79
573.55	60963.93
573.71	61071.60
573.87	61083.30
574.03	60910.10
574.20	61062.24
574.36	61020.11
574.52	61127.77
574.68	61151.18
574.84	61144.16
575.01	61104.37
575.17	61111.39
575.33	60842.23
575.49	61078.62
575.65	60966.27
575.82	60980.32
575.98	61116.07
576.14	61237.78
576.30	61165.22
576.46	61137.13
576.62	61130.11
576.79	60970.96
576.95	60980.32
577.11	60999.04
577.27	61155.86
577.43	61190.97
577.59	61045.85
577.75	61036.49
577.92	61066.92
578.08	60987.34
578.24	61155.86
578.40	61282.25
578.56	61209.69
578.72	61001.38
578.88	61357.14
579.04	61385.23
579.21	61460.13
579.37	61492.89
579.53	61322.04
579.69	60940.53
579.85	61017.77
580.01	61031.81
580.17	61127.77
580.33	61263.52
580.49	61293.95
580.65	61031.81
580.82	61146.50
580.98	61169.90
581.14	60858.61
581.30	61090.32
581.46	61212.03
581.62	61172.24
581.78	61200.33
581.94	61272.88
582.10	61076.28
582.26	61331.40
582.42	61221.39
582.58	61141.81
582.74	61385.23
582.90	61354.80
583.06	61226.07
583.22	61069.26
583.38	61251.82
583.54	61221.39
583.70	61455.45
583.86	61258.84
584.02	61160.54
584.18	61506.94
584.34	61270.54
584.50	61338.42
584.66	61036.49
584.82	61038.83
584.98	61406.30
585.14	61382.89
585.30	60963.93
585.46	61146.50
585.62	61345.44
585.78	61359.48
585.94	61174.58
586.10	61233.10
586.26	61488.21
586.42	61450.77
586.58	61408.64
586.74	61345.44
586.90	61144.16
587.06	61242.46
587.22	61338.42
587.38	61385.23
587.54	61558.43
587.70	61516.30
587.86	61385.23
588.02	61305.65
588.18	61418.00
588.34	61242.46
588.49	61268.20
