SpectraSuite Data File
++++++++++++++++++++++++++++++++++++
Date: Fri Oct 25 11:33:17 EDT 2013
User: price-jones
Dark Spectrum Present: No
Reference Spectrum Present: No
Number of Sampled Component Spectra: 1
Spectrometers: USB2+H05261
Integration Time (usec): 100000 (USB2+H05261)
Spectra Averaged: 1 (USB2+H05261)
Boxcar Smoothing: 0 (USB2+H05261)
Correct for Electrical Dark: No (USB2+H05261)
Strobe/Lamp Enabled: No (USB2+H05261)
Correct for Detector Non-linearity: No (USB2+H05261)
Correct for Stray Light: No (USB2+H05261)
Number of Pixels in Processed Spectrum: 2048
>>>>>Begin Processed Spectral Data<<<<<
365.73	229.37
365.92	229.37
366.12	229.37
366.32	184.90
366.52	175.54
366.72	234.05
366.91	159.16
367.11	161.50
367.31	149.79
367.51	79.58
367.70	147.45
367.90	156.82
368.10	145.11
368.30	168.52
368.49	128.73
368.69	189.58
368.89	215.33
369.09	205.97
369.28	166.18
369.48	203.63
369.68	215.33
369.87	287.89
370.07	259.80
370.27	301.93
370.47	294.91
370.66	447.04
370.86	585.13
371.06	568.75
371.25	552.37
371.45	547.69
371.65	568.75
371.84	545.34
372.04	603.86
372.24	503.22
372.44	554.71
372.63	709.18
372.83	624.92
373.03	596.84
373.22	564.07
373.42	543.00
373.62	716.20
373.81	589.82
374.01	620.24
374.21	608.54
374.40	645.99
374.60	596.84
374.79	685.78
374.99	629.60
375.19	627.26
375.38	676.41
375.58	645.99
375.78	664.71
375.97	674.07
376.17	589.82
376.37	699.82
376.56	699.82
376.76	681.10
376.95	650.67
377.15	657.69
377.35	702.16
377.54	695.14
377.74	664.71
377.93	650.67
378.13	748.97
378.33	734.93
378.52	678.76
378.72	732.59
378.91	655.35
379.11	697.48
379.31	753.65
379.50	704.50
379.70	709.18
379.89	755.99
380.09	690.46
380.28	706.84
380.48	725.57
380.68	695.14
380.87	746.63
381.07	786.42
381.26	812.17
381.46	823.87
381.65	737.27
381.85	748.97
382.04	786.42
382.24	706.84
382.43	807.48
382.63	685.78
382.83	751.31
383.02	828.55
383.22	784.08
383.41	697.48
383.61	791.10
383.80	938.55
384.00	788.76
384.19	835.57
384.39	823.87
384.58	772.38
384.78	812.17
384.97	844.93
385.17	802.80
385.36	741.95
385.56	739.61
385.75	819.19
385.95	800.46
386.14	887.06
386.34	816.85
386.53	854.30
386.72	870.68
386.92	896.43
387.11	887.06
387.31	887.06
387.50	882.38
387.70	903.45
387.89	915.15
388.09	887.06
388.28	954.94
388.48	882.38
388.67	901.11
388.86	943.24
389.06	1022.81
389.25	929.19
389.45	950.26
389.64	889.40
389.84	1025.15
390.03	924.51
390.22	994.73
390.42	980.68
390.61	1004.09
390.81	964.30
391.00	1008.77
391.19	1055.58
391.39	983.02
391.58	1039.20
391.78	1064.94
391.97	1006.43
392.16	1025.15
392.36	1095.37
392.55	1060.26
392.75	1118.78
392.94	1001.75
393.13	1053.24
393.33	1111.75
393.52	1086.01
393.71	1069.62
393.91	1116.44
394.10	1008.77
394.29	994.73
394.49	1078.99
394.68	1095.37
394.88	1107.07
395.07	1167.93
395.26	1111.75
395.46	1132.82
395.65	1191.33
395.84	1219.42
396.04	1263.89
396.23	1210.06
396.42	1210.06
396.62	1296.66
396.81	1221.76
397.00	1212.40
397.19	1228.78
397.39	1303.68
397.58	1399.64
397.77	1249.85
397.97	1275.59
398.16	1320.06
398.35	1294.32
398.55	1219.42
398.74	1289.64
398.93	1338.79
399.12	1294.32
399.32	1270.91
399.51	1306.02
399.70	1430.07
399.90	1380.92
400.09	1369.21
400.28	1357.51
400.47	1362.19
400.67	1373.89
400.86	1434.75
401.05	1444.11
401.24	1383.26
401.44	1458.15
401.63	1467.52
401.82	1430.07
402.01	1432.41
402.21	1497.94
402.40	1577.52
402.59	1458.15
402.78	1551.78
402.97	1392.62
403.17	1605.61
403.36	1537.73
403.55	1544.75
403.74	1610.29
403.93	1685.19
404.13	1664.12
404.32	1673.48
404.51	1626.67
404.70	1694.55
404.89	1701.57
405.09	1666.46
405.28	1640.72
405.47	1570.50
405.66	1851.36
405.85	1685.19
406.05	1654.76
406.24	1753.06
406.43	1816.26
406.62	1809.23
406.81	1802.21
407.00	1792.85
407.20	1785.83
407.39	1809.23
407.58	1898.17
407.77	1872.43
407.96	1909.88
408.15	1905.20
408.34	1874.77
408.54	1877.11
408.73	1872.43
408.92	1989.46
409.11	2008.18
409.30	1921.58
409.49	1989.46
409.68	1973.07
409.87	1956.69
410.07	2062.01
410.26	2113.50
410.45	2066.69
410.64	2036.27
410.83	2214.15
411.02	2207.13
411.21	2202.44
411.40	2195.42
411.59	2202.44
411.78	2134.57
411.98	2260.96
412.17	2218.83
412.36	2298.41
412.55	2270.32
412.74	2263.30
412.93	2324.15
413.12	2253.94
413.31	2485.65
413.50	2431.82
413.69	2443.52
413.88	2450.54
414.07	2520.76
414.26	2576.93
414.45	2551.18
414.64	2530.12
414.83	2553.52
415.02	2626.08
415.22	2602.68
415.41	2717.36
415.60	2672.89
415.79	2808.64
415.98	2818.00
416.17	2752.47
416.36	2825.03
416.55	2736.09
416.74	2792.26
416.93	2766.51
417.12	2827.37
417.31	2803.96
417.50	2892.90
417.69	3068.44
417.88	2860.13
418.07	2825.03
418.26	3049.72
418.45	2972.48
418.64	3052.06
418.83	3103.55
419.02	3229.94
419.21	3251.00
419.39	3197.17
419.58	3040.36
419.77	3112.91
419.96	3199.51
420.15	3126.96
420.34	3293.13
420.53	3232.28
420.72	3248.66
420.91	3222.92
421.10	3316.54
421.29	3222.92
421.48	3417.18
421.67	3424.20
421.86	3281.43
422.05	3346.97
422.24	3232.28
422.43	3279.09
422.61	3321.22
422.80	3321.22
422.99	3375.05
423.18	3398.46
423.37	3522.51
423.56	3407.82
423.75	3478.04
423.94	3255.69
424.13	3225.26
424.32	3159.72
424.50	3377.39
424.69	3616.13
424.88	3485.06
425.07	3449.95
425.26	3463.99
425.45	3496.76
425.64	3463.99
425.83	3421.86
426.01	3452.29
426.20	3506.12
426.39	3606.77
426.58	3592.72
426.77	3487.40
426.96	3538.89
427.15	3613.79
427.33	3646.55
427.52	3646.55
427.71	3632.51
427.90	3590.38
428.09	3698.05
428.28	3808.05
428.46	3747.20
428.65	3655.92
428.84	3824.44
429.03	3768.26
429.22	3754.22
429.40	3728.47
429.59	3812.73
429.78	3627.83
429.97	3646.55
430.16	3763.58
430.34	3845.50
430.53	3878.27
430.72	3913.38
430.91	3922.74
431.10	3974.23
431.28	3878.27
431.47	3969.55
431.66	4070.19
431.85	3946.14
432.03	3960.19
432.22	4105.30
432.41	4182.54
432.60	4037.42
432.79	4067.85
432.97	4107.64
433.16	4109.98
433.35	4098.28
433.54	4191.90
433.72	4280.84
433.91	4212.96
434.10	4315.95
434.28	4131.05
434.47	4149.77
434.66	4205.94
434.85	4327.65
435.03	4358.08
435.22	4421.27
435.41	4589.79
435.59	4447.02
435.78	4383.82
435.97	4557.02
436.16	4355.74
436.34	4346.37
436.53	4575.75
436.72	4592.13
436.90	4404.89
437.09	4493.83
437.28	4496.17
437.46	4379.14
437.65	4575.75
437.84	4795.76
438.02	4732.56
438.21	4772.35
438.40	4606.17
438.58	4826.18
438.77	4919.81
438.96	4730.22
439.14	4805.12
439.33	4849.59
439.52	4945.55
439.70	5078.96
439.89	5032.15
440.08	5048.54
440.26	5111.73
440.45	5083.64
440.63	5156.20
440.82	5252.16
441.01	5275.57
441.19	5231.10
441.38	5249.82
441.57	5280.25
441.75	5280.25
441.94	5357.49
442.12	5401.96
442.31	5495.58
442.50	5397.28
442.68	5397.28
442.87	5416.00
443.05	5603.24
443.24	5610.26
443.43	5636.01
443.61	5586.86
443.80	5795.17
443.98	5451.11
444.17	5341.10
444.35	5479.19
444.54	5673.46
444.73	5760.06
444.91	5668.78
445.10	5657.07
445.28	5776.44
445.47	5680.48
445.65	5591.54
445.84	5701.54
446.02	5818.57
446.21	5710.91
446.39	5839.64
446.58	5804.53
446.77	5760.06
446.95	5785.80
447.14	5654.73
447.32	5905.17
447.51	5874.74
447.69	5802.19
447.88	5790.49
448.06	5682.82
448.25	5743.67
448.43	5804.53
448.62	5874.74
448.80	5905.17
448.99	5806.87
449.17	6047.94
449.36	5937.94
449.54	6087.73
449.73	6146.25
449.91	6235.19
450.10	6040.92
450.28	6239.87
450.46	6225.82
450.65	6101.78
450.83	6195.40
451.02	6183.70
451.20	6136.88
451.39	6146.25
451.57	6162.63
451.76	6174.33
451.94	6314.77
452.13	6333.49
452.31	6314.77
452.49	6260.93
452.68	6436.47
452.86	6347.53
453.05	6520.73
453.23	6413.07
453.42	6349.87
453.60	6321.79
453.78	6441.15
453.97	6457.54
454.15	6499.67
454.34	6457.54
454.52	6700.95
454.70	6682.23
454.89	6588.61
455.07	6750.10
455.26	6633.08
455.44	6820.32
455.62	6670.53
455.81	6609.67
455.99	6876.49
456.17	6768.83
456.36	6885.86
456.54	6909.26
456.73	6874.15
456.91	7054.37
457.09	7248.64
457.28	7187.79
457.46	6956.07
457.64	6984.16
457.83	7080.12
458.01	7166.72
458.19	7192.47
458.38	7157.36
458.56	7353.96
458.74	7297.79
458.93	7037.99
459.11	7328.22
459.29	7243.96
459.48	7421.84
459.66	7246.30
459.84	7398.43
460.03	7386.73
460.21	7442.90
460.39	7433.54
460.57	7552.91
460.76	7569.29
460.94	7573.97
461.12	7801.01
461.31	7669.94
461.49	7480.35
461.67	7522.48
461.85	7761.22
462.04	7583.34
462.22	7873.56
462.40	7808.03
462.59	7761.22
462.77	7868.88
462.95	7943.78
463.13	7943.78
463.32	7999.95
463.50	8035.06
463.68	8049.10
463.86	8065.49
464.05	8056.12
464.23	8044.42
464.41	7964.84
464.59	8114.64
464.78	8224.64
464.96	7943.78
465.14	7929.74
465.32	8191.88
465.50	8184.85
465.69	8243.37
465.87	8119.32
466.05	8283.16
466.23	8248.05
466.41	8238.69
466.60	8276.13
466.78	8252.73
466.96	8304.22
467.14	8367.42
467.32	8243.37
467.51	8402.52
467.69	8189.53
467.87	8498.49
468.05	8561.68
468.23	8524.23
468.41	8358.05
468.60	8545.30
468.78	8652.96
468.96	8582.74
469.14	8449.33
469.32	8837.86
469.50	8643.60
469.69	8739.56
469.87	8844.88
470.05	8779.35
470.23	8842.54
470.41	8774.67
470.59	9046.17
470.77	8706.79
470.95	8964.25
471.14	9100.00
471.32	8833.18
471.50	9261.50
471.68	9102.34
471.86	9210.01
472.04	9245.12
472.22	9256.82
472.40	8978.30
472.58	9270.86
472.77	9420.66
472.95	9390.23
473.13	9743.65
473.31	9348.10
473.49	9502.58
473.67	9516.62
473.85	9872.38
474.03	9713.22
474.21	9783.44
474.39	9762.37
474.57	9788.12
474.75	9966.00
474.93	10052.60
475.12	10068.98
475.30	9956.64
475.48	9982.38
475.66	10090.05
475.84	10162.61
476.02	10214.10
476.20	10279.63
476.38	10581.56
476.56	10647.10
476.74	10871.79
476.92	10616.67
477.10	10436.45
477.28	10586.24
477.46	10881.15
477.64	10892.85
477.82	11021.58
478.00	11112.86
478.18	11398.41
478.36	11222.87
478.54	11346.92
478.72	11587.99
478.90	11403.09
479.08	11576.29
479.26	11950.78
479.44	11885.24
479.62	11719.06
479.80	12159.08
479.98	11906.31
480.16	12269.09
480.34	12156.74
480.52	12306.54
480.70	12741.88
480.88	12395.48
481.06	12461.01
481.24	12685.70
481.41	12842.52
481.59	12809.75
481.77	13004.02
481.95	13027.42
482.13	13142.11
482.31	13170.19
482.49	13509.57
482.67	13715.54
482.85	13472.12
483.03	13582.13
483.21	13645.32
483.39	13942.57
483.57	14031.51
483.74	14328.76
483.92	14305.35
484.10	14162.58
484.28	14366.21
484.46	14576.86
484.64	14836.66
484.82	14754.74
485.00	14782.82
485.18	15000.49
485.35	15002.83
485.53	14848.36
485.71	15302.42
485.89	15386.68
486.07	15304.76
486.25	15578.61
486.43	15943.73
486.61	15946.07
486.78	16170.76
486.96	16051.39
487.14	16343.96
487.32	16313.53
487.50	16500.78
487.68	16456.31
487.85	16971.22
488.03	16783.98
488.21	16915.05
488.39	16987.61
488.57	17130.38
488.75	17277.83
488.92	17322.30
489.10	17837.22
489.28	17748.28
489.46	18113.41
489.64	17909.78
489.81	18391.93
489.99	18363.84
490.17	18225.75
490.35	18726.63
490.53	18558.11
490.70	18698.54
490.88	18487.89
491.06	19012.17
491.24	19304.74
491.41	19218.14
491.59	19309.42
491.77	19304.74
491.95	19662.84
492.13	19711.99
492.30	19747.10
492.48	19829.02
492.66	20102.86
492.84	20236.27
493.01	20334.57
493.19	20716.08
493.37	20524.16
493.54	20425.86
493.72	20966.52
493.90	20872.90
494.08	20891.62
494.25	21383.13
494.43	21027.37
494.61	21607.83
494.79	21563.36
494.96	21750.60
495.14	21708.47
495.32	21968.27
495.49	21928.48
495.67	21954.22
495.85	22403.61
496.02	22373.18
496.20	22689.15
496.38	22455.10
496.55	22731.28
496.73	22958.31
496.91	22806.18
497.09	22876.40
497.26	23080.02
497.44	23328.12
497.62	23396.00
497.79	23742.39
497.97	23555.15
498.14	23426.42
498.32	24159.01
498.50	23915.59
498.67	24446.90
498.85	24608.39
499.03	24149.65
499.20	24292.42
499.38	24395.40
499.56	24645.84
499.73	24364.98
499.91	24711.38
500.08	24926.71
500.26	24854.15
500.44	25242.68
500.61	25263.74
500.79	25034.37
500.97	25458.01
501.14	25722.49
501.32	25310.55
501.49	25851.22
501.67	25593.76
501.84	25853.56
502.02	25755.26
502.20	25825.47
502.37	26120.38
502.55	25785.68
502.72	26195.28
502.90	26043.14
503.07	25750.57
503.25	26441.03
503.43	26567.42
503.60	26263.15
503.78	26773.39
503.95	26490.18
504.13	27026.17
504.30	26822.54
504.48	26918.50
504.65	27199.37
504.83	27351.50
505.01	27651.09
505.18	27417.04
505.36	27896.85
505.53	27440.44
505.71	27489.59
505.88	27899.19
506.06	27632.36
506.23	27913.23
506.41	27733.01
506.58	27889.82
506.76	28060.68
506.93	28313.46
507.11	28137.92
507.28	28727.74
507.46	28280.69
507.63	28596.67
507.81	28978.17
507.98	28362.61
508.16	28842.42
508.33	29032.00
508.50	28830.72
508.68	28833.06
508.85	29104.56
509.03	29525.86
509.20	29064.77
509.38	29319.89
509.55	29579.69
509.73	29628.84
509.90	29596.07
510.08	29502.45
510.25	29500.11
510.42	29926.09
510.60	29689.70
510.77	30459.73
510.95	30494.84
511.12	30230.36
511.30	30513.56
511.47	30494.84
511.64	30541.65
511.82	30834.22
511.99	30621.23
512.17	30616.55
512.34	30742.94
512.51	31204.02
512.69	31056.57
512.86	30962.95
513.04	31283.60
513.21	31466.16
513.38	31613.62
513.56	31075.29
513.73	31304.67
513.90	30948.90
514.08	31360.84
514.25	31882.78
514.43	32013.85
514.60	31821.92
514.77	31470.84
514.95	32158.96
515.12	32023.21
515.29	31931.93
515.47	32098.11
515.64	32437.48
515.81	32109.81
515.99	32114.49
516.16	32924.32
516.33	32514.72
516.51	32938.36
516.68	32500.68
516.85	32741.75
517.03	32730.05
517.20	33102.20
517.37	33015.60
517.54	32917.29
517.72	33205.18
517.89	33053.05
518.06	33188.80
518.24	33462.64
518.41	33249.65
518.58	33399.44
518.75	33401.79
518.93	33528.17
519.10	33572.64
519.27	33902.66
519.45	33762.23
519.62	34043.09
519.79	34293.53
519.96	34066.50
520.14	34075.86
520.31	33858.19
520.48	33905.00
520.65	34326.30
520.83	34747.59
521.00	35054.20
521.17	34611.84
521.34	34822.49
521.52	34728.87
521.69	34890.37
521.86	35016.75
522.03	35314.00
522.20	35201.66
522.38	35208.68
522.55	35386.56
522.72	35388.90
522.89	35470.82
523.07	35615.93
523.24	35295.28
523.41	35400.60
523.58	35515.29
523.75	35646.36
523.92	35784.45
524.10	35990.42
524.27	36020.84
524.44	35852.33
524.61	35995.10
524.78	36392.99
524.96	35995.10
525.13	36343.84
525.30	36498.31
525.47	36514.70
525.64	36713.64
525.81	36371.92
525.98	36793.22
526.16	36954.72
526.33	36732.37
526.50	36807.26
526.67	36931.31
526.84	37029.62
527.01	36804.92
527.18	36907.91
527.36	36825.99
527.53	37214.52
527.70	37818.38
527.87	37324.52
528.04	37703.69
528.21	37127.92
528.38	37413.46
528.55	37628.79
528.72	37577.30
528.89	37261.33
529.07	37642.84
529.24	37174.73
529.41	37958.81
529.58	37888.59
529.75	37357.29
529.92	38026.68
530.09	38206.90
530.26	38005.62
530.43	37926.04
530.60	37867.53
530.77	38047.75
530.94	38499.47
531.11	38045.41
531.28	38375.42
531.46	38204.56
531.63	38621.18
531.80	38698.42
531.97	38471.39
532.14	38637.56
532.31	38759.27
532.48	38866.94
532.65	39026.09
532.82	38965.24
532.99	39342.06
533.16	39014.39
533.33	39234.40
533.50	39037.80
533.67	38972.26
533.84	39402.92
534.01	39143.12
534.18	39187.59
534.35	39615.91
534.52	39299.94
534.69	39545.69
534.86	39496.54
535.03	39587.82
535.20	40116.78
535.37	39641.65
535.54	39913.16
535.71	39803.15
535.88	40151.89
536.05	39718.89
536.22	40301.68
536.38	39803.15
536.55	39878.05
536.72	40212.74
536.89	39971.67
537.06	40170.61
537.23	40540.42
537.40	39821.87
537.57	40285.30
537.74	40051.25
537.91	40879.80
538.08	40507.65
538.25	40313.39
538.42	40442.12
538.59	41207.47
538.75	40414.03
538.92	40849.37
539.09	41083.42
539.26	40776.81
539.43	40772.13
539.60	40786.18
539.77	41111.51
539.94	41500.04
540.11	40996.82
540.28	41280.03
540.44	41130.23
540.61	40849.37
540.78	41163.00
540.95	41186.41
541.12	41528.13
541.29	41209.81
541.46	41596.00
541.62	41352.58
541.79	41584.30
541.96	41167.68
542.13	41127.89
542.30	41764.52
542.47	41680.26
542.63	41750.48
542.80	41811.33
542.97	42848.19
543.14	42314.55
543.31	42101.56
543.48	42401.14
543.64	42600.09
543.81	42478.38
543.98	42302.84
544.15	42405.83
544.32	42604.77
544.48	42747.54
544.65	42258.37
544.82	43098.62
544.99	42408.17
545.16	43042.45
545.32	42714.78
545.49	43199.27
545.66	43215.65
545.83	43187.56
546.00	43592.48
546.16	42604.77
546.33	42944.15
546.50	42508.81
546.67	43175.86
546.83	42981.60
547.00	43019.05
547.17	43070.54
547.34	43295.23
547.50	43283.53
547.67	43814.83
547.84	43313.95
548.00	43695.46
548.17	43892.07
548.34	43353.74
548.51	43625.25
548.67	43615.88
548.84	43447.36
549.01	43889.73
549.18	43585.46
549.34	44051.22
549.51	44002.07
549.68	43660.35
549.84	43669.72
550.01	44098.03
550.18	43449.70
550.34	43814.83
550.51	44491.24
550.68	44238.47
550.84	43672.06
551.01	44144.84
551.18	44175.27
551.34	43840.57
551.51	44339.11
551.68	44268.89
551.84	44421.03
552.01	44112.08
552.18	44147.18
552.34	44179.95
552.51	44329.75
552.68	44247.83
552.84	44568.48
553.01	44942.97
553.18	44605.93
553.34	44854.03
553.51	44699.55
553.67	44945.31
553.84	45116.17
554.01	44615.29
554.17	44842.32
554.34	45062.33
554.51	44903.18
554.67	44954.67
554.84	45364.26
555.00	44968.71
555.17	45233.19
555.33	45034.25
555.50	45233.19
555.67	45106.80
555.83	44968.71
556.00	45223.83
556.16	45806.62
556.33	44938.29
556.50	45223.83
556.66	45118.51
556.83	45277.66
556.99	45668.53
557.16	45256.60
557.32	45565.55
557.49	45776.20
557.65	45497.67
557.82	45305.75
557.98	45457.88
558.15	45560.87
558.32	45521.08
558.48	45504.70
558.65	45799.60
558.81	45638.11
558.98	45296.39
559.14	45682.58
559.31	45663.85
559.47	45743.43
559.64	46078.13
559.80	46155.36
559.97	46068.76
560.13	45558.53
560.30	45745.77
560.46	46089.83
560.63	46192.81
560.79	46110.89
560.96	46253.67
561.12	46169.41
561.29	46188.13
561.45	46155.36
561.61	46223.24
561.78	45703.64
561.94	45916.63
562.11	46138.98
562.27	46293.46
562.44	46094.51
562.60	46108.55
562.77	46024.29
562.93	46103.87
563.10	46607.09
563.26	46354.31
563.42	46930.08
563.59	46450.27
563.75	45942.38
563.92	45883.86
564.08	45998.55
564.24	46705.39
564.41	46536.87
564.57	46562.62
564.74	46686.67
564.90	46340.27
565.07	46366.01
565.23	45961.10
565.39	46487.72
565.56	46075.79
565.72	46731.14
565.88	46550.91
566.05	46644.54
566.21	46845.82
566.38	46546.23
566.54	46593.04
566.70	46836.46
566.87	46789.65
567.03	46459.63
567.19	46557.94
567.36	46473.68
567.52	46686.67
567.68	47220.31
567.85	46969.87
568.01	47367.76
568.17	47253.08
568.34	46873.91
568.50	46972.21
568.66	46532.19
568.83	46787.31
568.99	47147.75
569.15	46862.21
569.32	46588.36
569.48	47140.73
569.64	47288.18
569.81	47012.00
569.97	46838.80
570.13	46967.53
570.30	46658.58
570.46	46871.57
570.62	47356.06
570.78	47253.08
570.95	46920.72
571.11	47028.38
571.27	46913.70
571.43	47351.38
571.60	47037.75
571.76	47129.03
571.92	47213.29
572.09	47173.50
572.25	47033.07
572.41	46979.23
572.57	47112.64
572.74	47519.90
572.90	47416.91
573.06	47260.10
573.22	47267.12
573.38	47316.27
573.55	47332.65
573.71	47217.97
573.87	47229.67
574.03	47510.53
574.20	47620.54
574.36	47381.80
574.52	47325.63
574.68	47475.43
574.84	47334.99
575.01	47728.20
575.17	47557.35
575.33	47402.87
575.49	46932.42
575.65	47395.85
575.82	47271.80
575.98	47192.22
576.14	47718.84
576.30	48032.47
576.46	47353.72
576.62	47152.43
576.79	47452.02
576.95	47182.86
577.11	46981.57
577.27	47494.15
577.43	47452.02
577.59	47636.92
577.75	47061.15
577.92	46983.91
578.08	47487.13
578.24	47611.18
578.40	47697.78
578.56	47393.51
578.72	47292.86
578.88	47505.85
579.04	47866.30
579.21	47370.10
579.37	47852.25
579.53	47718.84
579.69	47360.74
579.85	47480.11
580.01	47805.44
580.17	48034.81
580.33	47782.04
580.49	47917.79
580.65	47693.10
580.82	47653.31
580.98	47381.80
581.14	47522.24
581.30	47735.23
581.46	47503.51
581.62	47653.31
581.78	47728.20
581.94	47665.01
582.10	47437.98
582.26	47690.76
582.42	47723.52
582.58	47657.99
582.74	48044.18
582.90	47796.08
583.06	47753.95
583.22	47599.47
583.38	47524.58
583.54	47625.22
583.70	47613.52
583.86	47302.23
584.02	47540.96
584.18	47695.44
584.34	47791.40
584.50	47995.03
584.66	47868.64
584.82	47650.97
584.98	48212.70
585.14	47660.33
585.30	47735.23
585.46	47978.64
585.62	47775.02
585.78	47870.98
585.94	47758.63
586.10	47866.30
586.26	47540.96
586.42	47377.12
586.58	47669.69
586.74	47798.42
586.90	47753.95
587.06	47763.31
587.22	47732.89
587.38	47594.79
587.54	48086.31
587.70	47978.64
587.86	48215.04
588.02	47908.43
588.18	47878.00
588.34	47854.59
588.49	47943.53
588.65	47992.68
588.81	48020.77
588.97	48041.84
589.13	47636.92
589.29	47697.78
589.45	48404.62
589.61	47922.47
589.77	48364.83
589.93	47927.15
