SpectraSuite Data File
++++++++++++++++++++++++++++++++++++
Date: Fri Oct 25 10:44:03 EDT 2013
User: price-jones
Dark Spectrum Present: No
Reference Spectrum Present: No
Number of Sampled Component Spectra: 1
Spectrometers: USB2+H05261
Integration Time (usec): 100000 (USB2+H05261)
Spectra Averaged: 1 (USB2+H05261)
Boxcar Smoothing: 0 (USB2+H05261)
Correct for Electrical Dark: No (USB2+H05261)
Strobe/Lamp Enabled: No (USB2+H05261)
Correct for Detector Non-linearity: No (USB2+H05261)
Correct for Stray Light: No (USB2+H05261)
Number of Pixels in Processed Spectrum: 2048
>>>>>Begin Processed Spectral Data<<<<<
365.73	107.66
365.92	107.66
366.12	107.66
366.32	37.45
366.52	2.34
366.72	84.26
366.91	51.49
367.11	16.38
367.31	0.00
367.51	0.00
367.70	28.09
367.90	67.88
368.10	35.11
368.30	56.17
368.49	0.00
368.69	53.83
368.89	0.00
369.09	77.24
369.28	21.06
369.48	37.45
369.68	140.43
369.87	25.75
370.07	100.64
370.27	65.54
370.47	266.82
370.66	468.11
370.86	505.56
371.06	456.40
371.25	449.38
371.45	444.70
371.65	409.59
371.84	458.74
372.04	486.83
372.24	528.96
372.44	477.47
372.63	484.49
372.83	514.92
373.03	451.72
373.22	486.83
373.42	564.07
373.62	524.28
373.81	631.94
374.01	592.16
374.21	561.73
374.40	531.30
374.60	599.18
374.79	580.45
374.99	566.41
375.19	601.52
375.38	683.44
375.58	592.16
375.78	603.86
375.97	643.65
376.17	645.99
376.37	608.54
376.56	631.94
376.76	585.13
376.95	631.94
377.15	660.03
377.35	645.99
377.54	636.63
377.74	634.29
377.93	718.54
378.13	741.95
378.33	690.46
378.52	725.57
378.72	631.94
378.91	697.48
379.11	615.56
379.31	734.93
379.50	669.39
379.70	641.31
379.89	767.70
380.09	681.10
380.28	746.63
380.48	697.48
380.68	704.50
380.87	704.50
381.07	702.16
381.26	718.54
381.46	634.29
381.65	634.29
381.85	676.41
382.04	627.26
382.24	676.41
382.43	770.04
382.63	760.67
382.83	800.46
383.02	767.70
383.22	777.06
383.41	720.88
383.61	737.27
383.80	791.10
384.00	746.63
384.19	809.83
384.39	835.57
384.58	821.53
384.78	828.55
384.97	847.27
385.17	910.47
385.36	844.93
385.56	833.23
385.75	823.87
385.95	840.25
386.14	875.36
386.34	760.67
386.53	828.55
386.72	774.72
386.92	903.45
387.11	840.25
387.31	840.25
387.50	840.25
387.70	912.81
387.89	884.72
388.09	959.62
388.28	961.96
388.48	924.51
388.67	908.13
388.86	1041.54
389.06	957.28
389.25	1004.09
389.45	968.98
389.64	1029.84
389.84	1041.54
390.03	1029.84
390.22	1107.07
390.42	1111.75
390.61	1041.54
390.81	1097.71
391.00	1043.88
391.19	1053.24
391.39	1102.39
391.58	1064.94
391.78	1018.13
391.97	1025.15
392.16	1107.07
392.36	1102.39
392.55	994.73
392.75	1004.09
392.94	1006.43
393.13	987.71
393.33	1083.67
393.52	992.39
393.71	1135.16
393.91	1153.88
394.10	1167.93
394.29	1249.85
394.49	1104.73
394.68	1207.72
394.88	1242.82
395.07	1245.16
395.26	1291.98
395.46	1210.06
395.65	1228.78
395.84	1242.82
396.04	1315.38
396.23	1200.69
396.42	1188.99
396.62	1301.34
396.81	1254.53
397.00	1329.42
397.19	1348.15
397.39	1399.64
397.58	1516.67
397.77	1502.62
397.97	1432.41
398.16	1526.03
398.35	1633.69
398.55	1638.38
398.74	1521.35
398.93	1565.82
399.12	1640.72
399.32	1582.20
399.51	1692.21
399.70	1678.16
399.90	1659.44
400.09	1657.10
400.28	1680.50
400.47	1722.63
400.67	1713.27
400.86	1722.63
401.05	1832.64
401.24	1739.02
401.44	1783.49
401.63	1860.73
401.82	1867.75
402.01	1832.64
402.21	1771.79
402.40	1851.36
402.59	1898.17
402.78	1881.79
402.97	1884.13
403.17	1813.92
403.36	1893.49
403.55	1900.52
403.74	1963.71
403.93	1888.81
404.13	1998.82
404.32	1959.03
404.51	1940.30
404.70	1907.54
404.89	2033.93
405.09	2073.71
405.28	2047.97
405.47	2085.42
405.66	2080.74
405.85	1975.41
406.05	2092.44
406.24	2090.10
406.43	2186.06
406.62	2195.42
406.81	2267.98
407.00	2188.40
407.20	2195.42
407.39	2188.40
407.58	2214.15
407.77	2251.60
407.96	2317.13
408.15	2333.51
408.34	2464.58
408.54	2349.90
408.73	2396.71
408.92	2415.43
409.11	2375.64
409.30	2485.65
409.49	2406.07
409.68	2420.11
409.87	2410.75
410.07	2466.92
410.26	2452.88
410.45	2579.27
410.64	2555.86
410.83	2684.59
411.02	2623.74
411.21	2619.06
411.40	2689.28
411.59	2698.64
411.78	2612.04
411.98	2651.83
412.17	2836.73
412.36	2874.18
412.55	2930.35
412.74	2899.92
412.93	2724.38
413.12	2956.10
413.31	2928.01
413.50	2904.60
413.69	2991.20
413.88	3042.70
414.07	2981.84
414.26	3042.70
414.45	2949.08
414.64	3082.49
414.83	3152.70
415.02	3258.03
415.22	3248.66
415.41	3274.41
415.60	3180.79
415.79	3314.20
415.98	3368.03
416.17	3377.39
416.36	3328.24
416.55	3314.20
416.74	3543.57
416.93	3412.50
417.12	3400.80
417.31	3538.89
417.50	3620.81
417.69	3716.77
417.88	3639.53
418.07	3524.85
418.26	3686.34
418.45	3562.30
418.64	3768.26
418.83	3651.24
419.02	3721.45
419.21	3698.05
419.39	3789.33
419.58	3623.15
419.77	3646.55
419.96	3782.31
420.15	3833.80
420.34	3845.50
420.53	3911.04
420.72	4014.02
420.91	4021.04
421.10	4053.81
421.29	4154.45
421.48	4042.11
421.67	3946.14
421.86	3955.51
422.05	4018.70
422.24	3983.59
422.43	3962.53
422.61	3981.25
422.80	4383.82
422.99	4016.36
423.18	4039.76
423.37	4208.28
423.56	4088.92
423.75	4074.87
423.94	4028.06
424.13	3871.25
424.32	4011.68
424.50	4182.54
424.69	4215.30
424.88	4161.47
425.07	4128.70
425.26	4004.66
425.45	4091.26
425.64	4222.33
425.83	4229.35
426.01	4248.07
426.20	4184.88
426.39	4175.52
426.58	4063.17
426.77	4074.87
426.96	4266.80
427.15	4067.85
427.33	4346.37
427.52	4184.88
427.71	4388.50
427.90	4353.40
428.09	4409.57
428.28	4421.27
428.46	4208.28
428.65	4184.88
428.84	4360.42
429.03	4484.47
429.22	4362.76
429.40	4252.75
429.59	4318.29
429.78	4140.41
429.97	4037.42
430.16	4301.90
430.34	4184.88
430.53	4292.54
430.72	4325.31
430.91	4390.84
431.10	4470.42
431.28	4587.45
431.47	4753.63
431.66	4875.34
431.85	4657.67
432.03	4809.80
432.22	4908.10
432.41	4755.97
432.60	4730.22
432.79	4873.00
432.97	4975.98
433.16	4954.91
433.35	4957.25
433.54	4901.08
433.72	4821.50
433.91	4882.36
434.10	4994.70
434.28	5074.28
434.47	4905.76
434.66	5142.16
434.85	5069.60
435.03	5177.26
435.22	5043.85
435.41	5263.86
435.59	5439.40
435.78	5507.28
435.97	5387.91
436.16	5369.19
436.34	5331.74
436.53	5540.05
436.72	5486.22
436.90	5322.38
437.09	5469.83
437.28	5282.59
437.46	5352.81
437.65	5425.36
437.84	5406.64
438.02	5275.57
438.21	5397.28
438.40	5334.08
438.58	5598.56
438.77	5771.76
438.96	5731.97
439.14	5568.13
439.33	5825.59
439.52	5799.85
439.70	5935.60
439.89	5879.43
440.08	5893.47
440.26	6022.20
440.45	5872.40
440.63	6101.78
440.82	6179.01
441.01	6190.72
441.19	6258.59
441.38	6303.06
441.57	6375.62
441.75	6394.34
441.94	6658.82
442.12	6651.80
442.31	6607.33
442.50	6661.16
442.68	6785.21
442.87	6443.49
443.05	6684.57
443.24	6916.28
443.43	6754.79
443.61	6885.86
443.80	6967.77
443.98	6663.51
444.17	6483.28
444.35	6703.29
444.54	6836.70
444.73	6834.36
444.91	6825.00
445.10	6792.23
445.28	6740.74
445.47	6719.68
445.65	6965.43
445.84	6726.70
446.02	6881.18
446.21	7021.61
446.39	6820.32
446.58	6916.28
446.77	6876.49
446.95	6773.51
447.14	6991.18
447.32	7049.69
447.51	6888.20
447.69	6920.96
447.88	7096.50
448.06	6897.56
448.25	6878.83
448.43	6963.09
448.62	7016.93
448.80	7136.29
448.99	7169.06
449.17	7274.38
449.36	7211.19
449.54	7300.13
449.73	7550.57
449.91	7400.77
450.10	7564.61
450.28	7583.34
450.46	7669.94
450.65	7681.64
450.83	7442.90
451.02	7517.80
451.20	7534.18
451.39	7581.00
451.57	7651.21
451.76	7475.67
451.94	7503.76
452.13	7667.60
452.31	7489.71
452.49	7531.84
452.68	7534.18
452.86	7353.96
453.05	7562.27
453.23	7646.53
453.42	7590.36
453.60	7620.78
453.78	7786.96
453.97	7705.04
454.15	7676.96
454.34	7775.26
454.52	7889.95
454.70	8182.51
454.89	7932.08
455.07	7873.56
455.26	7866.54
455.44	8168.47
455.62	7875.90
455.81	8119.32
455.99	8276.13
456.17	8229.32
456.36	8318.26
456.54	8229.32
456.73	8461.04
456.91	8573.38
457.09	8322.94
457.28	8496.14
457.46	8407.20
457.64	8409.54
457.83	8285.50
458.01	8402.52
458.19	8545.30
458.38	8599.13
458.56	8683.39
458.74	8585.08
458.93	8657.64
459.11	8542.96
459.29	8674.03
459.48	8788.71
459.66	8840.20
459.84	8842.54
460.03	8791.05
460.21	8884.67
460.39	8933.82
460.57	8961.91
460.76	9158.52
460.94	9039.15
461.12	8917.44
461.31	9153.84
461.49	9034.47
461.67	8922.12
461.85	9301.29
462.04	9280.22
462.22	9753.01
462.40	9259.16
462.59	9214.69
462.77	9320.01
462.95	9460.45
463.13	9568.11
463.32	9495.55
463.50	9352.78
463.68	9352.78
463.86	9563.43
464.05	9198.31
464.23	9291.93
464.41	9343.42
464.59	9399.59
464.78	9577.47
464.96	9509.60
465.14	9266.18
465.32	9741.31
465.50	9689.82
465.69	9673.43
465.87	9596.20
466.05	9743.65
466.23	9350.44
466.41	9612.58
466.60	9788.12
466.78	9561.09
466.96	9738.97
467.14	9556.41
467.32	9750.67
467.51	9921.53
467.69	9745.99
467.87	9841.95
468.05	10129.84
468.23	9853.66
468.41	9767.06
468.60	9760.03
468.78	9977.70
468.96	9928.55
469.14	10190.69
469.32	10361.55
469.50	9994.09
469.69	10244.52
469.87	10326.44
470.05	10214.10
470.23	10221.12
470.41	10167.29
470.59	10298.36
470.77	10340.49
470.95	10384.96
471.14	10466.88
471.32	10319.42
471.50	10794.55
471.68	10569.86
471.86	10733.70
472.04	10923.28
472.22	11243.93
472.40	10768.80
472.58	10668.16
472.77	10836.68
472.95	10991.16
473.13	11171.38
473.31	10988.82
473.49	11056.69
473.67	10932.64
473.85	11218.19
474.03	11403.09
474.21	11396.07
474.39	11536.50
474.57	11487.35
474.75	11644.17
474.93	11726.08
475.12	11557.57
475.30	11644.17
475.48	11786.94
475.66	11669.91
475.84	11599.70
476.02	12210.57
476.20	11658.21
476.38	11939.07
476.56	12404.84
476.74	12226.96
476.92	12217.60
477.10	12308.88
477.28	12564.00
477.46	12519.53
477.64	12863.58
477.82	13256.79
478.00	13135.09
478.18	12996.99
478.36	13008.70
478.54	13324.67
478.72	13338.71
478.90	13706.18
479.08	13769.37
479.26	13518.93
479.44	13614.90
479.62	13657.03
479.80	13715.54
479.98	13921.51
480.16	14611.96
480.34	14001.08
480.52	14272.59
480.70	14408.34
480.88	14319.40
481.06	14494.94
481.24	14408.34
481.41	14773.46
481.59	15124.54
481.77	14963.04
481.95	14953.68
482.13	15206.46
482.31	15094.11
482.49	15475.62
482.67	15573.92
482.85	15625.42
483.03	15765.85
483.21	15784.57
483.39	16194.17
483.57	16187.14
483.74	16011.60
483.92	16027.99
484.10	16093.52
484.28	16533.54
484.46	16760.58
484.64	16840.15
484.82	16730.15
485.00	17041.44
485.18	17076.55
485.35	17233.36
485.53	16882.28
485.71	16898.67
485.89	17074.21
486.07	16844.84
486.25	17130.38
486.43	17350.39
486.61	17741.26
486.78	18150.85
486.96	17855.95
487.14	18391.93
487.32	18377.89
487.50	18906.85
487.68	18815.57
487.85	19058.98
488.03	19161.97
488.21	19257.93
488.39	19468.58
488.57	19330.48
488.75	19447.51
488.92	19833.70
489.10	19901.58
489.28	20027.96
489.46	20816.72
489.64	20610.76
489.81	21120.99
489.99	20823.75
490.17	20870.56
490.35	21181.85
490.53	21282.49
490.70	21371.43
490.88	21359.73
491.06	21572.72
491.24	21420.58
491.41	21834.86
491.59	21635.91
491.77	21516.54
491.95	21687.40
492.13	22148.49
492.30	22361.48
492.48	22625.96
492.66	22485.53
492.84	22740.64
493.01	23103.43
493.19	22632.98
493.37	23016.83
493.54	23410.04
493.72	23494.30
493.90	23728.35
494.08	23786.86
494.25	24194.12
494.43	23962.40
494.61	24311.14
494.79	24395.40
494.96	24470.30
495.14	24634.14
495.32	24779.25
495.49	24716.06
495.67	24629.46
495.85	25050.75
496.02	24952.45
496.20	25025.01
496.38	25223.95
496.55	25652.27
496.73	25851.22
496.91	26181.23
497.09	25944.84
497.26	25956.54
497.44	25846.54
497.62	26309.96
497.79	26302.94
497.97	26382.52
498.14	26333.37
498.32	26478.48
498.50	26623.59
498.67	26771.05
498.85	27072.98
499.03	27452.14
499.20	27080.00
499.38	27204.05
499.56	27110.43
499.73	27473.21
499.91	27475.55
500.08	27541.08
500.26	27655.77
500.44	27370.22
500.61	27723.65
500.79	27253.20
500.97	27491.93
501.14	28002.17
501.32	28048.98
501.49	28327.50
501.67	28435.17
501.84	28711.35
502.02	28599.01
502.20	28519.43
502.37	28980.51
502.55	28769.86
502.72	28912.64
502.90	28945.41
503.07	28741.78
503.25	29151.37
503.43	29017.96
503.60	29301.17
503.78	29427.56
503.95	28940.72
504.13	29525.86
504.30	29401.81
504.48	29865.24
504.65	29886.30
504.83	30445.69
505.01	30274.83
505.18	30558.03
505.36	30354.41
505.53	30410.58
505.71	30918.48
505.88	30766.34
506.06	30696.13
506.23	30583.78
506.41	30338.02
506.58	30686.76
506.76	30796.77
506.93	30792.09
507.11	30845.92
507.28	31466.16
507.46	30717.19
507.63	31028.48
507.81	31529.36
507.98	30967.63
508.16	31519.99
508.33	31562.12
508.50	31793.84
508.68	32224.50
508.85	32222.16
509.03	32055.98
509.20	32573.24
509.38	32194.07
509.55	32533.45
509.73	32460.89
509.90	32531.11
510.08	32652.81
510.25	32318.12
510.42	32383.65
510.60	32645.79
510.77	33184.12
510.95	33247.31
511.12	33291.78
511.30	33099.86
511.47	33163.05
511.64	33694.35
511.82	34080.54
511.99	33490.73
512.17	33591.37
512.34	33558.60
512.51	33736.48
512.69	33692.01
512.86	33921.38
513.04	33766.91
513.21	33666.27
513.38	34101.61
513.56	33811.38
513.73	34129.69
513.90	34216.29
514.08	33830.10
514.25	34227.99
514.43	34183.52
514.60	34586.10
514.77	34646.95
514.95	34930.16
515.12	34815.47
515.29	34710.14
515.47	35360.81
515.64	35079.95
515.81	35098.67
515.99	34998.03
516.16	34796.74
516.33	34820.15
516.51	34167.14
516.68	33942.45
516.85	34082.88
517.03	34775.68
517.20	34927.81
517.37	35042.50
517.54	35466.14
517.72	35587.85
517.89	35035.48
518.06	34792.06
518.24	35009.73
518.41	35819.56
518.58	35487.20
518.75	35732.96
518.93	36315.75
519.10	35971.69
519.27	36154.26
519.45	36011.48
519.62	36442.14
519.79	36013.82
519.96	36851.73
520.14	36495.97
520.31	36510.02
520.48	36430.44
520.65	36657.47
520.83	36971.10
521.00	36907.91
521.17	36739.39
521.34	36945.36
521.52	37420.48
521.69	37495.38
521.86	37598.37
522.03	37483.68
522.20	37263.67
522.38	37801.99
522.55	37890.93
522.72	37631.13
522.89	37586.66
523.07	37750.50
523.24	37736.46
523.41	37961.15
523.58	37638.15
523.75	38377.76
523.92	38485.43
524.10	38234.99
524.27	38569.69
524.44	38579.05
524.61	38663.31
524.78	38417.55
524.96	39213.34
525.13	38923.11
525.30	39145.46
525.47	39213.34
525.64	39012.05
525.81	38667.99
525.98	38586.07
526.16	38387.13
526.33	38401.17
526.50	38953.54
526.67	38253.72
526.84	38719.48
527.01	38312.23
527.18	39061.20
527.36	39374.83
527.53	39569.10
527.70	39515.26
527.87	39739.96
528.04	39196.95
528.21	39854.64
528.38	39700.17
528.55	40399.99
528.72	40011.46
528.89	40048.91
529.07	39737.62
529.24	39997.41
529.41	40428.07
529.58	40011.46
529.75	39632.29
529.92	39922.52
530.09	40395.31
530.26	40102.74
530.43	40034.86
530.60	40215.08
530.77	40287.64
530.94	40666.81
531.11	40659.79
531.28	40542.76
531.46	40645.74
531.63	40678.51
531.80	40847.03
531.97	40254.87
532.14	40790.86
532.31	40311.05
532.48	40601.27
532.65	40790.86
532.82	40631.70
532.99	40779.15
533.16	40758.09
533.33	41411.10
533.50	40912.56
533.67	41495.36
533.84	41408.76
534.01	41191.09
534.18	40931.29
534.35	41827.71
534.52	41036.61
534.69	41766.86
534.86	41659.20
535.03	41713.03
535.20	42124.96
535.37	42103.90
535.54	42256.03
535.71	41684.94
535.88	41904.95
536.05	42089.85
536.22	41684.94
536.38	41848.78
536.55	41755.16
536.72	41986.87
536.89	41703.67
537.06	41567.91
537.23	42408.17
537.40	41691.96
537.57	42143.69
537.74	42237.31
537.91	42677.33
538.08	41996.23
538.25	41766.86
538.42	42382.42
538.59	42443.27
538.75	42291.14
538.92	42459.66
539.09	42843.51
539.26	42574.34
539.43	42883.30
539.60	42836.48
539.77	42366.04
539.94	42913.72
540.11	42841.17
540.28	42623.50
540.44	42632.86
540.61	42782.65
540.78	42351.99
540.95	42478.38
541.12	42403.49
541.29	42789.67
541.46	43433.32
541.62	42588.39
541.79	43545.67
541.96	42639.88
542.13	42941.81
542.30	42934.79
542.47	43332.68
542.63	43531.62
542.80	43306.93
542.97	43611.20
543.14	43618.22
543.31	44062.93
543.48	43828.87
543.64	43955.26
543.81	43842.92
543.98	43892.07
544.15	43894.41
544.32	44041.86
544.48	44486.56
544.65	44030.16
544.82	44479.54
544.99	43934.20
545.16	43707.16
545.32	43859.30
545.49	44266.55
545.66	44573.16
545.83	44428.05
546.00	44196.34
546.16	44325.07
546.33	44683.17
546.50	44002.07
546.67	44526.35
546.83	44285.28
547.00	44428.05
547.17	43969.30
547.34	43868.66
547.50	44046.54
547.67	44713.59
547.84	44666.78
548.00	44924.24
548.17	44767.43
548.34	45181.70
548.51	44591.89
548.67	45329.16
548.84	45350.22
549.01	44839.98
549.18	44896.16
549.34	44818.92
549.51	45485.97
549.68	45324.47
549.84	44863.39
550.01	45406.39
550.18	44772.11
550.34	45099.78
550.51	45003.82
550.68	45031.91
550.84	44575.50
551.01	45083.40
551.18	45387.67
551.34	45010.84
551.51	45298.73
551.68	45691.94
551.84	45614.70
552.01	45270.64
552.18	45579.59
552.34	45130.21
552.51	45104.46
552.68	45448.52
552.84	45813.65
553.01	45406.39
553.18	45766.84
553.34	45464.91
553.51	45736.41
553.67	45830.03
553.84	45584.27
554.01	45860.46
554.17	45720.02
554.34	45745.77
554.51	46150.68
554.67	45670.87
554.84	46183.45
555.00	45947.06
555.17	46040.68
555.33	45965.78
555.50	45790.24
555.67	45968.12
555.83	45689.60
556.00	46007.91
556.16	45881.52
556.33	45823.01
556.50	45769.18
556.66	46099.19
556.83	45336.18
556.99	46096.85
557.16	46370.69
557.32	46047.70
557.49	46312.18
557.65	45879.18
557.82	46483.04
557.98	46288.77
558.15	46199.83
558.32	46225.58
558.48	46160.05
558.65	46169.41
558.81	45546.82
558.98	45684.92
559.14	45799.60
559.31	46155.36
559.47	46291.12
559.64	46532.19
559.80	46508.79
559.97	46391.76
560.13	45986.85
560.30	46305.16
560.46	45961.10
560.63	46525.17
560.79	46871.57
560.96	46667.94
561.12	46461.97
561.29	46614.11
561.45	46471.34
561.61	46305.16
561.78	46204.52
561.94	46625.81
562.11	46469.00
562.27	46593.04
562.44	46810.71
562.60	47072.85
562.77	46492.40
562.93	46684.33
563.10	46796.67
563.26	46291.12
563.42	46834.12
563.59	46431.55
563.75	46522.83
563.92	46883.27
564.08	46761.56
564.24	46913.70
564.41	46490.06
564.57	46946.47
564.74	46562.62
564.90	46628.15
565.07	46869.23
565.23	46899.65
565.39	46429.21
565.56	46719.43
565.72	46431.55
565.88	46436.23
566.05	46511.13
566.21	46527.51
566.38	46581.34
566.54	46983.91
566.70	47061.15
566.87	47526.92
567.03	46803.69
567.19	47606.50
567.36	46967.53
567.52	46710.07
567.68	46976.89
567.85	46595.38
568.01	47344.36
568.17	46646.88
568.34	47007.32
568.50	46686.67
568.66	47147.75
568.83	46740.50
568.99	46452.61
569.15	47051.79
569.32	46525.17
569.48	47054.13
569.64	47334.99
569.81	46700.71
569.97	46630.49
570.13	46754.54
570.30	46997.96
570.46	46513.47
570.62	46358.99
570.78	46225.58
570.95	46532.19
571.11	47159.45
571.27	46658.58
571.43	46904.34
571.60	46871.57
571.76	47217.97
571.92	47201.58
572.09	46937.10
572.25	47133.71
572.41	47002.64
572.57	47086.90
572.74	47433.30
572.90	47185.20
573.06	46925.40
573.22	47323.29
573.38	46951.15
573.55	46990.94
573.71	47311.59
573.87	47173.50
574.03	47318.61
574.20	47435.64
574.36	46876.25
574.52	46899.65
574.68	46969.87
574.84	47323.29
575.01	46796.67
575.17	47147.75
575.33	46513.47
575.49	47096.26
575.65	47449.68
575.82	47260.10
575.98	46689.01
576.14	47269.46
576.30	47227.33
576.46	46873.91
576.62	46817.74
576.79	46937.10
576.95	46759.22
577.11	47077.54
577.27	47035.41
577.43	46983.91
577.59	46714.75
577.75	46822.42
577.92	46375.37
578.08	46579.00
578.24	46588.36
578.40	46890.29
578.56	46691.35
578.72	46983.91
578.88	47054.13
579.04	47028.38
579.21	46866.89
579.37	46916.04
579.53	47138.39
579.69	46808.37
579.85	46965.19
580.01	46993.28
580.17	47012.00
580.33	47222.65
580.49	46986.25
580.65	47215.63
580.82	46829.44
580.98	47342.02
581.14	46763.90
581.30	47271.80
581.46	47189.88
581.62	47299.89
581.78	47164.14
581.94	47189.88
582.10	47072.85
582.26	46916.04
582.42	47580.75
582.58	47021.36
582.74	47133.71
582.90	47297.55
583.06	47342.02
583.22	47327.97
583.38	47082.22
583.54	47063.49
583.70	47173.50
583.86	47220.31
584.02	47124.35
584.18	47107.96
584.34	47206.26
584.50	47107.96
584.66	46997.96
584.82	46960.51
584.98	47342.02
585.14	46955.83
585.30	47082.22
585.46	47164.14
585.62	46827.10
585.78	47213.29
585.94	46436.23
586.10	47014.34
586.26	46969.87
586.42	47346.70
586.58	47337.33
586.74	47604.16
586.90	47232.01
587.06	46906.68
587.22	47552.66
587.38	46897.31
587.54	47405.21
587.70	46850.50
587.86	47262.44
588.02	47004.98
588.18	47313.93
588.34	46747.52
588.49	46211.54
588.65	46447.93
588.81	46569.64
588.97	46595.38
589.13	46419.84
589.29	46412.82
589.45	47206.26
589.61	47227.33
589.77	46951.15
