SpectraSuite Data File
++++++++++++++++++++++++++++++++++++
Date: Fri Oct 25 11:23:43 EDT 2013
User: price-jones
Dark Spectrum Present: No
Reference Spectrum Present: No
Number of Sampled Component Spectra: 1
Spectrometers: USB2+H05261
Integration Time (usec): 100000 (USB2+H05261)
Spectra Averaged: 1 (USB2+H05261)
Boxcar Smoothing: 0 (USB2+H05261)
Correct for Electrical Dark: No (USB2+H05261)
Strobe/Lamp Enabled: No (USB2+H05261)
Correct for Detector Non-linearity: No (USB2+H05261)
Correct for Stray Light: No (USB2+H05261)
Number of Pixels in Processed Spectrum: 2048
>>>>>Begin Processed Spectral Data<<<<<
365.73	271.50
365.92	271.50
366.12	271.50
366.32	175.54
366.52	110.01
366.72	175.54
366.91	173.20
367.11	147.45
367.31	182.56
367.51	126.39
367.70	135.75
367.90	175.54
368.10	133.41
368.30	191.92
368.49	105.32
368.69	126.39
368.89	145.11
369.09	175.54
369.28	208.31
369.48	191.92
369.68	156.82
369.87	149.79
370.07	149.79
370.27	194.26
370.47	301.93
370.66	606.20
370.86	681.10
371.06	716.20
371.25	592.16
371.45	653.01
371.65	704.50
371.84	620.24
372.04	664.71
372.24	688.12
372.44	699.82
372.63	744.29
372.83	772.38
373.03	795.78
373.22	671.73
373.42	795.78
373.62	814.51
373.81	788.76
374.01	765.36
374.21	772.38
374.40	765.36
374.60	903.45
374.79	791.10
374.99	788.76
375.19	823.87
375.38	915.15
375.58	866.00
375.78	814.51
375.97	968.98
376.17	866.00
376.37	875.36
376.56	910.47
376.76	887.06
376.95	807.48
377.15	823.87
377.35	917.49
377.54	887.06
377.74	858.98
377.93	940.90
378.13	915.15
378.33	894.08
378.52	849.61
378.72	973.66
378.91	954.94
379.11	910.47
379.31	887.06
379.50	861.32
379.70	936.21
379.89	1018.13
380.09	929.19
380.28	945.58
380.48	1004.09
380.68	980.68
380.87	1039.20
381.07	1013.45
381.26	1013.45
381.46	1001.75
381.65	1008.77
381.85	1109.41
382.04	1069.62
382.24	1062.60
382.43	978.34
382.63	1076.65
382.83	1048.56
383.02	1163.25
383.22	1102.39
383.41	1102.39
383.61	1001.75
383.80	1224.10
384.00	1130.48
384.19	1184.31
384.39	1074.31
384.58	1146.86
384.78	1107.07
384.97	1118.78
385.17	1219.42
385.36	1221.76
385.56	1226.44
385.75	1151.54
385.95	1181.97
386.14	1221.76
386.34	1102.39
386.53	1153.88
386.72	1181.97
386.92	1291.98
387.11	1235.80
387.31	1231.12
387.50	1177.29
387.70	1217.08
387.89	1299.00
388.09	1261.55
388.28	1294.32
388.48	1301.34
388.67	1270.91
388.86	1308.36
389.06	1254.53
389.25	1334.11
389.45	1383.26
389.64	1266.23
389.84	1343.47
390.03	1385.60
390.22	1385.60
390.42	1355.17
390.61	1373.89
390.81	1343.47
391.00	1369.21
391.19	1483.90
391.39	1423.05
391.58	1420.71
391.78	1453.47
391.97	1535.39
392.16	1556.46
392.36	1516.67
392.55	1493.26
392.75	1575.18
392.94	1575.18
393.13	1451.13
393.33	1633.69
393.52	1462.83
393.71	1610.29
393.91	1514.33
394.10	1654.76
394.29	1577.52
394.49	1572.84
394.68	1699.23
394.88	1703.91
395.07	1589.22
395.26	1720.29
395.46	1701.57
395.65	1722.63
395.84	1753.06
396.04	1762.42
396.23	1703.91
396.42	1724.97
396.62	1804.55
396.81	1715.61
397.00	1846.68
397.19	1769.44
397.39	1799.87
397.58	1832.64
397.77	1790.51
397.97	1874.77
398.16	1760.08
398.35	2019.88
398.55	1797.53
398.74	1895.83
398.93	1935.62
399.12	1970.73
399.32	1914.56
399.51	2036.27
399.70	2003.50
399.90	2019.88
400.09	1989.46
400.28	2057.33
400.47	2045.63
400.67	2195.42
400.86	2038.61
401.05	2071.37
401.24	2052.65
401.44	2146.27
401.63	2108.82
401.82	2223.51
402.01	2064.35
402.21	2148.61
402.40	2190.74
402.59	2193.08
402.78	2244.57
402.97	2228.19
403.17	2244.57
403.36	2253.94
403.55	2321.81
403.74	2335.85
403.93	2403.73
404.13	2401.39
404.32	2363.94
404.51	2356.92
404.70	2438.84
404.89	2352.24
405.09	2497.35
405.28	2520.76
405.47	2523.10
405.66	2537.14
405.85	2586.29
406.05	2497.35
406.24	2602.68
406.43	2511.39
406.62	2663.53
406.81	2738.43
407.00	2663.53
407.20	2614.38
407.39	2605.02
407.58	2850.77
407.77	2698.64
407.96	2614.38
408.15	2649.49
408.34	2712.68
408.54	2761.83
408.73	2750.13
408.92	2761.83
409.11	2874.18
409.30	2768.85
409.49	2956.10
409.68	2895.24
409.87	2920.99
410.07	3068.44
410.26	2981.84
410.45	2972.48
410.64	3126.96
410.83	3112.91
411.02	3098.87
411.21	3239.30
411.40	3150.36
411.59	3255.69
411.78	3227.60
411.98	3197.17
412.17	3225.26
412.36	3321.22
412.55	3463.99
412.74	3412.50
412.93	3279.09
413.12	3279.09
413.31	3555.27
413.50	3375.05
413.69	3407.82
413.88	3641.87
414.07	3630.17
414.26	3669.96
414.45	3698.05
414.64	3761.24
414.83	3716.77
415.02	3826.78
415.22	3847.84
415.41	3843.16
415.60	3852.52
415.79	3983.59
415.98	4007.00
416.17	3981.25
416.36	3992.95
416.55	3971.89
416.74	4051.47
416.93	4086.58
417.12	4021.04
417.31	4287.86
417.50	4255.09
417.69	4430.63
417.88	4283.18
418.07	4266.80
418.26	4315.95
418.45	4383.82
418.64	4428.29
418.83	4517.23
419.02	4552.34
419.21	4718.52
419.39	4491.49
419.58	4404.89
419.77	4332.33
419.96	4667.03
420.15	4692.77
420.34	4585.11
420.53	4697.46
420.72	4744.27
420.91	4685.75
421.10	4697.46
421.29	4660.01
421.48	4734.90
421.67	4805.12
421.86	4755.97
422.05	4945.55
422.24	4793.42
422.43	4997.04
422.61	4933.85
422.80	5018.11
422.99	4917.47
423.18	4987.68
423.37	5057.90
423.56	4933.85
423.75	4905.76
423.94	4968.96
424.13	4627.24
424.32	4652.98
424.50	5067.26
424.69	5081.30
424.88	4978.32
425.07	4720.86
425.26	4903.42
425.45	4999.38
425.64	5029.81
425.83	5060.24
426.01	5130.45
426.20	5210.03
426.39	5191.31
426.58	4950.23
426.77	5039.17
426.96	5191.31
427.15	5177.26
427.33	5263.86
427.52	5067.26
427.71	5329.40
427.90	5259.18
428.09	5387.91
428.28	5305.99
428.46	5416.00
428.65	5301.31
428.84	5547.07
429.03	5537.71
429.22	5254.50
429.40	5383.23
429.59	5528.35
429.78	5355.15
429.97	5430.04
430.16	5523.66
430.34	5441.75
430.53	5657.07
430.72	5816.23
430.91	5610.26
431.10	5720.27
431.28	5734.31
431.47	5860.70
431.66	5909.85
431.85	5757.72
432.03	5872.40
432.22	5980.07
432.41	5881.77
432.60	5984.75
432.79	5935.60
432.97	6022.20
433.16	6214.12
433.35	5973.05
433.54	6277.32
433.72	6160.29
433.91	6200.08
434.10	6223.48
434.28	5982.41
434.47	6293.70
434.66	6193.06
434.85	6289.02
435.03	6265.61
435.22	6258.59
435.41	6520.73
435.59	6483.28
435.78	6438.81
435.97	6502.01
436.16	6401.37
436.34	6548.82
436.53	6560.52
436.72	6703.29
436.90	6572.22
437.09	6509.03
437.28	6480.94
437.46	6628.40
437.65	6518.39
437.84	6752.45
438.02	6768.83
438.21	6738.40
438.40	6761.81
438.58	7234.60
438.77	7000.54
438.96	6970.12
439.14	7180.76
439.33	7407.80
439.52	7328.22
439.70	7269.70
439.89	7435.88
440.08	7440.56
440.26	7386.73
440.45	7417.16
440.63	7492.05
440.82	7585.68
441.01	7597.38
441.19	7581.00
441.38	7784.62
441.57	7789.30
441.75	7843.14
441.94	8013.99
442.12	7962.50
442.31	7868.88
442.50	8226.98
442.68	7983.57
442.87	8121.66
443.05	8116.98
443.24	8285.50
443.43	8173.15
443.61	8198.90
443.80	8547.64
443.98	8168.47
444.17	7915.69
444.35	8184.85
444.54	8322.94
444.73	8390.82
444.91	8383.80
445.10	8451.67
445.28	8271.45
445.47	8297.20
445.65	8580.40
445.84	8486.78
446.02	8358.05
446.21	8142.72
446.39	8329.97
446.58	8500.83
446.77	8446.99
446.95	8212.94
447.14	8442.31
447.32	8557.00
447.51	8528.91
447.69	8449.33
447.88	8645.94
448.06	8517.21
448.25	8582.74
448.43	8655.30
448.62	8603.81
448.80	8636.58
448.99	8599.13
449.17	8659.98
449.36	8449.33
449.54	8828.50
449.73	9029.79
449.91	9071.92
450.10	9092.98
450.28	9174.90
450.46	9104.68
450.65	9212.35
450.83	9111.71
451.02	9221.71
451.20	9198.31
451.39	9233.41
451.57	9329.38
451.76	8828.50
451.94	9273.20
452.13	9254.48
452.31	9355.12
452.49	9357.46
452.68	9327.03
452.86	9483.85
453.05	9584.49
453.23	9577.47
453.42	9460.45
453.60	9355.12
453.78	9745.99
453.97	9458.10
454.15	9788.12
454.34	9551.73
454.52	9521.30
454.70	9804.50
454.89	9722.59
455.07	9757.69
455.26	9970.68
455.44	10019.83
455.62	9839.61
455.81	10232.82
455.99	10033.88
456.17	10195.37
456.36	10106.43
456.54	10169.63
456.73	10375.59
456.91	10436.45
457.09	10279.63
457.28	10429.43
457.46	10494.96
457.64	10621.35
457.83	10614.33
458.01	10736.04
458.19	10771.15
458.38	10431.77
458.56	10621.35
458.74	10729.02
458.93	10654.12
459.11	10754.76
459.29	10848.38
459.48	10782.85
459.66	10677.52
459.84	11052.01
460.03	11101.16
460.21	11059.03
460.39	11070.73
460.57	10925.62
460.76	11112.86
460.94	11250.96
461.12	11180.74
461.31	11164.36
461.49	11227.55
461.67	11112.86
461.85	11637.14
462.04	11482.67
462.22	11508.41
462.40	11637.14
462.59	11548.20
462.77	11602.04
462.95	11716.72
463.13	11545.86
463.32	11789.28
463.50	11641.82
463.68	11707.36
463.86	11939.07
464.05	11709.70
464.23	11840.77
464.41	12088.87
464.59	11779.92
464.78	12123.98
464.96	12030.35
465.14	11824.39
465.32	12023.33
465.50	12180.15
465.69	12060.78
465.87	12315.90
466.05	12224.62
466.23	12339.30
466.41	12299.52
466.60	12365.05
466.78	12236.32
466.96	12095.89
467.14	12411.86
467.32	12512.50
467.51	12603.78
467.69	12168.45
467.87	12461.01
468.05	12734.85
468.23	12587.40
468.41	12585.06
468.60	12798.05
468.78	12908.05
468.96	12865.92
469.14	12659.96
469.32	12987.63
469.50	12592.08
469.69	12945.50
469.87	13013.38
470.05	13252.11
470.23	13123.38
470.41	13149.13
470.59	13319.99
470.77	13294.24
470.95	13289.56
471.14	13401.91
471.32	13114.02
471.50	13795.12
471.68	13488.51
471.86	13762.35
472.04	13865.33
472.22	14097.05
472.40	13937.89
472.58	13640.64
472.77	13930.87
472.95	14204.71
473.13	14576.86
473.31	14218.75
473.49	14075.98
473.67	14148.54
473.85	14129.81
474.03	14616.65
474.21	14647.07
474.39	14920.92
474.57	14560.47
474.75	14995.81
474.93	15009.86
475.12	14956.02
475.30	15260.29
475.48	15059.01
475.66	15288.38
475.84	15538.82
476.02	15492.01
476.20	15674.57
476.38	15747.12
476.56	16053.73
476.74	16245.66
476.92	15932.03
477.10	15742.44
477.28	16182.46
477.46	16177.78
477.64	16276.09
477.82	16545.25
478.00	17273.15
478.18	16767.60
478.36	17029.74
478.54	17256.77
478.72	17451.03
478.90	17193.58
479.08	17455.72
479.26	17905.10
479.44	17577.42
479.62	17767.01
479.80	18286.61
479.98	18429.38
480.16	18672.79
480.34	18253.84
480.52	18726.63
480.70	18860.04
480.88	18518.32
481.06	18857.70
481.24	18948.98
481.41	19255.59
481.59	19293.04
481.77	19758.80
481.95	19770.51
482.13	19803.27
482.31	19789.23
482.49	20383.73
482.67	20152.01
482.85	20334.57
483.03	20409.47
483.21	20863.54
483.39	21186.53
483.57	20966.52
483.74	21429.94
483.92	21263.77
484.10	21469.73
484.28	21628.89
484.46	21965.93
484.64	22211.68
484.82	21806.77
485.00	22380.20
485.18	22726.60
485.35	23339.82
485.53	22864.69
485.71	22963.00
485.89	23620.69
486.07	23381.95
486.25	23632.39
486.43	23723.67
486.61	24058.37
486.78	23978.79
486.96	24393.06
487.14	24594.35
487.32	24947.77
487.50	25041.39
487.68	25127.99
487.85	25383.11
488.03	25626.53
488.21	25816.11
488.39	26031.44
488.57	26029.10
488.75	26892.76
488.92	26647.00
489.10	26874.03
489.28	26897.44
489.46	27250.86
489.64	27037.87
489.81	27838.33
489.99	28060.68
490.17	27985.79
490.35	28327.50
490.53	28418.78
490.70	28678.58
490.88	28968.81
491.06	28940.72
491.24	28898.59
491.41	29350.32
491.59	29221.59
491.77	29579.69
491.95	29413.51
492.13	30103.97
492.30	29874.60
492.48	30033.75
492.66	30202.27
492.84	30412.92
493.01	30457.39
493.19	30794.43
493.37	31110.40
493.54	31309.35
493.72	31580.85
493.90	31522.34
494.08	31728.30
494.25	32233.86
494.43	32032.57
494.61	32519.40
494.79	32533.45
494.96	32554.51
495.14	32966.45
495.32	33504.77
495.49	33076.45
495.67	33308.16
495.85	33558.60
496.02	33872.23
496.20	34040.75
496.38	34197.57
496.55	34033.73
496.73	35185.27
496.91	34829.51
497.09	34918.45
497.26	35262.51
497.44	35161.87
497.62	34780.36
497.79	36039.57
497.97	35807.86
498.14	36158.94
498.32	36299.37
498.50	36304.05
498.67	36783.86
498.85	36781.52
499.03	36678.54
499.20	36617.68
499.38	36957.06
499.56	37399.42
499.73	37436.87
499.91	37401.76
500.08	37361.97
500.26	37759.86
500.44	37713.05
500.61	38242.01
500.79	38080.52
500.97	37998.60
501.14	38614.16
501.32	38852.89
501.49	38913.75
501.67	38754.59
501.84	38850.55
502.02	39035.45
502.20	39016.73
502.37	39508.24
502.55	39861.66
502.72	39566.76
502.90	39955.29
503.07	39814.85
503.25	40285.30
503.43	40079.33
503.60	40484.25
503.78	40353.18
503.95	40706.60
504.13	40769.79
504.30	40760.43
504.48	40507.65
504.65	41216.83
504.83	41291.73
505.01	41633.45
505.18	41111.51
505.36	41937.72
505.53	41558.55
505.71	41415.78
505.88	42043.04
506.06	41476.63
506.23	42302.84
506.41	41755.16
506.58	42150.71
506.76	43040.11
506.93	42899.68
507.11	42064.11
507.28	42625.84
507.46	42845.85
507.63	43215.65
507.81	43161.82
507.98	43477.79
508.16	43512.90
508.33	43746.95
508.50	43529.28
508.68	44076.97
508.85	44144.84
509.03	44002.07
509.20	44722.96
509.38	44711.25
509.55	44746.36
509.73	44470.18
509.90	44678.49
510.08	44891.48
510.25	44800.19
510.42	44947.65
510.60	45610.02
510.77	45448.52
510.95	45715.34
511.12	45354.90
511.30	45567.89
511.47	45375.97
511.64	45549.17
511.82	46288.77
511.99	45942.38
512.17	46190.47
512.34	46461.97
512.51	46527.51
512.69	46684.33
512.86	46405.80
513.04	47002.64
513.21	46576.66
513.38	46951.15
513.56	47021.36
513.73	47004.98
513.90	47243.71
514.08	47084.56
514.25	47239.03
514.43	47489.47
514.60	47515.22
514.77	47775.02
514.95	47435.64
515.12	47592.45
515.29	47948.21
515.47	48109.71
515.64	48126.10
515.81	48348.45
515.99	48413.98
516.16	48240.78
516.33	48535.69
516.51	48664.42
516.68	48678.46
516.85	48694.85
517.03	49109.12
517.20	49228.49
517.37	49343.17
517.54	49130.19
517.72	48980.39
517.89	49139.55
518.06	49834.69
518.24	49446.16
518.41	49628.72
518.58	49722.34
518.75	49144.23
518.93	50054.70
519.10	49830.01
519.27	49883.84
519.45	49874.48
519.62	50153.00
519.79	50096.83
519.96	50209.17
520.14	50309.82
520.31	50490.04
520.48	50504.08
520.65	50665.58
520.83	50752.18
521.00	51159.43
521.17	50749.84
521.34	50583.66
521.52	50993.25
521.69	50897.29
521.86	51313.90
522.03	51360.72
522.20	51519.87
522.38	51667.33
522.55	51510.51
522.72	51529.23
522.89	51435.61
523.07	52011.38
523.24	51767.97
523.41	51966.91
523.58	51760.95
523.75	51917.76
523.92	51833.50
524.10	52161.18
524.27	52093.30
524.44	52442.04
524.61	52126.07
524.78	52023.09
524.96	52413.96
525.13	52512.26
525.30	52540.35
525.47	52748.65
525.64	52832.91
525.81	52725.25
525.98	52736.95
526.16	52978.03
526.33	52596.52
526.50	53113.78
526.67	53059.94
526.84	52989.73
527.01	52924.19
527.18	53095.05
527.36	53116.12
527.53	53183.99
527.70	53389.96
527.87	53628.69
528.04	53375.92
528.21	53242.51
528.38	53457.84
528.55	53616.99
528.72	53656.78
528.89	53827.64
529.07	53605.29
529.24	53371.24
529.41	53759.76
529.58	53855.73
529.75	53794.87
529.92	54057.01
530.09	53890.83
530.26	54057.01
530.43	54326.17
530.60	53954.03
530.77	54057.01
530.94	54227.87
531.11	54564.91
531.28	54272.34
531.46	54492.35
531.63	54234.89
531.80	54260.64
531.97	54637.47
532.14	54611.72
532.31	54562.57
532.48	54663.21
532.65	54822.37
532.82	54593.00
532.99	55025.99
533.16	54887.90
533.33	54908.97
533.50	55290.48
533.67	55037.70
533.84	54770.88
534.01	54972.16
534.18	55093.87
534.35	55491.76
534.52	55458.99
534.69	55299.84
534.86	55384.10
535.03	55372.39
535.20	55440.27
535.37	55512.83
535.54	55566.66
535.71	55323.24
535.88	55615.81
536.05	55583.04
536.22	55737.52
536.38	55718.79
536.55	55721.13
536.72	55840.50
536.89	55679.00
537.06	55721.13
537.23	55838.16
537.40	55648.58
537.57	55807.73
537.74	55969.23
537.91	56207.97
538.08	56142.43
538.25	56009.02
538.42	56126.05
538.59	56238.39
538.75	55962.21
538.92	56133.07
539.09	56437.34
539.26	55913.06
539.43	56339.04
539.60	56313.29
539.77	56360.10
539.94	56392.87
540.11	56694.80
540.28	56514.58
540.44	56465.42
540.61	56877.36
540.78	56687.78
540.95	56729.90
541.12	56629.26
541.29	56715.86
541.46	56715.86
541.62	56657.35
541.79	56584.79
541.96	56687.78
542.13	56652.67
542.30	56865.66
542.47	56802.46
542.63	57015.45
542.80	56954.60
542.97	57190.99
543.14	57305.68
543.31	57317.38
543.48	57193.33
543.64	57553.77
543.81	57556.11
543.98	57464.83
544.15	57439.09
544.32	57481.22
544.48	57865.06
544.65	57469.51
544.82	57755.06
544.99	57565.48
545.16	57591.22
545.32	57752.72
545.49	57958.69
545.66	57853.36
545.83	57872.09
546.00	58003.16
546.16	57691.86
546.33	57829.96
546.50	57626.33
546.67	58047.63
546.83	57701.23
547.00	57827.62
547.17	57942.30
547.34	57893.15
547.50	58127.20
547.67	57998.48
547.84	58071.03
548.00	58206.78
548.17	58356.58
548.34	58197.42
548.51	58635.10
548.67	58340.19
548.84	58298.06
549.01	58260.62
549.18	58246.57
549.34	58405.73
549.51	58323.81
549.68	58522.76
549.84	58595.31
550.01	58721.70
550.18	58452.54
550.34	58756.81
550.51	58646.80
550.68	58614.04
550.84	58616.38
551.01	58649.14
551.18	58688.93
551.34	58714.68
551.51	58513.39
551.68	58635.10
551.84	58585.95
552.01	58714.68
552.18	58805.96
552.34	58658.51
552.51	58780.21
552.68	58880.86
552.84	58717.02
553.01	59051.72
553.18	59051.72
553.34	58843.41
553.51	58897.24
553.67	58906.60
553.84	59138.32
554.01	59021.29
554.17	58995.54
554.34	59248.32
554.51	59271.73
554.67	59215.55
554.84	59030.65
555.00	59290.45
555.17	59042.35
555.33	59257.68
555.50	59119.59
555.67	59032.99
555.83	59084.48
556.00	59192.15
556.16	59561.95
556.33	59484.72
556.50	59456.63
556.66	59400.46
556.83	59292.79
556.99	59552.59
557.16	59709.41
557.32	59529.19
557.49	59700.04
557.65	59529.19
557.82	59475.35
557.98	59540.89
558.15	59627.49
558.32	59700.04
558.48	59477.69
558.65	59489.40
558.81	59568.97
558.98	59650.89
559.14	59835.80
559.31	59770.26
559.47	60009.00
559.64	59812.39
559.80	59788.98
559.97	59910.69
560.13	59671.96
560.30	59901.33
560.46	60013.68
560.63	59882.61
560.79	60006.65
560.96	60151.77
561.12	60062.83
561.29	60030.06
561.45	59849.84
561.61	59798.35
561.78	59852.18
561.94	59868.56
562.11	59957.50
562.27	59999.63
562.44	60135.38
562.60	60041.76
562.77	60083.89
562.93	59814.73
563.10	60317.95
563.26	59971.55
563.42	60334.33
563.59	60149.43
563.75	60023.04
563.92	60081.55
564.08	60259.43
564.24	60224.32
564.41	60285.18
564.57	60100.28
564.74	60240.71
564.90	60266.45
565.07	60266.45
565.23	60341.35
565.39	60418.59
565.56	60364.76
565.72	60308.58
565.88	60378.80
566.05	60219.64
566.21	60336.67
566.38	60416.25
566.54	60252.41
566.70	60535.62
566.87	60439.65
567.03	60411.57
567.19	60605.83
567.36	60460.72
567.52	60488.80
567.68	60732.22
567.85	60523.91
568.01	60516.89
568.17	60601.15
568.34	60657.32
568.50	60416.25
568.66	60575.40
568.83	60446.68
568.99	60566.04
569.15	60526.25
569.32	60626.90
569.48	60554.34
569.64	60748.60
569.81	60666.69
569.97	60467.74
570.13	60603.49
570.30	60547.32
570.46	60589.45
570.62	60732.22
570.78	60654.98
570.95	60619.88
571.11	60643.28
571.27	60544.98
571.43	60512.21
571.60	60781.37
571.76	60729.88
571.92	60701.79
572.09	60842.23
572.25	60797.76
572.41	60907.76
572.57	60711.16
572.74	60992.02
572.90	60753.29
573.06	60736.90
573.22	60874.99
573.38	60980.32
573.55	60849.25
573.71	61001.38
573.87	60781.37
574.03	60720.52
574.20	60865.63
574.36	60683.07
574.52	60919.46
574.68	60907.76
574.84	60853.93
575.01	60999.04
575.17	61027.13
575.33	60816.48
575.49	60889.04
575.65	60846.91
575.82	60739.24
575.98	60844.57
576.14	61144.16
576.30	60992.02
576.46	60846.91
576.62	60725.20
576.79	60874.99
576.95	60786.05
577.11	60743.92
577.27	60987.34
577.43	61010.74
577.59	60790.73
577.75	60959.25
577.92	60842.23
578.08	61008.40
578.24	60949.89
578.40	61052.87
578.56	61010.74
578.72	61022.45
578.88	60926.49
579.04	61013.08
579.21	61223.73
579.37	61052.87
579.53	60966.27
579.69	61043.51
579.85	60882.02
580.01	60879.67
580.17	60900.74
580.33	61169.90
580.49	61158.20
580.65	61041.17
580.82	60956.91
580.98	60809.46
581.14	60999.04
581.30	61139.47
581.46	61087.98
581.62	61022.45
581.78	61055.21
581.94	61020.11
582.10	60900.74
582.26	61013.08
582.42	61127.77
582.58	61151.18
582.74	60989.68
582.90	61090.32
583.06	61010.74
583.22	60992.02
583.38	60992.02
583.54	61109.05
583.70	61197.99
583.86	61062.24
584.02	60846.91
584.18	61244.80
584.34	61165.22
584.50	61071.60
584.66	60912.44
584.82	61027.13
584.98	61214.37
585.14	61230.75
585.30	60977.98
585.46	61059.90
585.62	61055.21
585.78	61291.61
585.94	60985.00
586.10	61345.44
586.26	61113.73
586.42	61336.08
586.58	61226.07
586.74	61102.03
586.90	61113.73
587.06	61085.64
587.22	61413.32
587.38	61176.92
587.54	61378.21
587.70	61347.78
587.86	61179.26
588.02	61420.34
588.18	61240.12
588.34	61069.26
