SpectraSuite Data File
++++++++++++++++++++++++++++++++++++
Date: Fri Oct 25 10:47:14 EDT 2013
User: price-jones
Dark Spectrum Present: No
Reference Spectrum Present: No
Number of Sampled Component Spectra: 1
Spectrometers: USB2+H05261
Integration Time (usec): 100000 (USB2+H05261)
Spectra Averaged: 1 (USB2+H05261)
Boxcar Smoothing: 0 (USB2+H05261)
Correct for Electrical Dark: No (USB2+H05261)
Strobe/Lamp Enabled: No (USB2+H05261)
Correct for Detector Non-linearity: No (USB2+H05261)
Correct for Stray Light: No (USB2+H05261)
Number of Pixels in Processed Spectrum: 2048
>>>>>Begin Processed Spectral Data<<<<<
365.73	86.60
365.92	86.60
366.12	86.60
366.32	95.96
366.52	105.32
366.72	119.37
366.91	0.00
367.11	18.72
367.31	39.79
367.51	84.26
367.70	0.00
367.90	30.43
368.10	60.85
368.30	74.90
368.49	18.72
368.69	86.60
368.89	93.62
369.09	65.54
369.28	110.01
369.48	84.26
369.68	114.69
369.87	121.71
370.07	65.54
370.27	95.96
370.47	175.54
370.66	402.57
370.86	348.74
371.06	472.79
371.25	482.15
371.45	395.55
371.65	416.62
371.84	400.23
372.04	437.68
372.24	433.00
372.44	519.60
372.63	491.51
372.83	491.51
373.03	519.60
373.22	519.60
373.42	540.66
373.62	566.41
373.81	500.87
374.01	599.18
374.21	550.03
374.40	526.62
374.60	521.94
374.79	451.72
374.99	540.66
375.19	498.53
375.38	566.41
375.58	547.69
375.78	507.90
375.97	561.73
376.17	599.18
376.37	615.56
376.56	533.64
376.76	552.37
376.95	575.77
377.15	599.18
377.35	613.22
377.54	566.41
377.74	543.00
377.93	601.52
378.13	592.16
378.33	664.71
378.52	650.67
378.72	543.00
378.91	617.90
379.11	554.71
379.31	653.01
379.50	627.26
379.70	636.63
379.89	641.31
380.09	589.82
380.28	610.88
380.48	641.31
380.68	636.63
380.87	671.73
381.07	636.63
381.26	671.73
381.46	601.52
381.65	631.94
381.85	645.99
382.04	557.05
382.24	678.76
382.43	589.82
382.63	669.39
382.83	699.82
383.02	674.07
383.22	748.97
383.41	634.29
383.61	741.95
383.80	725.57
384.00	741.95
384.19	732.59
384.39	678.76
384.58	770.04
384.78	772.38
384.97	706.84
385.17	758.33
385.36	711.52
385.56	751.31
385.75	777.06
385.95	751.31
386.14	669.39
386.34	753.65
386.53	798.12
386.72	711.52
386.92	767.70
387.11	816.85
387.31	791.10
387.50	716.20
387.70	814.51
387.89	786.42
388.09	856.64
388.28	873.02
388.48	807.48
388.67	877.70
388.86	856.64
389.06	919.83
389.25	863.66
389.45	873.02
389.64	807.48
389.84	891.74
390.03	877.70
390.22	891.74
390.42	957.28
390.61	877.70
390.81	866.00
391.00	943.24
391.19	922.17
391.39	983.02
391.58	936.21
391.78	997.07
391.97	959.62
392.16	903.45
392.36	964.30
392.55	847.27
392.75	952.60
392.94	861.32
393.13	884.72
393.33	968.98
393.52	938.55
393.71	1020.47
393.91	971.32
394.10	978.34
394.29	1018.13
394.49	990.05
394.68	1013.45
394.88	1064.94
395.07	1104.73
395.26	1076.65
395.46	1029.84
395.65	1137.50
395.84	1076.65
396.04	1116.44
396.23	1083.67
396.42	1011.11
396.62	1114.10
396.81	1132.82
397.00	1156.22
397.19	1137.50
397.39	1132.82
397.58	1139.84
397.77	1191.33
397.97	1287.29
398.16	1247.51
398.35	1231.12
398.55	1228.78
398.74	1324.74
398.93	1245.16
399.12	1296.66
399.32	1242.82
399.51	1193.67
399.70	1343.47
399.90	1301.34
400.09	1441.77
400.28	1275.59
400.47	1420.71
400.67	1327.08
400.86	1472.20
401.05	1394.96
401.24	1397.30
401.44	1504.96
401.63	1451.13
401.82	1383.26
402.01	1462.83
402.21	1526.03
402.40	1394.96
402.59	1397.30
402.78	1355.17
402.97	1533.05
403.17	1500.28
403.36	1549.43
403.55	1565.82
403.74	1516.67
403.93	1472.20
404.13	1490.92
404.32	1533.05
404.51	1535.39
404.70	1664.12
404.89	1603.27
405.09	1708.59
405.28	1661.78
405.47	1701.57
405.66	1673.48
405.85	1734.34
406.05	1666.46
406.24	1781.15
406.43	1720.29
406.62	1727.32
406.81	1799.87
407.00	1701.57
407.20	1757.74
407.39	1774.13
407.58	1853.70
407.77	1792.85
407.96	1853.70
408.15	1874.77
408.34	1933.28
408.54	1937.96
408.73	1874.77
408.92	1975.41
409.11	1952.01
409.30	1966.05
409.49	2003.50
409.68	1998.82
409.87	2008.18
410.07	1959.03
410.26	1949.67
410.45	2073.71
410.64	2045.63
410.83	2186.06
411.02	2085.42
411.21	2181.38
411.40	2218.83
411.59	2097.12
411.78	2258.62
411.98	2139.25
412.17	2195.42
412.36	2214.15
412.55	2200.10
412.74	2345.22
412.93	2347.56
413.12	2310.11
413.31	2375.64
413.50	2429.48
413.69	2429.48
413.88	2417.77
414.07	2527.78
414.26	2562.89
414.45	2525.44
414.64	2562.89
414.83	2509.05
415.02	2609.70
415.22	2621.40
415.41	2665.87
415.60	2640.12
415.79	2708.00
415.98	2722.04
416.17	2761.83
416.36	2663.53
416.55	2778.22
416.74	2841.41
416.93	2836.73
417.12	2902.26
417.31	2813.32
417.50	2848.43
417.69	2942.05
417.88	2818.00
418.07	2937.37
418.26	3026.31
418.45	2974.82
418.64	2946.73
418.83	3105.89
419.02	3030.99
419.21	3122.27
419.39	2988.86
419.58	2944.39
419.77	2986.52
419.96	3166.74
420.15	3133.98
420.34	3166.74
420.53	3073.12
420.72	3241.64
420.91	3201.85
421.10	3288.45
421.29	3248.66
421.48	3225.26
421.67	3246.32
421.86	3265.05
422.05	3281.43
422.24	3375.05
422.43	3274.41
422.61	3417.18
422.80	3389.10
422.99	3351.65
423.18	3314.20
423.37	3445.27
423.56	3405.48
423.75	3400.80
423.94	3368.03
424.13	3180.79
424.32	3225.26
424.50	3398.46
424.69	3522.51
424.88	3548.25
425.07	3414.84
425.26	3468.67
425.45	3459.31
425.64	3487.40
425.83	3492.08
426.01	3548.25
426.20	3426.54
426.39	3471.01
426.58	3353.99
426.77	3433.57
426.96	3442.93
427.15	3485.06
427.33	3566.98
427.52	3566.98
427.71	3665.28
427.90	3613.79
428.09	3676.98
428.28	3541.23
428.46	3651.24
428.65	3648.90
428.84	3779.97
429.03	3754.22
429.22	3662.94
429.40	3805.71
429.59	3740.18
429.78	3620.81
429.97	3595.06
430.16	3702.73
430.34	3716.77
430.53	3831.46
430.72	3852.52
430.91	3700.39
431.10	3833.80
431.28	3838.48
431.47	3999.98
431.66	4046.79
431.85	3782.31
432.03	4023.38
432.22	4077.21
432.41	4046.79
432.60	4014.02
432.79	4147.43
432.97	4056.15
433.16	4063.17
433.35	4170.83
433.54	4140.41
433.72	4018.70
433.91	4126.36
434.10	4177.86
434.28	4152.11
434.47	4156.79
434.66	4360.42
434.85	4278.50
435.03	4339.35
435.22	4259.78
435.41	4329.99
435.59	4318.29
435.78	4362.76
435.97	4461.06
436.16	4414.25
436.34	4416.59
436.53	4561.70
436.72	4545.32
436.90	4442.34
437.09	4479.79
437.28	4365.10
437.46	4561.70
437.65	4423.61
437.84	4505.53
438.02	4461.06
438.21	4566.39
438.40	4552.34
438.58	4779.37
438.77	4713.84
438.96	4723.20
439.14	4816.82
439.33	4819.16
439.52	4816.82
439.70	4858.95
439.89	4835.55
440.08	5008.75
440.26	4997.04
440.45	4912.78
440.63	4910.44
440.82	5214.71
441.01	5123.43
441.19	5142.16
441.38	5371.53
441.57	5254.50
441.75	5385.57
441.94	5465.15
442.12	5488.56
442.31	5404.30
442.50	5376.21
442.68	5425.36
442.87	5420.68
443.05	5603.24
443.24	5694.52
443.43	5495.58
443.61	5589.20
443.80	5614.95
443.98	5362.17
444.17	5504.94
444.35	5605.58
444.54	5645.37
444.73	5570.48
444.91	5636.01
445.10	5628.99
445.28	5636.01
445.47	5593.88
445.65	5610.26
445.84	5645.37
446.02	5750.70
446.21	5769.42
446.39	5563.45
446.58	5729.63
446.77	5680.48
446.95	5633.67
447.14	5762.40
447.32	5865.38
447.51	5788.14
447.69	5750.70
447.88	5727.29
448.06	5877.09
448.25	5790.49
448.43	5799.85
448.62	5792.83
448.80	5834.96
448.99	5851.34
449.17	5825.59
449.36	5963.68
449.54	6148.59
449.73	6043.26
449.91	6155.61
450.10	6136.88
450.28	6115.82
450.46	6225.82
450.65	6188.38
450.83	6134.54
451.02	6125.18
451.20	6108.80
451.39	6293.70
451.57	6118.16
451.76	6286.68
451.94	6211.78
452.13	6136.88
452.31	6251.57
452.49	6204.76
452.68	6218.80
452.86	6228.17
453.05	6237.53
453.23	6471.58
453.42	6342.85
453.60	6368.60
453.78	6576.91
453.97	6434.13
454.15	6431.79
454.34	6291.36
454.52	6513.71
454.70	6614.35
454.89	6576.91
455.07	6588.61
455.26	6614.35
455.44	6546.48
455.62	6607.33
455.81	6626.06
455.99	6637.76
456.17	6729.04
456.36	6764.15
456.54	6553.50
456.73	6918.62
456.91	7061.40
457.09	6988.84
457.28	7206.51
457.46	7052.03
457.64	7166.72
457.83	7037.99
458.01	7042.67
458.19	7150.34
458.38	7171.40
458.56	7148.00
458.74	7122.25
458.93	7323.54
459.11	7089.48
459.29	7260.34
459.48	7119.91
459.66	7307.15
459.84	7246.30
460.03	7325.88
460.21	7295.45
460.39	7384.39
460.57	7618.44
460.76	7515.46
460.94	7609.08
461.12	7480.35
461.31	7506.10
461.49	7538.87
461.67	7588.02
461.85	7620.78
462.04	7496.74
462.22	8180.17
462.40	7868.88
462.59	7723.77
462.77	7756.54
462.95	7939.10
463.13	7782.28
463.32	7658.23
463.50	7850.16
463.68	7936.76
463.86	7927.39
464.05	7763.56
464.23	7892.29
464.41	7819.73
464.59	7812.71
464.78	8145.06
464.96	7920.37
465.14	7845.48
465.32	7981.23
465.50	8149.75
465.69	8051.44
465.87	8264.43
466.05	8084.21
466.23	7929.74
466.41	8032.72
466.60	8290.18
466.78	8140.38
466.96	8308.90
467.14	8098.25
467.32	8259.75
467.51	8205.92
467.69	8208.26
467.87	8374.44
468.05	8248.05
468.23	8245.71
468.41	8304.22
468.60	8332.31
468.78	8482.10
468.96	8484.44
469.14	8521.89
469.32	8507.85
469.50	8430.61
469.69	8456.36
469.87	8589.77
470.05	8758.28
470.23	8659.98
470.41	8615.51
470.59	8901.06
470.77	9064.89
470.95	8795.73
471.14	9057.87
471.32	8690.41
471.50	8755.94
471.68	8856.59
471.86	8980.64
472.04	9137.45
472.22	9132.77
472.40	8950.21
472.58	9071.92
472.77	9181.92
472.95	9158.52
473.13	9474.49
473.31	9383.21
473.49	9109.36
473.67	9315.33
473.85	9488.53
474.03	9453.42
474.21	9694.50
474.39	9650.03
474.57	10001.11
474.75	9853.66
474.93	9797.48
475.12	9717.90
475.30	9989.41
475.48	9823.23
475.66	9806.84
475.84	9935.57
476.02	10115.80
476.20	10139.20
476.38	10480.92
476.56	10609.65
476.74	10661.14
476.92	10085.37
477.10	10420.06
477.28	10604.97
477.46	10693.91
477.64	10787.53
477.82	10876.47
478.00	11000.52
478.18	10850.72
478.36	11194.78
478.54	11220.53
478.72	10934.98
478.90	11360.96
479.08	11655.87
479.26	11585.65
479.44	11665.23
479.62	11669.91
479.80	11824.39
479.98	12100.57
480.16	12100.57
480.34	11838.43
480.52	11997.59
480.70	12109.93
480.88	12018.65
481.06	12271.43
481.24	12201.21
481.41	12437.61
481.59	12753.58
481.77	12844.86
481.95	12844.86
482.13	13186.58
482.31	12634.21
482.49	13151.47
482.67	13062.53
482.85	13156.15
483.03	13369.14
483.21	13350.42
483.39	13554.04
483.57	13666.39
483.74	13860.65
483.92	14080.66
484.10	13816.18
484.28	14176.62
484.46	14270.25
484.64	14527.71
484.82	14335.78
485.00	14335.78
485.18	14649.41
485.35	15028.58
485.53	14740.69
485.71	14635.37
485.89	15042.62
486.07	15129.22
486.25	15068.37
486.43	15260.29
486.61	15253.27
486.78	15555.20
486.96	15262.63
487.14	15906.28
487.32	15784.57
487.50	16065.44
487.68	16023.31
487.85	16580.36
488.03	16634.19
488.21	16582.70
488.39	16489.07
488.57	16695.04
488.75	16868.24
488.92	16943.14
489.10	17324.65
489.28	17322.30
489.46	17495.50
489.64	17458.06
489.81	17949.57
489.99	18003.40
490.17	17951.91
490.35	18024.47
490.53	18160.22
490.70	18242.14
490.88	18412.99
491.06	18541.72
491.24	18576.83
491.41	18537.04
491.59	18656.41
491.77	18726.63
491.95	18780.46
492.13	19138.56
492.30	19199.41
492.48	19454.53
492.66	19405.38
492.84	19393.68
493.01	19658.16
493.19	19690.93
493.37	19976.47
493.54	19854.76
493.72	20189.46
493.90	20098.18
494.08	20205.84
494.25	20664.59
494.43	20563.95
494.61	20671.61
494.79	20629.48
494.96	20833.11
495.14	20889.28
495.32	21411.22
495.49	21233.34
495.67	21221.64
495.85	21511.86
496.02	21626.55
496.20	21406.54
496.38	21738.90
496.55	22015.08
496.73	22284.24
496.91	22375.52
497.09	22295.94
497.26	22352.12
497.44	22321.69
497.62	22532.34
497.79	22834.27
497.97	22686.81
498.14	23012.15
498.32	22838.95
498.50	23503.66
498.67	23438.12
498.85	23468.55
499.03	23709.63
499.20	23721.33
499.38	23737.71
499.56	23793.89
499.73	24027.94
499.91	23894.53
500.08	23946.02
500.26	24084.11
500.44	23992.83
500.61	24121.56
500.79	24217.52
500.97	24154.33
501.14	24823.72
501.32	24669.25
501.49	24680.95
501.67	25067.14
501.84	24994.58
502.02	24950.11
502.20	25158.42
502.37	25099.90
502.55	24849.47
502.72	25322.26
502.90	25453.33
503.07	25102.25
503.25	25436.94
503.43	25582.06
503.60	25909.73
503.78	25804.41
503.95	25593.76
504.13	26103.99
504.30	25891.01
504.48	25898.03
504.65	26391.88
504.83	26249.11
505.01	26487.84
505.18	26218.68
505.36	26824.88
505.53	26565.08
505.71	26377.84
505.88	26974.67
506.06	26539.33
506.23	26302.94
506.41	26785.09
506.58	26909.14
506.76	26841.26
506.93	27147.87
507.11	27309.37
507.28	27417.04
507.46	27372.57
507.63	27075.32
507.81	27213.41
507.98	27297.67
508.16	27356.18
508.33	27646.41
508.50	27381.93
508.68	27889.82
508.85	28182.39
509.03	28510.07
509.20	28268.99
509.38	28400.06
509.55	28669.22
509.73	28444.53
509.90	28418.78
510.08	28264.31
510.25	28449.21
510.42	28814.34
510.60	28746.46
510.77	28896.25
510.95	29149.03
511.12	28947.75
511.30	29207.55
511.47	29252.02
511.64	29823.11
511.82	29401.81
511.99	29064.77
512.17	29427.56
512.34	29280.10
512.51	29881.62
512.69	29497.77
512.86	29457.98
513.04	30022.05
513.21	29797.36
513.38	30359.09
513.56	29993.97
513.73	29804.38
513.90	30363.77
514.08	30029.07
514.25	30522.93
514.43	30188.23
514.60	30029.07
514.77	30396.54
514.95	30497.18
515.12	30756.98
515.29	30593.14
515.47	31051.89
515.64	31206.36
515.81	31089.34
515.99	31094.02
516.16	30866.98
516.33	31122.10
516.51	31480.21
516.68	31023.80
516.85	31007.42
517.03	31166.57
517.20	31367.86
517.37	31585.53
517.54	31566.81
517.72	31660.43
517.89	32020.87
518.06	31206.36
518.24	31627.66
518.41	31728.30
518.58	31754.05
518.75	31962.36
518.93	32437.48
519.10	31838.31
519.27	32283.01
519.45	32320.46
519.62	32643.45
519.79	32315.78
519.96	32591.96
520.14	32657.49
520.31	32294.71
520.48	32823.67
520.65	32556.85
520.83	33013.26
521.00	33039.00
521.17	33008.58
521.34	32971.13
521.52	33303.48
521.69	33455.62
521.86	33371.36
522.03	33310.50
522.20	33514.13
522.38	33362.00
522.55	33979.90
522.72	33474.34
522.89	33399.44
523.07	34061.82
523.24	33371.36
523.41	33928.41
523.58	33783.29
523.75	34302.89
523.92	33811.38
524.10	34312.25
524.27	34300.55
524.44	34319.28
524.61	34438.64
524.78	34345.02
524.96	34522.90
525.13	34789.72
525.30	34686.74
525.47	34752.27
525.64	34756.96
525.81	35007.39
525.98	34534.60
526.16	34808.45
526.33	34501.84
526.50	35009.73
526.67	34490.13
526.84	35000.37
527.01	34925.47
527.18	35126.76
527.36	35426.35
527.53	35353.79
527.70	35487.20
527.87	35857.01
528.04	35653.38
528.21	35353.79
528.38	35386.56
528.55	35559.76
528.72	36023.19
528.89	35718.92
529.07	35737.64
529.24	35281.24
529.41	36322.77
529.58	36102.76
529.75	36140.21
529.92	36037.23
530.09	35978.72
530.26	36144.89
530.43	36519.38
530.60	35988.08
530.77	35995.10
530.94	36568.53
531.11	36397.67
531.28	36535.76
531.46	36533.42
531.63	36367.24
531.80	37111.53
531.97	36650.45
532.14	36701.94
532.31	36594.28
532.48	36671.51
532.65	37200.47
532.82	36650.45
532.99	37097.49
533.16	36580.23
533.33	36975.78
533.50	37399.42
533.67	37586.66
533.84	37057.70
534.01	37762.20
534.18	37104.51
534.35	37495.38
534.52	37088.13
534.69	37883.91
534.86	37408.78
535.03	36999.19
535.20	37558.58
535.37	38148.39
535.54	37996.26
535.71	37474.32
535.88	37464.96
536.05	37600.71
536.22	37755.18
536.38	37752.84
536.55	37841.78
536.72	37706.03
536.89	37736.46
537.06	38272.44
537.23	38249.03
537.40	38410.53
537.57	38239.67
537.74	38089.88
537.91	38522.88
538.08	38335.63
538.25	37865.19
538.42	37984.55
538.59	38366.06
538.75	38232.65
538.92	38862.26
539.09	38756.93
539.26	38506.49
539.43	38316.91
539.60	38518.20
539.77	38834.17
539.94	38852.89
540.11	38417.55
540.28	38614.16
540.44	39019.07
540.61	38880.98
540.78	38770.97
540.95	39065.88
541.12	39009.71
541.29	39040.14
541.46	39168.87
541.62	38644.59
541.79	38845.87
541.96	38976.94
542.13	39388.88
542.30	39297.59
542.47	39463.77
542.63	39002.69
542.80	39744.64
542.97	40020.82
543.14	40135.51
543.31	39739.96
543.48	39643.99
543.64	40156.57
543.81	39990.39
543.98	40179.98
544.15	39814.85
544.32	40245.51
544.48	40259.55
544.65	40062.95
544.82	40156.57
544.99	39892.09
545.16	39943.58
545.32	40287.64
545.49	40545.10
545.66	40678.51
545.83	39936.56
546.00	40573.19
546.16	40481.91
546.33	40201.04
546.50	40376.58
546.67	40140.19
546.83	40297.00
547.00	40280.62
547.17	41151.30
547.34	40783.83
547.50	40931.29
547.67	40868.09
547.84	40683.19
548.00	41050.66
548.17	40772.13
548.34	40594.25
548.51	41141.94
548.67	41235.56
548.84	41024.91
549.01	41603.02
549.18	41345.56
549.34	40973.42
549.51	41144.28
549.68	41237.90
549.84	41415.78
550.01	41647.49
550.18	41235.56
550.34	41317.48
550.51	41383.01
550.68	41352.58
550.84	41045.97
551.01	41675.58
551.18	41600.68
551.34	41247.26
551.51	41708.35
551.68	41937.72
551.84	41043.63
552.01	41425.14
552.18	41331.52
552.34	41373.65
552.51	41352.58
552.68	42059.43
552.84	41729.41
553.01	42225.60
553.18	41961.12
553.34	41720.05
553.51	41551.53
553.67	41806.65
553.84	42183.48
554.01	42134.32
554.17	42246.67
554.34	41886.23
554.51	42005.59
554.67	42368.38
554.84	42148.37
555.00	42141.35
555.17	41958.78
555.33	42459.66
555.50	41757.50
555.67	42443.27
555.83	42335.61
556.00	42387.10
556.16	42445.62
556.33	42422.21
556.50	42171.77
556.66	42330.93
556.83	42398.80
556.99	42401.14
557.16	42845.85
557.32	42572.00
557.49	42342.63
557.65	42061.77
557.82	42277.10
557.98	42485.40
558.15	42747.54
558.32	42623.50
558.48	42689.03
558.65	42464.34
558.81	42497.11
558.98	42859.89
559.14	42787.33
559.31	42789.67
559.47	42866.91
559.64	42789.67
559.80	43264.80
559.97	42866.91
560.13	42976.92
560.30	42810.74
560.46	43264.80
560.63	42707.76
560.79	42946.49
560.96	43056.50
561.12	43023.73
561.29	43124.37
561.45	42986.28
561.61	42621.16
561.78	43276.51
561.94	42593.07
562.11	42920.74
562.27	42820.10
562.44	42827.12
562.60	42946.49
562.77	43627.59
562.93	42976.92
563.10	43789.08
563.26	42953.51
563.42	43019.05
563.59	43356.08
563.75	43234.38
563.92	43402.89
564.08	43161.82
564.24	43143.09
564.41	43473.11
564.57	43339.70
564.74	43564.39
564.90	43180.54
565.07	43533.96
565.23	43391.19
565.39	43194.59
565.56	43398.21
565.72	43522.26
565.88	43421.62
566.05	43653.33
566.21	43524.60
566.38	43620.56
566.54	42976.92
566.70	43629.93
566.87	43604.18
567.03	43796.10
567.19	44051.22
567.36	43648.65
567.52	43449.70
567.68	43889.73
567.85	43297.57
568.01	43526.94
568.17	43557.37
568.34	43941.22
568.50	43604.18
568.66	43775.04
568.83	44231.44
568.99	43318.64
569.15	43302.25
569.32	43761.00
569.48	43845.26
569.64	43735.25
569.81	44268.89
569.97	43709.50
570.13	43540.99
570.30	43290.55
570.46	43395.87
570.62	43508.22
570.78	43824.19
570.95	43428.64
571.11	43985.69
571.27	43962.28
571.43	43920.15
571.60	43957.60
571.76	43672.06
571.92	43658.01
572.09	44009.09
572.25	44098.03
572.41	43763.34
572.57	44318.04
572.74	44392.94
572.90	44280.60
573.06	43496.52
573.22	43751.63
573.38	43831.21
573.55	43201.61
573.71	44083.99
573.87	44062.93
574.03	43606.52
574.20	44116.76
574.36	43566.73
574.52	44271.23
574.68	43782.06
574.84	43973.98
575.01	43489.49
575.17	44189.31
575.33	43924.83
575.49	44093.35
575.65	44210.38
575.82	44011.43
575.98	44112.08
576.14	44224.42
576.30	44165.91
576.46	43777.38
576.62	43765.68
576.79	44172.93
576.95	43833.55
577.11	43833.55
577.27	44023.14
577.43	44285.28
577.59	43976.33
577.75	44177.61
577.92	43592.48
578.08	44268.89
578.24	43882.70
578.40	43920.15
578.56	43667.37
578.72	43931.86
578.88	44179.95
579.04	44135.48
579.21	43971.64
579.37	44044.20
579.53	43941.22
579.69	43414.60
579.85	43716.53
580.01	44414.01
580.17	44266.55
580.33	44198.68
580.49	44444.43
580.65	44151.87
580.82	44477.20
580.98	44144.84
581.14	44044.20
581.30	44334.43
581.46	44278.25
581.62	44409.32
581.78	44027.82
581.94	44643.38
582.10	44264.21
582.26	44254.85
582.42	44069.95
582.58	44264.21
582.74	43964.62
582.90	44278.25
583.06	44334.43
583.22	44163.57
583.38	44772.11
583.54	44313.36
583.70	44081.65
583.86	44163.57
584.02	43997.39
584.18	44081.65
584.34	44034.84
584.50	44053.56
584.66	44224.42
584.82	44055.90
584.98	44697.21
585.14	44009.09
585.30	43915.47
585.46	44135.48
585.62	44226.76
585.78	44196.34
585.94	43805.47
586.10	44189.31
586.26	44016.11
586.42	43999.73
586.58	44179.95
586.74	44308.68
586.90	44458.48
587.06	44023.14
587.22	44442.09
587.38	43576.09
587.54	44086.33
587.70	44481.88
587.86	44041.86
588.02	44465.50
588.18	44477.20
588.34	44275.91
588.49	44055.90
588.65	43906.11
588.81	44418.69
588.97	44191.65
589.13	44205.70
589.29	44219.74
589.45	44189.31
589.61	44659.76
589.77	44524.01
589.93	44598.91
590.08	44486.56
590.24	44524.01
590.40	44643.38
