SpectraSuite Data File
++++++++++++++++++++++++++++++++++++
Date: Fri Oct 25 11:25:02 EDT 2013
User: price-jones
Dark Spectrum Present: No
Reference Spectrum Present: No
Number of Sampled Component Spectra: 1
Spectrometers: USB2+H05261
Integration Time (usec): 100000 (USB2+H05261)
Spectra Averaged: 1 (USB2+H05261)
Boxcar Smoothing: 0 (USB2+H05261)
Correct for Electrical Dark: No (USB2+H05261)
Strobe/Lamp Enabled: No (USB2+H05261)
Correct for Detector Non-linearity: No (USB2+H05261)
Correct for Stray Light: No (USB2+H05261)
Number of Pixels in Processed Spectrum: 2048
>>>>>Begin Processed Spectral Data<<<<<
365.73	306.61
365.92	306.61
366.12	306.61
366.32	152.13
366.52	184.90
366.72	187.24
366.91	142.77
367.11	140.43
367.31	138.09
367.51	154.48
367.70	173.20
367.90	100.64
368.10	147.45
368.30	168.52
368.49	16.38
368.69	140.43
368.89	86.60
369.09	149.79
369.28	159.16
369.48	140.43
369.68	149.79
369.87	147.45
370.07	220.01
370.27	241.08
370.47	358.10
370.66	575.77
370.86	648.33
371.06	678.76
371.25	748.97
371.45	589.82
371.65	746.63
371.84	711.52
372.04	725.57
372.24	730.25
372.44	851.96
372.63	683.44
372.83	758.33
373.03	692.80
373.22	711.52
373.42	763.01
373.62	779.40
373.81	809.83
374.01	795.78
374.21	849.61
374.40	894.08
374.60	826.21
374.79	837.91
374.99	755.99
375.19	816.85
375.38	870.68
375.58	849.61
375.78	863.66
375.97	816.85
376.17	912.81
376.37	938.55
376.56	854.30
376.76	873.02
376.95	861.32
377.15	985.37
377.35	854.30
377.54	1020.47
377.74	866.00
377.93	828.55
378.13	896.43
378.33	945.58
378.52	966.64
378.72	891.74
378.91	961.96
379.11	954.94
379.31	1020.47
379.50	997.07
379.70	1022.81
379.89	1053.24
380.09	898.77
380.28	889.40
380.48	1006.43
380.68	945.58
380.87	987.71
381.07	1006.43
381.26	1081.33
381.46	1027.50
381.65	1050.90
381.85	1020.47
382.04	1100.05
382.24	1020.47
382.43	1013.45
382.63	1039.20
382.83	1102.39
383.02	1111.75
383.22	1027.50
383.41	1069.62
383.61	1029.84
383.80	1132.82
384.00	1060.26
384.19	1139.84
384.39	1041.54
384.58	1165.59
384.78	1114.10
384.97	1137.50
385.17	1139.84
385.36	1121.12
385.56	1172.61
385.75	1146.86
385.95	1259.21
386.14	1135.16
386.34	1142.18
386.53	1158.57
386.72	1163.25
386.92	1158.57
387.11	1200.69
387.31	1186.65
387.50	1226.44
387.70	1240.48
387.89	1172.61
388.09	1270.91
388.28	1200.69
388.48	1313.04
388.67	1291.98
388.86	1320.06
389.06	1273.25
389.25	1418.36
389.45	1376.24
389.64	1254.53
389.84	1373.89
390.03	1341.13
390.22	1420.71
390.42	1432.41
390.61	1313.04
390.81	1366.87
391.00	1315.38
391.19	1380.92
391.39	1497.94
391.58	1542.41
391.78	1467.52
391.97	1460.49
392.16	1404.32
392.36	1542.41
392.55	1432.41
392.75	1542.41
392.94	1493.26
393.13	1521.35
393.33	1516.67
393.52	1624.33
393.71	1537.73
393.91	1544.75
394.10	1593.90
394.29	1666.46
394.49	1502.62
394.68	1619.65
394.88	1582.20
395.07	1661.78
395.26	1596.25
395.46	1657.10
395.65	1734.34
395.84	1692.21
396.04	1755.40
396.23	1795.19
396.42	1785.83
396.62	1764.76
396.81	1706.25
397.00	1799.87
397.19	1781.15
397.39	1823.28
397.58	1874.77
397.77	1715.61
397.97	1839.66
398.16	1856.04
398.35	1827.96
398.55	1984.77
398.74	1956.69
398.93	2010.52
399.12	1905.20
399.32	1926.26
399.51	1959.03
399.70	1921.58
399.90	1935.62
400.09	1994.14
400.28	2120.53
400.47	1937.96
400.67	2174.36
400.86	2094.78
401.05	2085.42
401.24	1994.14
401.44	2150.95
401.63	2043.29
401.82	2188.40
402.01	2143.93
402.21	2101.80
402.40	2139.25
402.59	2108.82
402.78	2200.10
402.97	2303.09
403.17	2265.64
403.36	2399.05
403.55	2321.81
403.74	2389.69
403.93	2548.84
404.13	2406.07
404.32	2473.95
404.51	2396.71
404.70	2317.13
404.89	2387.35
405.09	2527.78
405.28	2466.92
405.47	2581.61
405.66	2455.22
405.85	2567.57
406.05	2520.76
406.24	2537.14
406.43	2647.15
406.62	2668.21
406.81	2593.31
407.00	2548.84
407.20	2532.46
407.39	2607.36
407.58	2647.15
407.77	2764.17
407.96	2775.88
408.15	2808.64
408.34	2654.17
408.54	2719.70
408.73	2724.38
408.92	2827.37
409.11	2829.71
409.30	2839.07
409.49	2860.13
409.68	2944.39
409.87	2843.75
410.07	3045.04
410.26	2956.10
410.45	2916.31
410.64	3101.21
410.83	3021.63
411.02	2974.82
411.21	3222.92
411.40	3021.63
411.59	3262.71
411.78	3164.40
411.98	3194.83
412.17	3281.43
412.36	3131.64
412.55	3339.94
412.74	3363.35
412.93	3442.93
413.12	3353.99
413.31	3515.48
413.50	3529.53
413.69	3529.53
413.88	3583.36
414.07	3632.51
414.26	3510.80
414.45	3646.55
414.64	3541.23
414.83	3702.73
415.02	3770.60
415.22	3847.84
415.41	3836.14
415.60	3817.41
415.79	3812.73
415.98	3896.99
416.17	3892.31
416.36	3969.55
416.55	3971.89
416.74	4056.15
416.93	3978.91
417.12	3960.19
417.31	4224.67
417.50	4142.75
417.69	4280.84
417.88	4264.46
418.07	4234.03
418.26	4297.22
418.45	4374.46
418.64	4491.49
418.83	4374.46
419.02	4416.59
419.21	4479.79
419.39	4458.72
419.58	4418.93
419.77	4528.94
419.96	4601.49
420.15	4643.62
420.34	4528.94
420.53	4517.23
420.72	4851.93
420.91	4587.45
421.10	4650.64
421.29	4891.72
421.48	4610.86
421.67	4674.05
421.86	4725.54
422.05	4795.76
422.24	4786.40
422.43	4720.86
422.61	4781.71
422.80	4915.12
422.99	5020.45
423.18	4887.04
423.37	4992.36
423.56	4954.91
423.75	4875.34
423.94	4875.34
424.13	4596.81
424.32	4758.31
424.50	5064.92
424.69	5100.03
424.88	5008.75
425.07	5013.43
425.26	4926.83
425.45	5078.96
425.64	5039.17
425.83	4767.67
426.01	5081.30
426.20	5008.75
426.39	5020.45
426.58	5013.43
426.77	5177.26
426.96	5219.39
427.15	5027.47
427.33	5102.37
427.52	5132.79
427.71	5132.79
427.90	5121.09
428.09	5298.97
428.28	5254.50
428.46	5256.84
428.65	5327.06
428.84	5631.33
429.03	5453.45
429.22	5296.63
429.40	5430.04
429.59	5404.30
429.78	5345.78
429.97	5256.84
430.16	5607.92
430.34	5643.03
430.53	5530.69
430.72	5568.13
430.91	5830.27
431.10	5596.22
431.28	5561.11
431.47	5879.43
431.66	5671.12
431.85	5764.74
432.03	5790.49
432.22	5909.85
432.41	5891.13
432.60	5937.94
432.79	6017.52
432.97	5858.36
433.16	6019.86
433.35	5933.26
433.54	6001.13
433.72	6286.68
433.91	6059.65
434.10	6148.59
434.28	5980.07
434.47	6242.21
434.66	6157.95
434.85	6338.17
435.03	6296.04
435.22	6291.36
435.41	6466.90
435.59	6296.04
435.78	6497.33
435.97	6427.11
436.16	6228.17
436.34	6705.63
436.53	6413.07
436.72	6581.59
436.90	6450.52
437.09	6551.16
437.28	6459.88
437.46	6642.44
437.65	6548.82
437.84	6534.78
438.02	6782.87
438.21	6754.79
438.40	6644.78
438.58	6981.82
438.77	6848.41
438.96	6874.15
439.14	7061.40
439.33	7089.48
439.52	7225.23
439.70	7180.76
439.89	7529.50
440.08	7382.05
440.26	7466.31
440.45	7197.15
440.63	7613.76
440.82	7489.71
441.01	7400.77
441.19	7641.85
441.38	7562.27
441.57	7810.37
441.75	7744.83
441.94	8028.04
442.12	7922.71
442.31	7971.86
442.50	8058.46
442.68	7992.93
442.87	7964.84
443.05	8276.13
443.24	8152.09
443.43	8297.20
443.61	8121.66
443.80	8425.93
443.98	7887.61
444.17	7569.29
444.35	8154.43
444.54	8451.67
444.73	8201.24
444.91	8170.81
445.10	8126.34
445.28	8065.49
445.47	8257.41
445.65	8184.85
445.84	8425.93
446.02	8561.68
446.21	8566.36
446.39	8313.58
446.58	8428.27
446.77	8383.80
446.95	8241.03
447.14	8339.33
447.32	8360.39
447.51	8542.96
447.69	8596.79
447.88	8519.55
448.06	8461.04
448.25	8348.69
448.43	8624.87
448.62	8549.98
448.80	8706.79
448.99	8589.77
449.17	8606.15
449.36	8533.59
449.54	8800.41
449.73	8800.41
449.91	8896.38
450.10	8957.23
450.28	9032.13
450.46	8985.32
450.65	9053.19
450.83	8931.48
451.02	8959.57
451.20	9090.64
451.39	9224.05
451.57	9109.36
451.76	9050.85
451.94	9067.24
452.13	9378.53
452.31	9224.05
452.49	9027.45
452.68	9242.78
452.86	9362.14
453.05	9401.93
453.23	9385.55
453.42	9444.06
453.60	9165.54
453.78	9315.33
453.97	9448.74
454.15	9387.89
454.34	9467.47
454.52	9652.37
454.70	9685.14
454.89	9736.63
455.07	9788.12
455.26	9858.34
455.44	9998.77
455.62	9792.80
455.81	9792.80
455.99	9865.36
456.17	10045.58
456.36	10043.24
456.54	10178.99
456.73	10066.64
456.91	10289.00
457.09	10586.24
457.28	10284.31
457.46	10349.85
457.64	10441.13
457.83	10321.76
458.01	10420.06
458.19	10478.58
458.38	10403.68
458.56	10775.83
458.74	10663.48
458.93	10792.21
459.11	10731.36
459.29	10705.61
459.48	10604.97
459.66	10761.78
459.84	10824.98
460.03	10913.92
460.21	10810.93
460.39	10869.45
460.57	10953.71
460.76	11082.44
460.94	11260.32
461.12	11396.07
461.31	11164.36
461.49	11211.17
461.67	11180.74
461.85	11393.73
462.04	11335.21
462.22	11648.85
462.40	11506.07
462.59	11335.21
462.77	11487.35
462.95	11421.81
463.13	11602.04
463.32	11686.29
463.50	11634.80
463.68	11653.53
463.86	11875.88
464.05	11541.18
464.23	11854.81
464.41	11702.68
464.59	11513.10
464.78	11784.60
464.96	12016.31
465.14	11632.46
465.32	12016.31
465.50	11847.79
465.69	12032.69
465.87	12133.34
466.05	12091.21
466.23	12341.64
466.41	12196.53
466.60	12336.96
466.78	12039.72
466.96	12051.42
467.14	12189.51
467.32	12362.71
467.51	12582.72
467.69	12224.62
467.87	12439.95
468.05	12643.57
468.23	12343.99
468.41	12252.70
468.60	12388.46
468.78	12688.04
468.96	12468.03
469.14	12985.29
469.32	13006.36
469.50	12814.43
469.69	13013.38
469.87	13039.12
470.05	12828.48
470.23	12938.48
470.41	13039.12
470.59	13327.01
470.77	13195.94
470.95	13256.79
471.14	13600.85
471.32	12858.90
471.50	13767.03
471.68	13308.29
471.86	13469.78
472.04	13792.78
472.22	13816.18
472.40	13661.71
472.58	13937.89
472.77	13912.14
472.95	13764.69
473.13	14544.09
473.31	14050.24
473.49	14129.81
473.67	14214.07
473.85	14012.79
474.03	14380.25
474.21	14628.35
474.39	14881.13
474.57	14539.41
474.75	14785.16
474.93	15204.12
475.12	14736.01
475.30	15147.95
475.48	14869.42
475.66	14993.47
475.84	15110.50
476.02	15140.93
476.20	15213.48
476.38	15840.75
476.56	16013.95
476.74	15688.61
476.92	15662.86
477.10	15716.70
477.28	16088.84
477.46	16226.93
477.64	16503.12
477.82	16383.75
478.00	16688.02
478.18	16528.86
478.36	16578.01
478.54	16943.14
478.72	17184.21
478.90	17214.64
479.08	17729.56
479.26	17535.29
479.44	17776.37
479.62	17972.97
479.80	18209.37
479.98	18059.57
480.16	18558.11
480.34	18246.82
480.52	18427.04
480.70	18270.22
480.88	18251.50
481.06	18773.44
481.24	18572.15
481.41	18862.38
481.59	18967.70
481.77	19644.12
481.95	19257.93
482.13	19566.88
482.31	19630.07
482.49	20219.89
482.67	20025.62
482.85	19889.87
483.03	20617.78
483.21	20905.66
483.39	21039.08
483.57	20699.70
483.74	21095.25
483.92	21205.25
484.10	21198.23
484.28	21626.55
484.46	21935.50
484.64	22387.22
484.82	21982.31
485.00	22279.56
485.18	22377.86
485.35	22834.27
485.53	22803.84
485.71	23253.22
485.89	23246.20
486.07	23051.94
486.25	23405.36
486.43	23728.35
486.61	23543.45
486.78	23836.02
486.96	24329.87
487.14	24671.59
487.32	24020.92
487.50	24685.63
487.68	24872.87
487.85	25113.95
488.03	25556.31
488.21	25926.11
488.39	25589.08
488.57	25851.22
488.75	26347.41
488.92	26305.28
489.10	26764.03
489.28	26899.78
489.46	27094.04
489.64	26977.01
489.81	27599.60
489.99	27548.11
490.17	27508.32
490.35	28048.98
490.53	28236.22
490.70	28332.18
490.88	28329.84
491.06	28896.25
491.24	28596.67
491.41	28910.30
491.59	29383.09
491.77	28950.09
491.95	29020.30
492.13	29586.71
492.30	30080.56
492.48	29750.55
492.66	30075.88
492.84	30136.74
493.01	30583.78
493.19	30700.81
493.37	30913.80
493.54	31049.55
493.72	31136.15
493.90	31283.60
494.08	31777.45
494.25	31812.56
494.43	31702.56
494.61	32432.80
494.79	32329.82
494.96	32650.47
495.14	32327.48
495.32	33172.41
495.49	32886.87
495.67	33399.44
495.85	33179.43
496.02	33039.00
496.20	33745.84
496.38	33766.91
496.55	34335.66
496.73	34726.53
496.91	34623.54
497.09	34237.36
497.26	34799.08
497.44	34817.81
497.62	35218.04
497.79	35501.25
497.97	35295.28
498.14	35983.40
498.32	35810.20
498.50	36257.24
498.67	36161.28
498.85	36367.24
499.03	36350.86
499.20	36694.92
499.38	36933.65
499.56	36903.23
499.73	36924.29
499.91	37322.18
500.08	37390.06
500.26	37490.70
500.44	37385.38
500.61	37394.74
500.79	37486.02
500.97	38089.88
501.14	38155.41
501.32	38452.66
501.49	38658.63
501.67	38583.73
501.84	38740.55
502.02	38906.73
502.20	38944.17
502.37	39339.72
502.55	38958.22
502.72	38969.92
502.90	39768.04
503.07	39690.80
503.25	39856.98
503.43	39749.32
503.60	39817.19
503.78	40582.55
503.95	39988.05
504.13	40058.27
504.30	40554.46
504.48	40250.19
504.65	41123.21
504.83	40701.92
505.01	41029.59
505.18	41415.78
505.36	41296.41
505.53	41074.06
505.71	41471.95
505.88	41708.35
506.06	41153.64
506.23	41984.53
506.41	41577.28
506.58	41984.53
506.76	41801.97
506.93	42768.61
507.11	42169.43
507.28	42099.22
507.46	42529.87
507.63	42564.98
507.81	42969.90
507.98	43152.46
508.16	42773.29
508.33	43051.81
508.50	43447.36
508.68	43789.08
508.85	43948.24
509.03	43901.43
509.20	43540.99
509.38	44088.67
509.55	44341.45
509.73	44399.96
509.90	44526.35
510.08	44205.70
510.25	44360.17
510.42	44907.86
510.60	44655.08
510.77	45237.87
510.95	45319.79
511.12	45268.30
511.30	45095.10
511.47	45029.57
511.64	45312.77
511.82	45570.23
511.99	45467.25
512.17	45645.13
512.34	45333.84
512.51	46085.15
512.69	45815.99
512.86	46319.20
513.04	46424.53
513.21	46375.37
513.38	46681.98
513.56	46665.60
513.73	46595.38
513.90	47229.67
514.08	46625.81
514.25	47295.21
514.43	47084.56
514.60	47344.36
514.77	47131.37
514.95	47618.20
515.12	47325.63
515.29	47641.60
515.47	47571.39
515.64	47868.64
515.81	47665.01
515.99	48004.39
516.16	48484.20
516.33	48315.68
516.51	48769.74
516.68	48289.93
516.85	48683.14
517.03	48673.78
517.20	49017.84
517.37	48697.19
517.54	48488.88
517.72	48924.22
517.89	49305.73
518.06	49102.10
518.24	49340.83
518.41	49258.91
518.58	49263.60
518.75	49083.37
518.93	49727.02
519.10	49572.55
519.27	49682.55
519.45	49394.67
519.62	49851.07
519.79	49846.39
519.96	49628.72
520.14	49942.35
520.31	49844.05
520.48	50155.34
520.65	49851.07
520.83	50508.76
521.00	50445.57
521.17	50492.38
521.34	50567.27
521.52	50784.94
521.69	50876.22
521.86	51283.48
522.03	51257.73
522.20	51185.18
522.38	51407.53
522.55	51257.73
522.72	51159.43
522.89	51061.13
523.07	50979.21
523.24	51473.06
523.41	51728.18
523.58	51552.64
523.75	51774.99
523.92	51620.52
524.10	51674.35
524.27	51749.24
524.44	51672.01
524.61	51845.21
524.78	52137.77
524.96	52238.42
525.13	52147.14
525.30	52458.43
525.47	52626.95
525.64	52605.88
525.81	52633.97
525.98	52753.33
526.16	52516.94
526.33	52701.84
526.50	52535.66
526.67	52453.75
526.84	52818.87
527.01	52905.47
527.18	52673.76
527.36	52720.57
527.53	53038.88
527.70	53076.33
527.87	53123.14
528.04	52924.19
528.21	53008.45
528.38	53326.77
528.55	53581.88
528.72	53233.14
528.89	53315.06
529.07	53188.67
529.24	53535.07
529.41	53551.46
529.58	53794.87
529.75	53506.99
529.92	53806.58
530.09	53911.90
530.26	53764.45
530.43	53727.00
530.60	53514.01
530.77	53801.89
530.94	54129.57
531.11	54167.02
531.28	54049.99
531.46	54148.29
531.63	53975.09
531.80	54115.53
531.97	54213.83
532.14	54574.27
532.31	54560.23
532.48	54321.49
532.65	54717.04
532.82	54356.60
532.99	54810.67
533.16	54630.44
533.33	54754.49
533.50	54728.75
533.67	54995.57
533.84	54557.89
534.01	54915.99
534.18	54796.62
534.35	55072.81
534.52	54927.69
534.69	55257.71
534.86	55150.04
535.03	55285.79
535.20	55136.00
535.37	55164.09
535.54	55311.54
535.71	55157.06
535.88	55430.91
536.05	55414.52
536.22	55634.53
536.38	55594.74
536.55	55599.43
536.72	55454.31
536.89	55402.82
537.06	55533.89
537.23	55721.13
537.40	55262.39
537.57	55494.10
537.74	55686.03
537.91	55859.23
538.08	55749.22
538.25	55746.88
538.42	55779.65
538.59	56119.02
538.75	55774.97
538.92	55908.38
539.09	56350.74
539.26	55891.99
539.43	56151.79
539.60	56142.43
539.77	56055.83
539.94	56219.67
540.11	56275.84
540.28	56240.73
540.44	56186.90
540.61	56432.66
540.78	56303.93
540.95	56327.33
541.12	56460.74
541.29	56353.08
541.46	56257.12
541.62	56463.08
541.79	56640.96
541.96	56320.31
542.13	56500.53
542.30	56413.93
542.47	56821.19
542.63	56828.21
542.80	56800.12
542.97	56980.34
543.14	57001.41
543.31	56961.62
543.48	57244.82
543.64	57345.47
543.81	57221.42
543.98	57165.24
544.15	57308.02
544.32	57158.22
544.48	57392.28
544.65	57017.79
544.82	57137.16
544.99	57279.93
545.16	57439.09
545.32	57467.17
545.49	57537.39
545.66	57797.19
545.83	57677.82
546.00	57614.63
546.16	57471.85
546.33	57516.32
546.50	57401.64
546.67	57731.65
546.83	57338.44
547.00	57439.09
547.17	57605.26
547.34	57736.34
547.50	57958.69
547.67	57977.41
547.84	57881.45
548.00	58010.18
548.17	58269.98
548.34	58045.29
548.51	58003.16
548.67	58003.16
548.84	58047.63
549.01	58000.82
549.18	58213.80
549.34	58047.63
549.51	58169.33
549.68	58342.53
549.84	58312.11
550.01	58438.50
550.18	58052.31
550.34	58370.62
550.51	58415.09
550.68	58136.57
550.84	58106.14
551.01	58672.55
551.18	58553.18
551.34	58197.42
551.51	58394.03
551.68	58674.89
551.84	58539.14
552.01	58321.47
552.18	58506.37
552.34	58529.78
552.51	58693.61
552.68	58651.48
552.84	58639.78
553.01	58852.77
553.18	58557.86
553.34	58731.06
553.51	58721.70
553.67	58805.96
553.84	58812.98
554.01	58742.77
554.17	59065.76
554.34	58894.90
554.51	58710.00
554.67	58955.75
554.84	58937.03
555.00	59021.29
555.17	58908.94
555.33	58997.88
555.50	59077.46
555.67	58775.53
555.83	59009.59
556.00	59042.35
556.16	59234.28
556.33	59255.34
556.50	59061.08
556.66	59391.09
556.83	59178.10
556.99	59416.84
557.16	59437.90
557.32	59517.48
557.49	59475.35
557.65	59042.35
557.82	59217.89
557.98	59316.20
558.15	59295.13
558.32	59423.86
558.48	59222.58
558.65	59370.03
558.81	59353.65
558.98	59568.97
559.14	59325.56
559.31	59641.53
559.47	59391.09
559.64	59508.12
559.80	59601.74
559.97	59807.71
560.13	59533.87
560.30	59599.40
560.46	59629.83
560.63	59707.07
560.79	59657.91
560.96	59716.43
561.12	59505.78
561.29	59887.29
561.45	59821.75
561.61	59774.94
561.78	59671.96
561.94	59639.19
562.11	59868.56
562.27	59760.90
562.44	59819.41
562.60	59908.35
562.77	59903.67
562.93	59622.81
563.10	60032.40
563.26	59868.56
563.42	60037.08
563.59	60020.70
563.75	60023.04
563.92	59980.91
564.08	59849.84
564.24	60121.34
564.41	60083.89
564.57	60280.50
564.74	60126.02
564.90	59891.97
565.07	60041.76
565.23	60074.53
565.39	60219.64
565.56	60212.62
565.72	59760.90
565.88	59922.40
566.05	60226.66
566.21	60067.51
566.38	60060.49
566.54	60324.97
566.70	60086.23
566.87	60268.79
567.03	60069.85
567.19	60542.64
567.36	60229.01
567.52	60254.75
567.68	60491.15
567.85	60427.95
568.01	60460.72
568.17	60243.05
568.34	60200.92
568.50	60207.94
568.66	60252.41
568.83	60346.03
568.99	60369.44
569.15	60570.72
569.32	60238.37
569.48	60346.03
569.64	60341.35
569.81	60505.19
569.97	60261.77
570.13	60423.27
570.30	60051.12
570.46	60301.56
570.62	60306.24
570.78	60444.33
570.95	60449.02
571.11	60697.11
571.27	60427.95
571.43	60371.78
571.60	60657.32
571.76	60395.18
571.92	60587.11
572.09	60444.33
572.25	60601.15
572.41	60561.36
572.57	60617.53
572.74	60640.94
572.90	60439.65
573.06	60671.37
573.22	60596.47
573.38	60631.58
573.55	60601.15
573.71	60832.86
573.87	60388.16
574.03	60477.10
574.20	60420.93
574.36	60629.24
574.52	60776.69
574.68	60481.78
574.84	60821.16
575.01	60669.03
575.17	60725.20
575.33	60715.84
575.49	60484.12
575.65	60790.73
575.82	60816.48
575.98	60596.47
576.14	60842.23
576.30	60589.45
576.46	60664.35
576.62	60739.24
576.79	60781.37
576.95	60556.68
577.11	60720.52
577.27	60825.84
577.43	60711.16
577.59	60662.00
577.75	60743.92
577.92	60535.62
578.08	60774.35
578.24	60774.35
578.40	60853.93
578.56	60940.53
578.72	60472.42
578.88	60818.82
579.04	61003.72
579.21	60687.75
579.37	60743.92
579.53	60938.19
579.69	60687.75
579.85	60570.72
580.01	60694.77
580.17	60690.09
580.33	60687.75
580.49	60818.82
580.65	60804.78
580.82	60741.58
580.98	60619.88
581.14	60748.60
581.30	60870.31
581.46	60718.18
581.62	60924.14
581.78	60830.52
581.94	60877.33
582.10	60910.10
582.26	60830.52
582.42	60753.29
582.58	61003.72
582.74	60821.16
582.90	61027.13
583.06	60999.04
583.22	60793.07
583.38	60842.23
583.54	60736.90
583.70	60907.76
583.86	60896.06
584.02	60886.70
584.18	60898.40
584.34	61057.56
584.50	60898.40
584.66	60821.16
584.82	60973.30
584.98	61158.20
585.14	61008.40
585.30	60872.65
585.46	61008.40
585.62	60835.20
585.78	60893.72
585.94	60711.16
586.10	60921.80
586.26	60818.82
586.42	60938.19
586.58	60914.78
586.74	61059.90
586.90	60830.52
587.06	61073.94
587.22	61106.71
587.38	60910.10
587.54	61113.73
587.70	61123.09
587.86	61109.05
588.02	61029.47
588.18	61179.26
588.34	60921.80
