SpectraSuite Data File
++++++++++++++++++++++++++++++++++++
Date: Fri Oct 25 11:23:50 EDT 2013
User: price-jones
Dark Spectrum Present: No
Reference Spectrum Present: No
Number of Sampled Component Spectra: 1
Spectrometers: USB2+H05261
Integration Time (usec): 100000 (USB2+H05261)
Spectra Averaged: 1 (USB2+H05261)
Boxcar Smoothing: 0 (USB2+H05261)
Correct for Electrical Dark: No (USB2+H05261)
Strobe/Lamp Enabled: No (USB2+H05261)
Correct for Detector Non-linearity: No (USB2+H05261)
Correct for Stray Light: No (USB2+H05261)
Number of Pixels in Processed Spectrum: 2048
>>>>>Begin Processed Spectral Data<<<<<
365.73	145.11
365.92	145.11
366.12	145.11
366.32	154.48
366.52	86.60
366.72	215.33
366.91	98.30
367.11	161.50
367.31	128.73
367.51	133.41
367.70	117.03
367.90	105.32
368.10	112.35
368.30	138.09
368.49	124.05
368.69	142.77
368.89	119.37
369.09	147.45
369.28	196.60
369.48	133.41
369.68	203.63
369.87	250.44
370.07	217.67
370.27	215.33
370.47	273.84
370.66	634.29
370.86	615.56
371.06	739.61
371.25	725.57
371.45	648.33
371.65	650.67
371.84	603.86
372.04	622.58
372.24	601.52
372.44	678.76
372.63	723.23
372.83	795.78
373.03	816.85
373.22	695.14
373.42	765.36
373.62	765.36
373.81	781.74
374.01	793.44
374.21	800.46
374.40	746.63
374.60	854.30
374.79	772.38
374.99	760.67
375.19	809.83
375.38	816.85
375.58	833.23
375.78	826.21
375.97	856.64
376.17	901.11
376.37	877.70
376.56	849.61
376.76	840.25
376.95	875.36
377.15	908.13
377.35	856.64
377.54	889.40
377.74	781.74
377.93	903.45
378.13	887.06
378.33	924.51
378.52	915.15
378.72	887.06
378.91	905.79
379.11	898.77
379.31	901.11
379.50	898.77
379.70	894.08
379.89	964.30
380.09	959.62
380.28	987.71
380.48	1001.75
380.68	973.66
380.87	994.73
381.07	1013.45
381.26	1095.37
381.46	992.39
381.65	1069.62
381.85	1055.58
382.04	1048.56
382.24	1043.88
382.43	1006.43
382.63	1055.58
382.83	1053.24
383.02	1123.46
383.22	1174.95
383.41	1071.97
383.61	1088.35
383.80	1001.75
384.00	1107.07
384.19	1132.82
384.39	1139.84
384.58	1015.79
384.78	1203.04
384.97	1170.27
385.17	1142.18
385.36	1167.93
385.56	1203.04
385.75	1139.84
385.95	1256.87
386.14	1149.20
386.34	1200.69
386.53	1184.31
386.72	1247.51
386.92	1266.23
387.11	1252.19
387.31	1174.95
387.50	1240.48
387.70	1261.55
387.89	1221.76
388.09	1221.76
388.28	1287.29
388.48	1327.08
388.67	1306.02
388.86	1284.95
389.06	1364.53
389.25	1336.45
389.45	1341.13
389.64	1343.47
389.84	1397.30
390.03	1387.94
390.22	1385.60
390.42	1301.34
390.61	1301.34
390.81	1369.21
391.00	1453.47
391.19	1366.87
391.39	1444.11
391.58	1509.65
391.78	1413.68
391.97	1385.60
392.16	1399.64
392.36	1516.67
392.55	1530.71
392.75	1596.25
392.94	1502.62
393.13	1535.39
393.33	1460.49
393.52	1624.33
393.71	1584.54
393.91	1607.95
394.10	1610.29
394.29	1614.97
394.49	1607.95
394.68	1722.63
394.88	1621.99
395.07	1607.95
395.26	1621.99
395.46	1701.57
395.65	1769.44
395.84	1748.38
396.04	1785.83
396.23	1764.76
396.42	1732.00
396.62	1764.76
396.81	1799.87
397.00	1720.29
397.19	1760.08
397.39	1795.19
397.58	1865.41
397.77	1834.98
397.97	1842.00
398.16	1799.87
398.35	1774.13
398.55	1881.79
398.74	1870.09
398.93	2015.20
399.12	1888.81
399.32	1921.58
399.51	1895.83
399.70	2026.90
399.90	1970.73
400.09	2054.99
400.28	2078.40
400.47	2106.48
400.67	2059.67
400.86	2118.18
401.05	2059.67
401.24	2073.71
401.44	2202.44
401.63	2113.50
401.82	2136.91
402.01	2132.23
402.21	2162.66
402.40	2272.66
402.59	2230.53
402.78	2167.34
402.97	2195.42
403.17	2279.68
403.36	2218.83
403.55	2319.47
403.74	2373.30
403.93	2307.77
404.13	2305.43
404.32	2282.02
404.51	2377.98
404.70	2415.43
404.89	2239.89
405.09	2492.67
405.28	2560.55
405.47	2443.52
405.66	2466.92
405.85	2525.44
406.05	2590.97
406.24	2495.01
406.43	2485.65
406.62	2597.99
406.81	2644.81
407.00	2593.31
407.20	2560.55
407.39	2555.86
407.58	2686.94
407.77	2745.45
407.96	2740.77
408.15	2871.84
408.34	2764.17
408.54	2864.82
408.73	2747.79
408.92	2836.73
409.11	2874.18
409.30	2862.48
409.49	2848.43
409.68	2972.48
409.87	2904.60
410.07	3054.40
410.26	3012.27
410.45	3002.91
410.64	3101.21
410.83	3159.72
411.02	2998.23
411.21	3145.68
411.40	3068.44
411.59	3393.78
411.78	3126.96
411.98	3311.86
412.17	3323.56
412.36	3215.90
412.55	3400.80
412.74	3433.57
412.93	3351.65
413.12	3386.76
413.31	3599.74
413.50	3393.78
413.69	3506.12
413.88	3559.95
414.07	3625.49
414.26	3634.85
414.45	3733.15
414.64	3585.70
414.83	3810.39
415.02	3885.29
415.22	3744.86
415.41	3847.84
415.60	3808.05
415.79	3927.42
415.98	3953.16
416.17	4070.19
416.36	3950.82
416.55	4030.40
416.74	3974.23
416.93	4159.13
417.12	4004.66
417.31	4131.05
417.50	4196.58
417.69	4297.22
417.88	4358.08
418.07	4182.54
418.26	4234.03
418.45	4276.16
418.64	4554.68
418.83	4463.40
419.02	4587.45
419.21	4528.94
419.39	4566.39
419.58	4559.36
419.77	4388.50
419.96	4552.34
420.15	4594.47
420.34	4606.17
420.53	4573.41
420.72	4669.37
420.91	4711.50
421.10	4695.11
421.29	4718.52
421.48	4788.74
421.67	4664.69
421.86	4894.06
422.05	4823.84
422.24	4795.76
422.43	4662.35
422.61	4821.50
422.80	4994.70
422.99	5118.75
423.18	4978.32
423.37	4999.38
423.56	4910.44
423.75	5095.35
423.94	4826.18
424.13	4676.39
424.32	4751.29
424.50	4994.70
424.69	5135.14
424.88	5022.79
425.07	4919.81
425.26	4983.00
425.45	4919.81
425.64	5071.94
425.83	5027.47
426.01	5085.98
426.20	5114.07
426.39	4992.36
426.58	5083.64
426.77	5081.30
426.96	5123.43
427.15	5263.86
427.33	5130.45
427.52	5046.20
427.71	5249.82
427.90	5273.23
428.09	5277.91
428.28	5193.65
428.46	5371.53
428.65	5378.55
428.84	5364.51
429.03	5577.50
429.22	5195.99
429.40	5490.90
429.59	5696.86
429.78	5310.68
429.97	5275.57
430.16	5476.85
430.34	5481.53
430.53	5661.76
430.72	5687.50
430.91	5746.02
431.10	5523.66
431.28	5682.82
431.47	5696.86
431.66	5874.74
431.85	5710.91
432.03	5916.87
432.22	5907.51
432.41	5870.06
432.60	5994.11
432.79	5919.21
432.97	6033.90
433.16	6085.39
433.35	5940.28
433.54	6160.29
433.72	6090.07
433.91	6069.01
434.10	6038.58
434.28	6230.51
434.47	6265.61
434.66	6307.74
434.85	6256.25
435.03	6565.20
435.22	6193.06
435.41	6459.88
435.59	6399.02
435.78	6715.00
435.97	6509.03
436.16	6361.58
436.34	6424.77
436.53	6296.04
436.72	6626.06
436.90	6506.69
437.09	6560.52
437.28	6469.24
437.46	6548.82
437.65	6672.87
437.84	6679.89
438.02	6651.80
438.21	6895.22
438.40	6722.02
438.58	6930.33
438.77	7080.12
438.96	6956.07
439.14	7103.53
439.33	7192.47
439.52	7187.79
439.70	7250.98
439.89	7311.83
440.08	7501.42
440.26	7513.12
440.45	7386.73
440.63	7468.65
440.82	7691.00
441.01	7466.31
441.19	7482.69
441.38	7618.44
441.57	7756.54
441.75	7599.72
441.94	7918.03
442.12	8018.68
442.31	8116.98
442.50	8138.04
442.68	8077.19
442.87	8128.68
443.05	8140.38
443.24	8044.42
443.43	8037.40
443.61	8306.56
443.80	8517.21
443.98	8266.77
444.17	7861.86
444.35	8112.30
444.54	8365.07
444.73	8084.21
444.91	8287.84
445.10	8278.47
445.28	8297.20
445.47	8133.36
445.65	8451.67
445.84	8542.96
446.02	8386.14
446.21	8386.14
446.39	8535.93
446.58	8629.56
446.77	8617.85
446.95	8360.39
447.14	8432.95
447.32	8594.45
447.51	8643.60
447.69	8624.87
447.88	8475.08
448.06	8655.30
448.25	8369.76
448.43	8578.06
448.62	8706.79
448.80	8458.70
448.99	8713.81
449.17	8982.98
449.36	8587.43
449.54	8802.75
449.73	8894.04
449.91	8734.88
450.10	8966.59
450.28	8982.98
450.46	9027.45
450.65	8947.87
450.83	9083.62
451.02	9104.68
451.20	9284.91
451.39	9380.87
451.57	9135.11
451.76	9069.58
451.94	9202.99
452.13	9298.95
452.31	9200.65
452.49	9167.88
452.68	9273.20
452.86	9303.63
453.05	9561.09
453.23	9504.92
453.42	9394.91
453.60	9441.72
453.78	9558.75
453.97	9453.42
454.15	9521.30
454.34	9579.81
454.52	9905.15
454.70	9544.70
454.89	9685.14
455.07	9722.59
455.26	10125.16
455.44	10050.26
455.62	9916.85
455.81	9968.34
455.99	9975.36
456.17	10003.45
456.36	10249.21
456.54	9966.00
456.73	10368.57
456.91	10375.59
457.09	10296.02
457.28	10602.63
457.46	10340.49
457.64	10590.92
457.83	10464.54
458.01	10391.98
458.19	10808.59
458.38	10534.75
458.56	10754.76
458.74	10736.04
458.93	10743.06
459.11	10808.59
459.29	10885.83
459.48	10932.64
459.66	10750.08
459.84	10773.49
460.03	11089.46
460.21	11000.52
460.39	11075.42
460.57	11042.65
460.76	11122.23
460.94	11379.68
461.12	11344.58
461.31	11248.61
461.49	11014.56
461.67	11197.12
461.85	11253.30
462.04	11187.76
462.22	11674.59
462.40	11555.22
462.59	11552.88
462.77	11606.72
462.95	11578.63
463.13	11730.76
463.32	11609.06
463.50	11688.64
463.68	11960.14
463.86	11826.73
464.05	11770.55
464.23	11637.14
464.41	11915.67
464.59	11793.96
464.78	12079.50
464.96	12032.69
465.14	11969.50
465.32	12100.57
465.50	12147.38
465.69	12138.02
465.87	12102.91
466.05	12154.40
466.23	12046.74
466.41	12201.21
466.60	12418.88
466.78	12173.13
466.96	12285.47
467.14	12472.71
467.32	12571.02
467.51	12592.08
467.69	12226.96
467.87	12453.99
468.05	12741.88
468.23	12613.15
468.41	12493.78
468.60	12571.02
468.78	12652.94
468.96	12355.69
469.14	12924.44
469.32	13095.30
469.50	12856.56
469.69	13032.10
469.87	13006.36
470.05	12999.34
470.23	13252.11
470.41	13214.66
470.59	13528.30
470.77	13406.59
470.95	13256.79
471.14	13635.96
471.32	13235.73
471.50	13745.97
471.68	13624.26
471.86	13792.78
472.04	13937.89
472.22	13884.06
472.40	13823.20
472.58	13781.07
472.77	14167.26
472.95	14277.27
473.13	14658.78
473.31	13900.44
473.49	14078.32
473.67	14228.12
473.85	14326.42
474.03	14728.99
474.21	14523.02
474.39	14745.38
474.57	14871.76
474.75	14820.27
474.93	14682.18
475.12	14972.41
475.30	15215.82
475.48	15066.03
475.66	15283.70
475.84	15225.18
476.02	15463.92
476.20	15480.30
476.38	15695.63
476.56	15997.56
476.74	16325.24
476.92	15770.53
477.10	16020.97
477.28	16042.03
477.46	16318.22
477.64	16374.39
477.82	16666.95
478.00	17039.10
478.18	16961.86
478.36	16903.35
478.54	17216.98
478.72	17228.68
478.90	17537.63
479.08	17507.21
479.26	17727.22
479.44	17963.61
479.62	17867.65
479.80	18071.28
479.98	18204.69
480.16	18431.72
480.34	18331.08
480.52	18553.43
480.70	18642.37
480.88	18288.95
481.06	18916.21
481.24	18700.88
481.41	18967.70
481.59	19145.58
481.77	19435.81
481.95	19407.72
482.13	20034.99
482.31	20123.93
482.49	20046.69
482.67	20346.28
482.85	20697.36
483.03	20512.46
483.21	20702.04
483.39	20879.92
483.57	20886.94
483.74	21228.66
483.92	21322.28
484.10	21406.54
484.28	22075.93
484.46	21951.88
484.64	22518.29
484.82	21605.49
485.00	22324.03
485.18	22925.55
485.35	22984.06
485.53	22876.40
485.71	23030.87
485.89	23470.89
486.07	23264.92
486.25	23716.65
486.43	23679.20
486.61	23831.33
486.78	24631.80
486.96	24393.06
487.14	24938.41
487.32	24531.15
487.50	25245.02
487.68	25001.60
487.85	25408.86
488.03	25462.69
488.21	25678.02
488.39	25996.33
488.57	26160.17
488.75	26010.37
488.92	26745.30
489.10	27178.30
489.28	26764.03
489.46	27314.05
489.64	27213.41
489.81	27688.54
489.99	27768.12
490.17	27580.87
490.35	28252.61
490.53	27880.46
490.70	28496.02
490.88	28395.38
491.06	29001.58
491.24	28856.46
491.41	29188.82
491.59	29406.49
491.77	29078.82
491.95	29577.35
492.13	30426.96
492.30	30096.95
492.48	30008.01
492.66	30415.26
492.84	30469.09
493.01	30562.72
493.19	30820.17
493.37	31112.74
493.54	31133.81
493.72	31557.44
493.90	31550.42
494.08	31892.14
494.25	31779.79
494.43	32238.54
494.61	32833.04
494.79	32615.37
494.96	32538.13
495.14	32767.50
495.32	33373.70
495.49	33113.90
495.67	33518.81
495.85	33853.51
496.02	34108.63
496.20	34068.84
496.38	33954.15
496.55	33944.79
496.73	34761.64
496.91	35016.75
497.09	34946.54
497.26	35065.91
497.44	35285.92
497.62	34976.97
497.79	35604.23
497.97	35648.70
498.14	35880.41
498.32	36568.53
498.50	36198.73
498.67	36510.02
498.85	36528.74
499.03	36367.24
499.20	37074.09
499.38	37163.03
499.56	36671.51
499.73	37013.23
499.91	37724.75
500.08	38225.63
500.26	37638.15
500.44	37797.31
500.61	37673.26
500.79	37628.79
500.97	37970.51
501.14	38782.68
501.32	38562.67
501.49	38785.02
501.67	39108.01
501.84	39377.17
502.02	38850.55
502.20	39089.29
502.37	39847.62
502.55	39491.86
502.72	39866.34
502.90	39723.57
503.07	38993.32
503.25	39983.37
503.43	40065.29
503.60	40418.71
503.78	40409.35
503.95	40086.36
504.13	40575.53
504.30	40765.11
504.48	40404.67
504.65	40830.65
504.83	41390.03
505.01	41366.63
505.18	41308.11
505.36	41663.88
505.53	41624.09
505.71	41762.18
505.88	41818.35
506.06	41567.91
506.23	42031.34
506.41	41579.62
506.58	42176.45
506.76	42483.06
506.93	42223.26
507.11	42309.86
507.28	42740.52
507.46	42576.69
507.63	42923.08
507.81	43227.35
507.98	43033.09
508.16	43264.80
508.33	43419.28
508.50	43519.92
508.68	44198.68
508.85	43894.41
509.03	43833.55
509.20	43971.64
509.38	44491.24
509.55	44371.88
509.73	44392.94
509.90	45008.50
510.08	44626.99
510.25	45027.23
510.42	44910.20
510.60	45106.80
510.77	45303.41
510.95	45581.93
511.12	45792.58
511.30	45483.63
511.47	45525.76
511.64	45392.35
511.82	46071.10
511.99	45689.60
512.17	45750.45
512.34	46014.93
512.51	46356.65
512.69	46263.03
512.86	46410.48
513.04	46546.23
513.21	46527.51
513.38	46927.74
513.56	47194.56
513.73	46705.39
513.90	47220.31
514.08	47035.41
514.25	47416.91
514.43	47636.92
514.60	47592.45
514.77	47283.50
514.95	47578.41
515.12	47374.78
515.29	47597.13
515.47	47714.16
515.64	48451.43
515.81	48151.84
515.99	48161.20
516.16	48687.82
516.33	48519.31
516.51	48882.09
516.68	48514.62
516.85	48547.39
517.03	48460.79
517.20	48856.34
517.37	49069.33
517.54	48912.52
517.72	49179.34
517.89	48999.12
518.06	49179.34
518.24	49235.51
518.41	49221.47
518.58	49532.76
518.75	49378.28
518.93	49806.60
519.10	49453.18
519.27	49897.88
519.45	49790.22
519.62	49607.65
519.79	50178.75
519.96	50300.45
520.14	50110.87
520.31	50401.10
520.48	50972.19
520.65	50239.60
520.83	50628.13
521.00	50836.44
521.17	50555.57
521.34	51152.41
521.52	50747.50
521.69	50728.77
521.86	50705.37
522.03	51065.81
522.20	51587.75
522.38	51337.31
522.55	51395.82
522.72	51323.27
522.89	51044.74
523.07	51924.78
523.24	51381.78
523.41	51667.33
523.58	51531.57
523.75	52097.98
523.92	52107.35
524.10	51950.53
524.27	52142.45
524.44	52245.44
524.61	52074.58
524.78	52093.30
524.96	52650.35
525.13	52404.59
525.30	52619.92
525.47	52598.86
525.64	52624.60
525.81	52823.55
525.98	52568.43
526.16	52638.65
526.33	52601.20
526.50	52961.64
526.67	52748.65
526.84	53155.91
527.01	53050.58
527.18	52828.23
527.36	52968.66
527.53	53179.31
527.70	53495.28
527.87	53476.56
528.04	52940.58
528.21	53542.10
528.38	53340.81
528.55	53708.27
528.72	53448.47
528.89	53766.79
529.07	53478.90
529.24	53354.85
529.41	53731.68
529.58	53663.80
529.75	53853.39
529.92	53677.85
530.09	54059.35
530.26	53911.90
530.43	54157.66
530.60	53930.62
530.77	53991.48
530.94	54003.18
531.11	54052.33
531.28	54288.73
531.46	54305.11
531.63	54756.83
531.80	54230.21
531.97	54436.18
532.14	54639.81
532.31	54426.82
532.48	54745.13
532.65	54681.94
532.82	54604.70
532.99	54590.66
533.16	54473.63
533.33	54738.11
533.50	55023.65
533.67	54805.98
533.84	54798.96
534.01	54768.54
534.18	54974.50
534.35	55267.07
534.52	55262.39
534.69	55332.60
534.86	55227.28
535.03	55051.74
535.20	55131.32
535.37	55318.56
535.54	55379.42
535.71	55150.04
535.88	55515.17
536.05	55547.93
536.22	55571.34
536.38	55667.30
536.55	55786.67
536.72	55798.37
536.89	55599.43
537.06	55845.18
537.23	55887.31
537.40	55737.52
537.57	55789.01
537.74	56030.08
537.91	55814.76
538.08	55964.55
538.25	55901.36
538.42	55854.54
538.59	56411.59
538.75	55779.65
538.92	56210.31
539.09	56369.46
539.26	56222.01
539.43	56165.84
539.60	56341.38
539.77	56315.63
539.94	56575.43
540.11	56385.85
540.28	56446.70
540.44	56413.93
540.61	56507.55
540.78	56205.62
540.95	56619.90
541.12	56420.95
541.29	56561.39
541.46	56336.69
541.62	56655.01
541.79	56596.49
541.96	56699.48
542.13	56687.78
542.30	56952.26
542.47	56940.55
542.63	56898.42
542.80	57027.15
542.97	57317.38
543.14	57378.23
543.31	57146.52
543.48	57298.65
543.64	57698.89
543.81	57223.76
543.98	57422.70
544.15	57345.47
544.32	57553.77
544.48	57769.10
544.65	57411.00
544.82	57378.23
544.99	57457.81
545.16	57474.20
545.32	57399.30
545.49	57719.95
545.66	57958.69
545.83	57846.34
546.00	57708.25
546.16	57677.82
546.33	57677.82
546.50	57546.75
546.67	57862.72
546.83	57623.99
547.00	57893.15
547.17	57778.46
547.34	57886.13
547.50	58073.37
547.67	58078.05
547.84	58087.42
548.00	58269.98
548.17	58438.50
548.34	58049.97
548.51	58422.11
548.67	58178.70
548.84	58305.09
549.01	58075.71
549.18	58145.93
549.34	58396.37
549.51	58398.71
549.68	58267.64
549.84	58431.47
550.01	58637.44
550.18	58277.00
550.34	58546.16
550.51	58618.72
550.68	58487.65
550.84	58307.43
551.01	58637.44
551.18	58443.18
551.34	58733.40
551.51	58511.05
551.68	58738.08
551.84	58618.72
552.01	58679.57
552.18	58824.68
552.34	58555.52
552.51	58981.50
552.68	58515.73
552.84	58775.53
553.01	59168.74
553.18	58958.09
553.34	58777.87
553.51	58602.33
553.67	58838.73
553.84	59145.34
554.01	58827.02
554.17	59044.69
554.34	59203.85
554.51	58829.37
554.67	59318.54
554.84	59164.06
555.00	59217.89
555.17	58841.07
555.33	59147.68
555.50	58951.07
555.67	59091.51
555.83	58976.82
556.00	59077.46
556.16	59381.73
556.33	59374.71
556.50	59393.43
556.66	59442.59
556.83	59028.31
556.99	59465.99
557.16	59620.47
557.32	59470.67
557.49	59725.79
557.65	59458.97
557.82	59327.90
557.98	59487.06
558.15	59465.99
558.32	59573.66
558.48	59407.48
558.65	59559.61
558.81	59604.08
558.98	59690.68
559.14	59906.01
559.31	59774.94
559.47	59674.30
559.64	59849.84
559.80	59833.46
559.97	59821.75
560.13	59650.89
560.30	59849.84
560.46	59927.08
560.63	59833.46
560.79	59845.16
560.96	59863.88
561.12	60069.85
561.29	59697.70
561.45	59882.61
561.61	59962.18
561.78	59760.90
561.94	59866.22
562.11	60058.15
562.27	59824.09
562.44	60154.11
562.60	59955.16
562.77	60184.54
562.93	59896.65
563.10	59999.63
563.26	60133.04
563.42	60362.42
563.59	60257.09
563.75	60107.30
563.92	60079.21
564.08	59999.63
564.24	60229.01
564.41	60046.44
564.57	60320.29
564.74	60081.55
564.90	60217.30
565.07	60109.64
565.23	60116.66
565.39	60161.13
565.56	60296.88
565.72	60240.71
565.88	60350.71
566.05	60081.55
566.21	60144.75
566.38	60449.02
566.54	60247.73
566.70	60463.06
566.87	60493.49
567.03	60306.24
567.19	60580.09
567.36	60285.18
567.52	60193.90
567.68	60488.80
567.85	60479.44
568.01	60552.00
568.17	60575.40
568.34	60355.39
568.50	60339.01
568.66	60301.56
568.83	60591.79
568.99	60404.55
569.15	60411.57
569.32	60697.11
569.48	60556.68
569.64	60807.12
569.81	60502.85
569.97	60324.97
570.13	60423.27
570.30	60519.23
570.46	60547.32
570.62	60743.92
570.78	60556.68
570.95	60488.80
571.11	60687.75
571.27	60582.43
571.43	60715.84
571.60	60889.04
571.76	60676.05
571.92	60643.28
572.09	60720.52
572.25	60743.92
572.41	60650.30
572.57	60776.69
572.74	60800.10
572.90	60645.62
573.06	60626.90
573.22	60734.56
573.38	60697.11
573.55	60891.38
573.71	60713.50
573.87	60683.07
574.03	60535.62
574.20	60779.03
574.36	60622.22
574.52	60718.18
574.68	60900.74
574.84	60893.72
575.01	60741.58
575.17	60849.25
575.33	60669.03
575.49	60786.05
575.65	60816.48
575.82	60912.44
575.98	60839.89
576.14	61027.13
576.30	61146.50
576.46	60683.07
576.62	60963.93
576.79	60561.36
576.95	60507.53
577.11	61036.49
577.27	60790.73
577.43	60963.93
577.59	60891.38
577.75	60802.44
577.92	60711.16
578.08	60898.40
578.24	60886.70
578.40	61176.92
578.56	60781.37
578.72	60678.39
578.88	60935.85
579.04	61048.19
579.21	60959.25
579.37	60977.98
579.53	60982.66
579.69	60837.54
579.85	60823.50
580.01	60839.89
580.17	60734.56
580.33	61050.53
580.49	60935.85
580.65	60874.99
580.82	60823.50
580.98	60863.29
581.14	60924.14
581.30	61228.41
581.46	60999.04
581.62	60987.34
581.78	60832.86
581.94	60968.61
582.10	61123.09
582.26	60903.08
582.42	60872.65
582.58	61104.37
582.74	61034.15
582.90	61073.94
583.06	60970.96
583.22	60907.76
583.38	61165.22
583.54	61095.00
583.70	60853.93
583.86	61006.06
584.02	61169.90
584.18	61144.16
584.34	61010.74
584.50	61069.26
584.66	60966.27
584.82	60818.82
584.98	61275.22
585.14	61029.47
585.30	61078.62
585.46	61036.49
585.62	61315.01
585.78	61268.20
585.94	60905.42
586.10	61076.28
586.26	61109.05
586.42	61268.20
586.58	61045.85
586.74	61197.99
586.90	61041.17
587.06	61087.98
587.22	61286.93
587.38	61130.11
587.54	61237.78
587.70	61392.25
587.86	61132.45
588.02	60924.14
588.18	61392.25
588.34	61216.71
588.49	60884.36
