SpectraSuite Data File
++++++++++++++++++++++++++++++++++++
Date: Fri Oct 25 11:33:39 EDT 2013
User: price-jones
Dark Spectrum Present: No
Reference Spectrum Present: No
Number of Sampled Component Spectra: 1
Spectrometers: USB2+H05261
Integration Time (usec): 100000 (USB2+H05261)
Spectra Averaged: 1 (USB2+H05261)
Boxcar Smoothing: 0 (USB2+H05261)
Correct for Electrical Dark: No (USB2+H05261)
Strobe/Lamp Enabled: No (USB2+H05261)
Correct for Detector Non-linearity: No (USB2+H05261)
Correct for Stray Light: No (USB2+H05261)
Number of Pixels in Processed Spectrum: 2048
>>>>>Begin Processed Spectral Data<<<<<
365.73	255.12
365.92	255.12
366.12	255.12
366.32	229.37
366.52	212.99
366.72	117.03
366.91	145.11
367.11	191.92
367.31	126.39
367.51	166.18
367.70	187.24
367.90	210.65
368.10	168.52
368.30	163.84
368.49	215.33
368.69	184.90
368.89	196.60
369.09	215.33
369.28	145.11
369.48	259.80
369.68	161.50
369.87	285.55
370.07	234.05
370.27	231.71
370.47	313.63
370.66	421.30
370.86	484.49
371.06	564.07
371.25	578.11
371.45	580.45
371.65	566.41
371.84	608.54
372.04	512.58
372.24	543.00
372.44	580.45
372.63	615.56
372.83	585.13
373.03	599.18
373.22	559.39
373.42	615.56
373.62	580.45
373.81	585.13
374.01	641.31
374.21	657.69
374.40	610.88
374.60	683.44
374.79	674.07
374.99	601.52
375.19	667.05
375.38	660.03
375.58	653.01
375.78	650.67
375.97	685.78
376.17	648.33
376.37	688.12
376.56	662.37
376.76	671.73
376.95	653.01
377.15	648.33
377.35	692.80
377.54	706.84
377.74	716.20
377.93	699.82
378.13	657.69
378.33	744.29
378.52	631.94
378.72	727.91
378.91	674.07
379.11	667.05
379.31	634.29
379.50	683.44
379.70	727.91
379.89	809.83
380.09	734.93
380.28	732.59
380.48	795.78
380.68	692.80
380.87	638.97
381.07	720.88
381.26	718.54
381.46	730.25
381.65	800.46
381.85	734.93
382.04	779.40
382.24	781.74
382.43	739.61
382.63	781.74
382.83	739.61
383.02	791.10
383.22	840.25
383.41	800.46
383.61	837.91
383.80	884.72
384.00	800.46
384.19	854.30
384.39	898.77
384.58	851.96
384.78	784.08
384.97	835.57
385.17	828.55
385.36	858.98
385.56	887.06
385.75	915.15
385.95	854.30
386.14	807.48
386.34	807.48
386.53	854.30
386.72	910.47
386.92	952.60
387.11	968.98
387.31	926.85
387.50	851.96
387.70	837.91
387.89	924.51
388.09	898.77
388.28	990.05
388.48	919.83
388.67	959.62
388.86	929.19
389.06	917.49
389.25	973.66
389.45	896.43
389.64	1020.47
389.84	957.28
390.03	968.98
390.22	976.00
390.42	990.05
390.61	961.96
390.81	1001.75
391.00	1027.50
391.19	1015.79
391.39	997.07
391.58	1064.94
391.78	1006.43
391.97	990.05
392.16	1057.92
392.36	1046.22
392.55	1151.54
392.75	1076.65
392.94	1111.75
393.13	1025.15
393.33	997.07
393.52	1053.24
393.71	1039.20
393.91	1041.54
394.10	1125.80
394.29	1142.18
394.49	1071.97
394.68	1102.39
394.88	1118.78
395.07	1057.92
395.26	1179.63
395.46	1139.84
395.65	1128.14
395.84	1226.44
396.04	1315.38
396.23	1156.22
396.42	1233.46
396.62	1235.80
396.81	1179.63
397.00	1191.33
397.19	1249.85
397.39	1139.84
397.58	1247.51
397.77	1303.68
397.97	1188.99
398.16	1280.27
398.35	1263.89
398.55	1231.12
398.74	1308.36
398.93	1324.74
399.12	1310.70
399.32	1299.00
399.51	1315.38
399.70	1357.51
399.90	1320.06
400.09	1306.02
400.28	1406.66
400.47	1359.85
400.67	1420.71
400.86	1427.73
401.05	1469.86
401.24	1444.11
401.44	1401.98
401.63	1521.35
401.82	1455.81
402.01	1448.79
402.21	1528.37
402.40	1535.39
402.59	1423.05
402.78	1455.81
402.97	1500.28
403.17	1575.18
403.36	1533.05
403.55	1530.71
403.74	1556.46
403.93	1621.99
404.13	1547.09
404.32	1586.88
404.51	1612.63
404.70	1638.38
404.89	1584.54
405.09	1645.40
405.28	1614.97
405.47	1703.91
405.66	1675.82
405.85	1727.32
406.05	1820.94
406.24	1692.21
406.43	1722.63
406.62	1764.76
406.81	1858.39
407.00	1771.79
407.20	1746.04
407.39	1886.47
407.58	1937.96
407.77	1771.79
407.96	1846.68
408.15	1729.66
408.34	1870.09
408.54	1870.09
408.73	1891.15
408.92	1994.14
409.11	1973.07
409.30	2005.84
409.49	1963.71
409.68	1947.33
409.87	1980.09
410.07	2024.56
410.26	2150.95
410.45	2005.84
410.64	2153.29
410.83	2045.63
411.02	2160.31
411.21	2155.63
411.40	2179.04
411.59	2169.68
411.78	2167.34
411.98	2258.62
412.17	2235.21
412.36	2258.62
412.55	2385.01
412.74	2319.47
412.93	2307.77
413.12	2328.83
413.31	2307.77
413.50	2385.01
413.69	2385.01
413.88	2520.76
414.07	2476.29
414.26	2590.97
414.45	2509.05
414.64	2661.19
414.83	2551.18
415.02	2644.81
415.22	2588.63
415.41	2745.45
415.60	2506.71
415.79	2719.70
415.98	2771.19
416.17	2668.21
416.36	2656.51
416.55	2710.34
416.74	2850.77
416.93	2785.24
417.12	2815.66
417.31	2895.24
417.50	2874.18
417.69	3009.93
417.88	3009.93
418.07	2958.44
418.26	2949.08
418.45	2925.67
418.64	3028.65
418.83	3054.40
419.02	2967.80
419.21	3201.85
419.39	3084.83
419.58	3096.53
419.77	3030.99
419.96	3136.32
420.15	3208.87
420.34	3293.13
420.53	3178.45
420.72	3248.66
420.91	3232.28
421.10	3246.32
421.29	3351.65
421.48	3272.07
421.67	3330.58
421.86	3243.98
422.05	3370.37
422.24	3286.11
422.43	3438.25
422.61	3293.13
422.80	3349.31
422.99	3461.65
423.18	3445.27
423.37	3339.94
423.56	3398.46
423.75	3389.10
423.94	3316.54
424.13	3220.58
424.32	3316.54
424.50	3531.87
424.69	3508.46
424.88	3632.51
425.07	3377.39
425.26	3426.54
425.45	3412.50
425.64	3363.35
425.83	3536.55
426.01	3513.14
426.20	3393.78
426.39	3466.33
426.58	3466.33
426.77	3463.99
426.96	3478.04
427.15	3623.15
427.33	3515.48
427.52	3543.57
427.71	3574.00
427.90	3609.11
428.09	3611.45
428.28	3548.25
428.46	3597.40
428.65	3599.74
428.84	3896.99
429.03	3885.29
429.22	3634.85
429.40	3707.41
429.59	3847.84
429.78	3566.98
429.97	3637.19
430.16	3733.15
430.34	3882.95
430.53	3913.38
430.72	3992.95
430.91	3943.80
431.10	3882.95
431.28	4004.66
431.47	3920.40
431.66	3934.44
431.85	3988.27
432.03	3976.57
432.22	4109.98
432.41	4032.74
432.60	3962.53
432.79	4109.98
432.97	4142.75
433.16	4280.84
433.35	4025.72
433.54	4121.68
433.72	4250.41
433.91	4315.95
434.10	4131.05
434.28	4248.07
434.47	4194.24
434.66	4269.14
434.85	4376.80
435.03	4379.14
435.22	4493.83
435.41	4564.04
435.59	4411.91
435.78	4468.08
435.97	4442.34
436.16	4451.70
436.34	4290.20
436.53	4528.94
436.72	4538.30
436.90	4486.81
437.09	4484.47
437.28	4409.57
437.46	4479.79
437.65	4622.56
437.84	4648.30
438.02	4622.56
438.21	4552.34
438.40	4688.09
438.58	4779.37
438.77	4788.74
438.96	4746.61
439.14	4887.04
439.33	4847.25
439.52	4823.84
439.70	4917.47
439.89	4952.57
440.08	4971.30
440.26	5111.73
440.45	4954.91
440.63	4966.62
440.82	5132.79
441.01	4952.57
441.19	5249.82
441.38	5270.89
441.57	5181.95
441.75	5406.64
441.94	5495.58
442.12	5380.89
442.31	5458.13
442.50	5544.73
442.68	5385.57
442.87	5516.64
443.05	5542.39
443.24	5558.77
443.43	5500.26
443.61	5612.60
443.80	5722.61
443.98	5516.64
444.17	5317.70
444.35	5689.84
444.54	5769.42
444.73	5682.82
444.91	5687.50
445.10	5643.03
445.28	5713.25
445.47	5640.69
445.65	5666.44
445.84	5643.03
446.02	5678.14
446.21	5724.95
446.39	5731.97
446.58	5710.91
446.77	5851.34
446.95	5720.27
447.14	5624.31
447.32	5748.36
447.51	5809.21
447.69	5750.70
447.88	5830.27
448.06	5694.52
448.25	5673.46
448.43	5795.17
448.62	5795.17
448.80	5844.32
448.99	6078.37
449.17	5783.46
449.36	5907.51
449.54	6120.50
449.73	6108.80
449.91	5982.41
450.10	6050.28
450.28	6202.42
450.46	6188.38
450.65	6167.31
450.83	6232.85
451.02	6146.25
451.20	6251.57
451.39	6162.63
451.57	6230.51
451.76	6256.25
451.94	6115.82
452.13	6324.13
452.31	6324.13
452.49	6190.72
452.68	6445.84
452.86	6408.39
453.05	6415.41
453.23	6324.13
453.42	6333.49
453.60	6335.83
453.78	6375.62
453.97	6356.90
454.15	6354.55
454.34	6333.49
454.52	6586.27
454.70	6633.08
454.89	6506.69
455.07	6588.61
455.26	6740.74
455.44	6778.19
455.62	6832.02
455.81	6551.16
455.99	6794.58
456.17	6705.63
456.36	6930.33
456.54	6942.03
456.73	6935.01
456.91	7087.14
457.09	7145.66
457.28	7225.23
457.46	6918.62
457.64	7194.81
457.83	7098.84
458.01	7073.10
458.19	7258.00
458.38	7140.97
458.56	7169.06
458.74	7279.07
458.93	7122.25
459.11	7166.72
459.29	7206.51
459.48	7545.89
459.66	7314.17
459.84	7332.90
460.03	7435.88
460.21	7421.84
460.39	7410.14
460.57	7503.76
460.76	7552.91
460.94	7545.89
461.12	7723.77
461.31	7688.66
461.49	7499.08
461.67	7618.44
461.85	7742.49
462.04	7688.66
462.22	8093.57
462.40	7742.49
462.59	7702.70
462.77	7709.72
462.95	7829.09
463.13	7749.51
463.32	7641.85
463.50	7812.71
463.68	7798.66
463.86	8058.46
464.05	7985.91
464.23	7810.37
464.41	7967.18
464.59	7868.88
464.78	8166.13
464.96	7981.23
465.14	7946.12
465.32	8201.24
465.50	8189.53
465.69	8390.82
465.87	8128.68
466.05	8245.71
466.23	8234.00
466.41	8372.10
466.60	8456.36
466.78	8058.46
466.96	8205.92
467.14	8222.30
467.32	8355.71
467.51	8360.39
467.69	8212.94
467.87	8372.10
468.05	8435.29
468.23	8365.07
468.41	8238.69
468.60	8325.29
468.78	8411.89
468.96	8383.80
469.14	8636.58
469.32	8816.80
469.50	8468.06
469.69	8636.58
469.87	8629.56
470.05	8805.10
470.23	8655.30
470.41	8652.96
470.59	8898.72
470.77	8903.40
470.95	8854.25
471.14	9039.15
471.32	8816.80
471.50	9062.55
471.68	9158.52
471.86	9188.94
472.04	9160.86
472.22	9488.53
472.40	9167.88
472.58	9247.46
472.77	9469.81
472.95	9507.26
473.13	9783.44
473.31	9633.64
473.49	9540.02
473.67	9474.49
473.85	9757.69
474.03	9640.67
474.21	9844.29
474.39	9823.23
474.57	9942.60
474.75	9788.12
474.93	9867.70
475.12	9982.38
475.30	10061.96
475.48	10059.62
475.66	10064.30
475.84	10050.26
476.02	10394.32
476.20	10471.56
476.38	10668.16
476.56	10609.65
476.74	10349.85
476.92	10665.82
477.10	10443.47
477.28	10581.56
477.46	10628.37
477.64	10923.28
477.82	10974.77
478.00	11445.22
478.18	11227.55
478.36	11232.23
478.54	11344.58
478.72	11424.15
478.90	11543.52
479.08	11475.65
479.26	11819.71
479.44	11709.70
479.62	11679.27
479.80	11885.24
479.98	11983.54
480.16	12114.61
480.34	12100.57
480.52	12334.62
480.70	12177.81
480.88	12308.88
481.06	12442.29
481.24	12479.74
481.41	12746.56
481.59	12849.54
481.77	12784.01
481.95	12968.91
482.13	12975.93
482.31	12891.67
482.49	13394.89
482.67	13343.39
482.85	13603.19
483.03	13689.79
483.21	13736.60
483.39	13797.46
483.57	13951.93
483.74	13884.06
483.92	14139.18
484.10	14178.97
484.28	14251.52
484.46	14375.57
484.64	14668.14
484.82	14469.19
485.00	15082.41
485.18	14899.85
485.35	15019.22
485.53	15183.06
485.71	15096.46
485.89	15382.00
486.07	15541.16
486.25	15585.63
486.43	15585.63
486.61	15810.32
486.78	15896.92
486.96	15976.50
487.14	16191.83
487.32	16578.01
487.50	16386.09
487.68	16512.48
487.85	16915.05
488.03	16776.96
488.21	16863.56
488.39	16912.71
488.57	17102.29
488.75	17294.22
488.92	17521.25
489.10	17848.93
489.28	17968.29
489.46	18010.42
489.64	17865.31
489.81	18022.12
489.99	18174.26
490.17	18216.39
490.35	18738.33
490.53	18340.44
490.70	18546.40
490.88	18698.54
491.06	19124.52
491.24	19220.48
491.41	19150.26
491.59	19400.70
491.77	19379.64
491.95	19281.33
492.13	19377.30
492.30	19829.02
492.48	19751.78
492.66	19793.91
492.84	20156.69
493.01	20196.48
493.19	20032.65
493.37	20311.17
493.54	20690.34
493.72	20910.35
493.90	20865.88
494.08	21081.21
494.25	20802.68
494.43	20994.61
494.61	21338.66
494.79	21392.50
494.96	21397.18
495.14	21598.46
495.32	21476.76
495.49	21991.67
495.67	21802.09
495.85	22157.85
496.02	22146.15
496.20	22382.54
496.38	22260.84
496.55	22134.45
496.73	23070.66
496.91	22609.58
497.09	23105.77
497.26	23183.01
497.44	23187.69
497.62	23234.50
497.79	23714.31
497.97	23400.68
498.14	23583.24
498.32	23796.23
498.50	23992.83
498.67	23875.80
498.85	24074.75
499.03	24311.14
499.20	23910.91
499.38	24498.39
499.56	24074.75
499.73	24648.18
499.91	24741.80
500.08	25116.29
500.26	24753.51
500.44	24788.61
500.61	24812.02
500.79	24666.91
500.97	24989.90
501.14	25476.73
501.32	25443.96
501.49	25202.89
501.67	25502.48
501.84	25902.71
502.02	25972.92
502.20	25673.34
502.37	25825.47
502.55	25813.77
502.72	25907.39
502.90	25898.03
503.07	26136.76
503.25	26426.99
503.43	26429.33
503.60	26164.85
503.78	26918.50
503.95	26490.18
504.13	26675.09
504.30	27007.44
504.48	26700.83
504.65	27103.40
504.83	26768.71
505.01	27676.83
505.18	27147.87
505.36	27435.76
505.53	27115.11
505.71	27410.01
505.88	27384.27
506.06	27218.09
506.23	27826.63
506.41	27431.08
506.58	27894.50
506.76	27796.20
506.93	27948.34
507.11	27751.73
507.28	28477.30
507.46	28121.54
507.63	28692.63
507.81	28402.40
507.98	28048.98
508.16	28561.56
508.33	28844.76
508.50	28657.52
508.68	28470.28
508.85	29130.31
509.03	29132.65
509.20	28938.38
509.38	29359.68
509.55	29493.09
509.73	29223.93
509.90	29453.30
510.08	29394.79
510.25	29642.88
510.42	29802.04
510.60	29802.04
510.77	29961.20
510.95	29963.54
511.12	29902.68
511.30	30024.39
511.47	30129.72
511.64	29886.30
511.82	30569.74
511.99	30206.95
512.17	30644.63
512.34	30345.05
512.51	30710.17
512.69	31087.00
512.86	30597.82
513.04	31461.48
513.21	31278.92
513.38	30937.20
513.56	31339.77
513.73	31033.16
513.90	31295.30
514.08	31372.54
514.25	31604.25
514.43	31721.28
514.60	31637.02
514.77	31618.30
514.95	32154.28
515.12	31995.12
515.29	31847.67
515.47	32084.06
515.64	31861.71
515.81	31784.48
515.99	32163.64
516.16	32542.81
516.33	32107.47
516.51	32540.47
516.68	32315.78
516.85	32556.85
517.03	33074.11
517.20	32751.12
517.37	33097.52
517.54	33130.28
517.72	32788.56
517.89	33031.98
518.06	33139.65
518.24	33364.34
518.41	33282.42
518.58	33383.06
518.75	33001.55
518.93	33612.43
519.10	33202.84
519.27	33432.21
519.45	33823.08
519.62	33748.18
519.79	34155.44
519.96	34150.76
520.14	34384.81
520.31	34174.16
520.48	33970.54
520.65	33956.49
520.83	34323.96
521.00	34747.59
521.17	34333.32
521.34	34305.23
521.52	34768.66
521.69	34602.48
521.86	34452.69
522.03	35005.05
522.20	35005.05
522.38	35084.63
522.55	34991.01
522.72	35021.44
522.89	35019.10
523.07	35660.40
523.24	35044.84
523.41	35557.42
523.58	35206.34
523.75	35824.24
523.92	35576.14
524.10	35779.77
524.27	35688.49
524.44	35824.24
524.61	35943.61
524.78	35924.88
524.96	36135.53
525.13	36407.03
525.30	36161.28
525.47	36212.77
525.64	36203.41
525.81	36519.38
525.98	36198.73
526.16	36615.34
526.33	36329.80
526.50	36723.01
526.67	36201.07
526.84	36603.64
527.01	36818.97
527.18	36872.80
527.36	36737.05
527.53	36755.77
527.70	37233.24
527.87	36978.12
528.04	37062.38
528.21	37565.60
528.38	36802.58
528.55	37694.33
528.72	37120.90
528.89	37354.95
529.07	37205.16
529.24	37303.46
529.41	37607.73
529.58	38061.79
529.75	37600.71
529.92	37827.74
530.09	37729.44
530.26	37694.33
530.43	37811.35
530.60	37188.77
530.77	37673.26
530.94	38356.70
531.11	38073.49
531.28	38440.96
531.46	37834.76
531.63	38050.09
531.80	38382.45
531.97	38429.26
532.14	38817.78
532.31	38452.66
532.48	38962.90
532.65	38962.90
532.82	38593.09
532.99	38969.92
533.16	38803.74
533.33	38707.78
533.50	38972.26
533.67	39288.23
533.84	38958.22
534.01	39274.19
534.18	38951.20
534.35	39854.64
534.52	39049.50
534.69	39206.31
534.86	39351.43
535.03	39028.43
535.20	39496.54
535.37	39697.83
535.54	39672.08
535.71	39482.50
535.88	40023.16
536.05	39772.72
536.22	39906.13
536.38	39842.94
536.55	39889.75
536.72	39992.73
536.89	40313.39
537.06	40095.72
537.23	39758.68
537.40	39533.99
537.57	40233.81
537.74	39552.71
537.91	40243.17
538.08	40315.73
538.25	39999.76
538.42	40509.99
538.59	40727.66
538.75	40037.20
538.92	40657.45
539.09	40643.40
539.26	40240.83
539.43	40341.47
539.60	40950.01
539.77	40486.59
539.94	40959.38
540.11	40980.44
540.28	40779.15
540.44	40797.88
540.61	40603.61
540.78	41233.22
540.95	41125.55
541.12	41095.13
541.29	40779.15
541.46	41193.43
541.62	41294.07
541.79	41401.74
541.96	40994.48
542.13	41106.83
542.30	41525.78
542.47	41193.43
542.63	41954.10
542.80	41666.22
542.97	41827.71
543.14	41837.08
543.31	41855.80
543.48	42171.77
543.64	42361.36
543.81	42209.22
543.98	42115.60
544.15	42213.90
544.32	42335.61
544.48	42721.80
544.65	41928.36
544.82	42562.64
544.99	42361.36
545.16	42274.76
545.32	42337.95
545.49	42553.28
545.66	43267.14
545.83	42550.94
546.00	43042.45
546.16	42845.85
546.33	42569.66
546.50	42506.47
546.67	43068.20
546.83	42003.25
547.00	42892.66
547.17	42155.39
547.34	42838.83
547.50	43005.00
547.67	43222.67
547.84	43154.80
548.00	43660.35
548.17	43461.41
548.34	43255.44
548.51	43222.67
548.67	43775.04
548.84	43253.10
549.01	43632.27
549.18	43306.93
549.34	43969.30
549.51	43578.43
549.68	43206.29
549.84	43702.48
550.01	43896.75
550.18	43089.26
550.34	43676.74
550.51	43981.01
550.68	43812.49
550.84	43730.57
551.01	44121.44
551.18	43695.46
551.34	43655.67
551.51	44266.55
551.68	44041.86
551.84	43880.36
552.01	43751.63
552.18	44238.47
552.34	43779.72
552.51	44034.84
552.68	43826.53
552.84	43976.33
553.01	44423.37
553.18	44041.86
553.34	44074.63
553.51	44378.90
553.67	44343.79
553.84	44692.53
554.01	44914.88
554.17	44502.95
554.34	44589.55
554.51	44563.80
554.67	44858.71
554.84	44392.94
555.00	44460.82
555.17	44858.71
555.33	44847.00
555.50	44755.72
555.67	45221.49
555.83	44697.21
556.00	45034.25
556.16	45219.15
556.33	44949.99
556.50	45067.02
556.66	45375.97
556.83	44699.55
556.99	45322.13
557.16	45495.33
557.32	45364.26
557.49	45530.44
557.65	44907.86
557.82	44940.63
557.98	44905.52
558.15	45539.80
558.32	45205.11
558.48	45247.24
558.65	45504.70
558.81	45439.16
558.98	45343.20
559.14	45457.88
559.31	45214.47
559.47	45209.79
559.64	45336.18
559.80	45951.74
559.97	45778.54
560.13	45008.50
560.30	45605.34
560.46	46185.79
560.63	45757.47
560.79	45881.52
560.96	45883.86
561.12	46033.66
561.29	45949.40
561.45	46162.39
561.61	45464.91
561.78	45759.81
561.94	46003.23
562.11	46059.40
562.27	45961.10
562.44	45804.28
562.60	46366.01
562.77	46398.78
562.93	45734.07
563.10	46450.27
563.26	45492.99
563.42	46419.84
563.59	45895.56
563.75	45736.41
563.92	45921.31
564.08	45890.88
564.24	46162.39
564.41	45897.91
564.57	46108.55
564.74	46246.65
564.90	46684.33
565.07	46398.78
565.23	46101.53
565.39	46157.70
565.56	46216.22
565.72	46499.42
565.88	46279.41
566.05	46326.22
566.21	46707.73
566.38	46164.73
566.54	46454.95
566.70	46791.99
566.87	46087.49
567.03	46033.66
567.19	46567.30
567.36	46230.26
567.52	46253.67
567.68	46827.10
567.85	46188.13
568.01	46747.52
568.17	46600.07
568.34	46445.59
568.50	47112.64
568.66	46483.04
568.83	46637.51
568.99	46649.22
569.15	46990.94
569.32	46614.11
569.48	46656.24
569.64	46817.74
569.81	46827.10
569.97	46576.66
570.13	46794.33
570.30	46438.57
570.46	46665.60
570.62	46808.37
570.78	46564.96
570.95	46471.34
571.11	46639.86
571.27	46607.09
571.43	46480.70
571.60	46555.60
571.76	46656.24
571.92	46808.37
572.09	46050.04
572.25	46930.08
572.41	46644.54
572.57	46911.36
572.74	47547.98
572.90	46761.56
573.06	47180.52
573.22	47166.48
573.38	47075.19
573.55	47320.95
573.71	47049.45
573.87	47126.69
574.03	47316.27
574.20	47278.82
574.36	47222.65
574.52	47297.55
574.68	47320.95
574.84	47400.53
575.01	46920.72
575.17	46986.25
575.33	47093.92
575.49	47098.60
575.65	47290.52
575.82	47246.05
575.98	46710.07
576.14	47571.39
576.30	47363.08
576.46	47002.64
576.62	47337.33
576.79	47217.97
576.95	47356.06
577.11	46958.17
577.27	46777.95
577.43	47035.41
577.59	47107.96
577.75	47239.03
577.92	46976.89
578.08	46742.84
578.24	46986.25
578.40	47325.63
578.56	47173.50
578.72	47012.00
578.88	47208.61
579.04	47143.07
579.21	47171.16
579.37	47363.08
579.53	47220.31
579.69	47042.43
579.85	46909.02
580.01	47234.35
580.17	47288.18
580.33	47433.30
580.49	47674.37
580.65	47370.10
580.82	46930.08
580.98	46955.83
581.14	47215.63
581.30	47515.22
581.46	47224.99
581.62	46948.81
581.78	47129.03
581.94	47346.70
582.10	47377.12
582.26	47426.28
582.42	47566.71
582.58	47580.75
582.74	47543.30
582.90	47290.52
583.06	47606.50
583.22	47318.61
583.38	47082.22
583.54	47622.88
583.70	47449.68
583.86	47278.82
584.02	47351.38
584.18	47697.78
584.34	47842.89
584.50	47767.99
584.66	47679.05
584.82	47236.69
584.98	47365.42
585.14	47505.85
585.30	47316.27
585.46	47445.00
585.62	47765.65
585.78	47519.90
585.94	47157.11
586.10	47264.78
586.26	47351.38
586.42	47166.48
586.58	47866.30
586.74	47285.84
586.90	47199.24
587.06	46962.85
587.22	47468.40
587.38	47264.78
587.54	47299.89
587.70	47969.28
587.86	47510.53
588.02	47737.57
588.18	47810.12
588.34	47358.40
588.49	47789.06
588.65	47419.25
588.81	47625.22
588.97	47531.60
589.13	47611.18
589.29	47374.78
589.45	47889.70
589.61	47236.69
589.77	47615.86
589.93	47873.32
