SpectraSuite Data File
++++++++++++++++++++++++++++++++++++
Date: Fri Oct 25 10:48:31 EDT 2013
User: price-jones
Dark Spectrum Present: No
Reference Spectrum Present: No
Number of Sampled Component Spectra: 1
Spectrometers: USB2+H05261
Integration Time (usec): 100000 (USB2+H05261)
Spectra Averaged: 1 (USB2+H05261)
Boxcar Smoothing: 0 (USB2+H05261)
Correct for Electrical Dark: No (USB2+H05261)
Strobe/Lamp Enabled: No (USB2+H05261)
Correct for Detector Non-linearity: No (USB2+H05261)
Correct for Stray Light: No (USB2+H05261)
Number of Pixels in Processed Spectrum: 2048
>>>>>Begin Processed Spectral Data<<<<<
365.73	91.28
365.92	91.28
366.12	91.28
366.32	18.72
366.52	70.22
366.72	95.96
366.91	39.79
367.11	0.00
367.31	72.56
367.51	0.00
367.70	65.54
367.90	0.00
368.10	49.15
368.30	51.49
368.49	98.30
368.69	102.98
368.89	49.15
369.09	77.24
369.28	74.90
369.48	67.88
369.68	100.64
369.87	86.60
370.07	84.26
370.27	215.33
370.47	196.60
370.66	400.23
370.86	409.59
371.06	482.15
371.25	475.13
371.45	461.09
371.65	489.17
371.84	479.81
372.04	484.49
372.24	519.60
372.44	496.19
372.63	510.24
372.83	535.98
373.03	592.16
373.22	557.05
373.42	482.15
373.62	528.96
373.81	545.34
374.01	547.69
374.21	599.18
374.40	547.69
374.60	643.65
374.79	503.22
374.99	622.58
375.19	615.56
375.38	622.58
375.58	629.60
375.78	620.24
375.97	587.47
376.17	685.78
376.37	601.52
376.56	650.67
376.76	660.03
376.95	653.01
377.15	601.52
377.35	636.63
377.54	835.57
377.74	706.84
377.93	676.41
378.13	610.88
378.33	704.50
378.52	716.20
378.72	713.86
378.91	688.12
379.11	685.78
379.31	667.05
379.50	676.41
379.70	657.69
379.89	695.14
380.09	685.78
380.28	753.65
380.48	688.12
380.68	699.82
380.87	758.33
381.07	681.10
381.26	788.76
381.46	702.16
381.65	697.48
381.85	875.36
382.04	716.20
382.24	755.99
382.43	704.50
382.63	812.17
382.83	777.06
383.02	662.37
383.22	725.57
383.41	781.74
383.61	849.61
383.80	884.72
384.00	784.08
384.19	732.59
384.39	765.36
384.58	844.93
384.78	863.66
384.97	800.46
385.17	844.93
385.36	837.91
385.56	847.27
385.75	891.74
385.95	851.96
386.14	851.96
386.34	912.81
386.53	896.43
386.72	866.00
386.92	966.64
387.11	905.79
387.31	868.34
387.50	840.25
387.70	917.49
387.89	887.06
388.09	929.19
388.28	894.08
388.48	936.21
388.67	919.83
388.86	917.49
389.06	959.62
389.25	976.00
389.45	1057.92
389.64	1011.11
389.84	947.92
390.03	1062.60
390.22	1048.56
390.42	1027.50
390.61	1076.65
390.81	1130.48
391.00	1060.26
391.19	1083.67
391.39	1160.91
391.58	1102.39
391.78	1078.99
391.97	1060.26
392.16	1036.86
392.36	1142.18
392.55	1081.33
392.75	940.90
392.94	1015.79
393.13	1088.35
393.33	1053.24
393.52	1217.08
393.71	1050.90
393.91	1123.46
394.10	1137.50
394.29	1100.05
394.49	1291.98
394.68	1254.53
394.88	1086.01
395.07	1196.01
395.26	1252.19
395.46	1191.33
395.65	1247.51
395.84	1200.69
396.04	1315.38
396.23	1233.46
396.42	1226.44
396.62	1198.35
396.81	1235.80
397.00	1270.91
397.19	1359.85
397.39	1413.68
397.58	1394.96
397.77	1357.51
397.97	1401.98
398.16	1439.43
398.35	1511.99
398.55	1441.77
398.74	1465.18
398.93	1493.26
399.12	1472.20
399.32	1542.41
399.51	1584.54
399.70	1586.88
399.90	1537.73
400.09	1659.44
400.28	1659.44
400.47	1519.01
400.67	1657.10
400.86	1633.69
401.05	1673.48
401.24	1668.80
401.44	1846.68
401.63	1727.32
401.82	1767.10
402.01	1722.63
402.21	1764.76
402.40	1795.19
402.59	1762.42
402.78	1715.61
402.97	1816.26
403.17	1724.97
403.36	1898.17
403.55	1799.87
403.74	1909.88
403.93	1937.96
404.13	1881.79
404.32	1825.62
404.51	1949.67
404.70	1898.17
404.89	1926.26
405.09	2031.58
405.28	1998.82
405.47	1968.39
405.66	2003.50
405.85	1928.60
406.05	2099.46
406.24	2094.78
406.43	1987.11
406.62	2155.63
406.81	2167.34
407.00	2085.42
407.20	1980.09
407.39	2094.78
407.58	2162.66
407.77	2221.17
407.96	2326.49
408.15	2249.25
408.34	2246.91
408.54	2223.51
408.73	2282.02
408.92	2263.30
409.11	2298.41
409.30	2354.58
409.49	2293.72
409.68	2385.01
409.87	2319.47
410.07	2455.22
410.26	2356.92
410.45	2448.20
410.64	2478.63
410.83	2649.49
411.02	2537.14
411.21	2583.95
411.40	2726.72
411.59	2649.49
411.78	2700.98
411.98	2803.96
412.17	2679.91
412.36	2684.59
412.55	2801.62
412.74	2626.08
412.93	2747.79
413.12	2778.22
413.31	2771.19
413.50	2885.88
413.69	2930.35
413.88	2920.99
414.07	2977.16
414.26	2892.90
414.45	3005.25
414.64	2960.78
414.83	3091.85
415.02	3094.19
415.22	3073.12
415.41	3185.47
415.60	3187.81
415.79	3183.13
415.98	3213.56
416.17	3239.30
416.36	3190.15
416.55	3253.34
416.74	3255.69
416.93	3363.35
417.12	3304.84
417.31	3337.60
417.50	3447.61
417.69	3428.88
417.88	3541.23
418.07	3461.65
418.26	3517.83
418.45	3454.63
418.64	3681.66
418.83	3698.05
419.02	3543.57
419.21	3571.66
419.39	3747.20
419.58	3627.83
419.77	3536.55
419.96	3749.54
420.15	3824.44
420.34	3824.44
420.53	3794.01
420.72	3852.52
420.91	3798.69
421.10	3782.31
421.29	3936.78
421.48	3899.33
421.67	3929.76
421.86	3925.08
422.05	3857.20
422.24	3775.28
422.43	3847.84
422.61	3803.37
422.80	4051.47
422.99	3918.06
423.18	4173.18
423.37	4227.01
423.56	3906.35
423.75	4009.34
423.94	4004.66
424.13	3707.41
424.32	3957.85
424.50	4191.90
424.69	4025.72
424.88	4032.74
425.07	3920.40
425.26	3941.46
425.45	3920.40
425.64	3974.23
425.83	4133.39
426.01	4114.66
426.20	4163.81
426.39	4046.79
426.58	4021.04
426.77	4025.72
426.96	4056.15
427.15	4084.23
427.33	4135.73
427.52	4074.87
427.71	4234.03
427.90	4152.11
428.09	4135.73
428.28	4208.28
428.46	4163.81
428.65	4280.84
428.84	4344.03
429.03	4407.23
429.22	4112.32
429.40	4409.57
429.59	4299.56
429.78	3981.25
429.97	3985.93
430.16	4025.72
430.34	4241.05
430.53	4337.01
430.72	4273.82
430.91	4505.53
431.10	4451.70
431.28	4496.17
431.47	4699.80
431.66	4648.30
431.85	4610.86
432.03	4585.11
432.22	4767.67
432.41	4847.25
432.60	4828.53
432.79	4720.86
432.97	4847.25
433.16	4744.27
433.35	4781.71
433.54	4716.18
433.72	4777.03
433.91	4777.03
434.10	4723.20
434.28	4807.46
434.47	4929.17
434.66	5088.32
434.85	5004.07
435.03	5008.75
435.22	4880.02
435.41	5193.65
435.59	5193.65
435.78	5254.50
435.97	5235.78
436.16	5217.05
436.34	5125.77
436.53	5273.23
436.72	5334.08
436.90	5135.14
437.09	5399.62
437.28	5020.45
437.46	5240.46
437.65	5188.97
437.84	5231.10
438.02	5142.16
438.21	5270.89
438.40	5179.61
438.58	5301.31
438.77	5568.13
438.96	5502.60
439.14	5680.48
439.33	5729.63
439.52	5738.99
439.70	5743.67
439.89	5774.10
440.08	5767.08
440.26	5907.51
440.45	5919.21
440.63	5963.68
440.82	6069.01
441.01	5996.45
441.19	6061.99
441.38	6190.72
441.57	6232.85
441.75	6214.12
441.94	6399.02
442.12	6340.51
442.31	6604.99
442.50	6436.47
442.68	6473.92
442.87	6441.15
443.05	6408.39
443.24	6553.50
443.43	6602.65
443.61	6665.85
443.80	6766.49
443.98	6520.73
444.17	6473.92
444.35	6532.44
444.54	6789.89
444.73	6675.21
444.91	6534.78
445.10	6396.68
445.28	6621.38
445.47	6525.41
445.65	6616.69
445.84	6665.85
446.02	6661.16
446.21	6820.32
446.39	6696.27
446.58	6616.69
446.77	6836.70
446.95	6593.29
447.14	6906.92
447.32	6771.17
447.51	6888.20
447.69	6888.20
447.88	6862.45
448.06	6864.79
448.25	6686.91
448.43	6942.03
448.62	6918.62
448.80	6953.73
448.99	6951.39
449.17	6909.26
449.36	6876.49
449.54	7112.89
449.73	7150.34
449.91	7267.36
450.10	7052.03
450.28	7342.26
450.46	7250.98
450.65	7258.00
450.83	7318.86
451.02	7300.13
451.20	7489.71
451.39	7452.27
451.57	7286.09
451.76	7283.75
451.94	7304.81
452.13	7358.64
452.31	7286.09
452.49	7115.23
452.68	7183.10
452.86	7370.35
453.05	7281.41
453.23	7435.88
453.42	7588.02
453.60	7328.22
453.78	7733.13
453.97	7440.56
454.15	7531.84
454.34	7620.78
454.52	7588.02
454.70	7524.82
454.89	7597.38
455.07	7761.22
455.26	7824.41
455.44	7950.80
455.62	7885.26
455.81	7857.18
455.99	8046.76
456.17	7969.52
456.36	7868.88
456.54	8042.08
456.73	7983.57
456.91	8294.86
457.09	8212.94
457.28	8468.06
457.46	8044.42
457.64	8348.69
457.83	8329.97
458.01	8021.02
458.19	8365.07
458.38	8329.97
458.56	8355.71
458.74	8599.13
458.93	8386.14
459.11	8444.65
459.29	8521.89
459.48	8723.18
459.66	8526.57
459.84	8741.90
460.03	8716.16
460.21	8685.73
460.39	8610.83
460.57	8746.58
460.76	8863.61
460.94	8540.61
461.12	8699.77
461.31	8828.50
461.49	8718.50
461.67	8592.11
461.85	9015.74
462.04	8980.64
462.22	9509.60
462.40	8884.67
462.59	9188.94
462.77	9114.05
462.95	9069.58
463.13	8940.85
463.32	9015.74
463.50	9261.50
463.68	9284.91
463.86	9121.07
464.05	8908.08
464.23	8978.30
464.41	9291.93
464.59	9174.90
464.78	9362.14
464.96	9212.35
465.14	9188.94
465.32	9308.31
465.50	9558.75
465.69	9509.60
465.87	9577.47
466.05	9331.72
466.23	9390.23
466.41	9376.19
466.60	9650.03
466.78	9392.57
466.96	9427.68
467.14	9331.72
467.32	9533.00
467.51	9427.68
467.69	9327.03
467.87	9533.00
468.05	9797.48
468.23	9479.17
468.41	9650.03
468.60	9607.90
468.78	9919.19
468.96	9799.82
469.14	9750.67
469.32	9790.46
469.50	9430.02
469.69	9984.73
469.87	10050.26
470.05	9898.13
470.23	10122.82
470.41	9954.30
470.59	10064.30
470.77	9881.74
470.95	10080.69
471.14	10347.51
471.32	10127.50
471.50	10232.82
471.68	10436.45
471.86	10614.33
472.04	10434.11
472.22	10733.70
472.40	10637.73
472.58	10644.76
472.77	10644.76
472.95	10782.85
473.13	10942.00
473.31	10457.51
473.49	10670.50
473.67	10909.24
473.85	11145.63
474.03	11164.36
474.21	11307.13
474.39	11194.78
474.57	11293.08
474.75	11360.96
474.93	11463.94
475.12	11365.64
475.30	11396.07
475.48	11470.97
475.66	11513.10
475.84	11494.37
476.02	11513.10
476.20	11604.38
476.38	12018.65
476.56	12077.16
476.74	12100.57
476.92	12039.72
477.10	12154.40
477.28	12049.08
477.46	12166.10
477.64	12325.26
477.82	12613.15
478.00	12840.18
478.18	12959.55
478.36	12545.27
478.54	12807.41
478.72	12779.32
478.90	12945.50
479.08	12971.25
479.26	13420.63
479.44	13238.07
479.62	13549.36
479.80	13675.75
479.98	13635.96
480.16	13905.12
480.34	14022.15
480.52	13998.74
480.70	14101.73
480.88	13916.83
481.06	13862.99
481.24	14083.00
481.41	14235.14
481.59	14511.32
481.77	14560.47
481.95	14530.05
482.13	14773.46
482.31	14576.86
482.49	15302.42
482.67	15075.39
482.85	15480.30
483.03	15447.54
483.21	15948.41
483.39	15587.97
483.57	15332.85
483.74	15754.15
483.92	16060.76
484.10	15948.41
484.28	15838.41
484.46	16585.04
484.64	16734.83
484.82	16306.51
485.00	16262.04
485.18	16791.00
485.35	16781.64
485.53	16545.25
485.71	16409.50
485.89	16879.94
486.07	16802.71
486.25	17186.55
486.43	17074.21
486.61	17708.49
486.78	17612.53
486.96	17647.64
487.14	18036.17
487.32	17980.00
487.50	18164.90
487.68	18841.31
487.85	18705.56
488.03	18838.97
488.21	19002.81
488.39	18862.38
488.57	19051.96
488.75	18778.12
488.92	19215.80
489.10	19414.74
489.28	19756.46
489.46	19812.63
489.64	19880.51
489.81	20383.73
489.99	20350.96
490.17	20723.10
490.35	20798.00
490.53	20671.61
490.70	20898.64
490.88	20898.64
491.06	20950.14
491.24	21369.09
491.41	21345.69
491.59	21544.63
491.77	21151.42
491.95	21507.18
492.13	21715.49
492.30	22265.52
492.48	22015.08
492.66	22188.28
492.84	22375.52
493.01	22167.21
493.19	22422.33
493.37	22427.01
493.54	23019.17
493.72	22817.88
493.90	22810.86
494.08	23398.34
494.25	23768.14
494.43	23697.92
494.61	23791.55
494.79	23999.85
494.96	23819.63
495.14	23608.98
495.32	24222.20
495.49	24247.95
495.67	24126.24
495.85	24301.78
496.02	24645.84
496.20	24496.05
496.38	24797.98
496.55	25181.82
496.73	25289.49
496.91	25149.06
497.09	25460.35
497.26	25422.90
497.44	25509.50
497.62	25544.61
497.79	25921.43
497.97	25486.09
498.14	25565.67
498.32	26050.16
498.50	25696.74
498.67	26508.91
498.85	26391.88
499.03	26607.21
499.20	26532.31
499.38	26998.08
499.56	26560.40
499.73	26824.88
499.91	26972.33
500.08	27070.64
500.26	26639.98
500.44	26977.01
500.61	27201.71
500.79	27105.74
500.97	27508.32
501.14	27459.16
501.32	27384.27
501.49	27585.55
501.67	27555.13
501.84	27873.44
502.02	27896.85
502.20	28013.87
502.37	28240.90
502.55	28128.56
502.72	28627.09
502.90	28814.34
503.07	28196.43
503.25	28954.77
503.43	28524.11
503.60	28870.51
503.78	28706.67
503.95	28863.49
504.13	28849.44
504.30	29177.12
504.48	29397.13
504.65	29518.84
504.83	29764.59
505.01	29827.79
505.18	29399.47
505.36	30082.91
505.53	30078.22
505.71	30040.78
505.88	30424.62
506.06	30000.99
506.23	30010.35
506.41	29773.95
506.58	29921.41
506.76	30345.05
506.93	30691.44
507.11	30581.44
507.28	30497.18
507.46	30796.77
507.63	30492.50
507.81	30771.02
507.98	30270.15
508.16	30628.25
508.33	30937.20
508.50	31428.71
508.68	31290.62
508.85	31426.37
509.03	31737.66
509.20	31613.62
509.38	31644.04
509.55	31952.99
509.73	31978.74
509.90	31913.20
510.08	31927.25
510.25	32313.44
510.42	31854.69
510.60	32065.34
510.77	32514.72
510.95	32566.21
511.12	32385.99
511.30	32854.10
511.47	32739.41
511.64	33343.27
511.82	33324.55
511.99	32985.17
512.17	33137.30
512.34	32921.98
512.51	33352.63
512.69	33343.27
512.86	33134.96
513.04	33731.80
513.21	33312.84
513.38	33074.11
513.56	33177.09
513.73	33525.83
513.90	33607.75
514.08	33621.80
514.25	33787.97
514.43	34024.37
514.60	33275.40
514.77	33682.65
514.95	34246.72
515.12	34141.39
515.29	33888.62
515.47	34763.98
515.64	34742.91
515.81	34314.59
515.99	34511.20
516.16	34288.85
516.33	34345.02
516.51	34338.00
516.68	33921.38
516.85	34099.26
517.03	34389.49
517.20	34635.25
517.37	34724.19
517.54	35271.87
517.72	34710.14
517.89	34850.58
518.06	34546.31
518.24	34810.79
518.41	35002.71
518.58	35229.74
518.75	35328.05
518.93	35384.22
519.10	35735.30
519.27	35878.07
519.45	36032.55
519.62	35491.88
519.79	36329.80
519.96	36154.26
520.14	36512.36
520.31	36081.70
520.48	36692.58
520.65	36343.84
520.83	36800.24
521.00	36737.05
521.17	36697.26
521.34	36795.56
521.52	37055.36
521.69	36833.01
521.86	37153.66
522.03	37429.85
522.20	36493.63
522.38	36971.10
522.55	37069.40
522.72	37156.00
522.89	37003.87
523.07	37479.00
523.24	36968.76
523.41	37479.00
523.58	37324.52
523.75	37872.21
523.92	37778.59
524.10	37574.96
524.27	37879.23
524.44	37930.72
524.61	38045.41
524.78	38033.71
524.96	38153.07
525.13	38143.71
525.30	38349.68
525.47	38796.72
525.64	38349.68
525.81	38408.19
525.98	38227.97
526.16	38162.43
526.33	38162.43
526.50	38614.16
526.67	37982.21
526.84	38361.38
527.01	37968.17
527.18	38597.77
527.36	38667.99
527.53	39049.50
527.70	39377.17
527.87	39157.16
528.04	39335.04
528.21	39749.32
528.38	39091.63
528.55	39742.30
528.72	39438.03
528.89	39742.30
529.07	39386.54
529.24	39210.99
529.41	39777.40
529.58	39473.13
529.75	39225.04
529.92	39541.01
530.09	39824.22
530.26	39959.97
530.43	39868.69
530.60	39688.46
530.77	40318.07
530.94	40449.14
531.11	40154.23
531.28	39866.34
531.46	40144.87
531.63	40093.38
531.80	39997.41
531.97	39871.03
532.14	40304.02
532.31	39810.17
532.48	40231.47
532.65	40481.91
532.82	40399.99
532.99	40669.15
533.16	40371.90
533.33	40479.57
533.50	41071.72
533.67	40924.27
533.84	40615.32
534.01	40800.22
534.18	41081.08
534.35	41324.50
534.52	41088.10
534.69	41354.93
534.86	40849.37
535.03	40994.48
535.20	41291.73
535.37	42000.91
535.54	41951.76
535.71	41102.15
535.88	41055.34
536.05	41818.35
536.22	41689.62
536.38	41383.01
536.55	41645.15
536.72	41214.49
536.89	41397.06
537.06	41258.96
537.23	41724.73
537.40	41558.55
537.57	41755.16
537.74	41750.48
537.91	42424.55
538.08	42092.19
538.25	41930.70
538.42	41762.18
538.59	42066.45
538.75	41940.06
538.92	42019.64
539.09	42078.15
539.26	42052.41
539.43	42129.64
539.60	42211.56
539.77	41897.93
539.94	42232.63
540.11	41972.83
540.28	42043.04
540.44	41961.12
540.61	41940.06
540.78	42059.43
540.95	42518.17
541.12	42326.25
541.29	42218.58
541.46	42635.20
541.62	43009.68
541.79	43189.91
541.96	42562.64
542.13	42258.37
542.30	42632.86
542.47	42801.38
542.63	42869.25
542.80	43232.04
542.97	43332.68
543.14	43459.07
543.31	43040.11
543.48	43344.38
543.64	43730.57
543.81	43924.83
543.98	43746.95
544.15	43709.50
544.32	44133.14
544.48	43906.11
544.65	43702.48
544.82	43491.83
544.99	43540.99
545.16	43550.35
545.32	43496.52
545.49	43938.88
545.66	44119.10
545.83	44058.24
546.00	44116.76
546.16	43873.34
546.33	43606.52
546.50	43346.72
546.67	43887.39
546.83	43402.89
547.00	43803.13
547.17	43941.22
547.34	44512.31
547.50	44144.84
547.67	44605.93
547.84	43941.22
548.00	44741.68
548.17	44350.81
548.34	44430.39
548.51	44423.37
548.67	44889.13
548.84	44594.23
549.01	44432.73
549.18	44151.87
549.34	44631.68
549.51	44907.86
549.68	44591.89
549.84	44762.75
550.01	45256.60
550.18	44444.43
550.34	44509.97
550.51	44484.22
550.68	44685.51
550.84	44247.83
551.01	44804.88
551.18	44746.36
551.34	44758.06
551.51	45027.23
551.68	44725.30
551.84	45251.92
552.01	44720.62
552.18	45057.65
552.34	44739.34
552.51	45406.39
552.68	45280.00
552.84	45406.39
553.01	45666.19
553.18	45448.52
553.34	45425.12
553.51	45322.13
553.67	45600.66
553.84	45125.53
554.01	45698.96
554.17	45195.74
554.34	45766.84
554.51	45640.45
554.67	45841.73
554.84	45460.23
555.00	45371.28
555.17	45645.13
555.33	45549.17
555.50	45883.86
555.67	45808.96
555.83	45488.31
556.00	45762.15
556.16	46485.38
556.33	45696.62
556.50	45930.67
556.66	46003.23
556.83	45647.47
556.99	45979.82
557.16	46288.77
557.32	46190.47
557.49	45886.20
557.65	45478.95
557.82	45668.53
557.98	45839.39
558.15	46209.20
558.32	46171.75
558.48	45989.19
558.65	45902.59
558.81	45734.07
558.98	45687.26
559.14	45902.59
559.31	46071.10
559.47	45834.71
559.64	46176.43
559.80	46630.49
559.97	46258.35
560.13	45954.08
560.30	46277.07
560.46	46138.98
560.63	45839.39
560.79	46557.94
560.96	46368.35
561.12	46298.14
561.29	46220.90
561.45	46237.28
561.61	46291.12
561.78	46101.53
561.94	45914.29
562.11	45830.03
562.27	46454.95
562.44	46480.70
562.60	46670.28
562.77	46574.32
562.93	46188.13
563.10	46527.51
563.26	45780.88
563.42	46553.26
563.59	46595.38
563.75	46564.96
563.92	46602.41
564.08	46396.44
564.24	46745.18
564.41	46256.01
564.57	46925.40
564.74	46541.55
564.90	46742.84
565.07	46646.88
565.23	45890.88
565.39	46426.87
565.56	46373.03
565.72	46773.27
565.88	46499.42
566.05	46890.29
566.21	47084.56
566.38	46375.37
566.54	46557.94
566.70	47072.85
566.87	46927.74
567.03	46564.96
567.19	47337.33
567.36	46932.42
567.52	46312.18
567.68	46637.51
567.85	46663.26
568.01	46632.83
568.17	46469.00
568.34	46618.79
568.50	46813.05
568.66	46546.23
568.83	46780.29
568.99	46710.07
569.15	46794.33
569.32	46274.73
569.48	46403.46
569.64	47040.09
569.81	46567.30
569.97	46679.64
570.13	46927.74
570.30	46401.12
570.46	46724.11
570.62	46600.07
570.78	46557.94
570.95	46623.47
571.11	46852.84
571.27	46920.72
571.43	46763.90
571.60	46829.44
571.76	46742.84
571.92	46883.27
572.09	46857.52
572.25	46768.58
572.41	46983.91
572.57	47122.01
572.74	47433.30
572.90	46749.86
573.06	46981.57
573.22	47297.55
573.38	46555.60
573.55	46988.60
573.71	47103.28
573.87	47072.85
574.03	46471.34
574.20	46731.14
574.36	46745.18
574.52	47288.18
574.68	47220.31
574.84	46983.91
575.01	46981.57
575.17	46887.95
575.33	46700.71
575.49	47044.77
575.65	47269.46
575.82	47159.45
575.98	46831.78
576.14	47016.68
576.30	47000.30
576.46	46962.85
576.62	47035.41
576.79	46937.10
576.95	46611.77
577.11	47093.92
577.27	46894.97
577.43	46916.04
577.59	46944.12
577.75	46656.24
577.92	46480.70
578.08	46859.87
578.24	46698.37
578.40	46756.88
578.56	46864.55
578.72	47187.54
578.88	47086.90
579.04	47070.51
579.21	46602.41
579.37	46703.05
579.53	47044.77
579.69	46892.63
579.85	47161.79
580.01	47131.37
580.17	47391.17
580.33	47079.88
580.49	47208.61
580.65	46958.17
580.82	47112.64
580.98	47302.23
581.14	46937.10
581.30	47082.22
581.46	47084.56
581.62	46995.62
581.78	47065.83
581.94	47452.02
582.10	46962.85
582.26	47590.11
582.42	47384.15
582.58	47217.97
582.74	46892.63
582.90	47178.18
583.06	47342.02
583.22	47248.39
583.38	47220.31
583.54	47290.52
583.70	46946.47
583.86	47114.98
584.02	46962.85
584.18	46988.60
584.34	46883.27
584.50	47068.17
584.66	47206.26
584.82	46981.57
584.98	47323.29
585.14	47213.29
585.30	47110.30
585.46	47023.70
585.62	46667.94
585.78	47077.54
585.94	46796.67
586.10	47049.45
586.26	46930.08
586.42	47337.33
586.58	47023.70
586.74	47030.72
586.90	46941.78
587.06	46974.55
587.22	47124.35
587.38	46845.82
587.54	47566.71
587.70	47297.55
587.86	47002.64
588.02	47246.05
588.18	47145.41
588.34	47278.82
588.49	46293.46
588.65	46635.17
588.81	46337.93
588.97	46799.01
589.13	46590.70
589.29	46756.88
589.45	46351.97
589.61	46483.04
589.77	47533.94
589.93	47234.35
