SpectraSuite Data File
++++++++++++++++++++++++++++++++++++
Date: Fri Oct 25 10:44:09 EDT 2013
User: price-jones
Dark Spectrum Present: No
Reference Spectrum Present: No
Number of Sampled Component Spectra: 1
Spectrometers: USB2+H05261
Integration Time (usec): 100000 (USB2+H05261)
Spectra Averaged: 1 (USB2+H05261)
Boxcar Smoothing: 0 (USB2+H05261)
Correct for Electrical Dark: No (USB2+H05261)
Strobe/Lamp Enabled: No (USB2+H05261)
Correct for Detector Non-linearity: No (USB2+H05261)
Correct for Stray Light: No (USB2+H05261)
Number of Pixels in Processed Spectrum: 2048
>>>>>Begin Processed Spectral Data<<<<<
365.73	100.64
365.92	100.64
366.12	100.64
366.32	93.62
366.52	28.09
366.72	2.34
366.91	0.00
367.11	30.43
367.31	18.72
367.51	0.00
367.70	46.81
367.90	0.00
368.10	42.13
368.30	21.06
368.49	42.13
368.69	35.11
368.89	0.00
369.09	74.90
369.28	65.54
369.48	21.06
369.68	77.24
369.87	131.07
370.07	72.56
370.27	201.29
370.47	292.57
370.66	395.55
370.86	479.81
371.06	425.98
371.25	458.74
371.45	444.70
371.65	414.27
371.84	376.83
372.04	451.72
372.24	503.22
372.44	444.70
372.63	486.83
372.83	564.07
373.03	514.92
373.22	547.69
373.42	557.05
373.62	503.22
373.81	519.60
374.01	589.82
374.21	519.60
374.40	519.60
374.60	603.86
374.79	552.37
374.99	561.73
375.19	566.41
375.38	582.79
375.58	692.80
375.78	695.14
375.97	627.26
376.17	603.86
376.37	601.52
376.56	669.39
376.76	634.29
376.95	627.26
377.15	662.37
377.35	599.18
377.54	697.48
377.74	624.92
377.93	718.54
378.13	697.48
378.33	704.50
378.52	664.71
378.72	674.07
378.91	704.50
379.11	641.31
379.31	620.24
379.50	685.78
379.70	720.88
379.89	753.65
380.09	592.16
380.28	664.71
380.48	716.20
380.68	734.93
380.87	706.84
381.07	713.86
381.26	690.46
381.46	725.57
381.65	699.82
381.85	730.25
382.04	702.16
382.24	641.31
382.43	695.14
382.63	697.48
382.83	713.86
383.02	716.20
383.22	772.38
383.41	732.59
383.61	758.33
383.80	819.19
384.00	753.65
384.19	763.01
384.39	877.70
384.58	765.36
384.78	795.78
384.97	823.87
385.17	711.52
385.36	823.87
385.56	816.85
385.75	709.18
385.95	751.31
386.14	870.68
386.34	800.46
386.53	770.04
386.72	793.44
386.92	851.96
387.11	814.51
387.31	868.34
387.50	861.32
387.70	919.83
387.89	964.30
388.09	877.70
388.28	861.32
388.48	936.21
388.67	936.21
388.86	924.51
389.06	891.74
389.25	936.21
389.45	1004.09
389.64	1020.47
389.84	950.26
390.03	954.94
390.22	985.37
390.42	945.58
390.61	1041.54
390.81	990.05
391.00	1029.84
391.19	1034.52
391.39	1034.52
391.58	1095.37
391.78	1050.90
391.97	1090.69
392.16	1046.22
392.36	1078.99
392.55	1069.62
392.75	999.41
392.94	971.32
393.13	966.64
393.33	1022.81
393.52	1078.99
393.71	1004.09
393.91	1071.97
394.10	1100.05
394.29	1088.35
394.49	1188.99
394.68	1146.86
394.88	1240.48
395.07	1240.48
395.26	1263.89
395.46	1212.40
395.65	1231.12
395.84	1156.22
396.04	1231.12
396.23	1146.86
396.42	1130.48
396.62	1111.75
396.81	1163.25
397.00	1193.67
397.19	1289.64
397.39	1369.21
397.58	1420.71
397.77	1313.04
397.97	1376.24
398.16	1418.36
398.35	1490.92
398.55	1507.30
398.74	1380.92
398.93	1516.67
399.12	1418.36
399.32	1582.20
399.51	1570.50
399.70	1523.69
399.90	1530.71
400.09	1537.73
400.28	1682.85
400.47	1617.31
400.67	1671.14
400.86	1659.44
401.05	1666.46
401.24	1621.99
401.44	1680.50
401.63	1682.85
401.82	1600.93
402.01	1645.40
402.21	1710.93
402.40	1666.46
402.59	1647.74
402.78	1776.47
402.97	1703.91
403.17	1823.28
403.36	1713.27
403.55	1827.96
403.74	1827.96
403.93	1783.49
404.13	1952.01
404.32	1825.62
404.51	1886.47
404.70	1898.17
404.89	1842.00
405.09	1919.24
405.28	1982.43
405.47	1895.83
405.66	2012.86
405.85	1954.35
406.05	1937.96
406.24	2101.80
406.43	1923.92
406.62	2092.44
406.81	2148.61
407.00	1944.99
407.20	2050.31
407.39	2033.93
407.58	2179.04
407.77	2101.80
407.96	2172.02
408.15	2211.81
408.34	2232.87
408.54	2239.89
408.73	2289.04
408.92	2291.38
409.11	2258.62
409.30	2298.41
409.49	2251.60
409.68	2193.08
409.87	2293.72
410.07	2331.17
410.26	2380.32
410.45	2410.75
410.64	2387.35
410.83	2471.61
411.02	2539.48
411.21	2476.29
411.40	2495.01
411.59	2455.22
411.78	2541.82
411.98	2693.96
412.17	2677.57
412.36	2626.08
412.55	2642.46
412.74	2731.41
412.93	2703.32
413.12	2703.32
413.31	2850.77
413.50	2778.22
413.69	2862.48
413.88	2930.35
414.07	2834.39
414.26	2923.33
414.45	2843.75
414.64	2935.03
414.83	3014.61
415.02	3052.06
415.22	3026.31
415.41	3208.87
415.60	3035.67
415.79	3155.04
415.98	3225.26
416.17	3169.09
416.36	3192.49
416.55	3269.73
416.74	3276.75
416.93	3180.79
417.12	3332.92
417.31	3424.20
417.50	3393.78
417.69	3304.84
417.88	3421.86
418.07	3377.39
418.26	3267.39
418.45	3562.30
418.64	3506.12
418.83	3597.40
419.02	3630.17
419.21	3592.72
419.39	3588.04
419.58	3428.88
419.77	3665.28
419.96	3536.55
420.15	3700.39
420.34	3709.75
420.53	3742.52
420.72	3833.80
420.91	3756.56
421.10	3740.18
421.29	3904.01
421.48	3899.33
421.67	3815.07
421.86	3744.86
422.05	3791.67
422.24	3772.94
422.43	3709.75
422.61	3705.07
422.80	3775.28
422.99	3836.14
423.18	3833.80
423.37	3941.46
423.56	3840.82
423.75	3875.93
423.94	3756.56
424.13	3684.00
424.32	3698.05
424.50	4016.36
424.69	3983.59
424.88	4056.15
425.07	3775.28
425.26	3901.67
425.45	3906.35
425.64	3854.86
425.83	3852.52
426.01	4067.85
426.20	3992.95
426.39	3967.21
426.58	3953.16
426.77	4037.42
426.96	4049.13
427.15	4042.11
427.33	4072.53
427.52	4196.58
427.71	3997.64
427.90	4100.62
428.09	4184.88
428.28	4119.34
428.46	4131.05
428.65	4191.90
428.84	4191.90
429.03	4156.79
429.22	4009.34
429.40	4189.56
429.59	4095.94
429.78	3915.72
429.97	3939.12
430.16	3899.33
430.34	4112.32
430.53	4245.73
430.72	4191.90
430.91	4173.18
431.10	4351.06
431.28	4578.09
431.47	4505.53
431.66	4545.32
431.85	4519.57
432.03	4624.90
432.22	4608.51
432.41	4482.13
432.60	4732.56
432.79	4566.39
432.97	4718.52
433.16	4678.73
433.35	4599.15
433.54	4601.49
433.72	4727.88
433.91	4713.84
434.10	4793.42
434.28	4631.92
434.47	4842.57
434.66	4987.68
434.85	4959.60
435.03	5008.75
435.22	4847.25
435.41	5064.92
435.59	5107.05
435.78	5114.07
435.97	5088.32
436.16	5165.56
436.34	4999.38
436.53	5048.54
436.72	5259.18
436.90	5114.07
437.09	5259.18
437.28	5064.92
437.46	4915.12
437.65	5008.75
437.84	5104.71
438.02	5041.51
438.21	5181.95
438.40	5097.69
438.58	5270.89
438.77	5350.46
438.96	5282.59
439.14	5430.04
439.33	5619.63
439.52	5596.22
439.70	5633.67
439.89	5563.45
440.08	5666.44
440.26	5783.46
440.45	5607.92
440.63	5783.46
440.82	5935.60
441.01	5980.07
441.19	5860.70
441.38	6101.78
441.57	6040.92
441.75	6223.48
441.94	6118.16
442.12	6230.51
442.31	6232.85
442.50	6333.49
442.68	6244.55
442.87	6253.91
443.05	6263.27
443.24	6520.73
443.43	6366.26
443.61	6387.32
443.80	6583.93
443.98	6277.32
444.17	6207.10
444.35	6480.94
444.54	6534.78
444.73	6530.09
444.91	6525.41
445.10	6527.75
445.28	6300.72
445.47	6221.14
445.65	6555.84
445.84	6448.18
446.02	6434.13
446.21	6487.96
446.39	6600.31
446.58	6579.25
446.77	6499.67
446.95	6588.61
447.14	6492.65
447.32	6649.46
447.51	6740.74
447.69	6623.72
447.88	6670.53
448.06	6661.16
448.25	6745.42
448.43	6719.68
448.62	6675.21
448.80	6799.26
448.99	6897.56
449.17	6850.75
449.36	6836.70
449.54	6963.09
449.73	6979.48
449.91	7143.32
450.10	7005.22
450.28	7173.74
450.46	7211.19
450.65	7143.32
450.83	7220.55
451.02	7105.87
451.20	7150.34
451.39	7279.07
451.57	7321.20
451.76	7241.62
451.94	7276.73
452.13	7105.87
452.31	7045.01
452.49	7075.44
452.68	7115.23
452.86	7239.28
453.05	7222.89
453.23	7082.46
453.42	7241.62
453.60	7206.51
453.78	7524.82
453.97	7440.56
454.15	7199.49
454.34	7489.71
454.52	7431.20
454.70	7243.96
454.89	7618.44
455.07	7573.97
455.26	7534.18
455.44	7538.87
455.62	7716.75
455.81	7648.87
455.99	7754.19
456.17	7805.69
456.36	7644.19
456.54	7967.18
456.73	7712.07
456.91	8100.59
457.09	8121.66
457.28	8404.86
457.46	7845.48
457.64	8107.62
457.83	8182.51
458.01	8016.33
458.19	8016.33
458.38	7892.29
458.56	8325.29
458.74	8241.03
458.93	8063.15
459.11	8245.71
459.29	8299.54
459.48	8224.64
459.66	8063.15
459.84	8308.90
460.03	8458.70
460.21	8336.99
460.39	8458.70
460.57	8498.49
460.76	8454.02
460.94	8732.54
461.12	8498.49
461.31	8652.96
461.49	8805.10
461.67	8585.08
461.85	8659.98
462.04	8610.83
462.22	8945.53
462.40	8940.85
462.59	9027.45
462.77	8816.80
462.95	8842.54
463.13	8793.39
463.32	8926.80
463.50	8985.32
463.68	8805.10
463.86	8945.53
464.05	8821.48
464.23	8758.28
464.41	9114.05
464.59	8779.35
464.78	9048.51
464.96	9004.04
465.14	9121.07
465.32	9102.34
465.50	9193.62
465.69	9247.46
465.87	9238.09
466.05	9219.37
466.23	9259.16
466.41	9177.24
466.60	9341.08
466.78	9298.95
466.96	9179.58
467.14	9170.22
467.32	9308.31
467.51	9558.75
467.69	9252.14
467.87	9593.86
468.05	9612.58
468.23	9437.04
468.41	9427.68
468.60	9633.64
468.78	9610.24
468.96	9399.59
469.14	9682.80
469.32	9980.04
469.50	9366.82
469.69	9600.88
469.87	9804.50
470.05	9722.59
470.23	9767.06
470.41	9813.87
470.59	9987.07
470.77	9797.48
470.95	9776.42
471.14	9956.64
471.32	9856.00
471.50	10099.41
471.68	10321.76
471.86	10101.75
472.04	10483.26
472.22	10565.18
472.40	10312.40
472.58	10274.95
472.77	10363.89
472.95	10647.10
473.13	10553.48
473.31	10567.52
473.49	10579.22
473.67	10541.77
473.85	10619.01
474.03	10867.11
474.21	10883.49
474.39	11012.22
474.57	10902.22
474.75	10958.39
474.93	11178.40
475.12	11157.33
475.30	11293.08
475.48	11211.17
475.66	11344.58
475.84	11248.61
476.02	11222.87
476.20	11328.19
476.38	11597.35
476.56	11782.26
476.74	11534.16
476.92	11791.62
477.10	11988.22
477.28	11822.05
477.46	11896.94
477.64	12128.66
477.82	12168.45
478.00	12416.54
478.18	12294.83
478.36	12535.91
478.54	12657.62
478.72	12645.91
478.90	12746.56
479.08	12908.05
479.26	13062.53
479.44	13027.42
479.62	13238.07
479.80	13254.45
479.98	13376.16
480.16	13439.36
480.34	13467.44
480.52	13675.75
480.70	13844.27
480.88	13584.47
481.06	13741.29
481.24	13940.23
481.41	14015.13
481.59	14260.88
481.77	14162.58
481.95	14272.59
482.13	14532.39
482.31	14459.83
482.49	14611.96
482.67	15042.62
482.85	14874.10
483.03	15166.67
483.21	15250.93
483.39	15154.97
483.57	15211.14
483.74	15524.77
483.92	15566.90
484.10	15337.53
484.28	16130.97
484.46	16198.85
484.64	16067.78
484.82	15712.02
485.00	15932.03
485.18	16430.56
485.35	16624.83
485.53	16084.16
485.71	16203.53
485.89	16404.81
486.07	16336.94
486.25	16727.81
486.43	16847.18
486.61	16978.25
486.78	17247.41
486.96	17252.09
487.14	17511.89
487.32	17989.36
487.50	18092.34
487.68	18097.02
487.85	18204.69
488.03	18558.11
488.21	18586.19
488.39	18623.64
488.57	18497.25
488.75	18855.36
488.92	19222.82
489.10	19194.73
489.28	19583.26
489.46	19686.25
489.64	19428.79
489.81	20067.75
489.99	20037.33
490.17	20121.59
490.35	20255.00
490.53	20093.50
490.70	20247.97
490.88	20397.77
491.06	20746.51
491.24	20512.46
491.41	20496.07
491.59	20950.14
491.77	20521.82
491.95	21263.77
492.13	21387.82
492.30	21301.22
492.48	21586.76
492.66	21469.73
492.84	21460.37
493.01	21881.67
493.19	22209.34
493.37	22417.65
493.54	22314.67
493.72	22412.97
493.90	22574.47
494.08	23035.55
494.25	23271.95
494.43	23442.81
494.61	23288.33
494.79	23506.00
494.96	23548.13
495.14	23290.67
495.32	23798.57
495.49	23370.25
495.67	23873.46
495.85	24023.26
496.02	24615.41
496.20	24554.56
496.38	24142.63
496.55	24357.96
496.73	24779.25
496.91	24678.61
497.09	24631.80
497.26	25127.99
497.44	24903.30
497.62	24889.26
497.79	25390.13
497.97	25144.38
498.14	25401.83
498.32	25521.20
498.50	25645.25
498.67	25649.93
498.85	26059.52
499.03	26309.96
499.20	26045.48
499.38	26225.70
499.56	26422.31
499.73	26321.66
499.91	26518.27
500.08	26293.58
500.26	26281.88
500.44	26672.74
500.61	26768.71
500.79	26878.71
500.97	26960.63
501.14	27175.96
501.32	26850.63
501.49	26651.68
501.67	26899.78
501.84	27421.72
502.02	27222.77
502.20	27723.65
502.37	27517.68
502.55	27648.75
502.72	27821.95
502.90	28004.51
503.07	27707.26
503.25	27791.52
503.43	27695.56
503.60	27807.90
503.78	28020.89
503.95	28002.17
504.13	28554.54
504.30	28379.00
504.48	28519.43
504.65	28720.71
504.83	29032.00
505.01	28936.04
505.18	29095.20
505.36	29198.18
505.53	29273.08
505.71	29656.93
505.88	29645.23
506.06	29294.14
506.23	29518.84
506.41	29923.75
506.58	29806.72
506.76	29610.12
506.93	29921.41
507.11	29692.04
507.28	30017.37
507.46	29855.87
507.63	29734.17
507.81	30331.00
507.98	30047.80
508.16	30504.20
508.33	30663.36
508.50	30623.57
508.68	30761.66
508.85	31199.34
509.03	31014.44
509.20	30976.99
509.38	31435.74
509.55	31023.80
509.73	31571.49
509.90	31007.42
510.08	31566.81
510.25	31199.34
510.42	31459.14
510.60	31665.11
510.77	31826.60
510.95	32247.90
511.12	31770.43
511.30	32063.00
511.47	32629.41
511.64	32648.13
511.82	32360.25
511.99	32161.30
512.17	32327.48
512.34	32486.64
512.51	32669.20
512.69	32723.03
512.86	32369.61
513.04	32914.95
513.21	32767.50
513.38	32882.19
513.56	32725.37
513.73	32521.74
513.90	33055.39
514.08	32652.81
514.25	32865.80
514.43	32999.21
514.60	33151.35
514.77	33095.18
514.95	33652.22
515.12	33649.88
515.29	33661.58
515.47	34120.33
515.64	33806.70
515.81	34183.52
515.99	33773.93
516.16	33666.27
516.33	33762.23
516.51	33652.22
516.68	33256.67
516.85	33149.01
517.03	33500.09
517.20	33776.27
517.37	34038.41
517.54	34501.84
517.72	33986.92
517.89	33731.80
518.06	34057.14
518.24	34115.65
518.41	34298.21
518.58	34576.73
518.75	34417.58
518.93	34696.10
519.10	34742.91
519.27	35014.41
519.45	34649.29
519.62	34897.39
519.79	35379.54
519.96	35281.24
520.14	35309.32
520.31	35033.14
520.48	35629.98
520.65	35384.22
520.83	35887.43
521.00	35906.16
521.17	35906.16
521.34	35730.62
521.52	36271.28
521.69	35955.31
521.86	36517.04
522.03	36416.40
522.20	36109.78
522.38	36601.30
522.55	36643.43
522.72	36126.17
522.89	36559.17
523.07	36725.35
523.24	36795.56
523.41	37146.64
523.58	36385.97
523.75	37537.51
523.92	37373.67
524.10	37408.78
524.27	37338.57
524.44	36959.40
524.61	37596.03
524.78	37141.96
524.96	37408.78
525.13	37394.74
525.30	37589.00
525.47	38017.32
525.64	37617.09
525.81	37422.83
525.98	37209.84
526.16	37392.40
526.33	37111.53
526.50	37338.57
526.67	37219.20
526.84	37273.03
527.01	37570.28
527.18	37979.87
527.36	37677.94
527.53	38164.78
527.70	38136.69
527.87	38197.54
528.04	38195.20
528.21	38464.36
528.38	38644.59
528.55	38721.82
528.72	38593.09
528.89	38770.97
529.07	38518.20
529.24	38567.35
529.41	38742.89
529.58	38745.23
529.75	38859.91
529.92	39152.48
530.09	38909.07
530.26	39498.88
530.43	39372.49
530.60	38567.35
530.77	39054.18
530.94	39438.03
531.11	39143.12
531.28	39086.95
531.46	39725.91
531.63	39660.38
531.80	39363.13
531.97	39501.22
532.14	39351.43
532.31	39573.78
532.48	39573.78
532.65	40163.59
532.82	39566.76
532.99	39901.45
533.16	39414.62
533.33	40058.27
533.50	40432.75
533.67	40140.19
533.84	40140.19
534.01	40116.78
534.18	40011.46
534.35	40713.62
534.52	39934.22
534.69	40432.75
534.86	40390.62
535.03	40224.45
535.20	40964.06
535.37	40961.72
535.54	40814.26
535.71	40385.94
535.88	40524.04
536.05	40596.59
536.22	40882.14
536.38	40666.81
536.55	40512.33
536.72	40453.82
536.89	40577.87
537.06	40790.86
537.23	41069.38
537.40	40942.99
537.57	41411.10
537.74	41308.11
537.91	41097.47
538.08	41507.06
538.25	40830.65
538.42	40863.41
538.59	41067.04
538.75	40830.65
538.92	41160.66
539.09	41268.33
539.26	41373.65
539.43	41331.52
539.60	41273.01
539.77	41265.99
539.94	41219.17
540.11	40992.14
540.28	41303.43
540.44	41605.36
540.61	41490.68
540.78	41263.64
540.95	41345.56
541.12	41322.16
541.29	41921.34
541.46	41581.96
541.62	42085.17
541.79	41563.23
541.96	41553.87
542.13	41666.22
542.30	41820.69
542.47	42192.84
542.63	42110.92
542.80	42031.34
542.97	42649.24
543.14	42761.59
543.31	42822.44
543.48	42541.58
543.64	43159.48
543.81	42703.07
543.98	42539.24
544.15	43044.79
544.32	43143.09
544.48	43288.21
544.65	42773.29
544.82	42829.46
544.99	43367.79
545.16	42412.85
545.32	42674.99
545.49	43107.99
545.66	43220.33
545.83	43337.36
546.00	43386.51
546.16	43056.50
546.33	42909.04
546.50	42756.91
546.67	43292.89
546.83	42948.83
547.00	43105.65
547.17	43213.31
547.34	43021.39
547.50	43655.67
547.67	43475.45
547.84	43606.52
548.00	43456.73
548.17	43929.51
548.34	43564.39
548.51	43969.30
548.67	43999.73
548.84	43826.53
549.01	43580.78
549.18	43978.67
549.34	43526.94
549.51	43756.32
549.68	44194.00
549.84	43901.43
550.01	44076.97
550.18	44018.46
550.34	43908.45
550.51	43775.04
550.68	44282.94
550.84	43168.84
551.01	44137.82
551.18	44594.23
551.34	43744.61
551.51	44268.89
551.68	44332.09
551.84	44428.05
552.01	43969.30
552.18	44580.18
552.34	43845.26
552.51	44329.75
552.68	44299.32
552.84	44610.61
553.01	44402.30
553.18	44430.39
553.34	44421.03
553.51	44322.72
553.67	44233.78
553.84	44872.75
554.01	44676.15
554.17	45118.51
554.34	44652.74
554.51	44683.17
554.67	44641.04
554.84	44746.36
555.00	44266.55
555.17	44851.69
555.33	44673.81
555.50	44399.96
555.67	44737.00
555.83	44601.25
556.00	45071.70
556.16	45102.12
556.33	45146.59
556.50	44692.53
556.66	45343.20
556.83	44732.32
556.99	45207.45
557.16	45319.79
557.32	45425.12
557.49	45448.52
557.65	44619.97
557.82	45230.85
557.98	45134.89
558.15	44961.69
558.32	45130.21
558.48	44685.51
558.65	44980.42
558.81	44926.58
558.98	44847.00
559.14	45254.26
559.31	45207.45
559.47	44933.60
559.64	45975.14
559.80	45542.14
559.97	45179.36
560.13	45214.47
560.30	45249.58
560.46	45071.70
560.63	45521.08
560.79	45361.92
560.96	45694.28
561.12	45783.22
561.29	45483.63
561.45	45614.70
561.61	45387.67
561.78	45427.46
561.94	45191.06
562.11	45193.40
562.27	45673.21
562.44	45542.14
562.60	45528.10
562.77	45235.53
562.93	45488.31
563.10	45705.98
563.26	45242.56
563.42	45528.10
563.59	45399.37
563.75	45504.70
563.92	45745.77
564.08	45799.60
564.24	45741.09
564.41	45792.58
564.57	45514.06
564.74	45851.09
564.90	45439.16
565.07	45815.99
565.23	46384.74
565.39	45855.78
565.56	45862.80
565.72	45663.85
565.88	45460.23
566.05	45558.53
566.21	45628.74
566.38	45642.79
566.54	45944.72
566.70	45958.76
566.87	46241.96
567.03	45720.02
567.19	46204.52
567.36	45853.44
567.52	45631.08
567.68	45855.78
567.85	45652.15
568.01	46298.14
568.17	45865.14
568.34	46108.55
568.50	45830.03
568.66	45762.15
568.83	45689.60
568.99	45872.16
569.15	45975.14
569.32	45806.62
569.48	45254.26
569.64	45998.55
569.81	45867.48
569.97	45900.25
570.13	45748.11
570.30	45537.46
570.46	45425.12
570.62	45277.66
570.78	45359.58
570.95	45954.08
571.11	45841.73
571.27	45743.43
571.43	45581.93
571.60	46106.21
571.76	45909.61
571.92	45909.61
572.09	46005.57
572.25	45715.34
572.41	45944.72
572.57	46064.08
572.74	46623.47
572.90	45942.38
573.06	46073.45
573.22	45621.72
573.38	46251.33
573.55	45865.14
573.71	46195.15
573.87	46087.49
574.03	45811.31
574.20	46047.70
574.36	45773.86
574.52	45993.87
574.68	46263.03
574.84	45975.14
575.01	46050.04
575.17	45790.24
575.33	45893.22
575.49	46057.06
575.65	46281.75
575.82	46103.87
575.98	46202.18
576.14	46384.74
576.30	45846.41
576.46	46258.35
576.62	46136.64
576.79	46078.13
576.95	46103.87
577.11	46314.52
577.27	46206.86
577.43	46094.51
577.59	46012.59
577.75	45801.94
577.92	45682.58
578.08	45736.41
578.24	45972.80
578.40	46153.02
578.56	46003.23
578.72	46223.24
578.88	46466.66
579.04	46960.51
579.21	45844.07
579.37	46225.58
579.53	46169.41
579.69	46241.96
579.85	46082.81
580.01	46167.07
580.17	45940.04
580.33	46246.65
580.49	46246.65
580.65	46384.74
580.82	46295.80
580.98	46146.00
581.14	45834.71
581.30	46518.15
581.46	46417.50
581.62	46106.21
581.78	46412.82
581.94	46450.27
582.10	46043.02
582.26	46337.93
582.42	46483.04
582.58	46391.76
582.74	45958.76
582.90	46586.02
583.06	46319.20
583.22	46160.05
583.38	46408.14
583.54	46454.95
583.70	46478.36
583.86	46560.28
584.02	46124.94
584.18	46277.07
584.34	46089.83
584.50	45996.21
584.66	46248.99
584.82	46136.64
584.98	46260.69
585.14	46674.96
585.30	46061.74
585.46	46192.81
585.62	45888.54
585.78	45993.87
585.94	45904.93
586.10	45923.65
586.26	46148.34
586.42	46564.96
586.58	46190.47
586.74	46461.97
586.90	46354.31
587.06	46146.00
587.22	46211.54
587.38	46012.59
587.54	46295.80
587.70	46279.41
587.86	46256.01
588.02	46476.02
588.18	46258.35
588.34	46012.59
588.49	45837.05
588.65	45764.49
588.81	46036.00
588.97	45610.02
589.13	45872.16
589.29	46052.38
589.45	45949.40
589.61	45947.06
589.77	46440.91
589.93	46195.15
590.08	46614.11
