SpectraSuite Data File
++++++++++++++++++++++++++++++++++++
Date: Fri Oct 25 11:33:20 EDT 2013
User: price-jones
Dark Spectrum Present: No
Reference Spectrum Present: No
Number of Sampled Component Spectra: 1
Spectrometers: USB2+H05261
Integration Time (usec): 100000 (USB2+H05261)
Spectra Averaged: 1 (USB2+H05261)
Boxcar Smoothing: 0 (USB2+H05261)
Correct for Electrical Dark: No (USB2+H05261)
Strobe/Lamp Enabled: No (USB2+H05261)
Correct for Detector Non-linearity: No (USB2+H05261)
Correct for Stray Light: No (USB2+H05261)
Number of Pixels in Processed Spectrum: 2048
>>>>>Begin Processed Spectral Data<<<<<
365.73	250.44
365.92	250.44
366.12	250.44
366.32	140.43
366.52	234.05
366.72	182.56
366.91	194.26
367.11	140.43
367.31	159.16
367.51	145.11
367.70	95.96
367.90	227.03
368.10	201.29
368.30	238.73
368.49	189.58
368.69	170.86
368.89	182.56
369.09	210.65
369.28	210.65
369.48	241.08
369.68	248.10
369.87	140.43
370.07	175.54
370.27	252.78
370.47	325.33
370.66	386.19
370.86	489.17
371.06	524.28
371.25	543.00
371.45	575.77
371.65	617.90
371.84	547.69
372.04	543.00
372.24	517.26
372.44	568.75
372.63	575.77
372.83	592.16
373.03	585.13
373.22	575.77
373.42	533.64
373.62	629.60
373.81	571.09
374.01	681.10
374.21	660.03
374.40	580.45
374.60	690.46
374.79	706.84
374.99	620.24
375.19	624.92
375.38	685.78
375.58	737.27
375.78	692.80
375.97	709.18
376.17	718.54
376.37	683.44
376.56	664.71
376.76	601.52
376.95	699.82
377.15	699.82
377.35	739.61
377.54	674.07
377.74	643.65
377.93	610.88
378.13	660.03
378.33	748.97
378.52	688.12
378.72	739.61
378.91	772.38
379.11	770.04
379.31	727.91
379.50	688.12
379.70	727.91
379.89	725.57
380.09	688.12
380.28	739.61
380.48	788.76
380.68	685.78
380.87	660.03
381.07	760.67
381.26	800.46
381.46	737.27
381.65	711.52
381.85	748.97
382.04	814.51
382.24	805.14
382.43	767.70
382.63	835.57
382.83	753.65
383.02	781.74
383.22	779.40
383.41	695.14
383.61	828.55
383.80	842.59
384.00	877.70
384.19	847.27
384.39	863.66
384.58	896.43
384.78	821.53
384.97	812.17
385.17	823.87
385.36	891.74
385.56	866.00
385.75	746.63
385.95	931.53
386.14	847.27
386.34	866.00
386.53	910.47
386.72	903.45
386.92	875.36
387.11	795.78
387.31	884.72
387.50	833.23
387.70	828.55
387.89	894.08
388.09	858.98
388.28	837.91
388.48	908.13
388.67	976.00
388.86	877.70
389.06	882.38
389.25	889.40
389.45	954.94
389.64	917.49
389.84	957.28
390.03	908.13
390.22	1046.22
390.42	961.96
390.61	943.24
390.81	992.39
391.00	936.21
391.19	1036.86
391.39	1034.52
391.58	1057.92
391.78	1006.43
391.97	1008.77
392.16	1015.79
392.36	1013.45
392.55	990.05
392.75	1046.22
392.94	1071.97
393.13	994.73
393.33	1053.24
393.52	1104.73
393.71	1107.07
393.91	1100.05
394.10	1086.01
394.29	1153.88
394.49	1064.94
394.68	1121.12
394.88	1116.44
395.07	1144.52
395.26	1165.59
395.46	1090.69
395.65	1186.65
395.84	1130.48
396.04	1217.08
396.23	1228.78
396.42	1179.63
396.62	1249.85
396.81	1273.25
397.00	1252.19
397.19	1207.72
397.39	1160.91
397.58	1221.76
397.77	1263.89
397.97	1256.87
398.16	1240.48
398.35	1261.55
398.55	1341.13
398.74	1273.25
398.93	1310.70
399.12	1343.47
399.32	1301.34
399.51	1357.51
399.70	1313.04
399.90	1364.53
400.09	1413.68
400.28	1418.36
400.47	1401.98
400.67	1427.73
400.86	1378.58
401.05	1411.34
401.24	1432.41
401.44	1455.81
401.63	1411.34
401.82	1486.24
402.01	1448.79
402.21	1462.83
402.40	1411.34
402.59	1547.09
402.78	1488.58
402.97	1495.60
403.17	1533.05
403.36	1542.41
403.55	1673.48
403.74	1561.14
403.93	1565.82
404.13	1657.10
404.32	1668.80
404.51	1647.74
404.70	1626.67
404.89	1575.18
405.09	1771.79
405.28	1776.47
405.47	1652.42
405.66	1668.80
405.85	1748.38
406.05	1753.06
406.24	1734.34
406.43	1806.89
406.62	1776.47
406.81	1746.04
407.00	1767.10
407.20	1734.34
407.39	1844.34
407.58	1898.17
407.77	1830.30
407.96	1860.73
408.15	1879.45
408.34	1842.00
408.54	1867.75
408.73	1933.28
408.92	1907.54
409.11	1916.90
409.30	2045.63
409.49	2019.88
409.68	2010.52
409.87	2031.58
410.07	1994.14
410.26	2062.01
410.45	2062.01
410.64	2129.89
410.83	2106.48
411.02	2118.18
411.21	2125.21
411.40	2157.97
411.59	2399.05
411.78	2293.72
411.98	2193.08
412.17	2307.77
412.36	2352.24
412.55	2385.01
412.74	2326.49
412.93	2300.75
413.12	2237.55
413.31	2499.69
413.50	2441.18
413.69	2462.24
413.88	2546.50
414.07	2600.34
414.26	2497.35
414.45	2464.58
414.64	2583.95
414.83	2658.85
415.02	2581.61
415.22	2703.32
415.41	2789.92
415.60	2607.36
415.79	2754.81
415.98	2754.81
416.17	2771.19
416.36	2752.47
416.55	2789.92
416.74	2768.85
416.93	2710.34
417.12	2731.41
417.31	2951.42
417.50	2911.63
417.69	3014.61
417.88	3030.99
418.07	2890.56
418.26	3033.33
418.45	2916.31
418.64	3103.55
418.83	3042.70
419.02	3239.30
419.21	3110.57
419.39	3089.51
419.58	3122.27
419.77	3026.31
419.96	3272.07
420.15	3126.96
420.34	3131.64
420.53	3183.13
420.72	3229.94
420.91	3295.47
421.10	3267.39
421.29	3375.05
421.48	3173.77
421.67	3314.20
421.86	3267.39
422.05	3309.52
422.24	3194.83
422.43	3419.52
422.61	3398.46
422.80	3442.93
422.99	3508.46
423.18	3492.08
423.37	3454.63
423.56	3335.26
423.75	3417.18
423.94	3438.25
424.13	3297.81
424.32	3342.28
424.50	3342.28
424.69	3616.13
424.88	3576.34
425.07	3337.60
425.26	3375.05
425.45	3592.72
425.64	3384.41
425.83	3452.29
426.01	3566.98
426.20	3559.95
426.39	3557.61
426.58	3578.68
426.77	3529.53
426.96	3496.76
427.15	3435.91
427.33	3489.74
427.52	3611.45
427.71	3651.24
427.90	3588.04
428.09	3721.45
428.28	3747.20
428.46	3669.96
428.65	3655.92
428.84	3765.92
429.03	3882.95
429.22	3719.11
429.40	3815.07
429.59	3845.50
429.78	3623.15
429.97	3676.98
430.16	3712.09
430.34	3831.46
430.53	3852.52
430.72	3974.23
430.91	3929.76
431.10	3941.46
431.28	3969.55
431.47	4028.06
431.66	4114.66
431.85	4014.02
432.03	4063.17
432.22	4102.96
432.41	4121.68
432.60	4159.13
432.79	4152.11
432.97	4212.96
433.16	4205.94
433.35	4250.41
433.54	4271.48
433.72	4217.65
433.91	4236.37
434.10	4175.52
434.28	4299.56
434.47	4315.95
434.66	4241.05
434.85	4297.22
435.03	4409.57
435.22	4365.10
435.41	4564.04
435.59	4376.80
435.78	4505.53
435.97	4400.21
436.16	4278.50
436.34	4498.51
436.53	4486.81
436.72	4568.73
436.90	4542.98
437.09	4423.61
437.28	4458.72
437.46	4524.26
437.65	4465.74
437.84	4624.90
438.02	4739.58
438.21	4631.92
438.40	4599.15
438.58	4940.87
438.77	4648.30
438.96	4873.00
439.14	5008.75
439.33	4945.55
439.52	4823.84
439.70	5013.43
439.89	5102.37
440.08	5095.35
440.26	4917.47
440.45	5043.85
440.63	4945.55
440.82	5226.42
441.01	5008.75
441.19	5256.84
441.38	5212.37
441.57	5266.21
441.75	5441.75
441.94	5483.88
442.12	5434.72
442.31	5542.39
442.50	5558.77
442.68	5416.00
442.87	5432.38
443.05	5472.17
443.24	5610.26
443.43	5483.88
443.61	5701.54
443.80	5750.70
443.98	5638.35
444.17	5343.44
444.35	5591.54
444.54	5710.91
444.73	5713.25
444.91	5682.82
445.10	5767.08
445.28	5720.27
445.47	5708.57
445.65	5706.23
445.84	5710.91
446.02	5909.85
446.21	5912.19
446.39	5783.46
446.58	5727.29
446.77	5802.19
446.95	5661.76
447.14	5879.43
447.32	5804.53
447.51	5720.27
447.69	5722.61
447.88	5668.78
448.06	5970.71
448.25	5881.77
448.43	5860.70
448.62	5671.12
448.80	5795.17
448.99	5963.68
449.17	6017.52
449.36	5675.80
449.54	6022.20
449.73	5949.64
449.91	6122.84
450.10	6005.81
450.28	6188.38
450.46	6090.07
450.65	6164.97
450.83	6223.48
451.02	6157.95
451.20	6267.95
451.39	6202.42
451.57	6272.64
451.76	6338.17
451.94	6382.64
452.13	6387.32
452.31	6122.84
452.49	6331.15
452.68	6354.55
452.86	6335.83
453.05	6401.37
453.23	6361.58
453.42	6363.92
453.60	6345.19
453.78	6445.84
453.97	6392.00
454.15	6373.28
454.34	6331.15
454.52	6729.04
454.70	6497.33
454.89	6604.99
455.07	6677.55
455.26	6719.68
455.44	6782.87
455.62	6792.23
455.81	6637.76
455.99	6862.45
456.17	6778.19
456.36	6754.79
456.54	6925.65
456.73	6911.60
456.91	7269.70
457.09	7204.17
457.28	7222.89
457.46	6937.35
457.64	7192.47
457.83	7012.24
458.01	6937.35
458.19	7351.62
458.38	7267.36
458.56	7353.96
458.74	7192.47
458.93	7342.26
459.11	7155.02
459.29	7260.34
459.48	7318.86
459.66	7267.36
459.84	7218.21
460.03	7611.42
460.21	7304.81
460.39	7208.85
460.57	7583.34
460.76	7398.43
460.94	7513.12
461.12	7433.54
461.31	7630.15
461.49	7763.56
461.67	7620.78
461.85	7915.69
462.04	7529.50
462.22	8161.45
462.40	7665.25
462.59	7976.55
462.77	7793.98
462.95	7709.72
463.13	7754.19
463.32	7740.15
463.50	8030.38
463.68	8009.31
463.86	8004.63
464.05	7826.75
464.23	7920.37
464.41	8107.62
464.59	7906.33
464.78	8147.40
464.96	7955.48
465.14	8065.49
465.32	7995.27
465.50	8205.92
465.69	8365.07
465.87	8198.90
466.05	8266.77
466.23	8322.94
466.41	8180.17
466.60	8212.94
466.78	8379.12
466.96	8243.37
467.14	8348.69
467.32	8397.84
467.51	8533.59
467.69	8299.54
467.87	8439.97
468.05	8351.03
468.23	8414.23
468.41	8479.76
468.60	8561.68
468.78	8571.04
468.96	8468.06
469.14	8657.64
469.32	8753.60
469.50	8374.44
469.69	8650.62
469.87	8861.27
470.05	8816.80
470.23	8774.67
470.41	8638.92
470.59	9039.15
470.77	8910.42
470.95	8760.63
471.14	9069.58
471.32	8769.99
471.50	9289.59
471.68	9329.38
471.86	9273.20
472.04	9334.06
472.22	9425.34
472.40	9179.58
472.58	9376.19
472.77	9547.05
472.95	9514.28
473.13	9774.08
473.31	9685.14
473.49	9415.98
473.67	9413.63
473.85	9689.82
474.03	9900.47
474.21	9652.37
474.39	9795.14
474.57	9795.14
474.75	10076.01
474.93	9970.68
475.12	10019.83
475.30	10328.78
475.48	10083.03
475.66	10242.18
475.84	10455.17
476.02	10459.85
476.20	10317.08
476.38	10572.20
476.56	10839.02
476.74	10675.18
476.92	10764.12
477.10	10590.92
477.28	10490.28
477.46	10888.17
477.64	10925.62
477.82	11019.24
478.00	11463.94
478.18	11073.07
478.36	11403.09
478.54	11370.32
478.72	11382.03
478.90	11651.19
479.08	11688.64
479.26	11742.47
479.44	11651.19
479.62	11768.21
479.80	12208.23
479.98	12042.06
480.16	12224.62
480.34	12091.21
480.52	12453.99
480.70	12498.46
480.88	12123.98
481.06	12556.97
481.24	12425.90
481.41	12706.77
481.59	12807.41
481.77	12903.37
481.95	13111.68
482.13	13188.92
482.31	13146.79
482.49	13348.08
482.67	13046.15
482.85	13497.87
483.03	13495.53
483.21	14010.45
483.39	13933.21
483.57	13877.04
483.74	13834.91
483.92	14136.84
484.10	14300.67
484.28	14202.37
484.46	14555.79
484.64	14916.23
484.82	14647.07
485.00	14728.99
485.18	14998.15
485.35	14974.75
485.53	15150.29
485.71	15257.95
485.89	15424.13
486.07	15454.56
486.25	15747.12
486.43	15726.06
486.61	15529.45
486.78	15866.49
486.96	16156.72
487.14	16205.87
487.32	15985.86
487.50	16170.76
487.68	16507.80
487.85	16896.33
488.03	17018.04
488.21	17252.09
488.39	17326.99
488.57	17296.56
488.75	17350.39
488.92	17301.24
489.10	17654.66
489.28	17771.69
489.46	18026.81
489.64	17987.02
489.81	18473.85
489.99	18061.91
490.17	18581.51
490.35	18459.81
490.53	18726.63
490.70	18764.07
490.88	19005.15
491.06	18855.36
491.24	18906.85
491.41	18902.17
491.59	19442.83
491.77	19777.53
491.95	19798.59
492.13	19763.48
492.30	19772.85
492.48	19910.94
492.66	20194.14
492.84	20016.26
493.01	20355.64
493.19	20198.82
493.37	20276.06
493.54	20526.50
493.72	20842.47
493.90	20783.96
494.08	21001.63
494.25	20987.58
494.43	21240.36
494.61	21137.38
494.79	21488.46
494.96	21453.35
495.14	21869.97
495.32	22087.64
495.49	21986.99
495.67	22075.93
495.85	22235.09
496.02	22499.57
496.20	22750.01
496.38	22450.42
496.55	22537.02
496.73	23349.18
496.91	22759.37
497.09	23218.11
497.26	23110.45
497.44	23300.03
497.62	23480.25
497.79	23793.89
497.97	23335.14
498.14	23953.04
498.32	23831.33
498.50	23931.98
498.67	24339.23
498.85	23838.36
499.03	23917.93
499.20	24372.00
499.38	24320.51
499.56	24575.62
499.73	24664.57
499.91	24807.34
500.08	24903.30
500.26	24678.61
500.44	24926.71
500.61	24802.66
500.79	24706.70
500.97	25371.41
501.14	25415.88
501.32	25715.47
501.49	25432.26
501.67	25523.54
501.84	25776.32
502.02	25532.90
502.20	25781.00
502.37	26120.38
502.55	26178.89
502.72	26232.72
502.90	26080.59
503.07	26132.08
503.25	26356.77
503.43	26150.81
503.60	26632.96
503.78	26824.88
503.95	26462.10
504.13	26768.71
504.30	26806.16
504.48	27182.98
504.65	27077.66
504.83	27192.34
505.01	27222.77
505.18	27281.28
505.36	27716.62
505.53	27250.86
505.71	27798.54
505.88	27751.73
506.06	27522.36
506.23	27831.31
506.41	28402.40
506.58	27915.57
506.76	28023.23
506.93	28456.23
507.11	27960.04
507.28	28264.31
507.46	28692.63
507.63	28524.11
507.81	28755.82
507.98	28795.61
508.16	28957.11
508.33	28477.30
508.50	28938.38
508.68	28971.15
508.85	29668.63
509.03	29221.59
509.20	29434.58
509.38	29390.11
509.55	29743.53
509.73	29352.66
509.90	29745.87
510.08	29825.45
510.25	29757.57
510.42	30003.33
510.60	30019.71
510.77	29972.90
510.95	30562.72
511.12	30160.14
511.30	30249.08
511.47	30448.03
511.64	30162.48
511.82	30490.16
511.99	30422.28
512.17	30705.49
512.34	30876.35
512.51	31304.67
512.69	31290.62
512.86	31182.96
513.04	31498.93
513.21	31126.78
513.38	31407.65
513.56	31330.41
513.73	31103.38
513.90	31269.56
514.08	31545.74
514.25	31824.26
514.43	31676.81
514.60	31941.29
514.77	31924.91
514.95	31899.16
515.12	32020.87
515.29	32383.65
515.47	32533.45
515.64	32744.09
515.81	32151.94
515.99	32561.53
516.16	32664.52
516.33	32425.78
516.51	32655.15
516.68	32533.45
516.85	32769.84
517.03	33053.05
517.20	33163.05
517.37	33216.88
517.54	33472.00
517.72	33638.18
517.89	33460.30
518.06	33326.89
518.24	33261.35
518.41	33284.76
518.58	33104.54
518.75	33212.20
518.93	34134.37
519.10	33689.67
519.27	33677.97
519.45	34057.14
519.62	33886.28
519.79	34192.89
519.96	33984.58
520.14	34251.40
520.31	34094.58
520.48	34277.15
520.65	33993.94
520.83	34440.98
521.00	34471.41
521.17	34862.28
521.34	34731.21
521.52	34866.96
521.69	34885.68
521.86	35253.15
522.03	35063.57
522.20	35201.66
522.38	35416.99
522.55	35683.81
522.72	35250.81
522.89	35276.55
523.07	36154.26
523.24	36140.21
523.41	35302.30
523.58	35641.68
523.75	35625.29
523.92	36030.21
524.10	35882.75
524.27	36091.06
524.44	36009.14
524.61	36034.89
524.78	36151.91
524.96	36495.97
525.13	36388.31
525.30	36559.17
525.47	36507.68
525.64	36849.39
525.81	36481.93
525.98	37038.98
526.16	36439.80
526.33	36741.73
526.50	37350.27
526.67	36451.50
526.84	36655.13
527.01	36804.92
527.18	36769.82
527.36	37024.93
527.53	37254.31
527.70	37368.99
527.87	37699.01
528.04	37207.50
528.21	37663.90
528.38	37134.94
528.55	37689.65
528.72	37546.87
528.89	37825.40
529.07	37504.74
529.24	37940.08
529.41	38017.32
529.58	38242.01
529.75	37731.78
529.92	37883.91
530.09	38557.99
530.26	38052.43
530.43	38508.83
530.60	37853.48
530.77	37883.91
530.94	38429.26
531.11	38082.86
531.28	38066.47
531.46	38244.35
531.63	38878.64
531.80	38436.28
531.97	38813.10
532.14	38663.31
532.31	38480.75
532.48	39138.44
532.65	39253.12
532.82	39035.45
532.99	39033.11
533.16	39000.35
533.33	39082.27
533.50	39173.55
533.67	39555.05
533.84	39077.58
534.01	39360.79
534.18	39393.56
534.35	39533.99
534.52	39768.04
534.69	39608.89
534.86	39594.84
535.03	39828.90
535.20	39936.56
535.37	39669.74
535.54	39969.33
535.71	39772.72
535.88	40172.96
536.05	39878.05
536.22	40472.54
536.38	39697.83
536.55	40034.86
536.72	40289.98
536.89	39868.69
537.06	40135.51
537.23	40219.77
537.40	40336.79
537.57	40364.88
537.74	40046.57
537.91	40311.05
538.08	40151.89
538.25	40123.80
538.42	40797.88
538.59	40811.92
538.75	40692.55
538.92	40938.31
539.09	41092.79
539.26	40594.25
539.43	40605.95
539.60	41237.90
539.77	40896.18
539.94	41413.44
540.11	41205.13
540.28	41097.47
540.44	40959.38
540.61	41179.39
540.78	41027.25
540.95	41387.69
541.12	41343.22
541.29	41144.28
541.46	41523.44
541.62	41345.56
541.79	41745.80
541.96	41280.03
542.13	41256.62
542.30	41588.98
542.47	41703.67
542.63	42225.60
542.80	41869.84
542.97	42366.04
543.14	42270.08
543.31	42307.52
543.48	42258.37
543.64	43269.48
543.81	42564.98
543.98	42445.62
544.15	42150.71
544.32	42279.44
544.48	43058.84
544.65	42796.70
544.82	42607.11
544.99	42632.86
545.16	43122.03
545.32	42550.94
545.49	43129.05
545.66	43346.72
545.83	43145.44
546.00	42822.44
546.16	43117.35
546.33	42969.90
546.50	42689.03
546.67	43316.29
546.83	42747.54
547.00	43309.27
547.17	43257.78
547.34	43398.21
547.50	43540.99
547.67	44128.46
547.84	43110.33
548.00	43604.18
548.17	43716.53
548.34	43552.69
548.51	43501.20
548.67	43316.29
548.84	43543.33
549.01	43707.16
549.18	43269.48
549.34	43866.32
549.51	43882.70
549.68	44140.16
549.84	44205.70
550.01	44240.81
550.18	43959.94
550.34	43861.64
550.51	44175.27
550.68	44107.40
550.84	44404.64
551.01	44311.02
551.18	43973.98
551.34	43711.84
551.51	43957.60
551.68	44058.24
551.84	44587.21
552.01	44041.86
552.18	44385.92
552.34	44357.83
552.51	44755.72
552.68	44329.75
552.84	44477.20
553.01	44397.62
553.18	44914.88
553.34	44594.23
553.51	44477.20
553.67	44634.02
553.84	44851.69
554.01	45088.08
554.17	44790.83
554.34	44987.44
554.51	44933.60
554.67	45495.33
554.84	45364.26
555.00	45277.66
555.17	45120.85
555.33	45572.57
555.50	45074.04
555.67	45467.25
555.83	45116.17
556.00	45347.88
556.16	45485.97
556.33	45357.24
556.50	45202.77
556.66	45420.44
556.83	45106.80
556.99	45413.41
557.16	45249.58
557.32	45427.46
557.49	45738.75
557.65	45038.93
557.82	45261.28
557.98	45577.25
558.15	45249.58
558.32	45504.70
558.48	45530.44
558.65	45453.20
558.81	45907.27
558.98	45574.91
559.14	45745.77
559.31	45467.25
559.47	45834.71
559.64	45834.71
559.80	45476.61
559.97	45804.28
560.13	45462.57
560.30	46237.28
560.46	46038.34
560.63	45815.99
560.79	45998.55
560.96	46316.86
561.12	46096.85
561.29	46244.30
561.45	45944.72
561.61	46101.53
561.78	46167.07
561.94	46115.58
562.11	46136.64
562.27	46335.59
562.44	46036.00
562.60	46452.61
562.77	46092.17
562.93	46080.47
563.10	46202.18
563.26	46141.32
563.42	46457.29
563.59	46394.10
563.75	46548.57
563.92	46693.69
564.08	46426.87
564.24	46658.58
564.41	46408.14
564.57	46653.90
564.74	46270.05
564.90	46426.87
565.07	45991.53
565.23	46405.80
565.39	46698.37
565.56	46422.19
565.72	46330.90
565.88	46761.56
566.05	46424.53
566.21	46726.46
566.38	46230.26
566.54	46583.68
566.70	46295.80
566.87	46562.62
567.03	46953.49
567.19	46637.51
567.36	46593.04
567.52	46497.08
567.68	46953.49
567.85	46841.14
568.01	46813.05
568.17	46897.31
568.34	47009.66
568.50	46967.53
568.66	46532.19
568.83	46925.40
568.99	47372.44
569.15	46749.86
569.32	46925.40
569.48	46710.07
569.64	46803.69
569.81	47140.73
569.97	47194.56
570.13	47026.04
570.30	46363.67
570.46	46742.84
570.62	47728.20
570.78	46932.42
570.95	47131.37
571.11	47117.32
571.27	47129.03
571.43	46665.60
571.60	46754.54
571.76	47114.98
571.92	47262.44
572.09	46967.53
572.25	47154.77
572.41	47152.43
572.57	47079.88
572.74	47489.47
572.90	47168.82
573.06	47199.24
573.22	47054.13
573.38	47398.19
573.55	47213.29
573.71	47461.38
573.87	47742.25
574.03	47201.58
574.20	47517.56
574.36	47576.07
574.52	47461.38
574.68	47400.53
574.84	47447.34
575.01	47690.76
575.17	47636.92
575.33	47334.99
575.49	47189.88
575.65	47168.82
575.82	47445.00
575.98	47498.83
576.14	48098.01
576.30	47615.86
576.46	47674.37
576.62	47239.03
576.79	47264.78
576.95	46948.81
577.11	47334.99
577.27	47201.58
577.43	47571.39
577.59	47232.01
577.75	47643.94
577.92	47430.96
578.08	47540.96
578.24	47503.51
578.40	47388.83
578.56	47435.64
578.72	47697.78
578.88	47728.20
579.04	47405.21
579.21	47753.95
579.37	47746.93
579.53	47611.18
579.69	47430.96
579.85	47346.70
580.01	47718.84
580.17	47515.22
580.33	47964.60
580.49	47702.46
580.65	47529.26
580.82	47526.92
580.98	47814.80
581.14	47112.64
581.30	47622.88
581.46	47866.30
581.62	47604.16
581.78	47648.63
581.94	47777.36
582.10	47564.37
582.26	48177.59
582.42	47456.70
582.58	47805.44
582.74	47648.63
582.90	47508.19
583.06	47969.28
583.22	47505.85
583.38	47758.63
583.54	48048.86
583.70	47775.02
583.86	48289.93
584.02	47721.18
584.18	47693.10
584.34	47725.86
584.50	47648.63
584.66	47906.08
584.82	47999.71
584.98	48048.86
585.14	48053.54
585.30	47463.72
585.46	47980.98
585.62	47739.91
585.78	48163.54
585.94	47260.10
586.10	47831.19
586.26	47412.23
586.42	47737.57
586.58	47777.36
586.74	47913.11
586.90	47545.64
587.06	47655.65
587.22	48023.11
587.38	47573.73
587.54	47952.90
587.70	48308.66
587.86	48200.99
588.02	47650.97
588.18	47536.28
588.34	47959.92
588.49	47908.43
588.65	48011.41
588.81	47943.53
588.97	47985.66
589.13	47529.26
589.29	47978.64
589.45	47735.23
589.61	48226.74
589.77	48119.07
589.93	47878.00
