SpectraSuite Data File
++++++++++++++++++++++++++++++++++++
Date: Fri Oct 25 11:23:48 EDT 2013
User: price-jones
Dark Spectrum Present: No
Reference Spectrum Present: No
Number of Sampled Component Spectra: 1
Spectrometers: USB2+H05261
Integration Time (usec): 100000 (USB2+H05261)
Spectra Averaged: 1 (USB2+H05261)
Boxcar Smoothing: 0 (USB2+H05261)
Correct for Electrical Dark: No (USB2+H05261)
Strobe/Lamp Enabled: No (USB2+H05261)
Correct for Detector Non-linearity: No (USB2+H05261)
Correct for Stray Light: No (USB2+H05261)
Number of Pixels in Processed Spectrum: 2048
>>>>>Begin Processed Spectral Data<<<<<
365.73	212.99
365.92	212.99
366.12	212.99
366.32	126.39
366.52	84.26
366.72	121.71
366.91	126.39
367.11	37.45
367.31	35.11
367.51	163.84
367.70	117.03
367.90	163.84
368.10	74.90
368.30	93.62
368.49	142.77
368.69	198.95
368.89	77.24
369.09	102.98
369.28	177.88
369.48	126.39
369.68	217.67
369.87	201.29
370.07	154.48
370.27	163.84
370.47	322.99
370.66	552.37
370.86	631.94
371.06	678.76
371.25	706.84
371.45	636.63
371.65	599.18
371.84	699.82
372.04	751.31
372.24	727.91
372.44	692.80
372.63	720.88
372.83	697.48
373.03	739.61
373.22	744.29
373.42	788.76
373.62	767.70
373.81	723.23
374.01	741.95
374.21	805.14
374.40	870.68
374.60	791.10
374.79	924.51
374.99	784.08
375.19	835.57
375.38	851.96
375.58	816.85
375.78	903.45
375.97	866.00
376.17	943.24
376.37	877.70
376.56	849.61
376.76	926.85
376.95	926.85
377.15	833.23
377.35	938.55
377.54	978.34
377.74	980.68
377.93	884.72
378.13	887.06
378.33	903.45
378.52	833.23
378.72	1001.75
378.91	952.60
379.11	922.17
379.31	959.62
379.50	924.51
379.70	926.85
379.89	980.68
380.09	964.30
380.28	1036.86
380.48	1006.43
380.68	992.39
380.87	1022.81
381.07	966.64
381.26	1013.45
381.46	1050.90
381.65	1032.18
381.85	1076.65
382.04	1081.33
382.24	1046.22
382.43	1083.67
382.63	971.32
382.83	1071.97
383.02	1167.93
383.22	1158.57
383.41	1062.60
383.61	1181.97
383.80	1153.88
384.00	1135.16
384.19	1167.93
384.39	1104.73
384.58	1170.27
384.78	1116.44
384.97	1116.44
385.17	1125.80
385.36	1163.25
385.56	1174.95
385.75	1149.20
385.95	1200.69
386.14	1144.52
386.34	1226.44
386.53	1149.20
386.72	1114.10
386.92	1235.80
387.11	1207.72
387.31	1219.42
387.50	1184.31
387.70	1231.12
387.89	1341.13
388.09	1310.70
388.28	1284.95
388.48	1226.44
388.67	1294.32
388.86	1284.95
389.06	1345.81
389.25	1341.13
389.45	1320.06
389.64	1399.64
389.84	1406.66
390.03	1294.32
390.22	1420.71
390.42	1345.81
390.61	1371.55
390.81	1329.42
391.00	1322.40
391.19	1441.77
391.39	1423.05
391.58	1432.41
391.78	1458.15
391.97	1455.81
392.16	1495.60
392.36	1511.99
392.55	1453.47
392.75	1511.99
392.94	1652.42
393.13	1474.54
393.33	1519.01
393.52	1528.37
393.71	1612.63
393.91	1603.27
394.10	1603.27
394.29	1589.22
394.49	1565.82
394.68	1621.99
394.88	1636.03
395.07	1631.35
395.26	1694.55
395.46	1729.66
395.65	1748.38
395.84	1720.29
396.04	1865.41
396.23	1762.42
396.42	1743.70
396.62	1760.08
396.81	1708.59
397.00	1806.89
397.19	1839.66
397.39	1746.04
397.58	1856.04
397.77	1781.15
397.97	1891.15
398.16	1823.28
398.35	1928.60
398.55	1914.56
398.74	1877.11
398.93	1928.60
399.12	1856.04
399.32	1888.81
399.51	1884.13
399.70	1998.82
399.90	2024.56
400.09	2012.86
400.28	2120.53
400.47	1998.82
400.67	1994.14
400.86	2115.84
401.05	2106.48
401.24	2101.80
401.44	2045.63
401.63	2242.23
401.82	2153.29
402.01	2179.04
402.21	2169.68
402.40	2216.49
402.59	2209.47
402.78	2335.85
402.97	2305.43
403.17	2239.89
403.36	2396.71
403.55	2359.26
403.74	2331.17
403.93	2438.84
404.13	2396.71
404.32	2438.84
404.51	2375.64
404.70	2464.58
404.89	2370.96
405.09	2476.29
405.28	2459.90
405.47	2579.27
405.66	2466.92
405.85	2527.78
406.05	2417.77
406.24	2499.69
406.43	2572.25
406.62	2630.76
406.81	2590.97
407.00	2567.57
407.20	2665.87
407.39	2614.38
407.58	2799.28
407.77	2757.15
407.96	2850.77
408.15	2796.94
408.34	2799.28
408.54	2972.48
408.73	2799.28
408.92	2740.77
409.11	2864.82
409.30	2883.54
409.49	2871.84
409.68	2991.20
409.87	3035.67
410.07	2995.89
410.26	3033.33
410.45	2995.89
410.64	3059.08
410.83	3227.60
411.02	3178.45
411.21	3239.30
411.40	3152.70
411.59	3211.22
411.78	3185.47
411.98	3206.53
412.17	3346.97
412.36	3255.69
412.55	3407.82
412.74	3372.71
412.93	3323.56
413.12	3279.09
413.31	3534.21
413.50	3440.59
413.69	3508.46
413.88	3597.40
414.07	3756.56
414.26	3606.77
414.45	3639.53
414.64	3681.66
414.83	3740.18
415.02	3669.96
415.22	3679.32
415.41	3946.14
415.60	3822.09
415.79	3908.69
415.98	4042.11
416.17	3981.25
416.36	3962.53
416.55	4011.68
416.74	4058.49
416.93	4166.15
417.12	4051.47
417.31	4332.33
417.50	4140.41
417.69	4447.02
417.88	4411.91
418.07	4334.67
418.26	4248.07
418.45	4306.59
418.64	4498.51
418.83	4430.63
419.02	4348.72
419.21	4550.00
419.39	4507.87
419.58	4440.00
419.77	4475.10
419.96	4664.69
420.15	4482.13
420.34	4725.54
420.53	4575.75
420.72	4662.35
420.91	4681.07
421.10	4655.33
421.29	4730.22
421.48	4826.18
421.67	4758.31
421.86	4751.29
422.05	4741.93
422.24	4748.95
422.43	4936.19
422.61	4891.72
422.80	4964.28
422.99	5057.90
423.18	4887.04
423.37	5090.67
423.56	4954.91
423.75	5027.47
423.94	4901.08
424.13	4582.77
424.32	4894.06
424.50	5076.62
424.69	5085.98
424.88	5132.79
425.07	4870.65
425.26	4933.85
425.45	5013.43
425.64	5069.60
425.83	4992.36
426.01	5114.07
426.20	5039.17
426.39	5212.37
426.58	5093.01
426.77	4971.30
426.96	5181.95
427.15	5195.99
427.33	5153.86
427.52	5118.75
427.71	5408.98
427.90	5317.70
428.09	5444.09
428.28	5345.78
428.46	5528.35
428.65	5406.64
428.84	5416.00
429.03	5589.20
429.22	5364.51
429.40	5561.11
429.59	5600.90
429.78	5380.89
429.97	5313.02
430.16	5537.71
430.34	5582.18
430.53	5610.26
430.72	5647.71
430.91	5687.50
431.10	5764.74
431.28	5795.17
431.47	5858.36
431.66	5867.72
431.85	5902.83
432.03	5982.41
432.22	6022.20
432.41	5926.24
432.60	5816.23
432.79	5973.05
432.97	6031.56
433.16	6076.03
433.35	5954.32
433.54	6080.71
433.72	6239.87
433.91	6298.38
434.10	6284.34
434.28	6174.33
434.47	6136.88
434.66	6237.53
434.85	6209.44
435.03	6338.17
435.22	6171.99
435.41	6520.73
435.59	6506.69
435.78	6333.49
435.97	6670.53
436.16	6307.74
436.34	6544.14
436.53	6581.59
436.72	6635.42
436.90	6333.49
437.09	6502.01
437.28	6579.25
437.46	6628.40
437.65	6686.91
437.84	6761.81
438.02	6715.00
438.21	6827.34
438.40	6768.83
438.58	7009.90
438.77	7084.80
438.96	7061.40
439.14	6960.75
439.33	7180.76
439.52	7176.08
439.70	7243.96
439.89	7382.05
440.08	7616.10
440.26	7407.80
440.45	7470.99
440.63	7606.74
440.82	7707.38
441.01	7513.12
441.19	7499.08
441.38	7648.87
441.57	7758.88
441.75	7674.62
441.94	7885.26
442.12	7899.31
442.31	8060.80
442.50	8255.07
442.68	7990.59
442.87	7988.25
443.05	8325.29
443.24	8159.11
443.43	8177.83
443.61	8297.20
443.80	8521.89
443.98	8105.28
444.17	7873.56
444.35	8297.20
444.54	8306.56
444.73	8411.89
444.91	8369.76
445.10	8339.33
445.28	8404.86
445.47	8475.08
445.65	8376.78
445.84	8470.40
446.02	8580.40
446.21	8374.44
446.39	8393.16
446.58	8514.87
446.77	8704.45
446.95	8458.70
447.14	8477.42
447.32	8648.28
447.51	8671.68
447.69	8608.49
447.88	8826.16
448.06	8741.90
448.25	8622.53
448.43	8636.58
448.62	8517.21
448.80	8580.40
448.99	8690.41
449.17	8697.43
449.36	8669.34
449.54	8856.59
449.73	8793.39
449.91	8882.33
450.10	9233.41
450.28	9022.77
450.46	9083.62
450.65	9050.85
450.83	9095.32
451.02	8950.21
451.20	9312.99
451.39	9249.80
451.57	9249.80
451.76	9158.52
451.94	9212.35
452.13	9312.99
452.31	9343.42
452.49	9102.34
452.68	9329.38
452.86	9310.65
453.05	9378.53
453.23	9462.79
453.42	9238.09
453.60	9448.74
453.78	9851.31
453.97	9647.69
454.15	9301.29
454.34	9558.75
454.52	9750.67
454.70	9525.98
454.89	9851.31
455.07	9757.69
455.26	9771.74
455.44	10029.20
455.62	9966.00
455.81	9898.13
455.99	9905.15
456.17	10162.61
456.36	10059.62
456.54	10326.44
456.73	10352.19
456.91	10499.64
457.09	10420.06
457.28	10611.99
457.46	10600.29
457.64	10590.92
457.83	10686.89
458.01	10424.75
458.19	10644.76
458.38	10726.68
458.56	11035.63
458.74	10862.43
458.93	10808.59
459.11	10881.15
459.29	10771.15
459.48	10895.19
459.66	11138.61
459.84	11211.17
460.03	11145.63
460.21	11229.89
460.39	11101.16
460.57	10855.40
460.76	11066.05
460.94	11199.46
461.12	11009.88
461.31	11311.81
461.49	11229.89
461.67	11304.79
461.85	11538.84
462.04	11194.78
462.22	11426.50
462.40	11587.99
462.59	11702.68
462.77	11709.70
462.95	11559.91
463.13	11461.60
463.32	11712.04
463.50	11826.73
463.68	11679.27
463.86	12135.68
464.05	11864.18
464.23	11733.11
464.41	12018.65
464.59	11613.74
464.78	12383.77
464.96	11967.16
465.14	11796.30
465.32	11864.18
465.50	12290.15
465.69	12360.37
465.87	12208.23
466.05	12212.92
466.23	12273.77
466.41	12219.94
466.60	12482.08
466.78	12325.26
466.96	12093.55
467.14	12379.09
467.32	12723.15
467.51	12631.87
467.69	12116.95
467.87	12638.89
468.05	12681.02
468.23	12627.19
468.41	12535.91
468.60	12594.42
468.78	12765.28
468.96	12643.57
469.14	13074.23
469.32	13008.70
469.50	12617.83
469.69	12791.03
469.87	13329.35
470.05	13050.83
470.23	13181.90
470.41	13303.60
470.59	13303.60
470.77	13294.24
470.95	13270.84
471.14	13659.37
471.32	13312.97
471.50	13408.93
471.68	13544.68
471.86	13621.92
472.04	13713.20
472.22	14178.97
472.40	13661.71
472.58	13907.46
472.77	14068.96
472.95	14317.06
473.13	14637.71
473.31	14202.37
473.49	14200.03
473.67	14118.11
473.85	14602.60
474.03	14885.81
474.21	14682.18
474.39	14843.68
474.57	14932.62
474.75	14902.19
474.93	15002.83
475.12	15002.83
475.30	15136.24
475.48	15023.90
475.66	15239.23
475.84	15534.14
476.02	15484.98
476.20	15372.64
476.38	15845.43
476.56	16304.17
476.74	16044.37
476.92	16025.65
477.10	16011.60
477.28	16339.28
477.46	16320.56
477.64	16404.81
477.82	16753.55
478.00	17207.62
478.18	16999.31
478.36	16807.39
478.54	17191.23
478.72	17364.43
478.90	17678.07
479.08	17673.39
479.26	17898.08
479.44	17809.14
479.62	18026.81
479.80	18286.61
479.98	18160.22
480.16	18817.91
480.34	18239.79
480.52	18768.76
480.70	18862.38
480.88	18656.41
481.06	18979.40
481.24	19356.23
481.41	19239.20
481.59	19325.80
481.77	19557.52
481.95	19721.35
482.13	19681.56
482.31	19845.40
482.49	20308.83
482.67	20617.78
482.85	20601.40
483.03	20748.85
483.21	20718.42
483.39	20931.41
483.57	20812.04
483.74	21158.44
483.92	21626.55
484.10	21401.86
484.28	22239.77
484.46	22106.36
484.64	22534.68
484.82	22216.36
485.00	22300.62
485.18	22869.37
485.35	22920.87
485.53	22689.15
485.71	23232.16
485.89	23660.48
486.07	23559.83
486.25	23454.51
486.43	23882.83
486.61	24254.97
486.78	24123.90
486.96	24467.96
487.14	24739.46
487.32	24704.35
487.50	25230.98
487.68	25085.86
487.85	25057.78
488.03	25975.27
488.21	25654.61
488.39	26277.19
488.57	26426.99
488.75	26314.64
488.92	26476.14
489.10	26906.80
489.28	27061.27
489.46	27344.48
489.64	27316.39
489.81	27564.49
489.99	27892.16
490.17	27749.39
490.35	28577.94
490.53	28503.04
490.70	28524.11
490.88	28547.51
491.06	29123.29
491.24	29134.99
491.41	29048.39
491.59	29530.54
491.77	29706.08
491.95	29947.15
492.13	30031.41
492.30	30192.91
492.48	30204.61
492.66	30466.75
492.84	30265.47
493.01	31000.40
493.19	31014.44
493.37	31363.18
493.54	30976.99
493.72	31466.16
493.90	31693.19
494.08	31882.78
494.25	32378.97
494.43	32212.79
494.61	32779.20
494.79	32842.40
494.96	32823.67
495.14	33050.70
495.32	33565.62
495.49	33134.96
495.67	33270.72
495.85	33961.17
496.02	33989.26
496.20	34174.16
496.38	34298.21
496.55	34588.44
496.73	34717.17
496.91	34668.02
497.09	35126.76
497.26	35215.70
497.44	35405.28
497.62	35615.93
497.79	35929.56
497.97	35660.40
498.14	35761.05
498.32	36439.80
498.50	36299.37
498.67	36711.30
498.85	36559.17
499.03	37043.66
499.20	36978.12
499.38	36854.08
499.56	37053.02
499.73	37680.28
499.91	37584.32
500.08	37792.63
500.26	37574.96
500.44	37998.60
500.61	38080.52
500.79	37961.15
500.97	38113.28
501.14	38569.69
501.32	38983.96
501.49	38740.55
501.67	38904.38
501.84	38815.44
502.02	39175.89
502.20	39524.63
502.37	39711.87
502.55	39934.22
502.72	39756.34
502.90	39910.82
503.07	39901.45
503.25	39957.63
503.43	39723.57
503.60	40404.67
503.78	40472.54
503.95	40407.01
504.13	40664.47
504.30	40935.97
504.48	41027.25
504.65	41315.14
504.83	41282.37
505.01	41460.25
505.18	41090.44
505.36	41668.56
505.53	41535.15
505.71	42117.94
505.88	41935.38
506.06	41937.72
506.23	42246.67
506.41	42160.07
506.58	42548.60
506.76	42288.80
506.93	42899.68
507.11	42609.45
507.28	43103.31
507.46	42789.67
507.63	43168.84
507.81	43599.50
507.98	42946.49
508.16	43342.04
508.33	43924.83
508.50	43868.66
508.68	44257.19
508.85	44161.23
509.03	44423.37
509.20	44172.93
509.38	44512.31
509.55	44388.26
509.73	44947.65
509.90	44945.31
510.08	45064.67
510.25	44884.45
510.42	45368.94
510.60	45518.74
510.77	45626.40
510.95	45853.44
511.12	45184.04
511.30	45287.03
511.47	46033.66
511.64	45521.08
511.82	46272.39
511.99	45902.59
512.17	46433.89
512.34	45890.88
512.51	46480.70
512.69	47049.45
512.86	46562.62
513.04	46990.94
513.21	46717.09
513.38	46934.76
513.56	46850.50
513.73	47262.44
513.90	47103.28
514.08	47239.03
514.25	47255.42
514.43	48025.45
514.60	47920.13
514.77	47407.55
514.95	47639.26
515.12	48058.22
515.29	47800.76
515.47	47941.19
515.64	48261.85
515.81	48402.28
515.99	48736.98
516.16	48910.17
516.33	48519.31
516.51	49015.50
516.68	48711.23
516.85	48760.38
517.03	49195.72
517.20	49123.16
517.37	49088.06
517.54	49207.42
517.72	49488.29
517.89	49329.13
518.06	49605.31
518.24	49509.35
518.41	49755.11
518.58	49460.20
518.75	49563.18
518.93	49911.92
519.10	49745.75
519.27	50017.25
519.45	50057.04
519.62	50103.85
519.79	50206.83
519.96	50188.11
520.14	50632.81
520.31	50368.33
520.48	50550.89
520.65	50380.03
520.83	50923.04
521.00	50955.80
521.17	51002.61
521.34	50815.37
521.52	51140.71
521.69	51157.09
521.86	51114.96
522.03	51126.66
522.20	51503.49
522.38	51889.68
522.55	51695.41
522.72	51508.17
522.89	51693.07
523.07	52062.88
523.24	52179.90
523.41	52097.98
523.58	51845.21
523.75	51990.32
523.92	51957.55
524.10	52271.18
524.27	52329.70
524.44	52231.40
524.61	52130.75
524.78	52397.57
524.96	52266.50
525.13	52261.82
525.30	52425.66
525.47	52802.49
525.64	52601.20
525.81	52706.52
525.98	52884.40
526.16	52893.77
526.33	53050.58
526.50	53368.90
526.67	52678.44
526.84	52814.19
527.01	53272.93
527.18	52980.37
527.36	52985.05
527.53	52879.72
527.70	53712.95
527.87	53464.86
528.04	53162.93
528.21	53497.62
528.38	53404.00
528.55	53549.12
528.72	53439.11
528.89	53502.31
529.07	53633.38
529.24	53764.45
529.41	53902.54
529.58	53954.03
529.75	53797.21
529.92	53876.79
530.09	53787.85
530.26	54262.98
530.43	54475.97
530.60	53881.47
530.77	53867.43
530.94	54354.26
531.11	54213.83
531.28	54302.77
531.46	54412.77
531.63	54616.40
531.80	54536.82
531.97	54677.25
532.14	54600.02
532.31	54656.19
532.48	54412.77
532.65	54871.52
532.82	54775.56
532.99	55002.59
533.16	54878.54
533.33	54801.30
533.50	55260.05
533.67	54920.67
533.84	55187.49
534.01	55086.85
534.18	55030.68
534.35	55482.40
534.52	55051.74
534.69	55264.73
534.86	55559.64
535.03	55456.65
535.20	55271.75
535.37	55533.89
535.54	55578.36
535.71	55580.70
535.88	55477.72
536.05	55671.98
536.22	56004.34
536.38	55957.53
536.55	55739.86
536.72	55866.25
536.89	55613.47
537.06	55831.14
537.23	55852.20
537.40	55697.73
537.57	55971.57
537.74	55868.59
537.91	56097.96
538.08	55889.65
538.25	55978.59
538.42	56233.71
538.59	56299.25
538.75	56044.13
538.92	56278.18
539.09	56324.99
539.26	56392.87
539.43	56584.79
539.60	56420.95
539.77	56491.17
539.94	56659.69
540.11	56432.66
540.28	56697.14
540.44	56610.54
540.61	56467.76
540.78	56449.04
540.95	56772.03
541.12	56589.47
541.29	56594.15
541.46	56612.88
541.62	56795.44
541.79	56746.29
541.96	56657.35
542.13	56757.99
542.30	57001.41
542.47	56875.02
542.63	57160.56
542.80	56779.06
542.97	57111.41
543.14	57382.91
543.31	57308.02
543.48	57303.34
543.64	57712.93
543.81	57308.02
543.98	57673.14
544.15	57551.43
544.32	57591.22
544.48	57804.21
544.65	57528.03
544.82	57565.48
544.99	57434.41
545.16	57631.01
545.32	57605.26
545.49	57563.14
545.66	57907.19
545.83	57916.56
546.00	57888.47
546.16	57813.57
546.33	57638.03
546.50	57755.06
546.67	58033.58
546.83	57579.52
547.00	57991.45
547.17	57811.23
547.34	57968.05
547.50	58188.06
547.67	58185.72
547.84	58145.93
548.00	58358.92
548.17	58342.53
548.34	58239.55
548.51	58546.16
548.67	58298.06
548.84	58426.79
549.01	58197.42
549.18	58501.69
549.34	58602.33
549.51	58527.44
549.68	58454.88
549.84	58475.94
550.01	58726.38
550.18	58349.56
550.34	58770.85
550.51	58803.62
550.68	58529.78
550.84	58370.62
551.01	58756.81
551.18	58574.25
551.34	58820.00
551.51	58834.05
551.68	58831.71
551.84	58707.66
552.01	58677.23
552.18	58948.73
552.34	58497.01
552.51	58962.78
552.68	58796.60
552.84	58838.73
553.01	59220.23
553.18	58962.78
553.34	59168.74
553.51	58850.43
553.67	59047.04
553.84	59320.88
554.01	59173.42
554.17	59224.92
554.34	59021.29
554.51	59128.95
554.67	59271.73
554.84	59091.51
555.00	59079.80
555.17	59217.89
555.33	59201.51
555.50	59082.14
555.67	59409.82
555.83	58897.24
556.00	59260.02
556.16	59407.48
556.33	59388.75
556.50	59248.32
556.66	59643.87
556.83	59208.53
556.99	59503.44
557.16	59657.91
557.32	59788.98
557.49	59767.92
557.65	59536.21
557.82	59313.86
557.98	59526.84
558.15	59634.51
558.32	59571.32
558.48	59580.68
558.65	59791.33
558.81	59686.00
558.98	59735.15
559.14	59686.00
559.31	59796.01
559.47	59969.21
559.64	59894.31
559.80	59796.01
559.97	59910.69
560.13	59655.57
560.30	59906.01
560.46	60107.30
560.63	59920.05
560.79	59920.05
560.96	60083.89
561.12	60006.65
561.29	59770.26
561.45	60090.91
561.61	59943.46
561.78	59938.78
561.94	59777.28
562.11	60135.38
562.27	59983.25
562.44	60128.36
562.60	60245.39
562.77	60062.83
562.93	59976.23
563.10	60140.07
563.26	60154.11
563.42	60207.94
563.59	59973.89
563.75	60257.09
563.92	60413.91
564.08	60158.79
564.24	60402.21
564.41	60453.70
564.57	60385.82
564.74	60219.64
564.90	60264.11
565.07	60416.25
565.23	60310.92
565.39	60154.11
565.56	60399.86
565.72	60203.26
565.88	60292.20
566.05	60353.05
566.21	60392.84
566.38	60212.62
566.54	60502.85
566.70	60317.95
566.87	60505.19
567.03	60350.71
567.19	60537.96
567.36	60502.85
567.52	60364.76
567.68	60685.41
567.85	60739.24
568.01	60570.72
568.17	60549.66
568.34	60601.15
568.50	60495.83
568.66	60584.77
568.83	60573.06
568.99	60566.04
569.15	60563.70
569.32	60542.64
569.48	60350.71
569.64	60872.65
569.81	60631.58
569.97	60622.22
570.13	60732.22
570.30	60514.55
570.46	60491.15
570.62	60736.90
570.78	60631.58
570.95	60767.33
571.11	60711.16
571.27	60725.20
571.43	60645.62
571.60	60856.27
571.76	60821.16
571.92	60748.60
572.09	60851.59
572.25	60687.75
572.41	60526.25
572.57	60708.82
572.74	60935.85
572.90	60694.77
573.06	60722.86
573.22	60673.71
573.38	60933.51
573.55	60736.90
573.71	61087.98
573.87	60779.03
574.03	60701.79
574.20	60905.42
574.36	60685.41
574.52	61034.15
574.68	61015.43
574.84	60809.46
575.01	60736.90
575.17	60842.23
575.33	60685.41
575.49	60928.83
575.65	61158.20
575.82	61010.74
575.98	61041.17
576.14	61127.77
576.30	61148.84
576.46	60837.54
576.62	60624.56
576.79	60889.04
576.95	60940.53
577.11	61010.74
577.27	60947.55
577.43	60912.44
577.59	61076.28
577.75	60928.83
577.92	60898.40
578.08	60807.12
578.24	60992.02
578.40	60863.29
578.56	60996.70
578.72	61195.65
578.88	61160.54
579.04	61268.20
579.21	60924.14
579.37	61111.39
579.53	61073.94
579.69	60839.89
579.85	60938.19
580.01	60863.29
580.17	61036.49
580.33	61050.53
580.49	61080.96
580.65	61024.79
580.82	60821.16
580.98	60893.72
581.14	61001.38
581.30	61139.47
581.46	61090.32
581.62	61172.24
581.78	61076.28
581.94	61087.98
582.10	61090.32
582.26	61083.30
582.42	60931.17
582.58	61080.96
582.74	61076.28
582.90	61022.45
583.06	61099.68
583.22	60917.12
583.38	61066.92
583.54	61076.28
583.70	60947.55
583.86	61099.68
584.02	60949.89
584.18	61228.41
584.34	61242.46
584.50	61137.13
584.66	60940.53
584.82	61010.74
584.98	61247.14
585.14	61282.25
585.30	61167.56
585.46	61258.84
585.62	61214.37
585.78	61240.12
585.94	60992.02
586.10	60961.59
586.26	61116.07
586.42	61132.45
586.58	61188.63
586.74	61268.20
586.90	61148.84
587.06	61240.12
587.22	61153.52
587.38	60891.38
587.54	61422.68
587.70	61432.04
587.86	61331.40
588.02	61254.16
588.18	61359.48
588.34	61233.10
588.49	61195.65
