SpectraSuite Data File
++++++++++++++++++++++++++++++++++++
Date: Fri Oct 25 11:25:32 EDT 2013
User: price-jones
Dark Spectrum Present: No
Reference Spectrum Present: No
Number of Sampled Component Spectra: 1
Spectrometers: USB2+H05261
Integration Time (usec): 100000 (USB2+H05261)
Spectra Averaged: 1 (USB2+H05261)
Boxcar Smoothing: 0 (USB2+H05261)
Correct for Electrical Dark: No (USB2+H05261)
Strobe/Lamp Enabled: No (USB2+H05261)
Correct for Detector Non-linearity: No (USB2+H05261)
Correct for Stray Light: No (USB2+H05261)
Number of Pixels in Processed Spectrum: 2048
>>>>>Begin Processed Spectral Data<<<<<
365.73	205.97
365.92	205.97
366.12	205.97
366.32	140.43
366.52	187.24
366.72	194.26
366.91	86.60
367.11	100.64
367.31	131.07
367.51	154.48
367.70	121.71
367.90	114.69
368.10	86.60
368.30	184.90
368.49	121.71
368.69	201.29
368.89	126.39
369.09	95.96
369.28	140.43
369.48	182.56
369.68	159.16
369.87	215.33
370.07	231.71
370.27	287.89
370.47	313.63
370.66	566.41
370.86	615.56
371.06	704.50
371.25	695.14
371.45	606.20
371.65	685.78
371.84	622.58
372.04	772.38
372.24	650.67
372.44	805.14
372.63	709.18
372.83	751.31
373.03	765.36
373.22	741.95
373.42	767.70
373.62	737.27
373.81	793.44
374.01	793.44
374.21	741.95
374.40	755.99
374.60	833.23
374.79	823.87
374.99	809.83
375.19	877.70
375.38	812.17
375.58	791.10
375.78	823.87
375.97	940.90
376.17	947.92
376.37	856.64
376.56	851.96
376.76	903.45
376.95	805.14
377.15	903.45
377.35	802.80
377.54	877.70
377.74	898.77
377.93	889.40
378.13	877.70
378.33	894.08
378.52	978.34
378.72	947.92
378.91	952.60
379.11	940.90
379.31	1001.75
379.50	1027.50
379.70	1013.45
379.89	957.28
380.09	915.15
380.28	957.28
380.48	933.87
380.68	1020.47
380.87	926.85
381.07	1001.75
381.26	1097.71
381.46	1022.81
381.65	1046.22
381.85	1029.84
382.04	936.21
382.24	1064.94
382.43	1060.26
382.63	1036.86
382.83	1055.58
383.02	1135.16
383.22	1132.82
383.41	1048.56
383.61	1086.01
383.80	1114.10
384.00	1001.75
384.19	1076.65
384.39	1123.46
384.58	1086.01
384.78	1184.31
384.97	1191.33
385.17	1256.87
385.36	1170.27
385.56	1149.20
385.75	1167.93
385.95	1121.12
386.14	1200.69
386.34	1188.99
386.53	1324.74
386.72	1165.59
386.92	1254.53
387.11	1210.06
387.31	1214.74
387.50	1224.10
387.70	1156.22
387.89	1270.91
388.09	1153.88
388.28	1240.48
388.48	1238.14
388.67	1315.38
388.86	1317.72
389.06	1291.98
389.25	1324.74
389.45	1355.17
389.64	1336.45
389.84	1324.74
390.03	1521.35
390.22	1523.69
390.42	1352.83
390.61	1364.53
390.81	1385.60
391.00	1504.96
391.19	1423.05
391.39	1493.26
391.58	1509.65
391.78	1444.11
391.97	1423.05
392.16	1526.03
392.36	1610.29
392.55	1486.24
392.75	1509.65
392.94	1479.22
393.13	1547.09
393.33	1516.67
393.52	1547.09
393.71	1589.22
393.91	1598.59
394.10	1657.10
394.29	1521.35
394.49	1589.22
394.68	1673.48
394.88	1549.43
395.07	1633.69
395.26	1682.85
395.46	1682.85
395.65	1760.08
395.84	1673.48
396.04	1769.44
396.23	1701.57
396.42	1767.10
396.62	1785.83
396.81	1764.76
397.00	1874.77
397.19	1912.22
397.39	1874.77
397.58	1823.28
397.77	1837.32
397.97	1816.26
398.16	1802.21
398.35	1994.14
398.55	1842.00
398.74	1891.15
398.93	1834.98
399.12	1973.07
399.32	1919.24
399.51	1891.15
399.70	1872.43
399.90	2001.16
400.09	2040.95
400.28	2052.65
400.47	2036.27
400.67	2207.13
400.86	2108.82
401.05	2080.74
401.24	2052.65
401.44	2129.89
401.63	2150.95
401.82	2146.27
402.01	2125.21
402.21	2029.24
402.40	2267.98
402.59	2223.51
402.78	2160.31
402.97	2186.06
403.17	2275.00
403.36	2263.30
403.55	2258.62
403.74	2244.57
403.93	2265.64
404.13	2340.54
404.32	2345.22
404.51	2392.03
404.70	2410.75
404.89	2413.09
405.09	2417.77
405.28	2452.88
405.47	2537.14
405.66	2523.10
405.85	2595.65
406.05	2553.52
406.24	2574.59
406.43	2530.12
406.62	2590.97
406.81	2682.25
407.00	2534.80
407.20	2621.40
407.39	2551.18
407.58	2583.95
407.77	2647.15
407.96	2654.17
408.15	2745.45
408.34	2705.66
408.54	2775.88
408.73	2822.69
408.92	2757.15
409.11	2923.33
409.30	2911.63
409.49	2832.05
409.68	2958.44
409.87	2988.86
410.07	3080.14
410.26	3047.38
410.45	2956.10
410.64	2981.84
410.83	3150.36
411.02	3101.21
411.21	3145.68
411.40	3066.10
411.59	3190.15
411.78	3185.47
411.98	3197.17
412.17	3255.69
412.36	3361.01
412.55	3356.33
412.74	3407.82
412.93	3386.76
413.12	3356.33
413.31	3630.17
413.50	3478.04
413.69	3403.14
413.88	3478.04
414.07	3632.51
414.26	3625.49
414.45	3606.77
414.64	3691.02
414.83	3658.26
415.02	3606.77
415.22	3864.22
415.41	3960.19
415.60	3716.77
415.79	3838.48
415.98	3885.29
416.17	3826.78
416.36	4023.38
416.55	4063.17
416.74	4095.94
416.93	3957.85
417.12	4016.36
417.31	4283.18
417.50	4124.02
417.69	4262.12
417.88	4266.80
418.07	4182.54
418.26	4243.39
418.45	4397.87
418.64	4425.95
418.83	4395.53
419.02	4444.68
419.21	4418.93
419.39	4360.42
419.58	4465.74
419.77	4217.65
419.96	4624.90
420.15	4566.39
420.34	4578.09
420.53	4503.19
420.72	4638.94
420.91	4650.64
421.10	4617.88
421.29	4770.01
421.48	4709.16
421.67	4833.21
421.86	4727.88
422.05	4837.89
422.24	4793.42
422.43	4713.84
422.61	4837.89
422.80	4992.36
422.99	4837.89
423.18	4887.04
423.37	5100.03
423.56	4894.06
423.75	4947.89
423.94	4774.69
424.13	4681.07
424.32	4732.56
424.50	4973.64
424.69	5142.16
424.88	5076.62
425.07	4973.64
425.26	4882.36
425.45	5004.07
425.64	4961.94
425.83	5006.41
426.01	5139.82
426.20	4931.51
426.39	4997.04
426.58	4985.34
426.77	5055.56
426.96	5144.50
427.15	5181.95
427.33	5280.25
427.52	5177.26
427.71	5280.25
427.90	5193.65
428.09	5233.44
428.28	5296.63
428.46	5256.84
428.65	5259.18
428.84	5509.62
429.03	5453.45
429.22	5366.85
429.40	5411.32
429.59	5376.21
429.78	5291.95
429.97	5205.35
430.16	5479.19
430.34	5509.62
430.53	5570.48
430.72	5652.39
430.91	5612.60
431.10	5675.80
431.28	5523.66
431.47	5860.70
431.66	5830.27
431.85	5614.95
432.03	5818.57
432.22	5888.79
432.41	5846.66
432.60	6010.50
432.79	5792.83
432.97	5856.02
433.16	5867.72
433.35	5834.96
433.54	6003.47
433.72	6305.40
433.91	6069.01
434.10	6164.97
434.28	6134.54
434.47	6167.31
434.66	6167.31
434.85	6403.71
435.03	6270.30
435.22	6207.10
435.41	6399.02
435.59	6267.95
435.78	6293.70
435.97	6509.03
436.16	6490.31
436.34	6401.37
436.53	6382.64
436.72	6572.22
436.90	6438.81
437.09	6717.34
437.28	6349.87
437.46	6684.57
437.65	6609.67
437.84	6729.04
438.02	6548.82
438.21	6644.78
438.40	6621.38
438.58	6979.48
438.77	6897.56
438.96	6864.79
439.14	7110.55
439.33	7061.40
439.52	7150.34
439.70	7300.13
439.89	7417.16
440.08	7456.95
440.26	7309.49
440.45	7140.97
440.63	7358.64
440.82	7428.86
441.01	7510.78
441.19	7456.95
441.38	7672.28
441.57	7653.55
441.75	7805.69
441.94	7906.33
442.12	7735.47
442.31	7985.91
442.50	8063.15
442.68	7873.56
442.87	8032.72
443.05	8065.49
443.24	8273.79
443.43	8011.65
443.61	8056.12
443.80	8397.84
443.98	8243.37
444.17	7782.28
444.35	8051.44
444.54	8264.43
444.73	8301.88
444.91	8229.32
445.10	8308.90
445.28	8290.18
445.47	8215.28
445.65	8339.33
445.84	8184.85
446.02	8437.63
446.21	8205.92
446.39	8229.32
446.58	8318.26
446.77	8416.57
446.95	8208.26
447.14	8374.44
447.32	8547.64
447.51	8456.36
447.69	8397.84
447.88	8407.20
448.06	8531.25
448.25	8571.04
448.43	8568.70
448.62	8638.92
448.80	8472.74
448.99	8566.36
449.17	8662.32
449.36	8498.49
449.54	8631.90
449.73	8872.97
449.91	8990.00
450.10	8896.38
450.28	8975.95
450.46	8964.25
450.65	8947.87
450.83	8784.03
451.02	8884.67
451.20	9078.94
451.39	9109.36
451.57	9078.94
451.76	8973.61
451.94	9233.41
452.13	9062.55
452.31	9338.74
452.49	9207.67
452.68	9200.65
452.86	9465.13
453.05	9387.89
453.23	9420.66
453.42	9247.46
453.60	9212.35
453.78	9717.90
453.97	9310.65
454.15	9502.58
454.34	9544.70
454.52	9923.87
454.70	9738.97
454.89	9591.52
455.07	9575.13
455.26	9799.82
455.44	10024.51
455.62	9813.87
455.81	9921.53
455.99	9736.63
456.17	10017.49
456.36	9919.19
456.54	9984.73
456.73	9982.38
456.91	10345.17
457.09	10501.98
457.28	10600.29
457.46	10298.36
457.64	10525.39
457.83	10551.14
458.01	10417.72
458.19	10731.36
458.38	10417.72
458.56	10885.83
458.74	10501.98
458.93	10635.39
459.11	10611.99
459.29	10539.43
459.48	10604.97
459.66	10710.29
459.84	10820.30
460.03	11047.33
460.21	10925.62
460.39	10862.43
460.57	11190.10
460.76	10949.03
460.94	10956.05
461.12	11281.38
461.31	11169.04
461.49	11077.76
461.67	11171.38
461.85	11477.99
462.04	11253.30
462.22	11953.12
462.40	11880.56
462.59	11534.16
462.77	11377.34
462.95	11447.56
463.13	11705.02
463.32	11527.14
463.50	11564.59
463.68	11812.68
463.86	11800.98
464.05	11517.78
464.23	11740.13
464.41	11836.09
464.59	11761.19
464.78	12180.15
464.96	11761.19
465.14	11852.47
465.32	11913.33
465.50	12016.31
465.69	12140.36
465.87	12098.23
466.05	11885.24
466.23	12311.22
466.41	12343.99
466.60	12374.41
466.78	12046.74
466.96	12095.89
467.14	12163.76
467.32	12128.66
467.51	12510.16
467.69	11941.41
467.87	12255.04
468.05	12622.51
468.23	12351.01
468.41	12444.63
468.60	12372.07
468.78	12645.91
468.96	12486.76
469.14	12952.52
469.32	12528.89
469.50	12652.94
469.69	13076.57
469.87	12971.25
470.05	12889.33
470.23	13090.62
470.41	13015.72
470.59	13170.19
470.77	13209.98
470.95	13268.50
471.14	13444.04
471.32	13048.49
471.50	13289.56
471.68	13591.49
471.86	13359.78
472.04	13479.15
472.22	14122.79
472.40	13664.05
472.58	13745.97
472.77	13891.08
472.95	14174.28
473.13	14333.44
473.31	14040.87
473.49	14083.00
473.67	14092.37
473.85	14494.94
474.03	14537.07
474.21	14394.29
474.39	14511.32
474.57	14583.88
474.75	14738.35
474.93	15000.49
475.12	15037.94
475.30	14890.49
475.48	14689.20
475.66	14813.25
475.84	14949.00
476.02	15208.80
476.20	15328.17
476.38	15693.29
476.56	16006.92
476.74	15920.32
476.92	15798.62
477.10	15538.82
477.28	15913.30
477.46	16196.51
477.64	16350.98
477.82	16732.49
478.00	16554.61
478.18	16437.58
478.36	16723.13
478.54	16893.99
478.72	16985.27
478.90	17298.90
479.08	17523.59
479.26	17809.14
479.44	17624.23
479.62	17717.86
479.80	17951.91
479.98	18190.64
480.16	18487.89
480.34	18237.45
480.52	18305.33
480.70	18668.11
480.88	18298.31
481.06	18504.28
481.24	18335.76
481.41	19080.05
481.59	19367.93
481.77	19250.91
481.95	19297.72
482.13	19513.05
482.31	19604.33
482.49	20247.97
482.67	19922.64
482.85	20449.26
483.03	20510.11
483.21	20697.36
483.39	20709.06
483.57	20758.21
483.74	20943.11
483.92	21238.02
484.10	21048.44
484.28	21411.22
484.46	21888.69
484.64	22218.71
484.82	21935.50
485.00	22057.21
485.18	22567.45
485.35	22906.82
485.53	22789.80
485.71	22789.80
485.89	23204.07
486.07	22984.06
486.25	23213.43
486.43	23267.27
486.61	24032.62
486.78	23864.10
486.96	23892.19
487.14	24697.33
487.32	24519.45
487.50	24659.88
487.68	24477.32
487.85	25013.31
488.03	25125.65
488.21	25848.88
488.39	25905.05
488.57	25914.41
488.75	25909.73
488.92	26246.77
489.10	26324.01
489.28	26647.00
489.46	27213.41
489.64	27171.28
489.81	27271.92
489.99	27711.94
490.17	27473.21
490.35	28100.47
490.53	28119.20
490.70	28563.90
490.88	27864.08
491.06	28819.02
491.24	28926.68
491.41	28819.02
491.59	29230.95
491.77	29537.56
491.95	29362.02
492.13	29500.11
492.30	29778.64
492.48	29434.58
492.66	30167.16
492.84	30478.46
493.01	30382.49
493.19	30148.44
493.37	30852.94
493.54	30969.97
493.72	31487.23
493.90	31505.95
494.08	31370.20
494.25	31864.05
494.43	31709.58
494.61	32039.59
494.79	32065.34
494.96	32486.64
495.14	32573.24
495.32	32985.17
495.49	32760.48
495.67	32910.27
495.85	33376.04
496.02	33900.32
496.20	33975.22
496.38	33631.16
496.55	34309.91
496.73	34607.16
496.91	34384.81
497.09	34354.38
497.26	34340.34
497.44	34480.77
497.62	35332.73
497.79	35732.96
497.97	35241.45
498.14	36002.12
498.32	35775.09
498.50	36177.66
498.67	36285.33
498.85	36453.84
499.03	36753.43
499.20	36519.38
499.38	36631.72
499.56	36903.23
499.73	36865.78
499.91	36896.20
500.08	37488.36
500.26	37291.76
500.44	37312.82
500.61	37713.05
500.79	37427.51
500.97	38429.26
501.14	38548.62
501.32	38295.85
501.49	38300.53
501.67	38345.00
501.84	38562.67
502.02	38995.67
502.20	38787.36
502.37	39178.23
502.55	39199.29
502.72	39646.33
502.90	39463.77
503.07	39793.79
503.25	39761.02
503.43	39608.89
503.60	39562.08
503.78	40294.66
503.95	40020.82
504.13	40477.22
504.30	39952.94
504.48	40184.66
504.65	40528.72
504.83	41031.93
505.01	41265.99
505.18	40847.03
505.36	41291.73
505.53	41020.23
505.71	41130.23
505.88	41930.70
506.06	41748.14
506.23	41738.77
506.41	41460.25
506.58	42131.98
506.76	41975.17
506.93	42230.29
507.11	41916.65
507.28	42693.71
507.46	42066.45
507.63	43023.73
507.81	42714.78
507.98	42693.71
508.16	43026.07
508.33	43445.02
508.50	43358.42
508.68	43461.41
508.85	43978.67
509.03	43494.18
509.20	43503.54
509.38	44318.04
509.55	44062.93
509.73	44505.29
509.90	44329.75
510.08	44196.34
510.25	44208.04
510.42	44751.04
510.60	45015.52
510.77	45059.99
510.95	45205.11
511.12	44973.39
511.30	44919.56
511.47	45294.05
511.64	45523.42
511.82	46131.96
511.99	45265.96
512.17	45492.99
512.34	45359.58
512.51	46436.23
512.69	46103.87
512.86	46244.30
513.04	46335.59
513.21	46518.15
513.38	46616.45
513.56	46644.54
513.73	46483.04
513.90	46721.77
514.08	46358.99
514.25	46724.11
514.43	46967.53
514.60	47285.84
514.77	47150.09
514.95	47618.20
515.12	47697.78
515.29	47236.69
515.47	47505.85
515.64	47927.15
515.81	47868.64
515.99	47852.25
516.16	48449.09
516.33	48102.69
516.51	48671.44
516.68	48041.84
516.85	48678.46
517.03	48170.57
517.20	48542.71
517.37	48268.87
517.54	48545.05
517.72	48828.26
517.89	48849.32
518.06	49184.02
518.24	49069.33
518.41	48666.76
518.58	48842.30
518.75	48741.66
518.93	49387.64
519.10	49298.70
519.27	49553.82
519.45	49598.29
519.62	49982.14
519.79	49900.22
519.96	49944.69
520.14	49998.52
520.31	49930.65
520.48	50075.76
520.65	49895.54
520.83	50445.57
521.00	50347.26
521.17	50468.97
521.34	50539.19
521.52	50745.15
521.69	50731.11
521.86	50857.50
522.03	50899.63
522.20	51026.02
522.38	51480.08
522.55	51136.02
522.72	51168.79
522.89	51129.00
523.07	51257.73
523.24	51316.25
523.41	51517.53
523.58	51260.07
523.75	51463.70
523.92	51377.10
524.10	51643.92
524.27	51796.06
524.44	51697.75
524.61	52081.60
524.78	51959.89
524.96	52250.12
525.13	52130.75
525.30	52158.84
525.47	52395.23
525.64	52444.38
525.81	52559.07
525.98	52399.91
526.16	52233.74
526.33	52559.07
526.50	52884.40
526.67	52825.89
526.84	52772.06
527.01	52596.52
527.18	52940.58
527.36	52917.17
527.53	52807.17
527.70	53066.97
527.87	52987.39
528.04	53118.46
528.21	53174.63
528.38	53001.43
528.55	53380.60
528.72	53045.90
528.89	53396.98
529.07	53223.78
529.24	53176.97
529.41	53549.12
529.58	53453.15
529.75	53509.33
529.92	53460.18
530.09	53521.03
530.26	53738.70
530.43	53909.56
530.60	53614.65
530.77	53614.65
530.94	54162.34
531.11	53680.19
531.28	53703.59
531.46	53989.14
531.63	54391.71
531.80	53998.50
531.97	54248.94
532.14	54511.08
532.31	53991.48
532.48	54298.09
532.65	54536.82
532.82	54408.09
532.99	54333.20
533.16	54426.82
533.33	54562.57
533.50	54773.22
533.67	54752.15
533.84	54387.03
534.01	54824.71
534.18	54628.10
534.35	55180.47
534.52	54593.00
534.69	54878.54
534.86	55152.38
535.03	54831.73
535.20	55121.96
535.37	55056.42
535.54	55150.04
535.71	55124.30
535.88	55264.73
536.05	55187.49
536.22	55435.59
536.38	55454.31
536.55	55407.50
536.72	55196.85
536.89	55243.66
537.06	55515.17
537.23	55489.42
537.40	55356.01
537.57	55447.29
537.74	55618.15
537.91	55824.12
538.08	55863.91
538.25	55538.57
538.42	55774.97
538.59	55891.99
538.75	55615.81
538.92	55697.73
539.09	56231.37
539.26	55781.99
539.43	55877.95
539.60	56168.18
539.77	55920.08
539.94	56250.09
540.11	56140.09
540.28	56247.75
540.44	56317.97
540.61	56332.01
540.78	56296.91
540.95	56350.74
541.12	55936.46
541.29	56161.15
541.46	56456.06
541.62	56264.14
541.79	56781.40
541.96	56425.64
542.13	56418.61
542.30	56652.67
542.47	56636.28
542.63	56776.72
542.80	56629.26
542.97	56924.17
543.14	57080.98
543.31	56992.04
543.48	57160.56
543.64	57088.01
543.81	57322.06
543.98	57158.22
544.15	57333.76
544.32	57322.06
544.48	57694.21
544.65	57153.54
544.82	57111.41
544.99	57134.82
545.16	57429.72
545.32	57340.78
545.49	57446.11
545.66	57556.11
545.83	57415.68
546.00	57453.13
546.16	57434.41
546.33	57502.28
546.50	57375.89
546.67	57521.01
546.83	57340.78
547.00	57659.10
547.17	57502.28
547.34	57733.99
547.50	57890.81
547.67	58007.84
547.84	57757.40
548.00	57911.88
548.17	57970.39
548.34	58010.18
548.51	58223.17
548.67	57961.03
548.84	58007.84
549.01	57733.99
549.18	57979.75
549.34	58265.30
549.51	58115.50
549.68	58014.86
549.84	58185.72
550.01	58379.98
550.18	58174.02
550.34	58288.70
550.51	58244.23
550.68	58178.70
550.84	58277.00
551.01	58422.11
551.18	58244.23
551.34	58150.61
551.51	58305.09
551.68	58459.56
551.84	58307.43
552.01	58424.45
552.18	58354.24
552.34	58216.14
552.51	58482.97
552.68	58396.37
552.84	58412.75
553.01	58852.77
553.18	58794.26
553.34	58890.22
553.51	58745.11
553.67	58728.72
553.84	58693.61
554.01	58684.25
554.17	58869.15
554.34	58810.64
554.51	58850.43
554.67	58740.42
554.84	58630.42
555.00	59016.61
555.17	58927.67
555.33	59082.14
555.50	58890.22
555.67	58883.20
555.83	58717.02
556.00	59004.91
556.16	59330.24
556.33	59372.37
556.50	58965.12
556.66	59299.81
556.83	58932.35
556.99	59182.79
557.16	59297.47
557.32	59339.60
557.49	59580.68
557.65	59253.00
557.82	59489.40
557.98	59363.01
558.15	59524.50
558.32	59398.12
558.48	59348.96
558.65	59400.46
558.81	59437.90
558.98	59161.72
559.14	59426.20
559.31	59248.32
559.47	59526.84
559.64	59604.08
559.80	59657.91
559.97	59381.73
560.13	59519.82
560.30	59545.57
560.46	59437.90
560.63	59714.09
560.79	59576.00
560.96	59812.39
561.12	59604.08
561.29	59636.85
561.45	59597.06
561.61	59728.13
561.78	59690.68
561.94	59664.94
562.11	59489.40
562.27	59517.48
562.44	59716.43
562.60	59786.64
562.77	59863.88
562.93	59774.94
563.10	59889.63
563.26	59688.34
563.42	60076.87
563.59	59929.42
563.75	59934.10
563.92	59934.10
564.08	59920.05
564.24	60051.12
564.41	60051.12
564.57	59964.52
564.74	60037.08
564.90	59746.86
565.07	60004.31
565.23	59866.22
565.39	60053.47
565.56	60233.69
565.72	60055.81
565.88	60027.72
566.05	59999.63
566.21	60069.85
566.38	60172.83
566.54	60011.34
566.70	60301.56
566.87	60079.21
567.03	60123.68
567.19	60369.44
567.36	60247.73
567.52	59870.90
567.68	60369.44
567.85	60130.70
568.01	60355.39
568.17	60126.02
568.34	60151.77
568.50	60203.26
568.66	60182.19
568.83	60313.26
568.99	60212.62
569.15	60238.37
569.32	60198.58
569.48	60308.58
569.64	60542.64
569.81	60390.50
569.97	60121.34
570.13	60416.25
570.30	60346.03
570.46	60306.24
570.62	60238.37
570.78	60350.71
570.95	60224.32
571.11	60507.53
571.27	60434.97
571.43	60493.49
571.60	60544.98
571.76	60409.23
571.92	60458.38
572.09	60413.91
572.25	60339.01
572.41	60474.76
572.57	60552.00
572.74	60636.26
572.90	60530.93
573.06	60491.15
573.22	60264.11
573.38	60552.00
573.55	60458.38
573.71	60601.15
573.87	60622.22
574.03	60301.56
574.20	60587.11
574.36	60364.76
574.52	60381.14
574.68	60615.19
574.84	60753.29
575.01	60706.47
575.17	60654.98
575.33	60509.87
575.49	60540.30
575.65	60559.02
575.82	60676.05
575.98	60528.59
576.14	60931.17
576.30	60715.84
576.46	60781.37
576.62	60582.43
576.79	60671.37
576.95	60683.07
577.11	60713.50
577.27	60860.95
577.43	60772.01
577.59	60598.81
577.75	60479.44
577.92	60488.80
578.08	60788.39
578.24	60741.58
578.40	60893.72
578.56	60741.58
578.72	60542.64
578.88	60994.36
579.04	60970.96
579.21	60858.61
579.37	60825.84
579.53	60575.40
579.69	60507.53
579.85	60603.49
580.01	60879.67
580.17	60537.96
580.33	60837.54
580.49	60650.30
580.65	60849.25
580.82	60830.52
580.98	60809.46
581.14	60654.98
581.30	60935.85
581.46	60884.36
581.62	60935.85
581.78	60662.00
581.94	60750.94
582.10	60727.54
582.26	60891.38
582.42	60757.97
582.58	60921.80
582.74	60774.35
582.90	60823.50
583.06	60928.83
583.22	60697.11
583.38	61031.81
583.54	60729.88
583.70	60940.53
583.86	60879.67
584.02	60554.34
584.18	60900.74
584.34	60650.30
584.50	60750.94
584.66	60837.54
584.82	60664.35
584.98	61038.83
585.14	60893.72
585.30	61036.49
585.46	60942.87
585.62	60825.84
585.78	61076.28
585.94	60720.52
586.10	60828.18
586.26	60795.42
586.42	60732.22
586.58	61001.38
586.74	60926.49
586.90	60914.78
587.06	60886.70
587.22	61052.87
587.38	60872.65
587.54	60933.51
587.70	61062.24
587.86	60863.29
588.02	61069.26
588.18	61172.24
588.34	60931.17
588.49	60900.74
