SpectraSuite Data File
++++++++++++++++++++++++++++++++++++
Date: Fri Oct 25 10:47:06 EDT 2013
User: price-jones
Dark Spectrum Present: No
Reference Spectrum Present: No
Number of Sampled Component Spectra: 1
Spectrometers: USB2+H05261
Integration Time (usec): 100000 (USB2+H05261)
Spectra Averaged: 1 (USB2+H05261)
Boxcar Smoothing: 0 (USB2+H05261)
Correct for Electrical Dark: No (USB2+H05261)
Strobe/Lamp Enabled: No (USB2+H05261)
Correct for Detector Non-linearity: No (USB2+H05261)
Correct for Stray Light: No (USB2+H05261)
Number of Pixels in Processed Spectrum: 2048
>>>>>Begin Processed Spectral Data<<<<<
365.73	98.30
365.92	98.30
366.12	98.30
366.32	67.88
366.52	84.26
366.72	72.56
366.91	91.28
367.11	28.09
367.31	88.94
367.51	81.92
367.70	53.83
367.90	35.11
368.10	0.00
368.30	147.45
368.49	56.17
368.69	86.60
368.89	67.88
369.09	53.83
369.28	79.58
369.48	42.13
369.68	46.81
369.87	142.77
370.07	135.75
370.27	217.67
370.47	248.10
370.66	442.36
370.86	423.64
371.06	407.25
371.25	479.81
371.45	451.72
371.65	503.22
371.84	440.02
372.04	383.85
372.24	409.59
372.44	521.94
372.63	554.71
372.83	486.83
373.03	482.15
373.22	500.87
373.42	470.45
373.62	524.28
373.81	545.34
374.01	493.85
374.21	568.75
374.40	561.73
374.60	514.92
374.79	524.28
374.99	617.90
375.19	629.60
375.38	538.32
375.58	578.11
375.78	603.86
375.97	620.24
376.17	575.77
376.37	578.11
376.56	547.69
376.76	594.50
376.95	540.66
377.15	571.09
377.35	594.50
377.54	624.92
377.74	580.45
377.93	601.52
378.13	617.90
378.33	615.56
378.52	552.37
378.72	655.35
378.91	606.20
379.11	566.41
379.31	681.10
379.50	636.63
379.70	725.57
379.89	690.46
380.09	566.41
380.28	650.67
380.48	648.33
380.68	641.31
380.87	617.90
381.07	667.05
381.26	716.20
381.46	664.71
381.65	688.12
381.85	660.03
382.04	690.46
382.24	641.31
382.43	730.25
382.63	697.48
382.83	669.39
383.02	660.03
383.22	779.40
383.41	645.99
383.61	718.54
383.80	791.10
384.00	709.18
384.19	664.71
384.39	786.42
384.58	727.91
384.78	725.57
384.97	718.54
385.17	699.82
385.36	835.57
385.56	746.63
385.75	734.93
385.95	734.93
386.14	763.01
386.34	840.25
386.53	779.40
386.72	786.42
386.92	744.29
387.11	828.55
387.31	765.36
387.50	819.19
387.70	802.80
387.89	821.53
388.09	889.40
388.28	812.17
388.48	826.21
388.67	802.80
388.86	887.06
389.06	931.53
389.25	847.27
389.45	866.00
389.64	833.23
389.84	873.02
390.03	919.83
390.22	896.43
390.42	917.49
390.61	901.11
390.81	905.79
391.00	903.45
391.19	959.62
391.39	903.45
391.58	968.98
391.78	945.58
391.97	1043.88
392.16	976.00
392.36	1053.24
392.55	983.02
392.75	1006.43
392.94	891.74
393.13	1020.47
393.33	952.60
393.52	964.30
393.71	1041.54
393.91	1039.20
394.10	999.41
394.29	980.68
394.49	1132.82
394.68	1163.25
394.88	1156.22
395.07	1102.39
395.26	1102.39
395.46	1181.97
395.65	1177.29
395.84	1158.57
396.04	1160.91
396.23	1097.71
396.42	1139.84
396.62	1196.01
396.81	1132.82
397.00	1027.50
397.19	1135.16
397.39	1231.12
397.58	1242.82
397.77	1163.25
397.97	1322.40
398.16	1371.55
398.35	1210.06
398.55	1315.38
398.74	1366.87
398.93	1343.47
399.12	1306.02
399.32	1315.38
399.51	1287.29
399.70	1451.13
399.90	1357.51
400.09	1383.26
400.28	1380.92
400.47	1432.41
400.67	1383.26
400.86	1423.05
401.05	1444.11
401.24	1394.96
401.44	1533.05
401.63	1481.56
401.82	1511.99
402.01	1474.54
402.21	1430.07
402.40	1617.31
402.59	1441.77
402.78	1373.89
402.97	1502.62
403.17	1530.71
403.36	1554.12
403.55	1565.82
403.74	1661.78
403.93	1640.72
404.13	1605.61
404.32	1652.42
404.51	1570.50
404.70	1636.03
404.89	1638.38
405.09	1703.91
405.28	1694.55
405.47	1701.57
405.66	1748.38
405.85	1767.10
406.05	1746.04
406.24	1790.51
406.43	1755.40
406.62	1867.75
406.81	1900.52
407.00	1884.13
407.20	1724.97
407.39	1806.89
407.58	1870.09
407.77	1933.28
407.96	1919.24
408.15	2003.50
408.34	1919.24
408.54	2045.63
408.73	1942.64
408.92	1954.35
409.11	1909.88
409.30	1977.75
409.49	1928.60
409.68	2062.01
409.87	2083.08
410.07	1954.35
410.26	1996.48
410.45	2019.88
410.64	2099.46
410.83	2256.28
411.02	2211.81
411.21	2228.19
411.40	2207.13
411.59	2270.32
411.78	2279.68
411.98	2352.24
412.17	2265.64
412.36	2408.41
412.55	2284.36
412.74	2399.05
412.93	2492.67
413.12	2392.03
413.31	2546.50
413.50	2396.71
413.69	2509.05
413.88	2605.02
414.07	2527.78
414.26	2567.57
414.45	2635.44
414.64	2595.65
414.83	2597.99
415.02	2708.00
415.22	2750.13
415.41	2649.49
415.60	2801.62
415.79	2675.23
415.98	2864.82
416.17	2918.65
416.36	2822.69
416.55	2869.50
416.74	2871.84
416.93	2897.58
417.12	2822.69
417.31	3012.27
417.50	3016.95
417.69	3035.67
417.88	3105.89
418.07	2909.29
418.26	3103.55
418.45	3045.04
418.64	3194.83
418.83	3199.51
419.02	3148.02
419.21	3190.15
419.39	3279.09
419.58	3038.02
419.77	3180.79
419.96	3283.77
420.15	3265.05
420.34	3187.81
420.53	3295.47
420.72	3442.93
420.91	3293.13
421.10	3426.54
421.29	3311.86
421.48	3330.58
421.67	3466.33
421.86	3426.54
422.05	3281.43
422.24	3461.65
422.43	3353.99
422.61	3391.44
422.80	3487.40
422.99	3538.89
423.18	3377.39
423.37	3541.23
423.56	3456.97
423.75	3482.72
423.94	3513.14
424.13	3286.11
424.32	3356.33
424.50	3548.25
424.69	3599.74
424.88	3630.17
425.07	3534.21
425.26	3325.90
425.45	3496.76
425.64	3412.50
425.83	3527.19
426.01	3562.30
426.20	3562.30
426.39	3531.87
426.58	3618.47
426.77	3616.13
426.96	3623.15
427.15	3679.32
427.33	3730.81
427.52	3620.81
427.71	3747.20
427.90	3782.31
428.09	3644.21
428.28	3796.35
428.46	3574.00
428.65	3723.79
428.84	3852.52
429.03	4060.83
429.22	3679.32
429.40	3838.48
429.59	3765.92
429.78	3641.87
429.97	3705.07
430.16	3756.56
430.34	3763.58
430.53	3873.59
430.72	3857.20
430.91	4053.81
431.10	3955.51
431.28	4145.09
431.47	4067.85
431.66	4084.23
431.85	4065.51
432.03	4084.23
432.22	4234.03
432.41	4119.34
432.60	4205.94
432.79	4252.75
432.97	4306.59
433.16	4278.50
433.35	4168.49
433.54	4283.18
433.72	4454.04
433.91	4262.12
434.10	4173.18
434.28	4304.25
434.47	4379.14
434.66	4423.61
434.85	4292.54
435.03	4458.72
435.22	4315.95
435.41	4484.47
435.59	4505.53
435.78	4688.09
435.97	4596.81
436.16	4528.94
436.34	4500.85
436.53	4479.79
436.72	4664.69
436.90	4505.53
437.09	4624.90
437.28	4704.48
437.46	4550.00
437.65	4629.58
437.84	4784.06
438.02	4589.79
438.21	4685.75
438.40	4695.11
438.58	4770.01
438.77	4779.37
438.96	4821.50
439.14	4915.12
439.33	4992.36
439.52	5167.90
439.70	4990.02
439.89	5132.79
440.08	5095.35
440.26	5135.14
440.45	5217.05
440.63	5256.84
440.82	5200.67
441.01	5212.37
441.19	5329.40
441.38	5348.12
441.57	5430.04
441.75	5476.85
441.94	5530.69
442.12	5582.18
442.31	5696.86
442.50	5727.29
442.68	5664.10
442.87	5720.27
443.05	5678.14
443.24	5825.59
443.43	5837.30
443.61	5680.48
443.80	5937.94
443.98	5652.39
444.17	5607.92
444.35	5813.89
444.54	5970.71
444.73	5762.40
444.91	5879.43
445.10	5628.99
445.28	5937.94
445.47	5760.06
445.65	5633.67
445.84	5757.72
446.02	5991.77
446.21	5738.99
446.39	5825.59
446.58	5954.32
446.77	5919.21
446.95	5795.17
447.14	5797.51
447.32	6003.47
447.51	6015.18
447.69	5970.71
447.88	5961.34
448.06	5928.58
448.25	5923.90
448.43	6043.26
448.62	6087.73
448.80	5987.09
448.99	6087.73
449.17	6207.10
449.36	6099.44
449.54	6211.78
449.73	6263.27
449.91	6289.02
450.10	6235.19
450.28	6422.43
450.46	6251.57
450.65	6396.68
450.83	6352.21
451.02	6370.94
451.20	6363.92
451.39	6340.51
451.57	6565.20
451.76	6392.00
451.94	6480.94
452.13	6555.84
452.31	6469.24
452.49	6399.02
452.68	6583.93
452.86	6420.09
453.05	6509.03
453.23	6567.54
453.42	6546.48
453.60	6572.22
453.78	6665.85
453.97	6597.97
454.15	6523.07
454.34	6630.74
454.52	6810.96
454.70	6738.40
454.89	6839.05
455.07	6670.53
455.26	6780.53
455.44	6897.56
455.62	6864.79
455.81	6806.28
455.99	7082.46
456.17	7066.08
456.36	6946.71
456.54	7005.22
456.73	7143.32
456.91	7339.92
457.09	7349.28
457.28	7440.56
457.46	7087.14
457.64	7262.68
457.83	7293.11
458.01	7220.55
458.19	7410.14
458.38	7300.13
458.56	7351.62
458.74	7452.27
458.93	7302.47
459.11	7365.67
459.29	7485.03
459.48	7344.60
459.66	7506.10
459.84	7478.01
460.03	7726.11
460.21	7632.49
460.39	7616.10
460.57	7763.56
460.76	7822.07
460.94	7765.90
461.12	7845.48
461.31	7634.83
461.49	7665.25
461.67	7548.23
461.85	7922.71
462.04	7920.37
462.22	8142.72
462.40	7889.95
462.59	7646.53
462.77	8079.53
462.95	7978.89
463.13	7908.67
463.32	8173.15
463.50	8119.32
463.68	8180.17
463.86	8030.38
464.05	8004.63
464.23	8021.02
464.41	8013.99
464.59	8013.99
464.78	8290.18
464.96	8046.76
465.14	8091.23
465.32	8301.88
465.50	8320.60
465.69	8304.22
465.87	8224.64
466.05	8297.20
466.23	8273.79
466.41	8226.98
466.60	8411.89
466.78	8355.71
466.96	8407.20
467.14	8479.76
467.32	8521.89
467.51	8566.36
467.69	8362.73
467.87	8430.61
468.05	8414.23
468.23	8554.66
468.41	8709.13
468.60	8573.38
468.78	8676.37
468.96	8475.08
469.14	8608.49
469.32	8795.73
469.50	8526.57
469.69	8910.42
469.87	8863.61
470.05	9060.21
470.23	8833.18
470.41	8793.39
470.59	8980.64
470.77	9006.38
470.95	8950.21
471.14	9320.01
471.32	9057.87
471.50	9338.74
471.68	9053.19
471.86	9303.63
472.04	9249.80
472.22	9458.10
472.40	9338.74
472.58	9137.45
472.77	9607.90
472.95	9657.05
473.13	9963.66
473.31	9324.69
473.49	9652.37
473.67	9570.45
473.85	9528.32
474.03	9827.91
474.21	9907.49
474.39	9942.60
474.57	9891.10
474.75	9954.30
474.93	10157.92
475.12	10026.86
475.30	10366.23
475.48	10270.27
475.66	10324.10
475.84	10324.10
476.02	10146.22
476.20	10406.02
476.38	10483.26
476.56	10984.13
476.74	10846.04
476.92	10513.69
477.10	10583.90
477.28	10792.21
477.46	10871.79
477.64	11115.20
477.82	11037.97
478.00	11190.10
478.18	11206.48
478.36	11452.24
478.54	11396.07
478.72	11559.91
478.90	11604.38
479.08	11569.27
479.26	11892.26
479.44	11934.39
479.62	12002.27
479.80	11899.28
479.98	12184.83
480.16	12301.86
480.34	12358.03
480.52	12327.60
480.70	12360.37
480.88	12245.68
481.06	12594.42
481.24	12741.88
481.41	12954.87
481.59	13097.64
481.77	13205.30
481.95	12879.97
482.13	13142.11
482.31	13083.59
482.49	13444.04
482.67	13296.58
482.85	13701.50
483.03	13591.49
483.21	13998.74
483.39	13963.64
483.57	13954.27
483.74	14270.25
483.92	14136.84
484.10	14267.91
484.28	14370.89
484.46	14972.41
484.64	15040.28
484.82	14560.47
485.00	14485.58
485.18	14956.02
485.35	15091.77
485.53	14890.49
485.71	14869.42
485.89	15145.61
486.07	15295.40
486.25	15267.31
486.43	15262.63
486.61	15695.63
486.78	16009.26
486.96	15859.47
487.14	16161.40
487.32	16217.57
487.50	16610.78
487.68	16437.58
487.85	16716.11
488.03	16947.82
488.21	16891.65
488.39	16872.92
488.57	17287.20
488.75	17259.11
488.92	17790.41
489.10	17673.39
489.28	17539.97
489.46	17649.98
489.64	18090.00
489.81	18342.78
489.99	18494.91
490.17	18448.10
490.35	18492.57
490.53	18310.01
490.70	18735.99
490.88	18759.39
491.06	19187.71
491.24	19260.27
491.41	19119.84
491.59	19323.46
491.77	19192.39
491.95	19669.86
492.13	19335.17
492.30	19861.79
492.48	19623.05
492.66	19910.94
492.84	19964.77
493.01	20205.84
493.19	20051.37
493.37	20210.53
493.54	20439.90
493.72	20510.11
493.90	20709.06
494.08	20980.56
494.25	21001.63
494.43	20968.86
494.61	21029.71
494.79	21710.81
494.96	21207.59
495.14	21539.95
495.32	21876.99
495.49	21696.77
495.67	21589.10
495.85	21879.33
496.02	22195.30
496.20	22370.84
496.38	22258.49
496.55	22129.77
496.73	23119.81
496.91	22897.46
497.09	22618.94
497.26	22787.46
497.44	22988.74
497.62	23281.31
497.79	23297.69
497.97	22852.99
498.14	23262.58
498.32	23398.34
498.50	23639.41
498.67	23726.01
498.85	23899.21
499.03	24079.43
499.20	23929.64
499.38	24336.89
499.56	24252.63
499.73	24507.75
499.91	24388.38
500.08	24748.82
500.26	24510.09
500.44	24374.34
500.61	24538.18
500.79	24648.18
500.97	24786.27
501.14	25137.35
501.32	25509.50
501.49	25123.31
501.67	25371.41
501.84	25252.04
502.02	25535.24
502.20	25289.49
502.37	25741.21
502.55	25612.48
502.72	25706.10
502.90	25797.38
503.07	25624.18
503.25	26171.87
503.43	25975.27
503.60	26082.93
503.78	26363.79
503.95	26005.69
504.13	26089.95
504.30	26539.33
504.48	26658.70
504.65	26363.79
504.83	26815.52
505.01	26747.64
505.18	26885.73
505.36	26874.03
505.53	27346.82
505.71	27796.20
505.88	27482.57
506.06	27005.10
506.23	27335.12
506.41	27372.57
506.58	27454.48
506.76	27641.73
506.93	27857.06
507.11	27931.95
507.28	27967.06
507.46	27761.09
507.63	27938.97
507.81	27995.15
507.98	28002.17
508.16	28060.68
508.33	28098.13
508.50	28173.03
508.68	28577.94
508.85	28697.31
509.03	28872.85
509.20	28386.02
509.38	29116.26
509.55	28992.22
509.73	29296.49
509.90	29123.29
510.08	28896.25
510.25	29116.26
510.42	29530.54
510.60	29467.34
510.77	29692.04
510.95	29696.72
511.12	29507.13
511.30	30012.69
511.47	30232.70
511.64	29963.54
511.82	30162.48
511.99	29984.60
512.17	30015.03
512.34	30129.72
512.51	30057.16
512.69	30522.93
512.86	30167.16
513.04	30906.77
513.21	30787.41
513.38	30583.78
513.56	30761.66
513.73	30387.18
513.90	30909.11
514.08	30829.54
514.25	31042.53
514.43	30785.07
514.60	30862.30
514.77	31321.05
514.95	31524.68
515.12	31686.17
515.29	31536.38
515.47	31725.96
515.64	31253.17
515.81	31302.32
515.99	31672.13
516.16	31604.25
516.33	31749.37
516.51	31873.42
516.68	31665.11
516.85	31351.48
517.03	31608.93
517.20	31892.14
517.37	32006.83
517.54	32009.17
517.72	32264.28
517.89	32170.66
518.06	32271.31
518.24	32123.85
518.41	32121.51
518.58	32411.74
518.75	32259.60
518.93	32870.48
519.10	32811.97
519.27	32952.40
519.45	32954.74
519.62	32971.13
519.79	33104.54
519.96	33134.96
520.14	33207.52
520.31	33607.75
520.48	33549.24
520.65	32919.63
520.83	33949.47
521.00	33333.91
521.17	33682.65
521.34	33427.53
521.52	33663.93
521.69	33837.12
521.86	34157.78
522.03	33914.36
522.20	34024.37
522.38	34298.21
522.55	34064.16
522.72	33944.79
522.89	34368.43
523.07	34312.25
523.24	33713.08
523.41	34497.16
523.58	34335.66
523.75	34841.21
523.92	34728.87
524.10	34859.94
524.27	34820.15
524.44	34976.97
524.61	34771.00
524.78	35379.54
524.96	35775.09
525.13	35351.45
525.30	35332.73
525.47	35204.00
525.64	35365.49
525.81	35372.52
525.98	35489.54
526.16	35058.88
526.33	34951.22
526.50	35526.99
526.67	35349.11
526.84	35835.94
527.01	35541.03
527.18	35538.69
527.36	35894.46
527.53	35662.74
527.70	35845.30
527.87	36266.60
528.04	35639.34
528.21	36184.68
528.38	36158.94
528.55	36418.74
528.72	36102.76
528.89	36641.09
529.07	36463.21
529.24	36266.60
529.41	36678.54
529.58	36039.57
529.75	36350.86
529.92	36851.73
530.09	37034.30
530.26	36603.64
530.43	36917.27
530.60	36708.96
530.77	36744.07
530.94	37015.57
531.11	36945.36
531.28	37041.32
531.46	37305.80
531.63	37280.05
531.80	36723.01
531.97	37298.78
532.14	37619.43
532.31	36903.23
532.48	37010.89
532.65	37837.10
532.82	37401.76
532.99	37638.15
533.16	37436.87
533.33	37455.59
533.50	37879.23
533.67	37504.74
533.84	37354.95
534.01	37741.14
534.18	37769.22
534.35	37982.21
534.52	38251.38
534.69	37734.12
534.86	38036.05
535.03	38195.20
535.20	38691.40
535.37	38176.48
535.54	38710.12
535.71	38106.26
535.88	38476.07
536.05	38375.42
536.22	38143.71
536.38	38223.29
536.55	38384.79
536.72	38607.14
536.89	38628.20
537.06	38785.02
537.23	38604.80
537.40	38630.54
537.57	38642.24
537.74	38799.06
537.91	39002.69
538.08	39564.42
538.25	38370.74
538.42	38834.17
538.59	39309.30
538.75	38717.14
538.92	38782.68
539.09	39201.63
539.26	39091.63
539.43	39072.90
539.60	39515.26
539.77	39208.65
539.94	39349.09
540.11	39269.51
540.28	39831.24
540.44	39234.40
540.61	39419.30
540.78	39405.26
540.95	39356.11
541.12	39482.50
541.29	39508.24
541.46	39381.85
541.62	39384.19
541.79	39849.96
541.96	39648.68
542.13	39648.68
542.30	39786.77
542.47	40032.52
542.63	39931.88
542.80	39784.43
542.97	40390.62
543.14	40533.40
543.31	40685.53
543.48	40519.35
543.64	40563.82
543.81	40765.11
543.98	40816.60
544.15	40837.67
544.32	40769.79
544.48	41270.67
544.65	40842.35
544.82	40889.16
544.99	40334.45
545.16	41003.85
545.32	40788.52
545.49	41006.19
545.66	41383.01
545.83	40987.46
546.00	41282.37
546.16	40957.03
546.33	41322.16
546.50	40722.98
546.67	41429.82
546.83	40954.69
547.00	41031.93
547.17	40598.93
547.34	41104.49
547.50	41464.93
547.67	41544.51
547.84	41436.84
548.00	41378.33
548.17	41801.97
548.34	41287.05
548.51	41614.72
548.67	41673.24
548.84	41848.78
549.01	41261.30
549.18	41354.93
549.34	41361.95
549.51	42440.93
549.68	42466.68
549.84	41752.82
550.01	41792.61
550.18	41911.97
550.34	41937.72
550.51	41626.43
550.68	41923.68
550.84	41902.61
551.01	41811.33
551.18	41565.57
551.34	42061.77
551.51	42066.45
551.68	42244.33
551.84	42129.64
552.01	42431.57
552.18	42101.56
552.34	41841.76
552.51	42595.41
552.68	42431.57
552.84	42183.48
553.01	42316.89
553.18	42766.27
553.34	42291.14
553.51	42078.15
553.67	42621.16
553.84	42820.10
554.01	42609.45
554.17	42726.48
554.34	42784.99
554.51	42937.13
554.67	42742.86
554.84	42574.34
555.00	42560.30
555.17	42808.40
555.33	42993.30
555.50	42850.53
555.67	42822.44
555.83	42747.54
556.00	42817.76
556.16	43000.32
556.33	43229.69
556.50	42796.70
556.66	43351.40
556.83	42712.44
556.99	43222.67
557.16	43487.15
557.32	42918.40
557.49	43152.46
557.65	42859.89
557.82	42684.35
557.98	42810.74
558.15	42836.48
558.32	43037.77
558.48	43320.98
558.65	43351.40
558.81	42469.02
558.98	43225.01
559.14	43030.75
559.31	43428.64
559.47	42967.55
559.64	43583.12
559.80	43990.37
559.97	43833.55
560.13	43306.93
560.30	43606.52
560.46	43178.20
560.63	43709.50
560.79	43730.57
560.96	43456.73
561.12	43166.50
561.29	43276.51
561.45	43620.56
561.61	43379.49
561.78	43744.61
561.94	43728.23
562.11	43566.73
562.27	43494.18
562.44	43749.29
562.60	43810.15
562.77	44067.61
562.93	43487.15
563.10	43728.23
563.26	43379.49
563.42	43730.57
563.59	43716.53
563.75	43976.33
563.92	43580.78
564.08	44083.99
564.24	44013.77
564.41	43962.28
564.57	43779.72
564.74	43835.89
564.90	44151.87
565.07	44294.64
565.23	43887.39
565.39	43648.65
565.56	43966.96
565.72	43632.27
565.88	44154.21
566.05	43957.60
566.21	44105.06
566.38	44079.31
566.54	43576.09
566.70	44409.32
566.87	44437.41
567.03	43922.49
567.19	44350.81
567.36	43800.79
567.52	44151.87
567.68	44301.66
567.85	44243.15
568.01	44105.06
568.17	44065.27
568.34	44121.44
568.50	43798.44
568.66	44254.85
568.83	44065.27
568.99	43775.04
569.15	43908.45
569.32	43945.90
569.48	44081.65
569.64	44236.12
569.81	44154.21
569.97	44114.42
570.13	44395.28
570.30	43931.86
570.46	43840.57
570.62	44088.67
570.78	44224.42
570.95	44030.16
571.11	44231.44
571.27	44053.56
571.43	44247.83
571.60	43936.54
571.76	44304.00
571.92	44149.53
572.09	43873.34
572.25	43896.75
572.41	44196.34
572.57	44360.17
572.74	44694.87
572.90	44353.15
573.06	44451.45
573.22	44074.63
573.38	44573.16
573.55	44399.96
573.71	44446.77
573.87	44123.78
574.03	44540.39
574.20	44545.08
574.36	44816.58
574.52	44254.85
574.68	44547.42
574.84	44500.61
575.01	44722.96
575.17	44112.08
575.33	44268.89
575.49	44278.25
575.65	44882.11
575.82	44570.82
575.98	44512.31
576.14	45050.63
576.30	44774.45
576.46	43866.32
576.62	44163.57
576.79	44381.24
576.95	44259.53
577.11	44694.87
577.27	44676.15
577.43	44921.90
577.59	44332.09
577.75	44416.35
577.92	44093.35
578.08	44032.50
578.24	44341.45
578.40	44404.64
578.56	44397.62
578.72	44381.24
578.88	44243.15
579.04	44521.67
579.21	44325.07
579.37	44498.26
579.53	44720.62
579.69	44484.22
579.85	44910.20
580.01	44772.11
580.17	44292.30
580.33	44664.44
580.49	44158.89
580.65	44577.84
580.82	44505.29
580.98	44231.44
581.14	44332.09
581.30	44746.36
581.46	44751.04
581.62	44739.34
581.78	45052.97
581.94	45022.54
582.10	44631.68
582.26	44552.10
582.42	44299.32
582.58	44116.76
582.74	44552.10
582.90	44472.52
583.06	44573.16
583.22	44556.78
583.38	44713.59
583.54	44755.72
583.70	44409.32
583.86	44322.72
584.02	44355.49
584.18	45038.93
584.34	44973.39
584.50	44519.33
584.66	44636.36
584.82	44582.52
584.98	44737.00
585.14	44980.42
585.30	44671.46
585.46	44519.33
585.62	44715.93
585.78	44488.90
585.94	44914.88
586.10	44402.30
586.26	44301.66
586.42	44465.50
586.58	44814.24
586.74	44856.37
586.90	44755.72
587.06	44568.48
587.22	44954.67
587.38	44442.09
587.54	44994.46
587.70	44498.26
587.86	44650.40
588.02	44708.91
588.18	45221.49
588.34	44868.07
588.49	44158.89
588.65	44479.54
588.81	43824.19
588.97	44601.25
589.13	44531.03
589.29	44692.53
589.45	44837.64
589.61	44432.73
589.77	45331.50
589.93	44886.79
590.08	44832.96
590.24	45343.20
