SpectraSuite Data File
++++++++++++++++++++++++++++++++++++
Date: Fri Oct 25 10:48:04 EDT 2013
User: price-jones
Dark Spectrum Present: No
Reference Spectrum Present: No
Number of Sampled Component Spectra: 1
Spectrometers: USB2+H05261
Integration Time (usec): 100000 (USB2+H05261)
Spectra Averaged: 1 (USB2+H05261)
Boxcar Smoothing: 0 (USB2+H05261)
Correct for Electrical Dark: No (USB2+H05261)
Strobe/Lamp Enabled: No (USB2+H05261)
Correct for Detector Non-linearity: No (USB2+H05261)
Correct for Stray Light: No (USB2+H05261)
Number of Pixels in Processed Spectrum: 2048
>>>>>Begin Processed Spectral Data<<<<<
365.73	203.63
365.92	203.63
366.12	203.63
366.32	86.60
366.52	46.81
366.72	32.77
366.91	0.00
367.11	67.88
367.31	21.06
367.51	72.56
367.70	81.92
367.90	58.51
368.10	7.02
368.30	49.15
368.49	77.24
368.69	147.45
368.89	81.92
369.09	4.68
369.28	112.35
369.48	67.88
369.68	95.96
369.87	100.64
370.07	124.05
370.27	81.92
370.47	205.97
370.66	327.68
370.86	393.21
371.06	433.00
371.25	379.17
371.45	423.64
371.65	444.70
371.84	454.06
372.04	400.23
372.24	575.77
372.44	526.62
372.63	498.53
372.83	472.79
373.03	510.24
373.22	407.25
373.42	500.87
373.62	505.56
373.81	517.26
374.01	566.41
374.21	543.00
374.40	477.47
374.60	519.60
374.79	578.11
374.99	535.98
375.19	585.13
375.38	655.35
375.58	535.98
375.78	587.47
375.97	592.16
376.17	669.39
376.37	641.31
376.56	627.26
376.76	603.86
376.95	540.66
377.15	603.86
377.35	587.47
377.54	580.45
377.74	629.60
377.93	550.03
378.13	592.16
378.33	711.52
378.52	580.45
378.72	592.16
378.91	585.13
379.11	550.03
379.31	575.77
379.50	559.39
379.70	662.37
379.89	596.84
380.09	599.18
380.28	732.59
380.48	594.50
380.68	608.54
380.87	704.50
381.07	592.16
381.26	685.78
381.46	669.39
381.65	615.56
381.85	706.84
382.04	727.91
382.24	676.41
382.43	674.07
382.63	650.67
382.83	737.27
383.02	739.61
383.22	732.59
383.41	671.73
383.61	730.25
383.80	763.01
384.00	697.48
384.19	706.84
384.39	720.88
384.58	798.12
384.78	734.93
384.97	627.26
385.17	699.82
385.36	751.31
385.56	793.44
385.75	809.83
385.95	847.27
386.14	748.97
386.34	753.65
386.53	744.29
386.72	671.73
386.92	884.72
387.11	779.40
387.31	772.38
387.50	828.55
387.70	849.61
387.89	767.70
388.09	851.96
388.28	737.27
388.48	882.38
388.67	903.45
388.86	861.32
389.06	910.47
389.25	854.30
389.45	910.47
389.64	873.02
389.84	912.81
390.03	821.53
390.22	835.57
390.42	903.45
390.61	873.02
390.81	945.58
391.00	987.71
391.19	945.58
391.39	873.02
391.58	1020.47
391.78	870.68
391.97	966.64
392.16	990.05
392.36	994.73
392.55	952.60
392.75	957.28
392.94	1020.47
393.13	966.64
393.33	992.39
393.52	971.32
393.71	1053.24
393.91	964.30
394.10	966.64
394.29	1020.47
394.49	1032.18
394.68	1102.39
394.88	1018.13
395.07	1060.26
395.26	1048.56
395.46	1076.65
395.65	1149.20
395.84	1177.29
396.04	1165.59
396.23	1165.59
396.42	1137.50
396.62	1118.78
396.81	1029.84
397.00	1137.50
397.19	1181.97
397.39	1219.42
397.58	1205.38
397.77	1214.74
397.97	1240.48
398.16	1261.55
398.35	1238.14
398.55	1238.14
398.74	1207.72
398.93	1282.61
399.12	1359.85
399.32	1263.89
399.51	1327.08
399.70	1336.45
399.90	1371.55
400.09	1310.70
400.28	1437.09
400.47	1322.40
400.67	1317.72
400.86	1446.45
401.05	1418.36
401.24	1423.05
401.44	1458.15
401.63	1404.32
401.82	1390.28
402.01	1394.96
402.21	1406.66
402.40	1549.43
402.59	1495.60
402.78	1425.39
402.97	1519.01
403.17	1427.73
403.36	1542.41
403.55	1586.88
403.74	1666.46
403.93	1561.14
404.13	1575.18
404.32	1579.86
404.51	1551.78
404.70	1668.80
404.89	1722.63
405.09	1727.32
405.28	1760.08
405.47	1694.55
405.66	1785.83
405.85	1664.12
406.05	1722.63
406.24	1741.36
406.43	1802.21
406.62	1923.92
406.81	1914.56
407.00	1851.36
407.20	1767.10
407.39	1893.49
407.58	1827.96
407.77	1891.15
407.96	1944.99
408.15	1994.14
408.34	1699.23
408.54	1895.83
408.73	1923.92
408.92	1947.33
409.11	1991.80
409.30	1879.45
409.49	1994.14
409.68	2022.22
409.87	1996.48
410.07	2078.40
410.26	2083.08
410.45	2033.93
410.64	2129.89
410.83	2183.72
411.02	2174.36
411.21	2249.25
411.40	2167.34
411.59	2216.49
411.78	2200.10
411.98	2228.19
412.17	2249.25
412.36	2277.34
412.55	2314.79
412.74	2218.83
412.93	2333.51
413.12	2272.66
413.31	2415.43
413.50	2480.97
413.69	2544.16
413.88	2581.61
414.07	2495.01
414.26	2546.50
414.45	2553.52
414.64	2539.48
414.83	2532.46
415.02	2616.72
415.22	2642.46
415.41	2682.25
415.60	2684.59
415.79	2736.09
415.98	2803.96
416.17	2825.03
416.36	2761.83
416.55	2869.50
416.74	2796.94
416.93	2832.05
417.12	2930.35
417.31	2944.39
417.50	2932.69
417.69	2991.20
417.88	2939.71
418.07	3056.74
418.26	3049.72
418.45	3150.36
418.64	3124.62
418.83	2991.20
419.02	3218.24
419.21	3173.77
419.39	3096.53
419.58	3112.91
419.77	3094.19
419.96	3133.98
420.15	3372.71
420.34	3143.34
420.53	3321.22
420.72	3283.77
420.91	3274.41
421.10	3339.94
421.29	3351.65
421.48	3176.11
421.67	3363.35
421.86	3246.32
422.05	3295.47
422.24	3316.54
422.43	3396.12
422.61	3379.73
422.80	3396.12
422.99	3384.41
423.18	3445.27
423.37	3471.01
423.56	3531.87
423.75	3482.72
423.94	3204.19
424.13	3267.39
424.32	3269.73
424.50	3281.43
424.69	3550.59
424.88	3452.29
425.07	3391.44
425.26	3499.10
425.45	3471.01
425.64	3445.27
425.83	3557.61
426.01	3566.98
426.20	3463.99
426.39	3592.72
426.58	3456.97
426.77	3602.08
426.96	3620.81
427.15	3454.63
427.33	3688.68
427.52	3499.10
427.71	3770.60
427.90	3632.51
428.09	3702.73
428.28	3744.86
428.46	3740.18
428.65	3679.32
428.84	3758.90
429.03	3836.14
429.22	3669.96
429.40	3653.58
429.59	3758.90
429.78	3536.55
429.97	3630.17
430.16	3737.84
430.34	3712.09
430.53	3648.90
430.72	3595.06
430.91	3922.74
431.10	3908.69
431.28	4067.85
431.47	3955.51
431.66	4060.83
431.85	4065.51
432.03	4007.00
432.22	4079.55
432.41	4021.04
432.60	4070.19
432.79	4184.88
432.97	4058.49
433.16	4219.99
433.35	4170.83
433.54	4217.65
433.72	4140.41
433.91	4046.79
434.10	4112.32
434.28	4329.99
434.47	4252.75
434.66	4379.14
434.85	4152.11
435.03	4346.37
435.22	4227.01
435.41	4514.89
435.59	4451.70
435.78	4447.02
435.97	4489.15
436.16	4484.47
436.34	4421.27
436.53	4510.21
436.72	4542.98
436.90	4568.73
437.09	4505.53
437.28	4547.66
437.46	4615.54
437.65	4496.17
437.84	4568.73
438.02	4578.09
438.21	4622.56
438.40	4648.30
438.58	4720.86
438.77	4847.25
438.96	4746.61
439.14	4858.95
439.33	4999.38
439.52	4898.74
439.70	4884.70
439.89	4889.38
440.08	4957.25
440.26	5130.45
440.45	5027.47
440.63	5158.54
440.82	5198.33
441.01	5240.46
441.19	5261.52
441.38	5462.81
441.57	5270.89
441.75	5397.28
441.94	5476.85
442.12	5324.72
442.31	5516.64
442.50	5453.45
442.68	5540.05
442.87	5518.98
443.05	5418.34
443.24	5626.65
443.43	5514.30
443.61	5664.10
443.80	5710.91
443.98	5619.63
444.17	5425.36
444.35	5701.54
444.54	5783.46
444.73	5778.78
444.91	5563.45
445.10	5673.46
445.28	5724.95
445.47	5804.53
445.65	5659.42
445.84	5867.72
446.02	5895.81
446.21	5968.37
446.39	5558.77
446.58	5874.74
446.77	5717.93
446.95	5717.93
447.14	5905.17
447.32	5830.27
447.51	5825.59
447.69	5750.70
447.88	5832.62
448.06	5942.62
448.25	5699.20
448.43	5699.20
448.62	5912.19
448.80	5785.80
448.99	5994.11
449.17	6005.81
449.36	5923.90
449.54	6094.76
449.73	6195.40
449.91	5991.77
450.10	6113.48
450.28	6368.60
450.46	6263.27
450.65	6249.23
450.83	6270.30
451.02	6169.65
451.20	6387.32
451.39	6321.79
451.57	6076.03
451.76	6211.78
451.94	6321.79
452.13	6373.28
452.31	6359.24
452.49	6188.38
452.68	6392.00
452.86	6373.28
453.05	6415.41
453.23	6431.79
453.42	6380.30
453.60	6450.52
453.78	6466.90
453.97	6525.41
454.15	6555.84
454.34	6494.99
454.52	6628.40
454.70	6626.06
454.89	6485.62
455.07	6579.25
455.26	6644.78
455.44	6806.28
455.62	6757.13
455.81	6829.68
455.99	6754.79
456.17	6789.89
456.36	6621.38
456.54	7070.76
456.73	6803.94
456.91	7360.98
457.09	7110.55
457.28	7351.62
457.46	6953.73
457.64	7173.74
457.83	7157.36
458.01	7030.97
458.19	7098.84
458.38	7136.29
458.56	7421.84
458.74	7208.85
458.93	7208.85
459.11	7276.73
459.29	7339.92
459.48	7501.42
459.66	7283.75
459.84	7459.29
460.03	7557.59
460.21	7307.15
460.39	7515.46
460.57	7545.89
460.76	7370.35
460.94	7616.10
461.12	7735.47
461.31	7492.05
461.49	7620.78
461.67	7669.94
461.85	7859.52
462.04	7583.34
462.22	8273.79
462.40	7885.26
462.59	7801.01
462.77	7899.31
462.95	8044.42
463.13	7730.79
463.32	7721.43
463.50	7960.16
463.68	8018.68
463.86	7925.05
464.05	7859.52
464.23	7911.01
464.41	8070.17
464.59	7908.67
464.78	8173.15
464.96	7969.52
465.14	8203.58
465.32	8154.43
465.50	7981.23
465.69	8077.19
465.87	8264.43
466.05	8166.13
466.23	8102.93
466.41	8210.60
466.60	8454.02
466.78	8140.38
466.96	8189.53
467.14	8283.16
467.32	8456.36
467.51	8276.13
467.69	8124.00
467.87	8168.47
468.05	8416.57
468.23	8273.79
468.41	8318.26
468.60	8334.65
468.78	8477.42
468.96	8514.87
469.14	8652.96
469.32	8648.28
469.50	8582.74
469.69	8547.64
469.87	8769.99
470.05	8779.35
470.23	8793.39
470.41	8643.60
470.59	8823.82
470.77	8727.86
470.95	8720.84
471.14	8910.42
471.32	8812.12
471.50	9294.27
471.68	9142.13
471.86	9132.77
472.04	9280.22
472.22	9259.16
472.40	9048.51
472.58	9245.12
472.77	9135.11
472.95	9523.64
473.13	9516.62
473.31	9404.27
473.49	9305.97
473.67	9516.62
473.85	9474.49
474.03	9729.61
474.21	9743.65
474.39	9729.61
474.57	9785.78
474.75	9881.74
474.93	9907.49
475.12	9783.44
475.30	9968.34
475.48	10043.24
475.66	10059.62
475.84	10024.51
476.02	9961.32
476.20	10200.05
476.38	10251.55
476.56	10703.27
476.74	10464.54
476.92	10714.97
477.10	10572.20
477.28	10672.84
477.46	10630.71
477.64	10867.11
477.82	11094.14
478.00	11300.11
478.18	11262.66
478.36	11040.31
478.54	11154.99
478.72	11517.78
478.90	11309.47
479.08	11496.71
479.26	11962.48
479.44	11805.66
479.62	11690.98
479.80	11948.43
479.98	11943.75
480.16	12035.03
480.34	12182.49
480.52	12290.15
480.70	12351.01
480.88	12264.41
481.06	12173.13
481.24	12374.41
481.41	12610.81
481.59	12730.17
481.77	12781.67
481.95	12737.20
482.13	13004.02
482.31	13008.70
482.49	13135.09
482.67	13268.50
482.85	13427.65
483.03	13523.62
483.21	13839.59
483.39	13757.67
483.57	13664.05
483.74	13975.34
483.92	13774.05
484.10	13947.25
484.28	14345.14
484.46	14377.91
484.64	14668.14
484.82	14396.64
485.00	14523.02
485.18	14714.95
485.35	14759.42
485.53	14703.25
485.71	14956.02
485.89	15269.66
486.07	14913.89
486.25	15225.18
486.43	15145.61
486.61	15845.43
486.78	15559.88
486.96	15831.38
487.14	15712.02
487.32	15894.58
487.50	16180.12
487.68	16341.62
487.85	16463.33
488.03	16587.38
488.21	16903.35
488.39	16854.20
488.57	16772.28
488.75	16872.92
488.92	17406.56
489.10	17455.72
489.28	17476.78
489.46	17706.15
489.64	17596.15
489.81	17841.90
489.99	17937.87
490.17	18277.24
490.35	18586.19
490.53	18183.62
490.70	18581.51
490.88	18607.26
491.06	18527.68
491.24	18487.89
491.41	18710.24
491.59	18661.09
491.77	18665.77
491.95	18918.55
492.13	19147.92
492.30	19225.16
492.48	19620.71
492.66	19592.62
492.84	19339.85
493.01	19770.51
493.19	19789.23
493.37	20037.33
493.54	20208.19
493.72	20327.55
493.90	20255.00
494.08	20334.57
494.25	20746.51
494.43	20758.21
494.61	20903.32
494.79	21116.31
494.96	21238.02
495.14	21209.93
495.32	21156.10
495.49	21167.80
495.67	21476.76
495.85	21755.28
496.02	21600.80
496.20	21986.99
496.38	22092.32
496.55	22192.96
496.73	22438.72
496.91	22403.61
497.09	22354.46
497.26	22464.46
497.44	22471.48
497.62	22946.61
497.79	22991.08
497.97	22836.61
498.14	22958.31
498.32	22960.66
498.50	23452.17
498.67	23562.17
498.85	23557.49
499.03	23634.73
499.20	24034.96
499.38	23784.52
499.56	24072.41
499.73	23978.79
499.91	24067.73
500.08	24247.95
500.26	24114.54
500.44	24051.34
500.61	23950.70
500.79	24283.06
500.97	24676.27
501.14	24662.22
501.32	24835.42
501.49	24826.06
501.67	24760.53
501.84	25025.01
502.02	25441.62
502.20	25371.41
502.37	25523.54
502.55	25333.96
502.72	25551.63
502.90	25345.66
503.07	25493.12
503.25	25383.11
503.43	25848.88
503.60	25720.15
503.78	25937.82
503.95	25612.48
504.13	25820.79
504.30	26017.40
504.48	25773.98
504.65	26342.73
504.83	26471.46
505.01	26714.87
505.18	26103.99
505.36	27016.80
505.53	26658.70
505.71	26869.35
505.88	26766.37
506.06	26948.93
506.23	26546.36
506.41	26876.37
506.58	27615.98
506.76	27632.36
506.93	27431.08
507.11	27180.64
507.28	27508.32
507.46	27573.85
507.63	27374.91
507.81	28032.60
507.98	27358.52
508.16	28126.22
508.33	28079.41
508.50	27988.13
508.68	28233.88
508.85	27934.29
509.03	28327.50
509.20	28449.21
509.38	28627.09
509.55	28659.86
509.73	28737.10
509.90	28348.57
510.08	28634.11
510.25	29020.30
510.42	28914.98
510.60	28870.51
510.77	29125.63
510.95	29652.25
511.12	29003.92
511.30	29553.94
511.47	29518.84
511.64	29369.04
511.82	29692.04
511.99	29495.43
512.17	29830.13
512.34	29420.53
512.51	30221.00
512.69	29951.84
512.86	30235.04
513.04	30213.98
513.21	29975.24
513.38	30267.81
513.56	30118.01
513.73	30185.89
513.90	30108.65
514.08	30089.93
514.25	30623.57
514.43	30494.84
514.60	30789.75
514.77	30642.29
514.95	31000.40
515.12	30567.40
515.29	31232.11
515.47	31133.81
515.64	31276.58
515.81	30817.83
515.99	31255.51
516.16	31503.61
516.33	31325.73
516.51	31714.26
516.68	31213.38
516.85	31269.56
517.03	31316.37
517.20	31723.62
517.37	31674.47
517.54	31957.67
517.72	32163.64
517.89	31501.27
518.06	32137.90
518.24	32034.91
518.41	32205.77
518.58	32161.30
518.75	32102.79
518.93	32488.98
519.10	32463.23
519.27	32385.99
519.45	32266.63
519.62	32821.33
519.79	32400.04
519.96	32753.46
520.14	32699.62
520.31	32671.54
520.48	33078.79
520.65	32917.29
520.83	32957.08
521.00	33256.67
521.17	33415.83
521.34	33371.36
521.52	33256.67
521.69	33256.67
521.86	33490.73
522.03	33823.08
522.20	33783.29
522.38	33567.96
522.55	34227.99
522.72	33497.75
522.89	34017.35
523.07	33977.56
523.24	33947.13
523.41	34244.38
523.58	33806.70
523.75	34710.14
523.92	34480.77
524.10	34520.56
524.27	34637.59
524.44	34602.48
524.61	34843.56
524.78	34670.36
524.96	34579.07
525.13	34932.50
525.30	35196.98
525.47	35232.08
525.64	34735.89
525.81	34991.01
525.98	35314.00
526.16	35028.46
526.33	34672.70
526.50	34960.58
526.67	35047.18
526.84	35040.16
527.01	35108.04
527.18	35566.78
527.36	35622.95
527.53	35171.23
527.70	36074.68
527.87	35842.96
528.04	35744.66
528.21	35700.19
528.38	35732.96
528.55	35700.19
528.72	35665.08
528.89	36046.59
529.07	36070.00
529.24	35693.17
529.41	36313.41
529.58	35807.86
529.75	35873.39
529.92	36582.57
530.09	36341.50
530.26	36460.87
530.43	36580.23
530.60	36156.60
530.77	36767.48
530.94	36697.26
531.11	36458.52
531.28	36582.57
531.46	36547.47
531.63	36765.14
531.80	37151.32
531.97	36711.30
532.14	36638.75
532.31	36802.58
532.48	36994.51
532.65	37385.38
532.82	36811.95
532.99	37539.85
533.16	37081.11
533.33	37251.97
533.50	37834.76
533.67	37614.75
533.84	36870.46
534.01	37237.92
534.18	37350.27
534.35	37827.74
534.52	37397.08
534.69	37219.20
534.86	37937.74
535.03	37607.73
535.20	38019.66
535.37	37940.08
535.54	38220.95
535.71	37832.42
535.88	38139.03
536.05	37731.78
536.22	38284.14
536.38	38305.21
536.55	37907.32
536.72	38115.62
536.89	37865.19
537.06	38019.66
537.23	38581.39
537.40	38022.00
537.57	37811.35
537.74	38356.70
537.91	38658.63
538.08	38649.27
538.25	38171.80
538.42	38635.22
538.59	38747.57
538.75	38630.54
538.92	38733.53
539.09	39243.76
539.26	38909.07
539.43	38773.31
539.60	38703.10
539.77	38752.25
539.94	38990.98
540.11	38607.14
540.28	38763.95
540.44	38878.64
540.61	38932.47
540.78	38967.58
540.95	38745.23
541.12	38967.58
541.29	39002.69
541.46	38796.72
541.62	39100.99
541.79	39742.30
541.96	39122.05
542.13	39318.66
542.30	39414.62
542.47	39597.18
542.63	39620.59
542.80	39723.57
542.97	40016.14
543.14	40229.13
543.31	39676.76
543.48	40130.83
543.64	40273.60
543.81	40271.26
543.98	40123.80
544.15	39971.67
544.32	40905.54
544.48	40753.41
544.65	40535.74
544.82	40397.65
544.99	40105.08
545.16	40388.28
545.32	40306.37
545.49	40762.77
545.66	40865.75
545.83	40325.09
546.00	40587.23
546.16	40797.88
546.33	40236.15
546.50	40301.68
546.67	40638.72
546.83	40397.65
547.00	40566.16
547.17	40821.28
547.34	41017.89
547.50	40620.00
547.67	41155.98
547.84	41027.25
548.00	41141.94
548.17	40884.48
548.34	41326.84
548.51	41797.29
548.67	41471.95
548.84	41083.42
549.01	40917.25
549.18	41240.24
549.34	40952.35
549.51	41158.32
549.68	41354.93
549.84	41502.38
550.01	41750.48
550.18	41251.94
550.34	41146.62
550.51	41560.89
550.68	41666.22
550.84	41127.89
551.01	42064.11
551.18	41469.61
551.34	41179.39
551.51	41385.35
551.68	41921.34
551.84	41846.44
552.01	41619.41
552.18	41745.80
552.34	41418.12
552.51	42080.49
552.68	41961.12
552.84	42356.67
553.01	42057.09
553.18	41841.76
553.34	42181.13
553.51	41708.35
553.67	42012.62
553.84	42078.15
554.01	42483.06
554.17	42562.64
554.34	42139.00
554.51	42192.84
554.67	42232.63
554.84	42260.71
555.00	41923.68
555.17	41998.57
555.33	42609.45
555.50	42293.48
555.67	42560.30
555.83	42340.29
556.00	42279.44
556.16	43082.24
556.33	42876.27
556.50	42209.22
556.66	42459.66
556.83	42611.79
556.99	42574.34
557.16	43096.28
557.32	42508.81
557.49	42644.56
557.65	42611.79
557.82	42745.20
557.98	42845.85
558.15	42604.77
558.32	42941.81
558.48	42672.65
558.65	42710.10
558.81	42817.76
558.98	42792.01
559.14	42988.62
559.31	42962.87
559.47	43068.20
559.64	43543.33
559.80	43297.57
559.97	43005.00
560.13	43042.45
560.30	43250.76
560.46	43283.53
560.63	43115.01
560.79	43344.38
560.96	43388.85
561.12	43138.41
561.29	43625.25
561.45	43154.80
561.61	43033.09
561.78	42862.23
561.94	43194.59
562.11	43009.68
562.27	43306.93
562.44	43349.06
562.60	43435.66
562.77	43365.45
562.93	43171.18
563.10	43615.88
563.26	43391.19
563.42	43414.60
563.59	43583.12
563.75	43627.59
563.92	44044.20
564.08	43456.73
564.24	43412.26
564.41	43690.78
564.57	43248.42
564.74	43555.03
564.90	43498.86
565.07	43356.08
565.23	43302.25
565.39	43770.36
565.56	43494.18
565.72	43693.12
565.88	43861.64
566.05	43515.24
566.21	44140.16
566.38	43770.36
566.54	43248.42
566.70	44034.84
566.87	44479.54
567.03	43735.25
567.19	43847.60
567.36	44292.30
567.52	43826.53
567.68	43697.80
567.85	43849.94
568.01	43959.94
568.17	43641.63
568.34	43901.43
568.50	43880.36
568.66	43786.74
568.83	43957.60
568.99	43859.30
569.15	44009.09
569.32	44144.84
569.48	43643.97
569.64	44009.09
569.81	44158.89
569.97	44107.40
570.13	43955.26
570.30	43711.84
570.46	43945.90
570.62	43632.27
570.78	43686.10
570.95	44067.61
571.11	44212.72
571.27	43395.87
571.43	44051.22
571.60	44378.90
571.76	43786.74
571.92	43941.22
572.09	43859.30
572.25	44133.14
572.41	44203.36
572.57	44442.09
572.74	44191.65
572.90	44406.98
573.06	44212.72
573.22	43938.88
573.38	44076.97
573.55	43763.34
573.71	43976.33
573.87	43782.06
574.03	43597.16
574.20	44247.83
574.36	44093.35
574.52	44318.04
574.68	44332.09
574.84	44624.65
575.01	43997.39
575.17	43999.73
575.33	43910.79
575.49	44191.65
575.65	44264.21
575.82	44140.16
575.98	43803.13
576.14	44746.36
576.30	43920.15
576.46	43782.06
576.62	43629.93
576.79	44170.59
576.95	43571.41
577.11	43590.14
577.27	43791.42
577.43	44458.48
577.59	44062.93
577.75	43955.26
577.92	43660.35
578.08	43817.17
578.24	43878.02
578.40	44046.54
578.56	43800.79
578.72	44032.50
578.88	44509.97
579.04	44219.74
579.21	44107.40
579.37	44460.82
579.53	44109.74
579.69	43611.20
579.85	44215.06
580.01	44762.75
580.17	44273.57
580.33	44275.91
580.49	44205.70
580.65	44332.09
580.82	44442.09
580.98	44156.55
581.14	44095.69
581.30	44229.10
581.46	44189.31
581.62	44268.89
581.78	44217.40
581.94	44896.16
582.10	44416.35
582.26	43988.03
582.42	44112.08
582.58	44676.15
582.74	44154.21
582.90	44500.61
583.06	44285.28
583.22	44362.51
583.38	44278.25
583.54	44582.52
583.70	44502.95
583.86	44648.06
584.02	44364.85
584.18	44655.08
584.34	44231.44
584.50	44746.36
584.66	44287.62
584.82	44210.38
584.98	44191.65
585.14	44322.72
585.30	44453.79
585.46	44304.00
585.62	44168.25
585.78	44158.89
585.94	44163.57
586.10	44182.29
586.26	44271.23
586.42	44453.79
586.58	44325.07
586.74	44425.71
586.90	44100.37
587.06	44292.30
587.22	44481.88
587.38	44189.31
587.54	44706.57
587.70	44720.62
587.86	44411.67
588.02	44746.36
588.18	44301.66
588.34	44615.29
588.49	44060.58
588.65	44353.15
588.81	44037.18
588.97	44332.09
589.13	43922.49
589.29	44671.46
589.45	44296.98
589.61	44561.46
589.77	44748.70
589.93	44783.81
590.08	44233.78
590.24	44825.94
590.40	44795.51
