SpectraSuite Data File
++++++++++++++++++++++++++++++++++++
Date: Fri Oct 25 10:47:16 EDT 2013
User: price-jones
Dark Spectrum Present: No
Reference Spectrum Present: No
Number of Sampled Component Spectra: 1
Spectrometers: USB2+H05261
Integration Time (usec): 100000 (USB2+H05261)
Spectra Averaged: 1 (USB2+H05261)
Boxcar Smoothing: 0 (USB2+H05261)
Correct for Electrical Dark: No (USB2+H05261)
Strobe/Lamp Enabled: No (USB2+H05261)
Correct for Detector Non-linearity: No (USB2+H05261)
Correct for Stray Light: No (USB2+H05261)
Number of Pixels in Processed Spectrum: 2048
>>>>>Begin Processed Spectral Data<<<<<
365.73	138.09
365.92	138.09
366.12	138.09
366.32	4.68
366.52	51.49
366.72	98.30
366.91	21.06
367.11	67.88
367.31	93.62
367.51	39.79
367.70	63.19
367.90	81.92
368.10	56.17
368.30	25.75
368.49	11.70
368.69	39.79
368.89	46.81
369.09	32.77
369.28	86.60
369.48	32.77
369.68	30.43
369.87	145.11
370.07	79.58
370.27	117.03
370.47	177.88
370.66	325.33
370.86	428.32
371.06	465.77
371.25	433.00
371.45	404.91
371.65	482.15
371.84	461.09
372.04	447.04
372.24	409.59
372.44	479.81
372.63	465.77
372.83	484.49
373.03	498.53
373.22	526.62
373.42	482.15
373.62	475.13
373.81	463.43
374.01	491.51
374.21	477.47
374.40	573.43
374.60	557.05
374.79	507.90
374.99	449.38
375.19	528.96
375.38	540.66
375.58	617.90
375.78	526.62
375.97	547.69
376.17	573.43
376.37	578.11
376.56	603.86
376.76	585.13
376.95	638.97
377.15	601.52
377.35	561.73
377.54	617.90
377.74	566.41
377.93	557.05
378.13	603.86
378.33	645.99
378.52	596.84
378.72	582.79
378.91	573.43
379.11	627.26
379.31	629.60
379.50	634.29
379.70	704.50
379.89	641.31
380.09	564.07
380.28	599.18
380.48	730.25
380.68	608.54
380.87	667.05
381.07	725.57
381.26	648.33
381.46	610.88
381.65	631.94
381.85	695.14
382.04	692.80
382.24	596.84
382.43	718.54
382.63	683.44
382.83	702.16
383.02	657.69
383.22	716.20
383.41	657.69
383.61	692.80
383.80	760.67
384.00	760.67
384.19	641.31
384.39	674.07
384.58	695.14
384.78	720.88
384.97	711.52
385.17	718.54
385.36	770.04
385.56	713.86
385.75	734.93
385.95	767.70
386.14	781.74
386.34	770.04
386.53	791.10
386.72	660.03
386.92	774.72
387.11	753.65
387.31	786.42
387.50	774.72
387.70	744.29
387.89	685.78
388.09	737.27
388.28	734.93
388.48	816.85
388.67	868.34
388.86	821.53
389.06	784.08
389.25	884.72
389.45	873.02
389.64	809.83
389.84	863.66
390.03	919.83
390.22	901.11
390.42	957.28
390.61	908.13
390.81	938.55
391.00	966.64
391.19	968.98
391.39	954.94
391.58	945.58
391.78	837.91
391.97	968.98
392.16	866.00
392.36	1001.75
392.55	1020.47
392.75	887.06
392.94	924.51
393.13	887.06
393.33	924.51
393.52	980.68
393.71	976.00
393.91	987.71
394.10	933.87
394.29	950.26
394.49	1043.88
394.68	1100.05
394.88	1116.44
395.07	1048.56
395.26	1053.24
395.46	1135.16
395.65	1128.14
395.84	1214.74
396.04	1135.16
396.23	1034.52
396.42	1121.12
396.62	1095.37
396.81	1163.25
397.00	1050.90
397.19	1132.82
397.39	1142.18
397.58	1132.82
397.77	1149.20
397.97	1109.41
398.16	1254.53
398.35	1177.29
398.55	1158.57
398.74	1252.19
398.93	1352.83
399.12	1263.89
399.32	1306.02
399.51	1193.67
399.70	1336.45
399.90	1217.08
400.09	1364.53
400.28	1350.49
400.47	1247.51
400.67	1359.85
400.86	1486.24
401.05	1338.79
401.24	1392.62
401.44	1416.02
401.63	1446.45
401.82	1446.45
402.01	1420.71
402.21	1453.47
402.40	1479.22
402.59	1507.30
402.78	1488.58
402.97	1441.77
403.17	1521.35
403.36	1530.71
403.55	1465.18
403.74	1551.78
403.93	1486.24
404.13	1575.18
404.32	1589.22
404.51	1507.30
404.70	1528.37
404.89	1598.59
405.09	1692.21
405.28	1561.14
405.47	1603.27
405.66	1792.85
405.85	1774.13
406.05	1713.27
406.24	1790.51
406.43	1668.80
406.62	1849.02
406.81	1860.73
407.00	1753.06
407.20	1727.32
407.39	1795.19
407.58	1748.38
407.77	1809.23
407.96	1884.13
408.15	1856.04
408.34	1844.34
408.54	1834.98
408.73	1806.89
408.92	1884.13
409.11	1858.39
409.30	1944.99
409.49	1881.79
409.68	1888.81
409.87	1973.07
410.07	1989.46
410.26	2008.18
410.45	2022.22
410.64	1982.43
410.83	2038.61
411.02	1989.46
411.21	2085.42
411.40	2125.21
411.59	2125.21
411.78	2193.08
411.98	2324.15
412.17	2263.30
412.36	2190.74
412.55	2246.91
412.74	2335.85
412.93	2216.49
413.12	2349.90
413.31	2406.07
413.50	2342.88
413.69	2328.83
413.88	2420.11
414.07	2436.50
414.26	2413.09
414.45	2473.95
414.64	2555.86
414.83	2544.16
415.02	2534.80
415.22	2619.06
415.41	2651.83
415.60	2583.95
415.79	2698.64
415.98	2836.73
416.17	2708.00
416.36	2815.66
416.55	2722.04
416.74	2778.22
416.93	2834.39
417.12	2843.75
417.31	2794.60
417.50	2761.83
417.69	2848.43
417.88	2808.64
418.07	2946.73
418.26	2885.88
418.45	2881.20
418.64	3005.25
418.83	2979.50
419.02	2974.82
419.21	2972.48
419.39	2972.48
419.58	3080.14
419.77	3173.77
419.96	3185.47
420.15	3126.96
420.34	3105.89
420.53	3227.60
420.72	3211.22
420.91	3173.77
421.10	3194.83
421.29	3330.58
421.48	3077.80
421.67	3332.92
421.86	3295.47
422.05	3220.58
422.24	3227.60
422.43	3148.02
422.61	3414.84
422.80	3316.54
422.99	3307.18
423.18	3316.54
423.37	3456.97
423.56	3311.86
423.75	3473.36
423.94	3293.13
424.13	3122.27
424.32	3150.36
424.50	3234.62
424.69	3428.88
424.88	3499.10
425.07	3403.14
425.26	3236.96
425.45	3393.78
425.64	3403.14
425.83	3396.12
426.01	3342.28
426.20	3438.25
426.39	3400.80
426.58	3265.05
426.77	3466.33
426.96	3361.01
427.15	3590.38
427.33	3618.47
427.52	3576.34
427.71	3618.47
427.90	3597.40
428.09	3454.63
428.28	3595.06
428.46	3604.42
428.65	3634.85
428.84	3639.53
429.03	3749.54
429.22	3637.19
429.40	3667.62
429.59	3669.96
429.78	3503.78
429.97	3581.02
430.16	3625.49
430.34	3716.77
430.53	3822.09
430.72	3805.71
430.91	3754.22
431.10	3737.84
431.28	3824.44
431.47	3915.72
431.66	3943.80
431.85	4039.76
432.03	3997.64
432.22	4135.73
432.41	4102.96
432.60	4117.00
432.79	4030.40
432.97	4074.87
433.16	4079.55
433.35	4091.26
433.54	4004.66
433.72	4117.00
433.91	4072.53
434.10	4091.26
434.28	4161.47
434.47	4198.92
434.66	4271.48
434.85	4252.75
435.03	4301.90
435.22	4250.41
435.41	4337.01
435.59	4156.79
435.78	4355.74
435.97	4463.40
436.16	4236.37
436.34	4280.84
436.53	4372.12
436.72	4578.09
436.90	4416.59
437.09	4367.44
437.28	4278.50
437.46	4510.21
437.65	4395.53
437.84	4465.74
438.02	4566.39
438.21	4540.64
438.40	4477.44
438.58	4643.62
438.77	4727.88
438.96	4723.20
439.14	4819.16
439.33	4880.02
439.52	4971.30
439.70	4978.32
439.89	4798.10
440.08	4898.74
440.26	4973.64
440.45	4964.28
440.63	4983.00
440.82	5055.56
441.01	5107.05
441.19	5203.01
441.38	5355.15
441.57	5287.27
441.75	5357.49
441.94	5509.62
442.12	5310.68
442.31	5446.43
442.50	5451.11
442.68	5441.75
442.87	5345.78
443.05	5526.00
443.24	5589.20
443.43	5373.87
443.61	5556.43
443.80	5631.33
443.98	5577.50
444.17	5277.91
444.35	5584.52
444.54	5626.65
444.73	5682.82
444.91	5591.54
445.10	5708.57
445.28	5537.71
445.47	5563.45
445.65	5504.94
445.84	5654.73
446.02	5643.03
446.21	5528.35
446.39	5631.33
446.58	5708.57
446.77	5696.86
446.95	5547.07
447.14	5860.70
447.32	5844.32
447.51	5561.11
447.69	5778.78
447.88	5774.10
448.06	5701.54
448.25	5738.99
448.43	5830.27
448.62	5720.27
448.80	5696.86
448.99	5846.66
449.17	5844.32
449.36	5849.00
449.54	6087.73
449.73	5937.94
449.91	5926.24
450.10	6066.67
450.28	6256.25
450.46	5980.07
450.65	6080.71
450.83	6246.89
451.02	6150.93
451.20	6312.42
451.39	5987.09
451.57	6176.67
451.76	6174.33
451.94	6277.32
452.13	6272.64
452.31	6115.82
452.49	6017.52
452.68	6265.61
452.86	6155.61
453.05	6305.40
453.23	6307.74
453.42	6338.17
453.60	6328.81
453.78	6572.22
453.97	6340.51
454.15	6394.34
454.34	6225.82
454.52	6434.13
454.70	6340.51
454.89	6548.82
455.07	6527.75
455.26	6665.85
455.44	6574.56
455.62	6406.05
455.81	6654.14
455.99	6724.36
456.17	6827.34
456.36	6537.12
456.54	6766.49
456.73	6785.21
456.91	6740.74
457.09	6878.83
457.28	7094.16
457.46	7035.65
457.64	6958.41
457.83	7014.59
458.01	6693.93
458.19	6993.52
458.38	6895.22
458.56	7185.44
458.74	7159.70
458.93	7157.36
459.11	7080.12
459.29	7206.51
459.48	7246.30
459.66	7155.02
459.84	7279.07
460.03	7421.84
460.21	7461.63
460.39	7344.60
460.57	7386.73
460.76	7470.99
460.94	7581.00
461.12	7665.25
461.31	7536.52
461.49	7538.87
461.67	7454.61
461.85	7456.95
462.04	7412.48
462.22	7864.20
462.40	7669.94
462.59	7611.42
462.77	7602.06
462.95	7777.60
463.13	7550.57
463.32	7836.11
463.50	7772.92
463.68	7871.22
463.86	7768.24
464.05	7751.85
464.23	7756.54
464.41	7925.05
464.59	7662.91
464.78	7981.23
464.96	7964.84
465.14	7693.34
465.32	7983.57
465.50	8116.98
465.69	8021.02
465.87	7992.93
466.05	7918.03
466.23	7829.09
466.41	8049.10
466.60	8112.30
466.78	8030.38
466.96	8079.53
467.14	8124.00
467.32	8189.53
467.51	8109.96
467.69	8147.40
467.87	8107.62
468.05	8402.52
468.23	8175.49
468.41	8166.13
468.60	8315.92
468.78	8538.27
468.96	8250.39
469.14	8542.96
469.32	8587.43
469.50	8259.75
469.69	8517.21
469.87	8671.68
470.05	8692.75
470.23	8650.62
470.41	8713.81
470.59	8865.95
470.77	8746.58
470.95	8823.82
471.14	8870.63
471.32	8786.37
471.50	8826.16
471.68	8856.59
471.86	8809.78
472.04	9053.19
472.22	9078.94
472.40	8990.00
472.58	9057.87
472.77	9092.98
472.95	9149.15
473.13	9385.55
473.31	9137.45
473.49	9193.62
473.67	9252.14
473.85	9198.31
474.03	9535.34
474.21	9535.34
474.39	9591.52
474.57	9645.35
474.75	9666.41
474.93	9851.31
475.12	9624.28
475.30	9839.61
475.48	9877.06
475.66	9898.13
475.84	9755.35
476.02	9991.75
476.20	9958.98
476.38	10279.63
476.56	10441.13
476.74	10286.65
476.92	10235.16
477.10	10352.19
477.28	10541.77
477.46	10560.50
477.64	10686.89
477.82	10785.19
478.00	10939.66
478.18	11047.33
478.36	10801.57
478.54	11274.36
478.72	11091.80
478.90	11225.21
479.08	11421.81
479.26	11431.18
479.44	11377.34
479.62	11492.03
479.80	11529.48
479.98	11679.27
480.16	11665.23
480.34	11808.00
480.52	11885.24
480.70	12088.87
480.88	12142.70
481.06	12152.06
481.24	12142.70
481.41	12446.97
481.59	12578.04
481.77	12596.76
481.95	12791.03
482.13	12954.87
482.31	12648.26
482.49	13006.36
482.67	13092.96
482.85	13158.49
483.03	13287.22
483.21	13261.48
483.39	13544.68
483.57	13708.52
483.74	13640.64
483.92	13825.54
484.10	13603.19
484.28	14040.87
484.46	14310.04
484.64	14263.22
484.82	14300.67
485.00	14305.35
485.18	14593.24
485.35	14897.51
485.53	14443.45
485.71	14569.83
485.89	14684.52
486.07	15030.92
486.25	14860.06
486.43	15098.80
486.61	15176.03
486.78	15360.94
486.96	15583.29
487.14	15913.30
487.32	15910.96
487.50	15817.34
487.68	16020.97
487.85	16262.04
488.03	16379.07
488.21	16594.40
488.39	16634.19
488.57	16540.57
488.75	16861.22
488.92	16842.50
489.10	17209.96
489.28	17184.21
489.46	17291.88
489.64	17156.13
489.81	17635.94
489.99	17797.43
490.17	17804.46
490.35	18099.36
490.53	17970.63
490.70	18228.09
490.88	17928.50
491.06	18689.18
491.24	18291.29
491.41	18466.83
491.59	18806.20
491.77	18553.43
491.95	18911.53
492.13	19096.43
492.30	19140.90
492.48	19239.20
492.66	19082.39
492.84	19147.92
493.01	19662.84
493.19	19569.22
493.37	19873.49
493.54	19934.34
493.72	20175.42
493.90	20016.26
494.08	20114.56
494.25	20365.00
494.43	20407.13
494.61	20795.66
494.79	20760.55
494.96	21027.37
495.14	20863.54
495.32	21097.59
495.49	21069.50
495.67	21451.01
495.85	21565.70
496.02	21582.08
496.20	21659.32
496.38	21755.28
496.55	21837.20
496.73	22286.58
496.91	22143.81
497.09	22097.00
497.26	22237.43
497.44	22410.63
497.62	22419.99
497.79	22597.87
497.97	22562.76
498.14	22693.83
498.32	22960.66
498.50	23014.49
498.67	23363.23
498.85	23154.92
499.03	23442.81
499.20	23152.58
499.38	23367.91
499.56	23545.79
499.73	23587.92
499.91	23594.94
500.08	23726.01
500.26	24137.94
500.44	23630.05
500.61	23901.55
500.79	23901.55
500.97	24238.59
501.14	24641.16
501.32	24458.60
501.49	24837.76
501.67	24521.79
501.84	24718.40
502.02	24669.25
502.20	24833.08
502.37	25263.74
502.55	24964.15
502.72	24805.00
502.90	25331.62
503.07	25057.78
503.25	25001.60
503.43	25329.28
503.60	25483.75
503.78	25642.91
503.95	25685.04
504.13	25642.91
504.30	26291.24
504.48	26085.27
504.65	25692.06
504.83	26078.25
505.01	26122.72
505.18	25954.20
505.36	26497.20
505.53	26024.42
505.71	26735.94
505.88	26518.27
506.06	26045.48
506.23	26515.93
506.41	26171.87
506.58	26602.53
506.76	26785.09
506.93	26831.90
507.11	26827.22
507.28	27351.50
507.46	26871.69
507.63	27433.42
507.81	27316.39
507.98	26923.18
508.16	27424.06
508.33	27482.57
508.50	27683.86
508.68	27850.03
508.85	28041.96
509.03	27641.73
509.20	27763.43
509.38	27997.49
509.55	28587.30
509.73	28343.89
509.90	28320.48
510.08	28158.99
510.25	28713.69
510.42	28617.73
510.60	28751.14
510.77	28849.44
510.95	28797.95
511.12	28872.85
511.30	29053.07
511.47	29149.03
511.64	29170.10
511.82	29563.31
511.99	29209.89
512.17	29453.30
512.34	29186.48
512.51	29364.36
512.69	29558.63
512.86	29518.84
513.04	29773.95
513.21	29795.02
513.38	29799.70
513.56	29680.33
513.73	29460.32
513.90	29750.55
514.08	29764.59
514.25	30260.79
514.43	30103.97
514.60	30567.40
514.77	30410.58
514.95	30485.48
515.12	30478.46
515.29	30717.19
515.47	31028.48
515.64	31082.31
515.81	30499.52
515.99	30754.64
516.16	31075.29
516.33	30719.53
516.51	31108.06
516.68	31126.78
516.85	30937.20
517.03	31016.78
517.20	31227.43
517.37	31461.48
517.54	31040.18
517.72	31328.07
517.89	31299.98
518.06	31524.68
518.24	31454.46
518.41	31512.97
518.58	31608.93
518.75	31274.24
518.93	31704.90
519.10	31688.51
519.27	32348.54
519.45	31948.31
519.62	32086.40
519.79	32151.94
519.96	32348.54
520.14	32587.28
520.31	32751.12
520.48	32308.76
520.65	32575.58
520.83	32835.38
521.00	32720.69
521.17	32886.87
521.34	32818.99
521.52	32966.45
521.69	32711.33
521.86	33254.33
522.03	33331.57
522.20	33347.95
522.38	33640.52
522.55	33214.54
522.72	33226.24
522.89	33359.66
523.07	33900.32
523.24	33186.46
523.41	33865.21
523.58	33530.51
523.75	33991.60
523.92	34232.68
524.10	33902.66
524.27	33921.38
524.44	34330.98
524.61	34433.96
524.78	34204.59
524.96	34120.33
525.13	34518.22
525.30	34223.31
525.47	34560.35
525.64	34656.31
525.81	34380.13
525.98	34646.95
526.16	34632.91
526.33	34415.24
526.50	34794.40
526.67	34668.02
526.84	34665.67
527.01	34958.24
527.18	35005.05
527.36	34897.39
527.53	35269.53
527.70	35414.65
527.87	35105.70
528.04	34855.26
528.21	35316.34
528.38	35349.11
528.55	35648.70
528.72	35522.31
528.89	35768.07
529.07	35419.33
529.24	35620.61
529.41	35985.74
529.58	35351.45
529.75	35957.65
529.92	36282.98
530.09	35503.59
530.26	35906.16
530.43	35976.37
530.60	35597.21
530.77	35934.24
530.94	36149.57
531.11	35988.08
531.28	36442.14
531.46	36500.65
531.63	36458.52
531.80	36472.57
531.97	36151.91
532.14	36407.03
532.31	36538.10
532.48	36631.72
532.65	36514.70
532.82	36435.12
532.99	36683.22
533.16	36388.31
533.33	37191.11
533.50	36804.92
533.67	36849.39
533.84	36758.11
534.01	36996.85
534.18	37113.87
534.35	37027.28
534.52	37053.02
534.69	37195.79
534.86	37298.78
535.03	37088.13
535.20	37567.94
535.37	37790.29
535.54	37722.41
535.71	37371.33
535.88	37368.99
536.05	37537.51
536.22	37684.97
536.38	37584.32
536.55	37977.53
536.72	38068.81
536.89	37731.78
537.06	37647.52
537.23	37748.16
537.40	37727.10
537.57	37949.45
537.74	37827.74
537.91	38738.21
538.08	37691.99
538.25	38227.97
538.42	38129.67
538.59	38361.38
538.75	37837.10
538.92	38726.50
539.09	38431.60
539.26	38033.71
539.43	38635.22
539.60	38431.60
539.77	38513.52
539.94	38452.66
540.11	38284.14
540.28	38438.62
540.44	39065.88
540.61	38511.17
540.78	38625.86
540.95	38621.18
541.12	38857.57
541.29	38904.38
541.46	38759.27
541.62	39007.37
541.79	38967.58
541.96	38869.28
542.13	39267.17
542.30	39229.72
542.47	38852.89
542.63	39140.78
542.80	39072.90
542.97	39407.60
543.14	39562.08
543.31	40034.86
543.48	39636.97
543.64	40212.74
543.81	39864.00
543.98	40002.10
544.15	39566.76
544.32	39688.46
544.48	40282.96
544.65	39784.43
544.82	39950.60
544.99	39690.80
545.16	39899.11
545.32	39683.78
545.49	40165.93
545.66	40275.94
545.83	40575.53
546.00	40341.47
546.16	39873.37
546.33	39636.97
546.50	40278.28
546.67	40411.69
546.83	39856.98
547.00	40376.58
547.17	40769.79
547.34	40247.85
547.50	40175.30
547.67	40577.87
547.84	40299.34
548.00	40783.83
548.17	40825.96
548.34	40687.87
548.51	40804.90
548.67	40863.41
548.84	40680.85
549.01	41092.79
549.18	41022.57
549.34	40933.63
549.51	40971.08
549.68	41357.27
549.84	41207.47
550.01	41230.88
550.18	40666.81
550.34	40872.78
550.51	40722.98
550.68	41301.09
550.84	40706.60
551.01	41808.99
551.18	41053.00
551.34	41469.61
551.51	41160.66
551.68	41209.81
551.84	41677.92
552.01	41563.23
552.18	41713.03
552.34	41184.07
552.51	41743.45
552.68	41408.76
552.84	41654.51
553.01	41982.19
553.18	41404.08
553.34	41177.04
553.51	40950.01
553.67	41792.61
553.84	41989.21
554.01	41635.79
554.17	42342.63
554.34	42066.45
554.51	42087.51
554.67	42033.68
554.84	42183.48
555.00	41904.95
555.17	41677.92
555.33	42155.39
555.50	41848.78
555.67	41909.63
555.83	42089.85
556.00	42174.11
556.16	42703.07
556.33	42387.10
556.50	42127.30
556.66	42520.51
556.83	42181.13
556.99	42216.24
557.16	42457.32
557.32	42328.59
557.49	42630.52
557.65	41844.10
557.82	42309.86
557.98	42080.49
558.15	42129.64
558.32	42473.70
558.48	42593.07
558.65	42419.87
558.81	42576.69
558.98	42403.49
559.14	42314.55
559.31	42862.23
559.47	42127.30
559.64	43037.77
559.80	42834.14
559.97	42642.22
560.13	42623.50
560.30	42651.58
560.46	43002.66
560.63	42742.86
560.79	43061.18
560.96	42953.51
561.12	43000.32
561.29	42763.93
561.45	42838.83
561.61	42550.94
561.78	43084.58
561.94	43110.33
562.11	42866.91
562.27	43115.01
562.44	42960.53
562.60	42937.13
562.77	43545.67
562.93	43182.88
563.10	42831.80
563.26	42756.91
563.42	43026.07
563.59	42974.58
563.75	43000.32
563.92	43295.23
564.08	42946.49
564.24	42944.15
564.41	43105.65
564.57	43356.08
564.74	43107.99
564.90	43206.29
565.07	43063.52
565.23	42803.72
565.39	43318.64
565.56	43264.80
565.72	43194.59
565.88	42930.11
566.05	42925.42
566.21	43269.48
566.38	43077.56
566.54	43653.33
566.70	43236.72
566.87	43934.20
567.03	43332.68
567.19	43620.56
567.36	43335.02
567.52	43189.91
567.68	43372.47
567.85	43068.20
568.01	43557.37
568.17	43468.43
568.34	43489.49
568.50	43316.29
568.66	43477.79
568.83	43412.26
568.99	43253.10
569.15	43592.48
569.32	43489.49
569.48	43084.58
569.64	43594.82
569.81	43320.98
569.97	43372.47
570.13	43421.62
570.30	43459.07
570.46	43744.61
570.62	43302.25
570.78	43498.86
570.95	43461.41
571.11	44006.75
571.27	43587.80
571.43	43269.48
571.60	43653.33
571.76	43505.88
571.92	43447.36
572.09	43344.38
572.25	43363.11
572.41	43430.98
572.57	43777.38
572.74	44158.89
572.90	43871.00
573.06	44182.29
573.22	44079.31
573.38	43655.67
573.55	43405.23
573.71	43966.96
573.87	43529.28
574.03	43489.49
574.20	43505.88
574.36	43440.34
574.52	43929.51
574.68	43501.20
574.84	43845.26
575.01	43587.80
575.17	44175.27
575.33	43601.84
575.49	43973.98
575.65	44072.29
575.82	44069.95
575.98	44018.46
576.14	44395.28
576.30	44273.57
576.46	43594.82
576.62	43665.03
576.79	43735.25
576.95	43590.14
577.11	43613.54
577.27	44107.40
577.43	44299.32
577.59	44098.03
577.75	43976.33
577.92	44006.75
578.08	44018.46
578.24	43817.17
578.40	44065.27
578.56	43559.71
578.72	43711.84
578.88	44215.06
579.04	44044.20
579.21	43384.17
579.37	43964.62
579.53	43723.55
579.69	43328.00
579.85	43800.79
580.01	44217.40
580.17	44109.74
580.33	43955.26
580.49	43892.07
580.65	44020.80
580.82	44149.53
580.98	43931.86
581.14	43826.53
581.30	43943.56
581.46	43761.00
581.62	43772.70
581.78	43789.08
581.94	44348.47
582.10	43995.05
582.26	44247.83
582.42	44229.10
582.58	44086.33
582.74	43433.32
582.90	43969.30
583.06	44252.51
583.22	44158.89
583.38	44261.87
583.54	44058.24
583.70	43639.29
583.86	43810.15
584.02	43466.09
584.18	44182.29
584.34	44294.64
584.50	44196.34
584.66	44091.01
584.82	43793.76
584.98	43983.35
585.14	43845.26
585.30	44130.80
585.46	43721.21
585.62	43700.14
585.78	43880.36
585.94	43356.08
586.10	44072.29
586.26	44107.40
586.42	44123.78
586.58	44395.28
586.74	44046.54
586.90	43962.28
587.06	44081.65
587.22	44271.23
587.38	43882.70
587.54	43943.56
587.70	44608.27
587.86	44006.75
588.02	44268.89
588.18	44041.86
588.34	44205.70
588.49	44301.66
588.65	43770.36
588.81	43976.33
588.97	43943.56
589.13	43751.63
589.29	44100.37
589.45	44395.28
589.61	44289.96
589.77	44737.00
589.93	43920.15
590.08	44430.39
590.24	44708.91
590.40	44465.50
