SpectraSuite Data File
++++++++++++++++++++++++++++++++++++
Date: Fri Oct 25 11:33:23 EDT 2013
User: price-jones
Dark Spectrum Present: No
Reference Spectrum Present: No
Number of Sampled Component Spectra: 1
Spectrometers: USB2+H05261
Integration Time (usec): 100000 (USB2+H05261)
Spectra Averaged: 1 (USB2+H05261)
Boxcar Smoothing: 0 (USB2+H05261)
Correct for Electrical Dark: No (USB2+H05261)
Strobe/Lamp Enabled: No (USB2+H05261)
Correct for Detector Non-linearity: No (USB2+H05261)
Correct for Stray Light: No (USB2+H05261)
Number of Pixels in Processed Spectrum: 2048
>>>>>Begin Processed Spectral Data<<<<<
365.73	315.97
365.92	315.97
366.12	315.97
366.32	217.67
366.52	245.76
366.72	201.29
366.91	180.22
367.11	210.65
367.31	161.50
367.51	196.60
367.70	112.35
367.90	180.22
368.10	180.22
368.30	184.90
368.49	149.79
368.69	154.48
368.89	152.13
369.09	203.63
369.28	271.50
369.48	184.90
369.68	201.29
369.87	205.97
370.07	222.35
370.27	248.10
370.47	348.74
370.66	479.81
370.86	580.45
371.06	545.34
371.25	510.24
371.45	575.77
371.65	608.54
371.84	566.41
372.04	543.00
372.24	528.96
372.44	517.26
372.63	543.00
372.83	638.97
373.03	552.37
373.22	660.03
373.42	514.92
373.62	641.31
373.81	739.61
374.01	613.22
374.21	631.94
374.40	629.60
374.60	636.63
374.79	622.58
374.99	662.37
375.19	674.07
375.38	711.52
375.58	702.16
375.78	648.33
375.97	678.76
376.17	704.50
376.37	648.33
376.56	655.35
376.76	695.14
376.95	650.67
377.15	692.80
377.35	643.65
377.54	674.07
377.74	723.23
377.93	704.50
378.13	697.48
378.33	720.88
378.52	730.25
378.72	716.20
378.91	765.36
379.11	744.29
379.31	732.59
379.50	711.52
379.70	690.46
379.89	716.20
380.09	660.03
380.28	692.80
380.48	732.59
380.68	732.59
380.87	755.99
381.07	758.33
381.26	748.97
381.46	760.67
381.65	788.76
381.85	826.21
382.04	802.80
382.24	795.78
382.43	837.91
382.63	755.99
382.83	760.67
383.02	840.25
383.22	751.31
383.41	763.01
383.61	725.57
383.80	854.30
384.00	772.38
384.19	767.70
384.39	842.59
384.58	844.93
384.78	847.27
384.97	816.85
385.17	891.74
385.36	851.96
385.56	816.85
385.75	856.64
385.95	868.34
386.14	828.55
386.34	814.51
386.53	840.25
386.72	889.40
386.92	842.59
387.11	849.61
387.31	858.98
387.50	889.40
387.70	882.38
387.89	915.15
388.09	947.92
388.28	870.68
388.48	880.04
388.67	964.30
388.86	926.85
389.06	849.61
389.25	905.79
389.45	1039.20
389.64	931.53
389.84	990.05
390.03	980.68
390.22	1050.90
390.42	884.72
390.61	983.02
390.81	1001.75
391.00	1008.77
391.19	947.92
391.39	1022.81
391.58	987.71
391.78	1083.67
391.97	1022.81
392.16	1088.35
392.36	1100.05
392.55	1086.01
392.75	1025.15
392.94	1043.88
393.13	1088.35
393.33	1032.18
393.52	1104.73
393.71	1095.37
393.91	1086.01
394.10	1057.92
394.29	1062.60
394.49	1076.65
394.68	1118.78
394.88	1114.10
395.07	1123.46
395.26	1158.57
395.46	1100.05
395.65	1188.99
395.84	1172.61
396.04	1212.40
396.23	1221.76
396.42	1163.25
396.62	1167.93
396.81	1179.63
397.00	1228.78
397.19	1205.38
397.39	1226.44
397.58	1224.10
397.77	1224.10
397.97	1268.57
398.16	1259.21
398.35	1376.24
398.55	1294.32
398.74	1366.87
398.93	1357.51
399.12	1280.27
399.32	1364.53
399.51	1320.06
399.70	1413.68
399.90	1390.28
400.09	1455.81
400.28	1322.40
400.47	1357.51
400.67	1371.55
400.86	1359.85
401.05	1551.78
401.24	1434.75
401.44	1493.26
401.63	1451.13
401.82	1458.15
402.01	1411.34
402.21	1451.13
402.40	1533.05
402.59	1645.40
402.78	1502.62
402.97	1446.45
403.17	1497.94
403.36	1521.35
403.55	1547.09
403.74	1544.75
403.93	1603.27
404.13	1652.42
404.32	1657.10
404.51	1652.42
404.70	1671.14
404.89	1497.94
405.09	1746.04
405.28	1692.21
405.47	1629.01
405.66	1715.61
405.85	1661.78
406.05	1767.10
406.24	1696.89
406.43	1727.32
406.62	1741.36
406.81	1736.68
407.00	1722.63
407.20	1776.47
407.39	1886.47
407.58	1804.55
407.77	1844.34
407.96	1842.00
408.15	1923.92
408.34	1884.13
408.54	1909.88
408.73	1952.01
408.92	1989.46
409.11	2022.22
409.30	1975.41
409.49	2010.52
409.68	2017.54
409.87	1982.43
410.07	2062.01
410.26	2113.50
410.45	1975.41
410.64	2094.78
410.83	2176.70
411.02	2207.13
411.21	2190.74
411.40	2134.57
411.59	2134.57
411.78	2052.65
411.98	2289.04
412.17	2314.79
412.36	2333.51
412.55	2272.66
412.74	2396.71
412.93	2392.03
413.12	2232.87
413.31	2490.33
413.50	2333.51
413.69	2377.98
413.88	2485.65
414.07	2480.97
414.26	2565.23
414.45	2520.76
414.64	2511.39
414.83	2495.01
415.02	2520.76
415.22	2558.21
415.41	2754.81
415.60	2562.89
415.79	2658.85
415.98	2684.59
416.17	2768.85
416.36	2764.17
416.55	2808.64
416.74	2939.71
416.93	2876.52
417.12	2895.24
417.31	2902.26
417.50	2897.58
417.69	2974.82
417.88	2944.39
418.07	2923.33
418.26	3023.97
418.45	2974.82
418.64	3066.10
418.83	3133.98
419.02	3045.04
419.21	3185.47
419.39	3110.57
419.58	3141.00
419.77	3019.29
419.96	3183.13
420.15	3157.38
420.34	3206.53
420.53	3215.90
420.72	3241.64
420.91	3201.85
421.10	3192.49
421.29	3330.58
421.48	3267.39
421.67	3295.47
421.86	3419.52
422.05	3358.67
422.24	3286.11
422.43	3377.39
422.61	3489.74
422.80	3398.46
422.99	3424.20
423.18	3461.65
423.37	3480.38
423.56	3386.76
423.75	3588.04
423.94	3393.78
424.13	3272.07
424.32	3318.88
424.50	3499.10
424.69	3653.58
424.88	3531.87
425.07	3503.78
425.26	3358.67
425.45	3382.07
425.64	3513.14
425.83	3478.04
426.01	3492.08
426.20	3468.67
426.39	3428.88
426.58	3396.12
426.77	3283.77
426.96	3571.66
427.15	3637.19
427.33	3555.27
427.52	3637.19
427.71	3564.64
427.90	3632.51
428.09	3571.66
428.28	3744.86
428.46	3768.26
428.65	3775.28
428.84	3847.84
429.03	3882.95
429.22	3723.79
429.40	3831.46
429.59	3789.33
429.78	3733.15
429.97	3646.55
430.16	3763.58
430.34	3939.12
430.53	4056.15
430.72	3936.78
430.91	3836.14
431.10	3852.52
431.28	4070.19
431.47	4035.08
431.66	4046.79
431.85	3995.29
432.03	4014.02
432.22	4156.79
432.41	4196.58
432.60	4056.15
432.79	4081.89
432.97	4170.83
433.16	4234.03
433.35	4070.19
433.54	4219.99
433.72	4163.81
433.91	4285.52
434.10	4322.97
434.28	4175.52
434.47	4259.78
434.66	4210.62
434.85	4360.42
435.03	4348.72
435.22	4313.61
435.41	4685.75
435.59	4512.55
435.78	4601.49
435.97	4477.44
436.16	4437.66
436.34	4386.16
436.53	4456.38
436.72	4540.64
436.90	4491.49
437.09	4620.22
437.28	4437.66
437.46	4667.03
437.65	4503.19
437.84	4643.62
438.02	4636.60
438.21	4479.79
438.40	4660.01
438.58	4884.70
438.77	4922.15
438.96	4791.08
439.14	4748.95
439.33	4863.63
439.52	4819.16
439.70	4929.17
439.89	5338.76
440.08	4954.91
440.26	4865.97
440.45	5022.79
440.63	5401.96
440.82	5177.26
441.01	5095.35
441.19	5263.86
441.38	5254.50
441.57	5362.17
441.75	5289.61
441.94	5350.46
442.12	5472.17
442.31	5643.03
442.50	5437.06
442.68	5516.64
442.87	5380.89
443.05	5509.62
443.24	5584.52
443.43	5558.77
443.61	5469.83
443.80	5617.29
443.98	5537.71
444.17	5528.35
444.35	5612.60
444.54	5584.52
444.73	5612.60
444.91	5753.04
445.10	5675.80
445.28	5769.42
445.47	5664.10
445.65	5603.24
445.84	5680.48
446.02	5788.14
446.21	5753.04
446.39	5591.54
446.58	5846.66
446.77	5856.02
446.95	5785.80
447.14	5696.86
447.32	5834.96
447.51	5816.23
447.69	5757.72
447.88	5734.31
448.06	5837.30
448.25	5708.57
448.43	5783.46
448.62	5846.66
448.80	5926.24
448.99	5818.57
449.17	6097.10
449.36	5837.30
449.54	5844.32
449.73	6071.35
449.91	6235.19
450.10	6066.67
450.28	6150.93
450.46	6024.54
450.65	6202.42
450.83	6244.55
451.02	6136.88
451.20	6132.20
451.39	6087.73
451.57	6155.61
451.76	6211.78
451.94	6150.93
452.13	6366.26
452.31	6312.42
452.49	6345.19
452.68	6246.89
452.86	6289.02
453.05	6462.22
453.23	6324.13
453.42	6511.37
453.60	6239.87
453.78	6403.71
453.97	6502.01
454.15	6363.92
454.34	6408.39
454.52	6567.54
454.70	6612.01
454.89	6633.08
455.07	6707.98
455.26	6745.42
455.44	6740.74
455.62	6668.19
455.81	6733.72
455.99	6693.93
456.17	6885.86
456.36	6810.96
456.54	6857.77
456.73	7021.61
456.91	7023.95
457.09	7040.33
457.28	7417.16
457.46	7124.59
457.64	7103.53
457.83	7173.74
458.01	7110.55
458.19	7307.15
458.38	7370.35
458.56	7246.30
458.74	7171.40
458.93	7103.53
459.11	7138.63
459.29	7190.13
459.48	7304.81
459.66	7459.29
459.84	7454.61
460.03	7681.64
460.21	7330.56
460.39	7382.05
460.57	7370.35
460.76	7470.99
460.94	7662.91
461.12	7655.89
461.31	7510.78
461.49	7417.16
461.67	7492.05
461.85	7817.39
462.04	7672.28
462.22	8154.43
462.40	7967.18
462.59	7786.96
462.77	7679.30
462.95	7929.74
463.13	7866.54
463.32	7758.88
463.50	7740.15
463.68	7999.95
463.86	8032.72
464.05	7894.63
464.23	7772.92
464.41	7999.95
464.59	7782.28
464.78	8028.04
464.96	8013.99
465.14	7889.95
465.32	8280.82
465.50	8152.09
465.69	8109.96
465.87	8140.38
466.05	8049.10
466.23	8147.40
466.41	8161.45
466.60	8465.72
466.78	8393.16
466.96	8367.42
467.14	8248.05
467.32	8184.85
467.51	8465.72
467.69	8116.98
467.87	8435.29
468.05	8395.50
468.23	8482.10
468.41	8278.47
468.60	8664.66
468.78	8547.64
468.96	8425.93
469.14	8582.74
469.32	8634.24
469.50	8458.70
469.69	8606.15
469.87	8688.07
470.05	8863.61
470.23	8849.57
470.41	8769.99
470.59	8849.57
470.77	8786.37
470.95	9015.74
471.14	9174.90
471.32	8908.08
471.50	8973.61
471.68	8922.12
471.86	9202.99
472.04	9329.38
472.22	9542.36
472.40	9198.31
472.58	9226.39
472.77	9437.04
472.95	9521.30
473.13	9664.07
473.31	9488.53
473.49	9537.68
473.67	9308.31
473.85	9561.09
474.03	9687.48
474.21	9502.58
474.39	9745.99
474.57	9916.85
474.75	9942.60
474.93	9881.74
475.12	9879.40
475.30	10019.83
475.48	10036.22
475.66	10188.35
475.84	10106.43
476.02	10286.65
476.20	10251.55
476.38	10403.68
476.56	10714.97
476.74	10780.51
476.92	10473.90
477.10	10476.24
477.28	10576.88
477.46	10796.89
477.64	11082.44
477.82	11068.39
478.00	11309.47
478.18	11005.20
478.36	11314.15
478.54	11377.34
478.72	11232.23
478.90	11569.27
479.08	11716.72
479.26	11602.04
479.44	11822.05
479.62	12025.67
479.80	11932.05
479.98	12135.68
480.16	12449.31
480.34	12180.15
480.52	12554.63
480.70	12388.46
480.88	12329.94
481.06	12503.14
481.24	12648.26
481.41	12533.57
481.59	12751.24
481.77	13097.64
481.95	12996.99
482.13	13085.94
482.31	13097.64
482.49	13467.44
482.67	13355.10
482.85	13502.55
483.03	13738.94
483.21	13813.84
483.39	13797.46
483.57	14087.68
483.74	13898.10
483.92	14303.01
484.10	14040.87
484.28	14352.16
484.46	14593.24
484.64	14864.74
484.82	14403.66
485.00	14925.60
485.18	15042.62
485.35	15412.43
485.53	14827.29
485.71	15487.32
485.89	15543.50
486.07	15419.45
486.25	15651.16
486.43	15552.86
486.61	15520.09
486.78	15854.79
486.96	16123.95
487.14	16390.77
487.32	16077.14
487.50	16313.53
487.68	16259.70
487.85	16861.22
488.03	17027.40
488.21	16971.22
488.39	17216.98
488.57	17282.52
488.75	17589.13
488.92	17460.40
489.10	17642.96
489.28	17806.80
489.46	17991.70
489.64	17841.90
489.81	18279.58
489.99	18302.99
490.17	18284.26
490.35	18745.35
490.53	18457.46
490.70	18686.84
490.88	18925.57
491.06	18679.82
491.24	19110.47
491.41	19183.03
491.59	19236.86
491.77	19344.53
491.95	19520.07
492.13	19583.26
492.30	19840.72
492.48	19798.59
492.66	19960.09
492.84	20065.41
493.01	20540.54
493.19	19840.72
493.37	20137.97
493.54	20570.97
493.72	20819.07
493.90	20601.40
494.08	20798.00
494.25	21069.50
494.43	21060.14
494.61	21415.90
494.79	21783.37
494.96	21333.98
495.14	21687.40
495.32	21961.25
495.49	21994.01
495.67	22075.93
495.85	22237.43
496.02	22272.54
496.20	22450.42
496.38	22462.12
496.55	22520.63
496.73	23260.24
496.91	22719.58
497.09	22555.74
497.26	23009.81
497.44	23157.26
497.62	23197.05
497.79	23506.00
497.97	23171.30
498.14	23475.57
498.32	23983.47
498.50	24020.92
498.67	24194.12
498.85	23857.08
499.03	24184.76
499.20	24177.73
499.38	24624.78
499.56	24528.81
499.73	24470.30
499.91	24849.47
500.08	25067.14
500.26	24580.31
500.44	24943.09
500.61	25142.03
500.79	25193.53
500.97	25238.00
501.14	25521.20
501.32	25706.10
501.49	25333.96
501.67	25514.18
501.84	25785.68
502.02	25795.04
502.20	25720.15
502.37	25883.98
502.55	25757.60
502.72	26333.37
502.90	25881.64
503.07	26108.68
503.25	26209.32
503.43	26424.65
503.60	26710.19
503.78	26913.82
503.95	26689.13
504.13	26794.45
504.30	27140.85
504.48	26752.32
504.65	27173.62
504.83	27227.45
505.01	27501.29
505.18	27276.60
505.36	27618.32
505.53	27395.97
505.71	27611.30
505.88	27892.16
506.06	27384.27
506.23	27941.32
506.41	27955.36
506.58	27964.72
506.76	28016.21
506.93	28184.73
507.11	28481.98
507.28	28381.34
507.46	28458.57
507.63	28641.14
507.81	28783.91
507.98	28325.16
508.16	28737.10
508.33	28856.46
508.50	29013.28
508.68	29134.99
508.85	29556.28
509.03	28872.85
509.20	29415.85
509.38	29907.37
509.55	29575.01
509.73	29511.81
509.90	29280.10
510.08	29783.32
510.25	29682.67
510.42	30015.03
510.60	30197.59
510.77	29944.81
510.95	30462.07
511.12	30071.20
511.30	30576.76
511.47	30125.04
511.64	30815.49
511.82	30817.83
511.99	30511.22
512.17	30696.13
512.34	30595.48
512.51	31077.63
512.69	31232.11
512.86	31122.10
513.04	31536.38
513.21	30948.90
513.38	31197.00
513.56	31531.70
513.73	31285.94
513.90	31213.38
514.08	31442.76
514.25	31737.66
514.43	31814.90
514.60	31880.44
514.77	31398.29
514.95	32088.74
515.12	31798.52
515.29	31950.65
515.47	32224.50
515.64	32444.51
515.81	31896.82
515.99	32201.09
516.16	32879.85
516.33	32456.21
516.51	32879.85
516.68	32718.35
516.85	32790.91
517.03	33137.30
517.20	33317.53
517.37	32732.39
517.54	32828.35
517.72	32947.72
517.89	33277.74
518.06	33638.18
518.24	33729.46
518.41	33172.41
518.58	33289.44
518.75	33146.67
518.93	33347.95
519.10	33530.51
519.27	33841.81
519.45	33415.83
519.62	34132.03
519.79	34286.51
519.96	33614.77
520.14	34043.09
520.31	33874.57
520.48	33907.34
520.65	33902.66
520.83	34548.65
521.00	34625.89
521.17	34452.69
521.34	34665.67
521.52	34403.53
521.69	34754.61
521.86	35215.70
522.03	35395.92
522.20	35264.85
522.38	35679.13
522.55	35262.51
522.72	34976.97
522.89	35124.42
523.07	35875.73
523.24	35412.31
523.41	35880.41
523.58	35445.07
523.75	35840.62
523.92	35810.20
524.10	35737.64
524.27	35730.62
524.44	35548.06
524.61	36044.25
524.78	35955.31
524.96	36566.19
525.13	35927.22
525.30	36570.87
525.47	36325.11
525.64	36425.76
525.81	36842.37
525.98	36645.77
526.16	36582.57
526.33	36692.58
526.50	36748.75
526.67	36402.35
526.84	37027.28
527.01	37244.94
527.18	36882.16
527.36	36608.32
527.53	37446.23
527.70	37605.39
527.87	37652.20
528.04	37352.61
528.21	37558.58
528.38	37502.40
528.55	37612.41
528.72	37315.16
528.89	37378.36
529.07	37366.65
529.24	37727.10
529.41	37954.13
529.58	37687.31
529.75	37610.07
529.92	37886.25
530.09	37869.87
530.26	38014.98
530.43	38345.00
530.60	37874.55
530.77	37965.83
530.94	38204.56
531.11	38223.29
531.28	37996.26
531.46	38476.07
531.63	38487.77
531.80	38253.72
531.97	38902.04
532.14	38583.73
532.31	38960.56
532.48	38541.60
532.65	38883.32
532.82	38920.77
532.99	38738.21
533.16	38838.85
533.33	39454.41
533.50	39012.05
533.67	39220.36
533.84	39152.48
534.01	39463.77
534.18	39435.69
534.35	39639.31
534.52	39098.65
534.69	39157.16
534.86	39625.27
535.03	39669.74
535.20	39728.25
535.37	39964.65
535.54	39978.69
535.71	39442.71
535.88	40053.59
536.05	39580.80
536.22	40250.19
536.38	40201.04
536.55	39632.29
536.72	40179.98
536.89	40065.29
537.06	40076.99
537.23	40383.60
537.40	40313.39
537.57	39952.94
537.74	40416.37
537.91	40950.01
538.08	40460.84
538.25	40212.74
538.42	40472.54
538.59	40725.32
538.75	40353.18
538.92	40870.43
539.09	41277.69
539.26	40538.08
539.43	40430.41
539.60	40804.90
539.77	40938.31
539.94	41158.32
540.11	40957.03
540.28	41551.53
540.44	40823.62
540.61	41092.79
540.78	41258.96
540.95	41195.77
541.12	41420.46
541.29	40809.58
541.46	41481.31
541.62	40980.44
541.79	41397.06
541.96	40879.80
542.13	41345.56
542.30	41401.74
542.47	41998.57
542.63	42000.91
542.80	42384.76
542.97	42464.34
543.14	42356.67
543.31	42014.96
543.48	42419.87
543.64	42836.48
543.81	42291.14
543.98	42356.67
544.15	42396.46
544.32	42728.82
544.48	42703.07
544.65	42520.51
544.82	42457.32
544.99	42223.26
545.16	42834.14
545.32	42548.60
545.49	43079.90
545.66	43136.07
545.83	42990.96
546.00	43297.57
546.16	43215.65
546.33	42813.08
546.50	42602.43
546.67	43166.50
546.83	42527.53
547.00	43246.08
547.17	43007.34
547.34	43040.11
547.50	43285.87
547.67	43421.62
547.84	42951.17
548.00	43414.60
548.17	43854.62
548.34	43358.42
548.51	43613.54
548.67	43973.98
548.84	43421.62
549.01	43503.54
549.18	43285.87
549.34	43634.61
549.51	44051.22
549.68	43718.87
549.84	43735.25
550.01	44048.88
550.18	43433.32
550.34	43819.51
550.51	43915.47
550.68	44306.34
550.84	43702.48
551.01	44126.12
551.18	43716.53
551.34	44268.89
551.51	44121.44
551.68	43674.40
551.84	44046.54
552.01	44516.99
552.18	43931.86
552.34	44083.99
552.51	44587.21
552.68	44442.09
552.84	44172.93
553.01	44486.56
553.18	44500.61
553.34	44928.92
553.51	44147.18
553.67	44669.12
553.84	44868.07
554.01	44746.36
554.17	44683.17
554.34	45095.10
554.51	44898.50
554.67	44912.54
554.84	45069.36
555.00	44727.64
555.17	45158.30
555.33	45099.78
555.50	44748.70
555.67	45085.74
555.83	44914.88
556.00	45207.45
556.16	45563.21
556.33	45366.60
556.50	45116.17
556.66	45373.63
556.83	44875.09
556.99	45455.54
557.16	45909.61
557.32	45834.71
557.49	46007.91
557.65	45184.04
557.82	45422.78
557.98	45500.01
558.15	45357.24
558.32	45565.55
558.48	45301.07
558.65	45450.86
558.81	45825.35
558.98	45530.44
559.14	45654.49
559.31	46005.57
559.47	45603.00
559.64	45448.52
559.80	45682.58
559.97	46244.30
560.13	45425.12
560.30	45535.12
560.46	46412.82
560.63	46073.45
560.79	45998.55
560.96	45970.46
561.12	45975.14
561.29	45869.82
561.45	46384.74
561.61	45958.76
561.78	45914.29
561.94	46150.68
562.11	46110.89
562.27	46000.89
562.44	45759.81
562.60	46583.68
562.77	46246.65
562.93	46284.09
563.10	46450.27
563.26	45996.21
563.42	46335.59
563.59	46375.37
563.75	45825.35
563.92	45818.33
564.08	45984.51
564.24	46621.13
564.41	46454.95
564.57	46553.26
564.74	46204.52
564.90	46717.09
565.07	46518.15
565.23	46361.33
565.39	46181.11
565.56	46674.96
565.72	46288.77
565.88	47037.75
566.05	46267.71
566.21	46508.79
566.38	46583.68
566.54	46784.97
566.70	46541.55
566.87	46511.13
567.03	46248.99
567.19	46408.14
567.36	46710.07
567.52	46665.60
567.68	47075.19
567.85	46939.44
568.01	46911.36
568.17	46724.11
568.34	46923.06
568.50	46820.08
568.66	47033.07
568.83	47009.66
568.99	46646.88
569.15	46681.98
569.32	47079.88
569.48	46768.58
569.64	46969.87
569.81	46974.55
569.97	47040.09
570.13	47423.93
570.30	46738.16
570.46	47063.49
570.62	46543.89
570.78	46967.53
570.95	46782.63
571.11	47012.00
571.27	46899.65
571.43	47384.15
571.60	47009.66
571.76	47065.83
571.92	46789.65
572.09	46979.23
572.25	47278.82
572.41	46990.94
572.57	46880.93
572.74	47475.43
572.90	47393.51
573.06	47058.81
573.22	47164.14
573.38	47463.72
573.55	47229.67
573.71	47791.40
573.87	47026.04
574.03	47215.63
574.20	47468.40
574.36	47210.95
574.52	47426.28
574.68	47552.66
574.84	47547.98
575.01	47248.39
575.17	47550.32
575.33	47131.37
575.49	47346.70
575.65	47828.85
575.82	47283.50
575.98	47246.05
576.14	47550.32
576.30	47522.24
576.46	47206.26
576.62	47653.31
576.79	47482.45
576.95	47232.01
577.11	47606.50
577.27	47445.00
577.43	47452.02
577.59	47159.45
577.75	47358.40
577.92	47379.46
578.08	46974.55
578.24	47136.05
578.40	47749.27
578.56	47400.53
578.72	47000.30
578.88	47187.54
579.04	47487.13
579.21	47538.62
579.37	47650.97
579.53	47578.41
579.69	47470.75
579.85	47641.60
580.01	47007.32
580.17	47320.95
580.33	47625.22
580.49	47349.04
580.65	47395.85
580.82	47056.47
580.98	47037.75
581.14	47145.41
581.30	47821.83
581.46	47356.06
581.62	47587.77
581.78	47257.76
581.94	47342.02
582.10	47763.31
582.26	47515.22
582.42	47924.81
582.58	47519.90
582.74	47580.75
582.90	47545.64
583.06	47643.94
583.22	47412.23
583.38	47784.38
583.54	47688.42
583.70	47650.97
583.86	47732.89
584.02	48006.73
584.18	47859.27
584.34	47639.26
584.50	48002.05
584.66	47779.70
584.82	47931.83
584.98	47550.32
585.14	47800.76
585.30	47358.40
585.46	47508.19
585.62	47547.98
585.78	47618.20
585.94	47681.39
586.10	47288.18
586.26	47571.39
586.42	47512.88
586.58	47833.53
586.74	47363.08
586.90	47683.73
587.06	47674.37
587.22	47999.71
587.38	47569.05
587.54	48051.20
587.70	48252.48
587.86	47959.92
588.02	47665.01
588.18	47903.74
588.34	47887.36
588.49	47573.73
588.65	47714.16
588.81	47875.66
588.97	47887.36
589.13	48072.26
589.29	47807.78
589.45	48006.73
589.61	48074.60
589.77	48107.37
589.93	48037.16
