SpectraSuite Data File
++++++++++++++++++++++++++++++++++++
Date: Fri Oct 25 10:44:04 EDT 2013
User: price-jones
Dark Spectrum Present: No
Reference Spectrum Present: No
Number of Sampled Component Spectra: 1
Spectrometers: USB2+H05261
Integration Time (usec): 100000 (USB2+H05261)
Spectra Averaged: 1 (USB2+H05261)
Boxcar Smoothing: 0 (USB2+H05261)
Correct for Electrical Dark: No (USB2+H05261)
Strobe/Lamp Enabled: No (USB2+H05261)
Correct for Detector Non-linearity: No (USB2+H05261)
Correct for Stray Light: No (USB2+H05261)
Number of Pixels in Processed Spectrum: 2048
>>>>>Begin Processed Spectral Data<<<<<
365.73	126.39
365.92	126.39
366.12	126.39
366.32	63.19
366.52	30.43
366.72	11.70
366.91	0.00
367.11	42.13
367.31	18.72
367.51	53.83
367.70	0.00
367.90	74.90
368.10	0.00
368.30	60.85
368.49	23.41
368.69	86.60
368.89	0.00
369.09	65.54
369.28	46.81
369.48	60.85
369.68	37.45
369.87	184.90
370.07	67.88
370.27	95.96
370.47	215.33
370.66	397.89
370.86	423.64
371.06	397.89
371.25	400.23
371.45	484.49
371.65	482.15
371.84	440.02
372.04	468.11
372.24	573.43
372.44	500.87
372.63	510.24
372.83	519.60
373.03	486.83
373.22	564.07
373.42	507.90
373.62	580.45
373.81	491.51
374.01	585.13
374.21	629.60
374.40	603.86
374.60	596.84
374.79	580.45
374.99	545.34
375.19	592.16
375.38	566.41
375.58	603.86
375.78	653.01
375.97	671.73
376.17	702.16
376.37	692.80
376.56	606.20
376.76	608.54
376.95	596.84
377.15	711.52
377.35	566.41
377.54	655.35
377.74	772.38
377.93	695.14
378.13	681.10
378.33	650.67
378.52	634.29
378.72	641.31
378.91	697.48
379.11	685.78
379.31	660.03
379.50	711.52
379.70	655.35
379.89	692.80
380.09	744.29
380.28	615.56
380.48	767.70
380.68	786.42
380.87	718.54
381.07	669.39
381.26	767.70
381.46	723.23
381.65	664.71
381.85	727.91
382.04	723.23
382.24	730.25
382.43	683.44
382.63	727.91
382.83	629.60
383.02	763.01
383.22	718.54
383.41	720.88
383.61	683.44
383.80	800.46
384.00	748.97
384.19	889.40
384.39	788.76
384.58	706.84
384.78	844.93
384.97	917.49
385.17	784.08
385.36	723.23
385.56	898.77
385.75	828.55
385.95	849.61
386.14	830.89
386.34	847.27
386.53	863.66
386.72	821.53
386.92	910.47
387.11	898.77
387.31	922.17
387.50	954.94
387.70	821.53
387.89	915.15
388.09	877.70
388.28	828.55
388.48	891.74
388.67	1013.45
388.86	983.02
389.06	978.34
389.25	947.92
389.45	1013.45
389.64	983.02
389.84	966.64
390.03	976.00
390.22	968.98
390.42	1081.33
390.61	1160.91
390.81	1083.67
391.00	1144.52
391.19	1067.28
391.39	1125.80
391.58	1093.03
391.78	1156.22
391.97	1081.33
392.16	1013.45
392.36	1177.29
392.55	1132.82
392.75	1001.75
392.94	997.07
393.13	1109.41
393.33	1053.24
393.52	1025.15
393.71	1172.61
393.91	1156.22
394.10	1144.52
394.29	1196.01
394.49	1184.31
394.68	1284.95
394.88	1268.57
395.07	1266.23
395.26	1242.82
395.46	1186.65
395.65	1231.12
395.84	1277.93
396.04	1301.34
396.23	1256.87
396.42	1181.97
396.62	1116.44
396.81	1238.14
397.00	1320.06
397.19	1390.28
397.39	1343.47
397.58	1460.49
397.77	1516.67
397.97	1519.01
398.16	1418.36
398.35	1488.58
398.55	1418.36
398.74	1570.50
398.93	1584.54
399.12	1537.73
399.32	1593.90
399.51	1575.18
399.70	1696.89
399.90	1577.52
400.09	1654.76
400.28	1699.23
400.47	1657.10
400.67	1816.26
400.86	1839.66
401.05	1778.81
401.24	1792.85
401.44	1863.07
401.63	1774.13
401.82	1785.83
402.01	1734.34
402.21	1912.22
402.40	1872.43
402.59	1804.55
402.78	1863.07
402.97	1832.64
403.17	1905.20
403.36	1994.14
403.55	1994.14
403.74	1994.14
403.93	1973.07
404.13	1970.73
404.32	1881.79
404.51	2045.63
404.70	1961.37
404.89	2087.76
405.09	2054.99
405.28	2073.71
405.47	2036.27
405.66	2162.66
405.85	2080.74
406.05	2104.14
406.24	2134.57
406.43	2127.55
406.62	2165.00
406.81	2228.19
407.00	2190.74
407.20	2176.70
407.39	2165.00
407.58	2272.66
407.77	2221.17
407.96	2296.07
408.15	2413.09
408.34	2403.73
408.54	2361.60
408.73	2469.27
408.92	2424.80
409.11	2256.28
409.30	2389.69
409.49	2445.86
409.68	2450.54
409.87	2349.90
410.07	2424.80
410.26	2513.74
410.45	2445.86
410.64	2483.31
410.83	2736.09
411.02	2588.63
411.21	2747.79
411.40	2745.45
411.59	2745.45
411.78	2822.69
411.98	2693.96
412.17	2722.04
412.36	2813.32
412.55	2712.68
412.74	2787.58
412.93	3007.59
413.12	2876.52
413.31	3005.25
413.50	3019.29
413.69	2984.18
413.88	3045.04
414.07	3089.51
414.26	3166.74
414.45	3117.59
414.64	3056.74
414.83	3157.38
415.02	3117.59
415.22	3290.79
415.41	3358.67
415.60	3351.65
415.79	3337.60
415.98	3405.48
416.17	3506.12
416.36	3335.26
416.55	3344.63
416.74	3361.01
416.93	3375.05
417.12	3421.86
417.31	3599.74
417.50	3417.18
417.69	3686.34
417.88	3581.02
418.07	3660.60
418.26	3545.91
418.45	3637.19
418.64	3651.24
418.83	3721.45
419.02	3674.64
419.21	3779.97
419.39	3845.50
419.58	3679.32
419.77	3679.32
419.96	3878.27
420.15	3875.93
420.34	3815.07
420.53	3850.18
420.72	4002.32
420.91	4074.87
421.10	4243.39
421.29	3995.29
421.48	3964.87
421.67	4016.36
421.86	3988.27
422.05	3978.91
422.24	3922.74
422.43	3908.69
422.61	4016.36
422.80	4088.92
422.99	4109.98
423.18	3964.87
423.37	4004.66
423.56	4009.34
423.75	4023.38
423.94	4060.83
424.13	3786.99
424.32	4042.11
424.50	4177.86
424.69	4353.40
424.88	4138.07
425.07	4128.70
425.26	4119.34
425.45	4124.02
425.64	4128.70
425.83	4131.05
426.01	4269.14
426.20	4231.69
426.39	4255.09
426.58	4234.03
426.77	4095.94
426.96	4227.01
427.15	4161.47
427.33	4283.18
427.52	4234.03
427.71	4386.16
427.90	4355.74
428.09	4393.19
428.28	4306.59
428.46	4297.22
428.65	4311.27
428.84	4360.42
429.03	4425.95
429.22	4285.52
429.40	4264.46
429.59	4304.25
429.78	4088.92
429.97	4042.11
430.16	4212.96
430.34	4257.43
430.53	4297.22
430.72	4205.94
430.91	4360.42
431.10	4664.69
431.28	4767.67
431.47	4716.18
431.66	4629.58
431.85	4737.24
432.03	4784.06
432.22	4816.82
432.41	4924.49
432.60	5020.45
432.79	4990.02
432.97	4926.83
433.16	4994.70
433.35	4873.00
433.54	4828.53
433.72	4809.80
433.91	4805.12
434.10	4985.34
434.28	4912.78
434.47	5139.82
434.66	5050.88
434.85	5240.46
435.03	5167.90
435.22	4975.98
435.41	5282.59
435.59	5184.29
435.78	5238.12
435.97	5404.30
436.16	5331.74
436.34	5362.17
436.53	5504.94
436.72	5526.00
436.90	5284.93
437.09	5224.08
437.28	5303.65
437.46	5476.85
437.65	5404.30
437.84	5401.96
438.02	5174.92
438.21	5481.53
438.40	5411.32
438.58	5448.77
438.77	5612.60
438.96	5760.06
439.14	5769.42
439.33	5750.70
439.52	5907.51
439.70	5837.30
439.89	5769.42
440.08	5874.74
440.26	6026.88
440.45	5937.94
440.63	6076.03
440.82	5998.79
441.01	6190.72
441.19	6258.59
441.38	6260.93
441.57	6443.49
441.75	6553.50
441.94	6534.78
442.12	6448.18
442.31	6623.72
442.50	6686.91
442.68	6614.35
442.87	6654.14
443.05	6640.10
443.24	6572.22
443.43	6715.00
443.61	6773.51
443.80	6707.98
443.98	6726.70
444.17	6555.84
444.35	6803.94
444.54	6864.79
444.73	6871.81
444.91	6867.13
445.10	6633.08
445.28	6815.64
445.47	6644.78
445.65	6696.27
445.84	6619.04
446.02	6942.03
446.21	6862.45
446.39	6785.21
446.58	6799.26
446.77	7007.56
446.95	6892.88
447.14	7091.82
447.32	6860.11
447.51	6867.13
447.69	6925.65
447.88	6958.41
448.06	7197.15
448.25	7012.24
448.43	7035.65
448.62	7023.95
448.80	7082.46
448.99	7243.96
449.17	7091.82
449.36	7206.51
449.54	7124.59
449.73	7286.09
449.91	7405.46
450.10	7599.72
450.28	7698.02
450.46	7442.90
450.65	7595.04
450.83	7339.92
451.02	7349.28
451.20	7405.46
451.39	7548.23
451.57	7452.27
451.76	7578.65
451.94	7520.14
452.13	7442.90
452.31	7440.56
452.49	7424.18
452.68	7428.86
452.86	7639.51
453.05	7648.87
453.23	7499.08
453.42	7470.99
453.60	7550.57
453.78	7845.48
453.97	7644.19
454.15	7831.43
454.34	7812.71
454.52	7639.51
454.70	7805.69
454.89	8021.02
455.07	7779.94
455.26	7875.90
455.44	8100.59
455.62	8028.04
455.81	8006.97
455.99	8037.40
456.17	8205.92
456.36	8320.60
456.54	8315.92
456.73	8292.52
456.91	8262.09
457.09	8397.84
457.28	8552.32
457.46	8482.10
457.64	8498.49
457.83	8287.84
458.01	8355.71
458.19	8561.68
458.38	8503.17
458.56	8475.08
458.74	8606.15
458.93	8561.68
459.11	8676.37
459.29	8554.66
459.48	8622.53
459.66	8561.68
459.84	8819.14
460.03	9048.51
460.21	8800.41
460.39	8617.85
460.57	8863.61
460.76	9057.87
460.94	8924.46
461.12	9100.00
461.31	9081.28
461.49	9034.47
461.67	9109.36
461.85	9247.46
462.04	9219.37
462.22	9750.67
462.40	9270.86
462.59	9172.56
462.77	9078.94
462.95	9373.85
463.13	9331.72
463.32	9266.18
463.50	9497.89
463.68	9465.13
463.86	9486.19
464.05	9268.52
464.23	9390.23
464.41	9448.74
464.59	9195.96
464.78	9650.03
464.96	9434.70
465.14	9474.49
465.32	9647.69
465.50	9607.90
465.69	9680.46
465.87	9621.94
466.05	9628.96
466.23	9717.90
466.41	9495.55
466.60	9650.03
466.78	9369.16
466.96	9706.20
467.14	9654.71
467.32	9982.38
467.51	9891.10
467.69	9549.39
467.87	9671.09
468.05	9884.08
468.23	9755.35
468.41	9916.85
468.60	9867.70
468.78	9987.07
468.96	9984.73
469.14	10186.01
469.32	10127.50
469.50	9926.21
469.69	9949.62
469.87	10401.34
470.05	10237.50
470.23	10403.68
470.41	10281.97
470.59	10356.87
470.77	10260.91
470.95	10160.27
471.14	10483.26
471.32	10218.78
471.50	10691.57
471.68	10567.52
471.86	10733.70
472.04	10726.68
472.22	11094.14
472.40	10602.63
472.58	10630.71
472.77	10822.64
472.95	11014.56
473.13	10960.73
473.31	11098.82
473.49	10881.15
473.67	11002.86
473.85	11239.25
474.03	11440.54
474.21	11332.87
474.39	11480.33
474.57	11503.73
474.75	11466.28
474.93	11513.10
475.12	11527.14
475.30	11653.53
475.48	11632.46
475.66	11824.39
475.84	11929.71
476.02	12053.76
476.20	11913.33
476.38	11988.22
476.56	12226.96
476.74	12329.94
476.92	12180.15
477.10	12388.46
477.28	12622.51
477.46	12746.56
477.64	12919.76
477.82	13018.06
478.00	13111.68
478.18	12919.76
478.36	13011.04
478.54	13289.56
478.72	13266.16
478.90	13568.09
479.08	13411.27
479.26	13715.54
479.44	13645.32
479.62	13879.38
479.80	13696.82
479.98	14125.13
480.16	14387.27
480.34	13806.82
480.52	14338.12
480.70	14244.50
480.88	14333.44
481.06	14398.98
481.24	14614.30
481.41	14494.94
481.59	15150.29
481.77	14853.04
481.95	14967.73
482.13	15185.40
482.31	15047.30
482.49	15279.02
482.67	15398.38
482.85	15459.24
483.03	15740.10
483.21	15730.74
483.39	16051.39
483.57	15978.84
483.74	16175.44
483.92	16231.62
484.10	16074.80
484.28	16215.23
484.46	16720.79
484.64	16889.31
484.82	16758.24
485.00	16893.99
485.18	16940.80
485.35	17181.87
485.53	16805.05
485.71	16720.79
485.89	17439.33
486.07	17022.72
486.25	17263.79
486.43	17476.78
486.61	17575.08
486.78	17584.44
486.96	17977.65
487.14	18363.84
487.32	18443.42
487.50	18686.84
487.68	18691.52
487.85	19117.50
488.03	19424.11
488.21	19403.04
488.39	19178.35
488.57	19314.10
488.75	19267.29
488.92	19644.12
489.10	20037.33
489.28	20091.16
489.46	20304.15
489.64	20519.48
489.81	21006.31
489.99	20975.88
490.17	20929.07
490.35	21092.91
490.53	21158.44
490.70	21266.11
490.88	21294.19
491.06	21458.03
491.24	21172.49
491.41	21392.50
491.59	21591.44
491.77	21200.57
491.95	21975.29
492.13	21968.27
492.30	22391.91
492.48	22312.33
492.66	22438.72
492.84	22637.66
493.01	22551.06
493.19	22925.55
493.37	22970.02
493.54	23281.31
493.72	23239.18
493.90	23747.08
494.08	23405.36
494.25	24114.54
494.43	23836.02
494.61	24175.39
494.79	24636.48
494.96	24191.78
495.14	24215.18
495.32	24685.63
495.49	24402.43
495.67	24676.27
495.85	24931.39
496.02	25198.21
496.20	25113.95
496.38	25205.23
496.55	25450.99
496.73	26015.05
496.91	25549.29
497.09	25575.03
497.26	25895.69
497.44	25926.11
497.62	25947.18
497.79	26228.04
497.97	26127.40
498.14	26096.97
498.32	26424.65
498.50	26518.27
498.67	27042.55
498.85	26857.65
499.03	27431.08
499.20	27349.16
499.38	27346.82
499.56	27482.57
499.73	27400.65
499.91	27075.32
500.08	27344.48
500.26	27147.87
500.44	27559.81
500.61	27484.91
500.79	27484.91
500.97	27604.28
501.14	27821.95
501.32	28126.22
501.49	27927.27
501.67	28109.83
501.84	28479.64
502.02	28196.43
502.20	28641.14
502.37	28727.74
502.55	28641.14
502.72	29034.35
502.90	29097.54
503.07	28559.22
503.25	29027.32
503.43	29376.06
503.60	29186.48
503.78	29259.04
503.95	29219.25
504.13	29357.34
504.30	29717.78
504.48	29675.65
504.65	29778.64
504.83	29771.61
505.01	30288.87
505.18	30143.76
505.36	30579.10
505.53	30747.62
505.71	30738.26
505.88	30752.30
506.06	30555.69
506.23	30871.67
506.41	30593.14
506.58	30815.49
506.76	31061.25
506.93	30829.54
507.11	30920.82
507.28	30913.80
507.46	31157.21
507.63	31157.21
507.81	30986.35
507.98	31168.91
508.16	31779.79
508.33	31613.62
508.50	31475.52
508.68	31896.82
508.85	32144.92
509.03	32020.87
509.20	32353.23
509.38	32505.36
509.55	32271.31
509.73	32161.30
509.90	32308.76
510.08	32292.37
510.25	32105.13
510.42	32416.42
510.60	32800.27
510.77	32826.01
510.95	32919.63
511.12	32921.98
511.30	32872.82
511.47	33507.11
511.64	33188.80
511.82	33366.68
511.99	33020.28
512.17	33736.48
512.34	32973.47
512.51	33729.46
512.69	33780.95
512.86	33680.31
513.04	33813.72
513.21	34141.39
513.38	33656.90
513.56	33694.35
513.73	33888.62
513.90	34127.35
514.08	34108.63
514.25	34080.54
514.43	34237.36
514.60	34377.79
514.77	34572.05
514.95	34672.70
515.12	34663.33
515.29	34700.78
515.47	35227.40
515.64	34965.26
515.81	34881.00
515.99	34904.41
516.16	34827.17
516.33	34417.58
516.51	34543.97
516.68	34195.23
516.85	34110.97
517.03	34103.95
517.20	35012.07
517.37	35218.04
517.54	35730.62
517.72	35152.51
517.89	35241.45
518.06	34930.16
518.24	35033.14
518.41	35058.88
518.58	35431.03
518.75	35271.87
518.93	36135.53
519.10	35950.63
519.27	36308.73
519.45	35679.13
519.62	36559.17
519.79	36568.53
519.96	36439.80
520.14	36187.02
520.31	35768.07
520.48	36921.95
520.65	36432.78
520.83	37127.92
521.00	37301.12
521.17	37125.58
521.34	37266.01
521.52	37160.69
521.69	37251.97
521.86	38167.12
522.03	37617.09
522.20	37701.35
522.38	37792.63
522.55	37654.54
522.72	37001.53
522.89	37193.45
523.07	37673.26
523.24	37551.56
523.41	38314.57
523.58	37757.52
523.75	38639.90
523.92	38223.29
524.10	38204.56
524.27	38438.62
524.44	38579.05
524.61	38359.04
524.78	38333.29
524.96	38455.00
525.13	38696.08
525.30	38939.49
525.47	38925.45
525.64	38663.31
525.81	39042.48
525.98	38845.87
526.16	38614.16
526.33	38103.92
526.50	38321.59
526.67	38646.93
526.84	38258.40
527.01	38646.93
527.18	38822.47
527.36	39110.35
527.53	39215.68
527.70	39536.33
527.87	39360.79
528.04	39604.20
528.21	39461.43
528.38	39920.18
528.55	40240.83
528.72	39751.66
528.89	40018.48
529.07	39761.02
529.24	39601.86
529.41	39646.33
529.58	39433.35
529.75	39882.73
529.92	40016.14
530.09	40421.05
530.26	40334.45
530.43	40500.63
530.60	40486.59
530.77	40236.15
530.94	40538.08
531.11	40357.86
531.28	40205.72
531.46	40573.19
531.63	40622.34
531.80	40343.81
531.97	40779.15
532.14	40996.82
532.31	40175.30
532.48	40767.45
532.65	41069.38
532.82	41064.70
532.99	40964.06
533.16	40645.74
533.33	41095.13
533.50	41095.13
533.67	41368.97
533.84	41097.47
534.01	40985.12
534.18	41361.95
534.35	41816.01
534.52	41275.35
534.69	41567.91
534.86	41638.13
535.03	41427.48
535.20	41684.94
535.37	41879.21
535.54	42052.41
535.71	42120.28
535.88	42057.09
536.05	41858.14
536.22	41701.32
536.38	42007.94
536.55	41673.24
536.72	41736.43
536.89	41415.78
537.06	41717.71
537.23	42466.68
537.40	41977.51
537.57	42106.24
537.74	42384.76
537.91	42286.46
538.08	42277.10
538.25	42246.67
538.42	42106.24
538.59	42447.96
538.75	42295.82
538.92	42094.53
539.09	42323.91
539.26	42314.55
539.43	42181.13
539.60	42227.95
539.77	42382.42
539.94	42363.70
540.11	42412.85
540.28	42656.26
540.44	42192.84
540.61	42410.51
540.78	42375.40
540.95	42309.86
541.12	42770.95
541.29	42988.62
541.46	42918.40
541.62	42845.85
541.79	43625.25
541.96	42513.49
542.13	42895.00
542.30	43122.03
542.47	43194.59
542.63	43131.39
542.80	43253.10
542.97	43468.43
543.14	43597.16
543.31	43887.39
543.48	43658.01
543.64	44287.62
543.81	43847.60
543.98	44107.40
544.15	43749.29
544.32	44083.99
544.48	44259.53
544.65	43873.34
544.82	44133.14
544.99	43964.62
545.16	44002.07
545.32	43772.70
545.49	44671.46
545.66	44306.34
545.83	44547.42
546.00	44325.07
546.16	44172.93
546.33	43812.49
546.50	43824.19
546.67	44341.45
546.83	44053.56
547.00	44549.76
547.17	44414.01
547.34	44013.77
547.50	44329.75
547.67	44734.66
547.84	44250.17
548.00	44676.15
548.17	44975.73
548.34	44561.46
548.51	45097.44
548.67	44861.05
548.84	44828.28
549.01	44519.33
549.18	44832.96
549.34	45052.97
549.51	44865.73
549.68	45067.02
549.84	44900.84
550.01	45263.62
550.18	45020.20
550.34	45207.45
550.51	44648.06
550.68	44788.49
550.84	44650.40
551.01	45401.71
551.18	45001.48
551.34	45375.97
551.51	45467.25
551.68	45567.89
551.84	45088.08
552.01	45282.34
552.18	45249.58
552.34	44847.00
552.51	45282.34
552.68	44964.03
552.84	45579.59
553.01	45364.26
553.18	45462.57
553.34	45265.96
553.51	45170.00
553.67	45443.84
553.84	45549.17
554.01	45766.84
554.17	45631.08
554.34	45895.56
554.51	45691.94
554.67	46045.36
554.84	45691.94
555.00	45729.39
555.17	45551.51
555.33	45507.04
555.50	45977.48
555.67	46232.60
555.83	45865.14
556.00	45673.21
556.16	46181.11
556.33	45340.86
556.50	45734.07
556.66	45918.97
556.83	46073.45
556.99	46143.66
557.16	46192.81
557.32	45965.78
557.49	46068.76
557.65	45909.61
557.82	46258.35
557.98	46457.29
558.15	46490.06
558.32	46349.63
558.48	45769.18
558.65	45846.41
558.81	45741.09
558.98	46085.15
559.14	46082.81
559.31	46007.91
559.47	46410.48
559.64	46639.86
559.80	46326.22
559.97	46616.45
560.13	46024.29
560.30	46436.23
560.46	46176.43
560.63	46408.14
560.79	46569.64
560.96	46672.62
561.12	46202.18
561.29	46113.23
561.45	46548.57
561.61	46602.41
561.78	46532.19
561.94	46174.09
562.11	46560.28
562.27	46216.22
562.44	46639.86
562.60	46782.63
562.77	46813.05
562.93	46356.65
563.10	46663.26
563.26	46284.09
563.42	47133.71
563.59	46068.76
563.75	46302.82
563.92	46770.93
564.08	46787.31
564.24	46794.33
564.41	46719.43
564.57	46703.05
564.74	46117.92
564.90	46342.61
565.07	46663.26
565.23	46925.40
565.39	46319.20
565.56	46382.40
565.72	46548.57
565.88	46401.12
566.05	46440.91
566.21	47129.03
566.38	46721.77
566.54	47035.41
566.70	46857.52
566.87	46824.76
567.03	46501.76
567.19	47213.29
567.36	46986.25
567.52	47110.30
567.68	46794.33
567.85	46628.15
568.01	47093.92
568.17	46923.06
568.34	46951.15
568.50	46925.40
568.66	46450.27
568.83	46691.35
568.99	46234.94
569.15	46651.56
569.32	46424.53
569.48	46927.74
569.64	47194.56
569.81	46731.14
569.97	46705.39
570.13	47037.75
570.30	46850.50
570.46	46602.41
570.62	46557.94
570.78	46813.05
570.95	46492.40
571.11	46852.84
571.27	46389.42
571.43	47105.62
571.60	47105.62
571.76	46920.72
571.92	47002.64
572.09	47084.56
572.25	46714.75
572.41	46817.74
572.57	47070.51
572.74	47454.36
572.90	47297.55
573.06	47079.88
573.22	46658.58
573.38	46806.03
573.55	46806.03
573.71	47093.92
573.87	46735.82
574.03	46761.56
574.20	47157.11
574.36	47126.69
574.52	47103.28
574.68	47058.81
574.84	46965.19
575.01	46993.28
575.17	46962.85
575.33	46939.44
575.49	46850.50
575.65	47117.32
575.82	47075.19
575.98	46887.95
576.14	47122.01
576.30	47484.79
576.46	46759.22
576.62	47288.18
576.79	46656.24
576.95	46721.77
577.11	46550.91
577.27	47154.77
577.43	46738.16
577.59	46639.86
577.75	46780.29
577.92	46791.99
578.08	46576.66
578.24	46518.15
578.40	47098.60
578.56	46892.63
578.72	46766.24
578.88	47047.11
579.04	47428.62
579.21	46960.51
579.37	46986.25
579.53	46822.42
579.69	46817.74
579.85	47161.79
580.01	47138.39
580.17	47033.07
580.33	46843.48
580.49	46878.59
580.65	47381.80
580.82	46815.40
580.98	46824.76
581.14	46803.69
581.30	47033.07
581.46	47189.88
581.62	47164.14
581.78	47054.13
581.94	47716.50
582.10	47180.52
582.26	47248.39
582.42	47241.37
582.58	47325.63
582.74	46742.84
582.90	47164.14
583.06	47096.26
583.22	47208.61
583.38	47753.95
583.54	47180.52
583.70	47686.07
583.86	47283.50
584.02	47131.37
584.18	46930.08
584.34	46803.69
584.50	46944.12
584.66	47201.58
584.82	47150.09
584.98	47103.28
585.14	47192.22
585.30	46887.95
585.46	46770.93
585.62	47112.64
585.78	47351.38
585.94	46569.64
586.10	47157.11
586.26	46665.60
586.42	47398.19
586.58	47154.77
586.74	47122.01
586.90	46871.57
587.06	46822.42
587.22	46857.52
587.38	46777.95
587.54	47285.84
587.70	47519.90
587.86	47363.08
588.02	47325.63
588.18	47253.08
588.34	46607.09
588.49	47255.42
588.65	46253.67
588.81	46726.46
588.97	46499.42
589.13	46375.37
589.29	47009.66
589.45	46777.95
589.61	47079.88
589.77	47107.96
589.93	47318.61
