SpectraSuite Data File
++++++++++++++++++++++++++++++++++++
Date: Fri Oct 25 10:43:22 EDT 2013
User: price-jones
Dark Spectrum Present: No
Reference Spectrum Present: No
Number of Sampled Component Spectra: 1
Spectrometers: USB2+H05261
Integration Time (usec): 100000 (USB2+H05261)
Spectra Averaged: 1 (USB2+H05261)
Boxcar Smoothing: 0 (USB2+H05261)
Correct for Electrical Dark: No (USB2+H05261)
Strobe/Lamp Enabled: No (USB2+H05261)
Correct for Detector Non-linearity: No (USB2+H05261)
Correct for Stray Light: No (USB2+H05261)
Number of Pixels in Processed Spectrum: 2048
>>>>>Begin Processed Spectral Data<<<<<
365.73	126.39
365.92	126.39
366.12	126.39
366.32	37.45
366.52	51.49
366.72	84.26
366.91	23.41
367.11	0.00
367.31	0.00
367.51	16.38
367.70	21.06
367.90	14.04
368.10	0.00
368.30	21.06
368.49	0.00
368.69	28.09
368.89	114.69
369.09	0.00
369.28	39.79
369.48	14.04
369.68	53.83
369.87	100.64
370.07	67.88
370.27	154.48
370.47	241.08
370.66	418.96
370.86	456.40
371.06	486.83
371.25	416.62
371.45	451.72
371.65	500.87
371.84	470.45
372.04	456.40
372.24	444.70
372.44	411.93
372.63	505.56
372.83	470.45
373.03	519.60
373.22	479.81
373.42	503.22
373.62	571.09
373.81	571.09
374.01	543.00
374.21	571.09
374.40	571.09
374.60	575.77
374.79	521.94
374.99	535.98
375.19	512.58
375.38	578.11
375.58	554.71
375.78	650.67
375.97	664.71
376.17	763.01
376.37	617.90
376.56	564.07
376.76	603.86
376.95	496.19
377.15	662.37
377.35	636.63
377.54	571.09
377.74	631.94
377.93	636.63
378.13	624.92
378.33	751.31
378.52	627.26
378.72	645.99
378.91	713.86
379.11	660.03
379.31	683.44
379.50	629.60
379.70	674.07
379.89	688.12
380.09	685.78
380.28	819.19
380.48	713.86
380.68	674.07
380.87	662.37
381.07	692.80
381.26	732.59
381.46	760.67
381.65	660.03
381.85	695.14
382.04	763.01
382.24	774.72
382.43	683.44
382.63	608.54
382.83	746.63
383.02	720.88
383.22	755.99
383.41	812.17
383.61	727.91
383.80	653.01
384.00	716.20
384.19	760.67
384.39	793.44
384.58	844.93
384.78	903.45
384.97	765.36
385.17	816.85
385.36	763.01
385.56	795.78
385.75	772.38
385.95	739.61
386.14	800.46
386.34	837.91
386.53	788.76
386.72	828.55
386.92	933.87
387.11	847.27
387.31	861.32
387.50	833.23
387.70	863.66
387.89	791.10
388.09	851.96
388.28	917.49
388.48	882.38
388.67	947.92
388.86	877.70
389.06	945.58
389.25	933.87
389.45	931.53
389.64	983.02
389.84	936.21
390.03	992.39
390.22	994.73
390.42	1018.13
390.61	1008.77
390.81	1029.84
391.00	1093.03
391.19	1137.50
391.39	1043.88
391.58	1078.99
391.78	1149.20
391.97	1022.81
392.16	1060.26
392.36	1093.03
392.55	1086.01
392.75	1078.99
392.94	908.13
393.13	1020.47
393.33	1018.13
393.52	1018.13
393.71	1067.28
393.91	968.98
394.10	1153.88
394.29	1296.66
394.49	1196.01
394.68	1132.82
394.88	1193.67
395.07	1245.16
395.26	1252.19
395.46	1252.19
395.65	1266.23
395.84	1263.89
396.04	1172.61
396.23	1221.76
396.42	1273.25
396.62	1137.50
396.81	1156.22
397.00	1156.22
397.19	1287.29
397.39	1324.74
397.58	1378.58
397.77	1444.11
397.97	1481.56
398.16	1434.75
398.35	1397.30
398.55	1406.66
398.74	1544.75
398.93	1579.86
399.12	1497.94
399.32	1481.56
399.51	1549.43
399.70	1493.26
399.90	1535.39
400.09	1650.08
400.28	1621.99
400.47	1619.65
400.67	1586.88
400.86	1701.57
401.05	1696.89
401.24	1753.06
401.44	1727.32
401.63	1743.70
401.82	1764.76
402.01	1701.57
402.21	1832.64
402.40	1696.89
402.59	1799.87
402.78	1701.57
402.97	1778.81
403.17	1764.76
403.36	1884.13
403.55	1884.13
403.74	1853.70
403.93	1839.66
404.13	1930.94
404.32	1881.79
404.51	1884.13
404.70	1898.17
404.89	1959.03
405.09	1989.46
405.28	1944.99
405.47	1914.56
405.66	1980.09
405.85	2008.18
406.05	1989.46
406.24	2050.31
406.43	1956.69
406.62	2036.27
406.81	2160.31
407.00	2083.08
407.20	2076.06
407.39	2083.08
407.58	2120.53
407.77	2148.61
407.96	2211.81
408.15	2298.41
408.34	2225.85
408.54	2277.34
408.73	2239.89
408.92	2270.32
409.11	2380.32
409.30	2289.04
409.49	2298.41
409.68	2209.47
409.87	2270.32
410.07	2370.96
410.26	2347.56
410.45	2317.13
410.64	2385.01
410.83	2399.05
411.02	2473.95
411.21	2651.83
411.40	2574.59
411.59	2661.19
411.78	2579.27
411.98	2572.25
412.17	2590.97
412.36	2640.12
412.55	2785.24
412.74	2719.70
412.93	2768.85
413.12	2696.30
413.31	2853.11
413.50	2789.92
413.69	2916.31
413.88	2839.07
414.07	2827.37
414.26	2979.50
414.45	3040.36
414.64	3023.97
414.83	2946.73
415.02	3169.09
415.22	3016.95
415.41	3157.38
415.60	3190.15
415.79	3138.66
415.98	3328.24
416.17	3243.98
416.36	3236.96
416.55	3297.81
416.74	3143.34
416.93	3286.11
417.12	3248.66
417.31	3309.52
417.50	3361.01
417.69	3517.83
417.88	3489.74
418.07	3332.92
418.26	3438.25
418.45	3559.95
418.64	3595.06
418.83	3543.57
419.02	3679.32
419.21	3721.45
419.39	3590.38
419.58	3583.36
419.77	3562.30
419.96	3625.49
420.15	3733.15
420.34	3623.15
420.53	3786.99
420.72	3707.41
420.91	3854.86
421.10	3791.67
421.29	3971.89
421.48	3810.39
421.67	3861.88
421.86	3758.90
422.05	3700.39
422.24	3794.01
422.43	3770.60
422.61	3838.48
422.80	3985.93
422.99	3997.64
423.18	3918.06
423.37	3934.44
423.56	3904.01
423.75	4018.70
423.94	3765.92
424.13	3691.02
424.32	3695.71
424.50	4023.38
424.69	4091.26
424.88	3875.93
425.07	4011.68
425.26	4084.23
425.45	3964.87
425.64	3950.82
425.83	3922.74
426.01	4053.81
426.20	4025.72
426.39	3913.38
426.58	3990.61
426.77	4042.11
426.96	3983.59
427.15	3967.21
427.33	4098.28
427.52	4088.92
427.71	4212.96
427.90	4081.89
428.09	4161.47
428.28	4201.26
428.46	4159.13
428.65	4222.33
428.84	4393.19
429.03	4273.82
429.22	4067.85
429.40	4255.09
429.59	4138.07
429.78	3932.10
429.97	4088.92
430.16	3983.59
430.34	4154.45
430.53	4142.75
430.72	4131.05
430.91	4187.22
431.10	4442.34
431.28	4458.72
431.47	4678.73
431.66	4681.07
431.85	4669.37
432.03	4512.55
432.22	4711.50
432.41	4690.43
432.60	4629.58
432.79	4697.46
432.97	4690.43
433.16	4734.90
433.35	4692.77
433.54	4542.98
433.72	4751.29
433.91	4631.92
434.10	4739.58
434.28	4774.69
434.47	4903.42
434.66	4943.21
434.85	4973.64
435.03	4924.49
435.22	4901.08
435.41	5172.58
435.59	4978.32
435.78	5062.58
435.97	5210.03
436.16	5076.62
436.34	5224.08
436.53	5207.69
436.72	5179.61
436.90	5001.72
437.09	5181.95
437.28	5179.61
437.46	5207.69
437.65	5107.05
437.84	5254.50
438.02	5203.01
438.21	5135.14
438.40	5025.13
438.58	5263.86
438.77	5453.45
438.96	5408.98
439.14	5741.33
439.33	5706.23
439.52	5743.67
439.70	5570.48
439.89	5701.54
440.08	5738.99
440.26	5788.14
440.45	5717.93
440.63	5753.04
440.82	6059.65
441.01	5930.92
441.19	6026.88
441.38	6167.31
441.57	6202.42
441.75	6211.78
441.94	6270.30
442.12	6291.36
442.31	6555.84
442.50	6516.05
442.68	6392.00
442.87	6319.45
443.05	6516.05
443.24	6567.54
443.43	6408.39
443.61	6562.86
443.80	6707.98
443.98	6209.44
444.17	6305.40
444.35	6478.60
444.54	6452.86
444.73	6651.80
444.91	6492.65
445.10	6420.09
445.28	6445.84
445.47	6478.60
445.65	6389.66
445.84	6677.55
446.02	6532.44
446.21	6658.82
446.39	6581.59
446.58	6848.41
446.77	6813.30
446.95	6752.45
447.14	6717.34
447.32	6764.15
447.51	6888.20
447.69	6839.05
447.88	6808.62
448.06	6780.53
448.25	6855.43
448.43	6813.30
448.62	6740.74
448.80	6892.88
448.99	7009.90
449.17	6942.03
449.36	6897.56
449.54	7047.35
449.73	7225.23
449.91	7061.40
450.10	7026.29
450.28	7227.57
450.46	7089.48
450.65	7157.36
450.83	7246.30
451.02	7248.64
451.20	7204.17
451.39	7204.17
451.57	7241.62
451.76	7124.59
451.94	7178.42
452.13	7391.41
452.31	7288.43
452.49	7101.19
452.68	7169.06
452.86	7176.08
453.05	7234.60
453.23	7417.16
453.42	7197.15
453.60	7534.18
453.78	7478.01
453.97	7463.97
454.15	7508.44
454.34	7290.77
454.52	7510.78
454.70	7541.21
454.89	7475.67
455.07	7524.82
455.26	7573.97
455.44	7847.82
455.62	7805.69
455.81	7691.00
455.99	7784.62
456.17	7934.42
456.36	8035.06
456.54	8128.68
456.73	7894.63
456.91	7988.25
457.09	7981.23
457.28	8215.28
457.46	7957.82
457.64	8072.51
457.83	8292.52
458.01	8088.89
458.19	8402.52
458.38	8386.14
458.56	8484.44
458.74	8203.58
458.93	8224.64
459.11	8283.16
459.29	8376.78
459.48	8397.84
459.66	8285.50
459.84	8308.90
460.03	8540.61
460.21	8645.94
460.39	8465.72
460.57	8652.96
460.76	8533.59
460.94	8779.35
461.12	8671.68
461.31	8765.31
461.49	8917.44
461.67	8683.39
461.85	8793.39
462.04	8751.26
462.22	9280.22
462.40	8767.65
462.59	9034.47
462.77	8929.14
462.95	8849.57
463.13	8645.94
463.32	8931.48
463.50	8968.93
463.68	8877.65
463.86	8985.32
464.05	8844.88
464.23	8842.54
464.41	9034.47
464.59	8922.12
464.78	9107.02
464.96	9170.22
465.14	8990.00
465.32	9200.65
465.50	9142.13
465.69	9378.53
465.87	9329.38
466.05	9022.77
466.23	9114.05
466.41	9280.22
466.60	9373.85
466.78	9298.95
466.96	9167.88
467.14	9451.08
467.32	9233.41
467.51	9383.21
467.69	9247.46
467.87	9547.05
468.05	9446.40
468.23	9366.82
468.41	9301.29
468.60	9418.32
468.78	9647.69
468.96	9551.73
469.14	9785.78
469.32	9675.77
469.50	9661.73
469.69	9757.69
469.87	9893.44
470.05	9860.68
470.23	9877.06
470.41	9881.74
470.59	10188.35
470.77	9928.55
470.95	10209.42
471.14	10101.75
471.32	9977.70
471.50	10164.95
471.68	10277.29
471.86	10427.09
472.04	10487.94
472.22	10490.28
472.40	10260.91
472.58	10541.77
472.77	10366.23
472.95	10420.06
473.13	10806.25
473.31	10576.88
473.49	10335.81
473.67	10630.71
473.85	10738.38
474.03	10977.11
474.21	11066.05
474.39	10895.19
474.57	10824.98
474.75	11066.05
474.93	11295.43
475.12	11183.08
475.30	11482.67
475.48	11026.26
475.66	11307.13
475.84	11314.15
476.02	11421.81
476.20	11517.78
476.38	11548.20
476.56	11936.73
476.74	11604.38
476.92	12177.81
477.10	11777.58
477.28	12269.09
477.46	12084.19
477.64	12266.75
477.82	12348.67
478.00	12540.59
478.18	12587.40
478.36	12767.62
478.54	12767.62
478.72	12704.43
478.90	12882.31
479.08	12952.52
479.26	13107.00
479.44	13130.41
479.62	13202.96
479.80	13181.90
479.98	13392.55
480.16	13593.83
480.34	13621.92
480.52	13565.74
480.70	13825.54
480.88	13689.79
481.06	13965.98
481.24	13998.74
481.41	14195.35
481.59	14597.92
481.77	14466.85
481.95	14197.69
482.13	14560.47
482.31	14537.07
482.49	14972.41
482.67	14902.19
482.85	14925.60
483.03	15166.67
483.21	15211.14
483.39	15293.06
483.57	15400.72
483.74	15264.97
483.92	15660.52
484.10	15571.58
484.28	15702.65
484.46	15901.60
484.64	16496.10
484.82	16421.20
485.00	16184.80
485.18	16475.03
485.35	16669.30
485.53	16180.12
485.71	16252.68
485.89	16578.01
486.07	16369.71
486.25	16695.04
486.43	16725.47
486.61	16931.44
486.78	17509.55
486.96	17497.84
487.14	17764.67
487.32	17675.73
487.50	18176.60
487.68	18424.70
487.85	18352.14
488.03	18513.64
488.21	18562.79
488.39	18494.91
488.57	18618.96
488.75	18707.90
488.92	19063.66
489.10	19410.06
489.28	19253.25
489.46	19501.34
489.64	19690.93
489.81	20212.87
489.99	20180.10
490.17	20357.98
490.35	20301.81
490.53	20332.23
490.70	20362.66
490.88	20346.28
491.06	20849.49
491.24	20744.17
491.41	20760.55
491.59	20809.70
491.77	20730.12
491.95	20971.20
492.13	21390.16
492.30	21668.68
492.48	21521.23
492.66	21827.84
492.84	21490.80
493.01	22101.68
493.19	22183.60
493.37	22246.79
493.54	22450.42
493.72	22782.77
493.90	22546.38
494.08	23255.56
494.25	23110.45
494.43	23234.50
494.61	23587.92
494.79	23269.61
494.96	23686.22
495.14	23473.23
495.32	23468.55
495.49	23515.36
495.67	23751.76
495.85	23871.12
496.02	24364.98
496.20	24053.69
496.38	24671.59
496.55	24308.80
496.73	25156.08
496.91	24856.49
497.09	25013.31
497.26	25081.18
497.44	25193.53
497.62	25296.51
497.79	25207.57
497.97	25315.23
498.14	25521.20
498.32	25659.29
498.50	25961.22
498.67	25949.52
498.85	25619.50
499.03	26270.17
499.20	26403.58
499.38	26267.83
499.56	26232.72
499.73	26794.45
499.91	26422.31
500.08	26602.53
500.26	26111.02
500.44	27044.89
500.61	26993.40
500.79	26614.23
500.97	26829.56
501.14	27082.34
501.32	27175.96
501.49	27473.21
501.67	27175.96
501.84	27250.86
502.02	27646.41
502.20	27716.62
502.37	28135.58
502.55	27641.73
502.72	27960.04
502.90	28088.77
503.07	28149.62
503.25	28212.82
503.43	27875.78
503.60	28299.42
503.78	28292.40
503.95	28231.54
504.13	28608.37
504.30	28886.89
504.48	28299.42
504.65	28966.47
504.83	28786.25
505.01	28964.13
505.18	28865.83
505.36	29415.85
505.53	29359.68
505.71	29706.08
505.88	29429.90
506.06	29696.72
506.23	30141.42
506.41	29432.24
506.58	29727.14
506.76	30040.78
506.93	29762.25
507.11	29949.50
507.28	29909.71
507.46	29996.31
507.63	30118.01
507.81	30132.06
507.98	29977.58
508.16	30543.99
508.33	30576.76
508.50	31002.74
508.68	30944.22
508.85	30969.97
509.03	31028.48
509.20	31260.20
509.38	31278.92
509.55	30967.63
509.73	31297.64
509.90	31262.54
510.08	31260.20
510.25	31377.22
510.42	31466.16
510.60	31679.15
510.77	31580.85
510.95	31662.77
511.12	31634.68
511.30	32156.62
511.47	32538.13
511.64	32360.25
511.82	32271.31
511.99	32542.81
512.17	32573.24
512.34	31969.38
512.51	32243.22
512.69	32781.54
512.86	32980.49
513.04	33067.09
513.21	33263.69
513.38	32737.07
513.56	32814.31
513.73	33123.26
513.90	33284.76
514.08	32828.35
514.25	32980.49
514.43	33240.29
514.60	32973.47
514.77	33055.39
514.95	33574.98
515.12	33521.15
515.29	33432.21
515.47	34213.95
515.64	34335.66
515.81	33776.27
515.99	33766.91
516.16	33582.01
516.33	33584.35
516.51	33834.78
516.68	33228.59
516.85	33074.11
517.03	33284.76
517.20	33944.79
517.37	34389.49
517.54	34370.77
517.72	34213.95
517.89	33965.85
518.06	34005.64
518.24	34293.53
518.41	34078.20
518.58	34265.44
518.75	34417.58
518.93	34871.64
519.10	34611.84
519.27	34726.53
519.45	34881.00
519.62	35531.67
519.79	35463.80
519.96	35154.85
520.14	35314.00
520.31	34960.58
520.48	35512.95
520.65	35515.29
520.83	35292.94
521.00	36282.98
521.17	35971.69
521.34	36060.63
521.52	35714.23
521.69	36140.21
521.86	36748.75
522.03	36346.18
522.20	36608.32
522.38	36236.17
522.55	36451.50
522.72	36542.78
522.89	36252.56
523.07	36825.99
523.24	36343.84
523.41	36851.73
523.58	36804.92
523.75	37109.19
523.92	36744.07
524.10	37413.46
524.27	37282.39
524.44	37628.79
524.61	37120.90
524.78	37570.28
524.96	37572.62
525.13	37755.18
525.30	37511.77
525.47	37904.98
525.64	37219.20
525.81	37448.57
525.98	37900.29
526.16	37397.08
526.33	37504.74
526.50	37521.13
526.67	36903.23
526.84	37991.58
527.01	37340.91
527.18	37813.70
527.36	37851.14
527.53	38419.89
527.70	38464.36
527.87	38354.36
528.04	38249.03
528.21	38579.05
528.38	38515.86
528.55	38792.04
528.72	38946.51
528.89	39096.31
529.07	38775.66
529.24	38656.29
529.41	38810.76
529.58	38761.61
529.75	39164.18
529.92	39140.78
530.09	39108.01
530.26	39037.80
530.43	39105.67
530.60	38965.24
530.77	39220.36
530.94	39477.82
531.11	39608.89
531.28	39445.05
531.46	39636.97
531.63	39583.14
531.80	39431.01
531.97	39278.87
532.14	39260.15
532.31	39007.37
532.48	39559.73
532.65	39545.69
532.82	39821.87
532.99	40163.59
533.16	39754.00
533.33	40025.50
533.50	40095.72
533.67	39901.45
533.84	40011.46
534.01	40020.82
534.18	39660.38
534.35	40472.54
534.52	39828.90
534.69	40320.41
534.86	40837.67
535.03	40685.53
535.20	40755.75
535.37	40811.92
535.54	41350.24
535.71	40395.31
535.88	40870.43
536.05	40612.98
536.22	40837.67
536.38	40594.25
536.55	40392.97
536.72	41053.00
536.89	40439.78
537.06	40463.18
537.23	41099.81
537.40	41074.06
537.57	40699.58
537.74	41153.64
537.91	41116.19
538.08	41345.56
538.25	40821.28
538.42	40687.87
538.59	41352.58
538.75	40502.97
538.92	41467.27
539.09	41284.71
539.26	41422.80
539.43	41092.79
539.60	41298.75
539.77	41244.92
539.94	40952.35
540.11	41666.22
540.28	41338.54
540.44	41174.70
540.61	41539.83
540.78	41818.35
540.95	41411.10
541.12	41706.01
541.29	41532.81
541.46	41928.36
541.62	41734.09
541.79	41933.04
541.96	41518.76
542.13	41839.42
542.30	41338.54
542.47	41865.16
542.63	41956.44
542.80	42351.99
542.97	42319.23
543.14	42665.63
543.31	42267.73
543.48	42300.50
543.64	42799.04
543.81	42902.02
543.98	42960.53
544.15	42983.94
544.32	42995.64
544.48	43248.42
544.65	42733.50
544.82	42937.13
544.99	42513.49
545.16	42801.38
545.32	42649.24
545.49	43393.53
545.66	43480.13
545.83	43098.62
546.00	43309.27
546.16	42979.26
546.33	43112.67
546.50	42665.63
546.67	43068.20
546.83	42733.50
547.00	42951.17
547.17	43000.32
547.34	43171.18
547.50	43548.01
547.67	43440.34
547.84	43435.66
548.00	43452.05
548.17	44147.18
548.34	43845.26
548.51	43725.89
548.67	43732.91
548.84	43995.05
549.01	43489.49
549.18	43379.49
549.34	43370.13
549.51	43711.84
549.68	43725.89
549.84	43601.84
550.01	44238.47
550.18	43758.66
550.34	43779.72
550.51	43791.42
550.68	43587.80
550.84	43440.34
551.01	43889.73
551.18	43732.91
551.34	43681.42
551.51	44437.41
551.68	44449.11
551.84	44182.29
552.01	43770.36
552.18	44161.23
552.34	43599.50
552.51	44399.96
552.68	44098.03
552.84	44252.51
553.01	44055.90
553.18	44271.23
553.34	44505.29
553.51	44210.38
553.67	44687.85
553.84	44863.39
554.01	44767.43
554.17	44706.57
554.34	44619.97
554.51	44491.24
554.67	44648.06
554.84	45057.65
555.00	44662.10
555.17	44491.24
555.33	44500.61
555.50	44708.91
555.67	44884.45
555.83	44378.90
556.00	44671.46
556.16	45081.06
556.33	44671.46
556.50	44882.11
556.66	44996.80
556.83	44608.27
556.99	44891.48
557.16	44985.10
557.32	45017.86
557.49	45118.51
557.65	44701.89
557.82	45010.84
557.98	44828.28
558.15	45120.85
558.32	45198.09
558.48	44617.63
558.65	44774.45
558.81	44865.73
558.98	44907.86
559.14	44856.37
559.31	44938.29
559.47	45375.97
559.64	45373.63
559.80	45198.09
559.97	45385.33
560.13	44893.82
560.30	45191.06
560.46	45525.76
560.63	45399.37
560.79	45607.68
560.96	45713.00
561.12	45282.34
561.29	45289.37
561.45	45184.04
561.61	45202.77
561.78	45106.80
561.94	45261.28
562.11	45375.97
562.27	45146.59
562.44	45553.85
562.60	45673.21
562.77	45549.17
562.93	45799.60
563.10	45715.34
563.26	45146.59
563.42	45797.26
563.59	45574.91
563.75	45474.27
563.92	45504.70
564.08	45478.95
564.24	45638.11
564.41	45507.04
564.57	45476.61
564.74	45696.62
564.90	45329.16
565.07	45289.37
565.23	45294.05
565.39	45446.18
565.56	45366.60
565.72	45249.58
565.88	45495.33
566.05	45205.11
566.21	45734.07
566.38	45832.37
566.54	45677.90
566.70	45680.24
566.87	46019.61
567.03	45598.32
567.19	46169.41
567.36	46106.21
567.52	45860.46
567.68	45532.78
567.85	45813.65
568.01	45848.75
568.17	45762.15
568.34	45900.25
568.50	45628.74
568.66	45422.78
568.83	45947.06
568.99	45504.70
569.15	45478.95
569.32	45521.08
569.48	45448.52
569.64	45933.01
569.81	46110.89
569.97	45860.46
570.13	45659.17
570.30	45464.91
570.46	45453.20
570.62	45694.28
570.78	45553.85
570.95	45443.84
571.11	45762.15
571.27	45481.29
571.43	45696.62
571.60	45387.67
571.76	45642.79
571.92	45893.22
572.09	46050.04
572.25	45942.38
572.41	45666.19
572.57	45972.80
572.74	46321.54
572.90	45977.48
573.06	46096.85
573.22	45748.11
573.38	46209.20
573.55	45780.88
573.71	45860.46
573.87	46464.32
574.03	45811.31
574.20	45701.30
574.36	45549.17
574.52	45940.04
574.68	45954.08
574.84	45832.37
575.01	45422.78
575.17	45876.84
575.33	45584.27
575.49	45752.79
575.65	46244.30
575.82	45825.35
575.98	46092.17
576.14	46230.26
576.30	45975.14
576.46	45841.73
576.62	45406.39
576.79	45574.91
576.95	45736.41
577.11	46176.43
577.27	45682.58
577.43	45727.05
577.59	45661.51
577.75	45631.08
577.92	45628.74
578.08	45532.78
578.24	45851.09
578.40	45762.15
578.56	46101.53
578.72	45923.65
578.88	46623.47
579.04	45830.03
579.21	45666.19
579.37	46040.68
579.53	45708.32
579.69	45382.99
579.85	46113.23
580.01	45965.78
580.17	45713.00
580.33	45757.47
580.49	46059.40
580.65	45982.16
580.82	45979.82
580.98	45879.18
581.14	45698.96
581.30	45949.40
581.46	46127.28
581.62	45820.67
581.78	45970.46
581.94	46569.64
582.10	45883.86
582.26	45977.48
582.42	45783.22
582.58	45979.82
582.74	46410.48
582.90	45935.35
583.06	46188.13
583.22	46124.94
583.38	46454.95
583.54	46010.25
583.70	46181.11
583.86	46010.25
584.02	45886.20
584.18	46040.68
584.34	45921.31
584.50	45954.08
584.66	46050.04
584.82	46197.49
584.98	46415.16
585.14	46068.76
585.30	46040.68
585.46	45902.59
585.62	45815.99
585.78	46263.03
585.94	45940.04
586.10	45865.14
586.26	45741.09
586.42	46284.09
586.58	46354.31
586.74	46021.95
586.90	45727.05
587.06	45970.46
587.22	45900.25
587.38	46052.38
587.54	46068.76
587.70	46539.21
587.86	46038.34
588.02	45968.12
588.18	46216.22
588.34	45846.41
588.49	45586.61
588.65	45633.42
588.81	45748.11
588.97	45977.48
589.13	45593.64
589.29	45469.59
589.45	45563.21
589.61	45647.47
589.77	45883.86
589.93	45680.24
