SpectraSuite Data File
++++++++++++++++++++++++++++++++++++
Date: Fri Oct 25 10:43:35 EDT 2013
User: price-jones
Dark Spectrum Present: No
Reference Spectrum Present: No
Number of Sampled Component Spectra: 1
Spectrometers: USB2+H05261
Integration Time (usec): 100000 (USB2+H05261)
Spectra Averaged: 1 (USB2+H05261)
Boxcar Smoothing: 0 (USB2+H05261)
Correct for Electrical Dark: No (USB2+H05261)
Strobe/Lamp Enabled: No (USB2+H05261)
Correct for Detector Non-linearity: No (USB2+H05261)
Correct for Stray Light: No (USB2+H05261)
Number of Pixels in Processed Spectrum: 2048
>>>>>Begin Processed Spectral Data<<<<<
365.73	112.35
365.92	112.35
366.12	112.35
366.32	0.00
366.52	21.06
366.72	23.41
366.91	0.00
367.11	0.00
367.31	0.00
367.51	25.75
367.70	42.13
367.90	51.49
368.10	21.06
368.30	0.00
368.49	53.83
368.69	102.98
368.89	18.72
369.09	42.13
369.28	49.15
369.48	46.81
369.68	21.06
369.87	46.81
370.07	65.54
370.27	128.73
370.47	236.39
370.66	362.78
370.86	395.55
371.06	428.32
371.25	538.32
371.45	463.43
371.65	547.69
371.84	444.70
372.04	503.22
372.24	496.19
372.44	531.30
372.63	500.87
372.83	557.05
373.03	465.77
373.22	547.69
373.42	550.03
373.62	475.13
373.81	545.34
374.01	484.49
374.21	575.77
374.40	517.26
374.60	568.75
374.79	582.79
374.99	629.60
375.19	575.77
375.38	594.50
375.58	669.39
375.78	610.88
375.97	603.86
376.17	627.26
376.37	578.11
376.56	587.47
376.76	601.52
376.95	667.05
377.15	636.63
377.35	638.97
377.54	664.71
377.74	690.46
377.93	634.29
378.13	638.97
378.33	678.76
378.52	664.71
378.72	706.84
378.91	669.39
379.11	699.82
379.31	608.54
379.50	606.20
379.70	709.18
379.89	802.80
380.09	688.12
380.28	751.31
380.48	613.22
380.68	667.05
380.87	669.39
381.07	720.88
381.26	725.57
381.46	681.10
381.65	643.65
381.85	636.63
382.04	641.31
382.24	821.53
382.43	744.29
382.63	725.57
382.83	746.63
383.02	814.51
383.22	800.46
383.41	807.48
383.61	788.76
383.80	791.10
384.00	842.59
384.19	795.78
384.39	798.12
384.58	795.78
384.78	805.14
384.97	774.72
385.17	854.30
385.36	826.21
385.56	819.19
385.75	882.38
385.95	751.31
386.14	802.80
386.34	861.32
386.53	863.66
386.72	826.21
386.92	917.49
387.11	821.53
387.31	854.30
387.50	891.74
387.70	748.97
387.89	823.87
388.09	898.77
388.28	959.62
388.48	884.72
388.67	952.60
388.86	908.13
389.06	1022.81
389.25	1032.18
389.45	983.02
389.64	938.55
389.84	1034.52
390.03	973.66
390.22	1008.77
390.42	968.98
390.61	1022.81
390.81	1053.24
391.00	1097.71
391.19	1008.77
391.39	1186.65
391.58	1060.26
391.78	1071.97
391.97	1034.52
392.16	1053.24
392.36	1196.01
392.55	1114.10
392.75	1055.58
392.94	1025.15
393.13	1041.54
393.33	1034.52
393.52	1062.60
393.71	1064.94
393.91	1128.14
394.10	1128.14
394.29	1132.82
394.49	1207.72
394.68	1306.02
394.88	1301.34
395.07	1266.23
395.26	1308.36
395.46	1217.08
395.65	1259.21
395.84	1242.82
396.04	1310.70
396.23	1219.42
396.42	1196.01
396.62	1128.14
396.81	1170.27
397.00	1188.99
397.19	1313.04
397.39	1294.32
397.58	1303.68
397.77	1458.15
397.97	1418.36
398.16	1423.05
398.35	1423.05
398.55	1446.45
398.74	1563.48
398.93	1600.93
399.12	1563.48
399.32	1626.67
399.51	1507.30
399.70	1652.42
399.90	1551.78
400.09	1579.86
400.28	1661.78
400.47	1598.59
400.67	1678.16
400.86	1680.50
401.05	1629.01
401.24	1715.61
401.44	1739.02
401.63	1703.91
401.82	1750.72
402.01	1753.06
402.21	1750.72
402.40	1717.95
402.59	1769.44
402.78	1839.66
402.97	1699.23
403.17	1881.79
403.36	1748.38
403.55	1834.98
403.74	2017.54
403.93	1907.54
404.13	1900.52
404.32	1989.46
404.51	1914.56
404.70	1947.33
404.89	1949.67
405.09	2101.80
405.28	1966.05
405.47	2043.29
405.66	2003.50
405.85	2066.69
406.05	1961.37
406.24	2076.06
406.43	2043.29
406.62	2143.93
406.81	2221.17
407.00	2157.97
407.20	2202.44
407.39	2125.21
407.58	2221.17
407.77	2221.17
407.96	2148.61
408.15	2214.15
408.34	2260.96
408.54	2387.35
408.73	2377.98
408.92	2310.11
409.11	2443.52
409.30	2450.54
409.49	2342.88
409.68	2307.77
409.87	2340.54
410.07	2408.41
410.26	2375.64
410.45	2473.95
410.64	2471.61
410.83	2644.81
411.02	2658.85
411.21	2607.36
411.40	2609.70
411.59	2731.41
411.78	2607.36
411.98	2616.72
412.17	2682.25
412.36	2686.94
412.55	2633.10
412.74	2892.90
412.93	2724.38
413.12	2715.02
413.31	2862.48
413.50	2829.71
413.69	2818.00
413.88	2916.31
414.07	2958.44
414.26	2892.90
414.45	3033.33
414.64	3066.10
414.83	3063.76
415.02	3073.12
415.22	3098.87
415.41	3183.13
415.60	3241.64
415.79	3197.17
415.98	3351.65
416.17	3206.53
416.36	3239.30
416.55	3274.41
416.74	3243.98
416.93	3419.52
417.12	3375.05
417.31	3389.10
417.50	3480.38
417.69	3456.97
417.88	3522.51
418.07	3405.48
418.26	3510.80
418.45	3524.85
418.64	3602.08
418.83	3723.79
419.02	3653.58
419.21	3684.00
419.39	3676.98
419.58	3592.72
419.77	3426.54
419.96	3702.73
420.15	3784.65
420.34	3730.81
420.53	3920.40
420.72	3859.54
420.91	3861.88
421.10	3878.27
421.29	4070.19
421.48	3922.74
421.67	3964.87
421.86	3794.01
422.05	3988.27
422.24	3716.77
422.43	3772.94
422.61	3974.23
422.80	4072.53
422.99	4002.32
423.18	4112.32
423.37	4009.34
423.56	4095.94
423.75	3941.46
423.94	3840.82
424.13	3913.38
424.32	3838.48
424.50	3988.27
424.69	4025.72
424.88	3826.78
425.07	4007.00
425.26	3953.16
425.45	4028.06
425.64	4065.51
425.83	3873.59
426.01	4170.83
426.20	4065.51
426.39	4081.89
426.58	4091.26
426.77	4046.79
426.96	4079.55
427.15	3990.61
427.33	4056.15
427.52	3964.87
427.71	4142.75
427.90	4173.18
428.09	4208.28
428.28	4306.59
428.46	4147.43
428.65	4196.58
428.84	4365.10
429.03	4470.42
429.22	4262.12
429.40	4276.16
429.59	4154.45
429.78	3997.64
429.97	4145.09
430.16	4138.07
430.34	4009.34
430.53	4177.86
430.72	4304.25
430.91	4271.48
431.10	4269.14
431.28	4657.67
431.47	4629.58
431.66	4737.24
431.85	4835.55
432.03	4636.60
432.22	4645.96
432.41	4685.75
432.60	4784.06
432.79	4908.10
432.97	4725.54
433.16	4858.95
433.35	4849.59
433.54	4788.74
433.72	4678.73
433.91	4676.39
434.10	4844.91
434.28	4954.91
434.47	4926.83
434.66	5114.07
434.85	5118.75
435.03	4994.70
435.22	5088.32
435.41	5165.56
435.59	5053.22
435.78	5167.90
435.97	5165.56
436.16	5235.78
436.34	5214.71
436.53	5359.83
436.72	5397.28
436.90	5275.57
437.09	5174.92
437.28	5027.47
437.46	5275.57
437.65	5245.14
437.84	5198.33
438.02	5064.92
438.21	5254.50
438.40	5153.86
438.58	5502.60
438.77	5570.48
438.96	5467.49
439.14	5778.78
439.33	5699.20
439.52	5734.31
439.70	5682.82
439.89	5851.34
440.08	5558.77
440.26	5764.74
440.45	5802.19
440.63	5895.81
440.82	6125.18
441.01	5930.92
441.19	6155.61
441.38	6164.97
441.57	6249.23
441.75	6244.55
441.94	6438.81
442.12	6375.62
442.31	6523.07
442.50	6352.21
442.68	6265.61
442.87	6270.30
443.05	6319.45
443.24	6497.33
443.43	6518.39
443.61	6541.80
443.80	6597.97
443.98	6434.13
444.17	6384.98
444.35	6600.31
444.54	6759.47
444.73	6726.70
444.91	6595.63
445.10	6771.17
445.28	6628.40
445.47	6530.09
445.65	6590.95
445.84	6649.46
446.02	6780.53
446.21	6806.28
446.39	6726.70
446.58	6700.95
446.77	6841.39
446.95	6855.43
447.14	7028.63
447.32	6881.18
447.51	6937.35
447.69	6888.20
447.88	6731.38
448.06	6885.86
448.25	6979.48
448.43	6820.32
448.62	6829.68
448.80	6808.62
448.99	6927.99
449.17	7037.99
449.36	7019.27
449.54	7059.06
449.73	7272.04
449.91	7358.64
450.10	7279.07
450.28	7330.56
450.46	7400.77
450.65	7321.20
450.83	7410.14
451.02	7463.97
451.20	7440.56
451.39	7365.67
451.57	7412.48
451.76	7417.16
451.94	7440.56
452.13	7524.82
452.31	7360.98
452.49	7225.23
452.68	7478.01
452.86	7253.32
453.05	7377.37
453.23	7449.93
453.42	7534.18
453.60	7428.86
453.78	7606.74
453.97	7377.37
454.15	7302.47
454.34	7501.42
454.52	7705.04
454.70	7573.97
454.89	7602.06
455.07	7660.57
455.26	7808.03
455.44	7953.14
455.62	7815.05
455.81	7712.07
455.99	7875.90
456.17	7988.25
456.36	7866.54
456.54	8332.31
456.73	8093.57
456.91	8266.77
457.09	8273.79
457.28	8393.16
457.46	8067.83
457.64	8400.18
457.83	8191.88
458.01	7946.12
458.19	8348.69
458.38	8245.71
458.56	8444.65
458.74	8311.24
458.93	8306.56
459.11	8351.03
459.29	8489.12
459.48	8446.99
459.66	8463.38
459.84	8585.08
460.03	8596.79
460.21	8638.92
460.39	8718.50
460.57	8655.30
460.76	8849.57
460.94	8809.78
461.12	8812.12
461.31	8784.03
461.49	8882.33
461.67	8662.32
461.85	8903.40
462.04	8924.46
462.22	9458.10
462.40	9050.85
462.59	9071.92
462.77	9029.79
462.95	9142.13
463.13	9034.47
463.32	9062.55
463.50	9221.71
463.68	9263.84
463.86	9104.68
464.05	8987.66
464.23	8940.85
464.41	9177.24
464.59	9046.17
464.78	9568.11
464.96	9256.82
465.14	8985.32
465.32	9263.84
465.50	9439.38
465.69	9451.08
465.87	9378.53
466.05	9301.29
466.23	9102.34
466.41	9317.67
466.60	9495.55
466.78	9301.29
466.96	9446.40
467.14	9551.73
467.32	9500.23
467.51	9497.89
467.69	9397.25
467.87	9504.92
468.05	9647.69
468.23	9589.17
468.41	9446.40
468.60	9778.76
468.78	9975.36
468.96	9701.52
469.14	9891.10
469.32	9881.74
469.50	9591.52
469.69	9853.66
469.87	9956.64
470.05	10157.92
470.23	9996.43
470.41	9966.00
470.59	10120.48
470.77	10017.49
470.95	10277.29
471.14	10310.06
471.32	10298.36
471.50	10340.49
471.68	10518.37
471.86	10272.61
472.04	10483.26
472.22	10738.38
472.40	10565.18
472.58	10361.55
472.77	10712.63
472.95	10768.80
473.13	11094.14
473.31	10839.02
473.49	10824.98
473.67	10609.65
473.85	10834.34
474.03	11096.48
474.21	11012.22
474.39	11274.36
474.57	11185.42
474.75	11096.48
474.93	11272.02
475.12	11349.26
475.30	11274.36
475.48	11147.97
475.66	11290.74
475.84	11477.99
476.02	11623.10
476.20	11641.82
476.38	11688.64
476.56	12112.27
476.74	11857.15
476.92	11976.52
477.10	12030.35
477.28	12425.90
477.46	12367.39
477.64	12425.90
477.82	12774.64
478.00	12844.86
478.18	12732.51
478.36	12725.49
478.54	12917.42
478.72	12788.69
478.90	13184.24
479.08	13233.39
479.26	13319.99
479.44	13373.82
479.62	13554.04
479.80	13387.86
479.98	13577.45
480.16	13881.72
480.34	13591.49
480.52	13994.06
480.70	13884.06
480.88	13862.99
481.06	14272.59
481.24	14408.34
481.41	14370.89
481.59	14483.24
481.77	14771.12
481.95	14967.73
482.13	14553.45
482.31	14824.95
482.49	15143.27
482.67	15012.20
482.85	15257.95
483.03	15454.56
483.21	15346.89
483.39	15681.59
483.57	15489.67
483.74	15686.27
483.92	15941.39
484.10	15784.57
484.28	16112.25
484.46	16365.03
484.64	16671.64
484.82	15981.18
485.00	16409.50
485.18	16662.27
485.35	16774.62
485.53	16318.22
485.71	16304.17
485.89	16709.08
486.07	16414.18
486.25	16725.47
486.43	17216.98
486.61	17380.82
486.78	17507.21
486.96	17713.17
487.14	17731.90
487.32	18029.15
487.50	18551.09
487.68	18518.32
487.85	18668.11
488.03	18820.25
488.21	19080.05
488.39	18785.14
488.57	18937.27
488.75	19105.79
488.92	19190.05
489.10	19604.33
489.28	19597.31
489.46	19924.98
489.64	19728.38
489.81	20196.48
489.99	20407.13
490.17	20161.37
490.35	20697.36
490.53	20402.45
490.70	20814.38
490.88	20760.55
491.06	21333.98
491.24	21139.72
491.41	21106.95
491.59	21284.83
491.77	20924.39
491.95	21235.68
492.13	21752.94
492.30	22106.36
492.48	22150.83
492.66	22017.42
492.84	22506.59
493.01	22384.88
493.19	22431.69
493.37	22689.15
493.54	22860.01
493.72	22899.80
493.90	23007.47
494.08	23304.71
494.25	23477.91
494.43	23534.09
494.61	23971.77
494.79	23733.03
494.96	23857.08
495.14	23941.34
495.32	23857.08
495.49	23910.91
495.67	23948.36
495.85	24489.03
496.02	24374.34
496.20	24694.99
496.38	24737.12
496.55	24900.96
496.73	25439.28
496.91	25333.96
497.09	25280.13
497.26	25434.60
497.44	25397.15
497.62	25479.07
497.79	25762.28
497.97	25441.62
498.14	26031.44
498.32	25736.53
498.50	25886.32
498.67	26218.68
498.85	26349.75
499.03	26281.88
499.20	26319.32
499.38	26522.95
499.56	26686.79
499.73	26576.78
499.91	27080.00
500.08	26958.29
500.26	26735.94
500.44	26682.11
500.61	27094.04
500.79	26892.76
500.97	27063.61
501.14	27377.25
501.32	27503.64
501.49	27267.24
501.67	27510.66
501.84	27564.49
502.02	27721.30
502.20	28056.00
502.37	28219.84
502.55	28102.81
502.72	28304.10
502.90	28388.36
503.07	28212.82
503.25	27967.06
503.43	28250.27
503.60	28577.94
503.78	28510.07
503.95	28584.96
504.13	28540.49
504.30	28891.57
504.48	29055.41
504.65	29371.38
504.83	29032.00
505.01	29642.88
505.18	29465.00
505.36	29811.40
505.53	29834.81
505.71	30199.93
505.88	30202.27
506.06	30019.71
506.23	29645.23
506.41	29916.73
506.58	30139.08
506.76	30307.60
506.93	30141.42
507.11	30265.47
507.28	30756.98
507.46	30185.89
507.63	30122.69
507.81	30272.49
507.98	30281.85
508.16	30759.32
508.33	31087.00
508.50	31264.88
508.68	31428.71
508.85	31871.07
509.03	31859.37
509.20	31421.69
509.38	31571.49
509.55	31700.22
509.73	31807.88
509.90	31875.76
510.08	31489.57
510.25	31442.76
510.42	31735.32
510.60	32278.33
510.77	32280.67
510.95	32678.56
511.12	32023.21
511.30	32622.39
511.47	32826.01
511.64	32521.74
511.82	33029.64
511.99	32596.64
512.17	32458.55
512.34	32854.10
512.51	33373.70
512.69	33132.62
512.86	33212.20
513.04	33146.67
513.21	33579.67
513.38	33151.35
513.56	33350.29
513.73	33134.96
513.90	33462.64
514.08	33656.90
514.25	33628.82
514.43	33598.39
514.60	33806.70
514.77	33895.64
514.95	33883.94
515.12	33930.75
515.29	33858.19
515.47	34445.66
515.64	34178.84
515.81	34361.40
515.99	34036.07
516.16	34106.29
516.33	34153.10
516.51	34401.19
516.68	33640.52
516.85	33551.58
517.03	34017.35
517.20	34178.84
517.37	34586.10
517.54	34726.53
517.72	34602.48
517.89	34082.88
518.06	34232.68
518.24	34440.98
518.41	35101.01
518.58	34801.43
518.75	35175.91
518.93	35346.77
519.10	35154.85
519.27	35407.62
519.45	35194.64
519.62	35758.70
519.79	35634.66
519.96	35585.50
520.14	36123.83
520.31	35749.34
520.48	35388.90
520.65	35849.99
520.83	36203.41
521.00	36271.28
521.17	36301.71
521.34	36257.24
521.52	36294.69
521.69	36708.96
521.86	36737.05
522.03	36879.82
522.20	36680.88
522.38	36715.98
522.55	36617.68
522.72	36804.92
522.89	36561.51
523.07	37104.51
523.24	36514.70
523.41	37076.43
523.58	37120.90
523.75	37666.24
523.92	37546.87
524.10	37785.61
524.27	37284.73
524.44	37881.57
524.61	37521.13
524.78	37579.64
524.96	37858.17
525.13	37958.81
525.30	38190.52
525.47	38293.50
525.64	38033.71
525.81	37930.72
525.98	37509.43
526.16	37886.25
526.33	37427.51
526.50	37598.37
526.67	37322.18
526.84	37329.20
527.01	37727.10
527.18	38073.49
527.36	38436.28
527.53	38389.47
527.70	39012.05
527.87	38768.63
528.04	38466.70
528.21	38686.71
528.38	38635.22
528.55	39501.22
528.72	39246.10
528.89	39086.95
529.07	39009.71
529.24	38265.42
529.41	39002.69
529.58	38892.68
529.75	38925.45
529.92	39445.05
530.09	39021.41
530.26	39330.36
530.43	39669.74
530.60	39557.39
530.77	39175.89
530.94	39976.35
531.11	39828.90
531.28	39864.00
531.46	39955.29
531.63	39826.56
531.80	40058.27
531.97	39981.03
532.14	39768.04
532.31	39356.11
532.48	39950.60
532.65	39758.68
532.82	40268.92
532.99	40449.14
533.16	39868.69
533.33	40252.53
533.50	40233.81
533.67	39873.37
533.84	39969.33
534.01	40355.52
534.18	40140.19
534.35	40900.86
534.52	40369.56
534.69	40762.77
534.86	41331.52
535.03	41148.96
535.20	41488.34
535.37	41378.33
535.54	41392.37
535.71	40854.05
535.88	41392.37
536.05	41067.04
536.22	41474.29
536.38	41289.39
536.55	40591.91
536.72	40982.78
536.89	40781.49
537.06	40753.41
537.23	41628.77
537.40	41214.49
537.57	41446.21
537.74	41268.33
537.91	41638.13
538.08	41858.14
538.25	41500.04
538.42	41918.99
538.59	41677.92
538.75	41584.30
538.92	41698.98
539.09	41844.10
539.26	41268.33
539.43	41727.07
539.60	41408.76
539.77	41549.19
539.94	41727.07
540.11	41654.51
540.28	41982.19
540.44	42021.98
540.61	41961.12
540.78	41759.84
540.95	41797.29
541.12	41574.94
541.29	41890.91
541.46	41996.23
541.62	42057.09
541.79	42284.12
541.96	41909.63
542.13	41961.12
542.30	42368.38
542.47	42665.63
542.63	42454.98
542.80	42586.05
542.97	42747.54
543.14	42625.84
543.31	42899.68
543.48	43012.02
543.64	42911.38
543.81	43526.94
543.98	43391.19
544.15	42869.25
544.32	43161.82
544.48	43592.48
544.65	43133.73
544.82	43302.25
544.99	42857.55
545.16	43318.64
545.32	43075.22
545.49	43625.25
545.66	43718.87
545.83	43655.67
546.00	43983.35
546.16	43676.74
546.33	43398.21
546.50	43051.81
546.67	43758.66
546.83	43564.39
547.00	43613.54
547.17	43669.72
547.34	43498.86
547.50	43430.98
547.67	44203.36
547.84	43639.29
548.00	43810.15
548.17	44203.36
548.34	43934.20
548.51	44353.15
548.67	44381.24
548.84	44172.93
549.01	44116.76
549.18	43737.59
549.34	44254.85
549.51	43917.81
549.68	44011.43
549.84	44219.74
550.01	44369.54
550.18	44083.99
550.34	44514.65
550.51	44243.15
550.68	44009.09
550.84	43613.54
551.01	44371.88
551.18	44449.11
551.34	44910.20
551.51	44837.64
551.68	44435.07
551.84	44470.18
552.01	44261.87
552.18	44856.37
552.34	44161.23
552.51	44912.54
552.68	44451.45
552.84	44580.18
553.01	44900.84
553.18	44818.92
553.34	44947.65
553.51	44896.16
553.67	44896.16
553.84	45265.96
554.01	45254.26
554.17	44903.18
554.34	45170.00
554.51	45434.48
554.67	45308.09
554.84	45165.32
555.00	45235.53
555.17	44996.80
555.33	45272.98
555.50	45174.68
555.67	45102.12
555.83	45427.46
556.00	45216.81
556.16	45205.11
556.33	45261.28
556.50	44954.67
556.66	44952.33
556.83	44870.41
556.99	45071.70
557.16	45368.94
557.32	45394.69
557.49	45333.84
557.65	45731.73
557.82	45462.57
557.98	45364.26
558.15	45076.38
558.32	45254.26
558.48	44952.33
558.65	45495.33
558.81	44905.52
558.98	45731.73
559.14	45027.23
559.31	45343.20
559.47	45446.18
559.64	45570.23
559.80	45294.05
559.97	45263.62
560.13	45207.45
560.30	45500.01
560.46	45839.39
560.63	45979.82
560.79	45914.29
560.96	45668.53
561.12	45478.95
561.29	45343.20
561.45	45703.64
561.61	45759.81
561.78	45256.60
561.94	45605.34
562.11	45432.14
562.27	45584.27
562.44	45284.68
562.60	45909.61
562.77	46216.22
562.93	46234.94
563.10	45694.28
563.26	45357.24
563.42	46134.30
563.59	45600.66
563.75	45516.40
563.92	45691.94
564.08	45879.18
564.24	46054.72
564.41	46153.02
564.57	46150.68
564.74	46176.43
564.90	45998.55
565.07	45921.31
565.23	46237.28
565.39	45593.64
565.56	46099.19
565.72	45904.93
565.88	45422.78
566.05	45661.51
566.21	45883.86
566.38	46155.36
566.54	45588.95
566.70	46234.94
566.87	46307.50
567.03	45757.47
567.19	46506.44
567.36	46213.88
567.52	46356.65
567.68	46380.06
567.85	46054.72
568.01	46181.11
568.17	46213.88
568.34	46007.91
568.50	45909.61
568.66	46096.85
568.83	46087.49
568.99	45954.08
569.15	45839.39
569.32	46106.21
569.48	46216.22
569.64	46361.33
569.81	46492.40
569.97	46237.28
570.13	46047.70
570.30	45832.37
570.46	45652.15
570.62	45827.69
570.78	45301.07
570.95	45858.12
571.11	46014.93
571.27	45801.94
571.43	46162.39
571.60	46064.08
571.76	46199.83
571.92	46419.84
572.09	46541.55
572.25	46021.95
572.41	46185.79
572.57	46237.28
572.74	46375.37
572.90	46220.90
573.06	46536.87
573.22	46178.77
573.38	46316.86
573.55	46347.29
573.71	46263.03
573.87	46644.54
574.03	45998.55
574.20	46061.74
574.36	45907.27
574.52	46204.52
574.68	45909.61
574.84	46199.83
575.01	46073.45
575.17	46054.72
575.33	46138.98
575.49	45785.56
575.65	46272.39
575.82	46197.49
575.98	46220.90
576.14	46569.64
576.30	46036.00
576.46	46131.96
576.62	46106.21
576.79	46373.03
576.95	46148.34
577.11	46515.81
577.27	45972.80
577.43	46078.13
577.59	45893.22
577.75	46031.32
577.92	46010.25
578.08	45886.20
578.24	46078.13
578.40	46295.80
578.56	45844.07
578.72	46033.66
578.88	46281.75
579.04	46028.98
579.21	46131.96
579.37	46312.18
579.53	46089.83
579.69	45724.71
579.85	45982.16
580.01	46321.54
580.17	46328.56
580.33	46256.01
580.49	46539.21
580.65	46279.41
580.82	45717.68
580.98	46389.42
581.14	45778.54
581.30	46869.23
581.46	46504.10
581.62	46424.53
581.78	46546.23
581.94	46738.16
582.10	46525.17
582.26	46707.73
582.42	46681.98
582.58	46337.93
582.74	46401.12
582.90	46206.86
583.06	46263.03
583.22	46745.18
583.38	46684.33
583.54	46696.03
583.70	46595.38
583.86	46689.01
584.02	46642.20
584.18	46586.02
584.34	46188.13
584.50	46529.85
584.66	46740.50
584.82	46274.73
584.98	46424.53
585.14	46490.06
585.30	46447.93
585.46	46031.32
585.62	45799.60
585.78	46618.79
585.94	46160.05
586.10	46511.13
586.26	46321.54
586.42	46370.69
586.58	46284.09
586.74	46307.50
586.90	46323.88
587.06	46560.28
587.22	46469.00
587.38	46024.29
587.54	46436.23
587.70	46569.64
587.86	46410.48
588.02	46246.65
588.18	46630.49
588.34	46071.10
588.49	46106.21
588.65	45862.80
588.81	45977.48
588.97	45937.69
589.13	45846.41
589.29	46064.08
589.45	45963.44
589.61	46078.13
589.77	46457.29
589.93	46206.86
