SpectraSuite Data File
++++++++++++++++++++++++++++++++++++
Date: Fri Oct 25 11:34:20 EDT 2013
User: price-jones
Dark Spectrum Present: No
Reference Spectrum Present: No
Number of Sampled Component Spectra: 1
Spectrometers: USB2+H05261
Integration Time (usec): 100000 (USB2+H05261)
Spectra Averaged: 1 (USB2+H05261)
Boxcar Smoothing: 0 (USB2+H05261)
Correct for Electrical Dark: No (USB2+H05261)
Strobe/Lamp Enabled: No (USB2+H05261)
Correct for Detector Non-linearity: No (USB2+H05261)
Correct for Stray Light: No (USB2+H05261)
Number of Pixels in Processed Spectrum: 2048
>>>>>Begin Processed Spectral Data<<<<<
365.73	294.91
365.92	294.91
366.12	294.91
366.32	245.76
366.52	168.52
366.72	264.48
366.91	128.73
367.11	241.08
367.31	182.56
367.51	145.11
367.70	145.11
367.90	201.29
368.10	142.77
368.30	128.73
368.49	159.16
368.69	250.44
368.89	95.96
369.09	191.92
369.28	175.54
369.48	220.01
369.68	248.10
369.87	273.84
370.07	238.73
370.27	297.25
370.47	393.21
370.66	468.11
370.86	571.09
371.06	521.94
371.25	561.73
371.45	554.71
371.65	554.71
371.84	519.60
372.04	531.30
372.24	568.75
372.44	533.64
372.63	587.47
372.83	596.84
373.03	531.30
373.22	550.03
373.42	547.69
373.62	603.86
373.81	617.90
374.01	720.88
374.21	634.29
374.40	650.67
374.60	791.10
374.79	655.35
374.99	634.29
375.19	596.84
375.38	606.20
375.58	636.63
375.78	610.88
375.97	580.45
376.17	662.37
376.37	681.10
376.56	734.93
376.76	638.97
376.95	667.05
377.15	713.86
377.35	671.73
377.54	622.58
377.74	699.82
377.93	629.60
378.13	657.69
378.33	718.54
378.52	685.78
378.72	699.82
378.91	641.31
379.11	713.86
379.31	702.16
379.50	683.44
379.70	695.14
379.89	706.84
380.09	690.46
380.28	737.27
380.48	739.61
380.68	711.52
380.87	746.63
381.07	641.31
381.26	805.14
381.46	739.61
381.65	755.99
381.85	690.46
382.04	795.78
382.24	770.04
382.43	760.67
382.63	793.44
382.83	786.42
383.02	774.72
383.22	915.15
383.41	842.59
383.61	816.85
383.80	863.66
384.00	706.84
384.19	732.59
384.39	823.87
384.58	774.72
384.78	795.78
384.97	819.19
385.17	819.19
385.36	812.17
385.56	849.61
385.75	847.27
385.95	917.49
386.14	894.08
386.34	891.74
386.53	833.23
386.72	828.55
386.92	786.42
387.11	844.93
387.31	938.55
387.50	840.25
387.70	858.98
387.89	795.78
388.09	919.83
388.28	812.17
388.48	926.85
388.67	973.66
388.86	959.62
389.06	894.08
389.25	901.11
389.45	933.87
389.64	947.92
389.84	964.30
390.03	1004.09
390.22	973.66
390.42	910.47
390.61	985.37
390.81	908.13
391.00	875.36
391.19	992.39
391.39	987.71
391.58	947.92
391.78	1036.86
391.97	1025.15
392.16	945.58
392.36	1020.47
392.55	954.94
392.75	1015.79
392.94	1034.52
393.13	1008.77
393.33	1034.52
393.52	1083.67
393.71	1015.79
393.91	1097.71
394.10	1074.31
394.29	1125.80
394.49	1015.79
394.68	1093.03
394.88	1111.75
395.07	1062.60
395.26	1144.52
395.46	1137.50
395.65	1118.78
395.84	1130.48
396.04	1217.08
396.23	1160.91
396.42	1139.84
396.62	1109.41
396.81	1174.95
397.00	1233.46
397.19	1135.16
397.39	1196.01
397.58	1259.21
397.77	1100.05
397.97	1235.80
398.16	1284.95
398.35	1252.19
398.55	1181.97
398.74	1235.80
398.93	1277.93
399.12	1242.82
399.32	1268.57
399.51	1240.48
399.70	1268.57
399.90	1221.76
400.09	1313.04
400.28	1352.83
400.47	1362.19
400.67	1413.68
400.86	1348.15
401.05	1474.54
401.24	1570.50
401.44	1376.24
401.63	1416.02
401.82	1453.47
402.01	1334.11
402.21	1432.41
402.40	1409.00
402.59	1481.56
402.78	1488.58
402.97	1493.26
403.17	1533.05
403.36	1467.52
403.55	1521.35
403.74	1600.93
403.93	1556.46
404.13	1554.12
404.32	1600.93
404.51	1551.78
404.70	1664.12
404.89	1533.05
405.09	1650.08
405.28	1675.82
405.47	1589.22
405.66	1638.38
405.85	1671.14
406.05	1713.27
406.24	1633.69
406.43	1703.91
406.62	1720.29
406.81	1755.40
407.00	1645.40
407.20	1746.04
407.39	1732.00
407.58	1813.92
407.77	1753.06
407.96	1767.10
408.15	1781.15
408.34	1813.92
408.54	1799.87
408.73	1963.71
408.92	1811.57
409.11	1959.03
409.30	1935.62
409.49	1919.24
409.68	1949.67
409.87	1952.01
410.07	1930.94
410.26	1975.41
410.45	2031.58
410.64	2008.18
410.83	2024.56
411.02	2169.68
411.21	2122.87
411.40	2083.08
411.59	2174.36
411.78	2134.57
411.98	2165.00
412.17	2146.27
412.36	2275.00
412.55	2242.23
412.74	2200.10
412.93	2359.26
413.12	2167.34
413.31	2363.94
413.50	2223.51
413.69	2324.15
413.88	2410.75
414.07	2392.03
414.26	2413.09
414.45	2382.67
414.64	2490.33
414.83	2459.90
415.02	2530.12
415.22	2544.16
415.41	2612.04
415.60	2506.71
415.79	2492.67
415.98	2682.25
416.17	2654.17
416.36	2640.12
416.55	2752.47
416.74	2766.51
416.93	2590.97
417.12	2832.05
417.31	2773.53
417.50	2759.49
417.69	2787.58
417.88	2928.01
418.07	2878.86
418.26	2787.58
418.45	2937.37
418.64	3005.25
418.83	2918.65
419.02	2862.48
419.21	2991.20
419.39	3014.61
419.58	3101.21
419.77	2937.37
419.96	2932.69
420.15	3038.02
420.34	3112.91
420.53	3033.33
420.72	3194.83
420.91	3199.51
421.10	3150.36
421.29	3162.06
421.48	3129.30
421.67	3246.32
421.86	3143.34
422.05	3213.56
422.24	3227.60
422.43	3339.94
422.61	3204.19
422.80	3288.45
422.99	3272.07
423.18	3372.71
423.37	3262.71
423.56	3368.03
423.75	3433.57
423.94	3199.51
424.13	3112.91
424.32	3201.85
424.50	3372.71
424.69	3368.03
424.88	3391.44
425.07	3279.09
425.26	3229.94
425.45	3328.24
425.64	3349.31
425.83	3330.58
426.01	3307.18
426.20	3424.20
426.39	3353.99
426.58	3419.52
426.77	3386.76
426.96	3449.95
427.15	3456.97
427.33	3433.57
427.52	3489.74
427.71	3538.89
427.90	3480.38
428.09	3574.00
428.28	3574.00
428.46	3651.24
428.65	3604.42
428.84	3700.39
429.03	3655.92
429.22	3634.85
429.40	3637.19
429.59	3669.96
429.78	3578.68
429.97	3520.17
430.16	3566.98
430.34	3707.41
430.53	3714.43
430.72	3684.00
430.91	3789.33
431.10	3808.05
431.28	3838.48
431.47	3992.95
431.66	4046.79
431.85	3913.38
432.03	3782.31
432.22	3932.10
432.41	3918.06
432.60	3957.85
432.79	3999.98
432.97	3920.40
433.16	3983.59
433.35	4098.28
433.54	3953.16
433.72	4119.34
433.91	4093.60
434.10	4182.54
434.28	4147.43
434.47	4198.92
434.66	4060.83
434.85	4276.16
435.03	4166.15
435.22	4227.01
435.41	4334.67
435.59	4299.56
435.78	4325.31
435.97	4313.61
436.16	4353.40
436.34	4215.30
436.53	4329.99
436.72	4374.46
436.90	4255.09
437.09	4458.72
437.28	4259.78
437.46	4409.57
437.65	4348.72
437.84	4416.59
438.02	4339.35
438.21	4505.53
438.40	4456.38
438.58	4568.73
438.77	4652.98
438.96	4648.30
439.14	4727.88
439.33	4788.74
439.52	4709.16
439.70	4917.47
439.89	4875.34
440.08	4884.70
440.26	5006.41
440.45	4863.63
440.63	5029.81
440.82	4912.78
441.01	5027.47
441.19	5001.72
441.38	5081.30
441.57	5123.43
441.75	5088.32
441.94	5275.57
442.12	5268.55
442.31	5336.42
442.50	5261.52
442.68	5233.44
442.87	5289.61
443.05	5380.89
443.24	5373.87
443.43	5329.40
443.61	5301.31
443.80	5568.13
443.98	5359.83
444.17	5181.95
444.35	5369.19
444.54	5357.49
444.73	5600.90
444.91	5472.17
445.10	5458.13
445.28	5411.32
445.47	5434.72
445.65	5542.39
445.84	5544.73
446.02	5554.09
446.21	5659.42
446.39	5575.16
446.58	5526.00
446.77	5406.64
446.95	5355.15
447.14	5652.39
447.32	5579.84
447.51	5507.28
447.69	5554.09
447.88	5469.83
448.06	5589.20
448.25	5397.28
448.43	5748.36
448.62	5753.04
448.80	5664.10
448.99	5703.89
449.17	5736.65
449.36	5582.18
449.54	5790.49
449.73	5827.93
449.91	6008.16
450.10	5799.85
450.28	5935.60
450.46	5856.02
450.65	6001.13
450.83	6017.52
451.02	5959.00
451.20	6073.69
451.39	6036.24
451.57	6066.67
451.76	5884.11
451.94	5900.49
452.13	6024.54
452.31	6022.20
452.49	5933.26
452.68	6230.51
452.86	6054.97
453.05	6052.63
453.23	6197.74
453.42	6127.52
453.60	6251.57
453.78	6228.17
453.97	6181.35
454.15	6321.79
454.34	6352.21
454.52	6230.51
454.70	6207.10
454.89	6333.49
455.07	6300.72
455.26	6305.40
455.44	6469.24
455.62	6431.79
455.81	6473.92
455.99	6497.33
456.17	6602.65
456.36	6607.33
456.54	6604.99
456.73	6691.59
456.91	6869.47
457.09	6684.57
457.28	6939.69
457.46	6757.13
457.64	6906.92
457.83	6759.47
458.01	6853.09
458.19	6951.39
458.38	6892.88
458.56	6707.98
458.74	7019.27
458.93	6876.49
459.11	7101.19
459.29	6731.38
459.48	6984.16
459.66	7089.48
459.84	7201.83
460.03	7316.51
460.21	7260.34
460.39	7143.32
460.57	7260.34
460.76	7424.18
460.94	7211.19
461.12	7246.30
461.31	7389.07
461.49	7054.37
461.67	7225.23
461.85	7506.10
462.04	7492.05
462.22	7943.78
462.40	7520.14
462.59	7454.61
462.77	7410.14
462.95	7590.36
463.13	7440.56
463.32	7569.29
463.50	7627.81
463.68	7599.72
463.86	7742.49
464.05	7538.87
464.23	7714.41
464.41	7700.36
464.59	7552.91
464.78	7885.26
464.96	7805.69
465.14	7850.16
465.32	7850.16
465.50	7798.66
465.69	7974.21
465.87	7864.20
466.05	7906.33
466.23	7812.71
466.41	7819.73
466.60	8107.62
466.78	7932.08
466.96	7845.48
467.14	7892.29
467.32	7859.52
467.51	8081.87
467.69	7995.27
467.87	8100.59
468.05	8248.05
468.23	8060.80
468.41	7988.25
468.60	8163.79
468.78	8341.67
468.96	8131.02
469.14	8315.92
469.32	8568.70
469.50	8067.83
469.69	8301.88
469.87	8500.83
470.05	8393.16
470.23	8557.00
470.41	8526.57
470.59	8540.61
470.77	8468.06
470.95	8472.74
471.14	8821.48
471.32	8416.57
471.50	8894.04
471.68	8709.13
471.86	8599.13
472.04	8711.47
472.22	9111.71
472.40	8812.12
472.58	8940.85
472.77	8922.12
472.95	8999.36
473.13	9062.55
473.31	9097.66
473.49	9441.72
473.67	9177.24
473.85	9144.47
474.03	9413.63
474.21	9397.25
474.39	9570.45
474.57	9493.21
474.75	9521.30
474.93	9645.35
475.12	9549.39
475.30	9762.37
475.48	9750.67
475.66	9673.43
475.84	9680.46
476.02	9783.44
476.20	10064.30
476.38	9966.00
476.56	10326.44
476.74	10244.52
476.92	10003.45
477.10	10251.55
477.28	10509.01
477.46	10186.01
477.64	10490.28
477.82	10448.15
478.00	10813.28
478.18	10642.42
478.36	10839.02
478.54	10689.23
478.72	10759.44
478.90	11091.80
479.08	11232.23
479.26	11431.18
479.44	11260.32
479.62	11477.99
479.80	11454.58
479.98	11487.35
480.16	11800.98
480.34	11667.57
480.52	11997.59
480.70	12086.53
480.88	11620.76
481.06	12095.89
481.24	11861.84
481.41	12383.77
481.59	12280.79
481.77	12423.56
481.95	12514.84
482.13	12741.88
482.31	12346.33
482.49	12798.05
482.67	12805.07
482.85	13064.87
483.03	13121.04
483.21	13139.77
483.39	13221.69
483.57	12978.27
483.74	13322.33
483.92	13607.87
484.10	13462.76
484.28	13860.65
484.46	14029.17
484.64	14221.10
484.82	14111.09
485.00	14118.11
485.18	14368.55
485.35	14523.02
485.53	14427.06
485.71	14787.50
485.89	14988.79
486.07	14890.49
486.25	14991.13
486.43	15180.71
486.61	15257.95
486.78	15279.02
486.96	15302.42
487.14	15517.75
487.32	15580.95
487.50	15793.94
487.68	15798.62
487.85	16208.21
488.03	16084.16
488.21	16224.59
488.39	16697.38
488.57	16589.72
488.75	16975.91
488.92	16751.21
489.10	16854.20
489.28	17114.00
489.46	17322.30
489.64	17170.17
489.81	17275.49
489.99	17329.33
490.17	17352.73
490.35	17832.54
490.53	17816.16
490.70	17809.14
490.88	17965.95
491.06	18235.11
491.24	18267.88
491.41	18312.35
491.59	18735.99
491.77	18717.26
491.95	18909.19
492.13	18906.85
492.30	19098.77
492.48	19199.41
492.66	18630.66
492.84	19271.97
493.01	19646.46
493.19	19433.47
493.37	19878.17
493.54	19789.23
493.72	19913.28
493.90	19824.34
494.08	20044.35
494.25	20318.19
494.43	19997.54
494.61	20507.77
494.79	20301.81
494.96	20734.81
495.14	20519.48
495.32	20936.09
495.49	20943.11
495.67	21057.80
495.85	21561.02
496.02	21345.69
496.20	21277.81
496.38	21774.00
496.55	21792.73
496.73	22169.55
496.91	21867.63
497.09	22150.83
497.26	22309.99
497.44	21984.65
497.62	22207.00
497.79	22920.87
497.97	22277.22
498.14	22934.91
498.32	23108.11
498.50	22724.26
498.67	23351.52
498.85	23295.35
499.03	23234.50
499.20	23442.81
499.38	23227.48
499.56	23328.12
499.73	23400.68
499.91	23466.21
500.08	23892.19
500.26	24081.77
500.44	23730.69
500.61	23985.81
500.79	23927.30
500.97	23960.06
501.14	24372.00
501.32	24168.37
501.49	24568.60
501.67	24372.00
501.84	24521.79
502.02	24648.18
502.20	24694.99
502.37	24884.58
502.55	24706.70
502.72	25142.03
502.90	25097.56
503.07	24690.31
503.25	25465.03
503.43	25186.50
503.60	25338.64
503.78	25413.54
503.95	25671.00
504.13	25436.94
504.30	25989.31
504.48	25853.56
504.65	25722.49
504.83	26120.38
505.01	26445.71
505.18	26139.10
505.36	26291.24
505.53	26331.03
505.71	26682.11
505.88	26611.89
506.06	26583.80
506.23	26726.58
506.41	26508.91
506.58	26857.65
506.76	26529.97
506.93	26967.65
507.11	27201.71
507.28	26859.99
507.46	26852.97
507.63	27269.58
507.81	27197.02
507.98	27461.51
508.16	27550.45
508.33	27613.64
508.50	27555.13
508.68	27660.45
508.85	28381.34
509.03	27817.27
509.20	27850.03
509.38	28329.84
509.55	28229.20
509.73	28294.74
509.90	28261.97
510.08	28540.49
510.25	28383.68
510.42	28615.39
510.60	28823.70
510.77	28985.19
510.95	29027.32
511.12	29198.18
511.30	29142.01
511.47	28847.10
511.64	29364.36
511.82	29289.46
511.99	29181.80
512.17	29165.42
512.34	29277.76
512.51	29827.79
512.69	29633.52
512.86	29766.93
513.04	29991.62
513.21	29902.68
513.38	30078.22
513.56	29722.46
513.73	30054.82
513.90	29844.17
514.08	30150.78
514.25	30302.92
514.43	30256.11
514.60	30682.08
514.77	30651.66
514.95	30623.57
515.12	30665.70
515.29	30508.88
515.47	30803.79
515.64	31082.31
515.81	30754.64
515.99	31098.70
516.16	31351.48
516.33	31175.94
516.51	31714.26
516.68	31091.68
516.85	31323.39
517.03	31676.81
517.20	31372.54
517.37	31732.98
517.54	31737.66
517.72	31695.53
517.89	31894.48
518.06	31637.02
518.24	31988.10
518.41	31791.50
518.58	32142.58
518.75	31725.96
518.93	32016.19
519.10	32264.28
519.27	32697.28
519.45	32243.22
519.62	32472.59
519.79	32671.54
519.96	32343.86
520.14	32383.65
520.31	32474.93
520.48	32744.09
520.65	32891.55
520.83	33315.19
521.00	33090.49
521.17	32954.74
521.34	33137.30
521.52	33696.69
521.69	33455.62
521.86	33450.94
522.03	33539.88
522.20	33645.20
522.38	33825.42
522.55	33708.40
522.72	34031.39
522.89	33954.15
523.07	34377.79
523.24	33752.87
523.41	33949.47
523.58	33783.29
523.75	34380.13
523.92	33834.78
524.10	34249.06
524.27	34401.19
524.44	34637.59
524.61	34635.25
524.78	35091.65
524.96	34738.23
525.13	34630.57
525.30	35159.53
525.47	35140.80
525.64	34909.09
525.81	34890.37
525.98	34946.54
526.16	35168.89
526.33	34834.19
526.50	35328.05
526.67	35012.07
526.84	35281.24
527.01	35332.73
527.18	35246.13
527.36	35459.12
527.53	35927.22
527.70	35503.59
527.87	35789.13
528.04	35683.81
528.21	35358.47
528.38	35751.68
528.55	35857.01
528.72	35777.43
528.89	35805.52
529.07	36158.94
529.24	35768.07
529.41	36456.18
529.58	36364.90
529.75	36292.35
529.92	35936.59
530.09	36290.01
530.26	36039.57
530.43	36287.67
530.60	36217.45
530.77	36783.86
530.94	36369.58
531.11	36517.04
531.28	36753.43
531.46	36992.17
531.63	36673.85
531.80	36776.84
531.97	37167.71
532.14	37109.19
532.31	36978.12
532.48	37244.94
532.65	37163.03
532.82	37053.02
532.99	37273.03
533.16	37134.94
533.33	37134.94
533.50	37904.98
533.67	37591.34
533.84	37291.76
534.01	37619.43
534.18	37188.77
534.35	37942.42
534.52	38139.03
534.69	37972.85
534.86	38047.75
535.03	38150.73
535.20	37907.32
535.37	38277.12
535.54	38623.52
535.71	37961.15
535.88	38326.27
536.05	38455.00
536.22	38281.80
536.38	38185.84
536.55	38445.64
536.72	38281.80
536.89	38487.77
537.06	38466.70
537.23	38707.78
537.40	38330.95
537.57	38010.30
537.74	38419.89
537.91	38574.37
538.08	38728.84
538.25	38342.66
538.42	38768.63
538.59	39112.69
538.75	38541.60
538.92	38836.51
539.09	39178.23
539.26	38960.56
539.43	39236.74
539.60	39243.76
539.77	39276.53
539.94	39487.18
540.11	39405.26
540.28	39751.66
540.44	39416.96
540.61	39379.51
540.78	39330.36
540.95	39491.86
541.12	39447.39
541.29	39543.35
541.46	39421.64
541.62	39751.66
541.79	39489.52
541.96	39400.58
542.13	39524.63
542.30	39943.58
542.47	39969.33
542.63	39814.85
542.80	39859.32
542.97	40378.92
543.14	40453.82
543.31	40381.26
543.48	39927.20
543.64	40669.15
543.81	40531.06
543.98	40800.22
544.15	40397.65
544.32	40868.09
544.48	41027.25
544.65	40697.24
544.82	40926.61
544.99	40484.25
545.16	40818.94
545.32	40676.17
545.49	41687.28
545.66	41212.15
545.83	40898.52
546.00	40713.62
546.16	41205.13
546.33	41102.15
546.50	40809.58
546.67	41106.83
546.83	41111.51
547.00	41116.19
547.17	40865.75
547.34	41310.46
547.50	41848.78
547.67	42047.72
547.84	41588.98
548.00	41413.44
548.17	42174.11
548.34	42171.77
548.51	41523.44
548.67	42129.64
548.84	41808.99
549.01	41883.89
549.18	41886.23
549.34	41858.14
549.51	41930.70
549.68	41923.68
549.84	42026.66
550.01	42171.77
550.18	41408.76
550.34	42237.31
550.51	41965.81
550.68	41834.74
550.84	41942.40
551.01	42487.74
551.18	42295.82
551.34	42234.97
551.51	42719.46
551.68	42686.69
551.84	42501.79
552.01	42333.27
552.18	42368.38
552.34	42148.37
552.51	42433.91
552.68	42567.32
552.84	42480.72
553.01	42852.87
553.18	43014.37
553.34	42691.37
553.51	43002.66
553.67	42665.63
553.84	43040.11
554.01	42792.01
554.17	42817.76
554.34	43023.73
554.51	42880.95
554.67	43086.92
554.84	43089.26
555.00	43313.95
555.17	43100.97
555.33	43187.56
555.50	43337.36
555.67	42913.72
555.83	43533.96
556.00	43398.21
556.16	44128.46
556.33	43873.34
556.50	43082.24
556.66	43725.89
556.83	43367.79
556.99	43618.22
557.16	43955.26
557.32	43524.60
557.49	43660.35
557.65	43576.09
557.82	43573.75
557.98	43758.66
558.15	43821.85
558.32	44095.69
558.48	43456.73
558.65	43791.42
558.81	43667.37
558.98	44039.52
559.14	43384.17
559.31	43892.07
559.47	44004.41
559.64	43936.54
559.80	43957.60
559.97	44102.71
560.13	43814.83
560.30	43786.74
560.46	44332.09
560.63	43856.96
560.79	44467.84
560.96	44151.87
561.12	44437.41
561.29	43826.53
561.45	44341.45
561.61	44060.58
561.78	43913.13
561.94	44378.90
562.11	44144.84
562.27	44002.07
562.44	44027.82
562.60	44509.97
562.77	44217.40
562.93	43758.66
563.10	44507.63
563.26	44282.94
563.42	45097.44
563.59	44147.18
563.75	44346.13
563.92	44175.27
564.08	44411.67
564.24	44374.22
564.41	44748.70
564.57	44533.37
564.74	45099.78
564.90	44624.65
565.07	44409.32
565.23	44568.48
565.39	44444.43
565.56	44673.81
565.72	44481.88
565.88	44594.23
566.05	44292.30
566.21	44470.18
566.38	44577.84
566.54	45038.93
566.70	44996.80
566.87	44839.98
567.03	44563.80
567.19	44849.35
567.36	44870.41
567.52	44975.73
567.68	45008.50
567.85	44814.24
568.01	45268.30
568.17	44711.25
568.34	44994.46
568.50	44994.46
568.66	44582.52
568.83	44854.03
568.99	44900.84
569.15	45329.16
569.32	44938.29
569.48	44526.35
569.64	45593.64
569.81	45329.16
569.97	45340.86
570.13	45144.25
570.30	44942.97
570.46	45104.46
570.62	45429.80
570.78	45333.84
570.95	45223.83
571.11	45345.54
571.27	45069.36
571.43	45076.38
571.60	44788.49
571.76	44989.78
571.92	45406.39
572.09	45331.50
572.25	45603.00
572.41	45116.17
572.57	45305.75
572.74	45645.13
572.90	45029.57
573.06	45261.28
573.22	45649.81
573.38	45607.68
573.55	45542.14
573.71	45244.90
573.87	45364.26
574.03	45055.31
574.20	45507.04
574.36	45851.09
574.52	45755.13
574.68	45628.74
574.84	45359.58
575.01	45598.32
575.17	45661.51
575.33	45539.80
575.49	45457.88
575.65	45408.73
575.82	45193.40
575.98	45340.86
576.14	45483.63
576.30	45326.81
576.46	45474.27
576.62	45455.54
576.79	45497.67
576.95	45378.31
577.11	44989.78
577.27	45436.82
577.43	45490.65
577.59	45481.29
577.75	45294.05
577.92	45743.43
578.08	45460.23
578.24	45525.76
578.40	45780.88
578.56	45478.95
578.72	45382.99
578.88	45949.40
579.04	45577.25
579.21	45401.71
579.37	45413.41
579.53	45855.78
579.69	45610.02
579.85	45612.36
580.01	45750.45
580.17	45535.12
580.33	45787.90
580.49	45467.25
580.65	45689.60
580.82	46045.36
580.98	45280.00
581.14	45415.76
581.30	45659.17
581.46	45544.48
581.62	45631.08
581.78	45109.14
581.94	45188.72
582.10	45762.15
582.26	45998.55
582.42	45872.16
582.58	45790.24
582.74	45911.95
582.90	45610.02
583.06	45797.26
583.22	45975.14
583.38	46061.74
583.54	45928.33
583.70	45755.13
583.86	46169.41
584.02	45977.48
584.18	45998.55
584.34	46485.38
584.50	45764.49
584.66	46171.75
584.82	45729.39
584.98	46251.33
585.14	46206.86
585.30	45581.93
585.46	45970.46
585.62	45675.55
585.78	45841.73
585.94	45776.20
586.10	46047.70
586.26	45713.00
586.42	45394.69
586.58	45872.16
586.74	45827.69
586.90	45830.03
587.06	45949.40
587.22	45504.70
587.38	46045.36
587.54	46377.72
587.70	46019.61
587.86	46192.81
588.02	45928.33
588.18	46277.07
588.34	46038.34
588.49	46167.07
588.65	45785.56
588.81	45834.71
588.97	45684.92
589.13	45991.53
589.29	45776.20
589.45	46513.47
589.61	46321.54
589.77	46302.82
589.93	46057.06
590.08	46543.89
