SpectraSuite Data File
++++++++++++++++++++++++++++++++++++
Date: Fri Oct 25 10:47:13 EDT 2013
User: price-jones
Dark Spectrum Present: No
Reference Spectrum Present: No
Number of Sampled Component Spectra: 1
Spectrometers: USB2+H05261
Integration Time (usec): 100000 (USB2+H05261)
Spectra Averaged: 1 (USB2+H05261)
Boxcar Smoothing: 0 (USB2+H05261)
Correct for Electrical Dark: No (USB2+H05261)
Strobe/Lamp Enabled: No (USB2+H05261)
Correct for Detector Non-linearity: No (USB2+H05261)
Correct for Stray Light: No (USB2+H05261)
Number of Pixels in Processed Spectrum: 2048
>>>>>Begin Processed Spectral Data<<<<<
365.73	154.48
365.92	154.48
366.12	154.48
366.32	0.00
366.52	14.04
366.72	53.83
366.91	67.88
367.11	63.19
367.31	0.00
367.51	65.54
367.70	35.11
367.90	63.19
368.10	84.26
368.30	49.15
368.49	16.38
368.69	44.47
368.89	51.49
369.09	74.90
369.28	42.13
369.48	51.49
369.68	121.71
369.87	88.94
370.07	91.28
370.27	182.56
370.47	114.69
370.66	397.89
370.86	486.83
371.06	475.13
371.25	493.85
371.45	444.70
371.65	386.19
371.84	456.40
372.04	362.78
372.24	435.34
372.44	517.26
372.63	486.83
372.83	468.11
373.03	484.49
373.22	463.43
373.42	461.09
373.62	533.64
373.81	528.96
374.01	491.51
374.21	564.07
374.40	512.58
374.60	568.75
374.79	540.66
374.99	566.41
375.19	571.09
375.38	613.22
375.58	589.82
375.78	634.29
375.97	535.98
376.17	603.86
376.37	580.45
376.56	521.94
376.76	535.98
376.95	660.03
377.15	596.84
377.35	643.65
377.54	557.05
377.74	629.60
377.93	603.86
378.13	554.71
378.33	655.35
378.52	655.35
378.72	613.22
378.91	697.48
379.11	528.96
379.31	538.32
379.50	514.92
379.70	629.60
379.89	573.43
380.09	564.07
380.28	566.41
380.48	638.97
380.68	664.71
380.87	638.97
381.07	575.77
381.26	734.93
381.46	674.07
381.65	683.44
381.85	669.39
382.04	613.22
382.24	765.36
382.43	643.65
382.63	533.64
382.83	662.37
383.02	720.88
383.22	676.41
383.41	709.18
383.61	624.92
383.80	688.12
384.00	720.88
384.19	725.57
384.39	695.14
384.58	702.16
384.78	732.59
384.97	732.59
385.17	716.20
385.36	748.97
385.56	758.33
385.75	793.44
385.95	758.33
386.14	765.36
386.34	695.14
386.53	849.61
386.72	807.48
386.92	798.12
387.11	777.06
387.31	800.46
387.50	830.89
387.70	758.33
387.89	800.46
388.09	784.08
388.28	868.34
388.48	915.15
388.67	851.96
388.86	868.34
389.06	896.43
389.25	922.17
389.45	896.43
389.64	894.08
389.84	875.36
390.03	908.13
390.22	943.24
390.42	947.92
390.61	957.28
390.81	961.96
391.00	931.53
391.19	987.71
391.39	903.45
391.58	851.96
391.78	917.49
391.97	983.02
392.16	908.13
392.36	933.87
392.55	936.21
392.75	924.51
392.94	936.21
393.13	971.32
393.33	889.40
393.52	912.81
393.71	1083.67
393.91	992.39
394.10	917.49
394.29	964.30
394.49	1015.79
394.68	1081.33
394.88	1060.26
395.07	1097.71
395.26	1071.97
395.46	1050.90
395.65	1083.67
395.84	1064.94
396.04	1144.52
396.23	1053.24
396.42	1034.52
396.62	1095.37
396.81	1090.69
397.00	1153.88
397.19	1118.78
397.39	1146.86
397.58	1188.99
397.77	1142.18
397.97	1284.95
398.16	1226.44
398.35	1238.14
398.55	1214.74
398.74	1261.55
398.93	1303.68
399.12	1291.98
399.32	1217.08
399.51	1263.89
399.70	1392.62
399.90	1254.53
400.09	1259.21
400.28	1334.11
400.47	1313.04
400.67	1341.13
400.86	1380.92
401.05	1397.30
401.24	1336.45
401.44	1411.34
401.63	1359.85
401.82	1495.60
402.01	1418.36
402.21	1465.18
402.40	1476.88
402.59	1432.41
402.78	1399.64
402.97	1535.39
403.17	1488.58
403.36	1575.18
403.55	1523.69
403.74	1570.50
403.93	1570.50
404.13	1530.71
404.32	1612.63
404.51	1619.65
404.70	1591.56
404.89	1640.72
405.09	1689.87
405.28	1610.29
405.47	1715.61
405.66	1720.29
405.85	1650.08
406.05	1633.69
406.24	1743.70
406.43	1710.93
406.62	1858.39
406.81	1834.98
407.00	1813.92
407.20	1804.55
407.39	1727.32
407.58	1865.41
407.77	1839.66
407.96	1975.41
408.15	1900.52
408.34	1863.07
408.54	1930.94
408.73	1930.94
408.92	2001.16
409.11	1970.73
409.30	2113.50
409.49	1980.09
409.68	1996.48
409.87	1867.75
410.07	2003.50
410.26	2047.97
410.45	2078.40
410.64	2012.86
410.83	2172.02
411.02	2043.29
411.21	2186.06
411.40	2062.01
411.59	2310.11
411.78	2284.36
411.98	2235.21
412.17	2275.00
412.36	2246.91
412.55	2441.18
412.74	2347.56
412.93	2429.48
413.12	2242.23
413.31	2422.45
413.50	2495.01
413.69	2450.54
413.88	2471.61
414.07	2445.86
414.26	2511.39
414.45	2635.44
414.64	2597.99
414.83	2605.02
415.02	2670.55
415.22	2766.51
415.41	2658.85
415.60	2686.94
415.79	2640.12
415.98	2789.92
416.17	2796.94
416.36	2810.98
416.55	2633.10
416.74	2841.41
416.93	2738.43
417.12	2834.39
417.31	2878.86
417.50	2909.29
417.69	3045.04
417.88	3012.27
418.07	2970.14
418.26	2942.05
418.45	3012.27
418.64	3101.21
418.83	2958.44
419.02	3007.59
419.21	2960.78
419.39	3005.25
419.58	3192.49
419.77	3007.59
419.96	3215.90
420.15	3176.11
420.34	3222.92
420.53	3272.07
420.72	3351.65
420.91	3293.13
421.10	3300.16
421.29	3386.76
421.48	3288.45
421.67	3267.39
421.86	3255.69
422.05	3297.81
422.24	3344.63
422.43	3361.01
422.61	3405.48
422.80	3489.74
422.99	3398.46
423.18	3353.99
423.37	3485.06
423.56	3407.82
423.75	3370.37
423.94	3311.86
424.13	3293.13
424.32	3363.35
424.50	3431.23
424.69	3419.52
424.88	3592.72
425.07	3524.85
425.26	3403.14
425.45	3485.06
425.64	3323.56
425.83	3433.57
426.01	3328.24
426.20	3501.44
426.39	3559.95
426.58	3529.53
426.77	3562.30
426.96	3517.83
427.15	3541.23
427.33	3665.28
427.52	3564.64
427.71	3667.62
427.90	3627.83
428.09	3646.55
428.28	3698.05
428.46	3695.71
428.65	3637.19
428.84	3789.33
429.03	3669.96
429.22	3606.77
429.40	3634.85
429.59	3707.41
429.78	3688.68
429.97	3655.92
430.16	3674.64
430.34	3679.32
430.53	3721.45
430.72	3756.56
430.91	3705.07
431.10	3861.88
431.28	4021.04
431.47	3941.46
431.66	4044.45
431.85	3899.33
432.03	4152.11
432.22	4131.05
432.41	4084.23
432.60	4074.87
432.79	4119.34
432.97	4102.96
433.16	4159.13
433.35	4177.86
433.54	4222.33
433.72	4337.01
433.91	4147.43
434.10	4236.37
434.28	4241.05
434.47	4245.73
434.66	4229.35
434.85	4283.18
435.03	4271.48
435.22	4278.50
435.41	4393.19
435.59	4463.40
435.78	4603.83
435.97	4458.72
436.16	4418.93
436.34	4388.50
436.53	4610.86
436.72	4624.90
436.90	4557.02
437.09	4348.72
437.28	4456.38
437.46	4491.49
437.65	4681.07
437.84	4606.17
438.02	4617.88
438.21	4624.90
438.40	4631.92
438.58	4662.35
438.77	4645.96
438.96	4676.39
439.14	4788.74
439.33	4978.32
439.52	4973.64
439.70	4849.59
439.89	5121.09
440.08	5069.60
440.26	5153.86
440.45	4952.57
440.63	5226.42
440.82	5217.05
441.01	5027.47
441.19	5158.54
441.38	5336.42
441.57	5273.23
441.75	5345.78
441.94	5423.02
442.12	5465.15
442.31	5481.53
442.50	5514.30
442.68	5631.33
442.87	5462.81
443.05	5619.63
443.24	5605.58
443.43	5685.16
443.61	5500.26
443.80	5724.95
443.98	5640.69
444.17	5490.90
444.35	5675.80
444.54	5675.80
444.73	5696.86
444.91	5640.69
445.10	5643.03
445.28	5621.97
445.47	5717.93
445.65	5689.84
445.84	5762.40
446.02	5919.21
446.21	5675.80
446.39	5603.24
446.58	5738.99
446.77	5898.15
446.95	5825.59
447.14	5612.60
447.32	6076.03
447.51	5804.53
447.69	5767.08
447.88	5872.40
448.06	5816.23
448.25	5776.44
448.43	5877.09
448.62	5841.98
448.80	5741.33
448.99	5989.43
449.17	5968.37
449.36	5961.34
449.54	6005.81
449.73	6143.91
449.91	6197.74
450.10	6094.76
450.28	6143.91
450.46	6179.01
450.65	6188.38
450.83	6214.12
451.02	6190.72
451.20	6218.80
451.39	6279.66
451.57	6317.11
451.76	6204.76
451.94	6190.72
452.13	6342.85
452.31	6230.51
452.49	6354.55
452.68	6375.62
452.86	6282.00
453.05	6354.55
453.23	6455.20
453.42	6342.85
453.60	6464.56
453.78	6471.58
453.97	6544.14
454.15	6370.94
454.34	6619.04
454.52	6684.57
454.70	6483.28
454.89	6443.49
455.07	6551.16
455.26	6668.19
455.44	6754.79
455.62	6565.20
455.81	6764.15
455.99	6794.58
456.17	6960.75
456.36	6860.11
456.54	7143.32
456.73	6885.86
456.91	6949.05
457.09	7136.29
457.28	7250.98
457.46	6927.99
457.64	7187.79
457.83	7180.76
458.01	7159.70
458.19	7288.43
458.38	7311.83
458.56	7274.38
458.74	7185.44
458.93	7250.98
459.11	7162.04
459.29	7295.45
459.48	7255.66
459.66	7339.92
459.84	7405.46
460.03	7428.86
460.21	7426.52
460.39	7492.05
460.57	7456.95
460.76	7391.41
460.94	7417.16
461.12	7487.37
461.31	7496.74
461.49	7433.54
461.67	7475.67
461.85	7595.04
462.04	7620.78
462.22	7955.48
462.40	7840.79
462.59	7833.77
462.77	7922.71
462.95	7864.20
463.13	7751.85
463.32	7798.66
463.50	8006.97
463.68	7918.03
463.86	8004.63
464.05	7861.86
464.23	7871.22
464.41	8074.85
464.59	7964.84
464.78	8049.10
464.96	7911.01
465.14	7901.65
465.32	8222.30
465.50	8121.66
465.69	8170.81
465.87	8161.45
466.05	7995.27
466.23	8077.19
466.41	8116.98
466.60	8229.32
466.78	8154.43
466.96	8142.72
467.14	8032.72
467.32	8283.16
467.51	8557.00
467.69	8159.11
467.87	8533.59
468.05	8358.05
468.23	8346.35
468.41	8376.78
468.60	8444.65
468.78	8341.67
468.96	8306.56
469.14	8645.94
469.32	8697.43
469.50	8336.99
469.69	8652.96
469.87	8676.37
470.05	8833.18
470.23	8744.24
470.41	8940.85
470.59	8985.32
470.77	8664.66
470.95	8830.84
471.14	8973.61
471.32	8816.80
471.50	9186.60
471.68	9048.51
471.86	9006.38
472.04	9247.46
472.22	9242.78
472.40	9207.67
472.58	9116.39
472.77	8968.93
472.95	9252.14
473.13	9427.68
473.31	9408.95
473.49	9448.74
473.67	9116.39
473.85	9343.42
474.03	9738.97
474.21	9675.77
474.39	9521.30
474.57	9764.72
474.75	9968.34
474.93	9956.64
475.12	9877.06
475.30	9860.68
475.48	9888.76
475.66	9949.62
475.84	9933.23
476.02	10094.73
476.20	10267.93
476.38	10424.75
476.56	10434.11
476.74	10441.13
476.92	10471.56
477.10	10565.18
477.28	10668.16
477.46	10553.48
477.64	10576.88
477.82	10932.64
478.00	10942.00
478.18	10913.92
478.36	11140.95
478.54	11382.03
478.72	11323.51
478.90	11396.07
479.08	11513.10
479.26	11716.72
479.44	11716.72
479.62	11707.36
479.80	11730.76
479.98	11819.71
480.16	12194.19
480.34	11941.41
480.52	12105.25
480.70	12049.08
480.88	12004.61
481.06	12226.96
481.24	12332.28
481.41	12624.85
481.59	12746.56
481.77	12697.41
481.95	12826.14
482.13	12947.84
482.31	13092.96
482.49	13125.72
482.67	13085.94
482.85	13427.65
483.03	13563.40
483.21	13781.07
483.39	13432.33
483.57	13661.71
483.74	13881.72
483.92	14017.47
484.10	13774.05
484.28	14335.78
484.46	14111.09
484.64	14429.40
484.82	14455.15
485.00	14389.61
485.18	14724.31
485.35	14768.78
485.53	14726.65
485.71	14595.58
485.89	14981.77
486.07	14949.00
486.25	15028.58
486.43	15154.97
486.61	15239.23
486.78	15620.74
486.96	15644.14
487.14	15943.73
487.32	16159.06
487.50	16173.10
487.68	16472.69
487.85	16407.16
488.03	16678.66
488.21	16865.90
488.39	16468.01
488.57	16905.69
488.75	16854.20
488.92	17118.68
489.10	17109.32
489.28	17441.67
489.46	17820.84
489.64	17380.82
489.81	17956.59
489.99	17919.14
490.17	18050.21
490.35	18157.88
490.53	18207.03
490.70	17914.46
490.88	18331.08
491.06	18883.44
491.24	18555.77
491.41	18637.69
491.59	18738.33
491.77	18792.16
491.95	18988.77
492.13	19264.95
492.30	19353.89
492.48	19536.45
492.66	19419.42
492.84	19527.09
493.01	19583.26
493.19	19810.29
493.37	20262.02
493.54	20203.50
493.72	20278.40
493.90	20563.95
494.08	20648.21
494.25	20877.58
494.43	20809.70
494.61	20900.98
494.79	21123.33
494.96	20671.61
495.14	21088.23
495.32	21745.92
495.49	21486.12
495.67	21228.66
495.85	21671.02
496.02	21418.24
496.20	21942.52
496.38	21884.01
496.55	21743.58
496.73	22719.58
496.91	22302.96
497.09	22504.25
497.26	22539.36
497.44	22602.55
497.62	22611.92
497.79	23363.23
497.97	22740.64
498.14	23049.60
498.32	23065.98
498.50	22913.84
498.67	23604.30
498.85	23597.28
499.03	23564.51
499.20	23407.70
499.38	23576.22
499.56	23843.04
499.73	23761.12
499.91	24016.24
500.08	24245.61
500.26	23845.38
500.44	24037.30
500.61	24346.25
500.79	24130.92
500.97	24538.18
501.14	24542.86
501.32	24563.92
501.49	24779.25
501.67	25006.28
501.84	24980.54
502.02	24936.07
502.20	25530.56
502.37	25240.34
502.55	25270.76
502.72	25273.10
502.90	25284.81
503.07	25282.47
503.25	25633.55
503.43	25399.49
503.60	25699.08
503.78	25717.81
503.95	25682.70
504.13	26185.91
504.30	26122.72
504.48	25680.36
504.65	26394.22
504.83	26391.88
505.01	26256.13
505.18	26473.80
505.36	26717.22
505.53	26544.02
505.71	26845.94
505.88	27161.92
506.06	26820.20
506.23	27171.28
506.41	27206.39
506.58	27459.16
506.76	27276.60
506.93	27292.99
507.11	27122.13
507.28	26998.08
507.46	27417.04
507.63	27651.09
507.81	27522.36
507.98	27456.82
508.16	27786.84
508.33	27709.60
508.50	28023.23
508.68	27782.16
508.85	28395.38
509.03	28151.96
509.20	28376.66
509.38	28409.42
509.55	28594.32
509.73	28510.07
509.90	28582.62
510.08	28477.30
510.25	28732.42
510.42	29020.30
510.60	29167.76
510.77	29067.11
510.95	28877.53
511.12	28767.52
511.30	29249.67
511.47	29530.54
511.64	29315.21
511.82	29460.32
511.99	29411.17
512.17	29759.91
512.34	29685.01
512.51	29883.96
512.69	30033.75
512.86	29881.62
513.04	30302.92
513.21	30036.09
513.38	29708.42
513.56	30150.78
513.73	29916.73
513.90	30164.82
514.08	30459.73
514.25	30579.10
514.43	30726.55
514.60	30689.10
514.77	30742.94
514.95	30618.89
515.12	30551.01
515.29	30885.71
515.47	30918.48
515.64	31030.82
515.81	31070.61
515.99	31030.82
516.16	31164.23
516.33	31398.29
516.51	31154.87
516.68	31044.87
516.85	31094.02
517.03	31372.54
517.20	31377.22
517.37	31304.67
517.54	31941.29
517.72	31639.36
517.89	31622.98
518.06	32011.51
518.24	31747.03
518.41	31775.11
518.58	32180.03
518.75	31945.97
518.93	32205.77
519.10	32027.89
519.27	32311.10
519.45	32397.70
519.62	32175.34
519.79	32577.92
519.96	32666.86
520.14	33158.37
520.31	32961.76
520.48	32907.93
520.65	32472.59
520.83	33486.04
521.00	33034.32
521.17	33097.52
521.34	33628.82
521.52	33340.93
521.69	33240.29
521.86	33539.88
522.03	33401.79
522.20	33720.10
522.38	33589.03
522.55	33729.46
522.72	33773.93
522.89	33895.64
523.07	34195.23
523.24	33930.75
523.41	33888.62
523.58	33886.28
523.75	34270.12
523.92	33975.22
524.10	33893.30
524.27	34665.67
524.44	34375.45
524.61	34316.93
524.78	34567.37
524.96	35147.82
525.13	34986.33
525.30	35117.40
525.47	35103.35
525.64	34574.39
525.81	34902.07
525.98	34909.09
526.16	34888.03
526.33	34899.73
526.50	35356.13
526.67	35131.44
526.84	34953.56
527.01	34885.68
527.18	35246.13
527.36	35370.18
527.53	35204.00
527.70	35267.19
527.87	35838.28
528.04	35498.91
528.21	35889.77
528.38	35683.81
528.55	35739.98
528.72	35990.42
528.89	35964.67
529.07	35608.91
529.24	36215.11
529.41	35784.45
529.58	35875.73
529.75	35859.35
529.92	36285.33
530.09	36488.95
530.26	36402.35
530.43	36266.60
530.60	36123.83
530.77	36418.74
530.94	36493.63
531.11	36311.07
531.28	36549.81
531.46	36877.48
531.63	36842.37
531.80	36947.70
531.97	36580.23
532.14	36802.58
532.31	36563.85
532.48	37046.00
532.65	36786.20
532.82	36500.65
532.99	37230.90
533.16	36687.90
533.33	36868.12
533.50	37525.81
533.67	37235.58
533.84	36879.82
534.01	37439.21
534.18	37184.09
534.35	38012.64
534.52	37446.23
534.69	37839.44
534.86	37806.67
535.03	37801.99
535.20	37722.41
535.37	37916.68
535.54	38265.42
535.71	37787.95
535.88	37928.38
536.05	37818.38
536.22	38192.86
536.38	37624.11
536.55	38174.14
536.72	38171.80
536.89	37991.58
537.06	38024.34
537.23	38260.74
537.40	38316.91
537.57	38106.26
537.74	38249.03
537.91	38539.26
538.08	38595.43
538.25	38340.32
538.42	38555.64
538.59	38473.73
538.75	38527.56
538.92	38752.25
539.09	38815.44
539.26	38581.39
539.43	38930.13
539.60	38581.39
539.77	38419.89
539.94	38923.11
540.11	38845.87
540.28	38871.62
540.44	39136.10
540.61	38976.94
540.78	38775.66
540.95	38873.96
541.12	38518.20
541.29	38836.51
541.46	38675.01
541.62	39583.14
541.79	39508.24
541.96	39337.38
542.13	39702.51
542.30	39636.97
542.47	39419.30
542.63	39526.97
542.80	39505.90
542.97	39704.85
543.14	40165.93
543.31	40217.43
543.48	39913.16
543.64	40451.48
543.81	40271.26
543.98	40484.25
544.15	39784.43
544.32	40533.40
544.48	40341.47
544.65	40217.43
544.82	40062.95
544.99	39826.56
545.16	40109.76
545.32	40130.83
545.49	40528.72
545.66	40748.73
545.83	40362.54
546.00	40697.24
546.16	40526.38
546.33	40453.82
546.50	40165.93
546.67	40395.31
546.83	40170.61
547.00	40875.12
547.17	40622.34
547.34	40727.66
547.50	41041.29
547.67	40966.40
547.84	40919.59
548.00	40638.72
548.17	41244.92
548.34	41013.21
548.51	41104.49
548.67	41497.70
548.84	41579.62
549.01	40872.78
549.18	41237.90
549.34	41818.35
549.51	41151.30
549.68	41420.46
549.84	41378.33
550.01	41530.47
550.18	41553.87
550.34	41184.07
550.51	41045.97
550.68	41446.21
550.84	41343.22
551.01	41776.22
551.18	41680.26
551.34	41886.23
551.51	41752.82
551.68	41628.77
551.84	41996.23
552.01	41291.73
552.18	41874.52
552.34	41701.32
552.51	41888.57
552.68	41911.97
552.84	42171.77
553.01	42047.72
553.18	42234.97
553.34	42092.19
553.51	41933.04
553.67	42059.43
553.84	42380.08
554.01	42335.61
554.17	42595.41
554.34	42293.48
554.51	42356.67
554.67	42417.53
554.84	42344.97
555.00	42522.85
555.17	42241.99
555.33	42506.47
555.50	42309.86
555.67	42408.17
555.83	42068.79
556.00	42761.59
556.16	42801.38
556.33	42333.27
556.50	42667.97
556.66	42485.40
556.83	42684.35
556.99	42710.10
557.16	42548.60
557.32	42855.21
557.49	42717.12
557.65	42363.70
557.82	42476.04
557.98	42312.20
558.15	42431.57
558.32	43054.15
558.48	43009.68
558.65	42815.42
558.81	42721.80
558.98	42885.64
559.14	42820.10
559.31	42974.58
559.47	43000.32
559.64	42887.98
559.80	43262.46
559.97	42866.91
560.13	42976.92
560.30	42646.90
560.46	42789.67
560.63	43047.13
560.79	43157.14
560.96	43379.49
561.12	43349.06
561.29	43145.44
561.45	43370.13
561.61	43222.67
561.78	42789.67
561.94	42960.53
562.11	43051.81
562.27	42792.01
562.44	43473.11
562.60	43302.25
562.77	43278.85
562.93	43416.94
563.10	43269.48
563.26	42880.95
563.42	43810.15
563.59	43606.52
563.75	43161.82
563.92	43889.73
564.08	43793.76
564.24	43461.41
564.41	43161.82
564.57	43510.56
564.74	43313.95
564.90	43395.87
565.07	43386.51
565.23	43606.52
565.39	43639.29
565.56	43728.23
565.72	43360.76
565.88	43140.75
566.05	43454.39
566.21	43543.33
566.38	43227.35
566.54	43402.89
566.70	43810.15
566.87	43915.47
567.03	43489.49
567.19	44121.44
567.36	43817.17
567.52	43943.56
567.68	43192.25
567.85	43461.41
568.01	44222.08
568.17	43456.73
568.34	44374.22
568.50	43985.69
568.66	43775.04
568.83	43681.42
568.99	43438.00
569.15	43732.91
569.32	43711.84
569.48	43952.92
569.64	43896.75
569.81	43920.15
569.97	43564.39
570.13	43976.33
570.30	43852.28
570.46	43564.39
570.62	43173.52
570.78	43833.55
570.95	43786.74
571.11	44491.24
571.27	43882.70
571.43	43817.17
571.60	43943.56
571.76	43831.21
571.92	43697.80
572.09	44016.11
572.25	43756.32
572.41	44048.88
572.57	44069.95
572.74	44512.31
572.90	43929.51
573.06	43938.88
573.22	44116.76
573.38	43938.88
573.55	43679.08
573.71	44273.57
573.87	44280.60
574.03	43782.06
574.20	44020.80
574.36	43819.51
574.52	44507.63
574.68	44144.84
574.84	43828.87
575.01	43913.13
575.17	44250.17
575.33	44018.46
575.49	44095.69
575.65	44369.54
575.82	44362.51
575.98	44130.80
576.14	44582.52
576.30	43882.70
576.46	43948.24
576.62	43810.15
576.79	44233.78
576.95	43686.10
577.11	44121.44
577.27	44425.71
577.43	44247.83
577.59	44521.67
577.75	43793.76
577.92	44465.50
578.08	43660.35
578.24	43828.87
578.40	44205.70
578.56	44051.22
578.72	44383.58
578.88	44643.38
579.04	44306.34
579.21	43988.03
579.37	43835.89
579.53	44346.13
579.69	44039.52
579.85	44355.49
580.01	44121.44
580.17	44142.50
580.33	44245.49
580.49	44596.57
580.65	44385.92
580.82	44547.42
580.98	44058.24
581.14	44086.33
581.30	44432.73
581.46	44257.19
581.62	44156.55
581.78	44041.86
581.94	44318.04
582.10	44463.16
582.26	44275.91
582.42	44343.79
582.58	44313.36
582.74	44004.41
582.90	44135.48
583.06	44577.84
583.22	44545.08
583.38	44266.55
583.54	44140.16
583.70	44397.62
583.86	44182.29
584.02	44002.07
584.18	44074.63
584.34	44004.41
584.50	44123.78
584.66	44327.41
584.82	44322.72
584.98	44641.04
585.14	44463.16
585.30	44313.36
585.46	43920.15
585.62	44271.23
585.78	44278.25
585.94	44072.29
586.10	44168.25
586.26	43957.60
586.42	44294.64
586.58	44456.14
586.74	44687.85
586.90	44083.99
587.06	44177.61
587.22	44215.06
587.38	44067.61
587.54	44292.30
587.70	44392.94
587.86	44790.83
588.02	44704.23
588.18	44488.90
588.34	44210.38
588.49	44334.43
588.65	43938.88
588.81	44378.90
588.97	44252.51
589.13	44449.11
589.29	44460.82
589.45	44177.61
589.61	44645.72
589.77	44718.28
589.93	44451.45
590.08	44896.16
590.24	44563.80
590.40	44692.53
