SpectraSuite Data File
++++++++++++++++++++++++++++++++++++
Date: Fri Oct 25 11:25:56 EDT 2013
User: price-jones
Dark Spectrum Present: No
Reference Spectrum Present: No
Number of Sampled Component Spectra: 1
Spectrometers: USB2+H05261
Integration Time (usec): 100000 (USB2+H05261)
Spectra Averaged: 1 (USB2+H05261)
Boxcar Smoothing: 0 (USB2+H05261)
Correct for Electrical Dark: No (USB2+H05261)
Strobe/Lamp Enabled: No (USB2+H05261)
Correct for Detector Non-linearity: No (USB2+H05261)
Correct for Stray Light: No (USB2+H05261)
Number of Pixels in Processed Spectrum: 2048
>>>>>Begin Processed Spectral Data<<<<<
365.73	236.39
365.92	236.39
366.12	236.39
366.32	168.52
366.52	126.39
366.72	138.09
366.91	159.16
367.11	163.84
367.31	124.05
367.51	159.16
367.70	88.94
367.90	128.73
368.10	100.64
368.30	117.03
368.49	119.37
368.69	159.16
368.89	182.56
369.09	147.45
369.28	201.29
369.48	152.13
369.68	152.13
369.87	217.67
370.07	212.99
370.27	257.46
370.47	308.95
370.66	585.13
370.86	528.96
371.06	669.39
371.25	706.84
371.45	657.69
371.65	690.46
371.84	676.41
372.04	660.03
372.24	812.17
372.44	758.33
372.63	727.91
372.83	744.29
373.03	732.59
373.22	781.74
373.42	723.23
373.62	777.06
373.81	849.61
374.01	795.78
374.21	851.96
374.40	849.61
374.60	887.06
374.79	830.89
374.99	847.27
375.19	819.19
375.38	788.76
375.58	821.53
375.78	889.40
375.97	833.23
376.17	940.90
376.37	889.40
376.56	870.68
376.76	894.08
376.95	849.61
377.15	809.83
377.35	908.13
377.54	849.61
377.74	866.00
377.93	868.34
378.13	903.45
378.33	903.45
378.52	887.06
378.72	954.94
378.91	926.85
379.11	954.94
379.31	912.81
379.50	929.19
379.70	980.68
379.89	959.62
380.09	983.02
380.28	966.64
380.48	933.87
380.68	922.17
380.87	985.37
381.07	992.39
381.26	1067.28
381.46	926.85
381.65	1041.54
381.85	1074.31
382.04	1090.69
382.24	966.64
382.43	1060.26
382.63	1043.88
382.83	1034.52
383.02	1167.93
383.22	1100.05
383.41	1153.88
383.61	1111.75
383.80	1167.93
384.00	1057.92
384.19	1167.93
384.39	1029.84
384.58	1130.48
384.78	1036.86
384.97	1135.16
385.17	1179.63
385.36	1128.14
385.56	1233.46
385.75	1128.14
385.95	1240.48
386.14	1163.25
386.34	1217.08
386.53	1301.34
386.72	1165.59
386.92	1151.54
387.11	1224.10
387.31	1188.99
387.50	1224.10
387.70	1282.61
387.89	1327.08
388.09	1240.48
388.28	1317.72
388.48	1366.87
388.67	1301.34
388.86	1296.66
389.06	1327.08
389.25	1341.13
389.45	1369.21
389.64	1277.93
389.84	1383.26
390.03	1373.89
390.22	1444.11
390.42	1355.17
390.61	1348.15
390.81	1378.58
391.00	1401.98
391.19	1406.66
391.39	1418.36
391.58	1467.52
391.78	1521.35
391.97	1418.36
392.16	1493.26
392.36	1448.79
392.55	1563.48
392.75	1476.88
392.94	1565.82
393.13	1502.62
393.33	1493.26
393.52	1551.78
393.71	1593.90
393.91	1575.18
394.10	1547.09
394.29	1593.90
394.49	1600.93
394.68	1631.35
394.88	1682.85
395.07	1666.46
395.26	1650.08
395.46	1633.69
395.65	1746.04
395.84	1636.03
396.04	1809.23
396.23	1802.21
396.42	1680.50
396.62	1699.23
396.81	1788.17
397.00	1724.97
397.19	1771.79
397.39	1785.83
397.58	1959.03
397.77	1898.17
397.97	1907.54
398.16	1827.96
398.35	1863.07
398.55	1879.45
398.74	1886.47
398.93	1977.75
399.12	1919.24
399.32	1973.07
399.51	1891.15
399.70	1947.33
399.90	1937.96
400.09	1963.71
400.28	2064.35
400.47	2029.24
400.67	2129.89
400.86	2045.63
401.05	1998.82
401.24	2064.35
401.44	2052.65
401.63	2200.10
401.82	2179.04
402.01	2129.89
402.21	2157.97
402.40	2115.84
402.59	2120.53
402.78	2221.17
402.97	2249.25
403.17	2239.89
403.36	2300.75
403.55	2314.79
403.74	2424.80
403.93	2410.75
404.13	2448.20
404.32	2448.20
404.51	2410.75
404.70	2429.48
404.89	2417.77
405.09	2480.97
405.28	2504.37
405.47	2509.05
405.66	2464.58
405.85	2518.42
406.05	2523.10
406.24	2502.03
406.43	2576.93
406.62	2644.81
406.81	2656.51
407.00	2551.18
407.20	2443.52
407.39	2551.18
407.58	2635.44
407.77	2642.46
407.96	2780.56
408.15	2698.64
408.34	2773.53
408.54	2864.82
408.73	2848.43
408.92	2761.83
409.11	2850.77
409.30	2897.58
409.49	2904.60
409.68	2918.65
409.87	2832.05
410.07	3061.42
410.26	3007.59
410.45	3007.59
410.64	3108.23
410.83	3204.19
411.02	3105.89
411.21	3262.71
411.40	3206.53
411.59	3225.26
411.78	3241.64
411.98	3112.91
412.17	3185.47
412.36	3309.52
412.55	3283.77
412.74	3321.22
412.93	3370.37
413.12	3353.99
413.31	3375.05
413.50	3442.93
413.69	3515.48
413.88	3552.93
414.07	3796.35
414.26	3646.55
414.45	3838.48
414.64	3618.47
414.83	3676.98
415.02	3599.74
415.22	3904.01
415.41	3929.76
415.60	3873.59
415.79	3831.46
415.98	4058.49
416.17	3936.78
416.36	3913.38
416.55	3941.46
416.74	4088.92
416.93	4039.76
417.12	4142.75
417.31	4091.26
417.50	4077.21
417.69	4381.48
417.88	4390.84
418.07	4238.71
418.26	4280.84
418.45	4379.14
418.64	4505.53
418.83	4407.23
419.02	4341.69
419.21	4454.04
419.39	4493.83
419.58	4489.15
419.77	4514.89
419.96	4554.68
420.15	4564.04
420.34	4554.68
420.53	4594.47
420.72	4669.37
420.91	4547.66
421.10	4830.87
421.29	4842.57
421.48	4704.48
421.67	4767.67
421.86	4753.63
422.05	4767.67
422.24	4739.58
422.43	4589.79
422.61	4877.68
422.80	4779.37
422.99	4975.98
423.18	4975.98
423.37	4992.36
423.56	4833.21
423.75	4816.82
423.94	4786.40
424.13	4599.15
424.32	4720.86
424.50	5050.88
424.69	4959.60
424.88	5006.41
425.07	4964.28
425.26	4856.61
425.45	4983.00
425.64	5074.28
425.83	4849.59
426.01	4950.23
426.20	5020.45
426.39	5177.26
426.58	5069.60
426.77	5034.49
426.96	5125.77
427.15	5125.77
427.33	5357.49
427.52	5231.10
427.71	5242.80
427.90	5055.56
428.09	5284.93
428.28	5345.78
428.46	5380.89
428.65	5427.70
428.84	5533.03
429.03	5469.83
429.22	5277.91
429.40	5610.26
429.59	5563.45
429.78	5233.44
429.97	5111.73
430.16	5394.93
430.34	5509.62
430.53	5509.62
430.72	5643.03
430.91	5493.24
431.10	5558.77
431.28	5657.07
431.47	5884.11
431.66	5774.10
431.85	5685.16
432.03	5923.90
432.22	5900.49
432.41	6061.99
432.60	6008.16
432.79	5874.74
432.97	5956.66
433.16	6134.54
433.35	5935.60
433.54	6223.48
433.72	6193.06
433.91	6057.31
434.10	6204.76
434.28	6092.41
434.47	6001.13
434.66	6122.84
434.85	6431.79
435.03	6209.44
435.22	6277.32
435.41	6455.20
435.59	6399.02
435.78	6487.96
435.97	6394.34
436.16	6300.72
436.34	6387.32
436.53	6672.87
436.72	6637.76
436.90	6424.77
437.09	6555.84
437.28	6366.26
437.46	6628.40
437.65	6672.87
437.84	6803.94
438.02	6703.29
438.21	6808.62
438.40	6661.16
438.58	7061.40
438.77	7070.76
438.96	6839.05
439.14	7211.19
439.33	7157.36
439.52	7005.22
439.70	7162.04
439.89	7424.18
440.08	7274.38
440.26	7527.16
440.45	7173.74
440.63	7466.31
440.82	7651.21
441.01	7372.69
441.19	7613.76
441.38	7700.36
441.57	7658.23
441.75	7618.44
441.94	7899.31
442.12	7873.56
442.31	7967.18
442.50	7906.33
442.68	7882.92
442.87	8060.80
443.05	8098.25
443.24	8145.06
443.43	8095.91
443.61	8170.81
443.80	8491.46
443.98	8135.70
444.17	7698.02
444.35	8285.50
444.54	8271.45
444.73	8269.11
444.91	8205.92
445.10	8297.20
445.28	8365.07
445.47	8346.35
445.65	8414.23
445.84	8346.35
446.02	8456.36
446.21	8395.50
446.39	8318.26
446.58	8617.85
446.77	8634.24
446.95	8114.64
447.14	8278.47
447.32	8535.93
447.51	8496.14
447.69	8425.93
447.88	8498.49
448.06	8496.14
448.25	8545.30
448.43	8575.72
448.62	8379.12
448.80	8425.93
448.99	8437.63
449.17	8716.16
449.36	8758.28
449.54	8769.99
449.73	8954.89
449.91	8903.40
450.10	9071.92
450.28	9043.83
450.46	9205.33
450.65	8947.87
450.83	9116.39
451.02	8929.14
451.20	9062.55
451.39	9139.79
451.57	9212.35
451.76	9018.08
451.94	9322.35
452.13	9254.48
452.31	9401.93
452.49	9172.56
452.68	9240.44
452.86	9242.78
453.05	9345.76
453.23	9467.47
453.42	9329.38
453.60	9334.06
453.78	9533.00
453.97	9455.76
454.15	9444.06
454.34	9511.94
454.52	9652.37
454.70	9701.52
454.89	9558.75
455.07	9710.88
455.26	9783.44
455.44	9839.61
455.62	9741.31
455.81	10012.81
455.99	9944.94
456.17	10092.39
456.36	9980.04
456.54	10237.50
456.73	10326.44
456.91	10574.54
457.09	10373.25
457.28	10602.63
457.46	10382.62
457.64	10534.75
457.83	10324.10
458.01	10438.79
458.19	10916.26
458.38	10724.33
458.56	10731.36
458.74	10609.65
458.93	10567.52
459.11	10757.10
459.29	10834.34
459.48	10630.71
459.66	10642.42
459.84	10766.46
460.03	11007.54
460.21	10782.85
460.39	10918.60
460.57	10970.09
460.76	11286.06
460.94	11110.52
461.12	11225.21
461.31	11075.42
461.49	11091.80
461.67	11164.36
461.85	11637.14
462.04	11243.93
462.22	11583.31
462.40	11651.19
462.59	11351.60
462.77	11459.26
462.95	11786.94
463.13	11606.72
463.32	11653.53
463.50	11712.04
463.68	11747.15
463.86	11885.24
464.05	11529.48
464.23	11698.00
464.41	12002.27
464.59	11707.36
464.78	12025.67
464.96	11934.39
465.14	11815.02
465.32	12304.20
465.50	12016.31
465.69	12039.72
465.87	11950.78
466.05	11948.43
466.23	12191.85
466.41	12030.35
466.60	12386.12
466.78	12107.59
466.96	12287.81
467.14	12051.42
467.32	12086.53
467.51	12437.61
467.69	12095.89
467.87	12475.06
468.05	12507.82
468.23	12580.38
468.41	12458.67
468.60	12690.38
468.78	12784.01
468.96	12500.80
469.14	12737.20
469.32	13020.40
469.50	12898.69
469.69	13146.79
469.87	13039.12
470.05	13114.02
470.23	12879.97
470.41	13006.36
470.59	13121.04
470.77	13362.12
470.95	13151.47
471.14	13221.69
471.32	13109.34
471.50	13708.52
471.68	13432.33
471.86	13731.92
472.04	13596.17
472.22	14155.56
472.40	13776.39
472.58	13647.66
472.77	13921.51
472.95	13956.61
473.13	14670.48
473.31	13928.53
473.49	14214.07
473.67	14115.77
473.85	14328.76
474.03	14626.01
474.21	14593.24
474.39	14583.88
474.57	14551.11
474.75	14698.56
474.93	15484.98
475.12	14911.55
475.30	15290.72
475.48	15037.94
475.66	15145.61
475.84	15241.57
476.02	15206.46
476.20	15264.97
476.38	15541.16
476.56	15798.62
476.74	15815.00
476.92	15796.28
477.10	15852.45
477.28	16126.29
477.46	16109.91
477.64	16147.36
477.82	16439.92
478.00	16599.08
478.18	16917.39
478.36	16989.95
478.54	17064.85
478.72	17099.95
478.90	17453.37
479.08	17577.42
479.26	17626.57
479.44	17715.51
479.62	17933.18
479.80	18052.55
479.98	18242.14
480.16	18214.05
480.34	18183.62
480.52	18450.44
480.70	18562.79
480.88	18232.77
481.06	18738.33
481.24	18597.90
481.41	19138.56
481.59	19339.85
481.77	19424.11
481.95	19681.56
482.13	19627.73
482.31	19681.56
482.49	20072.43
482.67	20072.43
482.85	20367.34
483.03	20699.70
483.21	20840.13
483.39	20798.00
483.57	20912.69
483.74	21027.37
483.92	21408.88
484.10	21020.35
484.28	21647.61
484.46	21809.11
484.64	22377.86
484.82	21708.47
485.00	22026.78
485.18	22513.61
485.35	22817.88
485.53	22752.35
485.71	22932.57
485.89	23489.62
486.07	23243.86
486.25	23300.03
486.43	23580.90
486.61	23573.88
486.78	24109.86
486.96	24067.73
487.14	24690.31
487.32	24463.28
487.50	24800.32
487.68	24950.11
487.85	25261.40
488.03	25411.20
488.21	25743.55
488.39	25635.89
488.57	26010.37
488.75	26190.59
488.92	26242.09
489.10	26593.17
489.28	26256.13
489.46	27164.26
489.64	27166.60
489.81	27208.73
489.99	27534.06
490.17	27754.07
490.35	28203.46
490.53	28072.39
490.70	28173.03
490.88	28187.07
491.06	28758.16
491.24	28748.80
491.41	28837.74
491.59	28933.70
491.77	29331.59
491.95	29537.56
492.13	29607.78
492.30	30033.75
492.48	30300.58
492.66	29900.34
492.84	30092.27
493.01	30600.16
493.19	30513.56
493.37	30785.07
493.54	31105.72
493.72	31108.06
493.90	31580.85
494.08	31442.76
494.25	31711.92
494.43	31901.50
494.61	32491.32
494.79	32634.09
494.96	32512.38
495.14	32617.71
495.32	33071.77
495.49	33153.69
495.67	33432.21
495.85	33326.89
496.02	33677.97
496.20	34260.76
496.38	33844.15
496.55	34005.64
496.73	34780.36
496.91	34305.23
497.09	34700.78
497.26	35381.88
497.44	34412.90
497.62	35211.02
497.79	36020.84
497.97	35468.48
498.14	36217.45
498.32	35800.83
498.50	35842.96
498.67	36154.26
498.85	36325.11
499.03	36685.56
499.20	36430.44
499.38	36898.55
499.56	36671.51
499.73	37331.54
499.91	37394.74
500.08	37509.43
500.26	37581.98
500.44	37450.91
500.61	38120.31
500.79	37600.71
500.97	37612.41
501.14	38747.57
501.32	38274.78
501.49	38719.48
501.67	38623.52
501.84	38895.02
502.02	38394.15
502.20	39061.20
502.37	39203.97
502.55	39285.89
502.72	39136.10
502.90	39196.95
503.07	39220.36
503.25	39524.63
503.43	39468.45
503.60	39789.11
503.78	40678.51
503.95	40357.86
504.13	40329.77
504.30	40271.26
504.48	40184.66
504.65	40800.22
504.83	41031.93
505.01	40720.64
505.18	41078.74
505.36	41500.04
505.53	40971.08
505.71	41668.56
505.88	41525.78
506.06	41289.39
506.23	41979.85
506.41	41701.32
506.58	42040.70
506.76	42174.11
506.93	42094.53
507.11	42185.82
507.28	42607.11
507.46	42225.60
507.63	42885.64
507.81	43063.52
507.98	42677.33
508.16	43117.35
508.33	43665.03
508.50	43529.28
508.68	43709.50
508.85	43945.90
509.03	43887.39
509.20	43995.05
509.38	44287.62
509.55	44390.60
509.73	44449.11
509.90	44254.85
510.08	44575.50
510.25	44727.64
510.42	44397.62
510.60	44718.28
510.77	45272.98
510.95	45401.71
511.12	45158.30
511.30	45340.86
511.47	45572.57
511.64	45731.73
511.82	45598.32
511.99	45645.13
512.17	46007.91
512.34	45865.14
512.51	46211.54
512.69	46447.93
512.86	46162.39
513.04	46504.10
513.21	46103.87
513.38	46433.89
513.56	46836.46
513.73	46511.13
513.90	47049.45
514.08	47044.77
514.25	47103.28
514.43	47093.92
514.60	47629.90
514.77	47487.13
514.95	47571.39
515.12	46967.53
515.29	47753.95
515.47	47782.04
515.64	48252.48
515.81	48179.93
515.99	48072.26
516.16	48098.01
516.33	48493.56
516.51	48477.18
516.68	48203.33
516.85	48399.94
517.03	48608.25
517.20	49071.67
517.37	48641.01
517.54	48835.28
517.72	48917.20
517.89	48992.09
518.06	49514.03
518.24	48980.39
518.41	49333.81
518.58	49301.04
518.75	48971.03
518.93	49343.17
519.10	49132.53
519.27	49642.76
519.45	49888.52
519.62	49874.48
519.79	50080.44
519.96	49787.88
520.14	49600.63
520.31	50153.00
520.48	50340.24
520.65	50492.38
520.83	50384.71
521.00	50672.60
521.17	50623.45
521.34	50424.50
521.52	50340.24
521.69	50768.56
521.86	50808.35
522.03	51159.43
522.20	50988.57
522.38	51442.63
522.55	51079.85
522.72	51051.76
522.89	51140.71
523.07	51447.32
523.24	51264.75
523.41	51423.91
523.58	51456.68
523.75	51653.28
523.92	51770.31
524.10	51599.45
524.27	51985.64
524.44	51915.42
524.61	52107.35
524.78	52027.77
524.96	52133.09
525.13	52151.82
525.30	52629.29
525.47	52472.47
525.64	52268.84
525.81	52596.52
525.98	52535.66
526.16	52552.05
526.33	52458.43
526.50	53057.60
526.67	52765.04
526.84	52612.90
527.01	52736.95
527.18	52683.12
527.36	52814.19
527.53	52729.93
527.70	53144.20
527.87	53277.61
528.04	53411.02
528.21	53537.41
528.38	53050.58
528.55	53357.19
528.72	53233.14
528.89	53251.87
529.07	53198.04
529.24	53485.92
529.41	53511.67
529.58	53558.48
529.75	53467.20
529.92	53780.83
530.09	53614.65
530.26	53902.54
530.43	53869.77
530.60	53511.67
530.77	53631.04
530.94	54253.62
531.11	53895.52
531.28	54178.72
531.46	54396.39
531.63	54190.42
531.80	54101.48
531.97	54305.11
532.14	54508.74
532.31	54136.59
532.48	54255.96
532.65	54457.24
532.82	54490.01
532.99	54616.40
533.16	54485.33
533.33	54724.07
533.50	54880.88
533.67	54560.23
533.84	54693.64
534.01	54997.91
534.18	54752.15
534.35	55161.75
534.52	54904.29
534.69	55049.40
534.86	55253.03
535.03	54960.46
535.20	55009.61
535.37	55351.33
535.54	55435.59
535.71	55128.98
535.88	55444.95
536.05	55484.74
536.22	55538.57
536.38	55379.42
536.55	55533.89
536.72	55564.32
536.89	55515.17
537.06	55475.38
537.23	55772.63
537.40	55690.71
537.57	55728.16
537.74	55863.91
537.91	55690.71
538.08	55697.73
538.25	55793.69
538.42	55810.07
538.59	56133.07
538.75	55828.80
538.92	55875.61
539.09	55929.44
539.26	56055.83
539.43	56252.44
539.60	56285.20
539.77	56053.49
539.94	56472.45
540.11	56371.80
540.28	56537.98
540.44	56254.78
540.61	56395.21
540.78	56214.99
540.95	56491.17
541.12	56491.17
541.29	56645.65
541.46	56746.29
541.62	56399.89
541.79	56561.39
541.96	56266.48
542.13	56488.83
542.30	56680.75
542.47	56893.74
542.63	56889.06
542.80	56762.67
542.97	56947.57
543.14	57134.82
543.31	57080.98
543.48	57181.63
543.64	57291.63
543.81	57315.04
543.98	57181.63
544.15	57102.05
544.32	57230.78
544.48	57436.75
544.65	56935.87
544.82	57228.44
544.99	57258.87
545.16	57506.96
545.32	57139.50
545.49	57560.79
545.66	57722.29
545.83	57471.85
546.00	57427.38
546.16	57572.50
546.33	57623.99
546.50	57359.51
546.67	57558.45
546.83	57408.66
547.00	57771.44
547.17	57579.52
547.34	57722.29
547.50	57846.34
547.67	57954.00
547.84	58220.83
548.00	57996.13
548.17	58174.02
548.34	58148.27
548.51	58192.74
548.67	58073.37
548.84	57888.47
549.01	58038.26
549.18	58085.07
549.34	58087.42
549.51	58152.95
549.68	58220.83
549.84	58197.42
550.01	58457.22
550.18	58096.78
550.34	58316.79
550.51	58321.47
550.68	58365.94
550.84	58033.58
551.01	58431.47
551.18	58368.28
551.34	58344.87
551.51	58415.09
551.68	58513.39
551.84	58223.17
552.01	58499.35
552.18	58525.10
552.34	58555.52
552.51	58637.44
552.68	58555.52
552.84	58639.78
553.01	58899.58
553.18	58780.21
553.34	58883.20
553.51	58419.77
553.67	58843.41
553.84	58831.71
554.01	58775.53
554.17	59004.91
554.34	58915.96
554.51	58906.60
554.67	58892.56
554.84	58855.11
555.00	58791.92
555.17	58995.54
555.33	58766.17
555.50	58829.37
555.67	58981.50
555.83	58965.12
556.00	59061.08
556.16	59309.18
556.33	59374.71
556.50	59185.13
556.66	59203.85
556.83	59093.85
556.99	59421.52
557.16	59498.76
557.32	59444.93
557.49	59444.93
557.65	59348.96
557.82	59384.07
557.98	59229.60
558.15	59238.96
558.32	59433.22
558.48	59430.88
558.65	59463.65
558.81	59648.55
558.98	59409.82
559.14	59400.46
559.31	59620.47
559.47	59594.72
559.64	59484.72
559.80	59461.31
559.97	59686.00
560.13	59669.62
560.30	59756.22
560.46	59639.19
560.63	59676.64
560.79	59674.30
560.96	59887.29
561.12	59711.75
561.29	59725.79
561.45	59824.09
561.61	59997.29
561.78	59994.95
561.94	59730.47
562.11	59695.36
562.27	59803.03
562.44	59891.97
562.60	59891.97
562.77	59861.54
562.93	59833.46
563.10	59938.78
563.26	60074.53
563.42	60088.57
563.59	59966.87
563.75	59854.52
563.92	59870.90
564.08	59856.86
564.24	60034.74
564.41	60196.24
564.57	59999.63
564.74	59990.27
564.90	59873.24
565.07	59973.89
565.23	60016.02
565.39	60074.53
565.56	60233.69
565.72	60039.42
565.88	60116.66
566.05	59971.55
566.21	60058.15
566.38	60240.71
566.54	60186.88
566.70	60149.43
566.87	60463.06
567.03	60097.94
567.19	60346.03
567.36	60200.92
567.52	60275.82
567.68	60385.82
567.85	60170.49
568.01	60420.93
568.17	60233.69
568.34	60322.63
568.50	60299.22
568.66	60236.03
568.83	60348.37
568.99	60067.51
569.15	60334.33
569.32	60257.09
569.48	60402.21
569.64	60493.49
569.81	60425.61
569.97	60175.17
570.13	60367.10
570.30	60179.85
570.46	60516.89
570.62	60320.29
570.78	60446.68
570.95	60505.19
571.11	60598.81
571.27	60418.59
571.43	60250.07
571.60	60528.59
571.76	60355.39
571.92	60715.84
572.09	60570.72
572.25	60395.18
572.41	60491.15
572.57	60619.88
572.74	60797.76
572.90	60486.46
573.06	60694.77
573.22	60472.42
573.38	60633.92
573.55	60437.31
573.71	60865.63
573.87	60575.40
574.03	60460.72
574.20	60757.97
574.36	60657.32
574.52	60608.17
574.68	60662.00
574.84	60673.71
575.01	60706.47
575.17	60729.88
575.33	60521.57
575.49	60521.57
575.65	60542.64
575.82	60931.17
575.98	60645.62
576.14	60877.33
576.30	60748.60
576.46	60552.00
576.62	60715.84
576.79	60664.35
576.95	60662.00
577.11	60858.61
577.27	60807.12
577.43	60837.54
577.59	60669.03
577.75	60654.98
577.92	60666.69
578.08	60633.92
578.24	60905.42
578.40	60851.59
578.56	60865.63
578.72	60874.99
578.88	60828.18
579.04	60977.98
579.21	60750.94
579.37	61006.06
579.53	61085.64
579.69	60617.53
579.85	60713.50
580.01	60788.39
580.17	60664.35
580.33	60867.97
580.49	60811.80
580.65	61038.83
580.82	60821.16
580.98	60725.20
581.14	60748.60
581.30	61090.32
581.46	60832.86
581.62	60886.70
581.78	60685.41
581.94	60975.64
582.10	60774.35
582.26	60772.01
582.42	60849.25
582.58	60802.44
582.74	60741.58
582.90	60814.14
583.06	60919.46
583.22	60748.60
583.38	60872.65
583.54	60940.53
583.70	60924.14
583.86	60903.08
584.02	60701.79
584.18	61080.96
584.34	60919.46
584.50	60853.93
584.66	60729.88
584.82	60741.58
584.98	61132.45
585.14	61095.00
585.30	60790.73
585.46	61090.32
585.62	60898.40
585.78	61118.41
585.94	60713.50
586.10	60779.03
586.26	60832.86
586.42	60867.97
586.58	61020.11
586.74	61118.41
586.90	60938.19
587.06	60973.30
587.22	61127.77
587.38	60938.19
587.54	61118.41
587.70	61113.73
587.86	61059.90
588.02	60977.98
588.18	61139.47
588.34	60949.89
588.49	61013.08
