SpectraSuite Data File
++++++++++++++++++++++++++++++++++++
Date: Fri Oct 25 10:43:56 EDT 2013
User: price-jones
Dark Spectrum Present: No
Reference Spectrum Present: No
Number of Sampled Component Spectra: 1
Spectrometers: USB2+H05261
Integration Time (usec): 100000 (USB2+H05261)
Spectra Averaged: 1 (USB2+H05261)
Boxcar Smoothing: 0 (USB2+H05261)
Correct for Electrical Dark: No (USB2+H05261)
Strobe/Lamp Enabled: No (USB2+H05261)
Correct for Detector Non-linearity: No (USB2+H05261)
Correct for Stray Light: No (USB2+H05261)
Number of Pixels in Processed Spectrum: 2048
>>>>>Begin Processed Spectral Data<<<<<
365.73	161.50
365.92	161.50
366.12	161.50
366.32	138.09
366.52	23.41
366.72	21.06
366.91	0.00
367.11	28.09
367.31	60.85
367.51	0.00
367.70	0.00
367.90	16.38
368.10	25.75
368.30	16.38
368.49	23.41
368.69	18.72
368.89	0.00
369.09	0.00
369.28	65.54
369.48	49.15
369.68	161.50
369.87	53.83
370.07	44.47
370.27	210.65
370.47	278.52
370.66	372.15
370.86	395.55
371.06	465.77
371.25	510.24
371.45	440.02
371.65	433.00
371.84	440.02
372.04	512.58
372.24	507.90
372.44	454.06
372.63	524.28
372.83	585.13
373.03	535.98
373.22	503.22
373.42	470.45
373.62	475.13
373.81	610.88
374.01	482.15
374.21	580.45
374.40	610.88
374.60	592.16
374.79	606.20
374.99	601.52
375.19	575.77
375.38	566.41
375.58	638.97
375.78	620.24
375.97	702.16
376.17	641.31
376.37	594.50
376.56	636.63
376.76	641.31
376.95	589.82
377.15	580.45
377.35	606.20
377.54	718.54
377.74	578.11
377.93	655.35
378.13	763.01
378.33	709.18
378.52	660.03
378.72	751.31
378.91	645.99
379.11	631.94
379.31	718.54
379.50	709.18
379.70	732.59
379.89	709.18
380.09	674.07
380.28	720.88
380.48	748.97
380.68	678.76
380.87	748.97
381.07	716.20
381.26	727.91
381.46	755.99
381.65	683.44
381.85	751.31
382.04	746.63
382.24	711.52
382.43	723.23
382.63	695.14
382.83	685.78
383.02	730.25
383.22	793.44
383.41	718.54
383.61	695.14
383.80	737.27
384.00	765.36
384.19	786.42
384.39	805.14
384.58	779.40
384.78	868.34
384.97	833.23
385.17	819.19
385.36	774.72
385.56	821.53
385.75	816.85
385.95	814.51
386.14	842.59
386.34	896.43
386.53	901.11
386.72	835.57
386.92	931.53
387.11	898.77
387.31	912.81
387.50	952.60
387.70	896.43
387.89	950.26
388.09	929.19
388.28	987.71
388.48	947.92
388.67	936.21
388.86	968.98
389.06	887.06
389.25	990.05
389.45	952.60
389.64	1034.52
389.84	1025.15
390.03	1018.13
390.22	1053.24
390.42	1088.35
390.61	1043.88
390.81	1128.14
391.00	1090.69
391.19	1160.91
391.39	1132.82
391.58	1090.69
391.78	1053.24
391.97	1097.71
392.16	1102.39
392.36	1034.52
392.55	1048.56
392.75	1064.94
392.94	1001.75
393.13	1062.60
393.33	1001.75
393.52	1128.14
393.71	1233.46
393.91	1139.84
394.10	1179.63
394.29	1144.52
394.49	1317.72
394.68	1315.38
394.88	1270.91
395.07	1291.98
395.26	1313.04
395.46	1214.74
395.65	1252.19
395.84	1270.91
396.04	1327.08
396.23	1186.65
396.42	1188.99
396.62	1198.35
396.81	1198.35
397.00	1205.38
397.19	1397.30
397.39	1385.60
397.58	1509.65
397.77	1345.81
397.97	1554.12
398.16	1486.24
398.35	1479.22
398.55	1502.62
398.74	1659.44
398.93	1526.03
399.12	1526.03
399.32	1519.01
399.51	1633.69
399.70	1650.08
399.90	1577.52
400.09	1598.59
400.28	1724.97
400.47	1734.34
400.67	1692.21
400.86	1729.66
401.05	1694.55
401.24	1746.04
401.44	1795.19
401.63	1764.76
401.82	1717.95
402.01	1900.52
402.21	1790.51
402.40	1870.09
402.59	1802.21
402.78	1827.96
402.97	1799.87
403.17	1884.13
403.36	1923.92
403.55	1961.37
403.74	1949.67
403.93	1888.81
404.13	1970.73
404.32	1952.01
404.51	1919.24
404.70	1973.07
404.89	1956.69
405.09	1959.03
405.28	2059.67
405.47	1968.39
405.66	2019.88
405.85	2129.89
406.05	2031.58
406.24	2069.03
406.43	2054.99
406.62	2183.72
406.81	2172.02
407.00	2202.44
407.20	2165.00
407.39	2083.08
407.58	2218.83
407.77	2324.15
407.96	2338.20
408.15	2293.72
408.34	2377.98
408.54	2242.23
408.73	2328.83
408.92	2368.62
409.11	2349.90
409.30	2469.27
409.49	2275.00
409.68	2377.98
409.87	2408.41
410.07	2443.52
410.26	2558.21
410.45	2450.54
410.64	2445.86
410.83	2597.99
411.02	2609.70
411.21	2724.38
411.40	2654.17
411.59	2736.09
411.78	2815.66
411.98	2703.32
412.17	2747.79
412.36	2848.43
412.55	2803.96
412.74	2932.69
412.93	2949.08
413.12	2832.05
413.31	2904.60
413.50	2956.10
413.69	2974.82
413.88	3007.59
414.07	2951.42
414.26	3012.27
414.45	3220.58
414.64	3056.74
414.83	3148.02
415.02	3103.55
415.22	3143.34
415.41	3290.79
415.60	3321.22
415.79	3421.86
415.98	3368.03
416.17	3370.37
416.36	3361.01
416.55	3302.50
416.74	3548.25
416.93	3459.31
417.12	3452.29
417.31	3492.08
417.50	3431.23
417.69	3618.47
417.88	3501.44
418.07	3613.79
418.26	3669.96
418.45	3620.81
418.64	3709.75
418.83	3648.90
419.02	3625.49
419.21	3679.32
419.39	3812.73
419.58	3705.07
419.77	3669.96
419.96	3737.84
420.15	3826.78
420.34	3808.05
420.53	3850.18
420.72	3918.06
420.91	3873.59
421.10	3992.95
421.29	4053.81
421.48	3885.29
421.67	4187.22
421.86	3953.16
422.05	4011.68
422.24	3990.61
422.43	3845.50
422.61	3976.57
422.80	3911.04
422.99	4009.34
423.18	4126.36
423.37	4191.90
423.56	4224.67
423.75	4135.73
423.94	4117.00
424.13	3733.15
424.32	3861.88
424.50	4121.68
424.69	4208.28
424.88	4227.01
425.07	4049.13
425.26	4025.72
425.45	4056.15
425.64	4161.47
425.83	4074.87
426.01	4273.82
426.20	4128.70
426.39	4140.41
426.58	4063.17
426.77	4149.77
426.96	4112.32
427.15	4175.52
427.33	4166.15
427.52	4297.22
427.71	4315.95
427.90	4236.37
428.09	4212.96
428.28	4351.06
428.46	4404.89
428.65	4365.10
428.84	4353.40
429.03	4440.00
429.22	4250.41
429.40	4250.41
429.59	4205.94
429.78	4184.88
429.97	3981.25
430.16	4149.77
430.34	4194.24
430.53	4236.37
430.72	4402.55
430.91	4386.16
431.10	4519.57
431.28	4774.69
431.47	4936.19
431.66	4922.15
431.85	4627.24
432.03	4805.12
432.22	4816.82
432.41	4697.46
432.60	4854.27
432.79	4910.44
432.97	5114.07
433.16	4954.91
433.35	4695.11
433.54	4924.49
433.72	4819.16
433.91	4854.27
434.10	4903.42
434.28	5039.17
434.47	4964.28
434.66	5121.09
434.85	5121.09
435.03	5102.37
435.22	5231.10
435.41	5394.93
435.59	5296.63
435.78	5224.08
435.97	5392.59
436.16	5364.51
436.34	5350.46
436.53	5207.69
436.72	5434.72
436.90	5205.35
437.09	5336.42
437.28	5336.42
437.46	5266.21
437.65	5465.15
437.84	5390.25
438.02	5348.12
438.21	5462.81
438.40	5210.03
438.58	5575.16
438.77	5647.71
438.96	5617.29
439.14	5661.76
439.33	5860.70
439.52	5942.62
439.70	5816.23
439.89	5867.72
440.08	5825.59
440.26	5919.21
440.45	5891.13
440.63	5921.56
440.82	6143.91
441.01	6120.50
441.19	6293.70
441.38	6347.53
441.57	6277.32
441.75	6464.56
441.94	6487.96
442.12	6389.66
442.31	6581.59
442.50	6691.59
442.68	6637.76
442.87	6614.35
443.05	6565.20
443.24	6633.08
443.43	6752.45
443.61	6839.05
443.80	6995.86
443.98	6689.25
444.17	6384.98
444.35	6853.09
444.54	7122.25
444.73	7007.56
444.91	6782.87
445.10	6717.34
445.28	6684.57
445.47	6752.45
445.65	6740.74
445.84	6579.25
446.02	6960.75
446.21	6810.96
446.39	6876.49
446.58	6927.99
446.77	6925.65
446.95	6820.32
447.14	6829.68
447.32	7082.46
447.51	7077.78
447.69	6862.45
447.88	7042.67
448.06	6937.35
448.25	7014.59
448.43	6956.07
448.62	7073.10
448.80	7023.95
448.99	7112.89
449.17	7122.25
449.36	7002.88
449.54	7400.77
449.73	7391.41
449.91	7290.77
450.10	7279.07
450.28	7618.44
450.46	7536.52
450.65	7571.63
450.83	7433.54
451.02	7569.29
451.20	7632.49
451.39	7442.90
451.57	7468.65
451.76	7447.58
451.94	7353.96
452.13	7548.23
452.31	7466.31
452.49	7478.01
452.68	7541.21
452.86	7342.26
453.05	7442.90
453.23	7653.55
453.42	7470.99
453.60	7758.88
453.78	7925.05
453.97	7765.90
454.15	7747.17
454.34	7735.47
454.52	7728.45
454.70	7857.18
454.89	7810.37
455.07	7861.86
455.26	7953.14
455.44	8030.38
455.62	8051.44
455.81	8065.49
455.99	8299.54
456.17	8084.21
456.36	8126.34
456.54	8182.51
456.73	8292.52
456.91	8393.16
457.09	8353.37
457.28	8643.60
457.46	8351.03
457.64	8381.46
457.83	8351.03
458.01	8285.50
458.19	8519.55
458.38	8381.46
458.56	8648.28
458.74	8538.27
458.93	8592.11
459.11	8540.61
459.29	8564.02
459.48	8601.47
459.66	8739.56
459.84	8685.73
460.03	8805.10
460.21	8823.82
460.39	8784.03
460.57	8734.88
460.76	8802.75
460.94	8961.91
461.12	9018.08
461.31	8997.02
461.49	9069.58
461.67	8975.95
461.85	9212.35
462.04	8975.95
462.22	9228.73
462.40	9315.33
462.59	9357.46
462.77	9202.99
462.95	9188.94
463.13	9224.05
463.32	9324.69
463.50	9357.46
463.68	9312.99
463.86	9418.32
464.05	9231.07
464.23	9205.33
464.41	9343.42
464.59	9198.31
464.78	9565.77
464.96	9469.81
465.14	9404.27
465.32	9460.45
465.50	9444.06
465.69	9888.76
465.87	9563.43
466.05	9551.73
466.23	9474.49
466.41	9556.41
466.60	9596.20
466.78	9420.66
466.96	9572.79
467.14	9729.61
467.32	9727.27
467.51	9771.74
467.69	9607.90
467.87	9703.86
468.05	9888.76
468.23	9701.52
468.41	9741.31
468.60	9834.93
468.78	10019.83
468.96	9926.21
469.14	9909.83
469.32	9923.87
469.50	9790.46
469.69	10300.70
469.87	10125.16
470.05	10141.54
470.23	10216.44
470.41	10190.69
470.59	10436.45
470.77	10080.69
470.95	10464.54
471.14	10509.01
471.32	10443.47
471.50	10485.60
471.68	10499.64
471.86	10677.52
472.04	10789.87
472.22	10918.60
472.40	10677.52
472.58	10700.93
472.77	10642.42
472.95	10745.40
473.13	11281.38
473.31	10853.06
473.49	10991.16
473.67	10960.73
473.85	11098.82
474.03	11325.85
474.21	11335.21
474.39	11389.05
474.57	11468.62
474.75	11665.23
474.93	11686.29
475.12	11445.22
475.30	11477.99
475.48	11559.91
475.66	11831.41
475.84	11698.00
476.02	11901.62
476.20	11896.94
476.38	12046.74
476.56	12203.55
476.74	12334.62
476.92	12243.34
477.10	12372.07
477.28	12690.38
477.46	12519.53
477.64	12727.83
477.82	12767.62
478.00	13130.41
478.18	12996.99
478.36	13177.22
478.54	13240.41
478.72	13090.62
478.90	13462.76
479.08	13661.71
479.26	13832.57
479.44	13481.49
479.62	13455.74
479.80	13652.34
479.98	13942.57
480.16	14209.39
480.34	13982.36
480.52	14160.24
480.70	14349.82
480.88	14270.25
481.06	14427.06
481.24	14527.71
481.41	14778.14
481.59	14925.60
481.77	15073.05
481.95	15096.46
482.13	15014.54
482.31	15042.62
482.49	15290.72
482.67	15382.00
482.85	15609.03
483.03	15824.36
483.21	15868.83
483.39	16084.16
483.57	15981.18
483.74	15967.13
483.92	16290.13
484.10	16107.57
484.28	16458.65
484.46	16552.27
484.64	17006.33
484.82	16411.84
485.00	16517.16
485.18	16924.41
485.35	17050.80
485.53	16610.78
485.71	16734.83
485.89	17064.85
486.07	16734.83
486.25	17261.45
486.43	17551.68
486.61	17645.30
486.78	17703.81
486.96	17645.30
487.14	18396.61
487.32	18469.17
487.50	18698.54
487.68	19005.15
487.85	19096.43
488.03	19080.05
488.21	19400.70
488.39	19171.33
488.57	19276.65
488.75	19377.30
488.92	19758.80
489.10	19899.23
489.28	19962.43
489.46	20547.56
489.64	20343.94
489.81	20690.34
489.99	21216.96
490.17	21165.46
490.35	21095.25
490.53	21001.63
490.70	21207.59
490.88	21238.02
491.06	21371.43
491.24	21387.82
491.41	21551.65
491.59	21411.22
491.77	21397.18
491.95	21703.79
492.13	21900.39
492.30	22354.46
492.48	22302.96
492.66	22209.34
492.84	22394.25
493.01	22742.99
493.19	22675.11
493.37	22733.62
493.54	23009.81
493.72	23496.64
493.90	23204.07
494.08	23496.64
494.25	23885.17
494.43	23826.65
494.61	24273.70
494.79	23931.98
494.96	24217.52
495.14	24411.79
495.32	24503.07
495.49	24620.10
495.67	24596.69
495.85	24968.84
496.02	24931.39
496.20	25001.60
496.38	25233.32
496.55	25350.34
496.73	25736.53
496.91	25764.62
497.09	25937.82
497.26	26139.10
497.44	25699.08
497.62	25518.86
497.79	26604.87
497.97	25834.83
498.14	26073.57
498.32	26572.10
498.50	26520.61
498.67	26689.13
498.85	26799.13
499.03	26941.91
499.20	27204.05
499.38	26897.44
499.56	27110.43
499.73	27419.38
499.91	27440.44
500.08	27580.87
500.26	27143.19
500.44	27314.05
500.61	27573.85
500.79	27285.97
500.97	27938.97
501.14	27938.97
501.32	27789.18
501.49	28135.58
501.67	28215.16
501.84	28386.02
502.02	28245.58
502.20	28657.52
502.37	28931.36
502.55	28648.16
502.72	29008.60
502.90	28599.01
503.07	29134.99
503.25	28936.04
503.43	29369.04
503.60	28718.37
503.78	29181.80
503.95	28999.24
504.13	29048.39
504.30	29422.87
504.48	29570.33
504.65	29610.12
504.83	29846.51
505.01	30043.12
505.18	30012.69
505.36	30340.36
505.53	30408.24
505.71	30574.42
505.88	30445.69
506.06	30281.85
506.23	30536.97
506.41	30251.42
506.58	31068.27
506.76	31257.85
506.93	31344.45
507.11	30775.70
507.28	31255.51
507.46	31154.87
507.63	31178.28
507.81	30871.67
507.98	30902.09
508.16	31239.13
508.33	31744.69
508.50	31983.42
508.68	31627.66
508.85	32505.36
509.03	31718.94
509.20	32030.23
509.38	31976.40
509.55	31960.02
509.73	32479.61
509.90	32364.93
510.08	32474.93
510.25	32245.56
510.42	32414.08
510.60	32493.66
510.77	32655.15
510.95	32896.23
511.12	32701.96
511.30	33043.68
511.47	33450.94
511.64	33373.70
511.82	33525.83
511.99	33453.28
512.17	33221.56
512.34	33109.22
512.51	33567.96
512.69	33242.63
512.86	33626.48
513.04	33972.88
513.21	33701.37
513.38	33490.73
513.56	33738.82
513.73	33584.35
513.90	33741.16
514.08	33778.61
514.25	34031.39
514.43	34169.48
514.60	34146.08
514.77	34330.98
514.95	34050.11
515.12	34719.51
515.29	34689.08
515.47	34962.92
515.64	35412.31
515.81	34600.14
515.99	34560.35
516.16	34590.78
516.33	34448.00
516.51	34590.78
516.68	33846.49
516.85	34033.73
517.03	34529.92
517.20	34637.59
517.37	35285.92
517.54	35587.85
517.72	35143.14
517.89	34785.04
518.06	35054.20
518.24	34881.00
518.41	35159.53
518.58	35487.20
518.75	35576.14
518.93	35475.50
519.10	35732.96
519.27	35777.43
519.45	36009.14
519.62	36528.74
519.79	36140.21
519.96	36011.48
520.14	35983.40
520.31	36182.34
520.48	36566.19
520.65	36224.47
520.83	37099.83
521.00	36753.43
521.17	37017.91
521.34	36772.16
521.52	37642.84
521.69	36858.76
521.86	37324.52
522.03	37385.38
522.20	37085.79
522.38	37130.26
522.55	37682.62
522.72	37696.67
522.89	36945.36
523.07	37895.61
523.24	37418.14
523.41	37860.51
523.58	37935.40
523.75	38347.34
523.92	38478.41
524.10	38174.14
524.27	38291.16
524.44	38239.67
524.61	38071.15
524.78	38209.25
524.96	38501.81
525.13	38679.69
525.30	38778.00
525.47	38939.49
525.64	38969.92
525.81	38480.75
525.98	38396.49
526.16	38082.86
526.33	38272.44
526.50	38375.42
526.67	38274.78
526.84	38014.98
527.01	38522.88
527.18	38593.09
527.36	38979.28
527.53	39660.38
527.70	39693.15
527.87	39358.45
528.04	39061.20
528.21	39653.36
528.38	39887.41
528.55	40023.16
528.72	39676.76
528.89	40449.14
529.07	40058.27
529.24	39772.72
529.41	39737.62
529.58	39571.44
529.75	39639.31
529.92	39995.07
530.09	40247.85
530.26	40116.78
530.43	40137.85
530.60	40217.43
530.77	40327.43
530.94	40643.40
531.11	40306.37
531.28	40343.81
531.46	40432.75
531.63	40823.62
531.80	40629.36
531.97	39941.24
532.14	40533.40
532.31	39913.16
532.48	40205.72
532.65	40428.07
532.82	40446.80
532.99	40917.25
533.16	40748.73
533.33	41240.24
533.50	41095.13
533.67	40601.27
533.84	40821.28
534.01	41006.19
534.18	41050.66
534.35	41378.33
534.52	41518.76
534.69	41244.92
534.86	41233.22
535.03	41633.45
535.20	42045.38
535.37	41577.28
535.54	42279.44
535.71	41645.15
535.88	41486.00
536.05	41596.00
536.22	41888.57
536.38	41918.99
536.55	41471.95
536.72	41940.06
536.89	41371.31
537.06	41354.93
537.23	41977.51
537.40	42190.50
537.57	42204.54
537.74	42237.31
537.91	42274.76
538.08	42436.25
538.25	41647.49
538.42	41680.26
538.59	42382.42
538.75	41834.74
538.92	42251.35
539.09	42429.23
539.26	42164.75
539.43	42691.37
539.60	42389.44
539.77	42199.86
539.94	42143.69
540.11	42078.15
540.28	42663.28
540.44	42274.76
540.61	42689.03
540.78	42351.99
540.95	42239.65
541.12	42920.74
541.29	42342.63
541.46	42506.47
541.62	42560.30
541.79	42983.94
541.96	42525.19
542.13	43189.91
542.30	42768.61
542.47	42572.00
542.63	42890.32
542.80	43239.06
542.97	43503.54
543.14	43365.45
543.31	43447.36
543.48	43847.60
543.64	43962.28
543.81	43866.32
543.98	43941.22
544.15	44119.10
544.32	44023.14
544.48	43882.70
544.65	43878.02
544.82	44128.46
544.99	43650.99
545.16	43821.85
545.32	43910.79
545.49	44484.22
545.66	43908.45
545.83	44346.13
546.00	44605.93
546.16	44048.88
546.33	43805.47
546.50	43761.00
546.67	44451.45
546.83	43650.99
547.00	44332.09
547.17	44165.91
547.34	43915.47
547.50	44318.04
547.67	44561.46
547.84	44800.19
548.00	44734.66
548.17	44456.14
548.34	44818.92
548.51	44975.73
548.67	44835.30
548.84	44486.56
549.01	44645.72
549.18	44147.18
549.34	44409.32
549.51	44722.96
549.68	44921.90
549.84	45062.33
550.01	45191.06
550.18	44481.88
550.34	44999.14
550.51	45015.52
550.68	44685.51
550.84	44463.16
551.01	44825.94
551.18	44910.20
551.34	44966.37
551.51	45357.24
551.68	45595.98
551.84	44900.84
552.01	45170.00
552.18	45338.52
552.34	44608.27
552.51	45551.51
552.68	45207.45
552.84	45404.05
553.01	45380.65
553.18	45209.79
553.34	45399.37
553.51	45469.59
553.67	45633.42
553.84	45799.60
554.01	45649.81
554.17	45996.21
554.34	45654.49
554.51	45839.39
554.67	45446.18
554.84	45752.79
555.00	45488.31
555.17	45851.09
555.33	45801.94
555.50	45715.34
555.67	45301.07
555.83	45336.18
556.00	45792.58
556.16	45476.61
556.33	45539.80
556.50	45867.48
556.66	45734.07
556.83	45535.12
556.99	45574.91
557.16	46333.24
557.32	45638.11
557.49	45911.95
557.65	46064.08
557.82	45897.91
557.98	46260.69
558.15	45846.41
558.32	46122.60
558.48	45834.71
558.65	45537.46
558.81	45546.82
558.98	45399.37
559.14	45661.51
559.31	45745.77
559.47	46237.28
559.64	46213.88
559.80	46202.18
559.97	46237.28
560.13	46073.45
560.30	46078.13
560.46	46143.66
560.63	46274.73
560.79	46124.94
560.96	46335.59
561.12	45902.59
561.29	45869.82
561.45	46061.74
561.61	46806.03
561.78	46244.30
561.94	46202.18
562.11	45823.01
562.27	46167.07
562.44	46836.46
562.60	46726.46
562.77	46635.17
562.93	46237.28
563.10	46501.76
563.26	46314.52
563.42	45975.14
563.59	46443.25
563.75	46401.12
563.92	46543.89
564.08	46768.58
564.24	46813.05
564.41	46344.95
564.57	46600.07
564.74	46724.11
564.90	46562.62
565.07	46487.72
565.23	46738.16
565.39	46621.13
565.56	46471.34
565.72	46403.46
565.88	46492.40
566.05	46483.04
566.21	46157.70
566.38	46419.84
566.54	46419.84
566.70	46401.12
566.87	47224.99
567.03	46445.59
567.19	47150.09
567.36	47065.83
567.52	46403.46
567.68	46600.07
567.85	46646.88
568.01	46962.85
568.17	46419.84
568.34	46349.63
568.50	47077.54
568.66	46358.99
568.83	46644.54
568.99	46293.46
569.15	46471.34
569.32	46681.98
569.48	46377.72
569.64	46700.71
569.81	46796.67
569.97	46656.24
570.13	46501.76
570.30	46321.54
570.46	46267.71
570.62	46272.39
570.78	46550.91
570.95	46464.32
571.11	46607.09
571.27	46450.27
571.43	46773.27
571.60	46684.33
571.76	46649.22
571.92	47037.75
572.09	46780.29
572.25	46976.89
572.41	46653.90
572.57	47079.88
572.74	46981.57
572.90	47096.26
573.06	46461.97
573.22	46801.35
573.38	46782.63
573.55	46621.13
573.71	47044.77
573.87	47079.88
574.03	46579.00
574.20	46761.56
574.36	46663.26
574.52	46981.57
574.68	46838.80
574.84	46735.82
575.01	46745.18
575.17	46813.05
575.33	46777.95
575.49	46358.99
575.65	46878.59
575.82	46965.19
575.98	46590.70
576.14	46969.87
576.30	46871.57
576.46	47042.43
576.62	46883.27
576.79	46923.06
576.95	46258.35
577.11	46948.81
577.27	46937.10
577.43	46377.72
577.59	46646.88
577.75	47054.13
577.92	46501.76
578.08	46433.89
578.24	46508.79
578.40	46806.03
578.56	47061.15
578.72	46497.08
578.88	47030.72
579.04	46829.44
579.21	46913.70
579.37	46408.14
579.53	47014.34
579.69	46787.31
579.85	46941.78
580.01	47210.95
580.17	46923.06
580.33	46672.62
580.49	47185.20
580.65	46906.68
580.82	46799.01
580.98	46810.71
581.14	46841.14
581.30	47283.50
581.46	46848.16
581.62	47285.84
581.78	46911.36
581.94	47117.32
582.10	46831.78
582.26	46824.76
582.42	47391.17
582.58	47243.71
582.74	46913.70
582.90	46997.96
583.06	47433.30
583.22	46897.31
583.38	47292.86
583.54	47611.18
583.70	46822.42
583.86	47360.74
584.02	46838.80
584.18	46960.51
584.34	47016.68
584.50	46836.46
584.66	46829.44
584.82	46799.01
584.98	47299.89
585.14	47012.00
585.30	46440.91
585.46	47161.79
585.62	46473.68
585.78	46665.60
585.94	46866.89
586.10	46822.42
586.26	46646.88
586.42	47229.67
586.58	47096.26
586.74	46934.76
586.90	46887.95
587.06	46951.15
587.22	47246.05
587.38	46834.12
587.54	46948.81
587.70	46843.48
587.86	46700.71
588.02	47159.45
588.18	46981.57
588.34	46796.67
588.49	46454.95
588.65	46499.42
588.81	46569.64
588.97	46618.79
589.13	46321.54
589.29	46600.07
589.45	46857.52
589.61	46504.10
589.77	46925.40
