SpectraSuite Data File
++++++++++++++++++++++++++++++++++++
Date: Fri Oct 25 11:23:21 EDT 2013
User: price-jones
Dark Spectrum Present: No
Reference Spectrum Present: No
Number of Sampled Component Spectra: 1
Spectrometers: USB2+H05261
Integration Time (usec): 100000 (USB2+H05261)
Spectra Averaged: 1 (USB2+H05261)
Boxcar Smoothing: 0 (USB2+H05261)
Correct for Electrical Dark: No (USB2+H05261)
Strobe/Lamp Enabled: No (USB2+H05261)
Correct for Detector Non-linearity: No (USB2+H05261)
Correct for Stray Light: No (USB2+H05261)
Number of Pixels in Processed Spectrum: 2048
>>>>>Begin Processed Spectral Data<<<<<
365.73	212.99
365.92	212.99
366.12	212.99
366.32	210.65
366.52	217.67
366.72	138.09
366.91	105.32
367.11	145.11
367.31	170.86
367.51	72.56
367.70	159.16
367.90	131.07
368.10	152.13
368.30	124.05
368.49	117.03
368.69	126.39
368.89	177.88
369.09	128.73
369.28	177.88
369.48	205.97
369.68	175.54
369.87	149.79
370.07	198.95
370.27	224.69
370.47	330.02
370.66	662.37
370.86	601.52
371.06	606.20
371.25	767.70
371.45	683.44
371.65	692.80
371.84	601.52
372.04	690.46
372.24	685.78
372.44	716.20
372.63	720.88
372.83	784.08
373.03	732.59
373.22	713.86
373.42	741.95
373.62	772.38
373.81	821.53
374.01	809.83
374.21	753.65
374.40	809.83
374.60	819.19
374.79	858.98
374.99	866.00
375.19	828.55
375.38	894.08
375.58	793.44
375.78	905.79
375.97	861.32
376.17	887.06
376.37	919.83
376.56	849.61
376.76	936.21
376.95	882.38
377.15	770.04
377.35	887.06
377.54	856.64
377.74	821.53
377.93	933.87
378.13	870.68
378.33	922.17
378.52	884.72
378.72	915.15
378.91	912.81
379.11	992.39
379.31	868.34
379.50	910.47
379.70	997.07
379.89	1027.50
380.09	954.94
380.28	1008.77
380.48	968.98
380.68	1100.05
380.87	1090.69
381.07	1071.97
381.26	1039.20
381.46	945.58
381.65	1029.84
381.85	1062.60
382.04	1100.05
382.24	1048.56
382.43	1064.94
382.63	1102.39
382.83	1069.62
383.02	1039.20
383.22	1177.29
383.41	1167.93
383.61	1130.48
383.80	1137.50
384.00	1086.01
384.19	1095.37
384.39	1128.14
384.58	1064.94
384.78	1083.67
384.97	1193.67
385.17	1146.86
385.36	1191.33
385.56	1231.12
385.75	1125.80
385.95	1156.22
386.14	1165.59
386.34	1245.16
386.53	1181.97
386.72	1245.16
386.92	1247.51
387.11	1261.55
387.31	1146.86
387.50	1247.51
387.70	1200.69
387.89	1210.06
388.09	1331.76
388.28	1310.70
388.48	1226.44
388.67	1315.38
388.86	1254.53
389.06	1320.06
389.25	1409.00
389.45	1296.66
389.64	1385.60
389.84	1364.53
390.03	1380.92
390.22	1387.94
390.42	1341.13
390.61	1317.72
390.81	1341.13
391.00	1275.59
391.19	1380.92
391.39	1378.58
391.58	1481.56
391.78	1495.60
391.97	1502.62
392.16	1474.54
392.36	1554.12
392.55	1423.05
392.75	1472.20
392.94	1458.15
393.13	1584.54
393.33	1504.96
393.52	1589.22
393.71	1570.50
393.91	1533.05
394.10	1544.75
394.29	1575.18
394.49	1483.90
394.68	1694.55
394.88	1720.29
395.07	1605.61
395.26	1746.04
395.46	1668.80
395.65	1631.35
395.84	1804.55
396.04	1804.55
396.23	1788.17
396.42	1771.79
396.62	1823.28
396.81	1734.34
397.00	1767.10
397.19	1774.13
397.39	1858.39
397.58	1816.26
397.77	1778.81
397.97	1849.02
398.16	1937.96
398.35	1905.20
398.55	1956.69
398.74	1902.86
398.93	1961.37
399.12	1914.56
399.32	2008.18
399.51	1923.92
399.70	2043.29
399.90	1905.20
400.09	1994.14
400.28	2094.78
400.47	2019.88
400.67	2040.95
400.86	2160.31
401.05	2157.97
401.24	2017.54
401.44	2333.51
401.63	2221.17
401.82	2101.80
402.01	2120.53
402.21	2179.04
402.40	2195.42
402.59	2382.67
402.78	2190.74
402.97	2197.76
403.17	2296.07
403.36	2401.39
403.55	2321.81
403.74	2275.00
403.93	2363.94
404.13	2363.94
404.32	2396.71
404.51	2321.81
404.70	2331.17
404.89	2370.96
405.09	2523.10
405.28	2527.78
405.47	2480.97
405.66	2544.16
405.85	2555.86
406.05	2642.46
406.24	2509.05
406.43	2438.84
406.62	2626.08
406.81	2656.51
407.00	2623.74
407.20	2595.65
407.39	2555.86
407.58	2626.08
407.77	2869.50
407.96	2780.56
408.15	2869.50
408.34	2787.58
408.54	2715.02
408.73	2878.86
408.92	2841.41
409.11	2979.50
409.30	2951.42
409.49	2885.88
409.68	2949.08
409.87	2778.22
410.07	2899.92
410.26	2909.29
410.45	3049.72
410.64	3040.36
410.83	3166.74
411.02	3183.13
411.21	3229.94
411.40	3215.90
411.59	3206.53
411.78	3222.92
411.98	3162.06
412.17	3246.32
412.36	3290.79
412.55	3323.56
412.74	3435.91
412.93	3400.80
413.12	3297.81
413.31	3435.91
413.50	3473.36
413.69	3431.23
413.88	3501.44
414.07	3529.53
414.26	3660.60
414.45	3658.26
414.64	3709.75
414.83	3695.71
415.02	3765.92
415.22	3822.09
415.41	3896.99
415.60	3943.80
415.79	3929.76
415.98	4131.05
416.17	4133.39
416.36	3983.59
416.55	4198.92
416.74	4086.58
416.93	4088.92
417.12	4133.39
417.31	4168.49
417.50	4301.90
417.69	4299.56
417.88	4294.88
418.07	4102.96
418.26	4327.65
418.45	4339.35
418.64	4489.15
418.83	4358.08
419.02	4512.55
419.21	4678.73
419.39	4477.44
419.58	4517.23
419.77	4472.76
419.96	4578.09
420.15	4699.80
420.34	4807.46
420.53	4542.98
420.72	4833.21
420.91	4723.20
421.10	4699.80
421.29	4896.40
421.48	4800.44
421.67	4816.82
421.86	4877.68
422.05	4910.44
422.24	4835.55
422.43	4940.87
422.61	5013.43
422.80	4983.00
422.99	5107.05
423.18	4999.38
423.37	5111.73
423.56	4854.27
423.75	4842.57
423.94	4889.38
424.13	4535.96
424.32	4617.88
424.50	5114.07
424.69	5266.21
424.88	5207.69
425.07	4966.62
425.26	4985.34
425.45	4999.38
425.64	4952.57
425.83	4915.12
426.01	5109.39
426.20	5029.81
426.39	5041.51
426.58	5018.11
426.77	5116.41
426.96	5193.65
427.15	5191.31
427.33	5268.55
427.52	5088.32
427.71	5284.93
427.90	5256.84
428.09	5387.91
428.28	5357.49
428.46	5535.37
428.65	5275.57
428.84	5448.77
429.03	5408.98
429.22	5472.17
429.40	5467.49
429.59	5453.45
429.78	5320.04
429.97	5294.29
430.16	5643.03
430.34	5628.99
430.53	5708.57
430.72	5703.89
430.91	5703.89
431.10	5673.46
431.28	5788.14
431.47	5680.48
431.66	5968.37
431.85	5743.67
432.03	5919.21
432.22	6022.20
432.41	6029.22
432.60	5898.15
432.79	6108.80
432.97	6078.37
433.16	6139.23
433.35	5942.62
433.54	6216.46
433.72	6232.85
433.91	6232.85
434.10	6160.29
434.28	6202.42
434.47	6354.55
434.66	6356.90
434.85	6263.27
435.03	6361.58
435.22	6427.11
435.41	6445.84
435.59	6394.34
435.78	6349.87
435.97	6469.24
436.16	6356.90
436.34	6523.07
436.53	6609.67
436.72	6623.72
436.90	6473.92
437.09	6445.84
437.28	6532.44
437.46	6698.61
437.65	6757.13
437.84	6960.75
438.02	6633.08
438.21	6860.11
438.40	6834.36
438.58	7075.44
438.77	6981.82
438.96	7084.80
439.14	7145.66
439.33	7293.11
439.52	7283.75
439.70	7243.96
439.89	7258.00
440.08	7370.35
440.26	7391.41
440.45	7176.08
440.63	7506.10
440.82	7683.98
441.01	7510.78
441.19	7674.62
441.38	7960.16
441.57	7763.56
441.75	7812.71
441.94	8016.33
442.12	7918.03
442.31	8276.13
442.50	8030.38
442.68	7875.90
442.87	8135.70
443.05	8285.50
443.24	8369.76
443.43	8234.00
443.61	8346.35
443.80	8425.93
443.98	8084.21
444.17	7906.33
444.35	8280.82
444.54	8393.16
444.73	8451.67
444.91	8355.71
445.10	8554.66
445.28	8329.97
445.47	8355.71
445.65	8306.56
445.84	8393.16
446.02	8685.73
446.21	8484.44
446.39	8505.51
446.58	8404.86
446.77	8702.11
446.95	8297.20
447.14	8559.34
447.32	8512.53
447.51	8573.38
447.69	8514.87
447.88	8608.49
448.06	8648.28
448.25	8596.79
448.43	8592.11
448.62	8674.03
448.80	8613.17
448.99	8589.77
449.17	8669.34
449.36	8812.12
449.54	8912.76
449.73	9043.83
449.91	9142.13
450.10	9008.72
450.28	9095.32
450.46	9280.22
450.65	9036.81
450.83	9238.09
451.02	9013.40
451.20	9179.58
451.39	9338.74
451.57	9104.68
451.76	9212.35
451.94	9142.13
452.13	9242.78
452.31	9270.86
452.49	9282.56
452.68	9324.69
452.86	9362.14
453.05	9483.85
453.23	9415.98
453.42	9488.53
453.60	9355.12
453.78	9657.05
453.97	9430.02
454.15	9533.00
454.34	9710.88
454.52	9680.46
454.70	9652.37
454.89	9769.40
455.07	9834.93
455.26	9839.61
455.44	10001.11
455.62	10066.64
455.81	10178.99
455.99	10174.31
456.17	9973.02
456.36	9914.51
456.54	10249.21
456.73	10413.04
456.91	10658.80
457.09	10399.00
457.28	10485.60
457.46	10492.62
457.64	10647.10
457.83	10462.19
458.01	10452.83
458.19	10949.03
458.38	10703.27
458.56	10810.93
458.74	10981.79
458.93	10801.57
459.11	10600.29
459.29	10909.24
459.48	11000.52
459.66	10841.36
459.84	10857.75
460.03	11112.86
460.21	11110.52
460.39	11159.67
460.57	11173.72
460.76	11124.57
460.94	11253.30
461.12	11335.21
461.31	11239.25
461.49	11164.36
461.67	11145.63
461.85	11669.91
462.04	11323.51
462.22	11749.49
462.40	11695.66
462.59	11676.93
462.77	11477.99
462.95	11627.78
463.13	11761.19
463.32	11686.29
463.50	11910.99
463.68	11791.62
463.86	11723.74
464.05	11826.73
464.23	11644.17
464.41	12131.00
464.59	12145.04
464.78	12060.78
464.96	12084.19
465.14	11791.62
465.32	12138.02
465.50	12145.04
465.69	12407.18
465.87	12065.46
466.05	12229.30
466.23	12409.52
466.41	12388.46
466.60	12507.82
466.78	12355.69
466.96	12205.89
467.14	12446.97
467.32	12767.62
467.51	12648.26
467.69	12315.90
467.87	12784.01
468.05	12393.14
468.23	12308.88
468.41	12582.72
468.60	12741.88
468.78	12711.45
468.96	12643.57
469.14	12872.95
469.32	13266.16
469.50	12690.38
469.69	13249.77
469.87	12999.34
470.05	13256.79
470.23	13053.17
470.41	13441.70
470.59	13474.46
470.77	13270.84
470.95	13165.51
471.14	13671.07
471.32	13514.25
471.50	13701.50
471.68	13635.96
471.86	13715.54
472.04	13865.33
472.22	14223.44
472.40	13832.57
472.58	13881.72
472.77	14249.18
472.95	14326.42
473.13	14626.01
473.31	14050.24
473.49	14328.76
473.67	13991.72
473.85	14340.46
474.03	14609.62
474.21	14775.80
474.39	14834.32
474.57	14787.50
474.75	14731.33
474.93	15136.24
475.12	14932.62
475.30	15358.60
475.48	15470.94
475.66	15337.53
475.84	15302.42
476.02	15765.85
476.20	15487.32
476.38	15854.79
476.56	16130.97
476.74	16013.95
476.92	15976.50
477.10	16013.95
477.28	16212.89
477.46	16287.79
477.64	16463.33
477.82	16688.02
478.00	17273.15
478.18	16840.15
478.36	16915.05
478.54	17432.31
478.72	17289.54
478.90	17554.02
479.08	17748.28
479.26	17710.83
479.44	17757.64
479.62	17972.97
479.80	18118.09
479.98	18003.40
480.16	18780.46
480.34	18525.34
480.52	18860.04
480.70	18803.86
480.88	18534.70
481.06	18771.10
481.24	18937.27
481.41	19154.94
481.59	19559.86
481.77	19543.47
481.95	19786.89
482.13	20212.87
482.31	19985.83
482.49	20540.54
482.67	20208.19
482.85	20500.75
483.03	20650.55
483.21	21163.12
483.39	21048.44
483.57	21060.14
483.74	21362.07
483.92	21493.14
484.10	21682.72
484.28	22022.10
484.46	22185.94
484.64	22431.69
484.82	22146.15
485.00	22588.51
485.18	23042.57
485.35	23288.33
485.53	22941.93
485.71	23175.98
485.89	23676.86
486.07	23332.80
486.25	23564.51
486.43	23985.81
486.61	24362.64
486.78	24236.25
486.96	24233.91
487.14	24648.18
487.32	24624.78
487.50	25160.76
487.68	25130.33
487.85	25516.52
488.03	25825.47
488.21	25956.54
488.39	26136.76
488.57	26251.45
488.75	26326.35
488.92	26850.63
489.10	27143.19
489.28	26752.32
489.46	27477.89
489.64	27288.31
489.81	27786.84
489.99	27679.18
490.17	28018.55
490.35	28315.80
490.53	28325.16
490.70	28837.74
490.88	28489.00
491.06	29134.99
491.24	29202.86
491.41	29256.70
491.59	29324.57
491.77	29347.98
491.95	29790.34
492.13	30054.82
492.30	30321.64
492.48	30218.66
492.66	30148.44
492.84	30672.72
493.01	30984.01
493.19	31171.25
493.37	31608.93
493.54	31175.94
493.72	32065.34
493.90	31599.57
494.08	32552.17
494.25	32264.28
494.43	32374.29
494.61	32800.27
494.79	32725.37
494.96	32816.65
495.14	32868.14
495.32	33301.14
495.49	33149.01
495.67	33310.50
495.85	33954.15
496.02	34181.18
496.20	34670.36
496.38	34452.69
496.55	34286.51
496.73	35468.48
496.91	35077.61
497.09	34892.71
497.26	35000.37
497.44	35182.93
497.62	35665.08
497.79	36168.30
497.97	35934.24
498.14	36336.82
498.32	36608.32
498.50	36582.57
498.67	36938.33
498.85	36622.36
499.03	37158.34
499.20	37020.25
499.38	37352.61
499.56	37420.48
499.73	37181.75
499.91	37701.35
500.08	38036.05
500.26	37949.45
500.44	38143.71
500.61	38153.07
500.79	37951.79
500.97	38579.05
501.14	38345.00
501.32	38829.49
501.49	38780.34
501.67	38864.60
501.84	39278.87
502.02	39189.93
502.20	39599.52
502.37	39541.01
502.55	39225.04
502.72	39576.12
502.90	39690.80
503.07	39777.40
503.25	40088.70
503.43	39955.29
503.60	40289.98
503.78	40491.27
503.95	40795.54
504.13	41031.93
504.30	40865.75
504.48	40453.82
504.65	41036.61
504.83	41394.71
505.01	41558.55
505.18	41455.57
505.36	42087.51
505.53	41895.59
505.71	41708.35
505.88	42094.53
506.06	41549.19
506.23	42319.23
506.41	42089.85
506.58	42464.34
506.76	42373.06
506.93	42876.27
507.11	42740.52
507.28	42897.34
507.46	43229.69
507.63	42995.64
507.81	43606.52
507.98	43325.66
508.16	43620.56
508.33	43910.79
508.50	43896.75
508.68	44378.90
508.85	44217.40
509.03	44746.36
509.20	44598.91
509.38	45036.59
509.55	44692.53
509.73	44552.10
509.90	44996.80
510.08	44776.79
510.25	44978.07
510.42	45322.13
510.60	45577.25
510.77	45675.55
510.95	45839.39
511.12	45375.97
511.30	45586.61
511.47	45703.64
511.64	45544.48
511.82	46040.68
511.99	45958.76
512.17	45942.38
512.34	46178.77
512.51	47014.34
512.69	46773.27
512.86	46639.86
513.04	46829.44
513.21	46866.89
513.38	47000.30
513.56	47283.50
513.73	47196.90
513.90	47196.90
514.08	47519.90
514.25	47681.39
514.43	48158.86
514.60	47718.84
514.77	47583.09
514.95	48051.20
515.12	47543.30
515.29	47882.68
515.47	48432.71
515.64	48582.50
515.81	48121.41
515.99	48404.62
516.16	49031.88
516.33	48762.72
516.51	48947.62
516.68	48699.53
516.85	49024.86
517.03	49130.19
517.20	49439.14
517.37	49291.68
517.54	49029.54
517.72	49162.95
517.89	49659.15
518.06	49642.76
518.24	49567.87
518.41	49750.43
518.58	49855.75
518.75	49378.28
518.93	49982.14
519.10	49724.68
519.27	50365.99
519.45	49958.73
519.62	50361.31
519.79	50223.22
519.96	50000.86
520.14	50632.81
520.31	50211.51
520.48	50520.46
520.65	50703.03
520.83	51143.05
521.00	51121.98
521.17	51089.21
521.34	51086.87
521.52	50997.93
521.69	50927.72
521.86	51246.03
522.03	51269.43
522.20	52034.79
522.38	51917.76
522.55	51760.95
522.72	51407.53
522.89	51674.35
523.07	51655.62
523.24	51646.26
523.41	51625.20
523.58	51688.39
523.75	52196.29
523.92	52252.46
524.10	52175.22
524.27	52088.62
524.44	52341.40
524.61	51915.42
524.78	52596.52
524.96	52481.83
525.13	52540.35
525.30	52772.06
525.47	53167.61
525.64	52783.76
525.81	52912.49
525.98	52704.18
526.16	52875.04
526.33	52980.37
526.50	53179.31
526.67	52942.92
526.84	53205.06
527.01	52992.07
527.18	53308.04
527.36	53294.00
527.53	53315.06
527.70	53661.46
527.87	53481.24
528.04	53265.91
528.21	53684.87
528.38	53492.94
528.55	53939.99
528.72	53546.78
528.89	53783.17
529.07	53715.29
529.24	53918.92
529.41	53841.68
529.58	53832.32
529.75	54057.01
529.92	54185.74
530.09	54040.63
530.26	54230.21
530.43	54251.28
530.60	53963.39
530.77	54038.29
530.94	54494.69
531.11	54082.76
531.28	54588.31
531.46	54600.02
531.63	54511.08
531.80	54555.55
531.97	54703.00
532.14	54906.63
532.31	54808.32
532.48	54700.66
532.65	55051.74
532.82	54621.08
532.99	55000.25
533.16	54780.24
533.33	55079.83
533.50	55210.90
533.67	55124.30
533.84	55063.44
534.01	55166.43
534.18	55100.89
534.35	55543.25
534.52	55152.38
534.69	55278.77
534.86	55456.65
535.03	55473.04
535.20	55683.69
535.37	55580.70
535.54	55482.40
535.71	55632.19
535.88	55758.58
536.05	55852.20
536.22	55880.29
536.38	55789.01
536.55	55854.54
536.72	55896.67
536.89	55929.44
537.06	55765.60
537.23	55959.87
537.40	55695.39
537.57	56097.96
537.74	55992.64
537.91	56273.50
538.08	56032.42
538.25	56107.32
538.42	56093.28
538.59	56247.75
538.75	56142.43
538.92	56353.08
539.09	56388.19
539.26	56545.00
539.43	56170.52
539.60	56591.81
539.77	56413.93
539.94	56734.59
540.11	56540.32
540.28	56725.22
540.44	56528.62
540.61	56608.20
540.78	56865.66
540.95	56615.22
541.12	56545.00
541.29	56624.58
541.46	56720.54
541.62	56877.36
541.79	56942.89
541.96	56528.62
542.13	56966.30
542.30	56935.87
542.47	56959.28
542.63	57188.65
542.80	57104.39
542.97	57310.36
543.14	57546.75
543.31	57284.61
543.48	57600.58
543.64	57923.58
543.81	57422.70
543.98	57511.64
544.15	57448.45
544.32	57729.31
544.48	57829.96
544.65	57537.39
544.82	57528.03
544.99	57682.50
545.16	57918.90
545.32	57446.11
545.49	57897.83
545.66	57874.43
545.83	57853.36
546.00	57961.03
546.16	57689.52
546.33	57867.40
546.50	57853.36
546.67	57930.60
546.83	57609.95
547.00	57822.93
547.17	57874.43
547.34	58127.20
547.50	58087.42
547.67	58382.32
547.84	58145.93
548.00	58363.60
548.17	58445.52
548.34	58412.75
548.51	58431.47
548.67	58443.18
548.84	58398.71
549.01	58394.03
549.18	58234.87
549.34	58333.17
549.51	58614.04
549.68	58719.36
549.84	58553.18
550.01	58447.86
550.18	58721.70
550.34	58623.40
550.51	58604.67
550.68	58805.96
550.84	58513.39
551.01	58805.96
551.18	58609.35
551.34	58866.81
551.51	58836.39
551.68	58906.60
551.84	58782.55
552.01	58677.23
552.18	58820.00
552.34	58396.37
552.51	58827.02
552.68	58478.28
552.84	58773.19
553.01	59037.67
553.18	59124.27
553.34	59138.32
553.51	58932.35
553.67	58862.13
553.84	59358.33
554.01	59236.62
554.17	59154.70
554.34	59260.02
554.51	59267.05
554.67	59105.55
554.84	59164.06
555.00	59365.35
555.17	59112.57
555.33	59337.26
555.50	59332.58
555.67	59339.60
555.83	59222.58
556.00	59276.41
556.16	59641.53
556.33	59306.83
556.50	59334.92
556.66	59683.66
556.83	59400.46
556.99	59767.92
557.16	59693.02
557.32	59737.49
557.49	59896.65
557.65	59641.53
557.82	59606.42
557.98	59559.61
558.15	59629.83
558.32	59786.64
558.48	59653.23
558.65	59725.79
558.81	59695.36
558.98	59749.20
559.14	59793.67
559.31	59891.97
559.47	59931.76
559.64	59877.93
559.80	59875.58
559.97	59793.67
560.13	59917.71
560.30	59737.49
560.46	59959.84
560.63	59931.76
560.79	59999.63
560.96	60219.64
561.12	60074.53
561.29	60065.17
561.45	60133.04
561.61	60046.44
561.78	60034.74
561.94	60009.00
562.11	60090.91
562.27	59994.95
562.44	60172.83
562.60	60102.62
562.77	60250.07
562.93	60095.60
563.10	60065.17
563.26	60016.02
563.42	60512.21
563.59	60200.92
563.75	60097.94
563.92	60142.41
564.08	60210.28
564.24	60182.19
564.41	60310.92
564.57	60388.16
564.74	60214.96
564.90	60243.05
565.07	60238.37
565.23	60397.52
565.39	60236.03
565.56	60458.38
565.72	60374.12
565.88	60449.02
566.05	60331.99
566.21	60322.63
566.38	60596.47
566.54	60444.33
566.70	60441.99
566.87	60444.33
567.03	60301.56
567.19	60453.70
567.36	60481.78
567.52	60409.23
567.68	60664.35
567.85	60500.51
568.01	60317.95
568.17	60437.31
568.34	60669.03
568.50	60509.87
568.66	60577.75
568.83	60708.82
568.99	60584.77
569.15	60566.04
569.32	60596.47
569.48	60699.45
569.64	60687.75
569.81	60535.62
569.97	60416.25
570.13	60657.32
570.30	60434.97
570.46	60725.20
570.62	60566.04
570.78	60533.28
570.95	60622.22
571.11	60980.32
571.27	60683.07
571.43	60755.63
571.60	60842.23
571.76	60690.09
571.92	60985.00
572.09	60870.31
572.25	60795.42
572.41	60514.55
572.57	60598.81
572.74	60952.23
572.90	60764.99
573.06	60912.44
573.22	60694.77
573.38	60956.91
573.55	60762.65
573.71	61148.84
573.87	60692.43
574.03	60797.76
574.20	60867.97
574.36	60741.58
574.52	60935.85
574.68	60867.97
574.84	61045.85
575.01	60846.91
575.17	60975.64
575.33	60863.29
575.49	60973.30
575.65	60896.06
575.82	60966.27
575.98	61085.64
576.14	61080.96
576.30	61038.83
576.46	60977.98
576.62	60956.91
576.79	60912.44
576.95	60818.82
577.11	60989.68
577.27	61162.88
577.43	61064.58
577.59	60828.18
577.75	60945.21
577.92	60952.23
578.08	60886.70
578.24	60842.23
578.40	61167.56
578.56	61291.61
578.72	61116.07
578.88	61123.09
579.04	61303.31
579.21	61151.18
579.37	61104.37
579.53	61289.27
579.69	60917.12
579.85	60912.44
580.01	61139.47
580.17	60912.44
580.33	61165.22
580.49	61146.50
580.65	61167.56
580.82	61008.40
580.98	60977.98
581.14	61125.43
581.30	61237.78
581.46	61109.05
581.62	61158.20
581.78	60910.10
581.94	61181.60
582.10	61165.22
582.26	61125.43
582.42	61277.57
582.58	61083.30
582.74	61298.63
582.90	61130.11
583.06	61214.37
583.22	60842.23
583.38	61202.67
583.54	60959.25
583.70	61249.48
583.86	61141.81
584.02	61029.47
584.18	61240.12
584.34	61240.12
584.50	61116.07
584.66	61118.41
584.82	61080.96
584.98	61193.31
585.14	61254.16
585.30	61097.34
585.46	61272.88
585.62	61329.06
585.78	61380.55
585.94	61162.88
586.10	61155.86
586.26	61153.52
586.42	61352.46
586.58	61336.08
586.74	61310.33
586.90	61186.28
587.06	61097.34
587.22	61544.39
587.38	61272.88
587.54	61701.20
587.70	61408.64
587.86	61244.80
588.02	61249.48
588.18	61623.96
588.34	61289.27
