SpectraSuite Data File
++++++++++++++++++++++++++++++++++++
Date: Fri Oct 25 11:23:13 EDT 2013
User: price-jones
Dark Spectrum Present: No
Reference Spectrum Present: No
Number of Sampled Component Spectra: 1
Spectrometers: USB2+H05261
Integration Time (usec): 100000 (USB2+H05261)
Spectra Averaged: 1 (USB2+H05261)
Boxcar Smoothing: 0 (USB2+H05261)
Correct for Electrical Dark: No (USB2+H05261)
Strobe/Lamp Enabled: No (USB2+H05261)
Correct for Detector Non-linearity: No (USB2+H05261)
Correct for Stray Light: No (USB2+H05261)
Number of Pixels in Processed Spectrum: 2048
>>>>>Begin Processed Spectral Data<<<<<
365.73	203.63
365.92	203.63
366.12	203.63
366.32	147.45
366.52	107.66
366.72	180.22
366.91	168.52
367.11	100.64
367.31	163.84
367.51	84.26
367.70	77.24
367.90	117.03
368.10	142.77
368.30	154.48
368.49	145.11
368.69	154.48
368.89	128.73
369.09	98.30
369.28	173.20
369.48	210.65
369.68	124.05
369.87	205.97
370.07	189.58
370.27	299.59
370.47	271.50
370.66	592.16
370.86	634.29
371.06	613.22
371.25	702.16
371.45	709.18
371.65	713.86
371.84	653.01
372.04	580.45
372.24	702.16
372.44	690.46
372.63	704.50
372.83	732.59
373.03	765.36
373.22	704.50
373.42	751.31
373.62	779.40
373.81	814.51
374.01	807.48
374.21	791.10
374.40	739.61
374.60	821.53
374.79	784.08
374.99	814.51
375.19	767.70
375.38	753.65
375.58	858.98
375.78	802.80
375.97	833.23
376.17	884.72
376.37	931.53
376.56	936.21
376.76	922.17
376.95	847.27
377.15	849.61
377.35	896.43
377.54	938.55
377.74	891.74
377.93	938.55
378.13	922.17
378.33	938.55
378.52	952.60
378.72	919.83
378.91	880.04
379.11	952.60
379.31	875.36
379.50	889.40
379.70	1008.77
379.89	1008.77
380.09	987.71
380.28	947.92
380.48	1041.54
380.68	973.66
380.87	1001.75
381.07	1029.84
381.26	1055.58
381.46	980.68
381.65	997.07
381.85	1097.71
382.04	1067.28
382.24	1011.11
382.43	1029.84
382.63	1036.86
382.83	1060.26
383.02	1090.69
383.22	1018.13
383.41	1142.18
383.61	1163.25
383.80	1231.12
384.00	1172.61
384.19	1142.18
384.39	1142.18
384.58	1090.69
384.78	1135.16
384.97	1184.31
385.17	1207.72
385.36	1123.46
385.56	1179.63
385.75	1116.44
385.95	1212.40
386.14	1153.88
386.34	1132.82
386.53	1205.38
386.72	1158.57
386.92	1287.29
387.11	1238.14
387.31	1224.10
387.50	1270.91
387.70	1308.36
387.89	1252.19
388.09	1331.76
388.28	1299.00
388.48	1207.72
388.67	1357.51
388.86	1308.36
389.06	1390.28
389.25	1303.68
389.45	1348.15
389.64	1317.72
389.84	1420.71
390.03	1350.49
390.22	1390.28
390.42	1418.36
390.61	1437.09
390.81	1495.60
391.00	1357.51
391.19	1439.43
391.39	1462.83
391.58	1423.05
391.78	1441.77
391.97	1530.71
392.16	1448.79
392.36	1540.07
392.55	1511.99
392.75	1469.86
392.94	1556.46
393.13	1544.75
393.33	1563.48
393.52	1568.16
393.71	1605.61
393.91	1579.86
394.10	1523.69
394.29	1621.99
394.49	1652.42
394.68	1638.38
394.88	1582.20
395.07	1647.74
395.26	1689.87
395.46	1678.16
395.65	1757.74
395.84	1743.70
396.04	1689.87
396.23	1746.04
396.42	1792.85
396.62	1795.19
396.81	1797.53
397.00	1682.85
397.19	1806.89
397.39	1816.26
397.58	1905.20
397.77	1858.39
397.97	1816.26
398.16	1837.32
398.35	1820.94
398.55	1891.15
398.74	1907.54
398.93	1940.30
399.12	1989.46
399.32	1886.47
399.51	1898.17
399.70	2078.40
399.90	2071.37
400.09	1937.96
400.28	2045.63
400.47	2052.65
400.67	2033.93
400.86	2174.36
401.05	2040.95
401.24	2162.66
401.44	2186.06
401.63	2183.72
401.82	2197.76
402.01	2125.21
402.21	2125.21
402.40	2202.44
402.59	2143.93
402.78	2303.09
402.97	2202.44
403.17	2251.60
403.36	2246.91
403.55	2415.43
403.74	2422.45
403.93	2375.64
404.13	2352.24
404.32	2373.30
404.51	2342.88
404.70	2462.24
404.89	2497.35
405.09	2476.29
405.28	2434.16
405.47	2370.96
405.66	2452.88
405.85	2520.76
406.05	2518.42
406.24	2614.38
406.43	2619.06
406.62	2551.18
406.81	2710.34
407.00	2541.82
407.20	2630.76
407.39	2700.98
407.58	2679.91
407.77	2729.06
407.96	2682.25
408.15	2747.79
408.34	2792.26
408.54	2825.03
408.73	2860.13
408.92	2801.62
409.11	2857.79
409.30	2832.05
409.49	2895.24
409.68	2993.55
409.87	2949.08
410.07	3098.87
410.26	2972.48
410.45	3054.40
410.64	3084.83
410.83	3173.77
411.02	3180.79
411.21	3133.98
411.40	3213.56
411.59	3255.69
411.78	3143.34
411.98	3208.87
412.17	3318.88
412.36	3316.54
412.55	3325.90
412.74	3372.71
412.93	3382.07
413.12	3328.24
413.31	3538.89
413.50	3398.46
413.69	3599.74
413.88	3681.66
414.07	3679.32
414.26	3627.83
414.45	3756.56
414.64	3740.18
414.83	3702.73
415.02	3946.14
415.22	3927.42
415.41	3936.78
415.60	3922.74
415.79	3871.25
415.98	3941.46
416.17	4049.13
416.36	4121.68
416.55	3960.19
416.74	4133.39
416.93	4067.85
417.12	4124.02
417.31	4215.30
417.50	4154.45
417.69	4358.08
417.88	4367.44
418.07	4383.82
418.26	4514.89
418.45	4393.19
418.64	4547.66
418.83	4594.47
419.02	4449.36
419.21	4505.53
419.39	4571.07
419.58	4531.28
419.77	4360.42
419.96	4631.92
420.15	4538.30
420.34	4582.77
420.53	4755.97
420.72	4840.23
420.91	4755.97
421.10	4784.06
421.29	4842.57
421.48	4770.01
421.67	4809.80
421.86	4746.61
422.05	4868.31
422.24	4762.99
422.43	4758.31
422.61	5034.49
422.80	4966.62
422.99	4910.44
423.18	5055.56
423.37	5057.90
423.56	4971.30
423.75	4875.34
423.94	4690.43
424.13	4613.20
424.32	4746.61
424.50	4926.83
424.69	5027.47
424.88	5069.60
425.07	5179.61
425.26	5048.54
425.45	5177.26
425.64	5181.95
425.83	4999.38
426.01	5104.71
426.20	4983.00
426.39	5151.52
426.58	5219.39
426.77	5102.37
426.96	5177.26
427.15	5034.49
427.33	5277.91
427.52	5266.21
427.71	5291.95
427.90	5219.39
428.09	5413.66
428.28	5490.90
428.46	5270.89
428.65	5298.97
428.84	5558.77
429.03	5664.10
429.22	5343.44
429.40	5500.26
429.59	5633.67
429.78	5355.15
429.97	5359.83
430.16	5668.78
430.34	5645.37
430.53	5738.99
430.72	5813.89
430.91	5760.06
431.10	5753.04
431.28	5809.21
431.47	5839.64
431.66	6038.58
431.85	5813.89
432.03	5919.21
432.22	6080.71
432.41	5940.28
432.60	5937.94
432.79	5792.83
432.97	5998.79
433.16	5919.21
433.35	6026.88
433.54	6399.02
433.72	6094.76
433.91	6169.65
434.10	6286.68
434.28	6031.56
434.47	6256.25
434.66	6300.72
434.85	6635.42
435.03	6530.09
435.22	6338.17
435.41	6525.41
435.59	6497.33
435.78	6534.78
435.97	6429.45
436.16	6513.71
436.34	6478.60
436.53	6546.48
436.72	6710.32
436.90	6387.32
437.09	6715.00
437.28	6523.07
437.46	6616.69
437.65	6853.09
437.84	6883.52
438.02	6827.34
438.21	6920.96
438.40	6747.76
438.58	7068.42
438.77	7108.21
438.96	6857.77
439.14	7105.87
439.33	7197.15
439.52	7353.96
439.70	6986.50
439.89	7379.71
440.08	7295.45
440.26	7473.33
440.45	7442.90
440.63	7693.34
440.82	7674.62
441.01	7756.54
441.19	7606.74
441.38	7782.28
441.57	7878.24
441.75	7857.18
441.94	7918.03
442.12	7922.71
442.31	8287.84
442.50	8093.57
442.68	8093.57
442.87	7946.12
443.05	8142.72
443.24	8329.97
443.43	8025.70
443.61	8124.00
443.80	8503.17
443.98	7941.44
444.17	8006.97
444.35	8414.23
444.54	8360.39
444.73	8383.80
444.91	8414.23
445.10	8217.62
445.28	8463.38
445.47	8236.35
445.65	8540.61
445.84	8564.02
446.02	8493.80
446.21	8599.13
446.39	8573.38
446.58	8622.53
446.77	8564.02
446.95	8397.84
447.14	8416.57
447.32	8589.77
447.51	8358.05
447.69	8638.92
447.88	8697.43
448.06	8557.00
448.25	8692.75
448.43	8830.84
448.62	8784.03
448.80	8601.47
448.99	8821.48
449.17	8865.95
449.36	8587.43
449.54	8784.03
449.73	9041.49
449.91	9097.66
450.10	8847.22
450.28	9013.40
450.46	9034.47
450.65	9132.77
450.83	9057.87
451.02	9139.79
451.20	9235.75
451.39	9252.14
451.57	9582.15
451.76	9242.78
451.94	9413.63
452.13	9341.08
452.31	9504.92
452.49	9420.66
452.68	9352.78
452.86	9699.18
453.05	9490.87
453.23	9565.77
453.42	9579.81
453.60	9516.62
453.78	9664.07
453.97	9547.05
454.15	9537.68
454.34	9848.97
454.52	9645.35
454.70	9659.39
454.89	9926.21
455.07	9956.64
455.26	9926.21
455.44	10076.01
455.62	10057.28
455.81	9977.70
455.99	10148.56
456.17	10296.02
456.36	10164.95
456.54	10120.48
456.73	10602.63
456.91	10658.80
457.09	10487.94
457.28	10729.02
457.46	10483.26
457.64	10766.46
457.83	10684.55
458.01	10595.61
458.19	10780.51
458.38	10590.92
458.56	10745.40
458.74	10902.22
458.93	10796.89
459.11	10827.32
459.29	10803.91
459.48	10923.28
459.66	10890.51
459.84	11143.29
460.03	11274.36
460.21	10991.16
460.39	10986.47
460.57	11117.54
460.76	11220.53
460.94	11159.67
461.12	11485.01
461.31	11288.40
461.49	11122.23
461.67	11360.96
461.85	11529.48
462.04	11346.92
462.22	11487.35
462.40	11749.49
462.59	11321.17
462.77	11412.45
462.95	11527.14
463.13	11573.95
463.32	11716.72
463.50	11943.75
463.68	12032.69
463.86	12084.19
464.05	11712.04
464.23	11978.86
464.41	11990.56
464.59	11824.39
464.78	12383.77
464.96	12063.12
465.14	12063.12
465.32	12194.19
465.50	12077.16
465.69	12409.52
465.87	12131.00
466.05	12365.05
466.23	12203.55
466.41	12224.62
466.60	12484.42
466.78	12184.83
466.96	12571.02
467.14	12336.96
467.32	12437.61
467.51	12442.29
467.69	12390.80
467.87	12676.34
468.05	12620.17
468.23	12526.55
468.41	12648.26
468.60	12767.62
468.78	12915.08
468.96	12456.33
469.14	12826.14
469.32	13202.96
469.50	12765.28
469.69	13048.49
469.87	13338.71
470.05	13188.92
470.23	13427.65
470.41	13345.73
470.59	13626.60
470.77	13135.09
470.95	13596.17
471.14	13565.74
471.32	13366.80
471.50	13650.00
471.68	13722.56
471.86	14129.81
472.04	13858.31
472.22	14185.99
472.40	13987.04
472.58	14019.81
472.77	14183.65
472.95	14288.97
473.13	14707.93
473.31	14232.80
473.49	14504.30
473.67	14211.73
473.85	14427.06
474.03	14871.76
474.21	14787.50
474.39	14853.04
474.57	14745.38
474.75	14728.99
474.93	15115.18
475.12	15089.43
475.30	15431.15
475.48	15398.38
475.66	15466.26
475.84	15192.42
476.02	15768.19
476.20	15623.08
476.38	15712.02
476.56	16280.77
476.74	16245.66
476.92	16107.57
477.10	15960.11
477.28	16149.70
477.46	16388.43
477.64	16542.91
477.82	16657.59
478.00	16779.30
478.18	17249.75
478.36	17111.66
478.54	17298.90
478.72	17427.63
478.90	17837.22
479.08	17710.83
479.26	17980.00
479.44	18012.76
479.62	18031.49
479.80	18256.18
479.98	18464.49
480.16	18757.05
480.34	18771.10
480.52	18586.19
480.70	18979.40
480.88	18586.19
481.06	18848.33
481.24	18710.24
481.41	19250.91
481.59	19637.09
481.77	19597.31
481.95	19456.87
482.13	20037.33
482.31	19562.20
482.49	20585.01
482.67	20486.71
482.85	20538.20
483.03	20865.88
483.21	21027.37
483.39	21081.21
483.57	21184.19
483.74	21446.33
483.92	21661.66
484.10	21493.14
484.28	22010.40
484.46	22040.82
484.64	22499.57
484.82	22061.89
485.00	22525.32
485.18	22782.77
485.35	23197.05
485.53	22953.63
485.71	23161.94
485.89	23672.18
486.07	23604.30
486.25	23910.91
486.43	23786.86
486.61	23920.28
486.78	24318.17
486.96	24278.38
487.14	24680.95
487.32	24620.10
487.50	25207.57
487.68	25284.81
487.85	25287.15
488.03	26188.25
488.21	26396.56
488.39	26183.57
488.57	26450.39
488.75	26242.09
488.92	26930.20
489.10	27042.55
489.28	27211.07
489.46	27709.60
489.64	27019.14
489.81	28276.01
489.99	28018.55
490.17	28299.42
490.35	28481.98
490.53	28783.91
490.70	28542.83
490.88	28819.02
491.06	29319.89
491.24	29132.65
491.41	29280.10
491.59	29668.63
491.77	29675.65
491.95	29933.11
492.13	30213.98
492.30	30441.01
492.48	30263.13
492.66	30508.88
492.84	30539.31
493.01	30780.39
493.19	30855.28
493.37	31550.42
493.54	31290.62
493.72	32088.74
493.90	31810.22
494.08	32154.28
494.25	32367.27
494.43	32446.85
494.61	32428.12
494.79	32828.35
494.96	32865.80
495.14	33055.39
495.32	33289.44
495.49	33684.99
495.67	33589.03
495.85	33982.24
496.02	34007.98
496.20	34316.93
496.38	34405.88
496.55	34352.04
496.73	35016.75
496.91	34689.08
497.09	35503.59
497.26	35157.19
497.44	35679.13
497.62	35943.61
497.79	36233.83
497.97	35810.20
498.14	35915.52
498.32	36624.70
498.50	36790.88
498.67	37041.32
498.85	36643.43
499.03	37057.70
499.20	37436.87
499.38	37146.64
499.56	37488.36
499.73	37464.96
499.91	37809.01
500.08	37888.59
500.26	38000.94
500.44	38391.81
500.61	37975.19
500.79	38043.07
500.97	38419.89
501.14	38698.42
501.32	38616.50
501.49	39246.10
501.67	38778.00
501.84	39138.44
502.02	38916.09
502.20	39438.03
502.37	39721.23
502.55	39522.29
502.72	39922.52
502.90	39964.65
503.07	39789.11
503.25	40568.51
503.43	40348.50
503.60	40158.91
503.78	40456.16
503.95	40477.22
504.13	40879.80
504.30	40678.51
504.48	40760.43
504.65	40957.03
504.83	41432.16
505.01	41750.48
505.18	41717.71
505.36	42061.77
505.53	41574.94
505.71	42410.51
505.88	42525.19
506.06	41668.56
506.23	42625.84
506.41	41907.29
506.58	42653.92
506.76	42717.12
506.93	42995.64
507.11	42471.36
507.28	42660.94
507.46	42787.33
507.63	43636.95
507.81	43707.16
507.98	43103.31
508.16	43466.09
508.33	44039.52
508.50	43714.19
508.68	44268.89
508.85	44453.79
509.03	43920.15
509.20	44610.61
509.38	44821.26
509.55	45020.20
509.73	44720.62
509.90	45326.81
510.08	45057.65
510.25	45088.08
510.42	44914.88
510.60	45717.68
510.77	45464.91
510.95	45453.20
511.12	45701.30
511.30	45705.98
511.47	45591.30
511.64	46010.25
511.82	45975.14
511.99	46206.86
512.17	46293.46
512.34	46328.56
512.51	46951.15
512.69	46756.88
512.86	46902.00
513.04	46857.52
513.21	46770.93
513.38	47288.18
513.56	47143.07
513.73	47370.10
513.90	47643.94
514.08	47082.22
514.25	47372.44
514.43	47782.04
514.60	47611.18
514.77	47669.69
514.95	48210.35
515.12	47721.18
515.29	47910.77
515.47	48364.83
515.64	48266.53
515.81	48538.03
515.99	48395.26
516.16	48889.11
516.33	49029.54
516.51	48971.03
516.68	49031.88
516.85	48861.02
517.03	49069.33
517.20	49258.91
517.37	49261.26
517.54	49427.43
517.72	49602.97
517.89	49539.78
518.06	49659.15
518.24	49563.18
518.41	49467.22
518.58	49921.29
518.75	49844.05
518.93	49890.86
519.10	49991.50
519.27	50005.55
519.45	50429.18
519.62	50333.22
519.79	50454.93
519.96	50361.31
520.14	50403.44
520.31	50230.24
520.48	50569.61
520.65	50923.04
520.83	51047.08
521.00	50798.99
521.17	51138.36
521.34	50941.76
521.52	51220.28
521.69	51278.80
521.86	51107.94
522.03	51412.21
522.20	51697.75
522.38	51868.61
522.55	51491.79
522.72	51554.98
522.89	51632.22
523.07	51915.42
523.24	51484.76
523.41	52289.91
523.58	51793.71
523.75	52449.06
523.92	52215.01
524.10	52376.51
524.27	52406.94
524.44	52535.66
524.61	52423.32
524.78	52743.97
524.96	52652.69
525.13	52678.44
525.30	52811.85
525.47	52914.83
525.64	52825.89
525.81	52837.59
525.98	53020.16
526.16	52886.74
526.33	53347.83
526.50	53359.53
526.67	53326.77
526.84	53286.98
527.01	53357.19
527.18	53270.59
527.36	53162.93
527.53	53179.31
527.70	53778.49
527.87	53701.25
528.04	53380.60
528.21	53787.85
528.38	53853.39
528.55	53776.15
528.72	53572.52
528.89	53495.28
529.07	53801.89
529.24	53776.15
529.41	54176.38
529.58	54035.95
529.75	53881.47
529.92	54071.06
530.09	54227.87
530.26	54604.70
530.43	54213.83
530.60	53972.75
530.77	54251.28
530.94	54174.04
531.11	54316.81
531.28	54251.28
531.46	54574.27
531.63	54646.83
531.80	54602.36
531.97	54808.32
532.14	54805.98
532.31	54433.84
532.48	54979.18
532.65	54766.20
532.82	54801.30
532.99	55075.15
533.16	54925.35
533.33	54925.35
533.50	55220.26
533.67	55011.95
533.84	54906.63
534.01	55337.29
534.18	55178.13
534.35	55458.99
534.52	55180.47
534.69	55437.93
534.86	55828.80
535.03	55084.51
535.20	55473.04
535.37	55643.90
535.54	55573.68
535.71	55723.47
535.88	55812.41
536.05	55625.17
536.22	55856.88
536.38	55936.46
536.55	55714.11
536.72	55793.69
536.89	56048.81
537.06	55922.42
537.23	55957.53
537.40	55859.23
537.57	56011.36
537.74	56203.28
537.91	56250.09
538.08	56268.82
538.25	56058.17
538.42	56018.38
538.59	56432.66
538.75	56203.28
538.92	56371.80
539.09	56715.86
539.26	56463.08
539.43	56196.26
539.60	56552.02
539.77	56516.92
539.94	56662.03
540.11	56577.77
540.28	56577.77
540.44	56741.61
540.61	56788.42
540.78	56729.90
540.95	56907.79
541.12	56278.18
541.29	56839.91
541.46	56898.42
541.62	56968.64
541.79	57001.41
541.96	56523.94
542.13	56779.06
542.30	56757.99
542.47	57066.94
542.63	56945.23
542.80	57167.58
542.97	57116.09
543.14	57511.64
543.31	57446.11
543.48	57453.13
543.64	57652.08
543.81	57600.58
543.98	57471.85
544.15	57762.08
544.32	57731.65
544.48	57773.78
544.65	57738.68
544.82	57670.80
544.99	57602.92
545.16	57649.74
545.32	57518.67
545.49	57996.13
545.66	58103.80
545.83	57977.41
546.00	58049.97
546.16	58035.92
546.33	57825.28
546.50	57670.80
546.67	57855.70
546.83	57584.20
547.00	58042.95
547.17	57846.34
547.34	58010.18
547.50	58166.99
547.67	58405.73
547.84	58265.30
548.00	58464.24
548.17	58670.21
548.34	58555.52
548.51	58543.82
548.67	58735.74
548.84	58623.40
549.01	58375.30
549.18	58199.76
549.34	58347.21
549.51	58408.07
549.68	58539.14
549.84	58822.34
550.01	58599.99
550.18	58489.99
550.34	58873.84
550.51	58831.71
550.68	58836.39
550.84	58274.66
551.01	58834.05
551.18	58672.55
551.34	58892.56
551.51	58653.82
551.68	58866.81
551.84	58930.01
552.01	58834.05
552.18	58864.47
552.34	58810.64
552.51	59044.69
552.68	58817.66
552.84	58976.82
553.01	59285.77
553.18	59086.82
553.34	59042.35
553.51	59096.19
553.67	59112.57
553.84	59236.62
554.01	59028.31
554.17	59166.40
554.34	59271.73
554.51	59250.66
554.67	59278.75
554.84	59414.50
555.00	59428.54
555.17	59299.81
555.33	59126.61
555.50	59238.96
555.67	59089.16
555.83	59224.92
556.00	59175.76
556.16	59798.35
556.33	59465.99
556.50	59517.48
556.66	59489.40
556.83	59351.30
556.99	59693.02
557.16	59845.16
557.32	59693.02
557.49	59906.01
557.65	59426.20
557.82	59540.89
557.98	59578.34
558.15	59805.37
558.32	59674.30
558.48	59868.56
558.65	59863.88
558.81	59721.11
558.98	59655.57
559.14	59889.63
559.31	59728.13
559.47	59966.87
559.64	60016.02
559.80	59920.05
559.97	60198.58
560.13	60018.36
560.30	59821.75
560.46	59870.90
560.63	60289.86
560.79	60114.32
560.96	60095.60
561.12	60018.36
561.29	60240.71
561.45	59920.05
561.61	60039.42
561.78	60076.87
561.94	60081.55
562.11	60144.75
562.27	60179.85
562.44	60067.51
562.60	60292.20
562.77	60149.43
562.93	60161.13
563.10	60170.49
563.26	60102.62
563.42	60640.94
563.59	60198.58
563.75	60207.94
563.92	60273.48
564.08	60245.39
564.24	60449.02
564.41	60301.56
564.57	60498.17
564.74	60486.46
564.90	60383.48
565.07	60432.63
565.23	60299.22
565.39	60395.18
565.56	60392.84
565.72	60612.85
565.88	60376.46
566.05	60418.59
566.21	60519.23
566.38	60491.15
566.54	60594.13
566.70	60542.64
566.87	60587.11
567.03	60341.35
567.19	60753.29
567.36	60662.00
567.52	60549.66
567.68	60781.37
567.85	60528.59
568.01	60605.83
568.17	60411.57
568.34	60584.77
568.50	60767.33
568.66	60479.44
568.83	60725.20
568.99	60594.13
569.15	60701.79
569.32	60729.88
569.48	60650.30
569.64	60903.08
569.81	60739.24
569.97	60650.30
570.13	60781.37
570.30	60610.51
570.46	60734.56
570.62	60809.46
570.78	60910.10
570.95	60727.54
571.11	61050.53
571.27	60720.52
571.43	60582.43
571.60	60898.40
571.76	60732.22
571.92	60959.25
572.09	60893.72
572.25	60844.57
572.41	60940.53
572.57	60982.66
572.74	60992.02
572.90	61099.68
573.06	60985.00
573.22	60842.23
573.38	60849.25
573.55	60891.38
573.71	61069.26
573.87	60905.42
574.03	60673.71
574.20	60793.07
574.36	60802.44
574.52	61010.74
574.68	60882.02
574.84	61031.81
575.01	60896.06
575.17	60889.04
575.33	61006.06
575.49	60900.74
575.65	61045.85
575.82	61127.77
575.98	60982.66
576.14	61155.86
576.30	60949.89
576.46	60912.44
576.62	61010.74
576.79	60987.34
576.95	60919.46
577.11	61141.81
577.27	61249.48
577.43	60982.66
577.59	60996.70
577.75	60954.57
577.92	60980.32
578.08	61076.28
578.24	61127.77
578.40	61055.21
578.56	61113.73
578.72	61087.98
578.88	61373.53
579.04	61134.79
579.21	61230.75
579.37	61078.62
579.53	61123.09
579.69	60999.04
579.85	60975.64
580.01	60999.04
580.17	61080.96
580.33	61179.26
580.49	61176.92
580.65	61359.48
580.82	61123.09
580.98	61076.28
581.14	61048.19
581.30	61237.78
581.46	61137.13
581.62	61364.17
581.78	61223.73
581.94	61169.90
582.10	61132.45
582.26	61036.49
582.42	61048.19
582.58	61073.94
582.74	61085.64
582.90	61064.58
583.06	61116.07
583.22	61155.86
583.38	61064.58
583.54	61160.54
583.70	61137.13
583.86	61382.89
584.02	60825.84
584.18	61307.99
584.34	61176.92
584.50	60985.00
584.66	61116.07
584.82	61179.26
584.98	61270.54
585.14	61300.97
585.30	61158.20
585.46	61319.70
585.62	61460.13
585.78	61256.50
585.94	61183.94
586.10	61179.26
586.26	61102.03
586.42	61385.23
586.58	61317.35
586.74	61263.52
586.90	61240.12
587.06	61258.84
587.22	61261.18
587.38	61153.52
587.54	61638.01
587.70	61572.47
587.86	61509.28
588.02	61385.23
588.18	61509.28
588.34	61235.44
588.49	61212.03
