SpectraSuite Data File
++++++++++++++++++++++++++++++++++++
Date: Fri Oct 25 11:24:09 EDT 2013
User: price-jones
Dark Spectrum Present: No
Reference Spectrum Present: No
Number of Sampled Component Spectra: 1
Spectrometers: USB2+H05261
Integration Time (usec): 100000 (USB2+H05261)
Spectra Averaged: 1 (USB2+H05261)
Boxcar Smoothing: 0 (USB2+H05261)
Correct for Electrical Dark: No (USB2+H05261)
Strobe/Lamp Enabled: No (USB2+H05261)
Correct for Detector Non-linearity: No (USB2+H05261)
Correct for Stray Light: No (USB2+H05261)
Number of Pixels in Processed Spectrum: 2048
>>>>>Begin Processed Spectral Data<<<<<
365.73	168.52
365.92	168.52
366.12	168.52
366.32	154.48
366.52	152.13
366.72	107.66
366.91	74.90
367.11	126.39
367.31	110.01
367.51	140.43
367.70	126.39
367.90	163.84
368.10	187.24
368.30	170.86
368.49	203.63
368.69	166.18
368.89	180.22
369.09	201.29
369.28	149.79
369.48	231.71
369.68	203.63
369.87	205.97
370.07	224.69
370.27	208.31
370.47	334.70
370.66	543.00
370.86	620.24
371.06	571.09
371.25	723.23
371.45	585.13
371.65	634.29
371.84	638.97
372.04	713.86
372.24	723.23
372.44	772.38
372.63	725.57
372.83	725.57
373.03	725.57
373.22	828.55
373.42	763.01
373.62	779.40
373.81	765.36
374.01	807.48
374.21	816.85
374.40	791.10
374.60	772.38
374.79	849.61
374.99	826.21
375.19	840.25
375.38	912.81
375.58	844.93
375.78	873.02
375.97	814.51
376.17	938.55
376.37	873.02
376.56	842.59
376.76	772.38
376.95	821.53
377.15	933.87
377.35	849.61
377.54	903.45
377.74	973.66
377.93	940.90
378.13	903.45
378.33	947.92
378.52	936.21
378.72	929.19
378.91	947.92
379.11	1004.09
379.31	875.36
379.50	957.28
379.70	961.96
379.89	990.05
380.09	961.96
380.28	901.11
380.48	992.39
380.68	964.30
380.87	933.87
381.07	1027.50
381.26	1004.09
381.46	983.02
381.65	1146.86
381.85	1057.92
382.04	1097.71
382.24	1067.28
382.43	1043.88
382.63	983.02
382.83	1020.47
383.02	1100.05
383.22	1139.84
383.41	1083.67
383.61	1111.75
383.80	1057.92
384.00	1233.46
384.19	1151.54
384.39	1167.93
384.58	1104.73
384.78	1132.82
384.97	1104.73
385.17	1100.05
385.36	1233.46
385.56	1219.42
385.75	1179.63
385.95	1123.46
386.14	1280.27
386.34	1172.61
386.53	1256.87
386.72	1167.93
386.92	1217.08
387.11	1165.59
387.31	1186.65
387.50	1142.18
387.70	1317.72
387.89	1212.40
388.09	1261.55
388.28	1287.29
388.48	1320.06
388.67	1270.91
388.86	1336.45
389.06	1268.57
389.25	1289.64
389.45	1291.98
389.64	1359.85
389.84	1427.73
390.03	1420.71
390.22	1483.90
390.42	1397.30
390.61	1341.13
390.81	1359.85
391.00	1462.83
391.19	1430.07
391.39	1329.42
391.58	1439.43
391.78	1479.22
391.97	1526.03
392.16	1465.18
392.36	1526.03
392.55	1479.22
392.75	1549.43
392.94	1591.56
393.13	1533.05
393.33	1509.65
393.52	1526.03
393.71	1586.88
393.91	1645.40
394.10	1535.39
394.29	1650.08
394.49	1582.20
394.68	1621.99
394.88	1565.82
395.07	1720.29
395.26	1626.67
395.46	1703.91
395.65	1607.95
395.84	1732.00
396.04	1720.29
396.23	1722.63
396.42	1734.34
396.62	1874.77
396.81	1739.02
397.00	1849.02
397.19	1813.92
397.39	1785.83
397.58	1813.92
397.77	1764.76
397.97	1909.88
398.16	1900.52
398.35	1842.00
398.55	1856.04
398.74	1811.57
398.93	1900.52
399.12	1895.83
399.32	1968.39
399.51	1963.71
399.70	2038.61
399.90	1928.60
400.09	1947.33
400.28	1975.41
400.47	1984.77
400.67	2179.04
400.86	2155.63
401.05	2069.03
401.24	2132.23
401.44	2148.61
401.63	2134.57
401.82	2045.63
402.01	2101.80
402.21	2085.42
402.40	2188.40
402.59	2162.66
402.78	2197.76
402.97	2207.13
403.17	2277.34
403.36	2352.24
403.55	2406.07
403.74	2403.73
403.93	2380.32
404.13	2363.94
404.32	2328.83
404.51	2317.13
404.70	2408.41
404.89	2321.81
405.09	2597.99
405.28	2562.89
405.47	2471.61
405.66	2513.74
405.85	2455.22
406.05	2368.62
406.24	2562.89
406.43	2537.14
406.62	2633.10
406.81	2593.31
407.00	2546.50
407.20	2616.72
407.39	2616.72
407.58	2595.65
407.77	2663.53
407.96	2771.19
408.15	2686.94
408.34	2787.58
408.54	2867.16
408.73	2881.20
408.92	2834.39
409.11	2956.10
409.30	2874.18
409.49	2808.64
409.68	3052.06
409.87	2993.55
410.07	3026.31
410.26	2993.55
410.45	2956.10
410.64	3040.36
410.83	3155.04
411.02	3129.30
411.21	3108.23
411.40	3183.13
411.59	3258.03
411.78	3281.43
411.98	3173.77
412.17	3272.07
412.36	3377.39
412.55	3361.01
412.74	3421.86
412.93	3361.01
413.12	3445.27
413.31	3550.59
413.50	3492.08
413.69	3571.66
413.88	3562.30
414.07	3646.55
414.26	3473.36
414.45	3609.11
414.64	3707.41
414.83	3730.81
415.02	3761.24
415.22	3817.41
415.41	4004.66
415.60	3913.38
415.79	3765.92
415.98	3875.93
416.17	3929.76
416.36	3836.14
416.55	4091.26
416.74	4065.51
416.93	4124.02
417.12	4030.40
417.31	4072.53
417.50	4126.36
417.69	4227.01
417.88	4374.46
418.07	4269.14
418.26	4311.27
418.45	4332.33
418.64	4477.44
418.83	4507.87
419.02	4269.14
419.21	4397.87
419.39	4550.00
419.58	4456.38
419.77	4568.73
419.96	4407.23
420.15	4683.41
420.34	4596.81
420.53	4711.50
420.72	4709.16
420.91	4713.84
421.10	4812.14
421.29	4788.74
421.48	4699.80
421.67	4793.42
421.86	4805.12
422.05	4985.34
422.24	4833.21
422.43	4863.63
422.61	4929.17
422.80	5013.43
422.99	4957.25
423.18	5090.67
423.37	4968.96
423.56	4910.44
423.75	5006.41
423.94	4805.12
424.13	4559.36
424.32	4809.80
424.50	4901.08
424.69	5022.79
424.88	5132.79
425.07	5074.28
425.26	4966.62
425.45	4933.85
425.64	5048.54
425.83	4915.12
426.01	5060.24
426.20	5076.62
426.39	5022.79
426.58	5121.09
426.77	5128.11
426.96	5142.16
427.15	5135.14
427.33	5172.58
427.52	5334.08
427.71	5291.95
427.90	5401.96
428.09	5348.12
428.28	5420.68
428.46	5378.55
428.65	5352.81
428.84	5441.75
429.03	5467.49
429.22	5320.04
429.40	5486.22
429.59	5535.37
429.78	5535.37
429.97	5359.83
430.16	5490.90
430.34	5659.42
430.53	5516.64
430.72	5582.18
430.91	5600.90
431.10	5535.37
431.28	5844.32
431.47	5781.12
431.66	5781.12
431.85	5781.12
432.03	5863.04
432.22	6148.59
432.41	5975.39
432.60	5942.62
432.79	5914.53
432.97	6045.60
433.16	6078.37
433.35	6052.63
433.54	6022.20
433.72	6113.48
433.91	6083.05
434.10	6132.20
434.28	6221.14
434.47	6225.82
434.66	6253.91
434.85	6279.66
435.03	6356.90
435.22	6389.66
435.41	6427.11
435.59	6448.18
435.78	6443.49
435.97	6600.31
436.16	6431.79
436.34	6518.39
436.53	6534.78
436.72	6768.83
436.90	6438.81
437.09	6623.72
437.28	6417.75
437.46	6820.32
437.65	6869.47
437.84	6773.51
438.02	6810.96
438.21	6862.45
438.40	6612.01
438.58	7035.65
438.77	7157.36
438.96	6960.75
439.14	6967.77
439.33	7199.49
439.52	7206.51
439.70	7194.81
439.89	7435.88
440.08	7358.64
440.26	7162.04
440.45	7496.74
440.63	7566.95
440.82	7576.31
441.01	7473.33
441.19	7866.54
441.38	7801.01
441.57	7808.03
441.75	7798.66
441.94	7887.61
442.12	8063.15
442.31	7985.91
442.50	8002.29
442.68	8039.74
442.87	8077.19
443.05	8224.64
443.24	8276.13
443.43	8124.00
443.61	8250.39
443.80	8477.42
443.98	8173.15
444.17	8077.19
444.35	8191.88
444.54	8402.52
444.73	8524.23
444.91	8402.52
445.10	8439.97
445.28	8304.22
445.47	8269.11
445.65	8451.67
445.84	8386.14
446.02	8606.15
446.21	8489.12
446.39	8470.40
446.58	8552.32
446.77	8540.61
446.95	8358.05
447.14	8510.19
447.32	8521.89
447.51	8332.31
447.69	8636.58
447.88	8594.45
448.06	8622.53
448.25	8608.49
448.43	8535.93
448.62	8479.76
448.80	8624.87
448.99	8725.52
449.17	8741.90
449.36	8774.67
449.54	8854.25
449.73	8891.70
449.91	8835.52
450.10	9062.55
450.28	9242.78
450.46	8973.61
450.65	9027.45
450.83	9128.09
451.02	9004.04
451.20	9322.35
451.39	9202.99
451.57	9195.96
451.76	9310.65
451.94	9226.39
452.13	9245.12
452.31	9289.59
452.49	9092.98
452.68	9514.28
452.86	9291.93
453.05	9446.40
453.23	9291.93
453.42	9245.12
453.60	9448.74
453.78	9589.17
453.97	9406.61
454.15	9453.42
454.34	9390.23
454.52	9717.90
454.70	9635.99
454.89	9991.75
455.07	9937.91
455.26	9921.53
455.44	9987.07
455.62	9966.00
455.81	10029.20
455.99	10033.88
456.17	9921.53
456.36	10003.45
456.54	10399.00
456.73	10263.25
456.91	10324.10
457.09	10408.36
457.28	10476.24
457.46	10314.74
457.64	10700.93
457.83	10389.64
458.01	10494.96
458.19	10888.17
458.38	10609.65
458.56	10607.31
458.74	10623.69
458.93	10913.92
459.11	10714.97
459.29	10853.06
459.48	10771.15
459.66	10693.91
459.84	10951.37
460.03	11150.31
460.21	11112.86
460.39	10960.73
460.57	10984.13
460.76	11290.74
460.94	11152.65
461.12	11253.30
461.31	11276.70
461.49	11066.05
461.67	11190.10
461.85	11719.06
462.04	11377.34
462.22	11599.70
462.40	11637.14
462.59	11646.51
462.77	11456.92
462.95	11859.49
463.13	11644.17
463.32	11770.55
463.50	11824.39
463.68	11782.26
463.86	12074.82
464.05	11742.47
464.23	11700.34
464.41	11946.09
464.59	11667.57
464.78	12236.32
464.96	12067.80
465.14	12053.76
465.32	11971.84
465.50	12035.03
465.69	12461.01
465.87	12250.36
466.05	12271.43
466.23	12198.87
466.41	12273.77
466.60	12475.06
466.78	12233.98
466.96	12313.56
467.14	12236.32
467.32	12163.76
467.51	12510.16
467.69	12224.62
467.87	12456.33
468.05	12856.56
468.23	12329.94
468.41	12606.13
468.60	12842.52
468.78	12793.37
468.96	12554.63
469.14	12568.68
469.32	13266.16
469.50	12774.64
469.69	12755.92
469.87	13107.00
470.05	13062.53
470.23	12891.67
470.41	13233.39
470.59	13387.86
470.77	13392.55
470.95	13434.68
471.14	13516.59
471.32	13198.28
471.50	13579.79
471.68	13806.82
471.86	13848.95
472.04	13727.24
472.22	14148.54
472.40	13881.72
472.58	13942.57
472.77	14075.98
472.95	14249.18
473.13	14525.36
473.31	14244.50
473.49	14171.94
473.67	14167.26
473.85	14295.99
474.03	14602.60
474.21	14572.18
474.39	14679.84
474.57	14970.07
474.75	14827.29
474.93	15051.99
475.12	15136.24
475.30	15103.48
475.48	14979.43
475.66	15463.92
475.84	15122.20
476.02	15566.90
476.20	15297.74
476.38	15515.41
476.56	16283.11
476.74	16395.45
476.92	16009.26
477.10	15925.00
477.28	16088.84
477.46	16423.54
477.64	16212.89
477.82	16521.84
478.00	16926.75
478.18	16833.13
478.36	17200.60
478.54	17128.04
478.72	17453.37
478.90	17366.78
479.08	17647.64
479.26	17729.56
479.44	17881.69
479.62	17624.23
479.80	18246.82
479.98	18307.67
480.16	18609.60
480.34	18576.83
480.52	18719.60
480.70	18810.89
480.88	18565.13
481.06	18899.83
481.24	18946.64
481.41	19051.96
481.59	19316.44
481.77	19721.35
481.95	19697.95
482.13	19957.75
482.31	19489.64
482.49	20226.91
482.67	20116.90
482.85	20788.64
483.03	20816.72
483.21	21102.27
483.39	21322.28
483.57	21025.03
483.74	21376.11
483.92	21436.97
484.10	21266.11
484.28	21977.63
484.46	22118.06
484.64	22361.48
484.82	22188.28
485.00	22644.68
485.18	22759.37
485.35	22785.12
485.53	22803.84
485.71	22967.68
485.89	23564.51
486.07	23339.82
486.25	23557.49
486.43	23646.43
486.61	23953.04
486.78	24006.87
486.96	24446.90
487.14	24882.24
487.32	24907.98
487.50	24510.09
487.68	24922.02
487.85	25177.14
488.03	25553.97
488.21	25998.67
488.39	25710.78
488.57	26082.93
488.75	26396.56
488.92	26668.06
489.10	26892.76
489.28	26682.11
489.46	27316.39
489.64	27461.51
489.81	27690.88
489.99	27929.61
490.17	27784.50
490.35	28437.51
490.53	28259.63
490.70	28877.53
490.88	28739.44
491.06	28713.69
491.24	28889.23
491.41	29116.26
491.59	29654.59
491.77	29727.14
491.95	29862.90
492.13	30101.63
492.30	30312.28
492.48	30230.36
492.66	30368.45
492.84	30672.72
493.01	30876.35
493.19	30848.26
493.37	31269.56
493.54	31346.79
493.72	31639.36
493.90	31527.02
494.08	31655.75
494.25	32271.31
494.43	31772.77
494.61	32332.16
494.79	32678.56
494.96	32385.99
495.14	33097.52
495.32	33151.35
495.49	33020.28
495.67	33872.23
495.85	33874.57
496.02	33694.35
496.20	34251.40
496.38	34354.38
496.55	34450.35
496.73	35131.44
496.91	34946.54
497.09	35033.14
497.26	35229.74
497.44	35122.08
497.62	35637.00
497.79	35693.17
497.97	35613.59
498.14	36098.08
498.32	35985.74
498.50	36388.31
498.67	36872.80
498.85	36570.87
499.03	37062.38
499.20	36755.77
499.38	36931.31
499.56	37469.64
499.73	37415.80
499.91	38085.20
500.08	37558.58
500.26	37663.90
500.44	37937.74
500.61	37855.82
500.79	37797.31
500.97	38506.49
501.14	39063.54
501.32	38532.24
501.49	38895.02
501.67	39199.29
501.84	39213.34
502.02	39152.48
502.20	39065.88
502.37	39426.32
502.55	39084.61
502.72	39674.42
502.90	39887.41
503.07	39695.49
503.25	40299.34
503.43	39749.32
503.60	40243.17
503.78	40545.10
503.95	40402.33
504.13	40992.14
504.30	40612.98
504.48	40868.09
504.65	40945.33
504.83	40854.05
505.01	41284.71
505.18	41375.99
505.36	41537.49
505.53	41364.29
505.71	41907.29
505.88	42012.62
506.06	41713.03
506.23	42298.16
506.41	42092.19
506.58	41954.10
506.76	42267.73
506.93	42689.03
507.11	42873.93
507.28	42740.52
507.46	43510.56
507.63	43217.99
507.81	43494.18
507.98	42768.61
508.16	43611.20
508.33	43517.58
508.50	43398.21
508.68	43924.83
508.85	44154.21
509.03	43735.25
509.20	44266.55
509.38	44872.75
509.55	44474.86
509.73	44531.03
509.90	44758.06
510.08	44238.47
510.25	44671.46
510.42	44863.39
510.60	45017.86
510.77	45429.80
510.95	45734.07
511.12	45148.93
511.30	45371.28
511.47	45579.59
511.64	45792.58
511.82	46286.43
511.99	45846.41
512.17	45918.97
512.34	46017.27
512.51	46827.10
512.69	46373.03
512.86	46564.96
513.04	47079.88
513.21	46855.18
513.38	47016.68
513.56	46923.06
513.73	46876.25
513.90	46855.18
514.08	46904.34
514.25	47835.87
514.43	47620.54
514.60	47447.34
514.77	47665.01
514.95	47915.45
515.12	47679.05
515.29	48018.43
515.47	47697.78
515.64	47847.57
515.81	48264.19
515.99	48299.30
516.16	48650.38
516.33	48694.85
516.51	48732.29
516.68	48725.27
516.85	48683.14
517.03	49488.29
517.20	49546.80
517.37	48851.66
517.54	48839.96
517.72	49214.44
517.89	49399.35
518.06	49226.15
518.24	49322.11
518.41	49626.38
518.58	49504.67
518.75	49375.94
518.93	50071.08
519.10	49705.96
519.27	50160.02
519.45	50162.36
519.62	50270.03
519.79	50145.98
519.96	50351.94
520.14	50087.46
520.31	50028.95
520.48	50454.93
520.65	50433.86
520.83	50969.85
521.00	50976.87
521.17	50553.23
521.34	51065.81
521.52	51154.75
521.69	51393.48
521.86	50920.70
522.03	51327.95
522.20	51004.95
522.38	51767.97
522.55	51468.38
522.72	51356.03
522.89	51625.20
523.07	51987.98
523.24	51629.88
523.41	51793.71
523.58	51260.07
523.75	52240.76
523.92	51826.48
524.10	52570.77
524.27	52299.27
524.44	52257.14
524.61	52486.51
524.78	52275.87
524.96	52388.21
525.13	52538.01
525.30	52683.12
525.47	52617.58
525.64	52657.37
525.81	52797.80
525.98	52868.02
526.16	53029.52
526.33	52594.18
526.50	52926.53
526.67	52760.36
526.84	53010.79
527.01	53010.79
527.18	53013.13
527.36	53183.99
527.53	53195.70
527.70	53766.79
527.87	53492.94
528.04	53298.68
528.21	53502.31
528.38	53396.98
528.55	53741.04
528.72	53558.48
528.89	53759.76
529.07	53635.72
529.24	53523.37
529.41	53890.83
529.58	53844.02
529.75	53815.94
529.92	53881.47
530.09	53888.49
530.26	53921.26
530.43	54178.72
530.60	53869.77
530.77	54309.79
530.94	54328.52
531.11	54162.34
531.28	54106.16
531.46	54616.40
531.63	54656.19
531.80	54480.65
531.97	54667.89
532.14	54574.27
532.31	54372.99
532.48	54838.75
532.65	54915.99
532.82	54841.09
532.99	54838.75
533.16	54642.15
533.33	54901.95
533.50	55042.38
533.67	54908.97
533.84	55096.21
534.01	54892.58
534.18	54920.67
534.35	55210.90
534.52	55522.19
534.69	55327.92
534.86	55444.95
535.03	55047.06
535.20	55290.48
535.37	55458.99
535.54	55662.62
535.71	55341.97
535.88	55557.30
536.05	55594.74
536.22	55683.69
536.38	55889.65
536.55	55781.99
536.72	55882.63
536.89	55412.18
537.06	55824.12
537.23	55943.48
537.40	55641.56
537.57	55709.43
537.74	55655.60
537.91	56205.62
538.08	56109.66
538.25	55824.12
538.42	56016.04
538.59	56413.93
538.75	55976.25
538.92	56238.39
539.09	56362.44
539.26	56055.83
539.43	56037.11
539.60	56427.98
539.77	56390.53
539.94	56418.61
540.11	56479.47
540.28	56678.41
540.44	56697.14
540.61	56523.94
540.78	56788.42
540.95	56406.91
541.12	56594.15
541.29	56580.11
541.46	56664.37
541.62	56640.96
541.79	56743.95
541.96	56470.11
542.13	56741.61
542.30	56800.12
542.47	56919.49
542.63	57071.62
542.80	57165.24
542.97	57230.78
543.14	57385.25
543.31	57340.78
543.48	57336.10
543.64	57450.79
543.81	57392.28
543.98	57467.17
544.15	57673.14
544.32	57492.92
544.48	57570.16
544.65	57591.22
544.82	57579.52
544.99	57556.11
545.16	57612.29
545.32	57460.15
545.49	57928.26
545.66	57776.12
545.83	57808.89
546.00	57846.34
546.16	57848.68
546.33	57652.08
546.50	57766.76
546.67	57703.57
546.83	57614.63
547.00	57738.68
547.17	57801.87
547.34	58094.44
547.50	57954.00
547.67	57855.70
547.84	58031.24
548.00	58216.14
548.17	58459.56
548.34	58129.54
548.51	58426.79
548.67	58391.68
548.84	58497.01
549.01	58262.96
549.18	58103.80
549.34	58473.60
549.51	58122.52
549.68	58489.99
549.84	58316.79
550.01	58649.14
550.18	58312.11
550.34	58564.88
550.51	58553.18
550.68	58499.35
550.84	58117.84
551.01	58735.74
551.18	58649.14
551.34	58717.02
551.51	58705.32
551.68	58756.81
551.84	58625.74
552.01	58663.19
552.18	58742.77
552.34	58787.24
552.51	58812.98
552.68	58628.08
552.84	58777.87
553.01	59121.93
553.18	59000.22
553.34	59213.21
553.51	58897.24
553.67	59049.38
553.84	59128.95
554.01	59004.91
554.17	59210.87
554.34	59077.46
554.51	59035.33
554.67	59105.55
554.84	59011.93
555.00	59119.59
555.17	59180.45
555.33	59302.15
555.50	59283.43
555.67	59180.45
555.83	59168.74
556.00	59533.87
556.16	59484.72
556.33	59358.33
556.50	59440.24
556.66	59489.40
556.83	59248.32
556.99	59653.23
557.16	59625.15
557.32	59547.91
557.49	59767.92
557.65	59334.92
557.82	59423.86
557.98	59545.57
558.15	59430.88
558.32	59643.87
558.48	59597.06
558.65	59653.23
558.81	59550.25
558.98	59702.38
559.14	59711.75
559.31	59772.60
559.47	59877.93
559.64	59856.86
559.80	59805.37
559.97	59730.47
560.13	59674.30
560.30	59786.64
560.46	59917.71
560.63	59859.20
560.79	59763.24
560.96	59924.74
561.12	60011.34
561.29	59805.37
561.45	60023.04
561.61	59990.27
561.78	59938.78
561.94	60034.74
562.11	59943.46
562.27	60013.68
562.44	60133.04
562.60	60212.62
562.77	60144.75
562.93	59955.16
563.10	60374.12
563.26	60093.25
563.42	60301.56
563.59	60154.11
563.75	60149.43
563.92	60109.64
564.08	60193.90
564.24	60130.70
564.41	60226.66
564.57	60154.11
564.74	60397.52
564.90	60470.08
565.07	60217.30
565.23	60404.55
565.39	60219.64
565.56	60214.96
565.72	60154.11
565.88	60399.86
566.05	60327.31
566.21	60191.56
566.38	60533.28
566.54	60554.34
566.70	60509.87
566.87	60505.19
567.03	60533.28
567.19	60346.03
567.36	60322.63
567.52	60163.47
567.68	60715.84
567.85	60472.42
568.01	60582.43
568.17	60301.56
568.34	60458.38
568.50	60453.70
568.66	60247.73
568.83	60654.98
568.99	60458.38
569.15	60608.17
569.32	60622.22
569.48	60495.83
569.64	60516.89
569.81	60673.71
569.97	60552.00
570.13	60582.43
570.30	60498.17
570.46	60535.62
570.62	60582.43
570.78	60727.54
570.95	60692.43
571.11	60736.90
571.27	60521.57
571.43	60676.05
571.60	60760.31
571.76	60694.77
571.92	60685.41
572.09	60739.24
572.25	60596.47
572.41	60624.56
572.57	60584.77
572.74	60891.38
572.90	60685.41
573.06	60823.50
573.22	60985.00
573.38	60795.42
573.55	60926.49
573.71	61006.06
573.87	60690.09
574.03	60732.22
574.20	60839.89
574.36	60863.29
574.52	60942.87
574.68	60870.31
574.84	61066.92
575.01	60898.40
575.17	60867.97
575.33	60750.94
575.49	60793.07
575.65	60715.84
575.82	60992.02
575.98	60992.02
576.14	61022.45
576.30	60947.55
576.46	60818.82
576.62	60879.67
576.79	60739.24
576.95	60816.48
577.11	60954.57
577.27	60938.19
577.43	61024.79
577.59	60947.55
577.75	60795.42
577.92	60804.78
578.08	60874.99
578.24	60959.25
578.40	61130.11
578.56	61286.93
578.72	61043.51
578.88	61080.96
579.04	61132.45
579.21	60900.74
579.37	61095.00
579.53	61097.34
579.69	60867.97
579.85	60933.51
580.01	60774.35
580.17	61001.38
580.33	61179.26
580.49	61125.43
580.65	61223.73
580.82	60802.44
580.98	61097.34
581.14	60933.51
581.30	61249.48
581.46	60917.12
581.62	60959.25
581.78	60975.64
581.94	61052.87
582.10	60985.00
582.26	60814.14
582.42	60893.72
582.58	61013.08
582.74	60994.36
582.90	60872.65
583.06	61169.90
583.22	60858.61
583.38	61181.60
583.54	61233.10
583.70	61300.97
583.86	61045.85
584.02	61008.40
584.18	61254.16
584.34	61010.74
584.50	61127.77
584.66	60933.51
584.82	60814.14
584.98	61244.80
585.14	61197.99
585.30	61057.56
585.46	61240.12
585.62	61261.18
585.78	61214.37
585.94	60797.76
586.10	61291.61
586.26	61270.54
586.42	61132.45
586.58	61450.77
586.74	61190.97
586.90	61116.07
587.06	61193.31
587.22	61289.27
587.38	61162.88
587.54	61265.86
587.70	61226.07
587.86	61146.50
588.02	61123.09
588.18	61312.67
588.34	61263.52
588.49	61394.59
