SpectraSuite Data File
++++++++++++++++++++++++++++++++++++
Date: Fri Oct 25 11:34:38 EDT 2013
User: price-jones
Dark Spectrum Present: No
Reference Spectrum Present: No
Number of Sampled Component Spectra: 1
Spectrometers: USB2+H05261
Integration Time (usec): 100000 (USB2+H05261)
Spectra Averaged: 1 (USB2+H05261)
Boxcar Smoothing: 0 (USB2+H05261)
Correct for Electrical Dark: No (USB2+H05261)
Strobe/Lamp Enabled: No (USB2+H05261)
Correct for Detector Non-linearity: No (USB2+H05261)
Correct for Stray Light: No (USB2+H05261)
Number of Pixels in Processed Spectrum: 2048
>>>>>Begin Processed Spectral Data<<<<<
365.73	315.97
365.92	315.97
366.12	315.97
366.32	203.63
366.52	166.18
366.72	166.18
366.91	149.79
367.11	229.37
367.31	145.11
367.51	212.99
367.70	133.41
367.90	163.84
368.10	173.20
368.30	201.29
368.49	180.22
368.69	159.16
368.89	166.18
369.09	259.80
369.28	243.42
369.48	257.46
369.68	201.29
369.87	187.24
370.07	255.12
370.27	334.70
370.47	322.99
370.66	437.68
370.86	465.77
371.06	449.38
371.25	538.32
371.45	507.90
371.65	575.77
371.84	475.13
372.04	535.98
372.24	580.45
372.44	580.45
372.63	601.52
372.83	622.58
373.03	636.63
373.22	599.18
373.42	589.82
373.62	641.31
373.81	631.94
374.01	683.44
374.21	620.24
374.40	601.52
374.60	641.31
374.79	629.60
374.99	624.92
375.19	594.50
375.38	617.90
375.58	629.60
375.78	610.88
375.97	615.56
376.17	660.03
376.37	653.01
376.56	674.07
376.76	615.56
376.95	660.03
377.15	699.82
377.35	622.58
377.54	727.91
377.74	643.65
377.93	688.12
378.13	667.05
378.33	730.25
378.52	608.54
378.72	718.54
378.91	690.46
379.11	770.04
379.31	751.31
379.50	685.78
379.70	669.39
379.89	683.44
380.09	638.97
380.28	622.58
380.48	681.10
380.68	645.99
380.87	699.82
381.07	711.52
381.26	718.54
381.46	746.63
381.65	798.12
381.85	753.65
382.04	751.31
382.24	723.23
382.43	732.59
382.63	763.01
382.83	765.36
383.02	847.27
383.22	814.51
383.41	809.83
383.61	795.78
383.80	784.08
384.00	798.12
384.19	732.59
384.39	723.23
384.58	807.48
384.78	875.36
384.97	786.42
385.17	753.65
385.36	795.78
385.56	830.89
385.75	823.87
385.95	828.55
386.14	828.55
386.34	912.81
386.53	854.30
386.72	809.83
386.92	854.30
387.11	887.06
387.31	863.66
387.50	952.60
387.70	957.28
387.89	891.74
388.09	819.19
388.28	828.55
388.48	898.77
388.67	943.24
388.86	896.43
389.06	882.38
389.25	870.68
389.45	884.72
389.64	844.93
389.84	945.58
390.03	997.07
390.22	985.37
390.42	1011.11
390.61	952.60
390.81	978.34
391.00	1011.11
391.19	973.66
391.39	973.66
391.58	992.39
391.78	978.34
391.97	994.73
392.16	968.98
392.36	1064.94
392.55	994.73
392.75	985.37
392.94	1018.13
393.13	1001.75
393.33	1025.15
393.52	1041.54
393.71	1097.71
393.91	1090.69
394.10	1015.79
394.29	1060.26
394.49	1029.84
394.68	1125.80
394.88	1069.62
395.07	1123.46
395.26	1116.44
395.46	1109.41
395.65	1151.54
395.84	1151.54
396.04	1177.29
396.23	1146.86
396.42	1226.44
396.62	1179.63
396.81	1130.48
397.00	1149.20
397.19	1167.93
397.39	1153.88
397.58	1163.25
397.77	1181.97
397.97	1329.42
398.16	1203.04
398.35	1153.88
398.55	1160.91
398.74	1238.14
398.93	1249.85
399.12	1275.59
399.32	1270.91
399.51	1235.80
399.70	1390.28
399.90	1268.57
400.09	1289.64
400.28	1280.27
400.47	1331.76
400.67	1343.47
400.86	1320.06
401.05	1418.36
401.24	1345.81
401.44	1338.79
401.63	1413.68
401.82	1406.66
402.01	1378.58
402.21	1472.20
402.40	1526.03
402.59	1446.45
402.78	1441.77
402.97	1451.13
403.17	1437.09
403.36	1542.41
403.55	1547.09
403.74	1474.54
403.93	1523.69
404.13	1502.62
404.32	1448.79
404.51	1465.18
404.70	1528.37
404.89	1558.80
405.09	1600.93
405.28	1570.50
405.47	1509.65
405.66	1535.39
405.85	1607.95
406.05	1645.40
406.24	1739.02
406.43	1717.95
406.62	1610.29
406.81	1764.76
407.00	1710.93
407.20	1629.01
407.39	1764.76
407.58	1713.27
407.77	1722.63
407.96	1926.26
408.15	1790.51
408.34	1778.81
408.54	1874.77
408.73	1811.57
408.92	1865.41
409.11	1827.96
409.30	1928.60
409.49	1811.57
409.68	1886.47
409.87	1895.83
410.07	1837.32
410.26	2111.16
410.45	1961.37
410.64	2059.67
410.83	2040.95
411.02	2045.63
411.21	1977.75
411.40	2092.44
411.59	2221.17
411.78	2085.42
411.98	2085.42
412.17	2186.06
412.36	2225.85
412.55	2174.36
412.74	2298.41
412.93	2256.28
413.12	2300.75
413.31	2394.37
413.50	2129.89
413.69	2356.92
413.88	2455.22
414.07	2368.62
414.26	2445.86
414.45	2303.09
414.64	2436.50
414.83	2410.75
415.02	2443.52
415.22	2527.78
415.41	2544.16
415.60	2612.04
415.79	2710.34
415.98	2675.23
416.17	2581.61
416.36	2686.94
416.55	2668.21
416.74	2691.62
416.93	2651.83
417.12	2715.02
417.31	2825.03
417.50	2780.56
417.69	2778.22
417.88	2904.60
418.07	2771.19
418.26	2736.09
418.45	2810.98
418.64	3009.93
418.83	2874.18
419.02	2843.75
419.21	3040.36
419.39	2923.33
419.58	3023.97
419.77	2923.33
419.96	3056.74
420.15	3096.53
420.34	2949.08
420.53	3014.61
420.72	3073.12
420.91	3077.80
421.10	3122.27
421.29	3103.55
421.48	3063.76
421.67	3126.96
421.86	3075.46
422.05	3148.02
422.24	3016.95
422.43	3260.37
422.61	3152.70
422.80	3251.00
422.99	3272.07
423.18	3286.11
423.37	3267.39
423.56	3236.96
423.75	3145.68
423.94	3152.70
424.13	3033.33
424.32	3274.41
424.50	3389.10
424.69	3325.90
424.88	3293.13
425.07	3190.15
425.26	3164.40
425.45	3314.20
425.64	3297.81
425.83	3377.39
426.01	3356.33
426.20	3283.77
426.39	3283.77
426.58	3169.09
426.77	3286.11
426.96	3503.78
427.15	3351.65
427.33	3459.31
427.52	3414.84
427.71	3384.41
427.90	3410.16
428.09	3456.97
428.28	3578.68
428.46	3503.78
428.65	3550.59
428.84	3545.91
429.03	3618.47
429.22	3520.17
429.40	3578.68
429.59	3487.40
429.78	3473.36
429.97	3552.93
430.16	3723.79
430.34	3693.37
430.53	3763.58
430.72	3716.77
430.91	3772.94
431.10	3655.92
431.28	3669.96
431.47	3758.90
431.66	3779.97
431.85	3726.13
432.03	3829.12
432.22	3974.23
432.41	3784.65
432.60	3873.59
432.79	3880.61
432.97	3803.37
433.16	3953.16
433.35	3913.38
433.54	3974.23
433.72	4021.04
433.91	3899.33
434.10	4042.11
434.28	3960.19
434.47	4030.40
434.66	4140.41
434.85	4124.02
435.03	4245.73
435.22	4032.74
435.41	4105.30
435.59	4219.99
435.78	4173.18
435.97	4189.56
436.16	4140.41
436.34	4311.27
436.53	4365.10
436.72	4245.73
436.90	4191.90
437.09	4304.25
437.28	4138.07
437.46	4442.34
437.65	4329.99
437.84	4402.55
438.02	4273.82
438.21	4334.67
438.40	4348.72
438.58	4594.47
438.77	4442.34
438.96	4592.13
439.14	4648.30
439.33	4711.50
439.52	4641.28
439.70	4657.67
439.89	4788.74
440.08	4725.54
440.26	4765.33
440.45	4774.69
440.63	4894.06
440.82	4954.91
441.01	4912.78
441.19	5069.60
441.38	4950.23
441.57	4980.66
441.75	5032.15
441.94	5090.67
442.12	5111.73
442.31	5235.78
442.50	5130.45
442.68	5256.84
442.87	5207.69
443.05	5336.42
443.24	5207.69
443.43	5259.18
443.61	5448.77
443.80	5331.74
443.98	5200.67
444.17	5027.47
444.35	5343.44
444.54	5334.08
444.73	5441.75
444.91	5193.65
445.10	5341.10
445.28	5305.99
445.47	5296.63
445.65	5352.81
445.84	5310.68
446.02	5476.85
446.21	5366.85
446.39	5418.34
446.58	5654.73
446.77	5411.32
446.95	5359.83
447.14	5455.79
447.32	5448.77
447.51	5495.58
447.69	5511.96
447.88	5633.67
448.06	5561.11
448.25	5446.43
448.43	5467.49
448.62	5593.88
448.80	5493.24
448.99	5689.84
449.17	5624.31
449.36	5556.43
449.54	5727.29
449.73	5825.59
449.91	5617.29
450.10	5736.65
450.28	5760.06
450.46	5905.17
450.65	5930.92
450.83	5834.96
451.02	5832.62
451.20	6019.86
451.39	5809.21
451.57	5886.45
451.76	5856.02
451.94	5987.09
452.13	6069.01
452.31	5991.77
452.49	5888.79
452.68	5750.70
452.86	5893.47
453.05	6036.24
453.23	6143.91
453.42	5961.34
453.60	6057.31
453.78	6127.52
453.97	5963.68
454.15	6204.76
454.34	6153.27
454.52	6244.55
454.70	6197.74
454.89	6118.16
455.07	6296.04
455.26	6431.79
455.44	6361.58
455.62	6317.11
455.81	6356.90
455.99	6532.44
456.17	6399.02
456.36	6420.09
456.54	6574.56
456.73	6586.27
456.91	6717.34
457.09	6633.08
457.28	6637.76
457.46	6579.25
457.64	6682.23
457.83	6644.78
458.01	6539.46
458.19	6932.67
458.38	6750.10
458.56	6825.00
458.74	6857.77
458.93	6665.85
459.11	6672.87
459.29	6888.20
459.48	6902.24
459.66	6881.18
459.84	7009.90
460.03	7037.99
460.21	7049.69
460.39	7091.82
460.57	6904.58
460.76	7119.91
460.94	7023.95
461.12	7236.94
461.31	7204.17
461.49	7096.50
461.67	7089.48
461.85	7463.97
462.04	7087.14
462.22	7700.36
462.40	7391.41
462.59	7417.16
462.77	7452.27
462.95	7431.20
463.13	7438.22
463.32	7360.98
463.50	7641.85
463.68	7506.10
463.86	7492.05
464.05	7452.27
464.23	7492.05
464.41	7667.60
464.59	7330.56
464.78	7681.64
464.96	7728.45
465.14	7581.00
465.32	7716.75
465.50	7758.88
465.69	7765.90
465.87	7836.11
466.05	7719.09
466.23	7868.88
466.41	7765.90
466.60	7997.61
466.78	7789.30
466.96	7826.75
467.14	7775.26
467.32	7920.37
467.51	8088.89
467.69	7698.02
467.87	7810.37
468.05	7985.91
468.23	7871.22
468.41	7943.78
468.60	8053.78
468.78	8070.17
468.96	7943.78
469.14	8170.81
469.32	8334.65
469.50	7927.39
469.69	8152.09
469.87	8009.31
470.05	8379.12
470.23	8322.94
470.41	8360.39
470.59	8374.44
470.77	8650.62
470.95	8454.02
471.14	8486.78
471.32	8306.56
471.50	8524.23
471.68	8643.60
471.86	8739.56
472.04	8908.08
472.22	8769.99
472.40	8837.86
472.58	8744.24
472.77	8910.42
472.95	9090.64
473.13	9121.07
473.31	8926.80
473.49	9008.72
473.67	8945.53
473.85	9104.68
474.03	9198.31
474.21	9200.65
474.39	9369.16
474.57	9355.12
474.75	9390.23
474.93	9551.73
475.12	9540.02
475.30	9523.64
475.48	9544.70
475.66	9479.17
475.84	9708.54
476.02	9687.48
476.20	9738.97
476.38	9755.35
476.56	10038.56
476.74	10118.14
476.92	9966.00
477.10	10031.54
477.28	10218.78
477.46	10249.21
477.64	10298.36
477.82	10487.94
478.00	10431.77
478.18	10562.84
478.36	10609.65
478.54	10759.44
478.72	10848.38
478.90	10904.56
479.08	10937.32
479.26	11133.93
479.44	10986.47
479.62	11122.23
479.80	11279.04
479.98	11485.01
480.16	11246.27
480.34	11293.08
480.52	11707.36
480.70	11803.32
480.88	11604.38
481.06	11749.49
481.24	11775.24
481.41	11967.16
481.59	12131.00
481.77	12018.65
481.95	12098.23
482.13	12353.35
482.31	12098.23
482.49	12549.95
482.67	12699.75
482.85	12664.64
483.03	12636.55
483.21	13036.78
483.39	13067.21
483.57	12826.14
483.74	12980.61
483.92	13238.07
484.10	13167.85
484.28	13607.87
484.46	13738.94
484.64	13785.76
484.82	13558.72
485.00	13682.77
485.18	14019.81
485.35	14157.90
485.53	14211.73
485.71	14349.82
485.89	14567.49
486.07	14274.93
486.25	14902.19
486.43	14413.02
486.61	14867.08
486.78	14909.21
486.96	15096.46
487.14	15318.81
487.32	15063.69
487.50	15304.76
487.68	15440.51
487.85	15384.34
488.03	15875.85
488.21	16114.59
488.39	16135.65
488.57	16205.87
488.75	16184.80
488.92	16580.36
489.10	16669.30
489.28	16287.79
489.46	16861.22
489.64	17167.83
489.81	17186.55
489.99	17366.78
490.17	17165.49
490.35	17483.80
490.53	17369.12
490.70	17902.76
490.88	17528.27
491.06	17769.35
491.24	17745.94
491.41	18043.19
491.59	18045.53
491.77	18211.71
491.95	18368.52
492.13	18539.38
492.30	18635.35
492.48	18686.84
492.66	18710.24
492.84	19267.29
493.01	19168.99
493.19	19030.90
493.37	19030.90
493.54	19527.09
493.72	19559.86
493.90	19735.40
494.08	19520.07
494.25	19431.13
494.43	20203.50
494.61	20039.67
494.79	19992.86
494.96	20070.09
495.14	20367.34
495.32	20437.56
495.49	20538.20
495.67	20521.82
495.85	20858.85
496.02	20786.30
496.20	21006.31
496.38	21216.96
496.55	21266.11
496.73	21462.71
496.91	21294.19
497.09	21436.97
497.26	21469.73
497.44	21589.10
497.62	22012.74
497.79	22249.13
497.97	21846.56
498.14	22249.13
498.32	22094.66
498.50	22230.41
498.67	22780.43
498.85	22609.58
499.03	23061.30
499.20	22707.88
499.38	22768.73
499.56	22960.66
499.73	23349.18
499.91	23253.22
500.08	23136.20
500.26	23283.65
500.44	23424.08
500.61	23386.63
500.79	23452.17
500.97	23733.03
501.14	24348.59
501.32	23981.13
501.49	23838.36
501.67	23978.79
501.84	23796.23
502.02	23857.08
502.20	24130.92
502.37	24126.24
502.55	24432.85
502.72	24510.09
502.90	24814.36
503.07	24273.70
503.25	24474.98
503.43	24505.41
503.60	24933.73
503.78	25067.14
503.95	24978.20
504.13	25137.35
504.30	25352.68
504.48	25364.39
504.65	25448.64
504.83	25752.91
505.01	25699.08
505.18	25909.73
505.36	25883.98
505.53	25851.22
505.71	26026.76
505.88	25942.50
506.06	26001.01
506.23	26078.25
506.41	26129.74
506.58	26036.12
506.76	26122.72
506.93	26478.48
507.11	26635.30
507.28	26766.37
507.46	26670.40
507.63	26422.31
507.81	26843.60
507.98	26918.50
508.16	27482.57
508.33	27016.80
508.50	27381.93
508.68	27077.66
508.85	27358.52
509.03	27630.02
509.20	27278.94
509.38	27328.10
509.55	27971.74
509.73	28072.39
509.90	28084.09
510.08	27953.02
510.25	27917.91
510.42	27938.97
510.60	27978.76
510.77	28203.46
510.95	28376.66
511.12	28285.37
511.30	28208.14
511.47	28734.76
511.64	28762.84
511.82	28795.61
511.99	28940.72
512.17	28727.74
512.34	28556.88
512.51	29223.93
512.69	29413.51
512.86	29153.71
513.04	29663.95
513.21	29673.31
513.38	29198.18
513.56	29701.40
513.73	29291.80
513.90	29244.99
514.08	29703.74
514.25	29745.87
514.43	29820.77
514.60	30000.99
514.77	29708.42
514.95	30038.44
515.12	29947.15
515.29	30026.73
515.47	30508.88
515.64	30171.85
515.81	30033.75
515.99	30665.70
516.16	30651.66
516.33	30396.54
516.51	30780.39
516.68	30646.97
516.85	30911.46
517.03	30665.70
517.20	30822.51
517.37	30492.50
517.54	30859.96
517.72	31381.90
517.89	31161.89
518.06	31117.42
518.24	31367.86
518.41	31552.76
518.58	31510.63
518.75	31295.30
518.93	31763.41
519.10	31683.83
519.27	31913.20
519.45	31756.39
519.62	31826.60
519.79	31901.50
519.96	31709.58
520.14	31990.44
520.31	32051.30
520.48	32177.68
520.65	32100.45
520.83	32231.52
521.00	32126.19
521.17	32510.04
521.34	32610.68
521.52	32641.11
521.69	32917.29
521.86	33186.46
522.03	32657.49
522.20	33001.55
522.38	33202.84
522.55	33076.45
522.72	32847.08
522.89	33036.66
523.07	33596.05
523.24	33373.70
523.41	33446.26
523.58	33350.29
523.75	33785.63
523.92	33673.29
524.10	33598.39
524.27	33560.94
524.44	33853.51
524.61	33731.80
524.78	33961.17
524.96	34078.20
525.13	33855.85
525.30	34000.96
525.47	34122.67
525.64	34277.15
525.81	34122.67
525.98	34176.50
526.16	34494.82
526.33	34366.09
526.50	34518.22
526.67	34480.77
526.84	34223.31
527.01	34471.41
527.18	34700.78
527.36	35283.58
527.53	34806.11
527.70	34937.18
527.87	35426.35
528.04	34799.08
528.21	35489.54
528.38	34906.75
528.55	35374.86
528.72	34974.63
528.89	35515.29
529.07	35208.68
529.24	35014.41
529.41	35377.20
529.58	35651.04
529.75	35407.62
529.92	35632.32
530.09	35262.51
530.26	35756.36
530.43	35754.02
530.60	35337.41
530.77	35840.62
530.94	35805.52
531.11	35456.78
531.28	35952.97
531.46	35796.15
531.63	36217.45
531.80	35999.78
531.97	36196.38
532.14	36198.73
532.31	36020.84
532.48	36521.72
532.65	36629.38
532.82	36062.97
532.99	36683.22
533.16	36275.96
533.33	36582.57
533.50	36905.57
533.67	36893.86
533.84	36311.07
534.01	36774.50
534.18	37071.75
534.35	37050.68
534.52	36964.08
534.69	37266.01
534.86	36980.46
535.03	37013.23
535.20	36891.52
535.37	37354.95
535.54	37467.30
535.71	37237.92
535.88	37593.68
536.05	37249.63
536.22	37631.13
536.38	37539.85
536.55	37919.02
536.72	37738.80
536.89	37298.78
537.06	37977.53
537.23	37930.72
537.40	37649.86
537.57	37703.69
537.74	37652.20
537.91	38134.35
538.08	37989.24
538.25	38040.73
538.42	37654.54
538.59	38557.99
538.75	38251.38
538.92	38375.42
539.09	38239.67
539.26	37961.15
539.43	38483.09
539.60	37954.13
539.77	38234.99
539.94	38389.47
540.11	38719.48
540.28	38511.17
540.44	38464.36
540.61	38387.13
540.78	38513.52
540.95	38845.87
541.12	38778.00
541.29	38616.50
541.46	38480.75
541.62	38958.22
541.79	39033.11
541.96	38565.01
542.13	38941.83
542.30	39033.11
542.47	39423.98
542.63	39398.24
542.80	39201.63
542.97	39887.41
543.14	39744.64
543.31	39665.06
543.48	39599.52
543.64	40318.07
543.81	39653.36
543.98	39601.86
544.15	39817.19
544.32	39995.07
544.48	40201.04
544.65	39906.13
544.82	40390.62
544.99	39999.76
545.16	39976.35
545.32	40023.16
545.49	40493.61
545.66	40666.81
545.83	40540.42
546.00	40315.73
546.16	39688.46
546.33	40549.78
546.50	40039.54
546.67	40942.99
546.83	40041.88
547.00	40727.66
547.17	39966.99
547.34	40669.15
547.50	40554.46
547.67	40830.65
547.84	40781.49
548.00	40697.24
548.17	41455.57
548.34	40896.18
548.51	41097.47
548.67	40844.69
548.84	41064.70
549.01	41125.55
549.18	40942.99
549.34	41198.11
549.51	41338.54
549.68	41064.70
549.84	40961.72
550.01	41888.57
550.18	41123.21
550.34	41600.68
550.51	41567.91
550.68	41443.87
550.84	40861.07
551.01	41397.06
551.18	41340.88
551.34	41347.90
551.51	41687.28
551.68	41146.62
551.84	41553.87
552.01	41544.51
552.18	41432.16
552.34	41591.32
552.51	41776.22
552.68	41104.49
552.84	41968.15
553.01	41745.80
553.18	41687.28
553.34	41755.16
553.51	41600.68
553.67	42038.36
553.84	42316.89
554.01	42094.53
554.17	42066.45
554.34	42136.66
554.51	42122.62
554.67	42438.59
554.84	41975.17
555.00	42085.17
555.17	42096.88
555.33	42536.90
555.50	42131.98
555.67	42064.11
555.83	42398.80
556.00	42665.63
556.16	43079.90
556.33	42801.38
556.50	42447.96
556.66	42349.65
556.83	42485.40
556.99	42880.95
557.16	42693.71
557.32	42733.50
557.49	43070.54
557.65	42609.45
557.82	42576.69
557.98	42394.12
558.15	42546.26
558.32	42871.59
558.48	42452.64
558.65	42951.17
558.81	42618.81
558.98	43077.56
559.14	42979.26
559.31	43133.73
559.47	43000.32
559.64	43206.29
559.80	42745.20
559.97	43328.00
560.13	42820.10
560.30	43180.54
560.46	43295.23
560.63	43220.33
560.79	43335.02
560.96	43349.06
561.12	43349.06
561.29	43276.51
561.45	43650.99
561.61	42848.19
561.78	43248.42
561.94	43257.78
562.11	43728.23
562.27	43618.22
562.44	43583.12
562.60	43306.93
562.77	43454.39
562.93	43391.19
563.10	43522.26
563.26	43313.95
563.42	43583.12
563.59	43611.20
563.75	43180.54
563.92	43276.51
564.08	43533.96
564.24	43842.92
564.41	43454.39
564.57	43459.07
564.74	43632.27
564.90	43414.60
565.07	43646.31
565.23	43952.92
565.39	44055.90
565.56	44018.46
565.72	43950.58
565.88	43999.73
566.05	43714.19
566.21	43597.16
566.38	43674.40
566.54	44299.32
566.70	44123.78
566.87	44247.83
567.03	43496.52
567.19	44259.53
567.36	43789.08
567.52	43707.16
567.68	44266.55
567.85	43861.64
568.01	43981.01
568.17	43779.72
568.34	44409.32
568.50	43885.04
568.66	43896.75
568.83	44053.56
568.99	43966.96
569.15	44062.93
569.32	43744.61
569.48	44158.89
569.64	44320.38
569.81	44512.31
569.97	43936.54
570.13	44818.92
570.30	43796.10
570.46	44009.09
570.62	44011.43
570.78	43978.67
570.95	44168.25
571.11	44294.64
571.27	44067.61
571.43	44165.91
571.60	44137.82
571.76	44048.88
571.92	43995.05
572.09	44222.08
572.25	44051.22
572.41	44278.25
572.57	44280.60
572.74	44701.89
572.90	44219.74
573.06	44935.95
573.22	44900.84
573.38	44690.19
573.55	44626.99
573.71	44928.92
573.87	44444.43
574.03	44891.48
574.20	44725.30
574.36	44699.55
574.52	44655.08
574.68	44549.76
574.84	44804.88
575.01	44737.00
575.17	44879.77
575.33	44664.44
575.49	44500.61
575.65	44577.84
575.82	44645.72
575.98	44296.98
576.14	44921.90
576.30	45177.02
576.46	44706.57
576.62	44774.45
576.79	44804.88
576.95	44566.14
577.11	44545.08
577.27	44718.28
577.43	44664.44
577.59	44711.25
577.75	44832.96
577.92	44250.17
578.08	44509.97
578.24	44814.24
578.40	44772.11
578.56	44655.08
578.72	44456.14
578.88	45045.95
579.04	44659.76
579.21	44533.37
579.37	45125.53
579.53	44634.02
579.69	44854.03
579.85	44821.26
580.01	45048.29
580.17	44617.63
580.33	44989.78
580.49	44849.35
580.65	44589.55
580.82	44701.89
580.98	44760.40
581.14	44619.97
581.30	44692.53
581.46	44835.30
581.62	44964.03
581.78	44739.34
581.94	44842.32
582.10	45013.18
582.26	44863.39
582.42	44919.56
582.58	45172.34
582.74	45102.12
582.90	44687.85
583.06	45085.74
583.22	44587.21
583.38	44949.99
583.54	45137.23
583.70	45134.89
583.86	45275.32
584.02	44430.39
584.18	45237.87
584.34	45045.95
584.50	45275.32
584.66	44910.20
584.82	45471.93
584.98	45074.04
585.14	45528.10
585.30	45109.14
585.46	45216.81
585.62	44619.97
585.78	45385.33
585.94	44329.75
586.10	44893.82
586.26	44861.05
586.42	44863.39
586.58	45125.53
586.74	44795.51
586.90	44339.11
587.06	45099.78
587.22	45354.90
587.38	44961.69
587.54	45048.29
587.70	45401.71
587.86	45102.12
588.02	44905.52
588.18	45106.80
588.34	45221.49
588.49	45382.99
588.65	44804.88
588.81	45104.46
588.97	45280.00
589.13	45432.14
589.29	45179.36
589.45	45518.74
589.61	45495.33
589.77	45420.44
589.93	45177.02
590.08	45352.56
