SpectraSuite Data File
++++++++++++++++++++++++++++++++++++
Date: Fri Oct 25 11:33:23 EDT 2013
User: price-jones
Dark Spectrum Present: No
Reference Spectrum Present: No
Number of Sampled Component Spectra: 1
Spectrometers: USB2+H05261
Integration Time (usec): 100000 (USB2+H05261)
Spectra Averaged: 1 (USB2+H05261)
Boxcar Smoothing: 0 (USB2+H05261)
Correct for Electrical Dark: No (USB2+H05261)
Strobe/Lamp Enabled: No (USB2+H05261)
Correct for Detector Non-linearity: No (USB2+H05261)
Correct for Stray Light: No (USB2+H05261)
Number of Pixels in Processed Spectrum: 2048
>>>>>Begin Processed Spectral Data<<<<<
365.73	248.10
365.92	248.10
366.12	248.10
366.32	220.01
366.52	205.97
366.72	191.92
366.91	196.60
367.11	105.32
367.31	161.50
367.51	201.29
367.70	173.20
367.90	156.82
368.10	203.63
368.30	217.67
368.49	161.50
368.69	280.86
368.89	248.10
369.09	124.05
369.28	234.05
369.48	196.60
369.68	257.46
369.87	203.63
370.07	196.60
370.27	280.86
370.47	306.61
370.66	468.11
370.86	449.38
371.06	566.41
371.25	613.22
371.45	524.28
371.65	620.24
371.84	552.37
372.04	498.53
372.24	582.79
372.44	592.16
372.63	676.41
372.83	552.37
373.03	535.98
373.22	638.97
373.42	657.69
373.62	660.03
373.81	620.24
374.01	695.14
374.21	688.12
374.40	671.73
374.60	624.92
374.79	601.52
374.99	620.24
375.19	610.88
375.38	681.10
375.58	676.41
375.78	685.78
375.97	622.58
376.17	737.27
376.37	631.94
376.56	650.67
376.76	655.35
376.95	713.86
377.15	723.23
377.35	629.60
377.54	667.05
377.74	692.80
377.93	641.31
378.13	671.73
378.33	671.73
378.52	671.73
378.72	720.88
378.91	770.04
379.11	730.25
379.31	718.54
379.50	692.80
379.70	734.93
379.89	833.23
380.09	751.31
380.28	767.70
380.48	697.48
380.68	812.17
380.87	688.12
381.07	711.52
381.26	732.59
381.46	798.12
381.65	784.08
381.85	802.80
382.04	812.17
382.24	734.93
382.43	734.93
382.63	828.55
382.83	826.21
383.02	814.51
383.22	926.85
383.41	741.95
383.61	774.72
383.80	821.53
384.00	779.40
384.19	784.08
384.39	938.55
384.58	833.23
384.78	798.12
384.97	835.57
385.17	800.46
385.36	856.64
385.56	816.85
385.75	791.10
385.95	805.14
386.14	877.70
386.34	917.49
386.53	875.36
386.72	828.55
386.92	842.59
387.11	884.72
387.31	870.68
387.50	880.04
387.70	945.58
387.89	910.47
388.09	863.66
388.28	915.15
388.48	805.14
388.67	947.92
388.86	966.64
389.06	910.47
389.25	968.98
389.45	929.19
389.64	976.00
389.84	915.15
390.03	943.24
390.22	954.94
390.42	968.98
390.61	926.85
390.81	999.41
391.00	1006.43
391.19	957.28
391.39	1015.79
391.58	1018.13
391.78	1011.11
391.97	1022.81
392.16	957.28
392.36	1046.22
392.55	1128.14
392.75	1034.52
392.94	1050.90
393.13	1116.44
393.33	1071.97
393.52	1041.54
393.71	1086.01
393.91	1050.90
394.10	1088.35
394.29	1153.88
394.49	1212.40
394.68	1203.04
394.88	1156.22
395.07	1111.75
395.26	1097.71
395.46	1177.29
395.65	1217.08
395.84	1116.44
396.04	1165.59
396.23	1149.20
396.42	1224.10
396.62	1125.80
396.81	1266.23
397.00	1224.10
397.19	1233.46
397.39	1277.93
397.58	1324.74
397.77	1233.46
397.97	1259.21
398.16	1254.53
398.35	1348.15
398.55	1280.27
398.74	1193.67
398.93	1313.04
399.12	1301.34
399.32	1317.72
399.51	1266.23
399.70	1404.32
399.90	1359.85
400.09	1411.34
400.28	1390.28
400.47	1369.21
400.67	1355.17
400.86	1479.22
401.05	1441.77
401.24	1434.75
401.44	1385.60
401.63	1317.72
401.82	1434.75
402.01	1430.07
402.21	1476.88
402.40	1493.26
402.59	1458.15
402.78	1528.37
402.97	1490.92
403.17	1551.78
403.36	1547.09
403.55	1514.33
403.74	1640.72
403.93	1640.72
404.13	1584.54
404.32	1605.61
404.51	1582.20
404.70	1692.21
404.89	1645.40
405.09	1708.59
405.28	1593.90
405.47	1689.87
405.66	1748.38
405.85	1764.76
406.05	1699.23
406.24	1764.76
406.43	1755.40
406.62	1797.53
406.81	1872.43
407.00	1783.49
407.20	1687.53
407.39	1757.74
407.58	1802.21
407.77	1795.19
407.96	1909.88
408.15	1940.30
408.34	1898.17
408.54	1837.32
408.73	1919.24
408.92	1935.62
409.11	2022.22
409.30	2069.03
409.49	1961.37
409.68	2064.35
409.87	1966.05
410.07	2045.63
410.26	2157.97
410.45	2029.24
410.64	2029.24
410.83	2071.37
411.02	2057.33
411.21	2165.00
411.40	2207.13
411.59	2267.98
411.78	2249.25
411.98	2207.13
412.17	2246.91
412.36	2289.04
412.55	2321.81
412.74	2420.11
412.93	2324.15
413.12	2347.56
413.31	2506.71
413.50	2377.98
413.69	2431.82
413.88	2459.90
414.07	2420.11
414.26	2492.67
414.45	2541.82
414.64	2548.84
414.83	2565.23
415.02	2647.15
415.22	2656.51
415.41	2579.27
415.60	2651.83
415.79	2628.42
415.98	2729.06
416.17	2686.94
416.36	2764.17
416.55	2647.15
416.74	2803.96
416.93	2796.94
417.12	2939.71
417.31	2799.28
417.50	2909.29
417.69	3035.67
417.88	2942.05
418.07	2991.20
418.26	2984.18
418.45	3019.29
418.64	3089.51
418.83	2995.89
419.02	3150.36
419.21	3187.81
419.39	3105.89
419.58	3241.64
419.77	3087.17
419.96	3222.92
420.15	3227.60
420.34	3152.70
420.53	3262.71
420.72	3213.56
420.91	3194.83
421.10	3222.92
421.29	3307.18
421.48	3302.50
421.67	3311.86
421.86	3407.82
422.05	3213.56
422.24	3283.77
422.43	3412.50
422.61	3379.73
422.80	3440.59
422.99	3370.37
423.18	3461.65
423.37	3391.44
423.56	3447.61
423.75	3456.97
423.94	3300.16
424.13	3227.60
424.32	3218.24
424.50	3459.31
424.69	3506.12
424.88	3482.72
425.07	3447.61
425.26	3251.00
425.45	3426.54
425.64	3353.99
425.83	3478.04
426.01	3431.23
426.20	3487.40
426.39	3545.91
426.58	3445.27
426.77	3562.30
426.96	3520.17
427.15	3599.74
427.33	3571.66
427.52	3564.64
427.71	3627.83
427.90	3658.26
428.09	3758.90
428.28	3693.37
428.46	3655.92
428.65	3616.13
428.84	3791.67
429.03	3737.84
429.22	3691.02
429.40	3644.21
429.59	3707.41
429.78	3733.15
429.97	3583.36
430.16	3735.50
430.34	3871.25
430.53	3721.45
430.72	3941.46
430.91	3854.86
431.10	3995.29
431.28	4011.68
431.47	4018.70
431.66	4117.00
431.85	3913.38
432.03	4067.85
432.22	4107.64
432.41	4077.21
432.60	3925.08
432.79	4117.00
432.97	4156.79
433.16	4133.39
433.35	4053.81
433.54	4170.83
433.72	4196.58
433.91	4236.37
434.10	4238.71
434.28	4306.59
434.47	4241.05
434.66	4360.42
434.85	4423.61
435.03	4285.52
435.22	4372.12
435.41	4369.78
435.59	4404.89
435.78	4437.66
435.97	4519.57
436.16	4365.10
436.34	4388.50
436.53	4484.47
436.72	4587.45
436.90	4620.22
437.09	4535.96
437.28	4449.36
437.46	4566.39
437.65	4528.94
437.84	4573.41
438.02	4655.33
438.21	4671.71
438.40	4737.24
438.58	4781.71
438.77	4819.16
438.96	4910.44
439.14	4861.29
439.33	5060.24
439.52	5076.62
439.70	4947.89
439.89	5085.98
440.08	5130.45
440.26	5004.07
440.45	4985.34
440.63	5151.52
440.82	4975.98
441.01	5029.81
441.19	5109.39
441.38	5146.84
441.57	5284.93
441.75	5336.42
441.94	5636.01
442.12	5614.95
442.31	5366.85
442.50	5528.35
442.68	5453.45
442.87	5495.58
443.05	5675.80
443.24	5619.63
443.43	5624.31
443.61	5441.75
443.80	5605.58
443.98	5465.15
444.17	5352.81
444.35	5619.63
444.54	5689.84
444.73	5565.79
444.91	5624.31
445.10	5621.97
445.28	5554.09
445.47	5507.28
445.65	5598.56
445.84	5926.24
446.02	5963.68
446.21	5746.02
446.39	5724.95
446.58	5820.91
446.77	5767.08
446.95	5610.26
447.14	5783.46
447.32	5879.43
447.51	5834.96
447.69	5893.47
447.88	5884.11
448.06	5729.63
448.25	5849.00
448.43	5818.57
448.62	5949.64
448.80	5886.45
448.99	5849.00
449.17	5947.30
449.36	5811.55
449.54	5900.49
449.73	6143.91
449.91	6139.23
450.10	6057.31
450.28	6209.44
450.46	6076.03
450.65	6260.93
450.83	6104.12
451.02	6179.01
451.20	6375.62
451.39	6174.33
451.57	6239.87
451.76	6090.07
451.94	6342.85
452.13	6314.77
452.31	6293.70
452.49	6171.99
452.68	6272.64
452.86	6253.91
453.05	6403.71
453.23	6455.20
453.42	6553.50
453.60	6335.83
453.78	6712.66
453.97	6387.32
454.15	6485.62
454.34	6471.58
454.52	6572.22
454.70	6665.85
454.89	6597.97
455.07	6642.44
455.26	6679.89
455.44	6649.46
455.62	6628.40
455.81	6642.44
455.99	6904.58
456.17	6867.13
456.36	6686.91
456.54	6876.49
456.73	7098.84
456.91	7115.23
457.09	6916.28
457.28	7162.04
457.46	6923.30
457.64	7239.28
457.83	7222.89
458.01	7000.54
458.19	7339.92
458.38	7185.44
458.56	7155.02
458.74	7248.64
458.93	7201.83
459.11	7360.98
459.29	7276.73
459.48	7328.22
459.66	7459.29
459.84	7360.98
460.03	7480.35
460.21	7288.43
460.39	7339.92
460.57	7480.35
460.76	7503.76
460.94	7597.38
461.12	7529.50
461.31	7588.02
461.49	7686.32
461.67	7447.58
461.85	7712.07
462.04	7691.00
462.22	7967.18
462.40	7798.66
462.59	7786.96
462.77	7604.40
462.95	7730.79
463.13	7885.26
463.32	7742.49
463.50	7936.76
463.68	7857.18
463.86	8163.79
464.05	7651.21
464.23	7892.29
464.41	7953.14
464.59	7913.35
464.78	8135.70
464.96	7988.25
465.14	7838.45
465.32	8147.40
465.50	8030.38
465.69	8194.22
465.87	8325.29
466.05	8468.06
466.23	8205.92
466.41	8294.86
466.60	8351.03
466.78	8292.52
466.96	8112.30
467.14	8257.41
467.32	8212.94
467.51	8372.10
467.69	8217.62
467.87	8360.39
468.05	8435.29
468.23	8255.07
468.41	8411.89
468.60	8524.23
468.78	8575.72
468.96	8479.76
469.14	8540.61
469.32	8608.49
469.50	8545.30
469.69	8912.76
469.87	8823.82
470.05	8800.41
470.23	8865.95
470.41	8734.88
470.59	9050.85
470.77	9041.49
470.95	8887.01
471.14	9092.98
471.32	9043.83
471.50	9011.06
471.68	8938.51
471.86	9305.97
472.04	9025.11
472.22	9343.42
472.40	8940.85
472.58	9191.28
472.77	9455.76
472.95	9617.26
473.13	9603.22
473.31	9425.34
473.49	9493.21
473.67	9511.94
473.85	9661.73
474.03	9694.50
474.21	9872.38
474.39	9769.40
474.57	9858.34
474.75	9973.02
474.93	10003.45
475.12	10092.39
475.30	10106.43
475.48	10050.26
475.66	10186.01
475.84	10136.86
476.02	10473.90
476.20	10298.36
476.38	10476.24
476.56	10647.10
476.74	10452.83
476.92	10317.08
477.10	10534.75
477.28	10862.43
477.46	10789.87
477.64	10946.69
477.82	11073.07
478.00	11379.68
478.18	11178.40
478.36	11417.13
478.54	11255.64
478.72	11431.18
478.90	11681.61
479.08	11592.67
479.26	11602.04
479.44	11756.51
479.62	11880.56
479.80	11815.02
479.98	11892.26
480.16	12248.02
480.34	12170.79
480.52	12512.50
480.70	12444.63
480.88	12231.64
481.06	12446.97
481.24	12552.29
481.41	12676.34
481.59	12578.04
481.77	12898.69
481.95	13008.70
482.13	13027.42
482.31	12959.55
482.49	13273.18
482.67	13500.21
482.85	13518.93
483.03	13626.60
483.21	13668.73
483.39	14359.19
483.57	13650.00
483.74	14239.82
483.92	14153.22
484.10	14169.60
484.28	14113.43
484.46	14586.22
484.64	14773.46
484.82	14941.98
485.00	14806.23
485.18	14885.81
485.35	15377.32
485.53	15253.27
485.71	15372.64
485.89	15578.61
486.07	15440.51
486.25	15487.32
486.43	15892.24
486.61	15379.66
486.78	15822.02
486.96	15976.50
487.14	16400.13
487.32	16355.66
487.50	16388.43
487.68	16627.17
487.85	16664.61
488.03	16952.50
488.21	16996.97
488.39	17345.71
488.57	17385.50
488.75	17289.54
488.92	17647.64
489.10	17598.49
489.28	17584.44
489.46	17923.82
489.64	18005.74
489.81	18209.37
489.99	18249.16
490.17	18314.69
490.35	18298.31
490.53	18668.11
490.70	18911.53
490.88	18625.98
491.06	19119.84
491.24	18932.59
491.41	19374.95
491.59	19499.00
491.77	19639.44
491.95	19548.15
492.13	19515.39
492.30	19924.98
492.48	19669.86
492.66	19723.69
492.84	19681.56
493.01	20315.85
493.19	20180.10
493.37	20292.44
493.54	20538.20
493.72	20732.47
493.90	20851.83
494.08	20833.11
494.25	21158.44
494.43	21032.05
494.61	21282.49
494.79	21329.30
494.96	21551.65
495.14	21696.77
495.32	22019.76
495.49	21825.50
495.67	21844.22
495.85	22106.36
496.02	22389.56
496.20	22382.54
496.38	22773.41
496.55	22415.31
496.73	23023.85
496.91	22794.48
497.09	22855.33
497.26	22979.38
497.44	23211.09
497.62	23243.86
497.79	23400.68
497.97	23726.01
498.14	23445.15
498.32	23941.34
498.50	23723.67
498.67	24198.80
498.85	24072.41
499.03	24362.64
499.20	24332.21
499.38	24482.00
499.56	24634.14
499.73	24694.99
499.91	24732.44
500.08	24746.48
500.26	24870.53
500.44	24933.73
500.61	25296.51
500.79	25139.69
500.97	25078.84
501.14	25507.16
501.32	25287.15
501.49	25273.10
501.67	25415.88
501.84	25546.95
502.02	25818.45
502.20	25832.49
502.37	26382.52
502.55	26181.23
502.72	25788.02
502.90	25989.31
503.07	26230.38
503.25	26260.81
503.43	25961.22
503.60	26429.33
503.78	26581.46
503.95	26164.85
504.13	26955.95
504.30	27112.77
504.48	26944.25
504.65	27180.64
504.83	27105.74
505.01	27377.25
505.18	27482.57
505.36	27592.58
505.53	27749.39
505.71	27648.75
505.88	27704.92
506.06	27445.12
506.23	27800.88
506.41	27807.90
506.58	27632.36
506.76	27906.21
506.93	28170.69
507.11	27819.61
507.28	28313.46
507.46	28355.59
507.63	28587.30
507.81	28961.79
507.98	28685.61
508.16	28765.18
508.33	28835.40
508.50	28893.91
508.68	29142.01
508.85	29099.88
509.03	28898.59
509.20	29158.39
509.38	29514.16
509.55	29406.49
509.73	29806.72
509.90	29652.25
510.08	29240.31
510.25	30195.25
510.42	30106.31
510.60	29937.79
510.77	30155.46
510.95	30424.62
511.12	30108.65
511.30	30103.97
511.47	29837.15
511.64	30483.14
511.82	30658.68
511.99	30686.76
512.17	30401.22
512.34	30684.42
512.51	30984.01
512.69	30883.37
512.86	30572.08
513.04	31250.83
513.21	31180.62
513.38	31250.83
513.56	31398.29
513.73	31058.91
513.90	31461.48
514.08	31615.96
514.25	31735.32
514.43	31707.24
514.60	31857.03
514.77	31821.92
514.95	31850.01
515.12	31714.26
515.29	31777.45
515.47	32283.01
515.64	31924.91
515.81	31821.92
515.99	32465.57
516.16	32526.42
516.33	32503.02
516.51	32849.42
516.68	32631.75
516.85	33184.12
517.03	32706.65
517.20	33013.26
517.37	32755.80
517.54	33041.34
517.72	33179.43
517.89	33071.77
518.06	33230.93
518.24	33352.63
518.41	33336.25
518.58	33610.09
518.75	33029.64
518.93	33544.56
519.10	33532.86
519.27	33858.19
519.45	33640.52
519.62	33825.42
519.79	34134.37
519.96	33619.46
520.14	34300.55
520.31	33771.59
520.48	33820.74
520.65	33902.66
520.83	35005.05
521.00	34466.73
521.17	34632.91
521.34	34719.51
521.52	34829.51
521.69	35124.42
521.86	34782.70
522.03	35124.42
522.20	35260.17
522.38	35189.95
522.55	34998.03
522.72	34728.87
522.89	35239.11
523.07	35805.52
523.24	35484.86
523.41	35763.39
523.58	35538.69
523.75	35927.22
523.92	35849.99
524.10	35990.42
524.27	35842.96
524.44	36072.34
524.61	36175.32
524.78	35838.28
524.96	35917.86
525.13	36500.65
525.30	36524.06
525.47	36690.24
525.64	36107.44
525.81	36615.34
525.98	36613.00
526.16	36620.02
526.33	36645.77
526.50	36793.22
526.67	36526.40
526.84	36811.95
527.01	36837.69
527.18	36821.31
527.36	36978.12
527.53	37354.95
527.70	37514.11
527.87	37125.58
528.04	37439.21
528.21	37549.21
528.38	37013.23
528.55	37621.77
528.72	37422.83
528.89	37673.26
529.07	37589.00
529.24	37392.40
529.41	37596.03
529.58	37958.81
529.75	37399.42
529.92	37869.87
530.09	37921.36
530.26	38073.49
530.43	37820.72
530.60	37965.83
530.77	37741.14
530.94	38167.12
531.11	37972.85
531.28	38202.22
531.46	38340.32
531.63	38719.48
531.80	38153.07
531.97	38752.25
532.14	38651.61
532.31	38375.42
532.48	38649.27
532.65	38827.15
532.82	38663.31
532.99	38855.23
533.16	38501.81
533.33	38607.14
533.50	39192.27
533.67	38885.66
533.84	39297.59
534.01	39281.21
534.18	39445.05
534.35	39353.77
534.52	39590.16
534.69	39763.36
534.86	39587.82
535.03	39384.19
535.20	39615.91
535.37	39791.45
535.54	39550.37
535.71	39924.86
535.88	39835.92
536.05	39791.45
536.22	40362.54
536.38	40355.52
536.55	39746.98
536.72	40079.33
536.89	40107.42
537.06	40081.67
537.23	40369.56
537.40	39969.33
537.57	40065.29
537.74	39786.77
537.91	40540.42
538.08	40467.86
538.25	39835.92
538.42	40474.88
538.59	40655.11
538.75	40837.67
538.92	40189.34
539.09	40788.52
539.26	40472.54
539.43	40690.21
539.60	40491.27
539.77	40760.43
539.94	41392.37
540.11	41139.60
540.28	40844.69
540.44	41118.53
540.61	40781.49
540.78	40884.48
540.95	40921.93
541.12	41172.36
541.29	41282.37
541.46	41371.31
541.62	41261.30
541.79	41539.83
541.96	41434.50
542.13	41439.18
542.30	41378.33
542.47	41469.61
542.63	41607.70
542.80	42209.22
542.97	41811.33
543.14	42330.93
543.31	42024.32
543.48	41890.91
543.64	42253.69
543.81	42277.10
543.98	42321.57
544.15	42351.99
544.32	42628.18
544.48	42670.31
544.65	42330.93
544.82	42913.72
544.99	42677.33
545.16	42618.81
545.32	42637.54
545.49	43119.69
545.66	42784.99
545.83	42754.57
546.00	42794.36
546.16	42941.81
546.33	42408.17
546.50	42401.14
546.67	42705.41
546.83	42841.17
547.00	43386.51
547.17	42787.33
547.34	42974.58
547.50	43374.81
547.67	43110.33
547.84	43407.58
548.00	43557.37
548.17	43622.90
548.34	43016.71
548.51	43578.43
548.67	43716.53
548.84	43519.92
549.01	43217.99
549.18	43473.11
549.34	43812.49
549.51	43452.05
549.68	43805.47
549.84	43503.54
550.01	43966.96
550.18	43833.55
550.34	43477.79
550.51	44060.58
550.68	43955.26
550.84	43934.20
551.01	44172.93
551.18	44020.80
551.34	44144.84
551.51	44327.41
551.68	44531.03
551.84	43983.35
552.01	43896.75
552.18	44446.77
552.34	43899.09
552.51	44493.58
552.68	44006.75
552.84	44186.97
553.01	44128.46
553.18	44144.84
553.34	44516.99
553.51	44013.77
553.67	44456.14
553.84	45003.82
554.01	44711.25
554.17	44793.17
554.34	44725.30
554.51	44744.02
554.67	45074.04
554.84	45076.38
555.00	44692.53
555.17	45088.08
555.33	44989.78
555.50	44786.15
555.67	45024.89
555.83	44912.54
556.00	44954.67
556.16	45432.14
556.33	44989.78
556.50	45352.56
556.66	45074.04
556.83	44629.34
556.99	45532.78
557.16	45172.34
557.32	44980.42
557.49	45598.32
557.65	45272.98
557.82	45523.42
557.98	45717.68
558.15	45420.44
558.32	45226.17
558.48	45256.60
558.65	45177.02
558.81	45766.84
558.98	45752.79
559.14	45565.55
559.31	45345.54
559.47	45614.70
559.64	45825.35
559.80	45631.08
559.97	46220.90
560.13	45427.46
560.30	45780.88
560.46	46328.56
560.63	45944.72
560.79	45832.37
560.96	46160.05
561.12	46085.15
561.29	45848.75
561.45	46373.03
561.61	46288.77
561.78	45907.27
561.94	45893.22
562.11	45797.26
562.27	45736.41
562.44	46110.89
562.60	45834.71
562.77	46052.38
562.93	45911.95
563.10	46611.77
563.26	46085.15
563.42	46298.14
563.59	46244.30
563.75	45890.88
563.92	46192.81
564.08	45933.01
564.24	46693.69
564.41	46579.00
564.57	46146.00
564.74	46410.48
564.90	46384.74
565.07	46103.87
565.23	46288.77
565.39	46438.57
565.56	46337.93
565.72	46532.19
565.88	46382.40
566.05	46635.17
566.21	46466.66
566.38	46405.80
566.54	46583.68
566.70	46579.00
566.87	46403.46
567.03	46642.20
567.19	46866.89
567.36	46710.07
567.52	46623.47
567.68	46733.48
567.85	46557.94
568.01	47084.56
568.17	46581.34
568.34	46871.57
568.50	46581.34
568.66	46887.95
568.83	46653.90
568.99	47044.77
569.15	46515.81
569.32	46698.37
569.48	46897.31
569.64	47414.57
569.81	47000.30
569.97	46658.58
570.13	46897.31
570.30	47302.23
570.46	47086.90
570.62	46796.67
570.78	46820.08
570.95	47042.43
571.11	46960.51
571.27	46930.08
571.43	47021.36
571.60	47290.52
571.76	47136.05
571.92	47047.11
572.09	47061.15
572.25	46873.91
572.41	46813.05
572.57	46824.76
572.74	47405.21
572.90	47138.39
573.06	46913.70
573.22	47416.91
573.38	47363.08
573.55	47437.98
573.71	47615.86
573.87	47124.35
574.03	47173.50
574.20	47105.62
574.36	47199.24
574.52	47510.53
574.68	47269.46
574.84	47360.74
575.01	47615.86
575.17	47601.82
575.33	47487.13
575.49	46955.83
575.65	47215.63
575.82	47456.70
575.98	46815.40
576.14	47515.22
576.30	47765.65
576.46	47470.75
576.62	47140.73
576.79	47208.61
576.95	46691.35
577.11	47185.20
577.27	47285.84
577.43	47407.55
577.59	47248.39
577.75	47283.50
577.92	46639.86
578.08	47437.98
578.24	46897.31
578.40	47505.85
578.56	47786.72
578.72	47365.42
578.88	47643.94
579.04	47400.53
579.21	47374.78
579.37	47697.78
579.53	47524.58
579.69	47168.82
579.85	47241.37
580.01	47779.70
580.17	47351.38
580.33	47667.35
580.49	47405.21
580.65	47222.65
580.82	47000.30
580.98	47480.11
581.14	47484.79
581.30	47725.86
581.46	47480.11
581.62	47157.11
581.78	47232.01
581.94	47393.51
582.10	47381.80
582.26	47489.47
582.42	47885.02
582.58	47452.02
582.74	47875.66
582.90	47398.19
583.06	48154.18
583.22	47412.23
583.38	47835.87
583.54	47679.05
583.70	47634.58
583.86	47723.52
584.02	47775.02
584.18	47995.03
584.34	47737.57
584.50	47688.42
584.66	47660.33
584.82	47868.64
584.98	47821.83
585.14	47725.86
585.30	47753.95
585.46	47543.30
585.62	47728.20
585.78	47833.53
585.94	47426.28
586.10	47917.79
586.26	47302.23
586.42	47508.19
586.58	47723.52
586.74	47522.24
586.90	47269.46
587.06	47367.76
587.22	47672.03
587.38	47782.04
587.54	47681.39
587.70	47744.59
587.86	47910.77
588.02	47807.78
588.18	47777.36
588.34	47445.00
588.49	47978.64
588.65	47700.12
588.81	48079.28
588.97	48126.10
589.13	47913.11
589.29	47983.32
589.45	47976.30
589.61	47735.23
589.77	48205.67
589.93	47920.13
