SpectraSuite Data File
++++++++++++++++++++++++++++++++++++
Date: Fri Oct 25 10:47:58 EDT 2013
User: price-jones
Dark Spectrum Present: No
Reference Spectrum Present: No
Number of Sampled Component Spectra: 1
Spectrometers: USB2+H05261
Integration Time (usec): 100000 (USB2+H05261)
Spectra Averaged: 1 (USB2+H05261)
Boxcar Smoothing: 0 (USB2+H05261)
Correct for Electrical Dark: No (USB2+H05261)
Strobe/Lamp Enabled: No (USB2+H05261)
Correct for Detector Non-linearity: No (USB2+H05261)
Correct for Stray Light: No (USB2+H05261)
Number of Pixels in Processed Spectrum: 2048
>>>>>Begin Processed Spectral Data<<<<<
365.73	138.09
365.92	138.09
366.12	138.09
366.32	112.35
366.52	88.94
366.72	63.19
366.91	18.72
367.11	49.15
367.31	53.83
367.51	18.72
367.70	110.01
367.90	93.62
368.10	56.17
368.30	49.15
368.49	39.79
368.69	11.70
368.89	0.00
369.09	18.72
369.28	77.24
369.48	46.81
369.68	79.58
369.87	110.01
370.07	49.15
370.27	142.77
370.47	205.97
370.66	379.17
370.86	348.74
371.06	411.93
371.25	507.90
371.45	456.40
371.65	444.70
371.84	486.83
372.04	402.57
372.24	425.98
372.44	524.28
372.63	479.81
372.83	535.98
373.03	519.60
373.22	470.45
373.42	524.28
373.62	561.73
373.81	442.36
374.01	554.71
374.21	585.13
374.40	514.92
374.60	596.84
374.79	550.03
374.99	521.94
375.19	557.05
375.38	596.84
375.58	615.56
375.78	559.39
375.97	589.82
376.17	613.22
376.37	578.11
376.56	578.11
376.76	561.73
376.95	528.96
377.15	601.52
377.35	589.82
377.54	629.60
377.74	587.47
377.93	561.73
378.13	599.18
378.33	643.65
378.52	671.73
378.72	685.78
378.91	636.63
379.11	664.71
379.31	594.50
379.50	613.22
379.70	720.88
379.89	671.73
380.09	683.44
380.28	564.07
380.48	674.07
380.68	622.58
380.87	690.46
381.07	631.94
381.26	716.20
381.46	681.10
381.65	709.18
381.85	788.76
382.04	688.12
382.24	695.14
382.43	709.18
382.63	641.31
382.83	664.71
383.02	760.67
383.22	702.16
383.41	681.10
383.61	725.57
383.80	718.54
384.00	709.18
384.19	746.63
384.39	709.18
384.58	800.46
384.78	692.80
384.97	774.72
385.17	777.06
385.36	725.57
385.56	732.59
385.75	706.84
385.95	732.59
386.14	929.19
386.34	823.87
386.53	709.18
386.72	739.61
386.92	816.85
387.11	835.57
387.31	863.66
387.50	777.06
387.70	861.32
387.89	788.76
388.09	800.46
388.28	748.97
388.48	854.30
388.67	903.45
388.86	858.98
389.06	847.27
389.25	840.25
389.45	1001.75
389.64	1022.81
389.84	898.77
390.03	847.27
390.22	943.24
390.42	884.72
390.61	1013.45
390.81	912.81
391.00	992.39
391.19	943.24
391.39	980.68
391.58	945.58
391.78	936.21
391.97	971.32
392.16	950.26
392.36	999.41
392.55	959.62
392.75	1022.81
392.94	957.28
393.13	940.90
393.33	931.53
393.52	973.66
393.71	1132.82
393.91	1043.88
394.10	954.94
394.29	1025.15
394.49	1011.11
394.68	1027.50
394.88	1081.33
395.07	1123.46
395.26	1184.31
395.46	1076.65
395.65	1170.27
395.84	1074.31
396.04	1205.38
396.23	1149.20
396.42	1062.60
396.62	1196.01
396.81	1198.35
397.00	1116.44
397.19	1170.27
397.39	1188.99
397.58	1242.82
397.77	1205.38
397.97	1299.00
398.16	1282.61
398.35	1273.25
398.55	1336.45
398.74	1308.36
398.93	1380.92
399.12	1301.34
399.32	1299.00
399.51	1303.68
399.70	1338.79
399.90	1399.64
400.09	1390.28
400.28	1378.58
400.47	1444.11
400.67	1526.03
400.86	1383.26
401.05	1423.05
401.24	1432.41
401.44	1624.33
401.63	1596.25
401.82	1474.54
402.01	1406.66
402.21	1486.24
402.40	1493.26
402.59	1556.46
402.78	1509.65
402.97	1614.97
403.17	1629.01
403.36	1600.93
403.55	1537.73
403.74	1657.10
403.93	1603.27
404.13	1547.09
404.32	1568.16
404.51	1675.82
404.70	1739.02
404.89	1589.22
405.09	1727.32
405.28	1638.38
405.47	1624.33
405.66	1830.30
405.85	1629.01
406.05	1661.78
406.24	1701.57
406.43	1741.36
406.62	1823.28
406.81	1884.13
407.00	1792.85
407.20	1804.55
407.39	1823.28
407.58	1902.86
407.77	1928.60
407.96	1961.37
408.15	1954.35
408.34	2045.63
408.54	2029.24
408.73	2017.54
408.92	1973.07
409.11	2083.08
409.30	1926.26
409.49	2029.24
409.68	2019.88
409.87	2083.08
410.07	2057.33
410.26	2054.99
410.45	1874.77
410.64	2118.18
410.83	2253.94
411.02	2139.25
411.21	2265.64
411.40	2232.87
411.59	2221.17
411.78	2267.98
411.98	2209.47
412.17	2267.98
412.36	2303.09
412.55	2375.64
412.74	2370.96
412.93	2349.90
413.12	2502.03
413.31	2576.93
413.50	2408.41
413.69	2623.74
413.88	2555.86
414.07	2502.03
414.26	2532.46
414.45	2588.63
414.64	2567.57
414.83	2537.14
415.02	2780.56
415.22	2825.03
415.41	2832.05
415.60	2726.72
415.79	2731.41
415.98	2796.94
416.17	2768.85
416.36	2855.45
416.55	2902.26
416.74	2916.31
416.93	2916.31
417.12	2899.92
417.31	3075.46
417.50	2860.13
417.69	2998.23
417.88	3033.33
418.07	2998.23
418.26	2991.20
418.45	3141.00
418.64	3112.91
418.83	3150.36
419.02	3087.17
419.21	3204.19
419.39	3236.96
419.58	3091.85
419.77	3131.64
419.96	3304.84
420.15	3349.31
420.34	3187.81
420.53	3293.13
420.72	3363.35
420.91	3288.45
421.10	3421.86
421.29	3522.51
421.48	3356.33
421.67	3473.36
421.86	3328.24
422.05	3389.10
422.24	3419.52
422.43	3440.59
422.61	3442.93
422.80	3454.63
422.99	3468.67
423.18	3473.36
423.37	3646.55
423.56	3485.06
423.75	3445.27
423.94	3316.54
424.13	3143.34
424.32	3494.42
424.50	3494.42
424.69	3513.14
424.88	3588.04
425.07	3412.50
425.26	3449.95
425.45	3452.29
425.64	3576.34
425.83	3503.78
426.01	3641.87
426.20	3662.94
426.39	3555.27
426.58	3433.57
426.77	3461.65
426.96	3695.71
427.15	3552.93
427.33	3478.04
427.52	3602.08
427.71	3709.75
427.90	3740.18
428.09	3829.12
428.28	3667.62
428.46	3854.86
428.65	3714.43
428.84	3786.99
429.03	3887.63
429.22	3779.97
429.40	3751.88
429.59	3808.05
429.78	3684.00
429.97	3618.47
430.16	3695.71
430.34	3700.39
430.53	3920.40
430.72	3770.60
430.91	3859.54
431.10	3927.42
431.28	3927.42
431.47	4145.09
431.66	4121.68
431.85	4028.06
432.03	4100.62
432.22	4135.73
432.41	4124.02
432.60	4032.74
432.79	4175.52
432.97	4147.43
433.16	4140.41
433.35	4175.52
433.54	4231.69
433.72	4287.86
433.91	4081.89
434.10	4346.37
434.28	4320.63
434.47	4376.80
434.66	4447.02
434.85	4381.48
435.03	4468.08
435.22	4421.27
435.41	4587.45
435.59	4362.76
435.78	4526.60
435.97	4566.39
436.16	4519.57
436.34	4580.43
436.53	4528.94
436.72	4631.92
436.90	4486.81
437.09	4648.30
437.28	4596.81
437.46	4720.86
437.65	4732.56
437.84	4786.40
438.02	4603.83
438.21	4690.43
438.40	4561.70
438.58	4947.89
438.77	4821.50
438.96	4781.71
439.14	5100.03
439.33	5111.73
439.52	4865.97
439.70	5083.64
439.89	5041.51
440.08	5020.45
440.26	5144.50
440.45	5130.45
440.63	5298.97
440.82	5298.97
441.01	5235.78
441.19	5371.53
441.38	5392.59
441.57	5416.00
441.75	5509.62
441.94	5551.75
442.12	5621.97
442.31	5708.57
442.50	5687.50
442.68	5554.09
442.87	5621.97
443.05	5827.93
443.24	5790.49
443.43	5788.14
443.61	5823.25
443.80	5923.90
443.98	5666.44
444.17	5696.86
444.35	5909.85
444.54	5820.91
444.73	5729.63
444.91	5678.14
445.10	5902.83
445.28	5729.63
445.47	5715.59
445.65	5802.19
445.84	5741.33
446.02	5961.34
446.21	5888.79
446.39	5867.72
446.58	5973.05
446.77	5895.81
446.95	5940.28
447.14	5870.06
447.32	6022.20
447.51	5954.32
447.69	5977.73
447.88	5895.81
448.06	6005.81
448.25	6090.07
448.43	5984.75
448.62	6083.05
448.80	5879.43
448.99	6064.33
449.17	6155.61
449.36	6120.50
449.54	6258.59
449.73	6244.55
449.91	6200.08
450.10	6345.19
450.28	6267.95
450.46	6410.73
450.65	6324.13
450.83	6422.43
451.02	6356.90
451.20	6415.41
451.39	6282.00
451.57	6298.38
451.76	6427.11
451.94	6415.41
452.13	6483.28
452.31	6415.41
452.49	6356.90
452.68	6497.33
452.86	6382.64
453.05	6569.88
453.23	6551.16
453.42	6415.41
453.60	6672.87
453.78	6626.06
453.97	6640.10
454.15	6738.40
454.34	6544.14
454.52	6668.19
454.70	6808.62
454.89	6813.30
455.07	6581.59
455.26	6530.09
455.44	6789.89
455.62	7030.97
455.81	6958.41
455.99	6951.39
456.17	7037.99
456.36	6977.14
456.54	7040.33
456.73	7084.80
456.91	7286.09
457.09	7166.72
457.28	7368.01
457.46	7194.81
457.64	7269.70
457.83	7218.21
458.01	7119.91
458.19	7449.93
458.38	7335.24
458.56	7232.26
458.74	7391.41
458.93	7190.13
459.11	7393.75
459.29	7501.42
459.48	7623.12
459.66	7459.29
459.84	7428.86
460.03	7529.50
460.21	7616.10
460.39	7447.58
460.57	7386.73
460.76	7728.45
460.94	7901.65
461.12	7665.25
461.31	7770.58
461.49	7857.18
461.67	7719.09
461.85	7894.63
462.04	7829.09
462.22	8416.57
462.40	7875.90
462.59	7974.21
462.77	8030.38
462.95	7882.92
463.13	7971.86
463.32	8046.76
463.50	8093.57
463.68	7810.37
463.86	7948.46
464.05	7899.31
464.23	8177.83
464.41	8095.91
464.59	8016.33
464.78	8203.58
464.96	8187.19
465.14	8166.13
465.32	8245.71
465.50	8292.52
465.69	8454.02
465.87	8320.60
466.05	8170.81
466.23	8241.03
466.41	8243.37
466.60	8362.73
466.78	8383.80
466.96	8414.23
467.14	8479.76
467.32	8400.18
467.51	8627.21
467.69	8381.46
467.87	8545.30
468.05	8585.08
468.23	8599.13
468.41	8465.72
468.60	8561.68
468.78	8732.54
468.96	8650.62
469.14	8819.14
469.32	8800.41
469.50	8510.19
469.69	8802.75
469.87	8767.65
470.05	8807.44
470.23	8973.61
470.41	8891.70
470.59	8830.84
470.77	8896.38
470.95	8966.59
471.14	9071.92
471.32	9043.83
471.50	9172.56
471.68	9174.90
471.86	9296.61
472.04	9114.05
472.22	9525.98
472.40	9441.72
472.58	9359.80
472.77	9378.53
472.95	9561.09
473.13	9865.36
473.31	9357.46
473.49	9345.76
473.67	9575.13
473.85	9612.58
474.03	9996.43
474.21	9673.43
474.39	10181.33
474.57	9774.08
474.75	9954.30
474.93	10061.96
475.12	10146.22
475.30	10286.65
475.48	10087.71
475.66	10349.85
475.84	10033.88
476.02	10349.85
476.20	10401.34
476.38	10466.88
476.56	10857.75
476.74	10600.29
476.92	10509.01
477.10	10810.93
477.28	10963.07
477.46	11047.33
477.64	10993.50
477.82	10998.18
478.00	11222.87
478.18	11208.83
478.36	11204.14
478.54	11403.09
478.72	11517.78
478.90	11770.55
479.08	11648.85
479.26	11784.60
479.44	11768.21
479.62	11885.24
479.80	12058.44
479.98	11981.20
480.16	12358.03
480.34	12231.64
480.52	12510.16
480.70	12367.39
480.88	12219.94
481.06	12547.61
481.24	12545.27
481.41	12566.34
481.59	12842.52
481.77	13205.30
481.95	13202.96
482.13	13249.77
482.31	13020.40
482.49	13427.65
482.67	13308.29
482.85	13404.25
483.03	13710.86
483.21	13671.07
483.39	13870.01
483.57	13879.38
483.74	13886.40
483.92	14104.07
484.10	14134.50
484.28	14303.01
484.46	14403.66
484.64	14766.44
484.82	14518.34
485.00	14747.72
485.18	15002.83
485.35	15136.24
485.53	14593.24
485.71	14995.81
485.89	15138.58
486.07	15321.15
486.25	15330.51
486.43	15571.58
486.61	15676.91
486.78	15782.23
486.96	15950.75
487.14	16142.67
487.32	16395.45
487.50	16334.60
487.68	16671.64
487.85	16893.99
488.03	17015.69
488.21	17076.55
488.39	17132.72
488.57	17392.52
488.75	17153.79
488.92	17621.89
489.10	17434.65
489.28	17642.96
489.46	18073.62
489.64	17755.30
489.81	18281.92
489.99	18221.07
490.17	18288.95
490.35	18359.16
490.53	18415.34
490.70	18546.40
490.88	18623.64
491.06	18998.13
491.24	19164.31
491.41	19267.29
491.59	19218.14
491.77	18864.72
491.95	19183.03
492.13	19646.46
492.30	19695.61
492.48	19957.75
492.66	19829.02
492.84	19707.31
493.01	20105.20
493.19	19932.00
493.37	20299.47
493.54	20659.91
493.72	20788.64
493.90	20652.89
494.08	20971.20
494.25	21109.29
494.43	20989.92
494.61	21231.00
494.79	21231.00
494.96	21331.64
495.14	21380.79
495.32	21792.73
495.49	21895.71
495.67	21827.84
495.85	22015.08
496.02	22295.94
496.20	22190.62
496.38	22164.87
496.55	22558.08
496.73	22902.14
496.91	22565.10
497.09	22696.17
497.26	22752.35
497.44	22803.84
497.62	23154.92
497.79	23061.30
497.97	23206.41
498.14	23255.56
498.32	23608.98
498.50	23805.59
498.67	23838.36
498.85	23985.81
499.03	24208.16
499.20	23917.93
499.38	24374.34
499.56	24175.39
499.73	24254.97
499.91	24400.08
500.08	24673.93
500.26	24332.21
500.44	24360.30
500.61	24325.19
500.79	24563.92
500.97	24886.92
501.14	25034.37
501.32	25015.65
501.49	24959.47
501.67	25291.83
501.84	25319.92
502.02	25163.10
502.20	25472.05
502.37	25872.28
502.55	25582.06
502.72	26125.06
502.90	25862.92
503.07	25886.32
503.25	26150.81
503.43	25989.31
503.60	26132.08
503.78	26197.62
503.95	26146.12
504.13	26401.24
504.30	26625.93
504.48	26490.18
504.65	26665.72
504.83	26890.41
505.01	26981.70
505.18	27063.61
505.36	27278.94
505.53	27080.00
505.71	27346.82
505.88	27410.01
506.06	26789.77
506.23	27440.44
506.41	27154.90
506.58	27538.74
506.76	28002.17
506.93	27803.22
507.11	27889.82
507.28	27543.42
507.46	27522.36
507.63	27714.28
507.81	28016.21
507.98	27892.16
508.16	27861.74
508.33	28360.27
508.50	28233.88
508.68	28552.20
508.85	28617.73
509.03	28652.84
509.20	28774.55
509.38	29022.64
509.55	28797.95
509.73	29120.95
509.90	28584.96
510.08	29074.13
510.25	28980.51
510.42	29113.92
510.60	29364.36
510.77	29303.51
510.95	29586.71
511.12	29544.58
511.30	29582.03
511.47	30003.33
511.64	30015.03
511.82	29638.20
511.99	29563.31
512.17	30040.78
512.34	29853.53
512.51	30265.47
512.69	30518.25
512.86	30242.06
513.04	30888.05
513.21	30569.74
513.38	30314.62
513.56	30555.69
513.73	30157.80
513.90	30511.22
514.08	30698.47
514.25	31267.22
514.43	30806.13
514.60	31173.60
514.77	30878.69
514.95	31370.20
515.12	31119.76
515.29	30991.03
515.47	31625.32
515.64	31538.72
515.81	31358.50
515.99	31559.78
516.16	31576.17
516.33	31367.86
516.51	31789.16
516.68	31519.99
516.85	31122.10
517.03	31552.76
517.20	32013.85
517.37	31915.54
517.54	31945.97
517.72	32577.92
517.89	32325.14
518.06	32149.60
518.24	31941.29
518.41	32189.39
518.58	32252.58
518.75	32479.61
518.93	32678.56
519.10	32308.76
519.27	32823.67
519.45	32744.09
519.62	32711.33
519.79	33092.83
519.96	32858.78
520.14	33448.60
520.31	33181.77
520.48	33165.39
520.65	33046.02
520.83	33397.10
521.00	33504.77
521.17	33280.08
521.34	33663.93
521.52	33916.70
521.69	33825.42
521.86	33802.02
522.03	33841.81
522.20	34263.10
522.38	33802.02
522.55	34045.43
522.72	33933.09
522.89	33951.81
523.07	34319.28
523.24	34139.05
523.41	34115.65
523.58	34452.69
523.75	34675.04
523.92	34824.83
524.10	34668.02
524.27	34532.26
524.44	35117.40
524.61	34841.21
524.78	35098.67
524.96	35065.91
525.13	35346.77
525.30	35311.66
525.47	35508.27
525.64	35566.78
525.81	35211.02
525.98	35407.62
526.16	35494.22
526.33	35325.71
526.50	35651.04
526.67	35510.61
526.84	35648.70
527.01	34960.58
527.18	35653.38
527.36	36163.62
527.53	35737.64
527.70	36252.56
527.87	35721.26
528.04	36107.44
528.21	36180.00
528.38	35847.64
528.55	36311.07
528.72	36395.33
528.89	36102.76
529.07	36336.82
529.24	36304.05
529.41	36404.69
529.58	36439.80
529.75	36060.63
529.92	36898.55
530.09	36912.59
530.26	37017.91
530.43	36797.90
530.60	36575.55
530.77	36851.73
530.94	36851.73
531.11	36591.94
531.28	36802.58
531.46	36905.57
531.63	37085.79
531.80	37261.33
531.97	37532.83
532.14	37282.39
532.31	37212.18
532.48	37230.90
532.65	37500.06
532.82	37333.89
532.99	37254.31
533.16	37820.72
533.33	37703.69
533.50	37923.70
533.67	37904.98
533.84	37319.84
534.01	37867.53
534.18	37556.24
534.35	38054.77
534.52	37598.37
534.69	37914.34
534.86	37944.76
535.03	37949.45
535.20	38178.82
535.37	38117.96
535.54	38410.53
535.71	38113.28
535.88	38712.46
536.05	38347.34
536.22	38300.53
536.38	38581.39
536.55	38492.45
536.72	38700.76
536.89	37937.74
537.06	38520.54
537.23	38799.06
537.40	38712.46
537.57	38890.34
537.74	38632.88
537.91	39241.42
538.08	39225.04
538.25	38756.93
538.42	38766.29
538.59	39470.79
538.75	38724.16
538.92	39086.95
539.09	39646.33
539.26	39566.76
539.43	39592.50
539.60	38941.83
539.77	39335.04
539.94	39400.58
540.11	39370.15
540.28	39674.42
540.44	39501.22
540.61	39061.20
540.78	39096.31
540.95	39339.72
541.12	39049.50
541.29	39407.60
541.46	39522.29
541.62	39613.57
541.79	39849.96
541.96	39852.30
542.13	40058.27
542.30	40020.82
542.47	39997.41
542.63	40350.84
542.80	39997.41
542.97	40463.18
543.14	40870.43
543.31	40313.39
543.48	40215.08
543.64	41258.96
543.81	40685.53
543.98	40170.61
544.15	40612.98
544.32	40620.00
544.48	41074.06
544.65	40704.26
544.82	40706.60
544.99	40189.34
545.16	40741.71
545.32	40868.09
545.49	40720.64
545.66	41436.84
545.83	40957.03
546.00	41184.07
546.16	41174.70
546.33	40825.96
546.50	40451.48
546.67	40643.40
546.83	40769.79
547.00	40905.54
547.17	41160.66
547.34	41003.85
547.50	41600.68
547.67	41446.21
547.84	41546.85
548.00	41317.48
548.17	41811.33
548.34	41319.82
548.51	41635.79
548.67	41621.75
548.84	41251.94
549.01	41535.15
549.18	41656.85
549.34	41567.91
549.51	41738.77
549.68	41972.83
549.84	41780.90
550.01	42380.08
550.18	41656.85
550.34	41734.09
550.51	41949.42
550.68	41738.77
550.84	41694.30
551.01	42005.59
551.18	41982.19
551.34	41656.85
551.51	41773.88
551.68	42092.19
551.84	42363.70
552.01	42312.20
552.18	42326.25
552.34	42094.53
552.51	42724.14
552.68	42124.96
552.84	42576.69
553.01	42955.85
553.18	42141.35
553.34	42763.93
553.51	41982.19
553.67	42108.58
553.84	42691.37
554.01	42705.41
554.17	42962.87
554.34	42569.66
554.51	42707.76
554.67	42471.36
554.84	42553.28
555.00	42466.68
555.17	42607.11
555.33	42667.97
555.50	42314.55
555.67	42532.22
555.83	43012.02
556.00	43086.92
556.16	43098.62
556.33	42667.97
556.50	42796.70
556.66	42993.30
556.83	43033.09
556.99	43115.01
557.16	43058.84
557.32	43257.78
557.49	42909.04
557.65	42534.56
557.82	42897.34
557.98	42763.93
558.15	43225.01
558.32	43618.22
558.48	42885.64
558.65	43093.94
558.81	43049.47
558.98	43271.82
559.14	43571.41
559.31	43395.87
559.47	43688.44
559.64	43646.31
559.80	43430.98
559.97	43566.73
560.13	43370.13
560.30	43716.53
560.46	43700.14
560.63	43131.39
560.79	43435.66
560.96	43892.07
561.12	43648.65
561.29	43346.72
561.45	43463.75
561.61	43531.62
561.78	43150.12
561.94	43753.97
562.11	43552.69
562.27	43583.12
562.44	43622.90
562.60	44390.60
562.77	43852.28
562.93	43672.06
563.10	44086.33
563.26	43400.55
563.42	43892.07
563.59	43438.00
563.75	43973.98
563.92	43826.53
564.08	43643.97
564.24	44041.86
564.41	44046.54
564.57	43992.71
564.74	43997.39
564.90	43580.78
565.07	44285.28
565.23	43821.85
565.39	43665.03
565.56	43962.28
565.72	44081.65
565.88	43922.49
566.05	43859.30
566.21	44037.18
566.38	43739.93
566.54	44002.07
566.70	44493.58
566.87	44275.91
567.03	44175.27
567.19	44336.77
567.36	44285.28
567.52	43924.83
567.68	44350.81
567.85	43924.83
568.01	44114.42
568.17	44055.90
568.34	44442.09
568.50	44095.69
568.66	43924.83
568.83	44182.29
568.99	44170.59
569.15	43976.33
569.32	44037.18
569.48	44149.53
569.64	43978.67
569.81	44266.55
569.97	44046.54
570.13	44512.31
570.30	44273.57
570.46	44046.54
570.62	43924.83
570.78	43814.83
570.95	43697.80
571.11	44505.29
571.27	44210.38
571.43	44392.94
571.60	44371.88
571.76	44060.58
571.92	43976.33
572.09	44079.31
572.25	43868.66
572.41	44154.21
572.57	44243.15
572.74	44622.31
572.90	44486.56
573.06	44311.02
573.22	44641.04
573.38	44825.94
573.55	44308.68
573.71	44360.17
573.87	44624.65
574.03	44128.46
574.20	44381.24
574.36	44194.00
574.52	44788.49
574.68	44182.29
574.84	44664.44
575.01	44229.10
575.17	44350.81
575.33	44392.94
575.49	44203.36
575.65	44507.63
575.82	44982.76
575.98	44664.44
576.14	44549.76
576.30	44783.81
576.46	44149.53
576.62	44414.01
576.79	44126.12
576.95	44144.84
577.11	44575.50
577.27	44561.46
577.43	44273.57
577.59	44392.94
577.75	44545.08
577.92	44112.08
578.08	44533.37
578.24	44273.57
578.40	44374.22
578.56	44402.30
578.72	44594.23
578.88	44641.04
579.04	44535.71
579.21	44570.82
579.37	44034.84
579.53	44385.92
579.69	44451.45
579.85	44566.14
580.01	44299.32
580.17	44598.91
580.33	44872.75
580.49	44744.02
580.65	44577.84
580.82	44549.76
580.98	44680.83
581.14	44395.28
581.30	44851.69
581.46	44807.22
581.62	44500.61
581.78	44704.23
581.94	45074.04
582.10	44708.91
582.26	44985.10
582.42	44842.32
582.58	44666.78
582.74	44524.01
582.90	44385.92
583.06	45076.38
583.22	44629.34
583.38	44601.25
583.54	44662.10
583.70	44512.31
583.86	44116.76
584.02	44559.12
584.18	44875.09
584.34	44451.45
584.50	44676.15
584.66	44631.68
584.82	44638.70
584.98	44624.65
585.14	44823.60
585.30	44575.50
585.46	44519.33
585.62	44687.85
585.78	44362.51
585.94	44142.50
586.10	44531.03
586.26	44442.09
586.42	44814.24
586.58	44708.91
586.74	45006.16
586.90	44692.53
587.06	44573.16
587.22	44479.54
587.38	44458.48
587.54	44898.50
587.70	45090.42
587.86	45076.38
588.02	44610.61
588.18	44659.76
588.34	44727.64
588.49	44512.31
588.65	44381.24
588.81	44512.31
588.97	44685.51
589.13	44591.89
589.29	44626.99
589.45	45024.89
589.61	44739.34
589.77	44830.62
589.93	44603.59
590.08	44982.76
590.24	45099.78
