SpectraSuite Data File
++++++++++++++++++++++++++++++++++++
Date: Fri Oct 25 11:26:15 EDT 2013
User: price-jones
Dark Spectrum Present: No
Reference Spectrum Present: No
Number of Sampled Component Spectra: 1
Spectrometers: USB2+H05261
Integration Time (usec): 100000 (USB2+H05261)
Spectra Averaged: 1 (USB2+H05261)
Boxcar Smoothing: 0 (USB2+H05261)
Correct for Electrical Dark: No (USB2+H05261)
Strobe/Lamp Enabled: No (USB2+H05261)
Correct for Detector Non-linearity: No (USB2+H05261)
Correct for Stray Light: No (USB2+H05261)
Number of Pixels in Processed Spectrum: 2048
>>>>>Begin Processed Spectral Data<<<<<
365.73	285.55
365.92	285.55
366.12	285.55
366.32	133.41
366.52	91.28
366.72	126.39
366.91	191.92
367.11	147.45
367.31	91.28
367.51	84.26
367.70	117.03
367.90	112.35
368.10	173.20
368.30	180.22
368.49	128.73
368.69	91.28
368.89	145.11
369.09	173.20
369.28	201.29
369.48	154.48
369.68	187.24
369.87	208.31
370.07	259.80
370.27	170.86
370.47	304.27
370.66	594.50
370.86	667.05
371.06	636.63
371.25	702.16
371.45	695.14
371.65	704.50
371.84	667.05
372.04	622.58
372.24	755.99
372.44	753.65
372.63	791.10
372.83	713.86
373.03	767.70
373.22	819.19
373.42	826.21
373.62	802.80
373.81	770.04
374.01	791.10
374.21	760.67
374.40	816.85
374.60	819.19
374.79	835.57
374.99	809.83
375.19	835.57
375.38	840.25
375.58	866.00
375.78	849.61
375.97	823.87
376.17	924.51
376.37	861.32
376.56	905.79
376.76	816.85
376.95	875.36
377.15	940.90
377.35	938.55
377.54	912.81
377.74	933.87
377.93	994.73
378.13	870.68
378.33	896.43
378.52	947.92
378.72	922.17
378.91	994.73
379.11	847.27
379.31	954.94
379.50	882.38
379.70	1032.18
379.89	1029.84
380.09	992.39
380.28	922.17
380.48	915.15
380.68	952.60
380.87	1004.09
381.07	999.41
381.26	1097.71
381.46	973.66
381.65	990.05
381.85	1081.33
382.04	983.02
382.24	1078.99
382.43	1041.54
382.63	1043.88
382.83	1057.92
383.02	1102.39
383.22	1172.61
383.41	1069.62
383.61	1163.25
383.80	1114.10
384.00	1029.84
384.19	1060.26
384.39	1111.75
384.58	1086.01
384.78	1179.63
384.97	1196.01
385.17	1142.18
385.36	1191.33
385.56	1186.65
385.75	1165.59
385.95	1177.29
386.14	1121.12
386.34	1245.16
386.53	1212.40
386.72	1233.46
386.92	1308.36
387.11	1163.25
387.31	1289.64
387.50	1228.78
387.70	1310.70
387.89	1287.29
388.09	1329.42
388.28	1254.53
388.48	1350.49
388.67	1322.40
388.86	1294.32
389.06	1418.36
389.25	1308.36
389.45	1401.98
389.64	1280.27
389.84	1301.34
390.03	1315.38
390.22	1423.05
390.42	1294.32
390.61	1369.21
390.81	1357.51
391.00	1444.11
391.19	1455.81
391.39	1472.20
391.58	1469.86
391.78	1383.26
391.97	1451.13
392.16	1385.60
392.36	1577.52
392.55	1465.18
392.75	1455.81
392.94	1500.28
393.13	1614.97
393.33	1572.84
393.52	1551.78
393.71	1540.07
393.91	1472.20
394.10	1614.97
394.29	1577.52
394.49	1614.97
394.68	1692.21
394.88	1568.16
395.07	1579.86
395.26	1624.33
395.46	1741.36
395.65	1762.42
395.84	1717.95
396.04	1750.72
396.23	1732.00
396.42	1734.34
396.62	1827.96
396.81	1797.53
397.00	1760.08
397.19	1746.04
397.39	1788.17
397.58	1858.39
397.77	1827.96
397.97	1671.14
398.16	1867.75
398.35	1842.00
398.55	1811.57
398.74	1912.22
398.93	1989.46
399.12	1956.69
399.32	1851.36
399.51	1832.64
399.70	1905.20
399.90	2022.22
400.09	1928.60
400.28	2036.27
400.47	1966.05
400.67	2186.06
400.86	2090.10
401.05	2031.58
401.24	2134.57
401.44	2045.63
401.63	2200.10
401.82	2136.91
402.01	2165.00
402.21	2134.57
402.40	2169.68
402.59	2165.00
402.78	2225.85
402.97	2204.78
403.17	2251.60
403.36	2275.00
403.55	2359.26
403.74	2403.73
403.93	2265.64
404.13	2249.25
404.32	2366.28
404.51	2363.94
404.70	2450.54
404.89	2403.73
405.09	2377.98
405.28	2511.39
405.47	2448.20
405.66	2448.20
405.85	2513.74
406.05	2539.48
406.24	2583.95
406.43	2621.40
406.62	2759.49
406.81	2675.23
407.00	2579.27
407.20	2530.12
407.39	2572.25
407.58	2792.26
407.77	2754.81
407.96	2736.09
408.15	2696.30
408.34	2684.59
408.54	2787.58
408.73	2815.66
408.92	2848.43
409.11	2850.77
409.30	2834.39
409.49	2890.56
409.68	2930.35
409.87	2909.29
410.07	2942.05
410.26	2965.46
410.45	2942.05
410.64	2935.03
410.83	3187.81
411.02	3087.17
411.21	3129.30
411.40	3229.94
411.59	3164.40
411.78	3171.43
411.98	3342.28
412.17	3234.62
412.36	3290.79
412.55	3295.47
412.74	3321.22
412.93	3344.63
413.12	3368.03
413.31	3461.65
413.50	3393.78
413.69	3449.95
413.88	3543.57
414.07	3709.75
414.26	3688.68
414.45	3681.66
414.64	3653.58
414.83	3763.58
415.02	3674.64
415.22	3948.48
415.41	3983.59
415.60	3854.86
415.79	3864.22
415.98	3985.93
416.17	3875.93
416.36	3885.29
416.55	3831.46
416.74	4032.74
416.93	4011.68
417.12	3988.27
417.31	4109.98
417.50	4194.24
417.69	4306.59
417.88	4287.86
418.07	4311.27
418.26	4315.95
418.45	4219.99
418.64	4454.04
418.83	4332.33
419.02	4505.53
419.21	4564.04
419.39	4456.38
419.58	4397.87
419.77	4479.79
419.96	4526.60
420.15	4566.39
420.34	4622.56
420.53	4589.79
420.72	4674.05
420.91	4662.35
421.10	4737.24
421.29	4809.80
421.48	4746.61
421.67	4704.48
421.86	4624.90
422.05	4772.35
422.24	4837.89
422.43	4891.72
422.61	4777.03
422.80	5097.69
422.99	5022.79
423.18	4882.36
423.37	4973.64
423.56	4842.57
423.75	4952.57
423.94	4800.44
424.13	4636.60
424.32	4873.00
424.50	4968.96
424.69	5228.76
424.88	4933.85
425.07	5041.51
425.26	4964.28
425.45	4938.53
425.64	4863.63
425.83	4973.64
426.01	4973.64
426.20	5062.58
426.39	4931.51
426.58	5181.95
426.77	5137.48
426.96	4990.02
427.15	5135.14
427.33	5221.74
427.52	5146.84
427.71	5298.97
427.90	5280.25
428.09	5357.49
428.28	5507.28
428.46	5263.86
428.65	5350.46
428.84	5586.86
429.03	5430.04
429.22	5165.56
429.40	5537.71
429.59	5373.87
429.78	5296.63
429.97	5310.68
430.16	5516.64
430.34	5441.75
430.53	5661.76
430.72	5605.58
430.91	5664.10
431.10	5699.20
431.28	5715.59
431.47	5874.74
431.66	5767.08
431.85	5795.17
432.03	5963.68
432.22	6029.22
432.41	5823.25
432.60	5930.92
432.79	5863.04
432.97	5996.45
433.16	5966.03
433.35	6059.65
433.54	6115.82
433.72	6129.86
433.91	6139.23
434.10	6104.12
434.28	5916.87
434.47	6003.47
434.66	6263.27
434.85	6265.61
435.03	6399.02
435.22	6403.71
435.41	6427.11
435.59	6342.85
435.78	6516.05
435.97	6366.26
436.16	6401.37
436.34	6258.59
436.53	6539.46
436.72	6628.40
436.90	6478.60
437.09	6616.69
437.28	6396.68
437.46	6633.08
437.65	6780.53
437.84	6799.26
438.02	6668.19
438.21	6747.76
438.40	6633.08
438.58	7119.91
438.77	7016.93
438.96	6820.32
439.14	7159.70
439.33	7138.63
439.52	7094.16
439.70	7098.84
439.89	7358.64
440.08	7304.81
440.26	7255.66
440.45	7300.13
440.63	7452.27
440.82	7726.11
441.01	7515.46
441.19	7644.19
441.38	7604.40
441.57	7613.76
441.75	7779.94
441.94	8032.72
442.12	7791.64
442.31	8030.38
442.50	8067.83
442.68	8121.66
442.87	8109.96
443.05	8065.49
443.24	8166.13
443.43	8264.43
443.61	8149.75
443.80	8430.61
443.98	7948.46
444.17	7812.71
444.35	8058.46
444.54	8318.26
444.73	8245.71
444.91	8325.29
445.10	8304.22
445.28	8372.10
445.47	8327.63
445.65	8313.58
445.84	8360.39
446.02	8379.12
446.21	8430.61
446.39	8315.92
446.58	8484.44
446.77	8482.10
446.95	8568.70
447.14	8376.78
447.32	8566.36
447.51	8510.19
447.69	8500.83
447.88	8334.65
448.06	8369.76
448.25	8542.96
448.43	8428.27
448.62	8517.21
448.80	8437.63
448.99	8798.07
449.17	8582.74
449.36	8510.19
449.54	8954.89
449.73	8786.37
449.91	9067.24
450.10	9088.30
450.28	9092.98
450.46	9252.14
450.65	9034.47
450.83	9212.35
451.02	8898.72
451.20	9128.09
451.39	9202.99
451.57	9193.62
451.76	9088.30
451.94	9186.60
452.13	9343.42
452.31	9179.58
452.49	8997.02
452.68	9451.08
452.86	9233.41
453.05	9479.17
453.23	9638.33
453.42	9142.13
453.60	9334.06
453.78	9668.75
453.97	9364.48
454.15	9535.34
454.34	9432.36
454.52	9488.53
454.70	9652.37
454.89	9671.09
455.07	9968.34
455.26	9741.31
455.44	10061.96
455.62	9898.13
455.81	9923.87
455.99	9841.95
456.17	10017.49
456.36	10073.67
456.54	10148.56
456.73	10200.05
456.91	10242.18
457.09	10406.02
457.28	10574.54
457.46	10246.87
457.64	10530.07
457.83	10314.74
458.01	10244.52
458.19	10583.90
458.38	10520.71
458.56	10649.44
458.74	10663.48
458.93	10595.61
459.11	10724.33
459.29	10707.95
459.48	10836.68
459.66	10832.00
459.84	10867.11
460.03	11096.48
460.21	10862.43
460.39	11091.80
460.57	10839.02
460.76	10939.66
460.94	11136.27
461.12	11096.48
461.31	11129.25
461.49	11140.95
461.67	11075.42
461.85	11480.33
462.04	11126.91
462.22	11866.52
462.40	11508.41
462.59	11403.09
462.77	11461.60
462.95	11936.73
463.13	11452.24
463.32	11632.46
463.50	11810.34
463.68	11754.17
463.86	11744.81
464.05	11473.31
464.23	11590.33
464.41	11971.84
464.59	11910.99
464.78	12266.75
464.96	11913.33
465.14	11702.68
465.32	11906.31
465.50	12098.23
465.69	12140.36
465.87	12121.63
466.05	11971.84
466.23	12250.36
466.41	12226.96
466.60	12472.71
466.78	12123.98
466.96	12039.72
467.14	12299.52
467.32	12400.16
467.51	12444.63
467.69	11920.35
467.87	12301.86
468.05	12627.19
468.23	12411.86
468.41	12332.28
468.60	12318.24
468.78	12636.55
468.96	12493.78
469.14	12554.63
469.32	13135.09
469.50	12664.64
469.69	13022.74
469.87	12877.63
470.05	13247.43
470.23	12943.16
470.41	13011.04
470.59	13184.24
470.77	13116.36
470.95	13390.20
471.14	13455.74
471.32	13266.16
471.50	13434.68
471.68	13542.34
471.86	13530.64
472.04	13540.00
472.22	14005.77
472.40	13542.34
472.58	13582.13
472.77	13970.66
472.95	14001.08
473.13	14593.24
473.31	13944.91
473.49	14108.75
473.67	14036.19
473.85	14370.89
474.03	14398.98
474.21	14548.77
474.39	14785.16
474.57	14682.18
474.75	14934.96
474.93	14970.07
475.12	14939.64
475.30	14853.04
475.48	14897.51
475.66	14934.96
475.84	14972.41
476.02	15379.66
476.20	15311.78
476.38	15676.91
476.56	15831.38
476.74	15908.62
476.92	16058.42
477.10	15695.63
477.28	16126.29
477.46	16205.87
477.64	16191.83
477.82	16465.67
478.00	16802.71
478.18	16713.77
478.36	16671.64
478.54	17221.66
478.72	17226.34
478.90	17469.76
479.08	17291.88
479.26	17577.42
479.44	17563.38
479.62	17965.95
479.80	17970.63
479.98	17984.68
480.16	18576.83
480.34	17963.61
480.52	18209.37
480.70	18532.36
480.88	18251.50
481.06	18806.20
481.24	19108.13
481.41	18897.49
481.59	19480.28
481.77	19365.59
481.95	19318.78
482.13	19538.79
482.31	19737.74
482.49	20369.68
482.67	20067.75
482.85	20329.89
483.03	20725.44
483.21	20252.66
483.39	20980.56
483.57	21050.78
483.74	21113.97
483.92	21366.75
484.10	20788.64
484.28	21816.13
484.46	22089.98
484.64	22298.28
484.82	22251.47
485.00	22307.65
485.18	22726.60
485.35	22827.24
485.53	22750.01
485.71	22544.04
485.89	23365.57
486.07	23388.97
486.25	23335.14
486.43	23414.72
486.61	23927.30
486.78	23850.06
486.96	24353.27
487.14	24294.76
487.32	24304.12
487.50	25153.74
487.68	24947.77
487.85	25331.62
488.03	25755.26
488.21	25446.30
488.39	25710.78
488.57	25958.88
488.75	26092.29
488.92	26574.44
489.10	26618.91
489.28	26588.49
489.46	26728.92
489.64	26845.94
489.81	27400.65
489.99	27810.25
490.17	27772.80
490.35	27826.63
490.53	28011.53
490.70	28060.68
490.88	28299.42
491.06	28879.87
491.24	28797.95
491.41	28968.81
491.59	29221.59
491.77	28835.40
491.95	29537.56
492.13	29593.73
492.30	29902.68
492.48	29717.78
492.66	30155.46
492.84	30272.49
493.01	30717.19
493.19	30267.81
493.37	30906.77
493.54	31311.69
493.72	31456.80
493.90	31150.19
494.08	31512.97
494.25	31592.55
494.43	31700.22
494.61	32084.06
494.79	32320.46
494.96	32275.99
495.14	32542.81
495.32	32622.39
495.49	32931.34
495.67	33244.97
495.85	33441.57
496.02	33523.49
496.20	33900.32
496.38	33935.43
496.55	34237.36
496.73	34562.69
496.91	34403.53
497.09	34827.17
497.26	34721.85
497.44	34953.56
497.62	35110.38
497.79	35847.64
497.97	35295.28
498.14	35934.24
498.32	35826.58
498.50	35959.99
498.67	36172.98
498.85	36100.42
499.03	36538.10
499.20	36793.22
499.38	36957.06
499.56	36708.96
499.73	37010.89
499.91	37177.07
500.08	37422.83
500.26	37624.11
500.44	37350.27
500.61	37581.98
500.79	37738.80
500.97	37563.26
501.14	38639.90
501.32	38199.88
501.49	38560.33
501.67	38043.07
501.84	38789.70
502.02	38499.47
502.20	39021.41
502.37	38602.46
502.55	38890.34
502.72	39239.08
502.90	39473.13
503.07	39576.12
503.25	39435.69
503.43	39613.57
503.60	40292.32
503.78	40287.64
503.95	39784.43
504.13	40502.97
504.30	40306.37
504.48	39873.37
504.65	40502.97
504.83	40844.69
505.01	40713.62
505.18	40994.48
505.36	41682.60
505.53	41263.64
505.71	41315.14
505.88	41778.56
506.06	41303.43
506.23	42375.40
506.41	41577.28
506.58	41937.72
506.76	41954.10
506.93	42513.49
507.11	42122.62
507.28	42550.94
507.46	42319.23
507.63	42927.77
507.81	43077.56
507.98	42827.12
508.16	43358.42
508.33	43276.51
508.50	43510.56
508.68	43337.36
508.85	43817.17
509.03	43529.28
509.20	44186.97
509.38	43978.67
509.55	43997.39
509.73	44488.90
509.90	44591.89
510.08	44629.34
510.25	44641.04
510.42	44601.25
510.60	45165.32
510.77	45118.51
510.95	44835.30
511.12	45120.85
511.30	45371.28
511.47	45373.63
511.64	45427.46
511.82	45762.15
511.99	45453.20
512.17	45790.24
512.34	45813.65
512.51	46223.24
512.69	46314.52
512.86	46073.45
513.04	46869.23
513.21	46579.00
513.38	46066.42
513.56	47065.83
513.73	46665.60
513.90	46923.06
514.08	46579.00
514.25	46972.21
514.43	47484.79
514.60	47440.32
514.77	47093.92
514.95	47798.42
515.12	47487.13
515.29	47374.78
515.47	48142.48
515.64	48058.22
515.81	47547.98
515.99	47978.64
516.16	48357.81
516.33	47950.56
516.51	48788.47
516.68	48568.46
516.85	48339.08
517.03	48882.09
517.20	48535.69
517.37	48535.69
517.54	48486.54
517.72	48900.81
517.89	48814.21
518.06	48704.21
518.24	49212.10
518.41	49188.70
518.58	48816.55
518.75	49511.69
518.93	49279.98
519.10	49296.36
519.27	49741.06
519.45	49523.40
519.62	49661.49
519.79	49968.10
519.96	49951.71
520.14	49979.80
520.31	49923.63
520.48	50312.16
520.65	50344.92
520.83	50419.82
521.00	50382.37
521.17	50607.06
521.34	50635.15
521.52	50731.11
521.69	50824.73
521.86	50464.29
522.03	51447.32
522.20	51255.39
522.38	51042.40
522.55	51358.38
522.72	51126.66
522.89	51473.06
523.07	51283.48
523.24	51426.25
523.41	51887.34
523.58	51419.23
523.75	51695.41
523.92	51608.81
524.10	51920.10
524.27	52119.05
524.44	51840.53
524.61	52030.11
524.78	51929.47
524.96	52222.03
525.13	52147.14
525.30	52210.33
525.47	52374.17
525.64	52299.27
525.81	52437.36
525.98	52439.70
526.16	52505.24
526.33	52516.94
526.50	52671.42
526.67	52739.29
526.84	52804.83
527.01	52554.39
527.18	52835.25
527.36	52755.68
527.53	52657.37
527.70	53481.24
527.87	52954.62
528.04	53095.05
528.21	53219.10
528.38	53317.40
528.55	53432.09
528.72	53315.06
528.89	53525.71
529.07	53172.29
529.24	53294.00
529.41	53256.55
529.58	53745.72
529.75	53464.86
529.92	53396.98
530.09	53794.87
530.26	53551.46
530.43	54143.61
530.60	53649.76
530.77	53818.28
530.94	53932.96
531.11	54000.84
531.28	54019.56
531.46	53867.43
531.63	54216.17
531.80	54209.15
531.97	54405.75
532.14	54295.75
532.31	54419.80
532.48	54473.63
532.65	54377.67
532.82	54375.33
532.99	54490.01
533.16	54363.62
533.33	54859.82
533.50	54920.67
533.67	54852.80
533.84	54614.06
534.01	54724.07
534.18	54754.49
534.35	55297.50
534.52	55199.19
534.69	55253.03
534.86	54944.08
535.03	55061.10
535.20	55260.05
535.37	55173.45
535.54	55267.07
535.71	55253.03
535.88	55489.42
536.05	55407.50
536.22	55337.29
536.38	55515.17
536.55	55463.67
536.72	55552.62
536.89	55189.83
537.06	55573.68
537.23	55505.80
537.40	55444.95
537.57	55576.02
537.74	55564.32
537.91	55571.34
538.08	55889.65
538.25	55657.94
538.42	55938.80
538.59	56060.51
538.75	55695.39
538.92	55985.61
539.09	56217.33
539.26	55948.17
539.43	56027.74
539.60	56210.31
539.77	56278.18
539.94	56229.03
540.11	56023.06
540.28	56226.69
540.44	56177.54
540.61	56278.18
540.78	56147.11
540.95	56423.29
541.12	56420.95
541.29	56465.42
541.46	56360.10
541.62	56718.20
541.79	56774.37
541.96	56266.48
542.13	56390.53
542.30	56467.76
542.47	56699.48
542.63	56629.26
542.80	56629.26
542.97	57048.22
543.14	57209.71
543.31	57120.77
543.48	57022.47
543.64	57310.36
543.81	57310.36
543.98	57027.15
544.15	57251.84
544.32	57535.05
544.48	57317.38
544.65	57448.45
544.82	57443.77
544.99	57296.31
545.16	57331.42
545.32	57148.86
545.49	57673.14
545.66	57836.98
545.83	57502.28
546.00	57701.23
546.16	57492.92
546.33	57343.12
546.50	57401.64
546.67	57621.65
546.83	57411.00
547.00	57726.97
547.17	57563.14
547.34	57860.38
547.50	58010.18
547.67	57827.62
547.84	57979.75
548.00	58014.86
548.17	57944.64
548.34	58033.58
548.51	58092.10
548.67	58138.91
548.84	58038.26
549.01	57829.96
549.18	57925.92
549.34	58127.20
549.51	58129.54
549.68	58216.14
549.84	58216.14
550.01	58054.65
550.18	58225.51
550.34	58518.07
550.51	58438.50
550.68	58265.30
550.84	58108.48
551.01	58518.07
551.18	58499.35
551.34	58396.37
551.51	58436.16
551.68	58522.76
551.84	58429.13
552.01	58337.85
552.18	58532.12
552.34	58351.90
552.51	58445.52
552.68	58464.24
552.84	58618.72
553.01	58873.84
553.18	58801.28
553.34	58887.88
553.51	58391.68
553.67	58710.00
553.84	58990.86
554.01	58925.33
554.17	59040.01
554.34	58922.99
554.51	58915.96
554.67	59133.63
554.84	58920.65
555.00	58925.33
555.17	58873.84
555.33	58934.69
555.50	58810.64
555.67	58885.54
555.83	58855.11
556.00	59028.31
556.16	59175.76
556.33	59161.72
556.50	59121.93
556.66	59339.60
556.83	59222.58
556.99	59253.00
557.16	59517.48
557.32	59128.95
557.49	59498.76
557.65	59245.98
557.82	59426.20
557.98	59243.64
558.15	59166.40
558.32	59554.93
558.48	59442.59
558.65	59318.54
558.81	59454.29
558.98	59437.90
559.14	59613.44
559.31	59732.81
559.47	59440.24
559.64	59643.87
559.80	59716.43
559.97	59625.15
560.13	59391.09
560.30	59646.21
560.46	59674.30
560.63	59861.54
560.79	59697.70
560.96	59852.18
561.12	59697.70
561.29	59737.49
561.45	59578.34
561.61	59711.75
561.78	59753.88
561.94	59737.49
562.11	59845.16
562.27	59915.37
562.44	59791.33
562.60	59917.71
562.77	60037.08
562.93	59735.15
563.10	60114.32
563.26	59880.27
563.42	60226.66
563.59	59987.93
563.75	59880.27
563.92	59969.21
564.08	59870.90
564.24	60172.83
564.41	60048.78
564.57	60238.37
564.74	59983.25
564.90	60051.12
565.07	60030.06
565.23	59985.59
565.39	59917.71
565.56	60067.51
565.72	60212.62
565.88	60126.02
566.05	60172.83
566.21	60217.30
566.38	60032.40
566.54	60196.24
566.70	60243.05
566.87	60313.26
567.03	60034.74
567.19	60294.54
567.36	60360.08
567.52	60046.44
567.68	60303.90
567.85	60205.60
568.01	60406.89
568.17	60179.85
568.34	60367.10
568.50	60331.99
568.66	60411.57
568.83	60488.80
568.99	60189.22
569.15	60371.78
569.32	60292.20
569.48	60287.52
569.64	60402.21
569.81	60420.93
569.97	60313.26
570.13	60425.61
570.30	60163.47
570.46	60453.70
570.62	60320.29
570.78	60346.03
570.95	60336.67
571.11	60566.04
571.27	60294.54
571.43	60636.26
571.60	60544.98
571.76	60437.31
571.92	60549.66
572.09	60540.30
572.25	60381.14
572.41	60561.36
572.57	60542.64
572.74	60664.35
572.90	60491.15
573.06	60505.19
573.22	60528.59
573.38	60615.19
573.55	60575.40
573.71	60809.46
573.87	60549.66
574.03	60582.43
574.20	60596.47
574.36	60512.21
574.52	60750.94
574.68	60535.62
574.84	60605.83
575.01	60725.20
575.17	60676.05
575.33	60626.90
575.49	60617.53
575.65	60715.84
575.82	60603.49
575.98	60786.05
576.14	60720.52
576.30	60582.43
576.46	60507.53
576.62	60729.88
576.79	60484.12
576.95	60781.37
577.11	60772.01
577.27	60678.39
577.43	60802.44
577.59	60570.72
577.75	60886.70
577.92	60769.67
578.08	60659.66
578.24	60734.56
578.40	60814.14
578.56	60919.46
578.72	60858.61
578.88	60891.38
579.04	60844.57
579.21	60734.56
579.37	60870.31
579.53	60938.19
579.69	60598.81
579.85	60898.40
580.01	60654.98
580.17	60647.96
580.33	60804.78
580.49	60931.17
580.65	60823.50
580.82	60788.39
580.98	60589.45
581.14	60645.62
581.30	60989.68
581.46	60795.42
581.62	60907.76
581.78	60807.12
581.94	60856.27
582.10	60636.26
582.26	60757.97
582.42	60830.52
582.58	60879.67
582.74	60612.85
582.90	60811.80
583.06	60860.95
583.22	60781.37
583.38	60743.92
583.54	60690.09
583.70	60889.04
583.86	60856.27
584.02	60839.89
584.18	60786.05
584.34	60734.56
584.50	60926.49
584.66	60802.44
584.82	60755.63
584.98	61071.60
585.14	60830.52
585.30	60743.92
585.46	60996.70
585.62	60793.07
585.78	60982.66
585.94	60619.88
586.10	60963.93
586.26	61024.79
586.42	61137.13
586.58	61085.64
586.74	60921.80
586.90	61095.00
587.06	60828.18
587.22	61001.38
587.38	61116.07
587.54	61045.85
587.70	61052.87
587.86	60945.21
588.02	60905.42
588.18	61200.33
588.34	60954.57
588.49	60949.89
