SpectraSuite Data File
++++++++++++++++++++++++++++++++++++
Date: Fri Oct 25 11:22:42 EDT 2013
User: price-jones
Dark Spectrum Present: No
Reference Spectrum Present: No
Number of Sampled Component Spectra: 1
Spectrometers: USB2+H05261
Integration Time (usec): 100000 (USB2+H05261)
Spectra Averaged: 1 (USB2+H05261)
Boxcar Smoothing: 0 (USB2+H05261)
Correct for Electrical Dark: No (USB2+H05261)
Strobe/Lamp Enabled: No (USB2+H05261)
Correct for Detector Non-linearity: No (USB2+H05261)
Correct for Stray Light: No (USB2+H05261)
Number of Pixels in Processed Spectrum: 2048
>>>>>Begin Processed Spectral Data<<<<<
365.73	231.71
365.92	231.71
366.12	231.71
366.32	168.52
366.52	126.39
366.72	142.77
366.91	95.96
367.11	93.62
367.31	74.90
367.51	133.41
367.70	65.54
367.90	149.79
368.10	77.24
368.30	102.98
368.49	63.19
368.69	102.98
368.89	156.82
369.09	161.50
369.28	145.11
369.48	152.13
369.68	140.43
369.87	215.33
370.07	166.18
370.27	243.42
370.47	294.91
370.66	566.41
370.86	585.13
371.06	671.73
371.25	704.50
371.45	629.60
371.65	603.86
371.84	723.23
372.04	732.59
372.24	744.29
372.44	695.14
372.63	732.59
372.83	786.42
373.03	741.95
373.22	732.59
373.42	699.82
373.62	718.54
373.81	741.95
374.01	854.30
374.21	795.78
374.40	814.51
374.60	788.76
374.79	863.66
374.99	833.23
375.19	800.46
375.38	861.32
375.58	851.96
375.78	940.90
375.97	863.66
376.17	851.96
376.37	875.36
376.56	844.93
376.76	903.45
376.95	835.57
377.15	976.00
377.35	917.49
377.54	816.85
377.74	873.02
377.93	884.72
378.13	931.53
378.33	940.90
378.52	814.51
378.72	943.24
378.91	968.98
379.11	940.90
379.31	908.13
379.50	908.13
379.70	926.85
379.89	990.05
380.09	1001.75
380.28	976.00
380.48	945.58
380.68	966.64
380.87	980.68
381.07	950.26
381.26	994.73
381.46	1006.43
381.65	1095.37
381.85	1048.56
382.04	1081.33
382.24	1109.41
382.43	1027.50
382.63	1053.24
382.83	1118.78
383.02	1114.10
383.22	1167.93
383.41	1156.22
383.61	1074.31
383.80	1142.18
384.00	1057.92
384.19	1144.52
384.39	1149.20
384.58	1100.05
384.78	1170.27
384.97	1090.69
385.17	1207.72
385.36	1163.25
385.56	1270.91
385.75	1170.27
385.95	1217.08
386.14	1226.44
386.34	1301.34
386.53	1263.89
386.72	1165.59
386.92	1224.10
387.11	1207.72
387.31	1263.89
387.50	1184.31
387.70	1242.82
387.89	1315.38
388.09	1254.53
388.28	1240.48
388.48	1221.76
388.67	1322.40
388.86	1299.00
389.06	1259.21
389.25	1341.13
389.45	1383.26
389.64	1320.06
389.84	1446.45
390.03	1444.11
390.22	1366.87
390.42	1364.53
390.61	1301.34
390.81	1418.36
391.00	1441.77
391.19	1350.49
391.39	1453.47
391.58	1430.07
391.78	1488.58
391.97	1437.09
392.16	1418.36
392.36	1448.79
392.55	1425.39
392.75	1423.05
392.94	1577.52
393.13	1586.88
393.33	1481.56
393.52	1598.59
393.71	1605.61
393.91	1612.63
394.10	1570.50
394.29	1598.59
394.49	1638.38
394.68	1591.56
394.88	1563.48
395.07	1713.27
395.26	1675.82
395.46	1689.87
395.65	1741.36
395.84	1673.48
396.04	1750.72
396.23	1732.00
396.42	1767.10
396.62	1703.91
396.81	1774.13
397.00	1804.55
397.19	1820.94
397.39	1792.85
397.58	1755.40
397.77	1849.02
397.97	1820.94
398.16	1830.30
398.35	2008.18
398.55	1970.73
398.74	1872.43
398.93	1914.56
399.12	1930.94
399.32	1900.52
399.51	1944.99
399.70	2031.58
399.90	1886.47
400.09	2043.29
400.28	2057.33
400.47	2017.54
400.67	2008.18
400.86	2057.33
401.05	2176.70
401.24	2047.97
401.44	2090.10
401.63	2183.72
401.82	2127.55
402.01	2113.50
402.21	2242.23
402.40	2202.44
402.59	2211.81
402.78	2195.42
402.97	2209.47
403.17	2286.70
403.36	2223.51
403.55	2272.66
403.74	2265.64
403.93	2347.56
404.13	2321.81
404.32	2382.67
404.51	2258.62
404.70	2242.23
404.89	2333.51
405.09	2476.29
405.28	2513.74
405.47	2438.84
405.66	2525.44
405.85	2445.86
406.05	2499.69
406.24	2513.74
406.43	2579.27
406.62	2607.36
406.81	2794.60
407.00	2558.21
407.20	2595.65
407.39	2581.61
407.58	2724.38
407.77	2768.85
407.96	2675.23
408.15	2738.43
408.34	2822.69
408.54	2729.06
408.73	2813.32
408.92	2918.65
409.11	2864.82
409.30	2925.67
409.49	2846.09
409.68	2946.73
409.87	2988.86
410.07	3033.33
410.26	3091.85
410.45	2972.48
410.64	3019.29
410.83	3117.59
411.02	3176.11
411.21	3152.70
411.40	3035.67
411.59	3201.85
411.78	3246.32
411.98	3208.87
412.17	3318.88
412.36	3370.37
412.55	3368.03
412.74	3318.88
412.93	3318.88
413.12	3229.94
413.31	3597.40
413.50	3555.27
413.69	3473.36
413.88	3536.55
414.07	3602.08
414.26	3552.93
414.45	3606.77
414.64	3644.21
414.83	3894.65
415.02	3747.20
415.22	3983.59
415.41	3786.99
415.60	3843.16
415.79	3882.95
415.98	3976.57
416.17	4002.32
416.36	4007.00
416.55	3967.21
416.74	4098.28
416.93	4095.94
417.12	4098.28
417.31	4198.92
417.50	4135.73
417.69	4327.65
417.88	4227.01
418.07	4222.33
418.26	4264.46
418.45	4301.90
418.64	4418.93
418.83	4461.06
419.02	4444.68
419.21	4589.79
419.39	4617.88
419.58	4524.26
419.77	4463.40
419.96	4610.86
420.15	4533.62
420.34	4667.03
420.53	4535.96
420.72	4772.35
420.91	4578.09
421.10	4760.65
421.29	4809.80
421.48	4744.27
421.67	4741.93
421.86	4631.92
422.05	4896.40
422.24	4798.10
422.43	4774.69
422.61	4917.47
422.80	4945.55
422.99	5029.81
423.18	4898.74
423.37	5097.69
423.56	4926.83
423.75	4882.36
423.94	4643.62
424.13	4587.45
424.32	4863.63
424.50	5036.83
424.69	5144.50
424.88	5062.58
425.07	5093.01
425.26	4835.55
425.45	5025.13
425.64	5048.54
425.83	5069.60
426.01	5046.20
426.20	5074.28
426.39	5217.05
426.58	5144.50
426.77	5013.43
426.96	4999.38
427.15	5193.65
427.33	5280.25
427.52	5198.33
427.71	5121.09
427.90	5130.45
428.09	5228.76
428.28	5270.89
428.46	5373.87
428.65	5387.91
428.84	5497.92
429.03	5514.30
429.22	5240.46
429.40	5465.15
429.59	5458.13
429.78	5373.87
429.97	5345.78
430.16	5406.64
430.34	5591.54
430.53	5694.52
430.72	5640.69
430.91	5561.11
431.10	5647.71
431.28	5750.70
431.47	5849.00
431.66	5795.17
431.85	5734.31
432.03	5940.28
432.22	5884.11
432.41	5935.60
432.60	5928.58
432.79	5851.34
432.97	5949.64
433.16	5937.94
433.35	6115.82
433.54	6134.54
433.72	6347.53
433.91	6113.48
434.10	6157.95
434.28	6092.41
434.47	6195.40
434.66	6228.17
434.85	6300.72
435.03	6326.47
435.22	6324.13
435.41	6455.20
435.59	6345.19
435.78	6431.79
435.97	6520.73
436.16	6445.84
436.34	6572.22
436.53	6370.94
436.72	6452.86
436.90	6352.21
437.09	6525.41
437.28	6427.11
437.46	6621.38
437.65	6743.08
437.84	6843.73
438.02	6817.98
438.21	6904.58
438.40	6773.51
438.58	7070.76
438.77	6930.33
438.96	6878.83
439.14	7105.87
439.33	7201.83
439.52	7337.58
439.70	7279.07
439.89	7293.11
440.08	7265.02
440.26	7302.47
440.45	7241.62
440.63	7370.35
440.82	7672.28
441.01	7592.70
441.19	7742.49
441.38	7658.23
441.57	7688.66
441.75	7700.36
441.94	8011.65
442.12	8053.78
442.31	7981.23
442.50	8138.04
442.68	8131.02
442.87	8145.06
443.05	8156.77
443.24	8369.76
443.43	8210.60
443.61	8290.18
443.80	8339.33
443.98	8006.97
444.17	7873.56
444.35	8372.10
444.54	8344.01
444.73	8388.48
444.91	8231.66
445.10	8238.69
445.28	8423.59
445.47	8351.03
445.65	8329.97
445.84	8706.79
446.02	8498.49
446.21	8493.80
446.39	8294.86
446.58	8603.81
446.77	8278.47
446.95	8315.92
447.14	8386.14
447.32	8514.87
447.51	8545.30
447.69	8564.02
447.88	8681.05
448.06	8659.98
448.25	8655.30
448.43	8697.43
448.62	8444.65
448.80	8601.47
448.99	8662.32
449.17	8688.07
449.36	8634.24
449.54	8702.11
449.73	8987.66
449.91	9085.96
450.10	8879.99
450.28	9055.53
450.46	9322.35
450.65	9121.07
450.83	8971.27
451.02	9053.19
451.20	9380.87
451.39	9277.88
451.57	9348.10
451.76	8945.53
451.94	9345.76
452.13	9322.35
452.31	9308.31
452.49	9144.47
452.68	9362.14
452.86	9387.89
453.05	9696.84
453.23	9497.89
453.42	9336.40
453.60	9380.87
453.78	9582.15
453.97	9390.23
454.15	9523.64
454.34	9638.33
454.52	9551.73
454.70	9827.91
454.89	9628.96
455.07	9769.40
455.26	9617.26
455.44	10059.62
455.62	10024.51
455.81	9884.08
455.99	10101.75
456.17	10024.51
456.36	10277.29
456.54	10181.33
456.73	10354.53
456.91	10663.48
457.09	10600.29
457.28	10520.71
457.46	10377.94
457.64	10658.80
457.83	10726.68
458.01	10553.48
458.19	10817.96
458.38	10621.35
458.56	10686.89
458.74	10719.65
458.93	10806.25
459.11	10576.88
459.29	10569.86
459.48	10918.60
459.66	10846.04
459.84	10946.69
460.03	11138.61
460.21	11066.05
460.39	10836.68
460.57	11068.39
460.76	11042.65
460.94	11091.80
461.12	11190.10
461.31	11201.80
461.49	11159.67
461.67	11066.05
461.85	11627.78
462.04	11229.89
462.22	11871.20
462.40	11599.70
462.59	11459.26
462.77	11698.00
462.95	11681.61
463.13	11609.06
463.32	11782.26
463.50	11674.59
463.68	11763.53
463.86	11871.20
464.05	11789.28
464.23	11599.70
464.41	11857.15
464.59	11908.65
464.78	12271.43
464.96	12067.80
465.14	12035.03
465.32	12105.25
465.50	12189.51
465.69	12304.20
465.87	12203.55
466.05	12250.36
466.23	12140.36
466.41	12498.46
466.60	12685.70
466.78	12430.59
466.96	12238.66
467.14	12201.21
467.32	12339.30
467.51	12676.34
467.69	12025.67
467.87	12404.84
468.05	12699.75
468.23	12491.44
468.41	12645.91
468.60	12723.15
468.78	12779.32
468.96	12657.62
469.14	12629.53
469.32	12975.93
469.50	12652.94
469.69	13151.47
469.87	13118.70
470.05	12926.78
470.23	13179.56
470.41	13532.98
470.59	13343.39
470.77	13469.78
470.95	13472.12
471.14	13469.78
471.32	13284.88
471.50	13682.77
471.68	13565.74
471.86	13661.71
472.04	13837.25
472.22	14216.41
472.40	13633.62
472.58	13977.68
472.77	14071.30
472.95	14223.44
473.13	14696.22
473.31	14029.17
473.49	14057.26
473.67	14066.62
473.85	14075.98
474.03	14672.82
474.21	14796.87
474.39	14696.22
474.57	14822.61
474.75	14986.45
474.93	15040.28
475.12	15028.58
475.30	15316.47
475.48	15178.37
475.66	15363.28
475.84	15281.36
476.02	15417.11
476.20	15054.33
476.38	15630.10
476.56	16166.08
476.74	15822.02
476.92	15943.73
477.10	15660.52
477.28	16250.34
477.46	16156.72
477.64	16308.85
477.82	16716.11
478.00	17139.74
478.18	16882.28
478.36	16863.56
478.54	17420.61
478.72	17174.85
478.90	17242.73
479.08	17610.19
479.26	17465.08
479.44	17635.94
479.62	18005.74
479.80	18157.88
479.98	18078.30
480.16	18745.35
480.34	18487.89
480.52	18546.40
480.70	18675.13
480.88	18593.22
481.06	18897.49
481.24	18986.43
481.41	19058.98
481.59	19328.14
481.77	19480.28
481.95	19641.78
482.13	19730.72
482.31	19693.27
482.49	20453.94
482.67	20280.74
482.85	20713.74
483.03	20725.44
483.21	21200.57
483.39	20704.38
483.57	21132.70
483.74	21069.50
483.92	21493.14
484.10	21142.06
484.28	21734.21
484.46	22232.75
484.64	22199.98
484.82	22279.56
485.00	22583.83
485.18	22719.58
485.35	22979.38
485.53	22740.64
485.71	23131.51
485.89	23718.99
486.07	23264.92
486.25	23543.45
486.43	23646.43
486.61	24088.79
486.78	24107.52
486.96	24149.65
487.14	24837.76
487.32	24561.58
487.50	25071.82
487.68	25181.82
487.85	25448.64
488.03	25621.84
488.21	26139.10
488.39	25778.66
488.57	26143.78
488.75	26349.75
488.92	26754.66
489.10	26834.24
489.28	26501.89
489.46	27325.75
489.64	27192.34
489.81	27634.71
489.99	27786.84
490.17	27555.13
490.35	28474.96
490.53	28503.04
490.70	28816.68
490.88	28449.21
491.06	28961.79
491.24	28980.51
491.41	29013.28
491.59	29355.00
491.77	29642.88
491.95	29998.65
492.13	30160.14
492.30	29949.50
492.48	29907.37
492.66	30422.28
492.84	30380.15
493.01	30958.27
493.19	30649.32
493.37	30923.16
493.54	31164.23
493.72	31754.05
493.90	31328.07
494.08	31964.70
494.25	32126.19
494.43	31936.61
494.61	32933.68
494.79	32758.14
494.96	32786.22
495.14	32954.74
495.32	33153.69
495.49	33167.73
495.67	33567.96
495.85	33270.72
496.02	33780.95
496.20	34258.42
496.38	34185.86
496.55	34347.36
496.73	34644.61
496.91	34600.14
497.09	34756.96
497.26	35199.32
497.44	34960.58
497.62	35517.63
497.79	35974.03
497.97	35288.26
498.14	36243.20
498.32	36755.77
498.50	36715.98
498.67	36575.55
498.85	36528.74
499.03	37036.64
499.20	37027.28
499.38	36961.74
499.56	36912.59
499.73	37406.44
499.91	37542.19
500.08	37736.46
500.26	37979.87
500.44	37998.60
500.61	38038.39
500.79	37886.25
500.97	38501.81
501.14	38649.27
501.32	38738.21
501.49	38988.64
501.67	38988.64
501.84	38916.09
502.02	39299.94
502.20	39161.84
502.37	39241.42
502.55	39344.41
502.72	39711.87
502.90	39503.56
503.07	39576.12
503.25	40041.88
503.43	39700.17
503.60	40285.30
503.78	40327.43
503.95	40318.07
504.13	40610.64
504.30	40725.32
504.48	40875.12
504.65	40896.18
504.83	41354.93
505.01	41221.52
505.18	41490.68
505.36	41565.57
505.53	41708.35
505.71	42036.02
505.88	42333.27
506.06	41792.61
506.23	41914.31
506.41	42047.72
506.58	42302.84
506.76	42525.19
506.93	42686.69
507.11	42721.80
507.28	42815.42
507.46	42923.08
507.63	42993.30
507.81	43335.02
507.98	43098.62
508.16	43587.80
508.33	43545.67
508.50	43913.13
508.68	44186.97
508.85	44060.58
509.03	44182.29
509.20	44144.84
509.38	44533.37
509.55	44619.97
509.73	44617.63
509.90	44893.82
510.08	44762.75
510.25	44746.36
510.42	45008.50
510.60	44940.63
510.77	45385.33
510.95	45713.00
511.12	45631.08
511.30	45345.54
511.47	45558.53
511.64	45642.79
511.82	45841.73
511.99	45787.90
512.17	46237.28
512.34	46110.89
512.51	46429.21
512.69	46703.05
512.86	46775.61
513.04	47107.96
513.21	46869.23
513.38	47044.77
513.56	47283.50
513.73	47194.56
513.90	47194.56
514.08	47224.99
514.25	47576.07
514.43	47852.25
514.60	47576.07
514.77	47826.51
514.95	47831.19
515.12	47522.24
515.29	47819.49
515.47	48224.40
515.64	48245.46
515.81	48013.75
515.99	48418.66
516.16	48788.47
516.33	48463.13
516.51	48842.30
516.68	48673.78
516.85	48830.60
517.03	49099.76
517.20	49045.93
517.37	48837.62
517.54	48931.24
517.72	49181.68
517.89	49155.93
518.06	49340.83
518.24	49867.45
518.41	49373.60
518.58	49869.79
518.75	49387.64
518.93	49813.62
519.10	49535.10
519.27	50073.42
519.45	49867.45
519.62	50155.34
519.79	50052.36
519.96	50337.90
520.14	50330.88
520.31	50145.98
520.48	50618.77
520.65	50408.12
520.83	50899.63
521.00	50843.46
521.17	50637.49
521.34	50871.54
521.52	50571.96
521.69	50927.72
521.86	51304.54
522.03	51269.43
522.20	51297.52
522.38	51461.36
522.55	51437.95
522.72	51702.43
522.89	51562.00
523.07	51915.42
523.24	51789.03
523.41	51601.79
523.58	51763.29
523.75	52212.67
523.92	52016.07
524.10	52198.63
524.27	52119.05
524.44	52348.42
524.61	52479.49
524.78	52238.42
524.96	52215.01
525.13	52381.19
525.30	52392.89
525.47	52727.59
525.64	52423.32
525.81	52811.85
525.98	53038.88
526.16	53045.90
526.33	52989.73
526.50	53261.23
526.67	52889.09
526.84	52928.87
527.01	52982.71
527.18	53132.50
527.36	53146.54
527.53	53221.44
527.70	53305.70
527.87	53691.89
528.04	53553.80
528.21	53600.61
528.38	53418.05
528.55	53429.75
528.72	53389.96
528.89	53673.16
529.07	53682.53
529.24	53338.47
529.41	53951.69
529.58	53766.79
529.75	53647.42
529.92	54087.44
530.09	54012.54
530.26	54085.10
530.43	54174.04
530.60	53668.48
530.77	54143.61
530.94	54260.64
531.11	54160.00
531.28	54026.59
531.46	54391.71
531.63	54356.60
531.80	54536.82
531.97	54471.29
532.14	54829.39
532.31	54571.93
532.48	54789.60
532.65	54761.51
532.82	54625.76
532.99	54927.69
533.16	54717.04
533.33	55121.96
533.50	55206.22
533.67	55136.00
533.84	55089.19
534.01	55260.05
534.18	55185.15
534.35	55377.08
534.52	55182.81
534.69	55250.69
534.86	55430.91
535.03	55173.45
535.20	55655.60
535.37	55458.99
535.54	55526.87
535.71	55341.97
535.88	55671.98
536.05	55695.39
536.22	55693.05
536.38	55674.32
536.55	55873.27
536.72	55812.41
536.89	55660.28
537.06	55835.82
537.23	55894.33
537.40	55627.51
537.57	55779.65
537.74	55774.97
537.91	56119.02
538.08	56231.37
538.25	55964.55
538.42	56191.58
538.59	56360.10
538.75	56079.24
538.92	56062.85
539.09	56577.77
539.26	56107.32
539.43	56088.60
539.60	56041.79
539.77	56362.44
539.94	56577.77
540.11	56416.27
540.28	56486.49
540.44	56570.75
540.61	56402.23
540.78	56432.66
540.95	56566.07
541.12	56526.28
541.29	56540.32
541.46	56652.67
541.62	56835.23
541.79	56795.44
541.96	56584.79
542.13	56704.16
542.30	56816.50
542.47	57111.41
542.63	56980.34
542.80	56940.55
542.97	57216.74
543.14	57485.90
543.31	57301.00
543.48	57106.73
543.64	57462.49
543.81	57609.95
543.98	57352.49
544.15	57619.31
544.32	57446.11
544.48	57474.20
544.65	57506.96
544.82	57612.29
544.99	57516.32
545.16	57598.24
545.32	57687.18
545.49	57890.81
545.66	57710.59
545.83	57785.49
546.00	57804.21
546.16	57726.97
546.33	57691.86
546.50	57698.89
546.67	57769.10
546.83	57659.10
547.00	58099.12
547.17	57708.25
547.34	57907.19
547.50	58136.57
547.67	58415.09
547.84	58075.71
548.00	58358.92
548.17	58391.68
548.34	58377.64
548.51	58494.67
548.67	58492.33
548.84	58302.74
549.01	58206.78
549.18	58138.91
549.34	58447.86
549.51	58550.84
549.68	58592.97
549.84	58457.22
550.01	58623.40
550.18	58522.76
550.34	58408.07
550.51	58501.69
550.68	58534.46
550.84	58176.36
551.01	58628.08
551.18	58590.63
551.34	58817.66
551.51	58656.17
551.68	58527.44
551.84	58670.21
552.01	58740.42
552.18	58876.18
552.34	58562.54
552.51	59075.12
552.68	58733.40
552.84	58770.85
553.01	59058.74
553.18	59192.15
553.34	59011.93
553.51	58857.45
553.67	59093.85
553.84	59004.91
554.01	58904.26
554.17	59014.27
554.34	59178.10
554.51	59281.09
554.67	58986.18
554.84	59107.89
555.00	59128.95
555.17	58944.05
555.33	59206.19
555.50	59021.29
555.67	59297.47
555.83	59180.45
556.00	59341.94
556.16	59648.55
556.33	59370.03
556.50	59215.55
556.66	59501.10
556.83	59241.30
556.99	59327.90
557.16	59487.06
557.32	59545.57
557.49	59660.26
557.65	59395.77
557.82	59302.15
557.98	59557.27
558.15	59505.78
558.32	59868.56
558.48	59599.40
558.65	59519.82
558.81	59547.91
558.98	59604.08
559.14	59746.86
559.31	59814.73
559.47	59896.65
559.64	59889.63
559.80	59964.52
559.97	59828.77
560.13	59728.13
560.30	59913.03
560.46	59751.54
560.63	59901.33
560.79	59835.80
560.96	60032.40
561.12	60086.23
561.29	59730.47
561.45	59966.87
561.61	59898.99
561.78	59913.03
561.94	60046.44
562.11	59990.27
562.27	60067.51
562.44	60027.72
562.60	60212.62
562.77	60062.83
562.93	59936.44
563.10	60111.98
563.26	60144.75
563.42	60491.15
563.59	60170.49
563.75	60250.07
563.92	60175.17
564.08	60119.00
564.24	60350.71
564.41	60250.07
564.57	60306.24
564.74	60313.26
564.90	60271.14
565.07	60121.34
565.23	60245.39
565.39	60214.96
565.56	60390.50
565.72	60451.36
565.88	60360.08
566.05	60294.54
566.21	60308.58
566.38	60470.08
566.54	60367.10
566.70	60420.93
566.87	60390.50
567.03	60140.07
567.19	60617.53
567.36	60392.84
567.52	60252.41
567.68	60659.66
567.85	60413.91
568.01	60432.63
568.17	60306.24
568.34	60570.72
568.50	60460.72
568.66	60278.16
568.83	60406.89
568.99	60385.82
569.15	60467.74
569.32	60598.81
569.48	60505.19
569.64	60727.54
569.81	60561.36
569.97	60573.06
570.13	60657.32
570.30	60444.33
570.46	60608.17
570.62	60783.71
570.78	60804.78
570.95	60612.85
571.11	60753.29
571.27	60676.05
571.43	60580.09
571.60	60762.65
571.76	60753.29
571.92	60715.84
572.09	60619.88
572.25	60678.39
572.41	60779.03
572.57	60596.47
572.74	60877.33
572.90	60715.84
573.06	60956.91
573.22	60811.80
573.38	60863.29
573.55	60694.77
573.71	61015.43
573.87	60762.65
574.03	60662.00
574.20	60753.29
574.36	60715.84
574.52	60821.16
574.68	60935.85
574.84	60877.33
575.01	60856.27
575.17	60669.03
575.33	60970.96
575.49	60774.35
575.65	60804.78
575.82	61116.07
575.98	60952.23
576.14	61125.43
576.30	61111.39
576.46	60823.50
576.62	60772.01
576.79	60914.78
576.95	60809.46
577.11	61085.64
577.27	60842.23
577.43	61008.40
577.59	61041.17
577.75	60671.37
577.92	60807.12
578.08	60718.18
578.24	60769.67
578.40	61212.03
578.56	60919.46
578.72	61097.34
578.88	61139.47
579.04	61282.25
579.21	60966.27
579.37	61144.16
579.53	61029.47
579.69	60940.53
579.85	60917.12
580.01	61020.11
580.17	60842.23
580.33	60973.30
580.49	61162.88
580.65	61144.16
580.82	60985.00
580.98	60992.02
581.14	60928.83
581.30	61064.58
581.46	61179.26
581.62	61155.86
581.78	60877.33
581.94	60959.25
582.10	61043.51
582.26	60992.02
582.42	60963.93
582.58	61286.93
582.74	61085.64
582.90	60949.89
583.06	61148.84
583.22	61001.38
583.38	61045.85
583.54	61291.61
583.70	61064.58
583.86	61268.20
584.02	61020.11
584.18	61251.82
584.34	61167.56
584.50	60961.59
584.66	60874.99
584.82	60816.48
584.98	61169.90
585.14	61282.25
585.30	61205.01
585.46	61205.01
585.62	61134.79
585.78	61354.80
585.94	61146.50
586.10	61125.43
586.26	61132.45
586.42	61109.05
586.58	60949.89
586.74	61188.63
586.90	61249.48
587.06	60956.91
587.22	61319.70
587.38	61265.86
587.54	61310.33
587.70	61275.22
587.86	61385.23
588.02	61085.64
588.18	61284.59
588.34	61209.69
588.49	61277.57
