SpectraSuite Data File
++++++++++++++++++++++++++++++++++++
Date: Fri Oct 25 11:23:16 EDT 2013
User: price-jones
Dark Spectrum Present: No
Reference Spectrum Present: No
Number of Sampled Component Spectra: 1
Spectrometers: USB2+H05261
Integration Time (usec): 100000 (USB2+H05261)
Spectra Averaged: 1 (USB2+H05261)
Boxcar Smoothing: 0 (USB2+H05261)
Correct for Electrical Dark: No (USB2+H05261)
Strobe/Lamp Enabled: No (USB2+H05261)
Correct for Detector Non-linearity: No (USB2+H05261)
Correct for Stray Light: No (USB2+H05261)
Number of Pixels in Processed Spectrum: 2048
>>>>>Begin Processed Spectral Data<<<<<
365.73	229.37
365.92	229.37
366.12	229.37
366.32	224.69
366.52	149.79
366.72	241.08
366.91	119.37
367.11	121.71
367.31	126.39
367.51	107.66
367.70	128.73
367.90	203.63
368.10	105.32
368.30	102.98
368.49	102.98
368.69	175.54
368.89	191.92
369.09	126.39
369.28	128.73
369.48	124.05
369.68	177.88
369.87	212.99
370.07	189.58
370.27	236.39
370.47	306.61
370.66	664.71
370.86	559.39
371.06	676.41
371.25	667.05
371.45	631.94
371.65	798.12
371.84	697.48
372.04	650.67
372.24	741.95
372.44	798.12
372.63	755.99
372.83	753.65
373.03	751.31
373.22	763.01
373.42	791.10
373.62	842.59
373.81	748.97
374.01	854.30
374.21	821.53
374.40	791.10
374.60	828.55
374.79	910.47
374.99	891.74
375.19	936.21
375.38	805.14
375.58	866.00
375.78	823.87
375.97	908.13
376.17	903.45
376.37	854.30
376.56	880.04
376.76	849.61
376.95	868.34
377.15	873.02
377.35	866.00
377.54	943.24
377.74	851.96
377.93	922.17
378.13	922.17
378.33	898.77
378.52	964.30
378.72	866.00
378.91	1062.60
379.11	1001.75
379.31	1032.18
379.50	999.41
379.70	966.64
379.89	943.24
380.09	1048.56
380.28	961.96
380.48	964.30
380.68	1055.58
380.87	992.39
381.07	1095.37
381.26	985.37
381.46	1069.62
381.65	1060.26
381.85	1060.26
382.04	1022.81
382.24	947.92
382.43	1078.99
382.63	1071.97
382.83	990.05
383.02	1174.95
383.22	1123.46
383.41	1067.28
383.61	1121.12
383.80	1172.61
384.00	1104.73
384.19	1170.27
384.39	1165.59
384.58	1212.40
384.78	1172.61
384.97	1151.54
385.17	1151.54
385.36	1242.82
385.56	1174.95
385.75	1158.57
385.95	1214.74
386.14	1196.01
386.34	1116.44
386.53	1217.08
386.72	1205.38
386.92	1233.46
387.11	1235.80
387.31	1247.51
387.50	1275.59
387.70	1233.46
387.89	1240.48
388.09	1387.94
388.28	1380.92
388.48	1240.48
388.67	1268.57
388.86	1224.10
389.06	1315.38
389.25	1334.11
389.45	1266.23
389.64	1352.83
389.84	1322.40
390.03	1420.71
390.22	1519.01
390.42	1394.96
390.61	1369.21
390.81	1434.75
391.00	1362.19
391.19	1448.79
391.39	1413.68
391.58	1458.15
391.78	1432.41
391.97	1455.81
392.16	1373.89
392.36	1558.80
392.55	1458.15
392.75	1530.71
392.94	1636.03
393.13	1556.46
393.33	1537.73
393.52	1568.16
393.71	1561.14
393.91	1614.97
394.10	1600.93
394.29	1675.82
394.49	1657.10
394.68	1619.65
394.88	1647.74
395.07	1682.85
395.26	1708.59
395.46	1659.44
395.65	1818.60
395.84	1746.04
396.04	1769.44
396.23	1797.53
396.42	1696.89
396.62	1849.02
396.81	1720.29
397.00	1739.02
397.19	1771.79
397.39	1853.70
397.58	1778.81
397.77	1739.02
397.97	1914.56
398.16	1844.34
398.35	1851.36
398.55	1874.77
398.74	1902.86
398.93	1998.82
399.12	1980.09
399.32	1839.66
399.51	1921.58
399.70	1994.14
399.90	1877.11
400.09	2054.99
400.28	2076.06
400.47	2043.29
400.67	2118.18
400.86	2087.76
401.05	2073.71
401.24	2186.06
401.44	2076.06
401.63	2181.38
401.82	2165.00
402.01	2076.06
402.21	2211.81
402.40	2174.36
402.59	2188.40
402.78	2265.64
402.97	2359.26
403.17	2373.30
403.36	2202.44
403.55	2410.75
403.74	2310.11
403.93	2298.41
404.13	2410.75
404.32	2368.62
404.51	2368.62
404.70	2375.64
404.89	2375.64
405.09	2452.88
405.28	2502.03
405.47	2490.33
405.66	2628.42
405.85	2532.46
406.05	2518.42
406.24	2558.21
406.43	2600.34
406.62	2724.38
406.81	2597.99
407.00	2569.91
407.20	2527.78
407.39	2649.49
407.58	2722.04
407.77	2703.32
407.96	2785.24
408.15	2785.24
408.34	2677.57
408.54	2855.45
408.73	2729.06
408.92	2885.88
409.11	2909.29
409.30	3042.70
409.49	2991.20
409.68	2981.84
409.87	2928.01
410.07	3038.02
410.26	3138.66
410.45	3178.45
410.64	3112.91
410.83	3082.49
411.02	3124.62
411.21	3136.32
411.40	3091.85
411.59	3293.13
411.78	3201.85
411.98	3234.62
412.17	3361.01
412.36	3356.33
412.55	3428.88
412.74	3487.40
412.93	3452.29
413.12	3480.38
413.31	3559.95
413.50	3529.53
413.69	3506.12
413.88	3520.17
414.07	3571.66
414.26	3702.73
414.45	3662.94
414.64	3756.56
414.83	3784.65
415.02	3613.79
415.22	3854.86
415.41	3953.16
415.60	3943.80
415.79	3887.63
415.98	4004.66
416.17	4072.53
416.36	4063.17
416.55	3953.16
416.74	4102.96
416.93	4175.52
417.12	4100.62
417.31	4217.65
417.50	4149.77
417.69	4510.21
417.88	4418.93
418.07	4297.22
418.26	4287.86
418.45	4458.72
418.64	4535.96
418.83	4402.55
419.02	4397.87
419.21	4559.36
419.39	4465.74
419.58	4526.60
419.77	4440.00
419.96	4629.58
420.15	4507.87
420.34	4615.54
420.53	4842.57
420.72	4837.89
420.91	4814.48
421.10	4737.24
421.29	4863.63
421.48	4753.63
421.67	4842.57
421.86	4915.12
422.05	4919.81
422.24	4788.74
422.43	4933.85
422.61	4966.62
422.80	5074.28
422.99	4938.53
423.18	5053.22
423.37	5156.20
423.56	4917.47
423.75	4943.21
423.94	4765.33
424.13	4652.98
424.32	4940.87
424.50	5247.48
424.69	4959.60
424.88	5184.29
425.07	5060.24
425.26	5022.79
425.45	5114.07
425.64	4933.85
425.83	4952.57
426.01	5109.39
426.20	5050.88
426.39	5093.01
426.58	5123.43
426.77	5083.64
426.96	5048.54
427.15	5224.08
427.33	5146.84
427.52	5221.74
427.71	5322.38
427.90	5224.08
428.09	5228.76
428.28	5336.42
428.46	5568.13
428.65	5490.90
428.84	5565.79
429.03	5399.62
429.22	5453.45
429.40	5757.72
429.59	5568.13
429.78	5380.89
429.97	5137.48
430.16	5572.82
430.34	5600.90
430.53	5727.29
430.72	5832.62
430.91	5741.33
431.10	5694.52
431.28	5877.09
431.47	5832.62
431.66	6019.86
431.85	5830.27
432.03	6026.88
432.22	6012.84
432.41	5996.45
432.60	5748.36
432.79	6029.22
432.97	6143.91
433.16	6176.67
433.35	6087.73
433.54	6108.80
433.72	6099.44
433.91	6349.87
434.10	6377.96
434.28	6296.04
434.47	6122.84
434.66	6246.89
434.85	6396.68
435.03	6415.41
435.22	6265.61
435.41	6457.54
435.59	6480.94
435.78	6476.26
435.97	6527.75
436.16	6558.18
436.34	6661.16
436.53	6588.61
436.72	6754.79
436.90	6319.45
437.09	6621.38
437.28	6691.59
437.46	6696.27
437.65	6876.49
437.84	6848.41
438.02	6754.79
438.21	6754.79
438.40	6775.85
438.58	6942.03
438.77	7035.65
438.96	7014.59
439.14	7258.00
439.33	7293.11
439.52	7068.42
439.70	7206.51
439.89	7365.67
440.08	7536.52
440.26	7473.33
440.45	7517.80
440.63	7431.20
440.82	7573.97
441.01	7552.91
441.19	7751.85
441.38	7712.07
441.57	7854.84
441.75	7698.02
441.94	8025.70
442.12	8018.68
442.31	8070.17
442.50	8161.45
442.68	8184.85
442.87	8030.38
443.05	8060.80
443.24	8161.45
443.43	8168.47
443.61	8362.73
443.80	8344.01
443.98	8086.55
444.17	7941.44
444.35	8414.23
444.54	8451.67
444.73	8482.10
444.91	8468.06
445.10	8514.87
445.28	8475.08
445.47	8362.73
445.65	8496.14
445.84	8613.17
446.02	8545.30
446.21	8454.02
446.39	8374.44
446.58	8517.21
446.77	8463.38
446.95	8353.37
447.14	8557.00
447.32	8641.26
447.51	8575.72
447.69	8683.39
447.88	8493.80
448.06	8655.30
448.25	8585.08
448.43	8531.25
448.62	8788.71
448.80	8716.16
448.99	8784.03
449.17	8753.60
449.36	8833.18
449.54	8833.18
449.73	9029.79
449.91	9121.07
450.10	9121.07
450.28	9270.86
450.46	9329.38
450.65	9217.03
450.83	9102.34
451.02	8975.95
451.20	9385.55
451.39	9355.12
451.57	9238.09
451.76	9060.21
451.94	9348.10
452.13	9551.73
452.31	9212.35
452.49	9460.45
452.68	9425.34
452.86	9528.32
453.05	9554.07
453.23	9682.80
453.42	9603.22
453.60	9577.47
453.78	9652.37
453.97	9437.04
454.15	9755.35
454.34	9554.07
454.52	9645.35
454.70	9736.63
454.89	9776.42
455.07	9951.96
455.26	9933.23
455.44	9926.21
455.62	9928.55
455.81	10061.96
455.99	10204.74
456.17	10153.24
456.36	9905.15
456.54	10132.18
456.73	10628.37
456.91	10466.88
457.09	10368.57
457.28	10857.75
457.46	10338.15
457.64	10597.95
457.83	10406.02
458.01	10434.11
458.19	10766.46
458.38	10572.20
458.56	10918.60
458.74	10757.10
458.93	10963.07
459.11	10700.93
459.29	10782.85
459.48	10913.92
459.66	10773.49
459.84	10829.66
460.03	11054.35
460.21	11178.40
460.39	11028.60
460.57	11009.88
460.76	11117.54
460.94	11236.91
461.12	11389.05
461.31	11183.08
461.49	11276.70
461.67	11501.39
461.85	11737.79
462.04	11473.31
462.22	11772.89
462.40	11599.70
462.59	11693.32
462.77	11463.94
462.95	11798.64
463.13	11688.64
463.32	11630.12
463.50	11913.33
463.68	11941.41
463.86	11707.36
464.05	11803.32
464.23	11843.11
464.41	11796.30
464.59	11922.69
464.78	12138.02
464.96	12252.70
465.14	11894.60
465.32	12147.38
465.50	12154.40
465.69	12414.20
465.87	12215.26
466.05	12086.53
466.23	12432.93
466.41	12257.39
466.60	12500.80
466.78	12142.70
466.96	12142.70
467.14	12477.40
467.32	12627.19
467.51	12582.72
467.69	12374.41
467.87	12617.83
468.05	12734.85
468.23	12737.20
468.41	12753.58
468.60	12849.54
468.78	12980.61
468.96	12674.00
469.14	13198.28
469.32	13107.00
469.50	13095.30
469.69	13214.66
469.87	13322.33
470.05	13099.98
470.23	13233.39
470.41	13476.80
470.59	13207.64
470.77	13289.56
470.95	13184.24
471.14	13671.07
471.32	13359.78
471.50	13511.91
471.68	13680.43
471.86	13839.59
472.04	13774.05
472.22	14223.44
472.40	13806.82
472.58	14050.24
472.77	14129.81
472.95	14466.85
473.13	14712.61
473.31	14202.37
473.49	14361.53
473.67	14171.94
473.85	14485.58
474.03	14815.59
474.21	14736.01
474.39	14602.60
474.57	14822.61
474.75	15262.63
474.93	15304.76
475.12	14857.72
475.30	15412.43
475.48	15194.76
475.66	15461.58
475.84	15323.49
476.02	15506.05
476.20	15672.23
476.38	15683.93
476.56	16240.98
476.74	16170.76
476.92	15995.22
477.10	15894.58
477.28	16257.36
477.46	16444.60
477.64	16521.84
477.82	16683.34
478.00	17088.25
478.18	16992.29
478.36	16908.03
478.54	17558.70
478.72	17331.67
478.90	17591.47
479.08	17638.28
479.26	18092.34
479.44	17706.15
479.62	17982.34
479.80	18471.51
479.98	18588.53
480.16	18567.47
480.34	18450.44
480.52	18869.40
480.70	19178.35
480.88	18246.82
481.06	18981.74
481.24	18948.98
481.41	19454.53
481.59	19372.61
481.77	19761.14
481.95	19847.74
482.13	19882.85
482.31	20091.16
482.49	20304.15
482.67	20446.92
482.85	20676.29
483.03	20826.09
483.21	21069.50
483.39	21371.43
483.57	20877.58
483.74	21446.33
483.92	21479.10
484.10	21261.43
484.28	21893.37
484.46	22061.89
484.64	22483.19
484.82	22005.72
485.00	22623.62
485.18	23035.55
485.35	23042.57
485.53	22941.93
485.71	23131.51
485.89	23564.51
486.07	23721.33
486.25	23803.25
486.43	23967.09
486.61	23864.10
486.78	24219.86
486.96	24151.99
487.14	24570.94
487.32	24807.34
487.50	25221.61
487.68	25256.72
487.85	26003.35
488.03	25722.49
488.21	26199.96
488.39	26125.06
488.57	26604.87
488.75	26471.46
488.92	26518.27
489.10	26782.75
489.28	27316.39
489.46	27559.81
489.64	26890.41
489.81	28065.36
489.99	27566.83
490.17	28247.93
490.35	28802.63
490.53	28261.97
490.70	28641.14
490.88	28449.21
491.06	29289.46
491.24	28931.36
491.41	29060.09
491.59	29500.11
491.77	29462.66
491.95	29818.42
492.13	30263.13
492.30	30373.13
492.48	30389.52
492.66	30714.85
492.84	30845.92
493.01	30848.26
493.19	30661.02
493.37	30913.80
493.54	31372.54
493.72	31683.83
493.90	31604.25
494.08	31599.57
494.25	32535.79
494.43	32123.85
494.61	32357.91
494.79	32671.54
494.96	32959.42
495.14	33261.35
495.32	33294.12
495.49	33523.49
495.67	33635.84
495.85	34117.99
496.02	34405.88
496.20	34455.03
496.38	34581.42
496.55	34438.64
496.73	35253.15
496.91	35009.73
497.09	35248.47
497.26	35051.86
497.44	35447.41
497.62	35407.62
497.79	36306.39
497.97	35756.36
498.14	36301.71
498.32	36924.29
498.50	36631.72
498.67	36783.86
498.85	37322.18
499.03	36818.97
499.20	36863.44
499.38	36793.22
499.56	37621.77
499.73	37497.72
499.91	37720.07
500.08	38195.20
500.26	37619.43
500.44	38040.73
500.61	38014.98
500.79	38314.57
500.97	38958.22
501.14	38796.72
501.32	39047.16
501.49	38728.84
501.67	39234.40
501.84	39562.08
502.02	39742.30
502.20	39220.36
502.37	39849.96
502.55	39648.68
502.72	39672.08
502.90	40072.31
503.07	39716.55
503.25	40194.02
503.43	39847.62
503.60	40650.42
503.78	40264.24
503.95	40594.25
504.13	40608.29
504.30	41291.73
504.48	40980.44
504.65	40463.18
504.83	41254.28
505.01	41848.78
505.18	41666.22
505.36	41900.27
505.53	41832.39
505.71	41998.57
505.88	42405.83
506.06	42089.85
506.23	42359.02
506.41	42000.91
506.58	42349.65
506.76	42291.14
506.93	43033.09
507.11	42855.21
507.28	42843.51
507.46	42733.50
507.63	43285.87
507.81	43615.88
507.98	43255.44
508.16	43292.89
508.33	43442.68
508.50	44208.04
508.68	43852.28
508.85	44219.74
509.03	44285.28
509.20	44116.76
509.38	44404.64
509.55	44739.34
509.73	44964.03
509.90	44961.69
510.08	44996.80
510.25	44952.33
510.42	44835.30
510.60	45125.53
510.77	45394.69
510.95	45872.16
511.12	45748.11
511.30	45633.42
511.47	45670.87
511.64	46239.62
511.82	46305.16
511.99	45879.18
512.17	45993.87
512.34	46412.82
512.51	46644.54
512.69	46560.28
512.86	46986.25
513.04	47091.58
513.21	47112.64
513.38	46733.48
513.56	47187.54
513.73	47386.49
513.90	47391.17
514.08	47119.66
514.25	47730.54
514.43	47522.24
514.60	47744.59
514.77	47711.82
514.95	48432.71
515.12	47995.03
515.29	48037.16
515.47	48488.88
515.64	48217.38
515.81	48334.40
515.99	48849.32
516.16	48568.46
516.33	48706.55
516.51	49153.59
516.68	48912.52
516.85	49062.31
517.03	48851.66
517.20	49233.17
517.37	49151.25
517.54	49216.78
517.72	49186.36
517.89	49715.32
518.06	49659.15
518.24	49755.11
518.41	49670.85
518.58	49771.49
518.75	49502.33
518.93	50124.91
519.10	49708.30
519.27	49982.14
519.45	50333.22
519.62	50164.70
519.79	50155.34
519.96	50230.24
520.14	50291.09
520.31	49949.37
520.48	51065.81
520.65	50735.79
520.83	50887.93
521.00	50756.86
521.17	50883.25
521.34	51117.30
521.52	50834.10
521.69	51093.89
521.86	51313.90
522.03	51346.67
522.20	51807.76
522.38	52062.88
522.55	51592.43
522.72	51796.06
522.89	51618.17
523.07	51990.32
523.24	51964.57
523.41	51913.08
523.58	51950.53
523.75	52381.19
523.92	52062.88
524.10	52165.86
524.27	52264.16
524.44	52547.37
524.61	52404.59
524.78	52313.31
524.96	52612.90
525.13	52694.82
525.30	52837.59
525.47	52683.12
525.64	52643.33
525.81	52825.89
525.98	53050.58
526.16	52837.59
526.33	52956.96
526.50	53289.32
526.67	53006.11
526.84	53050.58
527.01	53123.14
527.18	53329.11
527.36	53490.60
527.53	53478.90
527.70	53780.83
527.87	53581.88
528.04	53207.40
528.21	53773.81
528.38	53556.14
528.55	53813.60
528.72	53563.16
528.89	53792.53
529.07	53535.07
529.24	53757.42
529.41	53965.73
529.58	53860.41
529.75	53822.96
529.92	54007.86
530.09	54234.89
530.26	54398.73
530.43	54330.86
530.60	54291.07
530.77	54384.69
530.94	54218.51
531.11	54021.90
531.28	54403.41
531.46	54557.89
531.63	54564.91
531.80	54372.99
531.97	54698.32
532.14	54876.20
532.31	54766.20
532.48	54686.62
532.65	54988.55
532.82	54691.30
532.99	55121.96
533.16	54897.27
533.33	54953.44
533.50	55086.85
533.67	55035.36
533.84	54794.28
534.01	55147.70
534.18	55203.88
534.35	55592.40
534.52	55105.57
534.69	55569.00
534.86	55653.26
535.03	55316.22
535.20	55283.45
535.37	55709.43
535.54	55533.89
535.71	55192.17
535.88	55763.26
536.05	55758.58
536.22	55922.42
536.38	55833.48
536.55	55798.37
536.72	56013.70
536.89	55716.45
537.06	55840.50
537.23	56165.84
537.40	55732.84
537.57	56016.04
537.74	56158.81
537.91	56072.21
538.08	56097.96
538.25	56037.11
538.42	55999.66
538.59	56395.21
538.75	55913.06
538.92	56179.88
539.09	56463.08
539.26	56413.93
539.43	56456.06
539.60	56388.19
539.77	56418.61
539.94	56774.37
540.11	56650.33
540.28	56683.09
540.44	56669.05
540.61	56713.52
540.78	56594.15
540.95	56706.50
541.12	56507.55
541.29	56750.97
541.46	56776.72
541.62	56790.76
541.79	56933.53
541.96	56645.65
542.13	56701.82
542.30	56938.21
542.47	57017.79
542.63	57041.20
542.80	57263.55
542.97	57118.43
543.14	57261.21
543.31	57462.49
543.48	57422.70
543.64	57668.46
543.81	57504.62
543.98	57663.78
544.15	57490.58
544.32	57752.72
544.48	57764.42
544.65	57565.48
544.82	57642.71
544.99	57616.97
545.16	57738.68
545.32	57645.05
545.49	57883.79
545.66	57916.56
545.83	57975.07
546.00	58033.58
546.16	58127.20
546.33	57750.38
546.50	57616.97
546.67	57930.60
546.83	57827.62
547.00	57853.36
547.17	57811.23
547.34	57996.13
547.50	58131.89
547.67	58363.60
547.84	58162.31
548.00	58319.13
548.17	58522.76
548.34	58372.96
548.51	58412.75
548.67	58588.29
548.84	58354.24
549.01	58199.76
549.18	58394.03
549.34	58403.39
549.51	58536.80
549.68	58674.89
549.84	58632.76
550.01	58670.21
550.18	58553.18
550.34	58663.19
550.51	58824.68
550.68	58660.85
550.84	58632.76
551.01	58871.49
551.18	58728.72
551.34	58859.79
551.51	58782.55
551.68	58775.53
551.84	58782.55
552.01	58787.24
552.18	58831.71
552.34	58731.06
552.51	58892.56
552.68	58782.55
552.84	58667.87
553.01	59096.19
553.18	59126.61
553.34	59281.09
553.51	58976.82
553.67	59070.44
553.84	59292.79
554.01	59056.40
554.17	59086.82
554.34	59189.81
554.51	59206.19
554.67	59480.03
554.84	59201.51
555.00	59077.46
555.17	59185.13
555.33	59512.80
555.50	59124.27
555.67	59222.58
555.83	59365.35
556.00	59494.08
556.16	59796.01
556.33	59468.33
556.50	59281.09
556.66	59564.29
556.83	59187.47
556.99	59737.49
557.16	59849.84
557.32	59784.30
557.49	59887.29
557.65	59583.02
557.82	59484.72
557.98	59655.57
558.15	59529.19
558.32	59798.35
558.48	59606.42
558.65	59936.44
558.81	59798.35
558.98	59831.11
559.14	59779.62
559.31	59807.71
559.47	59796.01
559.64	60116.66
559.80	59763.24
559.97	59870.90
560.13	59994.95
560.30	59962.18
560.46	59889.63
560.63	59934.10
560.79	60027.72
560.96	60053.47
561.12	60018.36
561.29	60151.77
561.45	60100.28
561.61	59980.91
561.78	60116.66
561.94	59959.84
562.11	60058.15
562.27	60133.04
562.44	60324.97
562.60	60233.69
562.77	60301.56
562.93	59936.44
563.10	60472.42
563.26	60001.97
563.42	60364.76
563.59	60236.03
563.75	60149.43
563.92	60390.50
564.08	60067.51
564.24	60357.74
564.41	60303.90
564.57	60392.84
564.74	60404.55
564.90	60589.45
565.07	60350.71
565.23	60474.76
565.39	60364.76
565.56	60425.61
565.72	60177.51
565.88	60453.70
566.05	60495.83
566.21	60163.47
566.38	60500.51
566.54	60500.51
566.70	60467.74
566.87	60697.11
567.03	60570.72
567.19	60601.15
567.36	60622.22
567.52	60509.87
567.68	60790.73
567.85	60355.39
568.01	60701.79
568.17	60657.32
568.34	60622.22
568.50	60507.53
568.66	60474.76
568.83	60654.98
568.99	60706.47
569.15	60645.62
569.32	60685.41
569.48	60502.85
569.64	60669.03
569.81	60647.96
569.97	60701.79
570.13	60453.70
570.30	60535.62
570.46	60867.97
570.62	60776.69
570.78	60748.60
570.95	60732.22
571.11	60741.58
571.27	60664.35
571.43	60680.73
571.60	60830.52
571.76	60851.59
571.92	60907.76
572.09	60790.73
572.25	60685.41
572.41	60842.23
572.57	60935.85
572.74	61069.26
572.90	60793.07
573.06	60926.49
573.22	60959.25
573.38	60837.54
573.55	60830.52
573.71	61036.49
573.87	60851.59
574.03	60619.88
574.20	60910.10
574.36	60889.04
574.52	61001.38
574.68	60828.18
574.84	60987.34
575.01	61003.72
575.17	60996.70
575.33	60912.44
575.49	60734.56
575.65	60790.73
575.82	60989.68
575.98	60807.12
576.14	61064.58
576.30	61024.79
576.46	60893.72
576.62	60769.67
576.79	60940.53
576.95	60741.58
577.11	61024.79
577.27	61109.05
577.43	60954.57
577.59	61048.19
577.75	60816.48
577.92	60809.46
578.08	60975.64
578.24	61015.43
578.40	61027.13
578.56	61137.13
578.72	61195.65
578.88	61181.60
579.04	61401.61
579.21	61221.39
579.37	61165.22
579.53	61172.24
579.69	60893.72
579.85	61010.74
580.01	61078.62
580.17	61034.15
580.33	61436.72
580.49	61031.81
580.65	61228.41
580.82	61050.53
580.98	60891.38
581.14	60931.17
581.30	61256.50
581.46	60917.12
581.62	61125.43
581.78	61130.11
581.94	61279.91
582.10	61265.86
582.26	61125.43
582.42	61148.84
582.58	61237.78
582.74	61146.50
582.90	61029.47
583.06	61132.45
583.22	61087.98
583.38	61193.31
583.54	61249.48
583.70	61333.74
583.86	61148.84
584.02	61038.83
584.18	61286.93
584.34	61155.86
584.50	61399.27
584.66	61066.92
584.82	60870.31
584.98	61162.88
585.14	61368.85
585.30	61130.11
585.46	61202.67
585.62	61279.91
585.78	61338.42
585.94	61169.90
586.10	61258.84
586.26	61183.94
586.42	61193.31
586.58	61401.61
586.74	61282.25
586.90	61207.35
587.06	61090.32
587.22	61205.01
587.38	61303.31
587.54	61434.38
587.70	61464.81
587.86	61352.46
588.02	61317.35
588.18	61495.24
588.34	61212.03
