SpectraSuite Data File
++++++++++++++++++++++++++++++++++++
Date: Fri Oct 25 10:43:15 EDT 2013
User: price-jones
Dark Spectrum Present: No
Reference Spectrum Present: No
Number of Sampled Component Spectra: 1
Spectrometers: USB2+H05261
Integration Time (usec): 100000 (USB2+H05261)
Spectra Averaged: 1 (USB2+H05261)
Boxcar Smoothing: 0 (USB2+H05261)
Correct for Electrical Dark: No (USB2+H05261)
Strobe/Lamp Enabled: No (USB2+H05261)
Correct for Detector Non-linearity: No (USB2+H05261)
Correct for Stray Light: No (USB2+H05261)
Number of Pixels in Processed Spectrum: 2048
>>>>>Begin Processed Spectral Data<<<<<
365.73	168.52
365.92	168.52
366.12	168.52
366.32	58.51
366.52	0.00
366.72	58.51
366.91	35.11
367.11	0.00
367.31	0.00
367.51	32.77
367.70	60.85
367.90	60.85
368.10	37.45
368.30	86.60
368.49	23.41
368.69	25.75
368.89	0.00
369.09	0.00
369.28	105.32
369.48	74.90
369.68	91.28
369.87	44.47
370.07	0.00
370.27	117.03
370.47	173.20
370.66	341.72
370.86	449.38
371.06	372.15
371.25	557.05
371.45	470.45
371.65	428.32
371.84	421.30
372.04	468.11
372.24	428.32
372.44	479.81
372.63	573.43
372.83	503.22
373.03	535.98
373.22	475.13
373.42	496.19
373.62	524.28
373.81	528.96
374.01	451.72
374.21	596.84
374.40	496.19
374.60	521.94
374.79	514.92
374.99	613.22
375.19	655.35
375.38	606.20
375.58	547.69
375.78	573.43
375.97	599.18
376.17	601.52
376.37	638.97
376.56	603.86
376.76	543.00
376.95	688.12
377.15	657.69
377.35	648.33
377.54	568.75
377.74	613.22
377.93	587.47
378.13	685.78
378.33	718.54
378.52	692.80
378.72	650.67
378.91	636.63
379.11	648.33
379.31	655.35
379.50	648.33
379.70	697.48
379.89	669.39
380.09	695.14
380.28	697.48
380.48	697.48
380.68	667.05
380.87	718.54
381.07	678.76
381.26	704.50
381.46	746.63
381.65	702.16
381.85	739.61
382.04	699.82
382.24	734.93
382.43	667.05
382.63	772.38
382.83	692.80
383.02	823.87
383.22	716.20
383.41	732.59
383.61	777.06
383.80	704.50
384.00	748.97
384.19	676.41
384.39	777.06
384.58	807.48
384.78	767.70
384.97	774.72
385.17	777.06
385.36	835.57
385.56	823.87
385.75	891.74
385.95	807.48
386.14	882.38
386.34	849.61
386.53	837.91
386.72	788.76
386.92	788.76
387.11	861.32
387.31	851.96
387.50	952.60
387.70	884.72
387.89	786.42
388.09	866.00
388.28	903.45
388.48	901.11
388.67	936.21
388.86	987.71
389.06	945.58
389.25	983.02
389.45	985.37
389.64	1032.18
389.84	997.07
390.03	976.00
390.22	999.41
390.42	943.24
390.61	976.00
390.81	1074.31
391.00	1043.88
391.19	1032.18
391.39	1020.47
391.58	1006.43
391.78	1011.11
391.97	1071.97
392.16	1001.75
392.36	971.32
392.55	1076.65
392.75	1004.09
392.94	919.83
393.13	1055.58
393.33	1081.33
393.52	1011.11
393.71	1107.07
393.91	1123.46
394.10	1139.84
394.29	1128.14
394.49	1226.44
394.68	1301.34
394.88	1057.92
395.07	1238.14
395.26	1240.48
395.46	1263.89
395.65	1233.46
395.84	1214.74
396.04	1235.80
396.23	1078.99
396.42	1188.99
396.62	1095.37
396.81	1184.31
397.00	1291.98
397.19	1242.82
397.39	1184.31
397.58	1394.96
397.77	1387.94
397.97	1423.05
398.16	1432.41
398.35	1444.11
398.55	1472.20
398.74	1507.30
398.93	1511.99
399.12	1448.79
399.32	1458.15
399.51	1427.73
399.70	1528.37
399.90	1561.14
400.09	1526.03
400.28	1542.41
400.47	1544.75
400.67	1666.46
400.86	1554.12
401.05	1687.53
401.24	1769.44
401.44	1717.95
401.63	1792.85
401.82	1713.27
402.01	1741.36
402.21	1682.85
402.40	1760.08
402.59	1788.17
402.78	1795.19
402.97	1806.89
403.17	1743.70
403.36	1844.34
403.55	1818.60
403.74	1881.79
403.93	1881.79
404.13	1935.62
404.32	1790.51
404.51	1905.20
404.70	1888.81
404.89	1872.43
405.09	2012.86
405.28	1987.11
405.47	1921.58
405.66	2057.33
405.85	1928.60
406.05	2001.16
406.24	1977.75
406.43	2022.22
406.62	2003.50
406.81	2150.95
407.00	1966.05
407.20	2071.37
407.39	2083.08
407.58	2162.66
407.77	2214.15
407.96	2256.28
408.15	2331.17
408.34	2289.04
408.54	2282.02
408.73	2249.25
408.92	2218.83
409.11	2347.56
409.30	2312.45
409.49	2326.49
409.68	2331.17
409.87	2356.92
410.07	2396.71
410.26	2310.11
410.45	2363.94
410.64	2335.85
410.83	2441.18
411.02	2499.69
411.21	2628.42
411.40	2457.56
411.59	2672.89
411.78	2588.63
411.98	2607.36
412.17	2679.91
412.36	2649.49
412.55	2689.28
412.74	2717.36
412.93	2792.26
413.12	2731.41
413.31	2768.85
413.50	2822.69
413.69	2834.39
413.88	2916.31
414.07	2986.52
414.26	2855.45
414.45	2930.35
414.64	2995.89
414.83	2939.71
415.02	3133.98
415.22	3117.59
415.41	3098.87
415.60	3162.06
415.79	3169.09
415.98	3346.97
416.17	3262.71
416.36	3370.37
416.55	3136.32
416.74	3325.90
416.93	3321.22
417.12	3377.39
417.31	3342.28
417.50	3400.80
417.69	3454.63
417.88	3412.50
418.07	3475.70
418.26	3344.63
418.45	3499.10
418.64	3562.30
418.83	3609.11
419.02	3691.02
419.21	3520.17
419.39	3655.92
419.58	3669.96
419.77	3529.53
419.96	3691.02
420.15	3686.34
420.34	3777.62
420.53	3768.26
420.72	3838.48
420.91	3894.65
421.10	3779.97
421.29	3922.74
421.48	3922.74
421.67	3854.86
421.86	3810.39
422.05	3875.93
422.24	3805.71
422.43	3808.05
422.61	3871.25
422.80	3932.10
422.99	4007.00
423.18	4060.83
423.37	3829.12
423.56	3976.57
423.75	3936.78
423.94	3964.87
424.13	3707.41
424.32	3878.27
424.50	3932.10
424.69	4016.36
424.88	3936.78
425.07	3833.80
425.26	3803.37
425.45	3857.20
425.64	3896.99
425.83	3920.40
426.01	4168.49
426.20	3983.59
426.39	3995.29
426.58	4058.49
426.77	3805.71
426.96	3990.61
427.15	4044.45
427.33	4088.92
427.52	4023.38
427.71	4166.15
427.90	4060.83
428.09	4126.36
428.28	4124.02
428.46	4128.70
428.65	4028.06
428.84	4140.41
429.03	4301.90
429.22	4147.43
429.40	4121.68
429.59	4002.32
429.78	4051.47
429.97	3913.38
430.16	3978.91
430.34	4100.62
430.53	4159.13
430.72	4067.85
430.91	4245.73
431.10	4395.53
431.28	4498.51
431.47	4652.98
431.66	4500.85
431.85	4547.66
432.03	4472.76
432.22	4718.52
432.41	4695.11
432.60	4538.30
432.79	4720.86
432.97	4655.33
433.16	4746.61
433.35	4676.39
433.54	4510.21
433.72	4620.22
433.91	4554.68
434.10	4744.27
434.28	4770.01
434.47	4877.68
434.66	4975.98
434.85	4959.60
435.03	4908.10
435.22	4873.00
435.41	5090.67
435.59	5027.47
435.78	5095.35
435.97	5013.43
436.16	4983.00
436.34	5233.44
436.53	5125.77
436.72	5254.50
436.90	5053.22
437.09	5053.22
437.28	5013.43
437.46	5097.69
437.65	5076.62
437.84	5217.05
438.02	5111.73
438.21	5317.70
438.40	5102.37
438.58	5305.99
438.77	5432.38
438.96	5404.30
439.14	5563.45
439.33	5575.16
439.52	5474.51
439.70	5717.93
439.89	5636.01
440.08	5668.78
440.26	5755.38
440.45	5694.52
440.63	5790.49
440.82	5982.41
441.01	5959.00
441.19	5973.05
441.38	5916.87
441.57	5987.09
441.75	6160.29
441.94	6214.12
442.12	6289.02
442.31	6333.49
442.50	6373.28
442.68	6197.74
442.87	6298.38
443.05	6333.49
443.24	6462.22
443.43	6342.85
443.61	6497.33
443.80	6658.82
443.98	6410.73
444.17	6282.00
444.35	6448.18
444.54	6722.02
444.73	6565.20
444.91	6516.05
445.10	6558.18
445.28	6263.27
445.47	6216.46
445.65	6382.64
445.84	6565.20
446.02	6616.69
446.21	6623.72
446.39	6466.90
446.58	6679.89
446.77	6628.40
446.95	6567.54
447.14	6682.23
447.32	6825.00
447.51	6644.78
447.69	6590.95
447.88	6572.22
448.06	6668.19
448.25	6726.70
448.43	6616.69
448.62	6768.83
448.80	6715.00
448.99	6787.55
449.17	6834.36
449.36	6731.38
449.54	7150.34
449.73	7159.70
449.91	7080.12
450.10	7169.06
450.28	7220.55
450.46	7250.98
450.65	7162.04
450.83	7117.57
451.02	7274.38
451.20	7325.88
451.39	7258.00
451.57	7197.15
451.76	7126.93
451.94	7180.76
452.13	7185.44
452.31	7133.95
452.49	7068.42
452.68	7187.79
452.86	7274.38
453.05	7265.02
453.23	7414.82
453.42	7365.67
453.60	7293.11
453.78	7466.31
453.97	7351.62
454.15	7517.80
454.34	7311.83
454.52	7417.16
454.70	7503.76
454.89	7613.76
455.07	7644.19
455.26	7831.43
455.44	7871.22
455.62	7737.81
455.81	7634.83
455.99	7714.41
456.17	7866.54
456.36	7906.33
456.54	7918.03
456.73	8079.53
456.91	8224.64
457.09	8351.03
457.28	8301.88
457.46	8063.15
457.64	8121.66
457.83	7964.84
458.01	8013.99
458.19	8107.62
458.38	8318.26
458.56	8299.54
458.74	8194.22
458.93	8222.30
459.11	8301.88
459.29	8215.28
459.48	8219.96
459.66	8264.43
459.84	8358.05
460.03	8428.27
460.21	8561.68
460.39	8631.90
460.57	8456.36
460.76	8589.77
460.94	8692.75
461.12	8758.28
461.31	8683.39
461.49	8617.85
461.67	8720.84
461.85	8887.01
462.04	8760.63
462.22	9320.01
462.40	8924.46
462.59	8938.51
462.77	8772.33
462.95	9097.66
463.13	8936.17
463.32	8809.78
463.50	8971.27
463.68	9067.24
463.86	9069.58
464.05	8910.42
464.23	8898.72
464.41	8926.80
464.59	8842.54
464.78	9198.31
464.96	8954.89
465.14	9137.45
465.32	9275.54
465.50	9341.08
465.69	9338.74
465.87	9125.75
466.05	9195.96
466.23	9179.58
466.41	9240.44
466.60	9273.20
466.78	9092.98
466.96	9228.73
467.14	9341.08
467.32	9280.22
467.51	9659.39
467.69	9177.24
467.87	9507.26
468.05	9350.44
468.23	9327.03
468.41	9376.19
468.60	9380.87
468.78	9738.97
468.96	9619.60
469.14	9724.93
469.32	9848.97
469.50	9476.83
469.69	9816.21
469.87	9975.36
470.05	9710.88
470.23	9837.27
470.41	9600.88
470.59	9923.87
470.77	10068.98
470.95	10001.11
471.14	9989.41
471.32	9966.00
471.50	10279.63
471.68	10431.77
471.86	10127.50
472.04	10345.17
472.22	10654.12
472.40	10183.67
472.58	10382.62
472.77	10544.11
472.95	10551.14
473.13	10717.31
473.31	10516.03
473.49	10382.62
473.67	10565.18
473.85	10920.94
474.03	10846.04
474.21	10930.30
474.39	11005.20
474.57	10988.82
474.75	11162.01
474.93	11335.21
475.12	11236.91
475.30	11314.15
475.48	11124.57
475.66	11311.81
475.84	11349.26
476.02	11356.28
476.20	11475.65
476.38	11953.12
476.56	12119.29
476.74	11880.56
476.92	11885.24
477.10	11800.98
477.28	12018.65
477.46	12163.76
477.64	12241.00
477.82	12259.73
478.00	12446.97
478.18	12386.12
478.36	12561.66
478.54	12849.54
478.72	12704.43
478.90	12793.37
479.08	12964.23
479.26	12957.21
479.44	13188.92
479.62	13057.85
479.80	13422.97
479.98	13387.86
480.16	13589.15
480.34	13558.72
480.52	13921.51
480.70	13837.25
480.88	13668.73
481.06	13654.69
481.24	13884.06
481.41	14242.16
481.59	14274.93
481.77	14223.44
481.95	14452.81
482.13	14743.03
482.31	14558.13
482.49	14780.48
482.67	14822.61
482.85	15105.82
483.03	14986.45
483.21	15211.14
483.39	15227.53
483.57	15232.21
483.74	15576.27
483.92	15611.37
484.10	15527.11
484.28	15765.85
484.46	16116.93
484.64	16313.53
484.82	16130.97
485.00	16121.61
485.18	16428.22
485.35	16535.88
485.53	16133.31
485.71	16102.89
485.89	16341.62
486.07	16465.67
486.25	16695.04
486.43	16805.05
486.61	16816.75
486.78	17298.90
486.96	17266.13
487.14	17886.37
487.32	17518.91
487.50	17879.35
487.68	18359.16
487.85	18424.70
488.03	18544.06
488.21	18394.27
488.39	18448.10
488.57	18548.75
488.75	18696.20
488.92	18986.43
489.10	19260.27
489.28	19454.53
489.46	19695.61
489.64	19683.91
489.81	20173.08
489.99	20088.82
490.17	20147.33
490.35	20042.01
490.53	20409.47
490.70	20320.53
490.88	20648.21
491.06	20905.66
491.24	20828.43
491.41	20650.55
491.59	20774.60
491.77	20601.40
491.95	21333.98
492.13	21198.23
492.30	21537.61
492.48	21427.60
492.66	21577.40
492.84	21994.01
493.01	22155.51
493.19	22160.19
493.37	22277.22
493.54	22457.44
493.72	22527.66
493.90	22384.88
494.08	22843.63
494.25	23073.00
494.43	23112.79
494.61	23405.36
494.79	23344.50
494.96	23318.76
495.14	23372.59
495.32	23648.77
495.49	23557.49
495.67	23915.59
495.85	23840.70
496.02	24166.03
496.20	24147.31
496.38	24563.92
496.55	24744.14
496.73	24978.20
496.91	24751.17
497.09	24910.32
497.26	25242.68
497.44	24863.51
497.62	24910.32
497.79	25135.01
497.97	25123.31
498.14	25376.09
498.32	25509.50
498.50	25773.98
498.67	25898.03
498.85	25944.84
499.03	26146.12
499.20	26148.46
499.38	26127.40
499.56	26169.53
499.73	26230.38
499.91	26703.17
500.08	26672.74
500.26	26246.77
500.44	26586.15
500.61	26593.17
500.79	26574.44
500.97	26710.19
501.14	27101.06
501.32	27232.13
501.49	26955.95
501.67	27260.22
501.84	27138.51
502.02	27524.70
502.20	27325.75
502.37	27482.57
502.55	27587.89
502.72	28032.60
502.90	27756.41
503.07	27843.01
503.25	28542.83
503.43	27943.66
503.60	27969.40
503.78	27824.29
503.95	28507.72
504.13	28397.72
504.30	28470.28
504.48	28283.03
504.65	28797.95
504.83	28811.99
505.01	29022.64
505.18	29062.43
505.36	29635.86
505.53	29315.21
505.71	29795.02
505.88	29717.78
506.06	29235.63
506.23	29263.72
506.41	29535.22
506.58	29989.28
506.76	29647.57
506.93	30183.55
507.11	29663.95
507.28	29818.42
507.46	30085.25
507.63	30368.45
507.81	30429.30
507.98	29635.86
508.16	30368.45
508.33	30485.48
508.50	30684.42
508.68	30710.17
508.85	31166.57
509.03	30916.14
509.20	30843.58
509.38	31145.51
509.55	31091.68
509.73	31299.98
509.90	31522.34
510.08	31206.36
510.25	31229.77
510.42	31248.49
510.60	31857.03
510.77	31882.78
510.95	32367.27
511.12	31737.66
511.30	32093.43
511.47	32098.11
511.64	32203.43
511.82	32325.14
511.99	31995.12
512.17	32554.51
512.34	32407.06
512.51	32556.85
512.69	32645.79
512.86	32472.59
513.04	32821.33
513.21	32952.40
513.38	32650.47
513.56	32723.03
513.73	32622.39
513.90	32774.52
514.08	32762.82
514.25	32893.89
514.43	33486.04
514.60	33315.19
514.77	33291.78
514.95	33696.69
515.12	33495.41
515.29	33366.68
515.47	33628.82
515.64	33497.75
515.81	33883.94
515.99	33933.09
516.16	33366.68
516.33	33504.77
516.51	33701.37
516.68	33259.01
516.85	33067.09
517.03	33450.94
517.20	33757.55
517.37	34349.70
517.54	34593.12
517.72	34017.35
517.89	33825.42
518.06	34256.08
518.24	33776.27
518.41	34087.56
518.58	34642.27
518.75	34448.00
518.93	34576.73
519.10	34625.89
519.27	35220.38
519.45	35166.55
519.62	35255.49
519.79	35426.35
519.96	35325.71
520.14	35283.58
520.31	34684.40
520.48	35541.03
520.65	35372.52
520.83	35768.07
521.00	35782.11
521.17	35840.62
521.34	36088.72
521.52	36154.26
521.69	36088.72
521.86	36526.40
522.03	36245.54
522.20	36189.36
522.38	36421.08
522.55	36540.44
522.72	36299.37
522.89	36318.09
523.07	36369.58
523.24	36765.14
523.41	36503.00
523.58	36655.13
523.75	37544.53
523.92	37254.31
524.10	37331.54
524.27	37024.93
524.44	37078.77
524.61	37378.36
524.78	37261.33
524.96	37324.52
525.13	37273.03
525.30	37413.46
525.47	37738.80
525.64	37954.13
525.81	37493.04
525.98	37769.22
526.16	37081.11
526.33	37188.77
526.50	37106.85
526.67	36861.10
526.84	37160.69
527.01	37600.71
527.18	37617.09
527.36	37801.99
527.53	38195.20
527.70	38581.39
527.87	38209.25
528.04	38459.68
528.21	38237.33
528.38	38518.20
528.55	38438.62
528.72	38902.04
528.89	38974.60
529.07	38658.63
529.24	38401.17
529.41	38401.17
529.58	38775.66
529.75	39028.43
529.92	39168.87
530.09	39033.11
530.26	38988.64
530.43	38792.04
530.60	38869.28
530.77	39405.26
530.94	40013.80
531.11	39199.29
531.28	39164.18
531.46	38974.60
531.63	39187.59
531.80	39442.71
531.97	39056.52
532.14	39065.88
532.31	39014.39
532.48	39110.35
532.65	39665.06
532.82	39037.80
532.99	39634.63
533.16	39828.90
533.33	39693.15
533.50	39826.56
533.67	40018.48
533.84	39845.28
534.01	39711.87
534.18	39627.61
534.35	40217.43
534.52	39782.09
534.69	40226.79
534.86	40563.82
535.03	39847.62
535.20	40741.71
535.37	40961.72
535.54	40528.72
535.71	40484.25
535.88	40561.48
536.05	40620.00
536.22	41036.61
536.38	40416.37
536.55	40467.86
536.72	40638.72
536.89	40596.59
537.06	40863.41
537.23	40797.88
537.40	40772.13
537.57	40942.99
537.74	41041.29
537.91	41200.45
538.08	40905.54
538.25	40919.59
538.42	40950.01
538.59	41390.03
538.75	40987.46
538.92	41029.59
539.09	41434.50
539.26	41310.46
539.43	41368.97
539.60	40973.42
539.77	40980.44
539.94	41088.10
540.11	41270.67
540.28	41092.79
540.44	41230.88
540.61	41366.63
540.78	41436.84
540.95	41521.10
541.12	41694.30
541.29	41855.80
541.46	42150.71
541.62	41420.46
541.79	41827.71
541.96	41432.16
542.13	41736.43
542.30	41698.98
542.47	41373.65
542.63	42066.45
542.80	42225.60
542.97	42637.54
543.14	42981.60
543.31	42426.89
543.48	42279.44
543.64	42696.05
543.81	43007.34
543.98	42754.57
544.15	42682.01
544.32	42745.20
544.48	43320.98
544.65	42796.70
544.82	42787.33
544.99	42387.10
545.16	42642.22
545.32	42548.60
545.49	43297.57
545.66	43119.69
545.83	43213.31
546.00	42852.87
546.16	43227.35
546.33	43023.73
546.50	42859.89
546.67	43182.88
546.83	42918.40
547.00	43227.35
547.17	43416.94
547.34	42784.99
547.50	42574.34
547.67	43103.31
547.84	43023.73
548.00	43065.86
548.17	43536.30
548.34	43386.51
548.51	43632.27
548.67	43700.14
548.84	43700.14
549.01	43206.29
549.18	43377.15
549.34	43344.38
549.51	43414.60
549.68	43452.05
549.84	43700.14
550.01	44058.24
550.18	43505.88
550.34	43508.22
550.51	43964.62
550.68	43957.60
550.84	43337.36
551.01	43847.60
551.18	43903.77
551.34	43887.39
551.51	44011.43
551.68	43976.33
551.84	43920.15
552.01	44076.97
552.18	44081.65
552.34	44055.90
552.51	44318.04
552.68	44149.53
552.84	44619.97
553.01	44051.22
553.18	43948.24
553.34	44678.49
553.51	44013.77
553.67	44556.78
553.84	44201.02
554.01	44924.24
554.17	44748.70
554.34	44697.21
554.51	44121.44
554.67	44453.79
554.84	44914.88
555.00	44486.56
555.17	44409.32
555.33	44746.36
555.50	44608.27
555.67	44498.26
555.83	44449.11
556.00	44341.45
556.16	44783.81
556.33	45045.95
556.50	44657.42
556.66	44488.90
556.83	44673.81
556.99	44830.62
557.16	44772.11
557.32	44545.08
557.49	45027.23
557.65	44467.84
557.82	44706.57
557.98	45118.51
558.15	45050.63
558.32	45165.32
558.48	44697.21
558.65	44921.90
558.81	44947.65
558.98	44788.49
559.14	45027.23
559.31	44992.12
559.47	44839.98
559.64	44947.65
559.80	44954.67
559.97	45146.59
560.13	44648.06
560.30	44825.94
560.46	45125.53
560.63	45088.08
560.79	45556.19
560.96	45343.20
561.12	45160.64
561.29	44903.18
561.45	45022.54
561.61	45390.01
561.78	45595.98
561.94	45170.00
562.11	45123.19
562.27	45263.62
562.44	45799.60
562.60	45930.67
562.77	45485.97
562.93	44973.39
563.10	45500.01
563.26	45270.64
563.42	45471.93
563.59	45280.00
563.75	45705.98
563.92	45727.05
564.08	45820.67
564.24	45324.47
564.41	45511.72
564.57	45490.65
564.74	45303.41
564.90	45455.54
565.07	45535.12
565.23	45127.87
565.39	45556.19
565.56	45263.62
565.72	45153.62
565.88	45102.12
566.05	45200.43
566.21	44835.30
566.38	45167.66
566.54	45406.39
566.70	46122.60
566.87	46213.88
567.03	45528.10
567.19	46003.23
567.36	45624.06
567.52	45591.30
567.68	46012.59
567.85	45467.25
568.01	45897.91
568.17	45492.99
568.34	45839.39
568.50	45621.72
568.66	45652.15
568.83	45806.62
568.99	45603.00
569.15	45331.50
569.32	45228.51
569.48	45563.21
569.64	46239.62
569.81	45703.64
569.97	45848.75
570.13	45741.09
570.30	45165.32
570.46	45422.78
570.62	44940.63
570.78	45095.10
570.95	45308.09
571.11	46038.34
571.27	45525.76
571.43	45558.53
571.60	45567.89
571.76	45497.67
571.92	45581.93
572.09	45872.16
572.25	45862.80
572.41	45769.18
572.57	45766.84
572.74	46213.88
572.90	46183.45
573.06	46059.40
573.22	45909.61
573.38	45904.93
573.55	45640.45
573.71	46237.28
573.87	45993.87
574.03	45612.36
574.20	45830.03
574.36	45951.74
574.52	46024.29
574.68	45820.67
574.84	45813.65
575.01	45326.81
575.17	45778.54
575.33	45631.08
575.49	45558.53
575.65	45949.40
575.82	46110.89
575.98	45315.11
576.14	45888.54
576.30	45991.53
576.46	45804.28
576.62	45975.14
576.79	45748.11
576.95	45794.92
577.11	45542.14
577.27	45404.05
577.43	45467.25
577.59	45647.47
577.75	45645.13
577.92	45401.71
578.08	45649.81
578.24	45652.15
578.40	45525.76
578.56	45963.44
578.72	45481.29
578.88	46248.99
579.04	46284.09
579.21	45378.31
579.37	45394.69
579.53	45680.24
579.69	45460.23
579.85	46024.29
580.01	45591.30
580.17	45509.38
580.33	46265.37
580.49	46183.45
580.65	45727.05
580.82	45806.62
580.98	46036.00
581.14	45930.67
581.30	46082.81
581.46	45940.04
581.62	45652.15
581.78	46038.34
581.94	46293.46
582.10	45638.11
582.26	45820.67
582.42	45748.11
582.58	45874.50
582.74	45846.41
582.90	46007.91
583.06	46033.66
583.22	46153.02
583.38	46358.99
583.54	46274.73
583.70	45904.93
583.86	45846.41
584.02	45736.41
584.18	46286.43
584.34	45705.98
584.50	45970.46
584.66	46232.60
584.82	46148.34
584.98	46050.04
585.14	46209.20
585.30	45827.69
585.46	45979.82
585.62	45731.73
585.78	45965.78
585.94	45530.44
586.10	45743.43
586.26	45745.77
586.42	45834.71
586.58	46092.17
586.74	46115.58
586.90	45731.73
587.06	45663.85
587.22	45923.65
587.38	46127.28
587.54	46178.77
587.70	46078.13
587.86	45624.06
588.02	46148.34
588.18	45975.14
588.34	46110.89
588.49	45638.11
588.65	45408.73
588.81	45610.02
588.97	45317.45
589.13	45165.32
589.29	45324.47
589.45	46040.68
589.61	45851.09
589.77	45975.14
589.93	45769.18
590.08	46033.66
