SpectraSuite Data File
++++++++++++++++++++++++++++++++++++
Date: Fri Oct 25 11:34:46 EDT 2013
User: price-jones
Dark Spectrum Present: No
Reference Spectrum Present: No
Number of Sampled Component Spectra: 1
Spectrometers: USB2+H05261
Integration Time (usec): 100000 (USB2+H05261)
Spectra Averaged: 1 (USB2+H05261)
Boxcar Smoothing: 0 (USB2+H05261)
Correct for Electrical Dark: No (USB2+H05261)
Strobe/Lamp Enabled: No (USB2+H05261)
Correct for Detector Non-linearity: No (USB2+H05261)
Correct for Stray Light: No (USB2+H05261)
Number of Pixels in Processed Spectrum: 2048
>>>>>Begin Processed Spectral Data<<<<<
365.73	283.20
365.92	283.20
366.12	283.20
366.32	191.92
366.52	163.84
366.72	196.60
366.91	166.18
367.11	161.50
367.31	196.60
367.51	184.90
367.70	205.97
367.90	184.90
368.10	264.48
368.30	205.97
368.49	201.29
368.69	173.20
368.89	217.67
369.09	229.37
369.28	255.12
369.48	187.24
369.68	224.69
369.87	203.63
370.07	248.10
370.27	229.37
370.47	308.95
370.66	468.11
370.86	531.30
371.06	519.60
371.25	496.19
371.45	538.32
371.65	500.87
371.84	521.94
372.04	566.41
372.24	571.09
372.44	514.92
372.63	610.88
372.83	561.73
373.03	571.09
373.22	582.79
373.42	615.56
373.62	702.16
373.81	587.47
374.01	589.82
374.21	667.05
374.40	650.67
374.60	638.97
374.79	573.43
374.99	566.41
375.19	636.63
375.38	617.90
375.58	638.97
375.78	643.65
375.97	671.73
376.17	711.52
376.37	617.90
376.56	674.07
376.76	748.97
376.95	681.10
377.15	662.37
377.35	781.74
377.54	657.69
377.74	585.13
377.93	681.10
378.13	643.65
378.33	704.50
378.52	685.78
378.72	767.70
378.91	702.16
379.11	662.37
379.31	678.76
379.50	711.52
379.70	690.46
379.89	718.54
380.09	641.31
380.28	711.52
380.48	690.46
380.68	692.80
380.87	741.95
381.07	711.52
381.26	751.31
381.46	777.06
381.65	727.91
381.85	763.01
382.04	716.20
382.24	692.80
382.43	779.40
382.63	758.33
382.83	744.29
383.02	788.76
383.22	842.59
383.41	765.36
383.61	828.55
383.80	767.70
384.00	753.65
384.19	819.19
384.39	807.48
384.58	741.95
384.78	767.70
384.97	821.53
385.17	847.27
385.36	744.29
385.56	791.10
385.75	755.99
385.95	830.89
386.14	828.55
386.34	807.48
386.53	802.80
386.72	828.55
386.92	882.38
387.11	882.38
387.31	798.12
387.50	856.64
387.70	896.43
387.89	851.96
388.09	882.38
388.28	840.25
388.48	842.59
388.67	863.66
388.86	844.93
389.06	854.30
389.25	917.49
389.45	931.53
389.64	887.06
389.84	856.64
390.03	887.06
390.22	945.58
390.42	947.92
390.61	943.24
390.81	980.68
391.00	933.87
391.19	1004.09
391.39	924.51
391.58	994.73
391.78	910.47
391.97	1022.81
392.16	1055.58
392.36	1041.54
392.55	1048.56
392.75	1076.65
392.94	983.02
393.13	1011.11
393.33	961.96
393.52	1081.33
393.71	1083.67
393.91	1020.47
394.10	1004.09
394.29	1090.69
394.49	1083.67
394.68	1067.28
394.88	1226.44
395.07	1167.93
395.26	1029.84
395.46	1100.05
395.65	1181.97
395.84	1081.33
396.04	1214.74
396.23	1086.01
396.42	1137.50
396.62	1205.38
396.81	1196.01
397.00	1121.12
397.19	1111.75
397.39	1200.69
397.58	1170.27
397.77	1210.06
397.97	1167.93
398.16	1280.27
398.35	1149.20
398.55	1280.27
398.74	1256.87
398.93	1289.64
399.12	1179.63
399.32	1219.42
399.51	1263.89
399.70	1327.08
399.90	1210.06
400.09	1317.72
400.28	1432.41
400.47	1359.85
400.67	1409.00
400.86	1291.98
401.05	1282.61
401.24	1299.00
401.44	1366.87
401.63	1364.53
401.82	1350.49
402.01	1444.11
402.21	1299.00
402.40	1423.05
402.59	1474.54
402.78	1376.24
402.97	1460.49
403.17	1378.58
403.36	1511.99
403.55	1593.90
403.74	1614.97
403.93	1516.67
404.13	1497.94
404.32	1479.22
404.51	1519.01
404.70	1511.99
404.89	1617.31
405.09	1575.18
405.28	1570.50
405.47	1481.56
405.66	1629.01
405.85	1636.03
406.05	1640.72
406.24	1682.85
406.43	1636.03
406.62	1694.55
406.81	1818.60
407.00	1692.21
407.20	1659.44
407.39	1664.12
407.58	1748.38
407.77	1734.34
407.96	1811.57
408.15	1839.66
408.34	1818.60
408.54	1844.34
408.73	1753.06
408.92	1872.43
409.11	1963.71
409.30	1909.88
409.49	1944.99
409.68	1844.34
409.87	1916.90
410.07	1944.99
410.26	1937.96
410.45	1916.90
410.64	2022.22
410.83	2062.01
411.02	1912.22
411.21	2207.13
411.40	2057.33
411.59	2104.14
411.78	2001.16
411.98	2225.85
412.17	2162.66
412.36	2169.68
412.55	2054.99
412.74	2230.53
412.93	2251.60
413.12	2223.51
413.31	2284.36
413.50	2345.22
413.69	2333.51
413.88	2420.11
414.07	2331.17
414.26	2284.36
414.45	2415.43
414.64	2431.82
414.83	2380.32
415.02	2525.44
415.22	2363.94
415.41	2579.27
415.60	2483.31
415.79	2406.07
415.98	2656.51
416.17	2602.68
416.36	2548.84
416.55	2654.17
416.74	2684.59
416.93	2621.40
417.12	2628.42
417.31	2757.15
417.50	2923.33
417.69	2888.22
417.88	2708.00
418.07	2796.94
418.26	2843.75
418.45	2843.75
418.64	2986.52
418.83	2750.13
419.02	2928.01
419.21	2888.22
419.39	3014.61
419.58	2974.82
419.77	2942.05
419.96	2953.76
420.15	2995.89
420.34	3089.51
420.53	2949.08
420.72	3063.76
420.91	2909.29
421.10	3049.72
421.29	3148.02
421.48	3005.25
421.67	3169.09
421.86	3091.85
422.05	3075.46
422.24	3199.51
422.43	3260.37
422.61	3187.81
422.80	3248.66
422.99	3152.70
423.18	3229.94
423.37	3276.75
423.56	3138.66
423.75	3323.56
423.94	3080.14
424.13	2986.52
424.32	3021.63
424.50	3309.52
424.69	3419.52
424.88	3274.41
425.07	3129.30
425.26	3288.45
425.45	3251.00
425.64	3185.47
425.83	3192.49
426.01	3222.92
426.20	3267.39
426.39	3253.34
426.58	3211.22
426.77	3286.11
426.96	3410.16
427.15	3243.98
427.33	3330.58
427.52	3370.37
427.71	3482.72
427.90	3454.63
428.09	3431.23
428.28	3356.33
428.46	3496.76
428.65	3520.17
428.84	3569.32
429.03	3585.70
429.22	3574.00
429.40	3625.49
429.59	3578.68
429.78	3520.17
429.97	3452.29
430.16	3548.25
430.34	3632.51
430.53	3700.39
430.72	3648.90
430.91	3700.39
431.10	3791.67
431.28	3705.07
431.47	3927.42
431.66	3765.92
431.85	3679.32
432.03	3754.22
432.22	3861.88
432.41	3786.99
432.60	3913.38
432.79	3850.18
432.97	3878.27
433.16	3978.91
433.35	3904.01
433.54	3861.88
433.72	3957.85
433.91	4138.07
434.10	4039.76
434.28	3990.61
434.47	4025.72
434.66	3964.87
434.85	4161.47
435.03	4037.42
435.22	4175.52
435.41	4210.62
435.59	4016.36
435.78	4182.54
435.97	4334.67
436.16	4173.18
436.34	4212.96
436.53	4065.51
436.72	4531.28
436.90	4262.12
437.09	4315.95
437.28	4154.45
437.46	4278.50
437.65	4315.95
437.84	4278.50
438.02	4428.29
438.21	4332.33
438.40	4255.09
438.58	4503.19
438.77	4554.68
438.96	4561.70
439.14	4592.13
439.33	4617.88
439.52	4734.90
439.70	4732.56
439.89	4870.65
440.08	4681.07
440.26	4870.65
440.45	4706.82
440.63	4877.68
440.82	4966.62
441.01	4842.57
441.19	4765.33
441.38	5015.77
441.57	4830.87
441.75	5029.81
441.94	5217.05
442.12	5118.75
442.31	5064.92
442.50	5146.84
442.68	5224.08
442.87	5193.65
443.05	5109.39
443.24	5366.85
443.43	5156.20
443.61	5137.48
443.80	5261.52
443.98	5249.82
444.17	5109.39
444.35	5219.39
444.54	5329.40
444.73	5294.29
444.91	5397.28
445.10	5401.96
445.28	5305.99
445.47	5245.14
445.65	5242.80
445.84	5387.91
446.02	5352.81
446.21	5394.93
446.39	5240.46
446.58	5493.24
446.77	5495.58
446.95	5413.66
447.14	5378.55
447.32	5448.77
447.51	5481.53
447.69	5350.46
447.88	5488.56
448.06	5586.86
448.25	5547.07
448.43	5530.69
448.62	5469.83
448.80	5385.57
448.99	5614.95
449.17	5598.56
449.36	5493.24
449.54	5713.25
449.73	5612.60
449.91	5795.17
450.10	5825.59
450.28	5900.49
450.46	5813.89
450.65	5764.74
450.83	5867.72
451.02	5879.43
451.20	5930.92
451.39	5977.73
451.57	5797.51
451.76	5724.95
451.94	5767.08
452.13	5984.75
452.31	5935.60
452.49	5895.81
452.68	6136.88
452.86	5930.92
453.05	6064.33
453.23	6204.76
453.42	5963.68
453.60	5956.66
453.78	6148.59
453.97	6043.26
454.15	6120.50
454.34	5895.81
454.52	6176.67
454.70	6223.48
454.89	6251.57
455.07	6169.65
455.26	6408.39
455.44	6361.58
455.62	6436.47
455.81	6321.79
455.99	6326.47
456.17	6171.99
456.36	6450.52
456.54	6438.81
456.73	6487.96
456.91	6590.95
457.09	6715.00
457.28	6768.83
457.46	6649.46
457.64	6647.12
457.83	6691.59
458.01	6607.33
458.19	6850.75
458.38	6810.96
458.56	6778.19
458.74	6707.98
458.93	6796.92
459.11	6782.87
459.29	6834.36
459.48	6832.02
459.66	6883.52
459.84	6899.90
460.03	6988.84
460.21	6993.52
460.39	6937.35
460.57	7091.82
460.76	7117.57
460.94	7054.37
461.12	7152.68
461.31	7140.97
461.49	7023.95
461.67	6939.69
461.85	7328.22
462.04	7187.79
462.22	7449.93
462.40	7360.98
462.59	7225.23
462.77	7346.94
462.95	7337.58
463.13	7229.91
463.32	7269.70
463.50	7389.07
463.68	7510.78
463.86	7578.65
464.05	7445.24
464.23	7438.22
464.41	7428.86
464.59	7604.40
464.78	7569.29
464.96	7595.04
465.14	7382.05
465.32	7578.65
465.50	7583.34
465.69	7836.11
465.87	7714.41
466.05	7513.12
466.23	7658.23
466.41	7871.22
466.60	7978.89
466.78	7646.53
466.96	7714.41
467.14	7936.76
467.32	7901.65
467.51	7925.05
467.69	7667.60
467.87	7810.37
468.05	7978.89
468.23	8131.02
468.41	7819.73
468.60	8105.28
468.78	8023.36
468.96	8023.36
469.14	8292.52
469.32	8224.64
469.50	7990.59
469.69	8168.47
469.87	8093.57
470.05	8112.30
470.23	8280.82
470.41	8297.20
470.59	8278.47
470.77	8276.13
470.95	8393.16
471.14	8496.14
471.32	8196.56
471.50	8423.59
471.68	8606.15
471.86	8421.25
472.04	8397.84
472.22	8772.33
472.40	8652.96
472.58	8835.52
472.77	8582.74
472.95	8795.73
473.13	8861.27
473.31	8807.44
473.49	8847.22
473.67	8933.82
473.85	8924.46
474.03	8975.95
474.21	9034.47
474.39	9160.86
474.57	9287.25
474.75	9224.05
474.93	9493.21
475.12	9303.63
475.30	9408.95
475.48	9551.73
475.66	9415.98
475.84	9549.39
476.02	9577.47
476.20	9516.62
476.38	9813.87
476.56	9951.96
476.74	10059.62
476.92	9879.40
477.10	9900.47
477.28	10026.86
477.46	10078.35
477.64	10307.72
477.82	10291.34
478.00	10534.75
478.18	10569.86
478.36	10436.45
478.54	10532.41
478.72	10567.52
478.90	10640.08
479.08	10897.53
479.26	10967.75
479.44	10998.18
479.62	10927.96
479.80	11286.06
479.98	11204.14
480.16	11681.61
480.34	11255.64
480.52	11461.60
480.70	11538.84
480.88	11396.07
481.06	11756.51
481.24	11756.51
481.41	11885.24
481.59	12004.61
481.77	12086.53
481.95	12184.83
482.13	12233.98
482.31	12222.28
482.49	12414.20
482.67	12496.12
482.85	12571.02
483.03	12776.98
483.21	12784.01
483.39	12856.56
483.57	12823.80
483.74	13013.38
483.92	13259.13
484.10	13137.43
484.28	13638.30
484.46	13621.92
484.64	13848.95
484.82	13338.71
485.00	13895.76
485.18	14038.53
485.35	13982.36
485.53	14228.12
485.71	14340.46
485.89	14534.73
486.07	14326.42
486.25	14361.53
486.43	14757.08
486.61	14808.57
486.78	14963.04
486.96	14853.04
487.14	15211.14
487.32	15108.16
487.50	15215.82
487.68	15463.92
487.85	15658.18
488.03	15365.62
488.21	16074.80
488.39	16145.02
488.57	16182.46
488.75	16257.36
488.92	16245.66
489.10	16449.28
489.28	16535.88
489.46	16657.59
489.64	16755.90
489.81	16933.78
489.99	16964.20
490.17	17032.08
490.35	17240.39
490.53	17392.52
490.70	17528.27
490.88	17242.73
491.06	17603.17
491.24	17781.05
491.41	18162.56
491.59	18146.17
491.77	18478.53
491.95	18232.77
492.13	18214.05
492.30	18462.15
492.48	18618.96
492.66	18590.88
492.84	18614.28
493.01	18836.63
493.19	19166.65
493.37	19173.67
493.54	19094.09
493.72	19157.28
493.90	19234.52
494.08	19480.28
494.25	19454.53
494.43	19730.72
494.61	19868.81
494.79	19737.74
494.96	19892.21
495.14	20020.94
495.32	20507.77
495.49	20517.14
495.67	20451.60
495.85	20617.78
496.02	20348.62
496.20	21135.04
496.38	20673.95
496.55	21125.68
496.73	21593.78
496.91	21383.13
497.09	21060.14
497.26	21722.51
497.44	21734.21
497.62	21715.49
497.79	22115.72
497.97	21724.85
498.14	22239.77
498.32	22333.39
498.50	22225.73
498.67	22284.24
498.85	22354.46
499.03	22459.78
499.20	22656.39
499.38	22860.01
499.56	22593.19
499.73	22778.09
499.91	23117.47
500.08	23206.41
500.26	23136.20
500.44	23077.68
500.61	23241.52
500.79	23531.75
500.97	23592.60
501.14	23442.81
501.32	23733.03
501.49	23807.93
501.67	23674.52
501.84	24009.22
502.02	24240.93
502.20	24151.99
502.37	24142.63
502.55	24128.58
502.72	24453.92
502.90	24397.74
503.07	24229.23
503.25	24386.04
503.43	24493.71
503.60	24470.30
503.78	24774.57
503.95	24641.16
504.13	25123.31
504.30	25060.12
504.48	24917.34
504.65	25062.46
504.83	25467.37
505.01	25551.63
505.18	25322.26
505.36	25687.38
505.53	25663.97
505.71	25605.46
505.88	26038.46
506.06	25633.55
506.23	25905.05
506.41	26040.80
506.58	25919.09
506.76	25933.14
506.93	26373.16
507.11	26373.16
507.28	26272.51
507.46	26925.52
507.63	26342.73
507.81	26995.74
507.98	26726.58
508.16	26721.90
508.33	27065.96
508.50	26775.73
508.68	26810.84
508.85	27250.86
509.03	26906.80
509.20	27543.42
509.38	27552.79
509.55	27477.89
509.73	27435.76
509.90	27740.03
510.08	27578.53
510.25	27718.96
510.42	27852.38
510.60	27981.10
510.77	28119.20
510.95	28283.03
511.12	28170.69
511.30	28079.41
511.47	28709.01
511.64	28268.99
511.82	28032.60
511.99	28278.35
512.17	28386.02
512.34	28374.31
512.51	28945.41
512.69	28924.34
512.86	29291.80
513.04	29235.63
513.21	28957.11
513.38	29078.82
513.56	29481.39
513.73	29081.16
513.90	29614.80
514.08	29212.23
514.25	29642.88
514.43	29722.46
514.60	29514.16
514.77	29755.23
514.95	29420.53
515.12	29586.71
515.29	29790.34
515.47	30307.60
515.64	30113.33
515.81	30113.33
515.99	30260.79
516.16	30539.31
516.33	30916.14
516.51	30677.40
516.68	30354.41
516.85	30410.58
517.03	30560.37
517.20	30623.57
517.37	30780.39
517.54	30635.27
517.72	30593.14
517.89	31089.34
518.06	31037.84
518.24	31201.68
518.41	31166.57
518.58	30920.82
518.75	30792.09
518.93	31494.25
519.10	31110.40
519.27	31297.64
519.45	31168.91
519.62	31751.71
519.79	31604.25
519.96	31587.87
520.14	31924.91
520.31	31461.48
520.48	31887.46
520.65	31817.24
520.83	32360.25
521.00	32170.66
521.17	32147.26
521.34	32266.63
521.52	32376.63
521.69	32465.57
521.86	32453.87
522.03	33120.92
522.20	33064.75
522.38	32737.07
522.55	32828.35
522.72	33060.07
522.89	32835.38
523.07	33146.67
523.24	33530.51
523.41	32973.47
523.58	32596.64
523.75	33092.83
523.92	33146.67
524.10	33448.60
524.27	33497.75
524.44	33343.27
524.61	33315.19
524.78	33834.78
524.96	33750.52
525.13	33844.15
525.30	33593.71
525.47	33975.22
525.64	33862.87
525.81	34139.05
525.98	34169.48
526.16	34007.98
526.33	33813.72
526.50	34288.85
526.67	34143.74
526.84	34305.23
527.01	34321.62
527.18	34527.58
527.36	34813.13
527.53	34424.60
527.70	34733.55
527.87	35040.16
528.04	34899.73
528.21	34796.74
528.38	34590.78
528.55	35449.75
528.72	35157.19
528.89	34998.03
529.07	34726.53
529.24	34787.38
529.41	34895.05
529.58	35414.65
529.75	35117.40
529.92	35503.59
530.09	35428.69
530.26	35395.92
530.43	35592.53
530.60	35620.61
530.77	35213.36
530.94	35683.81
531.11	35653.38
531.28	35463.80
531.46	35594.87
531.63	35660.40
531.80	35690.83
531.97	35969.35
532.14	36282.98
532.31	35847.64
532.48	36247.88
532.65	35861.69
532.82	36121.49
532.99	36290.01
533.16	36196.38
533.33	36163.62
533.50	36402.35
533.67	36142.55
533.84	36339.16
534.01	36360.22
534.18	36748.75
534.35	36823.65
534.52	36781.52
534.69	36861.10
534.86	36793.22
535.03	36818.97
535.20	37081.11
535.37	37254.31
535.54	37207.50
535.71	37106.85
535.88	37441.55
536.05	37017.91
536.22	37684.97
536.38	37577.30
536.55	37404.10
536.72	37507.08
536.89	37001.53
537.06	37333.89
537.23	37347.93
537.40	37291.76
537.57	37338.57
537.74	37773.91
537.91	37537.51
538.08	37497.72
538.25	37350.27
538.42	37476.66
538.59	38270.10
538.75	37790.29
538.92	38419.89
539.09	37970.51
539.26	38155.41
539.43	38356.70
539.60	38167.12
539.77	38101.58
539.94	38639.90
540.11	38419.89
540.28	37972.85
540.44	38260.74
540.61	38429.26
540.78	38316.91
540.95	38609.48
541.12	38321.59
541.29	38242.01
541.46	38677.35
541.62	38726.50
541.79	38787.36
541.96	38749.91
542.13	38515.86
542.30	38691.40
542.47	38534.58
542.63	38834.17
542.80	38628.20
542.97	39405.26
543.14	39550.37
543.31	39426.32
543.48	39571.44
543.64	39906.13
543.81	39585.48
543.98	39833.58
544.15	39290.57
544.32	39639.31
544.48	39557.39
544.65	40020.82
544.82	40289.98
544.99	39688.46
545.16	39592.50
545.32	39592.50
545.49	39889.75
545.66	40318.07
545.83	40011.46
546.00	40041.88
546.16	40341.47
546.33	39775.06
546.50	39887.41
546.67	39959.97
546.83	39487.18
547.00	39896.77
547.17	40196.36
547.34	40067.63
547.50	40416.37
547.67	40942.99
547.84	40409.35
548.00	40692.55
548.17	40865.75
548.34	40769.79
548.51	41312.80
548.67	40760.43
548.84	40989.80
549.01	40957.03
549.18	41020.23
549.34	41003.85
549.51	41139.60
549.68	41053.00
549.84	40528.72
550.01	41041.29
550.18	41289.39
550.34	40968.74
550.51	40870.43
550.68	40907.88
550.84	40655.11
551.01	41432.16
551.18	41031.93
551.34	41331.52
551.51	41415.78
551.68	41305.77
551.84	41174.70
552.01	41436.84
552.18	41244.92
552.34	41591.32
552.51	41516.42
552.68	41123.21
552.84	41853.46
553.01	41551.53
553.18	41109.17
553.34	41661.54
553.51	41469.61
553.67	41596.00
553.84	41633.45
554.01	41703.67
554.17	41558.55
554.34	41918.99
554.51	41921.34
554.67	41993.89
554.84	42038.36
555.00	41947.08
555.17	41893.25
555.33	42064.11
555.50	42071.13
555.67	42190.50
555.83	42176.45
556.00	42106.24
556.16	42745.20
556.33	42216.24
556.50	41958.78
556.66	42305.18
556.83	41631.11
556.99	42534.56
557.16	42469.02
557.32	42513.49
557.49	42462.00
557.65	42424.55
557.82	42387.10
557.98	42267.73
558.15	42731.16
558.32	42838.83
558.48	42335.61
558.65	42925.42
558.81	42658.60
558.98	42838.83
559.14	42635.20
559.31	42527.53
559.47	42667.97
559.64	42876.27
559.80	42880.95
559.97	42642.22
560.13	42337.95
560.30	42445.62
560.46	43061.18
560.63	42892.66
560.79	43388.85
560.96	43243.74
561.12	43002.66
561.29	43189.91
561.45	42895.00
561.61	42892.66
561.78	43344.38
561.94	43225.01
562.11	42820.10
562.27	42869.25
562.44	42862.23
562.60	43323.32
562.77	43133.73
562.93	43192.25
563.10	43386.51
563.26	43299.91
563.42	43510.56
563.59	43220.33
563.75	43297.57
563.92	43585.46
564.08	43435.66
564.24	43349.06
564.41	43412.26
564.57	43477.79
564.74	43206.29
564.90	43601.84
565.07	43339.70
565.23	43339.70
565.39	43524.60
565.56	43819.51
565.72	43388.85
565.88	43746.95
566.05	43608.86
566.21	43861.64
566.38	43585.46
566.54	43793.76
566.70	43821.85
566.87	43669.72
567.03	43276.51
567.19	43992.71
567.36	43447.36
567.52	43838.23
567.68	43826.53
567.85	44025.48
568.01	43948.24
568.17	43379.49
568.34	43948.24
568.50	44116.76
568.66	43597.16
568.83	43803.13
568.99	43421.62
569.15	43585.46
569.32	43814.83
569.48	43735.25
569.64	44395.28
569.81	44107.40
569.97	44392.94
570.13	43826.53
570.30	43885.04
570.46	44044.20
570.62	44083.99
570.78	43592.48
570.95	43758.66
571.11	44006.75
571.27	43882.70
571.43	44133.14
571.60	43997.39
571.76	43679.08
571.92	43990.37
572.09	43810.15
572.25	44409.32
572.41	43894.41
572.57	43906.11
572.74	44699.55
572.90	44018.46
573.06	44355.49
573.22	44477.20
573.38	44126.12
573.55	44388.26
573.71	44549.76
573.87	44367.20
574.03	44268.89
574.20	44460.82
574.36	44652.74
574.52	44355.49
574.68	44273.57
574.84	44048.88
575.01	44280.60
575.17	43978.67
575.33	44364.85
575.49	44624.65
575.65	44648.06
575.82	44493.58
575.98	43892.07
576.14	44411.67
576.30	44442.09
576.46	44701.89
576.62	44402.30
576.79	44299.32
576.95	43924.83
577.11	44034.84
577.27	44603.59
577.43	44105.06
577.59	44177.61
577.75	43995.05
577.92	44175.27
578.08	44282.94
578.24	44172.93
578.40	44758.06
578.56	44795.51
578.72	44425.71
578.88	44758.06
579.04	44910.20
579.21	44371.88
579.37	44577.84
579.53	44615.29
579.69	44512.31
579.85	43952.92
580.01	44238.47
580.17	44404.64
580.33	44325.07
580.49	44837.64
580.65	44409.32
580.82	44561.46
580.98	44594.23
581.14	44446.77
581.30	44767.43
581.46	44385.92
581.62	44751.04
581.78	44512.31
581.94	44554.44
582.10	44533.37
582.26	44994.46
582.42	44889.13
582.58	44624.65
582.74	44130.80
582.90	44191.65
583.06	44521.67
583.22	44278.25
583.38	44872.75
583.54	44781.47
583.70	44404.64
583.86	44804.88
584.02	44760.40
584.18	44935.95
584.34	44662.10
584.50	45378.31
584.66	44746.36
584.82	44678.49
584.98	45247.24
585.14	44807.22
585.30	43894.41
585.46	45111.49
585.62	44891.48
585.78	44774.45
585.94	44435.07
586.10	44648.06
586.26	44423.37
586.42	44563.80
586.58	44868.07
586.74	44603.59
586.90	44484.22
587.06	44210.38
587.22	44975.73
587.38	44783.81
587.54	44790.83
587.70	44832.96
587.86	45347.88
588.02	44945.31
588.18	44809.56
588.34	44837.64
588.49	45074.04
588.65	44884.45
588.81	44957.01
588.97	44839.98
589.13	44704.23
589.29	44811.90
589.45	44788.49
589.61	44671.46
589.77	45345.54
589.93	45085.74
590.08	44842.32
