SpectraSuite Data File
++++++++++++++++++++++++++++++++++++
Date: Fri Oct 25 10:47:18 EDT 2013
User: price-jones
Dark Spectrum Present: No
Reference Spectrum Present: No
Number of Sampled Component Spectra: 1
Spectrometers: USB2+H05261
Integration Time (usec): 100000 (USB2+H05261)
Spectra Averaged: 1 (USB2+H05261)
Boxcar Smoothing: 0 (USB2+H05261)
Correct for Electrical Dark: No (USB2+H05261)
Strobe/Lamp Enabled: No (USB2+H05261)
Correct for Detector Non-linearity: No (USB2+H05261)
Correct for Stray Light: No (USB2+H05261)
Number of Pixels in Processed Spectrum: 2048
>>>>>Begin Processed Spectral Data<<<<<
365.73	63.19
365.92	63.19
366.12	63.19
366.32	67.88
366.52	44.47
366.72	79.58
366.91	0.00
367.11	81.92
367.31	79.58
367.51	74.90
367.70	0.00
367.90	0.00
368.10	0.00
368.30	102.98
368.49	84.26
368.69	56.17
368.89	110.01
369.09	35.11
369.28	32.77
369.48	77.24
369.68	72.56
369.87	126.39
370.07	140.43
370.27	100.64
370.47	149.79
370.66	372.15
370.86	339.38
371.06	358.10
371.25	430.66
371.45	404.91
371.65	421.30
371.84	372.15
372.04	519.60
372.24	507.90
372.44	435.34
372.63	528.96
372.83	465.77
373.03	442.36
373.22	454.06
373.42	533.64
373.62	486.83
373.81	550.03
374.01	493.85
374.21	510.24
374.40	566.41
374.60	433.00
374.79	580.45
374.99	486.83
375.19	552.37
375.38	629.60
375.58	585.13
375.78	575.77
375.97	559.39
376.17	620.24
376.37	582.79
376.56	631.94
376.76	540.66
376.95	585.13
377.15	671.73
377.35	489.17
377.54	538.32
377.74	603.86
377.93	561.73
378.13	526.62
378.33	627.26
378.52	601.52
378.72	599.18
378.91	613.22
379.11	573.43
379.31	638.97
379.50	615.56
379.70	681.10
379.89	664.71
380.09	578.11
380.28	683.44
380.48	634.29
380.68	641.31
380.87	641.31
381.07	617.90
381.26	669.39
381.46	641.31
381.65	674.07
381.85	610.88
382.04	695.14
382.24	664.71
382.43	592.16
382.63	683.44
382.83	720.88
383.02	636.63
383.22	695.14
383.41	648.33
383.61	730.25
383.80	688.12
384.00	645.99
384.19	681.10
384.39	807.48
384.58	767.70
384.78	746.63
384.97	791.10
385.17	676.41
385.36	716.20
385.56	725.57
385.75	772.38
385.95	788.76
386.14	807.48
386.34	851.96
386.53	669.39
386.72	758.33
386.92	814.51
387.11	779.40
387.31	844.93
387.50	704.50
387.70	741.95
387.89	814.51
388.09	809.83
388.28	805.14
388.48	791.10
388.67	908.13
388.86	744.29
389.06	887.06
389.25	891.74
389.45	903.45
389.64	809.83
389.84	917.49
390.03	877.70
390.22	915.15
390.42	854.30
390.61	844.93
390.81	952.60
391.00	882.38
391.19	912.81
391.39	910.47
391.58	835.57
391.78	999.41
391.97	922.17
392.16	828.55
392.36	894.08
392.55	943.24
392.75	931.53
392.94	933.87
393.13	971.32
393.33	959.62
393.52	964.30
393.71	994.73
393.91	990.05
394.10	990.05
394.29	1032.18
394.49	1029.84
394.68	1057.92
394.88	1050.90
395.07	1125.80
395.26	1050.90
395.46	1050.90
395.65	1067.28
395.84	1142.18
396.04	1156.22
396.23	1088.35
396.42	1081.33
396.62	1090.69
396.81	1116.44
397.00	1088.35
397.19	1083.67
397.39	1088.35
397.58	1238.14
397.77	1214.74
397.97	1149.20
398.16	1160.91
398.35	1212.40
398.55	1242.82
398.74	1280.27
398.93	1242.82
399.12	1221.76
399.32	1409.00
399.51	1233.46
399.70	1287.29
399.90	1320.06
400.09	1362.19
400.28	1362.19
400.47	1256.87
400.67	1310.70
400.86	1411.34
401.05	1336.45
401.24	1355.17
401.44	1472.20
401.63	1399.64
401.82	1441.77
402.01	1486.24
402.21	1441.77
402.40	1406.66
402.59	1516.67
402.78	1420.71
402.97	1465.18
403.17	1519.01
403.36	1441.77
403.55	1469.86
403.74	1523.69
403.93	1579.86
404.13	1554.12
404.32	1659.44
404.51	1490.92
404.70	1624.33
404.89	1577.52
405.09	1753.06
405.28	1631.35
405.47	1652.42
405.66	1685.19
405.85	1652.42
406.05	1647.74
406.24	1673.48
406.43	1736.68
406.62	1664.12
406.81	1891.15
407.00	1750.72
407.20	1717.95
407.39	1666.46
407.58	1881.79
407.77	1834.98
407.96	1720.29
408.15	1799.87
408.34	1893.49
408.54	1916.90
408.73	1846.68
408.92	1898.17
409.11	1944.99
409.30	1975.41
409.49	1874.77
409.68	2012.86
409.87	2019.88
410.07	1930.94
410.26	1928.60
410.45	2015.20
410.64	2090.10
410.83	2160.31
411.02	2232.87
411.21	2092.44
411.40	2134.57
411.59	2132.23
411.78	2155.63
411.98	2160.31
412.17	2275.00
412.36	2200.10
412.55	2258.62
412.74	2249.25
412.93	2300.75
413.12	2242.23
413.31	2434.16
413.50	2427.14
413.69	2462.24
413.88	2441.18
414.07	2410.75
414.26	2413.09
414.45	2499.69
414.64	2485.65
414.83	2628.42
415.02	2429.48
415.22	2560.55
415.41	2588.63
415.60	2490.33
415.79	2663.53
415.98	2654.17
416.17	2775.88
416.36	2768.85
416.55	2703.32
416.74	2771.19
416.93	2698.64
417.12	2843.75
417.31	2850.77
417.50	2750.13
417.69	2738.43
417.88	2874.18
418.07	2993.55
418.26	3059.08
418.45	3117.59
418.64	3117.59
418.83	2960.78
419.02	2958.44
419.21	3073.12
419.39	3150.36
419.58	3173.77
419.77	2979.50
419.96	3155.04
420.15	3070.78
420.34	3241.64
420.53	3169.09
420.72	3276.75
420.91	3178.45
421.10	3222.92
421.29	3222.92
421.48	3255.69
421.67	3351.65
421.86	3248.66
422.05	3372.71
422.24	3145.68
422.43	3309.52
422.61	3251.00
422.80	3269.73
422.99	3456.97
423.18	3452.29
423.37	3391.44
423.56	3426.54
423.75	3342.28
423.94	3314.20
424.13	3246.32
424.32	3148.02
424.50	3445.27
424.69	3452.29
424.88	3475.70
425.07	3262.71
425.26	3232.28
425.45	3255.69
425.64	3297.81
425.83	3459.31
426.01	3501.44
426.20	3426.54
426.39	3442.93
426.58	3435.91
426.77	3480.38
426.96	3344.63
427.15	3529.53
427.33	3454.63
427.52	3438.25
427.71	3674.64
427.90	3548.25
428.09	3545.91
428.28	3583.36
428.46	3571.66
428.65	3639.53
428.84	3735.50
429.03	3583.36
429.22	3588.04
429.40	3620.81
429.59	3686.34
429.78	3588.04
429.97	3471.01
430.16	3555.27
430.34	3611.45
430.53	3571.66
430.72	3599.74
430.91	3840.82
431.10	3712.09
431.28	3932.10
431.47	3908.69
431.66	4004.66
431.85	3798.69
432.03	4044.45
432.22	4025.72
432.41	3918.06
432.60	4084.23
432.79	4084.23
432.97	4065.51
433.16	4107.64
433.35	4074.87
433.54	4128.70
433.72	4021.04
433.91	4142.75
434.10	4124.02
434.28	4102.96
434.47	4056.15
434.66	4297.22
434.85	4248.07
435.03	4327.65
435.22	4131.05
435.41	4531.28
435.59	4245.73
435.78	4465.74
435.97	4493.83
436.16	4273.82
436.34	4376.80
436.53	4329.99
436.72	4507.87
436.90	4259.78
437.09	4545.32
437.28	4372.12
437.46	4311.27
437.65	4514.89
437.84	4564.04
438.02	4566.39
438.21	4451.70
438.40	4482.13
438.58	4713.84
438.77	4627.24
438.96	4760.65
439.14	4786.40
439.33	4823.84
439.52	4755.97
439.70	4711.50
439.89	4889.38
440.08	4777.03
440.26	4933.85
440.45	4980.66
440.63	5060.24
440.82	5181.95
441.01	5011.09
441.19	5132.79
441.38	5303.65
441.57	5310.68
441.75	5200.67
441.94	5268.55
442.12	5322.38
442.31	5296.63
442.50	5350.46
442.68	5404.30
442.87	5453.45
443.05	5420.68
443.24	5589.20
443.43	5437.06
443.61	5476.85
443.80	5774.10
443.98	5540.05
444.17	5240.46
444.35	5476.85
444.54	5500.26
444.73	5495.58
444.91	5685.16
445.10	5614.95
445.28	5628.99
445.47	5495.58
445.65	5577.50
445.84	5617.29
446.02	5563.45
446.21	5647.71
446.39	5720.27
446.58	5661.76
446.77	5504.94
446.95	5472.17
447.14	5872.40
447.32	5743.67
447.51	5607.92
447.69	5701.54
447.88	5736.65
448.06	5813.89
448.25	5757.72
448.43	5731.97
448.62	5551.75
448.80	5659.42
448.99	5729.63
449.17	5891.13
449.36	5891.13
449.54	5926.24
449.73	5909.85
449.91	6155.61
450.10	6047.94
450.28	6214.12
450.46	6029.22
450.65	6033.90
450.83	6155.61
451.02	6218.80
451.20	6118.16
451.39	6104.12
451.57	6071.35
451.76	6148.59
451.94	6146.25
452.13	6094.76
452.31	6235.19
452.49	6167.31
452.68	6083.05
452.86	6207.10
453.05	6244.55
453.23	6300.72
453.42	6267.95
453.60	6153.27
453.78	6326.47
453.97	6174.33
454.15	6258.59
454.34	6389.66
454.52	6544.14
454.70	6457.54
454.89	6569.88
455.07	6546.48
455.26	6609.67
455.44	6595.63
455.62	6628.40
455.81	6527.75
455.99	6796.92
456.17	6813.30
456.36	6677.55
456.54	6848.41
456.73	6752.45
456.91	6939.69
457.09	7087.14
457.28	7009.90
457.46	6841.39
457.64	7082.46
457.83	7033.31
458.01	6998.20
458.19	7133.95
458.38	7009.90
458.56	7148.00
458.74	7019.27
458.93	7096.50
459.11	7185.44
459.29	7192.47
459.48	7131.61
459.66	7028.63
459.84	7180.76
460.03	7398.43
460.21	7400.77
460.39	7236.94
460.57	7368.01
460.76	7314.17
460.94	7440.56
461.12	7370.35
461.31	7482.69
461.49	7363.33
461.67	7311.83
461.85	7721.43
462.04	7508.44
462.22	7990.59
462.40	7735.47
462.59	7667.60
462.77	7646.53
462.95	7700.36
463.13	7775.26
463.32	7880.58
463.50	7932.08
463.68	7803.35
463.86	7606.74
464.05	7730.79
464.23	7793.98
464.41	8126.34
464.59	7662.91
464.78	7896.97
464.96	7810.37
465.14	7896.97
465.32	7992.93
465.50	8013.99
465.69	7948.46
465.87	7990.59
466.05	8121.66
466.23	7875.90
466.41	8194.22
466.60	8173.15
466.78	8060.80
466.96	8124.00
467.14	8138.04
467.32	8112.30
467.51	7983.57
467.69	7992.93
467.87	8077.19
468.05	8351.03
468.23	8086.55
468.41	8175.49
468.60	8201.24
468.78	8166.13
468.96	8360.39
469.14	8442.31
469.32	8521.89
469.50	8318.26
469.69	8545.30
469.87	8578.06
470.05	8444.65
470.23	8795.73
470.41	8608.49
470.59	8606.15
470.77	8716.16
470.95	8699.77
471.14	8872.97
471.32	8568.70
471.50	8870.63
471.68	9097.66
471.86	8987.66
472.04	9067.24
472.22	9085.96
472.40	8929.14
472.58	9083.62
472.77	9116.39
472.95	9221.71
473.13	9327.03
473.31	9298.95
473.49	9231.07
473.67	9231.07
473.85	9256.82
474.03	9626.62
474.21	9479.17
474.39	9783.44
474.57	9731.95
474.75	9682.80
474.93	9743.65
475.12	9673.43
475.30	9757.69
475.48	9774.08
475.66	9921.53
475.84	9781.10
476.02	9891.10
476.20	9947.28
476.38	10160.27
476.56	10487.94
476.74	10204.74
476.92	10228.14
477.10	10139.20
477.28	10434.11
477.46	10586.24
477.64	10377.94
477.82	10628.37
478.00	10927.96
478.18	10984.13
478.36	10906.90
478.54	11087.12
478.72	10991.16
478.90	11414.79
479.08	11407.77
479.26	11763.53
479.44	11339.90
479.62	11602.04
479.80	11557.57
479.98	11604.38
480.16	11690.98
480.34	12006.95
480.52	11967.16
480.70	12182.49
480.88	11999.93
481.06	12168.45
481.24	12360.37
481.41	12269.09
481.59	12489.10
481.77	12617.83
481.95	12599.10
482.13	12826.14
482.31	12650.60
482.49	12891.67
482.67	12776.98
482.85	12994.65
483.03	13373.82
483.21	13387.86
483.39	13781.07
483.57	13584.47
483.74	13729.58
483.92	13642.98
484.10	13666.39
484.28	14249.18
484.46	14214.07
484.64	14530.05
484.82	14253.86
485.00	14246.84
485.18	14345.14
485.35	14855.38
485.53	14389.61
485.71	14675.16
485.89	14799.21
486.07	14731.33
486.25	14930.28
486.43	15166.67
486.61	15152.63
486.78	15477.96
486.96	15150.29
487.14	15704.99
487.32	15648.82
487.50	15939.05
487.68	15981.18
487.85	16280.77
488.03	16334.60
488.21	16556.95
488.39	16451.63
488.57	16746.53
488.75	16566.31
488.92	16882.28
489.10	17179.53
489.28	17050.80
489.46	17062.51
489.64	17298.90
489.81	17612.53
489.99	17818.50
490.17	17869.99
490.35	18097.02
490.53	17804.46
490.70	18108.72
490.88	18291.29
491.06	18457.46
491.24	18326.39
491.41	18455.12
491.59	18579.17
491.77	18436.40
491.95	18953.66
492.13	19108.13
492.30	19117.50
492.48	18853.02
492.66	19063.66
492.84	19187.71
493.01	19761.14
493.19	19412.40
493.37	19946.05
493.54	19653.48
493.72	19824.34
493.90	20119.24
494.08	20327.55
494.25	20395.43
494.43	20430.54
494.61	20734.81
494.79	20856.51
494.96	20573.31
495.14	20496.07
495.32	21200.57
495.49	21027.37
495.67	20856.51
495.85	21085.89
496.02	21504.84
496.20	21977.63
496.38	21795.07
496.55	21680.38
496.73	22284.24
496.91	22064.23
497.09	21886.35
497.26	22394.25
497.44	22300.62
497.62	22401.27
497.79	22902.14
497.97	22530.00
498.14	22955.97
498.32	22813.20
498.50	23002.78
498.67	23316.42
498.85	23321.10
499.03	23044.91
499.20	23328.12
499.38	23166.62
499.56	23433.44
499.73	23627.71
499.91	23571.54
500.08	24173.05
500.26	23587.92
500.44	23779.84
500.61	23948.36
500.79	24016.24
500.97	24332.21
501.14	24465.62
501.32	24259.65
501.49	24226.89
501.67	24512.43
501.84	24622.44
502.02	24690.31
502.20	24826.06
502.37	24774.57
502.55	25062.46
502.72	25399.49
502.90	25067.14
503.07	25085.86
503.25	25223.95
503.43	25212.25
503.60	25542.27
503.78	25427.58
503.95	25139.69
504.13	25277.79
504.30	25757.60
504.48	25757.60
504.65	25802.07
504.83	26361.45
505.01	26143.78
505.18	26085.27
505.36	26132.08
505.53	26445.71
505.71	26471.46
505.88	26611.89
506.06	26490.18
506.23	26403.58
506.41	26340.39
506.58	26562.74
506.76	27070.64
506.93	26878.71
507.11	26892.76
507.28	26738.28
507.46	27042.55
507.63	27271.92
507.81	27351.50
507.98	27637.05
508.16	27316.39
508.33	27384.27
508.50	27754.07
508.68	27285.97
508.85	28304.10
509.03	27988.13
509.20	28163.67
509.38	28346.23
509.55	28517.09
509.73	28379.00
509.90	28313.46
510.08	28091.11
510.25	28273.67
510.42	28481.98
510.60	28718.37
510.77	29008.60
510.95	28680.92
511.12	28725.39
511.30	28872.85
511.47	29172.44
511.64	29071.79
511.82	29490.75
511.99	29249.67
512.17	29315.21
512.34	29064.77
512.51	29137.33
512.69	29539.90
512.86	29631.18
513.04	29443.94
513.21	29893.32
513.38	30033.75
513.56	29773.95
513.73	29703.74
513.90	29806.72
514.08	29979.92
514.25	30176.53
514.43	30129.72
514.60	29881.62
514.77	30103.97
514.95	30206.95
515.12	30499.52
515.29	30321.64
515.47	30548.67
515.64	30773.36
515.81	30813.15
515.99	30424.62
516.16	30518.25
516.33	31063.59
516.51	31220.41
516.68	30401.22
516.85	30976.99
517.03	31133.81
517.20	31124.44
517.37	31388.92
517.54	31014.44
517.72	31035.50
517.89	31264.88
518.06	31131.47
518.24	31569.15
518.41	31173.60
518.58	32046.62
518.75	31653.40
518.93	32149.60
519.10	31845.33
519.27	32144.92
519.45	31967.04
519.62	32364.93
519.79	31632.34
519.96	32449.19
520.14	32596.64
520.31	32552.17
520.48	32451.53
520.65	32299.39
520.83	32884.53
521.00	32292.37
521.17	32826.01
521.34	32723.03
521.52	33310.50
521.69	32725.37
521.86	33411.15
522.03	33160.71
522.20	32741.75
522.38	33268.37
522.55	33085.81
522.72	33308.16
522.89	33343.27
523.07	33872.23
523.24	33326.89
523.41	33893.30
523.58	33172.41
523.75	34202.25
523.92	34176.50
524.10	34263.10
524.27	34305.23
524.44	33956.49
524.61	33731.80
524.78	34712.49
524.96	34604.82
525.13	34396.51
525.30	34300.55
525.47	34799.08
525.64	34506.52
525.81	34471.41
525.98	35044.84
526.16	34595.46
526.33	34836.53
526.50	34955.90
526.67	34792.06
526.84	34895.05
527.01	34888.03
527.18	34609.50
527.36	34967.60
527.53	34665.67
527.70	35477.84
527.87	35040.16
528.04	35182.93
528.21	35470.82
528.38	35665.08
528.55	35515.29
528.72	35585.50
528.89	35299.96
529.07	35665.08
529.24	35428.69
529.41	35531.67
529.58	35515.29
529.75	35669.76
529.92	35524.65
530.09	35981.06
530.26	35995.10
530.43	35974.03
530.60	35615.93
530.77	36053.61
530.94	36065.31
531.11	35798.49
531.28	36100.42
531.46	36224.47
531.63	36687.90
531.80	36367.24
531.97	36247.88
532.14	36416.40
532.31	36400.01
532.48	36788.54
532.65	36577.89
532.82	36409.37
532.99	36643.43
533.16	36657.47
533.33	37261.33
533.50	36844.71
533.67	37067.06
533.84	36926.63
534.01	36772.16
534.18	37006.21
534.35	37317.50
534.52	37076.43
534.69	37345.59
534.86	37258.99
535.03	37167.71
535.20	37347.93
535.37	37291.76
535.54	37766.88
535.71	37483.68
535.88	37394.74
536.05	37345.59
536.22	37553.90
536.38	37762.20
536.55	37773.91
536.72	37598.37
536.89	37361.97
537.06	37844.12
537.23	37780.93
537.40	38047.75
537.57	37968.17
537.74	37736.46
537.91	37820.72
538.08	38136.69
538.25	38398.83
538.42	38031.36
538.59	38637.56
538.75	38167.12
538.92	38337.98
539.09	38335.63
539.26	38410.53
539.43	38141.37
539.60	38272.44
539.77	38466.70
539.94	38539.26
540.11	38670.33
540.28	38597.77
540.44	38946.51
540.61	38684.37
540.78	38555.64
540.95	38426.92
541.12	38967.58
541.29	38497.13
541.46	38768.63
541.62	38923.11
541.79	39180.57
541.96	38412.87
542.13	38749.91
542.30	39255.46
542.47	38792.04
542.63	39196.95
542.80	39089.29
542.97	39728.25
543.14	39419.30
543.31	39695.49
543.48	39304.62
543.64	40240.83
543.81	39864.00
543.98	39557.39
544.15	39421.64
544.32	39997.41
544.48	40215.08
544.65	40144.87
544.82	39721.23
544.99	39945.92
545.16	40100.40
545.32	39576.12
545.49	40350.84
545.66	40655.11
545.83	40353.18
546.00	40123.80
546.16	39952.94
546.33	39789.11
546.50	39739.96
546.67	40243.17
546.83	39988.05
547.00	40301.68
547.17	40243.17
547.34	40435.10
547.50	40168.27
547.67	40594.25
547.84	40561.48
548.00	40638.72
548.17	40842.35
548.34	40666.81
548.51	40800.22
548.67	40643.40
548.84	40905.54
549.01	40917.25
549.18	40795.54
549.34	41071.72
549.51	41530.47
549.68	41036.61
549.84	41202.79
550.01	41165.34
550.18	41118.53
550.34	40957.03
550.51	40921.93
550.68	40837.67
550.84	40877.46
551.01	41511.74
551.18	41289.39
551.34	41090.44
551.51	41158.32
551.68	41186.41
551.84	41287.05
552.01	41277.69
552.18	41478.97
552.34	41242.58
552.51	41628.77
552.68	41420.46
552.84	41317.48
553.01	41902.61
553.18	41558.55
553.34	41635.79
553.51	41500.04
553.67	41553.87
553.84	42014.96
554.01	42204.54
554.17	41986.87
554.34	41694.30
554.51	41881.55
554.67	42150.71
554.84	41832.39
555.00	41928.36
555.17	41785.58
555.33	42075.81
555.50	41982.19
555.67	41727.07
555.83	42127.30
556.00	41975.17
556.16	42211.56
556.33	42260.71
556.50	41661.54
556.66	42373.06
556.83	42080.49
556.99	42274.76
557.16	42536.90
557.32	42426.89
557.49	42445.62
557.65	41862.82
557.82	42239.65
557.98	42272.42
558.15	42522.85
558.32	42679.67
558.48	42590.73
558.65	42667.97
558.81	42415.19
558.98	42934.79
559.14	42628.18
559.31	42623.50
559.47	42813.08
559.64	42784.99
559.80	42794.36
559.97	42623.50
560.13	42543.92
560.30	42288.80
560.46	42988.62
560.63	42651.58
560.79	42761.59
560.96	42955.85
561.12	43075.22
561.29	42738.18
561.45	43091.60
561.61	42789.67
561.78	42476.04
561.94	42728.82
562.11	42588.39
562.27	42679.67
562.44	42490.09
562.60	42911.38
562.77	42953.51
562.93	43260.12
563.10	43201.61
563.26	43093.94
563.42	42852.87
563.59	42911.38
563.75	42845.85
563.92	43283.53
564.08	42932.45
564.24	43253.10
564.41	42897.34
564.57	43323.32
564.74	43262.46
564.90	43133.73
565.07	43494.18
565.23	43075.22
565.39	43187.56
565.56	43154.80
565.72	43196.93
565.88	43835.89
566.05	43349.06
566.21	43096.28
566.38	43056.50
566.54	43203.95
566.70	43014.37
566.87	43655.67
567.03	43232.04
567.19	43831.21
567.36	43325.66
567.52	42927.77
567.68	43494.18
567.85	43173.52
568.01	43412.26
568.17	43751.63
568.34	43475.45
568.50	43196.93
568.66	43459.07
568.83	44079.31
568.99	43393.53
569.15	43346.72
569.32	43320.98
569.48	43267.14
569.64	43753.97
569.81	43863.98
569.97	43412.26
570.13	43580.78
570.30	43583.12
570.46	43227.35
570.62	42808.40
570.78	43381.83
570.95	43255.44
571.11	43529.28
571.27	43316.29
571.43	43445.02
571.60	43543.33
571.76	43669.72
571.92	43667.37
572.09	43215.65
572.25	43807.81
572.41	43714.19
572.57	43789.08
572.74	44390.60
572.90	43482.47
573.06	43463.75
573.22	43601.84
573.38	43908.45
573.55	43648.65
573.71	43765.68
573.87	43416.94
574.03	43105.65
574.20	43323.32
574.36	43838.23
574.52	43973.98
574.68	43910.79
574.84	44006.75
575.01	44055.90
575.17	43807.81
575.33	43533.96
575.49	43580.78
575.65	44006.75
575.82	44301.66
575.98	43997.39
576.14	44376.56
576.30	44023.14
576.46	44266.55
576.62	43693.12
576.79	43758.66
576.95	43189.91
577.11	43505.88
577.27	44151.87
577.43	43814.83
577.59	43887.39
577.75	43997.39
577.92	43098.62
578.08	43365.45
578.24	43821.85
578.40	43468.43
578.56	43929.51
578.72	44002.07
578.88	44107.40
579.04	43917.81
579.21	43709.50
579.37	44039.52
579.53	43601.84
579.69	43845.26
579.85	43365.45
580.01	43714.19
580.17	43695.46
580.33	44067.61
580.49	44179.95
580.65	44046.54
580.82	43922.49
580.98	43580.78
581.14	43372.47
581.30	44123.78
581.46	43730.57
581.62	43892.07
581.78	44217.40
581.94	44273.57
582.10	44114.42
582.26	44304.00
582.42	43976.33
582.58	43952.92
582.74	44067.61
582.90	43959.94
583.06	44219.74
583.22	44191.65
583.38	44432.73
583.54	43723.55
583.70	44032.50
583.86	43655.67
584.02	43739.93
584.18	43786.74
584.34	44226.76
584.50	44016.11
584.66	43976.33
584.82	43833.55
584.98	44275.91
585.14	43995.05
585.30	43922.49
585.46	44327.41
585.62	43704.82
585.78	43732.91
585.94	43393.53
586.10	44208.04
586.26	44039.52
586.42	43903.77
586.58	44289.96
586.74	44437.41
586.90	43952.92
587.06	44182.29
587.22	44470.18
587.38	43892.07
587.54	44264.21
587.70	44072.29
587.86	44273.57
588.02	43842.92
588.18	43924.83
588.34	44081.65
588.49	44151.87
588.65	43487.15
588.81	43803.13
588.97	44107.40
589.13	43924.83
589.29	43945.90
589.45	44156.55
589.61	44165.91
589.77	44247.83
589.93	44203.36
590.08	44755.72
590.24	44701.89
590.40	44507.63
