SpectraSuite Data File
++++++++++++++++++++++++++++++++++++
Date: Fri Oct 25 11:25:40 EDT 2013
User: price-jones
Dark Spectrum Present: No
Reference Spectrum Present: No
Number of Sampled Component Spectra: 1
Spectrometers: USB2+H05261
Integration Time (usec): 100000 (USB2+H05261)
Spectra Averaged: 1 (USB2+H05261)
Boxcar Smoothing: 0 (USB2+H05261)
Correct for Electrical Dark: No (USB2+H05261)
Strobe/Lamp Enabled: No (USB2+H05261)
Correct for Detector Non-linearity: No (USB2+H05261)
Correct for Stray Light: No (USB2+H05261)
Number of Pixels in Processed Spectrum: 2048
>>>>>Begin Processed Spectral Data<<<<<
365.73	252.78
365.92	252.78
366.12	252.78
366.32	208.31
366.52	147.45
366.72	187.24
366.91	133.41
367.11	107.66
367.31	107.66
367.51	203.63
367.70	156.82
367.90	131.07
368.10	121.71
368.30	138.09
368.49	91.28
368.69	201.29
368.89	119.37
369.09	234.05
369.28	191.92
369.48	159.16
369.68	168.52
369.87	210.65
370.07	112.35
370.27	175.54
370.47	308.95
370.66	550.03
370.86	702.16
371.06	620.24
371.25	648.33
371.45	645.99
371.65	692.80
371.84	716.20
372.04	615.56
372.24	760.67
372.44	744.29
372.63	812.17
372.83	678.76
373.03	713.86
373.22	767.70
373.42	767.70
373.62	683.44
373.81	809.83
374.01	765.36
374.21	793.44
374.40	870.68
374.60	858.98
374.79	828.55
374.99	903.45
375.19	830.89
375.38	875.36
375.58	784.08
375.78	826.21
375.97	786.42
376.17	875.36
376.37	905.79
376.56	933.87
376.76	833.23
376.95	882.38
377.15	863.66
377.35	929.19
377.54	940.90
377.74	875.36
377.93	828.55
378.13	884.72
378.33	908.13
378.52	858.98
378.72	978.34
378.91	905.79
379.11	931.53
379.31	1020.47
379.50	1015.79
379.70	959.62
379.89	983.02
380.09	968.98
380.28	959.62
380.48	1029.84
380.68	947.92
380.87	947.92
381.07	957.28
381.26	1039.20
381.46	1086.01
381.65	1064.94
381.85	1022.81
382.04	1048.56
382.24	1069.62
382.43	980.68
382.63	1015.79
382.83	1032.18
383.02	1128.14
383.22	1055.58
383.41	1011.11
383.61	1041.54
383.80	1083.67
384.00	1102.39
384.19	1125.80
384.39	1130.48
384.58	1163.25
384.78	1130.48
384.97	1137.50
385.17	1097.71
385.36	1109.41
385.56	1174.95
385.75	1184.31
385.95	1184.31
386.14	1177.29
386.34	1224.10
386.53	1114.10
386.72	1184.31
386.92	1299.00
387.11	1235.80
387.31	1203.04
387.50	1280.27
387.70	1284.95
387.89	1174.95
388.09	1139.84
388.28	1284.95
388.48	1259.21
388.67	1327.08
388.86	1266.23
389.06	1401.98
389.25	1315.38
389.45	1345.81
389.64	1359.85
389.84	1331.76
390.03	1373.89
390.22	1385.60
390.42	1327.08
390.61	1404.32
390.81	1350.49
391.00	1446.45
391.19	1455.81
391.39	1481.56
391.58	1390.28
391.78	1409.00
391.97	1439.43
392.16	1420.71
392.36	1561.14
392.55	1455.81
392.75	1500.28
392.94	1437.09
393.13	1586.88
393.33	1507.30
393.52	1614.97
393.71	1563.48
393.91	1638.38
394.10	1582.20
394.29	1514.33
394.49	1603.27
394.68	1617.31
394.88	1579.86
395.07	1643.06
395.26	1715.61
395.46	1647.74
395.65	1703.91
395.84	1699.23
396.04	1701.57
396.23	1671.14
396.42	1710.93
396.62	1809.23
396.81	1739.02
397.00	1687.53
397.19	1703.91
397.39	1657.10
397.58	1856.04
397.77	1907.54
397.97	1771.79
398.16	1813.92
398.35	1994.14
398.55	1830.30
398.74	1923.92
398.93	1937.96
399.12	1839.66
399.32	1844.34
399.51	1916.90
399.70	1998.82
399.90	1977.75
400.09	1909.88
400.28	1902.86
400.47	2012.86
400.67	2083.08
400.86	2040.95
401.05	2029.24
401.24	2083.08
401.44	2150.95
401.63	2111.16
401.82	2090.10
402.01	2230.53
402.21	2122.87
402.40	2181.38
402.59	2059.67
402.78	2235.21
402.97	2228.19
403.17	2111.16
403.36	2258.62
403.55	2249.25
403.74	2305.43
403.93	2356.92
404.13	2403.73
404.32	2331.17
404.51	2366.28
404.70	2324.15
404.89	2408.41
405.09	2377.98
405.28	2434.16
405.47	2408.41
405.66	2525.44
405.85	2539.48
406.05	2476.29
406.24	2445.86
406.43	2637.78
406.62	2644.81
406.81	2614.38
407.00	2581.61
407.20	2448.20
407.39	2717.36
407.58	2616.72
407.77	2675.23
407.96	2738.43
408.15	2780.56
408.34	2853.11
408.54	2736.09
408.73	2789.92
408.92	2759.49
409.11	2801.62
409.30	2822.69
409.49	2810.98
409.68	2895.24
409.87	2956.10
410.07	2937.37
410.26	3033.33
410.45	2963.12
410.64	3016.95
410.83	3096.53
411.02	3138.66
411.21	3136.32
411.40	3042.70
411.59	3068.44
411.78	3267.39
411.98	3227.60
412.17	3222.92
412.36	3323.56
412.55	3346.97
412.74	3471.01
412.93	3459.31
413.12	3309.52
413.31	3431.23
413.50	3414.84
413.69	3391.44
413.88	3503.78
414.07	3508.46
414.26	3590.38
414.45	3618.47
414.64	3473.36
414.83	3726.13
415.02	3691.02
415.22	3852.52
415.41	3824.44
415.60	3824.44
415.79	3803.37
415.98	3829.12
416.17	3934.44
416.36	3896.99
416.55	3920.40
416.74	4105.30
416.93	4039.76
417.12	4039.76
417.31	4065.51
417.50	4053.81
417.69	4149.77
417.88	4262.12
418.07	4196.58
418.26	4236.37
418.45	4318.29
418.64	4299.56
418.83	4344.03
419.02	4353.40
419.21	4428.29
419.39	4358.08
419.58	4416.59
419.77	4404.89
419.96	4444.68
420.15	4571.07
420.34	4596.81
420.53	4643.62
420.72	4681.07
420.91	4784.06
421.10	4650.64
421.29	4702.14
421.48	4671.71
421.67	4676.39
421.86	4660.01
422.05	4828.53
422.24	4760.65
422.43	4875.34
422.61	4788.74
422.80	4992.36
422.99	4774.69
423.18	4929.17
423.37	4947.89
423.56	4849.59
423.75	4823.84
423.94	4770.01
424.13	4465.74
424.32	4671.71
424.50	4877.68
424.69	5020.45
424.88	4966.62
425.07	4891.72
425.26	4844.91
425.45	4863.63
425.64	4908.10
425.83	5097.69
426.01	5107.05
426.20	4933.85
426.39	4997.04
426.58	5088.32
426.77	4896.40
426.96	5013.43
427.15	5078.96
427.33	5146.84
427.52	5167.90
427.71	5270.89
427.90	5289.61
428.09	5287.27
428.28	5280.25
428.46	5345.78
428.65	5137.48
428.84	5385.57
429.03	5518.98
429.22	5270.89
429.40	5392.59
429.59	5373.87
429.78	5186.63
429.97	5193.65
430.16	5420.68
430.34	5439.40
430.53	5556.43
430.72	5558.77
430.91	5448.77
431.10	5411.32
431.28	5809.21
431.47	5612.60
431.66	5837.30
431.85	5699.20
432.03	5741.33
432.22	5991.77
432.41	5919.21
432.60	5877.09
432.79	5860.70
432.97	5884.11
433.16	6031.56
433.35	6118.16
433.54	5947.30
433.72	5853.68
433.91	5832.62
434.10	6010.50
434.28	6050.28
434.47	6307.74
434.66	6335.83
434.85	6209.44
435.03	6286.68
435.22	6181.35
435.41	6413.07
435.59	6333.49
435.78	6448.18
435.97	6483.28
436.16	6375.62
436.34	6530.09
436.53	6471.58
436.72	6513.71
436.90	6455.20
437.09	6656.48
437.28	6466.90
437.46	6574.56
437.65	6588.61
437.84	6754.79
438.02	6609.67
438.21	6782.87
438.40	6546.48
438.58	6848.41
438.77	6902.24
438.96	6897.56
439.14	7119.91
439.33	7157.36
439.52	7353.96
439.70	7267.36
439.89	7419.50
440.08	7258.00
440.26	7101.19
440.45	7246.30
440.63	7393.75
440.82	7559.93
441.01	7435.88
441.19	7328.22
441.38	7538.87
441.57	7548.23
441.75	7573.97
441.94	7768.24
442.12	7850.16
442.31	7978.89
442.50	8102.93
442.68	7964.84
442.87	7861.86
443.05	8079.53
443.24	8154.43
443.43	8109.96
443.61	8126.34
443.80	8386.14
443.98	7992.93
444.17	7899.31
444.35	8264.43
444.54	8435.29
444.73	8156.77
444.91	8173.15
445.10	8219.96
445.28	8203.58
445.47	8004.63
445.65	8210.60
445.84	8351.03
446.02	8327.63
446.21	8526.57
446.39	8386.14
446.58	8601.47
446.77	8428.27
446.95	8297.20
447.14	8402.52
447.32	8561.68
447.51	8519.55
447.69	8432.95
447.88	8376.78
448.06	8449.33
448.25	8407.20
448.43	8404.86
448.62	8608.49
448.80	8500.83
448.99	8505.51
449.17	8571.04
449.36	8650.62
449.54	8823.82
449.73	8718.50
449.91	8908.08
450.10	8744.24
450.28	8809.78
450.46	8933.82
450.65	8929.14
450.83	9036.81
451.02	8887.01
451.20	9114.05
451.39	9022.77
451.57	8919.78
451.76	8917.44
451.94	9085.96
452.13	9092.98
452.31	9156.18
452.49	9125.75
452.68	9121.07
452.86	9408.95
453.05	9432.36
453.23	9521.30
453.42	9193.62
453.60	9371.50
453.78	9472.15
453.97	9233.41
454.15	9341.08
454.34	9376.19
454.52	9799.82
454.70	9441.72
454.89	9811.53
455.07	9645.35
455.26	9785.78
455.44	9802.16
455.62	9736.63
455.81	9884.08
455.99	9961.32
456.17	9933.23
456.36	10022.17
456.54	10167.29
456.73	10050.26
456.91	10193.03
457.09	10459.85
457.28	10633.05
457.46	10118.14
457.64	10462.19
457.83	10562.84
458.01	10384.96
458.19	10597.95
458.38	10347.51
458.56	10590.92
458.74	10534.75
458.93	10621.35
459.11	10780.51
459.29	10626.03
459.48	10590.92
459.66	10771.15
459.84	10778.17
460.03	10963.07
460.21	10927.96
460.39	10822.64
460.57	10972.43
460.76	10984.13
460.94	11124.57
461.12	11140.95
461.31	11227.55
461.49	11082.44
461.67	11152.65
461.85	11344.58
462.04	11176.06
462.22	11775.24
462.40	11407.77
462.59	11485.01
462.77	11414.79
462.95	11580.97
463.13	11557.57
463.32	11534.16
463.50	11796.30
463.68	11648.85
463.86	11805.66
464.05	11517.78
464.23	11641.82
464.41	11793.96
464.59	11456.92
464.78	12009.29
464.96	11810.34
465.14	11700.34
465.32	11995.25
465.50	12070.14
465.69	12093.55
465.87	11929.71
466.05	11885.24
466.23	12028.01
466.41	12032.69
466.60	12397.82
466.78	12018.65
466.96	12226.96
467.14	12212.92
467.32	12238.66
467.51	12379.09
467.69	12065.46
467.87	12311.22
468.05	12458.67
468.23	12278.45
468.41	12102.91
468.60	12423.56
468.78	12589.74
468.96	12692.73
469.14	12826.14
469.32	13004.02
469.50	12545.27
469.69	12919.76
469.87	12877.63
470.05	12872.95
470.23	13034.44
470.41	13029.76
470.59	13195.94
470.77	13242.75
470.95	13448.72
471.14	13687.45
471.32	12978.27
471.50	13540.00
471.68	13397.23
471.86	13724.90
472.04	13638.30
472.22	13750.65
472.40	13940.23
472.58	13650.00
472.77	13757.67
472.95	13818.52
473.13	14270.25
473.31	13954.27
473.49	13989.38
473.67	14129.81
473.85	14265.57
474.03	14635.37
474.21	14672.82
474.39	14768.78
474.57	14525.36
474.75	14925.60
474.93	14860.06
475.12	14436.42
475.30	14869.42
475.48	14871.76
475.66	14986.45
475.84	15112.84
476.02	15068.37
476.20	15274.34
476.38	15286.04
476.56	16084.16
476.74	15653.50
476.92	15730.74
477.10	15857.13
477.28	15665.21
477.46	16035.01
477.64	16463.33
477.82	16311.19
478.00	16505.46
478.18	16343.96
478.36	16699.72
478.54	16830.79
478.72	16795.68
478.90	17289.54
479.08	17287.20
479.26	17518.91
479.44	17628.92
479.62	17703.81
479.80	17652.32
479.98	17708.49
480.16	18450.44
480.34	18125.11
480.52	18469.17
480.70	18579.17
480.88	18401.29
481.06	18684.50
481.24	18764.07
481.41	18841.31
481.59	18824.93
481.77	19606.67
481.95	19562.20
482.13	19576.24
482.31	19611.35
482.49	19903.92
482.67	19786.89
482.85	20025.62
483.03	20182.44
483.21	20622.46
483.39	20449.26
483.57	20439.90
483.74	20952.48
483.92	20879.92
484.10	20889.28
484.28	21326.96
484.46	21689.74
484.64	22001.04
484.82	21804.43
485.00	22328.71
485.18	22380.20
485.35	22750.01
485.53	22785.12
485.71	22876.40
485.89	23625.37
486.07	23021.51
486.25	23143.22
486.43	23445.15
486.61	23480.25
486.78	23871.12
486.96	23880.49
487.14	23995.17
487.32	24355.61
487.50	24725.42
487.68	24699.67
487.85	24868.19
488.03	25235.66
488.21	25610.14
488.39	25776.32
488.57	25750.57
488.75	26003.35
488.92	25965.90
489.10	26181.23
489.28	26576.78
489.46	26967.65
489.64	26857.65
489.81	27576.19
489.99	27627.68
490.17	27613.64
490.35	27735.35
490.53	28048.98
490.70	27810.25
490.88	27974.08
491.06	28720.71
491.24	28540.49
491.41	28615.39
491.59	28704.33
491.77	28945.41
491.95	29579.69
492.13	29722.46
492.30	29500.11
492.48	29546.92
492.66	30073.54
492.84	30197.59
493.01	30291.21
493.19	30415.26
493.37	31096.36
493.54	31288.28
493.72	30995.71
493.90	31189.98
494.08	31452.12
494.25	31475.52
494.43	31622.98
494.61	32142.58
494.79	32259.60
494.96	31929.59
495.14	32606.00
495.32	32741.75
495.49	32528.77
495.67	32957.08
495.85	33394.76
496.02	33378.38
496.20	33518.81
496.38	33570.30
496.55	33848.83
496.73	34752.27
496.91	34061.82
497.09	33839.47
497.26	34581.42
497.44	34539.29
497.62	34962.92
497.79	35651.04
497.97	35049.52
498.14	35688.49
498.32	35749.34
498.50	35913.18
498.67	36037.23
498.85	36032.55
499.03	36313.41
499.20	36369.58
499.38	36746.41
499.56	36830.67
499.73	36591.94
499.91	37024.93
500.08	37439.21
500.26	36783.86
500.44	37420.48
500.61	37132.60
500.79	37860.51
500.97	37640.50
501.14	38026.68
501.32	38052.43
501.49	38237.33
501.67	38796.72
501.84	38911.41
502.02	38071.15
502.20	38953.54
502.37	38752.25
502.55	38930.13
502.72	39068.22
502.90	39206.31
503.07	39428.66
503.25	39487.18
503.43	39264.83
503.60	39423.98
503.78	39896.77
503.95	39529.31
504.13	40079.33
504.30	40217.43
504.48	40060.61
504.65	40528.72
504.83	40884.48
505.01	40617.66
505.18	40659.79
505.36	41450.89
505.53	40552.12
505.71	41141.94
505.88	41336.20
506.06	41127.89
506.23	41474.29
506.41	41734.09
506.58	41717.71
506.76	41888.57
506.93	42181.13
507.11	42487.74
507.28	42628.18
507.46	42337.95
507.63	42522.85
507.81	42721.80
507.98	42452.64
508.16	42607.11
508.33	42932.45
508.50	43524.60
508.68	43365.45
508.85	43849.94
509.03	43730.57
509.20	43538.65
509.38	43761.00
509.55	44142.50
509.73	44006.75
509.90	43964.62
510.08	44222.08
510.25	44168.25
510.42	44666.78
510.60	44989.78
510.77	44807.22
510.95	44753.38
511.12	44753.38
511.30	44832.96
511.47	45216.81
511.64	45172.34
511.82	45425.12
511.99	45137.23
512.17	45565.55
512.34	45425.12
512.51	46106.21
512.69	46300.48
512.86	45874.50
513.04	46529.85
513.21	46368.35
513.38	46555.60
513.56	46239.62
513.73	46454.95
513.90	46693.69
514.08	46768.58
514.25	46934.76
514.43	47044.77
514.60	47122.01
514.77	46862.21
514.95	47330.31
515.12	47119.66
515.29	46955.83
515.47	47789.06
515.64	48069.92
515.81	47557.35
515.99	47903.74
516.16	47908.43
516.33	48273.55
516.51	48516.96
516.68	48430.36
516.85	47831.19
517.03	48648.03
517.20	48725.27
517.37	48477.18
517.54	48425.68
517.72	48224.40
517.89	48601.22
518.06	48837.62
518.24	48889.11
518.41	48500.58
518.58	48949.96
518.75	49081.03
518.93	49228.49
519.10	48734.63
519.27	49207.42
519.45	49495.31
519.62	49631.06
519.79	49420.41
519.96	49794.90
520.14	50005.55
520.31	49607.65
520.48	49965.76
520.65	50382.37
520.83	50061.72
521.00	50059.38
521.17	50522.80
521.34	50515.78
521.52	50473.65
521.69	50665.58
521.86	50621.11
522.03	50930.06
522.20	50965.17
522.38	51281.14
522.55	50754.52
522.72	51107.94
522.89	50855.16
523.07	51227.31
523.24	50918.35
523.41	51538.60
523.58	51229.65
523.75	51676.69
523.92	51367.74
524.10	51639.24
524.27	51648.60
524.44	51842.87
524.61	51798.40
524.78	51999.68
524.96	51856.91
525.13	52280.55
525.30	51863.93
525.47	52294.59
525.64	52348.42
525.81	52420.98
525.98	52423.32
526.16	52348.42
526.33	52449.06
526.50	52750.99
526.67	52327.36
526.84	52865.68
527.01	52420.98
527.18	52519.28
527.36	52617.58
527.53	52573.11
527.70	53146.54
527.87	52919.51
528.04	52863.34
528.21	53102.07
528.38	53017.82
528.55	53624.01
528.72	53083.35
528.89	53291.66
529.07	53207.40
529.24	53024.84
529.41	53499.97
529.58	53256.55
529.75	53195.70
529.92	53361.87
530.09	53563.16
530.26	53598.27
530.43	53663.80
530.60	53425.07
530.77	53670.82
530.94	53724.66
531.11	53680.19
531.28	53874.45
531.46	53738.70
531.63	54071.06
531.80	53923.60
531.97	53982.12
532.14	54330.86
532.31	54031.27
532.48	54438.52
532.65	54244.26
532.82	54316.81
532.99	54377.67
533.16	54190.42
533.33	54522.78
533.50	54553.21
533.67	54480.65
533.84	54499.37
534.01	54813.01
534.18	54733.43
534.35	55061.10
534.52	54873.86
534.69	54939.39
534.86	55206.22
535.03	54988.55
535.20	54770.88
535.37	55025.99
535.54	55283.45
535.71	55070.46
535.88	54988.55
536.05	55529.21
536.22	55653.26
536.38	55152.38
536.55	55124.30
536.72	55234.30
536.89	55395.80
537.06	55435.59
537.23	55533.89
537.40	55487.08
537.57	55374.73
537.74	55601.77
537.91	55515.17
538.08	55735.18
538.25	55473.04
538.42	55510.49
538.59	56144.77
538.75	55690.71
538.92	55976.25
539.09	55826.46
539.26	55774.97
539.43	55725.81
539.60	55896.67
539.77	56264.14
539.94	56280.52
540.11	56170.52
540.28	56205.62
540.44	56306.27
540.61	55948.17
540.78	56278.18
540.95	56339.04
541.12	56212.65
541.29	56104.98
541.46	56320.31
541.62	56486.49
541.79	56313.29
541.96	56135.41
542.13	56292.22
542.30	56453.72
542.47	56467.76
542.63	56430.32
542.80	56715.86
542.97	56774.37
543.14	57036.51
543.31	57003.75
543.48	57223.76
543.64	57228.44
543.81	57059.92
543.98	57158.22
544.15	56978.00
544.32	57097.37
544.48	57368.87
544.65	57095.03
544.82	57216.74
544.99	57106.73
545.16	57116.09
545.32	57172.27
545.49	57340.78
545.66	57528.03
545.83	57207.37
546.00	57511.64
546.16	57528.03
546.33	57354.83
546.50	57153.54
546.67	57361.85
546.83	57326.74
547.00	57553.77
547.17	57471.85
547.34	57577.18
547.50	57848.68
547.67	57712.93
547.84	57780.81
548.00	58148.27
548.17	58026.56
548.34	57764.42
548.51	58085.07
548.67	58260.62
548.84	57860.38
549.01	57937.62
549.18	57851.02
549.34	58120.18
549.51	58152.95
549.68	58092.10
549.84	58459.56
550.01	58272.32
550.18	58005.50
550.34	58106.14
550.51	58248.91
550.68	58136.57
550.84	57989.11
551.01	58309.77
551.18	58152.95
551.34	58342.53
551.51	58550.84
551.68	58497.01
551.84	58295.72
552.01	58239.55
552.18	58536.80
552.34	58489.99
552.51	58511.05
552.68	58436.16
552.84	58461.90
553.01	58681.91
553.18	58489.99
553.34	58700.64
553.51	58316.79
553.67	58567.23
553.84	58885.54
554.01	58848.09
554.17	58780.21
554.34	58679.57
554.51	58876.18
554.67	58543.82
554.84	58791.92
555.00	58724.04
555.17	58869.15
555.33	58803.62
555.50	58829.37
555.67	58894.90
555.83	58822.34
556.00	58871.49
556.16	59096.19
556.33	59014.27
556.50	58810.64
556.66	59051.72
556.83	58979.16
556.99	59089.16
557.16	59271.73
557.32	59168.74
557.49	59337.26
557.65	59238.96
557.82	59077.46
557.98	59227.26
558.15	59316.20
558.32	59348.96
558.48	59374.71
558.65	59189.81
558.81	59253.00
558.98	59475.35
559.14	59222.58
559.31	59522.16
559.47	59355.99
559.64	59519.82
559.80	59615.79
559.97	59683.66
560.13	59494.08
560.30	59620.47
560.46	59622.81
560.63	59667.28
560.79	59625.15
560.96	59554.93
561.12	59625.15
561.29	59716.43
561.45	59573.66
561.61	59756.22
561.78	59784.30
561.94	59482.37
562.11	59545.57
562.27	59718.77
562.44	59774.94
562.60	59987.93
562.77	59716.43
562.93	59760.90
563.10	59863.88
563.26	59547.91
563.42	59973.89
563.59	59882.61
563.75	59863.88
563.92	59796.01
564.08	59798.35
564.24	60018.36
564.41	59931.76
564.57	60027.72
564.74	59678.98
564.90	59812.39
565.07	60020.70
565.23	59889.63
565.39	59971.55
565.56	60154.11
565.72	59763.24
565.88	60046.44
566.05	60065.17
566.21	59927.08
566.38	60128.36
566.54	60051.12
566.70	60231.35
566.87	60060.49
567.03	59987.93
567.19	60306.24
567.36	59994.95
567.52	60062.83
567.68	60287.52
567.85	60060.49
568.01	60271.14
568.17	60067.51
568.34	60219.64
568.50	60247.73
568.66	60151.77
568.83	60240.71
568.99	60186.88
569.15	60065.17
569.32	60226.66
569.48	60156.45
569.64	60301.56
569.81	60339.01
569.97	60250.07
570.13	60411.57
570.30	60126.02
570.46	60362.42
570.62	60254.75
570.78	60294.54
570.95	60388.16
571.11	60320.29
571.27	60268.79
571.43	60128.36
571.60	60523.91
571.76	60200.92
571.92	60254.75
572.09	60456.04
572.25	60324.97
572.41	60339.01
572.57	60317.95
572.74	60596.47
572.90	60362.42
573.06	60378.80
573.22	60388.16
573.38	60285.18
573.55	60472.42
573.71	60486.46
573.87	60509.87
574.03	60346.03
574.20	60540.30
574.36	60467.74
574.52	60566.04
574.68	60441.99
574.84	60516.89
575.01	60526.25
575.17	60575.40
575.33	60467.74
575.49	60441.99
575.65	60575.40
575.82	60521.57
575.98	60526.25
576.14	60769.67
576.30	60629.24
576.46	60500.51
576.62	60608.17
576.79	60568.38
576.95	60296.88
577.11	60680.73
577.27	60718.18
577.43	60685.41
577.59	60657.32
577.75	60486.46
577.92	60413.91
578.08	60537.96
578.24	60697.11
578.40	60748.60
578.56	60800.10
578.72	60624.56
578.88	60870.31
579.04	60968.61
579.21	60713.50
579.37	60882.02
579.53	60889.04
579.69	60769.67
579.85	60598.81
580.01	60563.70
580.17	60481.78
580.33	60701.79
580.49	60889.04
580.65	60753.29
580.82	60736.90
580.98	60652.64
581.14	60552.00
581.30	60793.07
581.46	60729.88
581.62	60662.00
581.78	60596.47
581.94	60786.05
582.10	60662.00
582.26	60549.66
582.42	60568.38
582.58	60825.84
582.74	60762.65
582.90	60732.22
583.06	60650.30
583.22	60535.62
583.38	60764.99
583.54	60692.43
583.70	60786.05
583.86	60905.42
584.02	60629.24
584.18	60795.42
584.34	60734.56
584.50	60715.84
584.66	60818.82
584.82	60411.57
584.98	60877.33
585.14	60970.96
585.30	60814.14
585.46	60886.70
585.62	60706.47
585.78	60907.76
585.94	60537.96
586.10	60872.65
586.26	60926.49
586.42	60853.93
586.58	60935.85
586.74	60846.91
586.90	60926.49
587.06	60741.58
587.22	60889.04
587.38	60750.94
587.54	60977.98
587.70	60982.66
587.86	60814.14
588.02	60626.90
588.18	61057.56
588.34	60992.02
588.49	60891.38
