SpectraSuite Data File
++++++++++++++++++++++++++++++++++++
Date: Fri Oct 25 10:47:51 EDT 2013
User: price-jones
Dark Spectrum Present: No
Reference Spectrum Present: No
Number of Sampled Component Spectra: 1
Spectrometers: USB2+H05261
Integration Time (usec): 100000 (USB2+H05261)
Spectra Averaged: 1 (USB2+H05261)
Boxcar Smoothing: 0 (USB2+H05261)
Correct for Electrical Dark: No (USB2+H05261)
Strobe/Lamp Enabled: No (USB2+H05261)
Correct for Detector Non-linearity: No (USB2+H05261)
Correct for Stray Light: No (USB2+H05261)
Number of Pixels in Processed Spectrum: 2048
>>>>>Begin Processed Spectral Data<<<<<
365.73	180.22
365.92	180.22
366.12	180.22
366.32	0.00
366.52	9.36
366.72	14.04
366.91	37.45
367.11	46.81
367.31	0.00
367.51	9.36
367.70	32.77
367.90	121.71
368.10	37.45
368.30	74.90
368.49	11.70
368.69	93.62
368.89	44.47
369.09	60.85
369.28	67.88
369.48	140.43
369.68	84.26
369.87	58.51
370.07	110.01
370.27	58.51
370.47	187.24
370.66	376.83
370.86	381.51
371.06	437.68
371.25	430.66
371.45	409.59
371.65	493.85
371.84	404.91
372.04	425.98
372.24	484.49
372.44	451.72
372.63	484.49
372.83	454.06
373.03	533.64
373.22	470.45
373.42	500.87
373.62	578.11
373.81	468.11
374.01	557.05
374.21	493.85
374.40	538.32
374.60	592.16
374.79	631.94
374.99	599.18
375.19	486.83
375.38	568.75
375.58	585.13
375.78	594.50
375.97	559.39
376.17	688.12
376.37	568.75
376.56	631.94
376.76	540.66
376.95	554.71
377.15	615.56
377.35	566.41
377.54	615.56
377.74	566.41
377.93	550.03
378.13	613.22
378.33	606.20
378.52	627.26
378.72	664.71
378.91	601.52
379.11	713.86
379.31	667.05
379.50	645.99
379.70	657.69
379.89	631.94
380.09	706.84
380.28	662.37
380.48	631.94
380.68	645.99
380.87	606.20
381.07	610.88
381.26	709.18
381.46	669.39
381.65	589.82
381.85	692.80
382.04	664.71
382.24	603.86
382.43	587.47
382.63	702.16
382.83	653.01
383.02	751.31
383.22	688.12
383.41	734.93
383.61	791.10
383.80	681.10
384.00	734.93
384.19	697.48
384.39	774.72
384.58	660.03
384.78	770.04
384.97	770.04
385.17	774.72
385.36	755.99
385.56	763.01
385.75	725.57
385.95	758.33
386.14	812.17
386.34	751.31
386.53	807.48
386.72	781.74
386.92	849.61
387.11	744.29
387.31	814.51
387.50	833.23
387.70	807.48
387.89	837.91
388.09	819.19
388.28	805.14
388.48	805.14
388.67	919.83
388.86	915.15
389.06	861.32
389.25	936.21
389.45	971.32
389.64	828.55
389.84	954.94
390.03	947.92
390.22	908.13
390.42	863.66
390.61	877.70
390.81	926.85
391.00	1008.77
391.19	971.32
391.39	933.87
391.58	985.37
391.78	915.15
391.97	908.13
392.16	983.02
392.36	1064.94
392.55	1022.81
392.75	1020.47
392.94	1015.79
393.13	1006.43
393.33	936.21
393.52	1067.28
393.71	1036.86
393.91	1004.09
394.10	1090.69
394.29	1022.81
394.49	1006.43
394.68	1144.52
394.88	1137.50
395.07	1116.44
395.26	1128.14
395.46	1057.92
395.65	1104.73
395.84	1097.71
396.04	1062.60
396.23	1132.82
396.42	1163.25
396.62	1142.18
396.81	1156.22
397.00	1177.29
397.19	1207.72
397.39	1249.85
397.58	1254.53
397.77	1235.80
397.97	1376.24
398.16	1334.11
398.35	1277.93
398.55	1254.53
398.74	1394.96
398.93	1420.71
399.12	1322.40
399.32	1306.02
399.51	1284.95
399.70	1364.53
399.90	1303.68
400.09	1296.66
400.28	1425.39
400.47	1467.52
400.67	1497.94
400.86	1523.69
401.05	1432.41
401.24	1530.71
401.44	1392.62
401.63	1451.13
401.82	1359.85
402.01	1500.28
402.21	1509.65
402.40	1493.26
402.59	1486.24
402.78	1483.90
402.97	1500.28
403.17	1547.09
403.36	1640.72
403.55	1614.97
403.74	1657.10
403.93	1664.12
404.13	1692.21
404.32	1575.18
404.51	1666.46
404.70	1720.29
404.89	1554.12
405.09	1729.66
405.28	1734.34
405.47	1657.10
405.66	1750.72
405.85	1823.28
406.05	1827.96
406.24	1736.68
406.43	1785.83
406.62	1771.79
406.81	1991.80
407.00	1863.07
407.20	1832.64
407.39	1858.39
407.58	1837.32
407.77	1893.49
407.96	1940.30
408.15	2064.35
408.34	1877.11
408.54	2022.22
408.73	1982.43
408.92	1949.67
409.11	1954.35
409.30	2038.61
409.49	2085.42
409.68	2153.29
409.87	2132.23
410.07	2181.38
410.26	2139.25
410.45	2118.18
410.64	2118.18
410.83	2209.47
411.02	2174.36
411.21	2200.10
411.40	2244.57
411.59	2239.89
411.78	2373.30
411.98	2275.00
412.17	2422.45
412.36	2242.23
412.55	2389.69
412.74	2347.56
412.93	2424.80
413.12	2335.85
413.31	2619.06
413.50	2497.35
413.69	2462.24
413.88	2600.34
414.07	2546.50
414.26	2597.99
414.45	2640.12
414.64	2597.99
414.83	2682.25
415.02	2588.63
415.22	2771.19
415.41	2829.71
415.60	2752.47
415.79	2764.17
415.98	3019.29
416.17	2796.94
416.36	2829.71
416.55	2850.77
416.74	2939.71
416.93	2895.24
417.12	2935.03
417.31	2963.12
417.50	2848.43
417.69	3077.80
417.88	2953.76
418.07	3056.74
418.26	3007.59
418.45	3028.65
418.64	3304.84
418.83	3251.00
419.02	3136.32
419.21	3183.13
419.39	3251.00
419.58	3234.62
419.77	3138.66
419.96	3258.03
420.15	3314.20
420.34	3199.51
420.53	3239.30
420.72	3456.97
420.91	3529.53
421.10	3461.65
421.29	3513.14
421.48	3243.98
421.67	3431.23
421.86	3361.01
422.05	3456.97
422.24	3433.57
422.43	3361.01
422.61	3468.67
422.80	3489.74
422.99	3531.87
423.18	3552.93
423.37	3625.49
423.56	3574.00
423.75	3531.87
423.94	3506.12
424.13	3204.19
424.32	3332.92
424.50	3482.72
424.69	3709.75
424.88	3693.37
425.07	3459.31
425.26	3463.99
425.45	3522.51
425.64	3562.30
425.83	3581.02
426.01	3653.58
426.20	3660.60
426.39	3679.32
426.58	3599.74
426.77	3527.19
426.96	3581.02
427.15	3646.55
427.33	3665.28
427.52	3707.41
427.71	3768.26
427.90	3625.49
428.09	3669.96
428.28	3831.46
428.46	3812.73
428.65	3854.86
428.84	3875.93
429.03	3969.55
429.22	3658.26
429.40	3918.06
429.59	3920.40
429.78	3796.35
429.97	3669.96
430.16	3873.59
430.34	3595.06
430.53	3861.88
430.72	3782.31
430.91	3892.31
431.10	3833.80
431.28	4182.54
431.47	4091.26
431.66	4217.65
431.85	4124.02
432.03	4138.07
432.22	4173.18
432.41	4135.73
432.60	4287.86
432.79	4224.67
432.97	4388.50
433.16	4273.82
433.35	4145.09
433.54	4271.48
433.72	4285.52
433.91	4229.35
434.10	4449.36
434.28	4313.61
434.47	4306.59
434.66	4393.19
434.85	4542.98
435.03	4540.64
435.22	4454.04
435.41	4561.70
435.59	4599.15
435.78	4608.51
435.97	4592.13
436.16	4374.46
436.34	4496.17
436.53	4542.98
436.72	4683.41
436.90	4732.56
437.09	4608.51
437.28	4538.30
437.46	4781.71
437.65	4648.30
437.84	4765.33
438.02	4781.71
438.21	4744.27
438.40	4741.93
438.58	4812.14
438.77	4868.31
438.96	5055.56
439.14	5116.41
439.33	5125.77
439.52	5135.14
439.70	5109.39
439.89	5107.05
440.08	5275.57
440.26	5291.95
440.45	5186.63
440.63	5263.86
440.82	5362.17
441.01	5383.23
441.19	5366.85
441.38	5659.42
441.57	5434.72
441.75	5497.92
441.94	5565.79
442.12	5645.37
442.31	5760.06
442.50	5603.24
442.68	5540.05
442.87	5645.37
443.05	5668.78
443.24	5839.64
443.43	5841.98
443.61	5710.91
443.80	5802.19
443.98	5771.76
444.17	5570.48
444.35	5933.26
444.54	5818.57
444.73	5696.86
444.91	5902.83
445.10	5877.09
445.28	5834.96
445.47	5799.85
445.65	5877.09
445.84	5907.51
446.02	5912.19
446.21	5853.68
446.39	5891.13
446.58	6169.65
446.77	5900.49
446.95	5886.45
447.14	5940.28
447.32	6047.94
447.51	5970.71
447.69	5830.27
447.88	5987.09
448.06	5984.75
448.25	6148.59
448.43	6033.90
448.62	6015.18
448.80	6031.56
448.99	6167.31
449.17	6223.48
449.36	6186.04
449.54	6134.54
449.73	6347.53
449.91	6157.95
450.10	6333.49
450.28	6424.77
450.46	6445.84
450.65	6258.59
450.83	6656.48
451.02	6328.81
451.20	6483.28
451.39	6499.67
451.57	6506.69
451.76	6518.39
451.94	6359.24
452.13	6445.84
452.31	6413.07
452.49	6375.62
452.68	6513.71
452.86	6410.73
453.05	6497.33
453.23	6530.09
453.42	6600.31
453.60	6530.09
453.78	6651.80
453.97	6565.20
454.15	6626.06
454.34	6750.10
454.52	6530.09
454.70	6878.83
454.89	6806.28
455.07	6820.32
455.26	6890.54
455.44	6972.46
455.62	6806.28
455.81	7098.84
455.99	6988.84
456.17	6918.62
456.36	7129.27
456.54	7236.94
456.73	7080.12
456.91	7309.49
457.09	7250.98
457.28	7363.33
457.46	7173.74
457.64	7330.56
457.83	7360.98
458.01	7180.76
458.19	7325.88
458.38	7227.57
458.56	7485.03
458.74	7417.16
458.93	7417.16
459.11	7531.84
459.29	7705.04
459.48	7496.74
459.66	7431.20
459.84	7583.34
460.03	7658.23
460.21	7613.76
460.39	7838.45
460.57	7585.68
460.76	7992.93
460.94	7698.02
461.12	7803.35
461.31	7742.49
461.49	7758.88
461.67	7850.16
461.85	7779.94
462.04	7747.17
462.22	8322.94
462.40	7936.76
462.59	8028.04
462.77	8086.55
462.95	7971.86
463.13	8107.62
463.32	8079.53
463.50	8037.40
463.68	8032.72
463.86	8320.60
464.05	8032.72
464.23	7894.63
464.41	8180.17
464.59	7995.27
464.78	8411.89
464.96	8299.54
465.14	8196.56
465.32	8449.33
465.50	8475.08
465.69	8336.99
465.87	8297.20
466.05	8299.54
466.23	8346.35
466.41	8500.83
466.60	8444.65
466.78	8554.66
466.96	8320.60
467.14	8493.80
467.32	8552.32
467.51	8407.20
467.69	8425.93
467.87	8362.73
468.05	8531.25
468.23	8491.46
468.41	8379.12
468.60	8650.62
468.78	8587.43
468.96	8610.83
469.14	8798.07
469.32	8887.01
469.50	8657.64
469.69	9022.77
469.87	8922.12
470.05	9125.75
470.23	8929.14
470.41	8847.22
470.59	9034.47
470.77	8865.95
470.95	8964.25
471.14	9315.33
471.32	9004.04
471.50	9357.46
471.68	9107.02
471.86	9092.98
472.04	9444.06
472.22	9322.35
472.40	9092.98
472.58	9439.38
472.77	9364.48
472.95	9612.58
473.13	9809.19
473.31	9495.55
473.49	9568.11
473.67	9657.05
473.85	9511.94
474.03	10010.47
474.21	9940.26
474.39	9994.09
474.57	10115.80
474.75	10101.75
474.93	10143.88
475.12	10171.97
475.30	10134.52
475.48	10136.86
475.66	10307.72
475.84	10396.66
476.02	10377.94
476.20	10434.11
476.38	10509.01
476.56	10927.96
476.74	10822.64
476.92	10579.22
477.10	10649.44
477.28	11080.10
477.46	11215.85
477.64	10885.83
477.82	11297.77
478.00	11236.91
478.18	11077.76
478.36	11433.52
478.54	11487.35
478.72	11618.42
478.90	11737.79
479.08	11850.13
479.26	11866.52
479.44	11882.90
479.62	12147.38
479.80	12248.02
479.98	12388.46
480.16	12479.74
480.34	12210.57
480.52	12683.36
480.70	12589.74
480.88	12353.35
481.06	12479.74
481.24	12737.20
481.41	13111.68
481.59	13151.47
481.77	13008.70
481.95	13177.22
482.13	13308.29
482.31	13336.37
482.49	13551.70
482.67	13575.11
482.85	13879.38
483.03	13919.17
483.21	13743.63
483.39	13994.06
483.57	13973.00
483.74	13996.40
483.92	14413.02
484.10	14466.85
484.28	14658.78
484.46	14658.78
484.64	14932.62
484.82	14574.52
485.00	14932.62
485.18	14822.61
485.35	15260.29
485.53	15047.30
485.71	15227.53
485.89	15456.90
486.07	15374.98
486.25	15374.98
486.43	15564.56
486.61	15815.00
486.78	15901.60
486.96	15871.17
487.14	16568.65
487.32	16219.91
487.50	16575.67
487.68	16800.37
487.85	16973.56
488.03	17020.38
488.21	17163.15
488.39	16842.50
488.57	17343.37
488.75	17305.92
488.92	17954.25
489.10	17785.73
489.28	17741.26
489.46	17851.27
489.64	17900.42
489.81	18277.24
489.99	18431.72
490.17	18480.87
490.35	18616.62
490.53	18757.05
490.70	18970.04
490.88	18771.10
491.06	19257.93
491.24	19180.69
491.41	19026.21
491.59	19101.11
491.77	19164.31
491.95	19543.47
492.13	19704.97
492.30	19646.46
492.48	20156.69
492.66	19995.20
492.84	20173.08
493.01	20163.72
493.19	20166.06
493.37	20257.34
493.54	20608.42
493.72	20940.77
493.90	21006.31
494.08	21076.52
494.25	21504.84
494.43	21261.43
494.61	21553.99
494.79	21378.45
494.96	21394.84
495.14	21455.69
495.32	21661.66
495.49	21947.20
495.67	21507.18
495.85	22253.81
496.02	22377.86
496.20	22412.97
496.38	22501.91
496.55	22314.67
496.73	23295.35
496.91	22560.42
497.09	22679.79
497.26	23000.44
497.44	23087.04
497.62	23021.51
497.79	23356.21
497.97	23222.80
498.14	23929.64
498.32	24034.96
498.50	23592.60
498.67	24259.65
498.85	24025.60
499.03	24060.71
499.20	24215.18
499.38	24304.12
499.56	24372.00
499.73	24697.33
499.91	24690.31
500.08	24603.71
500.26	24451.58
500.44	24697.33
500.61	24870.53
500.79	24479.66
500.97	25057.78
501.14	25401.83
501.32	25062.46
501.49	25095.22
501.67	25282.47
501.84	25486.09
502.02	25926.11
502.20	25624.18
502.37	25820.79
502.55	25968.24
502.72	25869.94
502.90	25970.58
503.07	26010.37
503.25	26153.15
503.43	26108.68
503.60	26274.85
503.78	26312.30
503.95	26047.82
504.13	26426.99
504.30	26869.35
504.48	26611.89
504.65	26820.20
504.83	26923.18
505.01	27112.77
505.18	26766.37
505.36	27452.14
505.53	27339.80
505.71	27498.95
505.88	27599.60
506.06	27117.45
506.23	27737.69
506.41	27213.41
506.58	27505.98
506.76	28013.87
506.93	27718.96
507.11	27632.36
507.28	28065.36
507.46	27955.36
507.63	28414.10
507.81	28287.71
507.98	28013.87
508.16	28346.23
508.33	28566.24
508.50	28694.97
508.68	28769.86
508.85	29095.20
509.03	28980.51
509.20	28669.22
509.38	29411.17
509.55	29172.44
509.73	29132.65
509.90	29174.78
510.08	29319.89
510.25	29294.14
510.42	29701.40
510.60	29570.33
510.77	29584.37
510.95	29855.87
511.12	29565.65
511.30	30038.44
511.47	30307.60
511.64	30043.12
511.82	30202.27
511.99	29982.26
512.17	30316.96
512.34	30323.98
512.51	30469.09
512.69	30396.54
512.86	30764.00
513.04	30831.88
513.21	30632.93
513.38	30754.64
513.56	30623.57
513.73	30408.24
513.90	31070.61
514.08	30869.33
514.25	31496.59
514.43	30892.73
514.60	31409.99
514.77	31126.78
514.95	31377.22
515.12	31323.39
515.29	31342.11
515.47	31637.02
515.64	32034.91
515.81	31852.35
515.99	31892.14
516.16	31826.60
516.33	32100.45
516.51	32051.30
516.68	31887.46
516.85	31667.45
517.03	31983.42
517.20	32072.36
517.37	32233.86
517.54	32278.33
517.72	31997.46
517.89	32360.25
518.06	32439.82
518.24	32116.83
518.41	32378.97
518.58	32428.12
518.75	32886.87
518.93	32622.39
519.10	32730.05
519.27	32701.96
519.45	32912.61
519.62	32870.48
519.79	33048.36
519.96	32957.08
520.14	33191.14
520.31	33722.44
520.48	33488.38
520.65	33312.84
520.83	33329.23
521.00	33893.30
521.17	33593.71
521.34	33989.26
521.52	34073.52
521.69	34314.59
521.86	34129.69
522.03	33937.77
522.20	34071.18
522.38	34398.85
522.55	34298.21
522.72	34251.40
522.89	34143.74
523.07	34635.25
523.24	34251.40
523.41	34424.60
523.58	34696.10
523.75	34951.22
523.92	34864.62
524.10	35302.30
524.27	35070.59
524.44	34726.53
524.61	35339.75
524.78	35267.19
524.96	35225.06
525.13	35379.54
525.30	35648.70
525.47	36126.17
525.64	35580.82
525.81	35290.60
525.98	35421.67
526.16	35473.16
526.33	35335.07
526.50	35798.49
526.67	35618.27
526.84	35276.55
527.01	35283.58
527.18	36065.31
527.36	35864.03
527.53	36231.49
527.70	36046.59
527.87	36177.66
528.04	36446.82
528.21	36025.53
528.38	36493.63
528.55	36690.24
528.72	36531.08
528.89	36348.52
529.07	36774.50
529.24	36758.11
529.41	36526.40
529.58	36301.71
529.75	36512.36
529.92	36781.52
530.09	36715.98
530.26	37172.39
530.43	36856.42
530.60	36734.71
530.77	36542.78
530.94	37453.25
531.11	37350.27
531.28	37696.67
531.46	37333.89
531.63	37256.65
531.80	37240.26
531.97	37542.19
532.14	37418.14
532.31	37368.99
532.48	37474.32
532.65	37947.11
532.82	37385.38
532.99	37951.79
533.16	37184.09
533.33	37738.80
533.50	38019.66
533.67	38244.35
533.84	37610.07
534.01	37806.67
534.18	37736.46
534.35	38293.50
534.52	37914.34
534.69	38059.45
534.86	37993.92
535.03	38005.62
535.20	38557.99
535.37	38892.68
535.54	38588.41
535.71	38941.83
535.88	38770.97
536.05	38253.72
536.22	38583.73
536.38	39117.37
536.55	38820.13
536.72	38653.95
536.89	38499.47
537.06	38637.56
537.23	38890.34
537.40	38281.80
537.57	38869.28
537.74	38754.59
537.91	39150.14
538.08	39199.29
538.25	38862.26
538.42	38967.58
538.59	39536.33
538.75	39119.71
538.92	39475.48
539.09	39365.47
539.26	39192.27
539.43	39569.10
539.60	39374.83
539.77	39461.43
539.94	39496.54
540.11	39531.65
540.28	39337.38
540.44	39871.03
540.61	39229.72
540.78	39480.16
540.95	39824.22
541.12	39391.22
541.29	39379.51
541.46	39629.95
541.62	39761.02
541.79	39756.34
541.96	39358.45
542.13	39983.37
542.30	40058.27
542.47	40114.44
542.63	40486.59
542.80	40154.23
542.97	40610.64
543.14	40666.81
543.31	40402.33
543.48	40247.85
543.64	41057.68
543.81	40809.58
543.98	40605.95
544.15	40531.06
544.32	40828.30
544.48	40655.11
544.65	40966.40
544.82	40950.01
544.99	40680.85
545.16	41296.41
545.32	40531.06
545.49	41357.27
545.66	41202.79
545.83	41303.43
546.00	41340.88
546.16	41099.81
546.33	41015.55
546.50	41050.66
546.67	41184.07
546.83	40664.47
547.00	41205.13
547.17	41366.63
547.34	41010.87
547.50	41401.74
547.67	41549.19
547.84	41277.69
548.00	41731.75
548.17	41787.92
548.34	41502.38
548.51	41635.79
548.67	42087.51
548.84	41741.11
549.01	42202.20
549.18	41537.49
549.34	41930.70
549.51	42286.46
549.68	42099.22
549.84	41593.66
550.01	42087.51
550.18	41890.91
550.34	42333.27
550.51	41783.24
550.68	42181.13
550.84	41780.90
551.01	42323.91
551.18	41918.99
551.34	42141.35
551.51	42190.50
551.68	42281.78
551.84	42511.15
552.01	42244.33
552.18	42576.69
552.34	42293.48
552.51	42642.22
552.68	42459.66
552.84	42635.20
553.01	43093.94
553.18	42513.49
553.34	42618.81
553.51	42270.08
553.67	42885.64
553.84	42506.47
554.01	42684.35
554.17	43005.00
554.34	43250.76
554.51	43037.77
554.67	43070.54
554.84	43012.02
555.00	42717.12
555.17	42590.73
555.33	42686.69
555.50	42836.48
555.67	43168.84
555.83	43220.33
556.00	43124.37
556.16	43276.51
556.33	43337.36
556.50	43222.67
556.66	43475.45
556.83	43026.07
556.99	43407.58
557.16	43356.08
557.32	43543.33
557.49	43255.44
557.65	43192.25
557.82	43026.07
557.98	43257.78
558.15	43136.07
558.32	43423.96
558.48	43503.54
558.65	43098.62
558.81	43559.71
558.98	43550.35
559.14	43285.87
559.31	43236.72
559.47	43840.57
559.64	43597.16
559.80	43770.36
559.97	43381.83
560.13	43599.50
560.30	43498.86
560.46	43548.01
560.63	43477.79
560.79	43863.98
560.96	43524.60
561.12	43641.63
561.29	43491.83
561.45	43564.39
561.61	43833.55
561.78	43342.04
561.94	43665.03
562.11	43920.15
562.27	43419.28
562.44	43423.96
562.60	43941.22
562.77	44367.20
562.93	43592.48
563.10	44236.12
563.26	44289.96
563.42	44208.04
563.59	43515.24
563.75	44144.84
563.92	43948.24
564.08	44311.02
564.24	44390.60
564.41	44149.53
564.57	43669.72
564.74	44133.14
564.90	44161.23
565.07	44051.22
565.23	44252.51
565.39	43981.01
565.56	44264.21
565.72	44011.43
565.88	44069.95
566.05	44116.76
566.21	43840.57
566.38	44201.02
566.54	44233.78
566.70	44580.18
566.87	44332.09
567.03	44549.76
567.19	44959.35
567.36	44240.81
567.52	44261.87
567.68	44409.32
567.85	44362.51
568.01	44421.03
568.17	44392.94
568.34	44430.39
568.50	44596.57
568.66	44133.14
568.83	44423.37
568.99	44753.38
569.15	44034.84
569.32	44547.42
569.48	44074.63
569.64	44392.94
569.81	44526.35
569.97	44313.36
570.13	44044.20
570.30	44149.53
570.46	44161.23
570.62	44229.10
570.78	43889.73
570.95	44619.97
571.11	44158.89
571.27	44306.34
571.43	44282.94
571.60	44325.07
571.76	44378.90
571.92	44128.46
572.09	44156.55
572.25	44439.75
572.41	44114.42
572.57	44893.82
572.74	44980.42
572.90	44533.37
573.06	44748.70
573.22	44741.68
573.38	44910.20
573.55	44027.82
573.71	44748.70
573.87	44341.45
574.03	44430.39
574.20	44685.51
574.36	44425.71
574.52	44882.11
574.68	44706.57
574.84	45067.02
575.01	44528.69
575.17	44685.51
575.33	44116.76
575.49	44481.88
575.65	44683.17
575.82	44467.84
575.98	44884.45
576.14	44849.35
576.30	44662.10
576.46	44512.31
576.62	44554.44
576.79	44423.37
576.95	44437.41
577.11	44460.82
577.27	44421.03
577.43	44531.03
577.59	44540.39
577.75	44645.72
577.92	44320.38
578.08	44350.81
578.24	44376.56
578.40	44575.50
578.56	44451.45
578.72	44622.31
578.88	44694.87
579.04	44949.99
579.21	44666.78
579.37	44481.88
579.53	45071.70
579.69	44594.23
579.85	44348.47
580.01	44816.58
580.17	44659.76
580.33	45287.03
580.49	45029.57
580.65	44989.78
580.82	44994.46
580.98	44507.63
581.14	44655.08
581.30	44762.75
581.46	44884.45
581.62	45090.42
581.78	44744.02
581.94	45057.65
582.10	44947.65
582.26	44697.21
582.42	44687.85
582.58	44917.22
582.74	44800.19
582.90	44872.75
583.06	44839.98
583.22	45090.42
583.38	45123.19
583.54	44947.65
583.70	44720.62
583.86	44790.83
584.02	44720.62
584.18	45043.61
584.34	44765.09
584.50	45085.74
584.66	44388.26
584.82	44926.58
584.98	45001.48
585.14	44837.64
585.30	44612.95
585.46	44776.79
585.62	44353.15
585.78	44662.10
585.94	44594.23
586.10	44662.10
586.26	44800.19
586.42	44821.26
586.58	44861.05
586.74	44774.45
586.90	44734.66
587.06	44851.69
587.22	44842.32
587.38	45095.10
587.54	45352.56
587.70	45214.47
587.86	44928.92
588.02	44774.45
588.18	44994.46
588.34	44608.27
588.49	44683.17
588.65	44444.43
588.81	44971.05
588.97	44769.77
589.13	44451.45
589.29	44821.26
589.45	44793.17
589.61	45198.09
589.77	44973.39
589.93	45258.94
590.08	45006.16
590.24	45104.46
