SpectraSuite Data File
++++++++++++++++++++++++++++++++++++
Date: Fri Oct 25 10:44:18 EDT 2013
User: price-jones
Dark Spectrum Present: No
Reference Spectrum Present: No
Number of Sampled Component Spectra: 1
Spectrometers: USB2+H05261
Integration Time (usec): 100000 (USB2+H05261)
Spectra Averaged: 1 (USB2+H05261)
Boxcar Smoothing: 0 (USB2+H05261)
Correct for Electrical Dark: No (USB2+H05261)
Strobe/Lamp Enabled: No (USB2+H05261)
Correct for Detector Non-linearity: No (USB2+H05261)
Correct for Stray Light: No (USB2+H05261)
Number of Pixels in Processed Spectrum: 2048
>>>>>Begin Processed Spectral Data<<<<<
365.73	149.79
365.92	149.79
366.12	149.79
366.32	2.34
366.52	2.34
366.72	63.19
366.91	32.77
367.11	65.54
367.31	0.00
367.51	14.04
367.70	28.09
367.90	0.00
368.10	0.00
368.30	56.17
368.49	37.45
368.69	105.32
368.89	30.43
369.09	18.72
369.28	77.24
369.48	42.13
369.68	39.79
369.87	114.69
370.07	67.88
370.27	114.69
370.47	182.56
370.66	404.91
370.86	423.64
371.06	479.81
371.25	580.45
371.45	437.68
371.65	388.53
371.84	484.49
372.04	505.56
372.24	461.09
372.44	545.34
372.63	458.74
372.83	524.28
373.03	589.82
373.22	395.55
373.42	540.66
373.62	552.37
373.81	648.33
374.01	545.34
374.21	559.39
374.40	599.18
374.60	624.92
374.79	613.22
374.99	561.73
375.19	587.47
375.38	627.26
375.58	629.60
375.78	592.16
375.97	599.18
376.17	617.90
376.37	601.52
376.56	573.43
376.76	571.09
376.95	676.41
377.15	587.47
377.35	676.41
377.54	676.41
377.74	669.39
377.93	664.71
378.13	608.54
378.33	774.72
378.52	681.10
378.72	674.07
378.91	653.01
379.11	638.97
379.31	620.24
379.50	601.52
379.70	723.23
379.89	676.41
380.09	791.10
380.28	643.65
380.48	723.23
380.68	645.99
380.87	645.99
381.07	755.99
381.26	741.95
381.46	737.27
381.65	727.91
381.85	711.52
382.04	786.42
382.24	706.84
382.43	650.67
382.63	617.90
382.83	699.82
383.02	765.36
383.22	798.12
383.41	748.97
383.61	784.08
383.80	849.61
384.00	812.17
384.19	781.74
384.39	835.57
384.58	830.89
384.78	767.70
384.97	840.25
385.17	812.17
385.36	788.76
385.56	837.91
385.75	709.18
385.95	866.00
386.14	863.66
386.34	877.70
386.53	896.43
386.72	835.57
386.92	889.40
387.11	819.19
387.31	877.70
387.50	896.43
387.70	905.79
387.89	882.38
388.09	912.81
388.28	875.36
388.48	898.77
388.67	931.53
388.86	915.15
389.06	978.34
389.25	1022.81
389.45	1043.88
389.64	950.26
389.84	1001.75
390.03	966.64
390.22	1034.52
390.42	1076.65
390.61	1015.79
390.81	1011.11
391.00	1050.90
391.19	1139.84
391.39	1142.18
391.58	1090.69
391.78	1043.88
391.97	1057.92
392.16	1013.45
392.36	1013.45
392.55	1139.84
392.75	1032.18
392.94	1055.58
393.13	1057.92
393.33	1048.56
393.52	966.64
393.71	1172.61
393.91	1109.41
394.10	1121.12
394.29	1125.80
394.49	1252.19
394.68	1188.99
394.88	1207.72
395.07	1273.25
395.26	1188.99
395.46	1247.51
395.65	1273.25
395.84	1174.95
396.04	1348.15
396.23	1193.67
396.42	1172.61
396.62	1261.55
396.81	1235.80
397.00	1205.38
397.19	1284.95
397.39	1373.89
397.58	1341.13
397.77	1310.70
397.97	1448.79
398.16	1434.75
398.35	1425.39
398.55	1432.41
398.74	1554.12
398.93	1537.73
399.12	1460.49
399.32	1465.18
399.51	1540.07
399.70	1582.20
399.90	1497.94
400.09	1460.49
400.28	1584.54
400.47	1682.85
400.67	1598.59
400.86	1673.48
401.05	1614.97
401.24	1701.57
401.44	1664.12
401.63	1680.50
401.82	1732.00
402.01	1650.08
402.21	1804.55
402.40	1767.10
402.59	1778.81
402.78	1767.10
402.97	1710.93
403.17	1797.53
403.36	1837.32
403.55	1818.60
403.74	1942.64
403.93	1849.02
404.13	1893.49
404.32	1914.56
404.51	1879.45
404.70	1935.62
404.89	1919.24
405.09	1994.14
405.28	1886.47
405.47	1952.01
405.66	2012.86
405.85	1973.07
406.05	1930.94
406.24	1851.36
406.43	2054.99
406.62	2120.53
406.81	2071.37
407.00	1977.75
407.20	1994.14
407.39	2118.18
407.58	2181.38
407.77	2193.08
407.96	2235.21
408.15	2125.21
408.34	2270.32
408.54	2300.75
408.73	2363.94
408.92	2359.26
409.11	2314.79
409.30	2303.09
409.49	2328.83
409.68	2237.55
409.87	2370.96
410.07	2366.28
410.26	2406.07
410.45	2361.60
410.64	2534.80
410.83	2651.83
411.02	2504.37
411.21	2562.89
411.40	2658.85
411.59	2670.55
411.78	2649.49
411.98	2626.08
412.17	2693.96
412.36	2572.25
412.55	2670.55
412.74	2649.49
412.93	2658.85
413.12	2740.77
413.31	2860.13
413.50	2813.32
413.69	2904.60
413.88	2956.10
414.07	2773.53
414.26	2953.76
414.45	2946.73
414.64	3045.04
414.83	2977.16
415.02	3070.78
415.22	3068.44
415.41	2935.03
415.60	3098.87
415.79	3260.37
415.98	3456.97
416.17	3389.10
416.36	3204.19
416.55	3304.84
416.74	3358.67
416.93	3253.34
417.12	3220.58
417.31	3295.47
417.50	3302.50
417.69	3442.93
417.88	3442.93
418.07	3323.56
418.26	3431.23
418.45	3698.05
418.64	3634.85
418.83	3616.13
419.02	3578.68
419.21	3684.00
419.39	3646.55
419.58	3672.30
419.77	3396.12
419.96	3578.68
420.15	3684.00
420.34	3775.28
420.53	3812.73
420.72	3852.52
420.91	3716.77
421.10	3873.59
421.29	3826.78
421.48	3817.41
421.67	3847.84
421.86	3836.14
422.05	3726.13
422.24	3901.67
422.43	3885.29
422.61	3967.21
422.80	3852.52
422.99	3969.55
423.18	3974.23
423.37	4011.68
423.56	3981.25
423.75	3971.89
423.94	3904.01
424.13	3789.33
424.32	3798.69
424.50	3962.53
424.69	4112.32
424.88	4039.76
425.07	3808.05
425.26	3983.59
425.45	3974.23
425.64	3894.65
425.83	3908.69
426.01	4023.38
426.20	4032.74
426.39	4072.53
426.58	3969.55
426.77	4025.72
426.96	4025.72
427.15	4098.28
427.33	4093.60
427.52	4077.21
427.71	4208.28
427.90	4205.94
428.09	4117.00
428.28	4325.31
428.46	4126.36
428.65	4051.47
428.84	4320.63
429.03	4327.65
429.22	4269.14
429.40	4210.62
429.59	4121.68
429.78	3941.46
429.97	3922.74
430.16	3957.85
430.34	4072.53
430.53	4173.18
430.72	4210.62
430.91	4308.93
431.10	4418.93
431.28	4491.49
431.47	4662.35
431.66	4634.26
431.85	4550.00
432.03	4685.75
432.22	4828.53
432.41	4627.24
432.60	4716.18
432.79	4699.80
432.97	4891.72
433.16	4809.80
433.35	4519.57
433.54	4592.13
433.72	4624.90
433.91	4716.18
434.10	4847.25
434.28	4964.28
434.47	4966.62
434.66	4830.87
434.85	4936.19
435.03	4950.23
435.22	4908.10
435.41	5224.08
435.59	5163.22
435.78	5315.36
435.97	5322.38
436.16	5174.92
436.34	5064.92
436.53	5242.80
436.72	5217.05
436.90	5018.11
437.09	5217.05
437.28	5095.35
437.46	5221.74
437.65	5107.05
437.84	5210.03
438.02	5217.05
438.21	5273.23
438.40	5188.97
438.58	5453.45
438.77	5509.62
438.96	5420.68
439.14	5535.37
439.33	5771.76
439.52	5743.67
439.70	5570.48
439.89	5748.36
440.08	5675.80
440.26	5802.19
440.45	5652.39
440.63	5895.81
440.82	5968.37
441.01	5874.74
441.19	5907.51
441.38	6317.11
441.57	6129.86
441.75	6331.15
441.94	6272.64
442.12	6293.70
442.31	6373.28
442.50	6384.98
442.68	6307.74
442.87	6328.81
443.05	6342.85
443.24	6562.86
443.43	6408.39
443.61	6443.49
443.80	6689.25
443.98	6445.84
444.17	6333.49
444.35	6494.99
444.54	6829.68
444.73	6518.39
444.91	6583.93
445.10	6541.80
445.28	6492.65
445.47	6457.54
445.65	6445.84
445.84	6628.40
446.02	6637.76
446.21	6506.69
446.39	6483.28
446.58	6731.38
446.77	6815.64
446.95	6705.63
447.14	6724.36
447.32	6782.87
447.51	6581.59
447.69	6595.63
447.88	6759.47
448.06	6822.66
448.25	6614.35
448.43	6670.53
448.62	6850.75
448.80	6857.77
448.99	6871.81
449.17	6862.45
449.36	6871.81
449.54	6995.86
449.73	7026.29
449.91	7117.57
450.10	7201.83
450.28	7281.41
450.46	7208.85
450.65	7253.32
450.83	7321.20
451.02	7293.11
451.20	7445.24
451.39	7368.01
451.57	7199.49
451.76	7150.34
451.94	7323.54
452.13	7524.82
452.31	7290.77
452.49	7115.23
452.68	7258.00
452.86	7152.68
453.05	7365.67
453.23	7480.35
453.42	7288.43
453.60	7300.13
453.78	7389.07
453.97	7435.88
454.15	7421.84
454.34	7442.90
454.52	7276.73
454.70	7559.93
454.89	7639.51
455.07	7719.09
455.26	7676.96
455.44	7824.41
455.62	7756.54
455.81	7805.69
455.99	7784.62
456.17	7744.83
456.36	7929.74
456.54	8006.97
456.73	8121.66
456.91	8329.97
457.09	8236.35
457.28	8196.56
457.46	7920.37
457.64	8067.83
457.83	8065.49
458.01	7920.37
458.19	8339.33
458.38	8201.24
458.56	8336.99
458.74	8226.98
458.93	8329.97
459.11	8451.67
459.29	8365.07
459.48	8344.01
459.66	8416.57
459.84	8510.19
460.03	8585.08
460.21	8573.38
460.39	8643.60
460.57	8390.82
460.76	8655.30
460.94	8636.58
461.12	8774.67
461.31	8732.54
461.49	8901.06
461.67	8828.50
461.85	8964.25
462.04	8697.43
462.22	8844.88
462.40	9114.05
462.59	8964.25
462.77	8872.97
462.95	8788.71
463.13	9095.32
463.32	8882.33
463.50	9128.09
463.68	9144.47
463.86	9102.34
464.05	8894.04
464.23	8894.04
464.41	9097.66
464.59	8872.97
464.78	9312.99
464.96	9226.39
465.14	9156.18
465.32	9121.07
465.50	9425.34
465.69	9518.96
465.87	9486.19
466.05	9191.28
466.23	9205.33
466.41	9266.18
466.60	9469.81
466.78	8947.87
466.96	9308.31
467.14	9352.78
467.32	9481.51
467.51	9678.12
467.69	9249.80
467.87	9439.38
468.05	9617.26
468.23	9458.10
468.41	9455.76
468.60	9516.62
468.78	9689.82
468.96	9584.49
469.14	9631.30
469.32	9907.49
469.50	9734.29
469.69	9797.48
469.87	9823.23
470.05	9781.10
470.23	9867.70
470.41	9764.72
470.59	9919.19
470.77	10101.75
470.95	9977.70
471.14	10162.61
471.32	9823.23
471.50	10403.68
471.68	10478.58
471.86	10373.25
472.04	10534.75
472.22	10780.51
472.40	10497.30
472.58	10619.01
472.77	10539.43
472.95	10628.37
473.13	10808.59
473.31	10244.52
473.49	10534.75
473.67	10712.63
473.85	10654.12
474.03	10841.36
474.21	10977.11
474.39	11131.59
474.57	11040.31
474.75	10965.41
474.93	11403.09
475.12	11405.43
475.30	11257.98
475.48	11272.02
475.66	11393.73
475.84	11225.21
476.02	11590.33
476.20	11375.00
476.38	11852.47
476.56	12088.87
476.74	11576.29
476.92	12051.42
477.10	11983.54
477.28	12039.72
477.46	12224.62
477.64	12435.27
477.82	12318.24
478.00	12744.22
478.18	12517.18
478.36	12627.19
478.54	12624.85
478.72	12847.20
478.90	12814.43
479.08	13242.75
479.26	13123.38
479.44	13329.35
479.62	13095.30
479.80	13369.14
479.98	13631.28
480.16	13790.44
480.34	13312.97
480.52	13797.46
480.70	13771.71
480.88	13760.01
481.06	13989.38
481.24	14101.73
481.41	14305.35
481.59	14263.22
481.77	14551.11
481.95	14548.77
482.13	14647.07
482.31	14796.87
482.49	14906.87
482.67	14995.81
482.85	15171.35
483.03	15494.35
483.21	15449.88
483.39	15360.94
483.57	15604.35
483.74	15847.77
483.92	15545.84
484.10	15779.89
484.28	16161.40
484.46	16011.60
484.64	16386.09
484.82	16147.36
485.00	16095.86
485.18	16542.91
485.35	16753.55
485.53	16116.93
485.71	16233.96
485.89	16524.18
486.07	16521.84
486.25	16697.38
486.43	16882.28
486.61	17018.04
486.78	17284.86
486.96	17224.00
487.14	17633.60
487.32	17776.37
487.50	18087.66
487.68	18200.01
487.85	18410.65
488.03	18726.63
488.21	18642.37
488.39	18436.40
488.57	18600.24
488.75	18892.80
488.92	19042.60
489.10	19527.09
489.28	19784.55
489.46	20051.37
489.64	19557.52
489.81	20231.59
489.99	20201.16
490.17	20346.28
490.35	20737.15
490.53	20114.56
490.70	20606.08
490.88	20514.80
491.06	20788.64
491.24	21008.65
491.41	20542.88
491.59	20999.29
491.77	20924.39
491.95	21198.23
492.13	21544.63
492.30	21565.70
492.48	21687.40
492.66	21933.16
492.84	21933.16
493.01	22132.11
493.19	22260.84
493.37	22340.41
493.54	22462.12
493.72	22637.66
493.90	22719.58
494.08	23014.49
494.25	22951.29
494.43	23300.03
494.61	23463.87
494.79	23608.98
494.96	23653.45
495.14	23529.41
495.32	24053.69
495.49	23733.03
495.67	24077.09
495.85	24006.87
496.02	24755.85
496.20	24357.96
496.38	24540.52
496.55	24617.75
496.73	25106.93
496.91	24821.38
497.09	25060.12
497.26	25158.42
497.44	25202.89
497.62	25366.73
497.79	25874.62
497.97	25102.25
498.14	25680.36
498.32	25486.09
498.50	25612.48
498.67	26111.02
498.85	26384.86
499.03	26703.17
499.20	26218.68
499.38	26576.78
499.56	26417.63
499.73	26733.60
499.91	26607.21
500.08	26684.45
500.26	26501.89
500.44	26726.58
500.61	26731.26
500.79	26801.47
500.97	27126.81
501.14	27143.19
501.32	27051.91
501.49	26941.91
501.67	27407.67
501.84	27166.60
502.02	27421.72
502.20	27906.21
502.37	27681.52
502.55	28046.64
502.72	28198.77
502.90	28549.85
503.07	28105.15
503.25	28088.77
503.43	28067.70
503.60	28123.88
503.78	28276.01
503.95	28456.23
504.13	28727.74
504.30	29090.52
504.48	28807.31
504.65	28933.70
504.83	29076.48
505.01	29369.04
505.18	29310.53
505.36	29539.90
505.53	29516.50
505.71	29600.76
505.88	30195.25
506.06	29460.32
506.23	30043.12
506.41	29619.48
506.58	29912.05
506.76	29862.90
506.93	30382.49
507.11	30387.18
507.28	30450.37
507.46	30422.28
507.63	30401.22
507.81	30260.79
507.98	30417.60
508.16	30661.02
508.33	30920.82
508.50	30696.13
508.68	30850.60
508.85	31185.30
509.03	31222.75
509.20	31122.10
509.38	31393.61
509.55	31391.26
509.73	31285.94
509.90	31257.85
510.08	31473.18
510.25	31517.65
510.42	31571.49
510.60	31957.67
510.77	32130.87
510.95	32030.23
511.12	32369.61
511.30	32435.14
511.47	32699.62
511.64	32694.94
511.82	32905.59
511.99	32318.12
512.17	32563.87
512.34	32533.45
512.51	32840.06
512.69	32907.93
512.86	32772.18
513.04	33010.92
513.21	32898.57
513.38	33067.09
513.56	32961.76
513.73	32793.25
513.90	32952.40
514.08	33324.55
514.25	33188.80
514.43	33614.77
514.60	33340.93
514.77	33303.48
514.95	33820.74
515.12	34085.22
515.29	33633.50
515.47	34270.12
515.64	34492.47
515.81	33633.50
515.99	33933.09
516.16	34110.97
516.33	33734.14
516.51	33825.42
516.68	33666.27
516.85	33593.71
517.03	34143.74
517.20	34101.61
517.37	34260.76
517.54	34527.58
517.72	34529.92
517.89	34550.99
518.06	34007.98
518.24	34361.40
518.41	34583.76
518.58	34242.04
518.75	34389.49
518.93	35150.17
519.10	34834.19
519.27	35241.45
519.45	35281.24
519.62	35536.35
519.79	35309.32
519.96	35332.73
520.14	35695.51
520.31	35440.39
520.48	35885.09
520.65	35915.52
520.83	36615.34
521.00	36290.01
521.17	36088.72
521.34	36154.26
521.52	36453.84
521.69	36079.36
521.86	36528.74
522.03	36439.80
522.20	36549.81
522.38	36814.29
522.55	36804.92
522.72	36465.55
522.89	36463.21
523.07	36601.30
523.24	36893.86
523.41	36985.15
523.58	36374.27
523.75	37551.56
523.92	37476.66
524.10	37399.42
524.27	37759.86
524.44	37357.29
524.61	37460.27
524.78	37273.03
524.96	37787.95
525.13	37682.62
525.30	37804.33
525.47	38155.41
525.64	37900.29
525.81	37951.79
525.98	37673.26
526.16	37479.00
526.33	37680.28
526.50	38106.26
526.67	37387.72
526.84	37621.77
527.01	37399.42
527.18	37780.93
527.36	38251.38
527.53	38230.31
527.70	38401.17
527.87	38417.55
528.04	38731.18
528.21	38419.89
528.38	38667.99
528.55	38913.75
528.72	38981.62
528.89	38892.68
529.07	39033.11
529.24	38836.51
529.41	38850.55
529.58	38590.75
529.75	38792.04
529.92	39674.42
530.09	38878.64
530.26	39636.97
530.43	39824.22
530.60	39105.67
530.77	39030.77
530.94	39225.04
531.11	39615.91
531.28	39658.04
531.46	39966.99
531.63	39807.83
531.80	39615.91
531.97	39782.09
532.14	39498.88
532.31	39150.14
532.48	39634.63
532.65	40074.65
532.82	39634.63
532.99	39716.55
533.16	39892.09
533.33	40297.00
533.50	40517.01
533.67	40194.02
533.84	39660.38
534.01	40383.60
534.18	40526.38
534.35	41057.68
534.52	40383.60
534.69	40765.11
534.86	41329.18
535.03	40636.38
535.20	41282.37
535.37	41287.05
535.54	41174.70
535.71	41031.93
535.88	40954.69
536.05	41153.64
536.22	41160.66
536.38	41029.59
536.55	40526.38
536.72	40650.42
536.89	40879.80
537.06	40645.74
537.23	41352.58
537.40	41219.17
537.57	41268.33
537.74	41345.56
537.91	41289.39
538.08	41652.17
538.25	41270.67
538.42	41097.47
538.59	41778.56
538.75	41212.15
538.92	41352.58
539.09	41556.21
539.26	41392.37
539.43	41333.86
539.60	41567.91
539.77	41474.29
539.94	41904.95
540.11	41539.83
540.28	41544.51
540.44	41933.04
540.61	41902.61
540.78	41713.03
540.95	41675.58
541.12	41621.75
541.29	41734.09
541.46	41869.84
541.62	42026.66
541.79	42351.99
541.96	41846.44
542.13	41832.39
542.30	42096.88
542.47	42337.95
542.63	42590.73
542.80	42099.22
542.97	42817.76
543.14	42782.65
543.31	42850.53
543.48	42845.85
543.64	43674.40
543.81	43019.05
543.98	43054.15
544.15	42777.97
544.32	43154.80
544.48	43566.73
544.65	42887.98
544.82	43220.33
544.99	42817.76
545.16	43012.02
545.32	43012.02
545.49	43510.56
545.66	43531.62
545.83	43480.13
546.00	43749.29
546.16	43110.33
546.33	43592.48
546.50	43129.05
546.67	43246.08
546.83	42892.66
547.00	43276.51
547.17	43264.80
547.34	43466.09
547.50	43306.93
547.67	43791.42
547.84	43604.18
548.00	44051.22
548.17	43882.70
548.34	44060.58
548.51	44236.12
548.67	43973.98
548.84	44186.97
549.01	43936.54
549.18	44027.82
549.34	44158.89
549.51	44493.58
549.68	44285.28
549.84	44397.62
550.01	44081.65
550.18	44142.50
550.34	44018.46
550.51	44072.29
550.68	44177.61
550.84	44388.26
551.01	44201.02
551.18	44428.05
551.34	44048.88
551.51	44531.03
551.68	44348.47
551.84	44538.05
552.01	44135.48
552.18	44573.16
552.34	44236.12
552.51	44493.58
552.68	44353.15
552.84	44577.84
553.01	44531.03
553.18	44942.97
553.34	44793.17
553.51	44554.44
553.67	44807.22
553.84	44891.48
554.01	44992.12
554.17	44587.21
554.34	44971.05
554.51	44648.06
554.67	45015.52
554.84	45240.21
555.00	44854.03
555.17	44575.50
555.33	45043.61
555.50	45031.91
555.67	45221.49
555.83	44795.51
556.00	45139.57
556.16	45577.25
556.33	45387.67
556.50	44989.78
556.66	44964.03
556.83	44561.46
556.99	45368.94
557.16	45710.66
557.32	45500.01
557.49	45441.50
557.65	44999.14
557.82	45212.13
557.98	45628.74
558.15	45160.64
558.32	45202.77
558.48	45144.25
558.65	45514.06
558.81	45280.00
558.98	44924.24
559.14	44912.54
559.31	45134.89
559.47	45219.15
559.64	45862.80
559.80	45544.48
559.97	45350.22
560.13	44982.76
560.30	45144.25
560.46	45546.82
560.63	45265.96
560.79	45989.19
560.96	45930.67
561.12	45251.92
561.29	45734.07
561.45	45478.95
561.61	45745.77
561.78	45769.18
561.94	45490.65
562.11	45918.97
562.27	45759.81
562.44	45485.97
562.60	46333.24
562.77	45570.23
562.93	45743.43
563.10	45776.20
563.26	45612.36
563.42	45865.14
563.59	45687.26
563.75	45710.66
563.92	46267.71
564.08	45916.63
564.24	46124.94
564.41	46092.17
564.57	46012.59
564.74	45792.58
564.90	45825.35
565.07	46398.78
565.23	46209.20
565.39	46113.23
565.56	45780.88
565.72	45448.52
565.88	46094.51
566.05	45876.84
566.21	46209.20
566.38	45904.93
566.54	45940.04
566.70	46204.52
566.87	46295.80
567.03	45940.04
567.19	46681.98
567.36	46005.57
567.52	45916.63
567.68	45909.61
567.85	45743.43
568.01	45954.08
568.17	45876.84
568.34	46319.20
568.50	45778.54
568.66	45764.49
568.83	46230.26
568.99	45687.26
569.15	46230.26
569.32	45806.62
569.48	45801.94
569.64	46057.06
569.81	45773.86
569.97	46164.73
570.13	45715.34
570.30	45909.61
570.46	46122.60
570.62	45762.15
570.78	45713.00
570.95	45799.60
571.11	45940.04
571.27	45984.51
571.43	45900.25
571.60	46199.83
571.76	45888.54
571.92	46075.79
572.09	46515.81
572.25	46202.18
572.41	46045.36
572.57	46550.91
572.74	46525.17
572.90	45993.87
573.06	46185.79
573.22	46258.35
573.38	46099.19
573.55	46164.73
573.71	46096.85
573.87	46396.44
574.03	46181.11
574.20	46361.33
574.36	45979.82
574.52	45965.78
574.68	46078.13
574.84	46057.06
575.01	46244.30
575.17	45853.44
575.33	45930.67
575.49	45865.14
575.65	46515.81
575.82	46459.63
575.98	46150.68
576.14	46471.34
576.30	46506.44
576.46	46499.42
576.62	46471.34
576.79	46094.51
576.95	46043.02
577.11	46382.40
577.27	46288.77
577.43	46555.60
577.59	46302.82
577.75	46494.74
577.92	46078.13
578.08	45806.62
578.24	45918.97
578.40	45780.88
578.56	46183.45
578.72	46426.87
578.88	46504.10
579.04	46286.43
579.21	46443.25
579.37	46415.16
579.53	46174.09
579.69	46113.23
579.85	46291.12
580.01	46375.37
580.17	46302.82
580.33	46504.10
580.49	46351.97
580.65	46693.69
580.82	46536.87
580.98	46354.31
581.14	46216.22
581.30	46663.26
581.46	46312.18
581.62	46330.90
581.78	46239.62
581.94	46679.64
582.10	46113.23
582.26	46155.36
582.42	46000.89
582.58	46506.44
582.74	46831.78
582.90	46646.88
583.06	46658.58
583.22	46660.92
583.38	46993.28
583.54	46838.80
583.70	46536.87
583.86	46665.60
584.02	46080.47
584.18	46569.64
584.34	46485.38
584.50	46667.94
584.66	46377.72
584.82	46274.73
584.98	46773.27
585.14	46195.15
585.30	46344.95
585.46	46431.55
585.62	46497.08
585.78	46438.57
585.94	46169.41
586.10	46115.58
586.26	46281.75
586.42	46412.82
586.58	46169.41
586.74	46267.71
586.90	46356.65
587.06	46447.93
587.22	46220.90
587.38	46270.05
587.54	46148.34
587.70	46363.67
587.86	46064.08
588.02	46483.04
588.18	46396.44
588.34	46171.75
588.49	46094.51
588.65	45724.71
588.81	45638.11
588.97	45862.80
589.13	45942.38
589.29	45727.05
589.45	46124.94
589.61	46263.03
589.77	46431.55
589.93	46480.70
