SpectraSuite Data File
++++++++++++++++++++++++++++++++++++
Date: Fri Oct 25 10:48:28 EDT 2013
User: price-jones
Dark Spectrum Present: No
Reference Spectrum Present: No
Number of Sampled Component Spectra: 1
Spectrometers: USB2+H05261
Integration Time (usec): 100000 (USB2+H05261)
Spectra Averaged: 1 (USB2+H05261)
Boxcar Smoothing: 0 (USB2+H05261)
Correct for Electrical Dark: No (USB2+H05261)
Strobe/Lamp Enabled: No (USB2+H05261)
Correct for Detector Non-linearity: No (USB2+H05261)
Correct for Stray Light: No (USB2+H05261)
Number of Pixels in Processed Spectrum: 2048
>>>>>Begin Processed Spectral Data<<<<<
365.73	88.94
365.92	88.94
366.12	88.94
366.32	105.32
366.52	23.41
366.72	30.43
366.91	0.00
367.11	39.79
367.31	2.34
367.51	46.81
367.70	11.70
367.90	30.43
368.10	44.47
368.30	37.45
368.49	95.96
368.69	56.17
368.89	39.79
369.09	70.22
369.28	79.58
369.48	67.88
369.68	121.71
369.87	105.32
370.07	74.90
370.27	163.84
370.47	220.01
370.66	318.31
370.86	437.68
371.06	407.25
371.25	507.90
371.45	491.51
371.65	470.45
371.84	486.83
372.04	472.79
372.24	519.60
372.44	489.17
372.63	458.74
372.83	566.41
373.03	573.43
373.22	514.92
373.42	531.30
373.62	564.07
373.81	561.73
374.01	575.77
374.21	585.13
374.40	627.26
374.60	587.47
374.79	645.99
374.99	540.66
375.19	613.22
375.38	589.82
375.58	606.20
375.78	582.79
375.97	678.76
376.17	671.73
376.37	624.92
376.56	638.97
376.76	585.13
376.95	627.26
377.15	655.35
377.35	751.31
377.54	634.29
377.74	711.52
377.93	690.46
378.13	662.37
378.33	695.14
378.52	634.29
378.72	690.46
378.91	683.44
379.11	699.82
379.31	753.65
379.50	608.54
379.70	676.41
379.89	664.71
380.09	650.67
380.28	784.08
380.48	786.42
380.68	674.07
380.87	636.63
381.07	727.91
381.26	692.80
381.46	786.42
381.65	727.91
381.85	751.31
382.04	755.99
382.24	748.97
382.43	741.95
382.63	734.93
382.83	711.52
383.02	788.76
383.22	767.70
383.41	763.01
383.61	837.91
383.80	798.12
384.00	816.85
384.19	866.00
384.39	800.46
384.58	826.21
384.78	875.36
384.97	858.98
385.17	884.72
385.36	812.17
385.56	793.44
385.75	861.32
385.95	896.43
386.14	924.51
386.34	802.80
386.53	847.27
386.72	798.12
386.92	814.51
387.11	901.11
387.31	936.21
387.50	840.25
387.70	926.85
387.89	891.74
388.09	870.68
388.28	877.70
388.48	938.55
388.67	943.24
388.86	990.05
389.06	931.53
389.25	1006.43
389.45	1060.26
389.64	1036.86
389.84	1064.94
390.03	929.19
390.22	915.15
390.42	1013.45
390.61	1015.79
390.81	999.41
391.00	1071.97
391.19	1041.54
391.39	1069.62
391.58	1053.24
391.78	1034.52
391.97	1100.05
392.16	1151.54
392.36	1067.28
392.55	1020.47
392.75	976.00
392.94	1046.22
393.13	1069.62
393.33	1081.33
393.52	1053.24
393.71	1109.41
393.91	1130.48
394.10	1196.01
394.29	1139.84
394.49	1198.35
394.68	1256.87
394.88	1210.06
395.07	1207.72
395.26	1142.18
395.46	1212.40
395.65	1303.68
395.84	1287.29
396.04	1291.98
396.23	1188.99
396.42	1121.12
396.62	1210.06
396.81	1174.95
397.00	1240.48
397.19	1324.74
397.39	1371.55
397.58	1310.70
397.77	1308.36
397.97	1441.77
398.16	1474.54
398.35	1472.20
398.55	1348.15
398.74	1542.41
398.93	1565.82
399.12	1511.99
399.32	1472.20
399.51	1537.73
399.70	1565.82
399.90	1474.54
400.09	1570.50
400.28	1713.27
400.47	1584.54
400.67	1668.80
400.86	1572.84
401.05	1680.50
401.24	1696.89
401.44	1795.19
401.63	1746.04
401.82	1739.02
402.01	1671.14
402.21	1741.36
402.40	1729.66
402.59	1762.42
402.78	1802.21
402.97	1727.32
403.17	1743.70
403.36	1722.63
403.55	1916.90
403.74	1959.03
403.93	1856.04
404.13	1879.45
404.32	1898.17
404.51	1895.83
404.70	1996.48
404.89	2019.88
405.09	1956.69
405.28	2012.86
405.47	1940.30
405.66	1942.64
405.85	1989.46
406.05	2008.18
406.24	2038.61
406.43	2073.71
406.62	2031.58
406.81	2017.54
407.00	2083.08
407.20	2054.99
407.39	2155.63
407.58	2071.37
407.77	2221.17
407.96	2267.98
408.15	2214.15
408.34	2136.91
408.54	2193.08
408.73	2270.32
408.92	2291.38
409.11	2291.38
409.30	2270.32
409.49	2307.77
409.68	2317.13
409.87	2317.13
410.07	2270.32
410.26	2551.18
410.45	2324.15
410.64	2345.22
410.83	2548.84
411.02	2473.95
411.21	2621.40
411.40	2546.50
411.59	2628.42
411.78	2670.55
411.98	2581.61
412.17	2808.64
412.36	2698.64
412.55	2623.74
412.74	2792.26
412.93	2778.22
413.12	2726.72
413.31	2871.84
413.50	2712.68
413.69	2822.69
413.88	2928.01
414.07	2775.88
414.26	2803.96
414.45	3033.33
414.64	2920.99
414.83	2974.82
415.02	2986.52
415.22	2991.20
415.41	3103.55
415.60	3211.22
415.79	3265.05
415.98	3192.49
416.17	3173.77
416.36	3304.84
416.55	3213.56
416.74	3222.92
416.93	3316.54
417.12	3323.56
417.31	3382.07
417.50	3332.92
417.69	3438.25
417.88	3344.63
418.07	3438.25
418.26	3445.27
418.45	3522.51
418.64	3590.38
418.83	3463.99
419.02	3454.63
419.21	3515.48
419.39	3463.99
419.58	3424.20
419.77	3541.23
419.96	3754.22
420.15	3789.33
420.34	3662.94
420.53	3576.34
420.72	3772.94
420.91	3702.73
421.10	3777.62
421.29	3882.95
421.48	3794.01
421.67	3836.14
421.86	3726.13
422.05	3815.07
422.24	3740.18
422.43	3822.09
422.61	3728.47
422.80	3904.01
422.99	3791.67
423.18	3899.33
423.37	4060.83
423.56	3866.56
423.75	3997.64
423.94	3824.44
424.13	3646.55
424.32	3632.51
424.50	4086.58
424.69	3988.27
424.88	4025.72
425.07	3992.95
425.26	3810.39
425.45	3794.01
425.64	3943.80
425.83	3880.61
426.01	4018.70
426.20	4011.68
426.39	4023.38
426.58	4049.13
426.77	3971.89
426.96	3985.93
427.15	3997.64
427.33	4145.09
427.52	4002.32
427.71	4093.60
427.90	4159.13
428.09	4147.43
428.28	4131.05
428.46	4152.11
428.65	4180.20
428.84	4231.69
429.03	4243.39
429.22	4187.22
429.40	4196.58
429.59	4037.42
429.78	4063.17
429.97	4002.32
430.16	4044.45
430.34	4145.09
430.53	4231.69
430.72	4344.03
430.91	4400.21
431.10	4341.69
431.28	4486.81
431.47	4603.83
431.66	4699.80
431.85	4484.47
432.03	4711.50
432.22	4760.65
432.41	4688.09
432.60	4739.58
432.79	4709.16
432.97	4571.07
433.16	4774.69
433.35	4718.52
433.54	4634.26
433.72	4627.24
433.91	4589.79
434.10	4697.46
434.28	4765.33
434.47	4788.74
434.66	4868.31
434.85	4847.25
435.03	4980.66
435.22	4952.57
435.41	5210.03
435.59	4994.70
435.78	5029.81
435.97	5149.18
436.16	5362.17
436.34	5100.03
436.53	5069.60
436.72	5181.95
436.90	4938.53
437.09	5195.99
437.28	5109.39
437.46	5170.24
437.65	5163.22
437.84	5282.59
438.02	5057.90
438.21	5116.41
438.40	5137.48
438.58	5399.62
438.77	5448.77
438.96	5345.78
439.14	5645.37
439.33	5572.82
439.52	5703.89
439.70	5521.32
439.89	5624.31
440.08	5636.01
440.26	5621.97
440.45	5633.67
440.63	5792.83
440.82	5893.47
441.01	5996.45
441.19	5872.40
441.38	6054.97
441.57	6071.35
441.75	6111.14
441.94	6291.36
442.12	6160.29
442.31	6235.19
442.50	6223.48
442.68	6167.31
442.87	6354.55
443.05	6239.87
443.24	6368.60
443.43	6326.47
443.61	6487.96
443.80	6705.63
443.98	6384.98
444.17	6310.08
444.35	6445.84
444.54	6572.22
444.73	6394.34
444.91	6511.37
445.10	6436.47
445.28	6502.01
445.47	6303.06
445.65	6392.00
445.84	6574.56
446.02	6478.60
446.21	6640.10
446.39	6408.39
446.58	6609.67
446.77	6572.22
446.95	6583.93
447.14	6771.17
447.32	6647.12
447.51	6750.10
447.69	6689.25
447.88	6832.02
448.06	6766.49
448.25	6661.16
448.43	6647.12
448.62	6733.72
448.80	6612.01
448.99	6806.28
449.17	6780.53
449.36	6862.45
449.54	6855.43
449.73	6956.07
449.91	7005.22
450.10	7005.22
450.28	7206.51
450.46	7155.02
450.65	7124.59
450.83	7297.79
451.02	7178.42
451.20	7253.32
451.39	7112.89
451.57	7213.53
451.76	7080.12
451.94	7225.23
452.13	7297.79
452.31	7272.04
452.49	6986.50
452.68	7229.91
452.86	7201.83
453.05	7363.33
453.23	7281.41
453.42	7180.76
453.60	7452.27
453.78	7618.44
453.97	7311.83
454.15	7417.16
454.34	7335.24
454.52	7646.53
454.70	7372.69
454.89	7489.71
455.07	7576.31
455.26	7730.79
455.44	7634.83
455.62	7803.35
455.81	7716.75
455.99	7611.42
456.17	7866.54
456.36	7700.36
456.54	7932.08
456.73	7840.79
456.91	8187.19
457.09	7889.95
457.28	8313.58
457.46	7999.95
457.64	8086.55
457.83	8023.36
458.01	7960.16
458.19	8170.81
458.38	8093.57
458.56	8140.38
458.74	8203.58
458.93	8325.29
459.11	8168.47
459.29	8234.00
459.48	8229.32
459.66	8341.67
459.84	8423.59
460.03	8423.59
460.21	8540.61
460.39	8423.59
460.57	8374.44
460.76	8484.44
460.94	8531.25
461.12	8695.09
461.31	8493.80
461.49	8603.81
461.67	8573.38
461.85	8786.37
462.04	8683.39
462.22	9259.16
462.40	8847.22
462.59	8982.98
462.77	8788.71
462.95	8884.67
463.13	8809.78
463.32	8727.86
463.50	8931.48
463.68	9001.70
463.86	8959.57
464.05	8858.93
464.23	8943.19
464.41	9261.50
464.59	8758.28
464.78	9071.92
464.96	9032.13
465.14	8870.63
465.32	9111.71
465.50	9226.39
465.69	9280.22
465.87	9275.54
466.05	8950.21
466.23	9121.07
466.41	9329.38
466.60	9432.36
466.78	9312.99
466.96	9177.24
467.14	9210.01
467.32	9523.64
467.51	9621.94
467.69	9149.15
467.87	9397.25
468.05	9488.53
468.23	9256.82
468.41	9507.26
468.60	9301.29
468.78	9547.05
468.96	9530.66
469.14	9612.58
469.32	9907.49
469.50	9593.86
469.69	9781.10
469.87	9703.86
470.05	9689.82
470.23	9811.53
470.41	9966.00
470.59	9715.56
470.77	9832.59
470.95	10008.13
471.14	10122.82
471.32	9980.04
471.50	10174.31
471.68	10326.44
471.86	10251.55
472.04	10448.15
472.22	10654.12
472.40	10265.59
472.58	10422.41
472.77	10375.59
472.95	10696.25
473.13	10860.09
473.31	10541.77
473.49	10583.90
473.67	10436.45
473.85	10562.84
474.03	10871.79
474.21	10890.51
474.39	11061.37
474.57	10846.04
474.75	11262.66
474.93	11136.27
475.12	11080.10
475.30	11297.77
475.48	11229.89
475.66	11335.21
475.84	11405.43
476.02	11414.79
476.20	11658.21
476.38	11620.76
476.56	11819.71
476.74	11698.00
476.92	11698.00
477.10	11721.40
477.28	11946.09
477.46	11808.00
477.64	12229.30
477.82	12367.39
478.00	12692.73
478.18	12409.52
478.36	12381.43
478.54	12620.17
478.72	12872.95
478.90	12950.18
479.08	13261.48
479.26	13097.64
479.44	13394.89
479.62	13118.70
479.80	13383.18
479.98	13511.91
480.16	13621.92
480.34	13701.50
480.52	13776.39
480.70	13701.50
480.88	13696.82
481.06	13879.38
481.24	13844.27
481.41	14178.97
481.59	14469.19
481.77	14600.26
481.95	14427.06
482.13	14511.32
482.31	14572.18
482.49	14773.46
482.67	14569.83
482.85	14967.73
483.03	15112.84
483.21	15454.56
483.39	15152.63
483.57	15379.66
483.74	15309.44
483.92	15571.58
484.10	15646.48
484.28	16030.33
484.46	16102.89
484.64	16421.20
484.82	15990.54
485.00	16137.99
485.18	16496.10
485.35	16386.09
485.53	16259.70
485.71	16395.45
485.89	16666.95
486.07	16741.85
486.25	16587.38
486.43	16919.73
486.61	16961.86
486.78	17385.50
486.96	17280.18
487.14	18054.89
487.32	17743.60
487.50	17788.07
487.68	18232.77
487.85	18391.93
488.03	18630.66
488.21	18665.77
488.39	18607.26
488.57	18745.35
488.75	18689.18
488.92	19070.68
489.10	19297.72
489.28	19073.03
489.46	19681.56
489.64	19683.91
489.81	20032.65
489.99	20116.90
490.17	19953.07
490.35	20538.20
490.53	20027.96
490.70	20622.46
490.88	20400.11
491.06	21081.21
491.24	20624.80
491.41	20769.91
491.59	20917.37
491.77	20828.43
491.95	20999.29
492.13	21383.13
492.30	21448.67
492.48	21834.86
492.66	21914.44
492.84	21701.45
493.01	22277.22
493.19	22209.34
493.37	22333.39
493.54	22628.30
493.72	22565.10
493.90	22415.31
494.08	22810.86
494.25	23087.04
494.43	23461.53
494.61	23550.47
494.79	23339.82
494.96	23396.00
495.14	23639.41
495.32	23730.69
495.49	23674.52
495.67	23861.76
495.85	24065.39
496.02	24332.21
496.20	24322.85
496.38	24568.60
496.55	24491.37
496.73	25181.82
496.91	24704.35
497.09	25116.29
497.26	25092.88
497.44	24994.58
497.62	25511.84
497.79	25418.22
497.97	25233.32
498.14	25343.32
498.32	25680.36
498.50	25682.70
498.67	25771.64
498.85	25869.94
499.03	26089.95
499.20	26583.80
499.38	26473.80
499.56	26462.10
499.73	26340.39
499.91	26480.82
500.08	27070.64
500.26	26457.42
500.44	26707.85
500.61	26881.05
500.79	26906.80
500.97	26923.18
501.14	27398.31
501.32	27117.45
501.49	27229.79
501.67	27213.41
501.84	27346.82
502.02	27405.33
502.20	27946.00
502.37	27941.32
502.55	27742.37
502.72	28051.32
502.90	28016.21
503.07	28048.98
503.25	28451.55
503.43	28023.23
503.60	28180.05
503.78	28264.31
503.95	28318.14
504.13	28435.17
504.30	28978.17
504.48	28643.48
504.65	29053.07
504.83	29071.79
505.01	29298.83
505.18	29116.26
505.36	29881.62
505.53	29359.68
505.71	30108.65
505.88	30260.79
506.06	29406.49
506.23	29736.51
506.41	29567.99
506.58	29989.28
506.76	30230.36
506.93	30244.40
507.11	29944.81
507.28	30263.13
507.46	29968.22
507.63	30307.60
507.81	30686.76
507.98	30087.59
508.16	30436.33
508.33	30581.44
508.50	30630.59
508.68	31108.06
508.85	31218.07
509.03	30967.63
509.20	31225.09
509.38	31082.31
509.55	31477.86
509.73	31758.73
509.90	31447.44
510.08	31807.88
510.25	31534.04
510.42	31952.99
510.60	31709.58
510.77	32144.92
510.95	32381.31
511.12	32236.20
511.30	31990.44
511.47	32713.67
511.64	32306.41
511.82	32786.22
511.99	32311.10
512.17	32624.73
512.34	32055.98
512.51	32877.51
512.69	32907.93
512.86	32966.45
513.04	33120.92
513.21	32903.25
513.38	32500.68
513.56	32954.74
513.73	32980.49
513.90	33446.26
514.08	33354.97
514.25	33333.91
514.43	33376.04
514.60	33212.20
514.77	33008.58
514.95	33670.95
515.12	33766.91
515.29	33926.07
515.47	34251.40
515.64	33895.64
515.81	34176.50
515.99	33621.80
516.16	33647.54
516.33	33851.17
516.51	33979.90
516.68	33673.29
516.85	33488.38
517.03	34019.69
517.20	33919.04
517.37	34450.35
517.54	34209.27
517.72	34309.91
517.89	34256.08
518.06	34330.98
518.24	34668.02
518.41	33963.51
518.58	34576.73
518.75	34558.01
518.93	35409.96
519.10	35005.05
519.27	34930.16
519.45	35360.81
519.62	35274.21
519.79	35489.54
519.96	35545.72
520.14	35941.27
520.31	35587.85
520.48	35735.30
520.65	35920.20
520.83	36077.02
521.00	36086.38
521.17	35903.82
521.34	36282.98
521.52	36470.23
521.69	36065.31
521.86	35838.28
522.03	36182.34
522.20	36624.70
522.38	36423.42
522.55	36542.78
522.72	36676.19
522.89	36746.41
523.07	36570.87
523.24	36414.05
523.41	37125.58
523.58	36797.90
523.75	37471.98
523.92	37469.64
524.10	37621.77
524.27	37448.57
524.44	37200.47
524.61	37734.12
524.78	37865.19
524.96	37471.98
525.13	37518.79
525.30	38319.25
525.47	37797.31
525.64	38096.90
525.81	37993.92
525.98	37659.22
526.16	37404.10
526.33	37350.27
526.50	37703.69
526.67	37113.87
526.84	37642.84
527.01	37846.46
527.18	37691.99
527.36	38394.15
527.53	38775.66
527.70	38721.82
527.87	38562.67
528.04	38735.87
528.21	38810.76
528.38	38768.63
528.55	38590.75
528.72	38911.41
528.89	38986.30
529.07	39274.19
529.24	38773.31
529.41	39028.43
529.58	38796.72
529.75	39321.00
529.92	39159.50
530.09	39143.12
530.26	39288.23
530.43	39386.54
530.60	39187.59
530.77	39438.03
530.94	39615.91
531.11	39367.81
531.28	40100.40
531.46	39945.92
531.63	39908.47
531.80	39924.86
531.97	39629.95
532.14	39749.32
532.31	39672.08
532.48	39566.76
532.65	40212.74
532.82	39562.08
532.99	40210.40
533.16	40149.55
533.33	39821.87
533.50	40531.06
533.67	40163.59
533.84	40325.09
534.01	40112.10
534.18	40360.20
534.35	40069.97
534.52	40636.38
534.69	40652.76
534.86	40837.67
535.03	40304.02
535.20	40809.58
535.37	41095.13
535.54	41649.83
535.71	40568.51
535.88	41088.10
536.05	40671.49
536.22	41109.17
536.38	40837.67
536.55	41179.39
536.72	41289.39
536.89	40938.31
537.06	40952.35
537.23	41181.73
537.40	41373.65
537.57	41216.83
537.74	41261.30
537.91	42202.20
538.08	41326.84
538.25	41003.85
538.42	41312.80
538.59	42036.02
538.75	41109.17
538.92	41710.69
539.09	41521.10
539.26	41937.72
539.43	41436.84
539.60	41581.96
539.77	41698.98
539.94	41551.53
540.11	41844.10
540.28	41633.45
540.44	41640.47
540.61	41556.21
540.78	41792.61
540.95	42057.09
541.12	41734.09
541.29	42129.64
541.46	42007.94
541.62	42120.28
541.79	42602.43
541.96	42117.94
542.13	42256.03
542.30	42485.40
542.47	42904.36
542.63	42043.04
542.80	42789.67
542.97	43091.60
543.14	43253.10
543.31	42649.24
543.48	42876.27
543.64	43676.74
543.81	43192.25
543.98	42733.50
544.15	42628.18
544.32	43405.23
544.48	43229.69
544.65	43199.27
544.82	43107.99
544.99	42483.06
545.16	43234.38
545.32	43185.22
545.49	43262.46
545.66	43634.61
545.83	43634.61
546.00	43952.92
546.16	43885.04
546.33	43653.33
546.50	43222.67
546.67	43718.87
546.83	43194.59
547.00	43402.89
547.17	43693.12
547.34	43407.58
547.50	43772.70
547.67	43789.08
547.84	43753.97
548.00	44163.57
548.17	44156.55
548.34	43711.84
548.51	44257.19
548.67	44105.06
548.84	44158.89
549.01	44535.71
549.18	44161.23
549.34	44168.25
549.51	44341.45
549.68	44313.36
549.84	44275.91
550.01	44191.65
550.18	44037.18
550.34	44142.50
550.51	44294.64
550.68	44060.58
550.84	44018.46
551.01	44545.08
551.18	44378.90
551.34	44292.30
551.51	44772.11
551.68	44580.18
551.84	44687.85
552.01	44371.88
552.18	44547.42
552.34	44226.76
552.51	44744.02
552.68	44802.53
552.84	45001.48
553.01	45099.78
553.18	44800.19
553.34	44495.92
553.51	44914.88
553.67	45268.30
553.84	45193.40
554.01	45205.11
554.17	44957.01
554.34	45205.11
554.51	45315.11
554.67	44741.68
554.84	44945.31
555.00	44617.63
555.17	44945.31
555.33	45305.75
555.50	44811.90
555.67	45441.50
555.83	45366.60
556.00	45146.59
556.16	45626.40
556.33	45474.27
556.50	45373.63
556.66	45443.84
556.83	45006.16
556.99	45455.54
557.16	45511.72
557.32	45382.99
557.49	45272.98
557.65	45179.36
557.82	45584.27
557.98	45944.72
558.15	45570.23
558.32	45806.62
558.48	45588.95
558.65	45673.21
558.81	45619.38
558.98	45698.96
559.14	45338.52
559.31	45347.88
559.47	45504.70
559.64	45935.35
559.80	46017.27
559.97	45900.25
560.13	45874.50
560.30	45574.91
560.46	45893.22
560.63	45677.90
560.79	45944.72
560.96	45982.16
561.12	45427.46
561.29	45937.69
561.45	45872.16
561.61	45940.04
561.78	45591.30
561.94	45886.20
562.11	45783.22
562.27	45759.81
562.44	45963.44
562.60	46307.50
562.77	46335.59
562.93	45722.37
563.10	46075.79
563.26	46066.42
563.42	46190.47
563.59	46087.49
563.75	46075.79
563.92	46122.60
564.08	46576.66
564.24	46405.80
564.41	46059.40
564.57	46440.91
564.74	46089.83
564.90	46298.14
565.07	46164.73
565.23	45823.01
565.39	46256.01
565.56	46153.02
565.72	45867.48
565.88	46106.21
566.05	45925.99
566.21	45996.21
566.38	46183.45
566.54	45872.16
566.70	46564.96
566.87	46232.60
567.03	46370.69
567.19	46625.81
567.36	46106.21
567.52	45916.63
567.68	46499.42
567.85	45956.42
568.01	46164.73
568.17	46438.57
568.34	46316.86
568.50	46096.85
568.66	46333.24
568.83	46197.49
568.99	46349.63
569.15	46141.32
569.32	46553.26
569.48	46202.18
569.64	46375.37
569.81	46553.26
569.97	46192.81
570.13	46602.41
570.30	46021.95
570.46	46340.27
570.62	46192.81
570.78	46433.89
570.95	46225.58
571.11	46752.20
571.27	46630.49
571.43	46389.42
571.60	46293.46
571.76	46248.99
571.92	46412.82
572.09	46321.54
572.25	46202.18
572.41	46356.65
572.57	46450.27
572.74	46880.93
572.90	46843.48
573.06	46784.97
573.22	46740.50
573.38	46845.82
573.55	46452.61
573.71	46782.63
573.87	46862.21
574.03	46548.57
574.20	46429.21
574.36	46335.59
574.52	46387.08
574.68	46398.78
574.84	46560.28
575.01	46534.53
575.17	46691.35
575.33	46560.28
575.49	46045.36
575.65	46630.49
575.82	46937.10
575.98	46450.27
576.14	46794.33
576.30	46637.51
576.46	46672.62
576.62	46635.17
576.79	46623.47
576.95	46298.14
577.11	46342.61
577.27	46890.29
577.43	46625.81
577.59	46653.90
577.75	46511.13
577.92	46160.05
578.08	46185.79
578.24	45965.78
578.40	46527.51
578.56	46258.35
578.72	46473.68
578.88	46670.28
579.04	46630.49
579.21	46745.18
579.37	46305.16
579.53	46607.09
579.69	46674.96
579.85	46911.36
580.01	46178.77
580.17	46742.84
580.33	46902.00
580.49	46768.58
580.65	46698.37
580.82	46796.67
580.98	46777.95
581.14	46483.04
581.30	46564.96
581.46	46590.70
581.62	46815.40
581.78	47112.64
581.94	46958.17
582.10	46953.49
582.26	46934.76
582.42	47084.56
582.58	46761.56
582.74	46405.80
582.90	46733.48
583.06	47016.68
583.22	46614.11
583.38	46916.04
583.54	46981.57
583.70	46600.07
583.86	46492.40
584.02	46211.54
584.18	47014.34
584.34	46843.48
584.50	46651.56
584.66	46632.83
584.82	46871.57
584.98	46789.65
585.14	46855.18
585.30	46555.60
585.46	47056.47
585.62	46897.31
585.78	46323.88
585.94	46333.24
586.10	46579.00
586.26	46251.33
586.42	46515.81
586.58	47119.66
586.74	46803.69
586.90	46770.93
587.06	46794.33
587.22	47145.41
587.38	46272.39
587.54	47110.30
587.70	46562.62
587.86	46719.43
588.02	46424.53
588.18	46525.17
588.34	46724.11
588.49	46307.50
588.65	46281.75
588.81	46101.53
588.97	46160.05
589.13	46419.84
589.29	46246.65
589.45	46094.51
589.61	46497.08
589.77	47068.17
589.93	46740.50
