SpectraSuite Data File
++++++++++++++++++++++++++++++++++++
Date: Fri Oct 25 11:34:10 EDT 2013
User: price-jones
Dark Spectrum Present: No
Reference Spectrum Present: No
Number of Sampled Component Spectra: 1
Spectrometers: USB2+H05261
Integration Time (usec): 100000 (USB2+H05261)
Spectra Averaged: 1 (USB2+H05261)
Boxcar Smoothing: 0 (USB2+H05261)
Correct for Electrical Dark: No (USB2+H05261)
Strobe/Lamp Enabled: No (USB2+H05261)
Correct for Detector Non-linearity: No (USB2+H05261)
Correct for Stray Light: No (USB2+H05261)
Number of Pixels in Processed Spectrum: 2048
>>>>>Begin Processed Spectral Data<<<<<
365.73	245.76
365.92	245.76
366.12	245.76
366.32	208.31
366.52	133.41
366.72	147.45
366.91	126.39
367.11	133.41
367.31	238.73
367.51	184.90
367.70	119.37
367.90	222.35
368.10	217.67
368.30	173.20
368.49	264.48
368.69	168.52
368.89	227.03
369.09	198.95
369.28	166.18
369.48	236.39
369.68	201.29
369.87	196.60
370.07	222.35
370.27	269.16
370.47	311.29
370.66	430.66
370.86	489.17
371.06	561.73
371.25	552.37
371.45	507.90
371.65	489.17
371.84	535.98
372.04	571.09
372.24	519.60
372.44	585.13
372.63	566.41
372.83	580.45
373.03	636.63
373.22	624.92
373.42	727.91
373.62	655.35
373.81	688.12
374.01	613.22
374.21	681.10
374.40	664.71
374.60	643.65
374.79	727.91
374.99	720.88
375.19	662.37
375.38	615.56
375.58	615.56
375.78	599.18
375.97	664.71
376.17	730.25
376.37	557.05
376.56	697.48
376.76	681.10
376.95	653.01
377.15	753.65
377.35	678.76
377.54	793.44
377.74	641.31
377.93	636.63
378.13	695.14
378.33	720.88
378.52	688.12
378.72	727.91
378.91	730.25
379.11	770.04
379.31	741.95
379.50	744.29
379.70	746.63
379.89	753.65
380.09	725.57
380.28	770.04
380.48	723.23
380.68	746.63
380.87	706.84
381.07	741.95
381.26	826.21
381.46	837.91
381.65	746.63
381.85	713.86
382.04	744.29
382.24	718.54
382.43	739.61
382.63	772.38
382.83	725.57
383.02	863.66
383.22	748.97
383.41	784.08
383.61	777.06
383.80	863.66
384.00	851.96
384.19	704.50
384.39	809.83
384.58	851.96
384.78	851.96
384.97	828.55
385.17	781.74
385.36	844.93
385.56	844.93
385.75	840.25
385.95	812.17
386.14	875.36
386.34	809.83
386.53	854.30
386.72	826.21
386.92	903.45
387.11	812.17
387.31	837.91
387.50	924.51
387.70	896.43
387.89	880.04
388.09	861.32
388.28	898.77
388.48	847.27
388.67	919.83
388.86	908.13
389.06	940.90
389.25	915.15
389.45	875.36
389.64	947.92
389.84	950.26
390.03	929.19
390.22	957.28
390.42	926.85
390.61	954.94
390.81	985.37
391.00	957.28
391.19	947.92
391.39	1102.39
391.58	997.07
391.78	896.43
391.97	1043.88
392.16	987.71
392.36	922.17
392.55	992.39
392.75	1046.22
392.94	966.64
393.13	1008.77
393.33	980.68
393.52	1067.28
393.71	1137.50
393.91	1083.67
394.10	1076.65
394.29	1102.39
394.49	1107.07
394.68	1111.75
394.88	1011.11
395.07	1130.48
395.26	1137.50
395.46	1177.29
395.65	1144.52
395.84	1179.63
396.04	1142.18
396.23	1142.18
396.42	1135.16
396.62	1240.48
396.81	1114.10
397.00	1205.38
397.19	1207.72
397.39	1217.08
397.58	1282.61
397.77	1270.91
397.97	1254.53
398.16	1310.70
398.35	1270.91
398.55	1273.25
398.74	1198.35
398.93	1273.25
399.12	1306.02
399.32	1357.51
399.51	1331.76
399.70	1416.02
399.90	1287.29
400.09	1416.02
400.28	1420.71
400.47	1308.36
400.67	1348.15
400.86	1289.64
401.05	1444.11
401.24	1373.89
401.44	1357.51
401.63	1434.75
401.82	1385.60
402.01	1376.24
402.21	1493.26
402.40	1430.07
402.59	1434.75
402.78	1493.26
402.97	1533.05
403.17	1434.75
403.36	1455.81
403.55	1535.39
403.74	1533.05
403.93	1582.20
404.13	1490.92
404.32	1537.73
404.51	1516.67
404.70	1589.22
404.89	1619.65
405.09	1668.80
405.28	1572.84
405.47	1633.69
405.66	1692.21
405.85	1666.46
406.05	1699.23
406.24	1673.48
406.43	1682.85
406.62	1783.49
406.81	1795.19
407.00	1708.59
407.20	1788.17
407.39	1778.81
407.58	1870.09
407.77	1879.45
407.96	1853.70
408.15	1980.09
408.34	1813.92
408.54	1961.37
408.73	1940.30
408.92	1860.73
409.11	1846.68
409.30	1867.75
409.49	1947.33
409.68	1893.49
409.87	1870.09
410.07	2038.61
410.26	2003.50
410.45	1891.15
410.64	2015.20
410.83	2045.63
411.02	2122.87
411.21	2066.69
411.40	2069.03
411.59	2148.61
411.78	2132.23
411.98	2106.48
412.17	2188.40
412.36	2150.95
412.55	2303.09
412.74	2368.62
412.93	2307.77
413.12	2265.64
413.31	2483.31
413.50	2289.04
413.69	2258.62
413.88	2382.67
414.07	2331.17
414.26	2403.73
414.45	2401.39
414.64	2473.95
414.83	2450.54
415.02	2499.69
415.22	2647.15
415.41	2597.99
415.60	2616.72
415.79	2562.89
415.98	2597.99
416.17	2649.49
416.36	2677.57
416.55	2647.15
416.74	2672.89
416.93	2679.91
417.12	2768.85
417.31	2801.62
417.50	2808.64
417.69	2890.56
417.88	2918.65
418.07	2789.92
418.26	2806.30
418.45	2818.00
418.64	2890.56
418.83	2946.73
419.02	3091.85
419.21	3019.29
419.39	3136.32
419.58	3026.31
419.77	3030.99
419.96	3049.72
420.15	3155.04
420.34	3133.98
420.53	3066.10
420.72	3129.30
420.91	3047.38
421.10	3141.00
421.29	3227.60
421.48	3220.58
421.67	3185.47
421.86	3150.36
422.05	3108.23
422.24	3208.87
422.43	3356.33
422.61	3325.90
422.80	3407.82
422.99	3321.22
423.18	3309.52
423.37	3426.54
423.56	3346.97
423.75	3368.03
423.94	3234.62
424.13	3108.23
424.32	3286.11
424.50	3342.28
424.69	3503.78
424.88	3559.95
425.07	3368.03
425.26	3405.48
425.45	3314.20
425.64	3377.39
425.83	3480.38
426.01	3375.05
426.20	3417.18
426.39	3417.18
426.58	3475.70
426.77	3346.97
426.96	3424.20
427.15	3412.50
427.33	3461.65
427.52	3419.52
427.71	3489.74
427.90	3419.52
428.09	3602.08
428.28	3660.60
428.46	3562.30
428.65	3763.58
428.84	3660.60
429.03	3623.15
429.22	3576.34
429.40	3630.17
429.59	3700.39
429.78	3456.97
429.97	3552.93
430.16	3805.71
430.34	3688.68
430.53	3873.59
430.72	3698.05
430.91	3840.82
431.10	3705.07
431.28	3997.64
431.47	3768.26
431.66	3831.46
431.85	3796.35
432.03	3983.59
432.22	3992.95
432.41	3985.93
432.60	3936.78
432.79	4028.06
432.97	3906.35
433.16	4009.34
433.35	3976.57
433.54	4063.17
433.72	4121.68
433.91	3941.46
434.10	4107.64
434.28	4030.40
434.47	4145.09
434.66	4163.81
434.85	4236.37
435.03	4191.90
435.22	4250.41
435.41	4308.93
435.59	4182.54
435.78	4224.67
435.97	4257.43
436.16	4318.29
436.34	4252.75
436.53	4381.48
436.72	4505.53
436.90	4318.29
437.09	4461.06
437.28	4304.25
437.46	4400.21
437.65	4463.40
437.84	4521.92
438.02	4447.02
438.21	4376.80
438.40	4458.72
438.58	4620.22
438.77	4650.64
438.96	4699.80
439.14	4674.05
439.33	4816.82
439.52	4788.74
439.70	4741.93
439.89	4933.85
440.08	4863.63
440.26	4788.74
440.45	4910.44
440.63	4898.74
440.82	5013.43
441.01	5093.01
441.19	5114.07
441.38	5181.95
441.57	5170.24
441.75	5034.49
441.94	5217.05
442.12	5118.75
442.31	5247.48
442.50	5334.08
442.68	5385.57
442.87	5291.95
443.05	5406.64
443.24	5416.00
443.43	5408.98
443.61	5416.00
443.80	5645.37
443.98	5423.02
444.17	5153.86
444.35	5305.99
444.54	5488.56
444.73	5509.62
444.91	5472.17
445.10	5434.72
445.28	5416.00
445.47	5451.11
445.65	5575.16
445.84	5661.76
446.02	5680.48
446.21	5682.82
446.39	5488.56
446.58	5661.76
446.77	5504.94
446.95	5437.06
447.14	5493.24
447.32	5544.73
447.51	5542.39
447.69	5619.63
447.88	5483.88
448.06	5673.46
448.25	5596.22
448.43	5598.56
448.62	5767.08
448.80	5926.24
448.99	5701.54
449.17	5680.48
449.36	5675.80
449.54	5959.00
449.73	5783.46
449.91	6115.82
450.10	5879.43
450.28	6136.88
450.46	5968.37
450.65	5928.58
450.83	6033.90
451.02	5998.79
451.20	6045.60
451.39	5888.79
451.57	5998.79
451.76	6029.22
451.94	6040.92
452.13	6019.86
452.31	6197.74
452.49	6001.13
452.68	6260.93
452.86	6148.59
453.05	6054.97
453.23	6377.96
453.42	6076.03
453.60	6169.65
453.78	6317.11
453.97	6064.33
454.15	6242.21
454.34	6101.78
454.52	6347.53
454.70	6464.56
454.89	6448.18
455.07	6256.25
455.26	6511.37
455.44	6558.18
455.62	6499.67
455.81	6469.24
455.99	6548.82
456.17	6703.29
456.36	6576.91
456.54	6635.42
456.73	6670.53
456.91	6803.94
457.09	6803.94
457.28	6944.37
457.46	6927.99
457.64	6902.24
457.83	7073.10
458.01	6719.68
458.19	7157.36
458.38	6906.92
458.56	6953.73
458.74	7136.29
458.93	7204.17
459.11	7211.19
459.29	7105.87
459.48	7199.49
459.66	7005.22
459.84	7197.15
460.03	7260.34
460.21	7274.38
460.39	7206.51
460.57	7314.17
460.76	7344.60
460.94	7372.69
461.12	7187.79
461.31	7288.43
461.49	7281.41
461.67	7353.96
461.85	7407.80
462.04	7487.37
462.22	7782.28
462.40	7433.54
462.59	7719.09
462.77	7674.62
462.95	7894.63
463.13	7597.38
463.32	7726.11
463.50	7658.23
463.68	7936.76
463.86	7700.36
464.05	7461.63
464.23	7779.94
464.41	7749.51
464.59	7513.12
464.78	7707.38
464.96	7728.45
465.14	7641.85
465.32	7868.88
465.50	7737.81
465.69	7950.80
465.87	7983.57
466.05	7859.52
466.23	7988.25
466.41	7875.90
466.60	8049.10
466.78	7903.99
466.96	7978.89
467.14	7922.71
467.32	8131.02
467.51	7948.46
467.69	8126.34
467.87	8121.66
468.05	8074.85
468.23	8086.55
468.41	8091.23
468.60	8184.85
468.78	8187.19
468.96	8351.03
469.14	8243.37
469.32	8456.36
469.50	8381.46
469.69	8437.63
469.87	8549.98
470.05	8564.02
470.23	8526.57
470.41	8435.29
470.59	8573.38
470.77	8592.11
470.95	8578.06
471.14	8849.57
471.32	8557.00
471.50	8702.11
471.68	8734.88
471.86	8978.30
472.04	9004.04
472.22	9067.24
472.40	8819.14
472.58	8940.85
472.77	8978.30
472.95	9048.51
473.13	9355.12
473.31	9128.09
473.49	9160.86
473.67	9048.51
473.85	9289.59
474.03	9394.91
474.21	9275.54
474.39	9610.24
474.57	9659.39
474.75	9603.22
474.93	9549.39
475.12	9441.72
475.30	9872.38
475.48	9790.46
475.66	10015.15
475.84	9673.43
476.02	9783.44
476.20	10073.67
476.38	10064.30
476.56	10263.25
476.74	10342.83
476.92	10317.08
477.10	10286.65
477.28	10490.28
477.46	10487.94
477.64	10354.53
477.82	10785.19
478.00	10874.13
478.18	10640.08
478.36	10953.71
478.54	11136.27
478.72	10991.16
478.90	11302.45
479.08	11358.62
479.26	11536.50
479.44	11485.01
479.62	11496.71
479.80	11597.35
479.98	11454.58
480.16	11822.05
480.34	11808.00
480.52	12049.08
480.70	11815.02
480.88	11873.54
481.06	11882.90
481.24	12142.70
481.41	12219.94
481.59	12348.67
481.77	12404.84
481.95	12386.12
482.13	12720.81
482.31	12676.34
482.49	13046.15
482.67	13055.51
482.85	13158.49
483.03	13324.67
483.21	13364.46
483.39	13247.43
483.57	13577.45
483.74	13736.60
483.92	13540.00
484.10	13422.97
484.28	14061.94
484.46	14225.78
484.64	14225.78
484.82	14090.02
485.00	14431.74
485.18	14618.99
485.35	14537.07
485.53	14642.39
485.71	14686.86
485.89	15117.52
486.07	14888.15
486.25	14965.39
486.43	15068.37
486.61	15143.27
486.78	15281.36
486.96	15440.51
487.14	15583.29
487.32	15810.32
487.50	15920.32
487.68	16154.38
487.85	16463.33
488.03	16212.89
488.21	16362.69
488.39	16367.37
488.57	16556.95
488.75	16685.68
488.92	17144.42
489.10	17043.78
489.28	16985.27
489.46	17366.78
489.64	17085.91
489.81	17507.21
489.99	17547.00
490.17	17769.35
490.35	18071.28
490.53	17895.74
490.70	18391.93
490.88	18146.17
491.06	18595.56
491.24	18209.37
491.41	18787.48
491.59	18548.75
491.77	18523.00
491.95	18911.53
492.13	18888.12
492.30	19023.87
492.48	19176.01
492.66	19527.09
492.84	19283.67
493.01	19590.28
493.19	19604.33
493.37	19845.40
493.54	19573.90
493.72	19850.08
493.90	19857.10
494.08	20245.63
494.25	20500.75
494.43	20343.94
494.61	20589.69
494.79	20620.12
494.96	20465.64
495.14	20889.28
495.32	20994.61
495.49	21394.84
495.67	20992.26
495.85	21474.42
496.02	21703.79
496.20	21914.44
496.38	21745.92
496.55	21991.67
496.73	22335.73
496.91	21851.24
497.09	21839.54
497.26	22338.07
497.44	22038.48
497.62	22459.78
497.79	23133.86
497.97	22651.70
498.14	22696.17
498.32	23192.37
498.50	22883.42
498.67	23140.88
498.85	23632.39
499.03	23807.93
499.20	23601.96
499.38	23639.41
499.56	23833.68
499.73	24039.64
499.91	23971.77
500.08	24037.30
500.26	23859.42
500.44	24130.92
500.61	24535.84
500.79	24119.22
500.97	24402.43
501.14	24460.94
501.32	24528.81
501.49	24456.26
501.67	24765.21
501.84	25102.25
502.02	24634.14
502.20	24900.96
502.37	25120.97
502.55	24915.00
502.72	24877.55
502.90	24973.52
503.07	25233.32
503.25	25245.02
503.43	25242.68
503.60	25680.36
503.78	25703.76
503.95	25406.52
504.13	26127.40
504.30	25834.83
504.48	25682.70
504.65	25996.33
504.83	26150.81
505.01	26410.60
505.18	26092.29
505.36	26319.32
505.53	26314.64
505.71	26803.82
505.88	26555.72
506.06	26834.24
506.23	26632.96
506.41	26668.06
506.58	26934.88
506.76	26958.29
506.93	27583.21
507.11	27412.35
507.28	27508.32
507.46	27608.96
507.63	27246.18
507.81	27573.85
507.98	27655.77
508.16	27681.52
508.33	28149.62
508.50	28313.46
508.68	27857.06
508.85	27964.72
509.03	27995.15
509.20	28308.78
509.38	28676.24
509.55	28872.85
509.73	28407.08
509.90	28540.49
510.08	28704.33
510.25	28603.69
510.42	28723.05
510.60	28865.83
510.77	29153.71
510.95	29525.86
511.12	28835.40
511.30	29006.26
511.47	29560.97
511.64	29273.08
511.82	29785.66
511.99	29553.94
512.17	29490.75
512.34	29539.90
512.51	29825.45
512.69	30127.38
512.86	30132.06
513.04	30075.88
513.21	29979.92
513.38	30082.91
513.56	30480.80
513.73	30228.02
513.90	30443.35
514.08	30235.04
514.25	30590.80
514.43	30396.54
514.60	30728.89
514.77	30707.83
514.95	30609.53
515.12	30838.90
515.29	30881.03
515.47	31105.72
515.64	31494.25
515.81	30803.79
515.99	31122.10
516.16	31686.17
516.33	30904.43
516.51	31409.99
516.68	31211.04
516.85	31229.77
517.03	31625.32
517.20	31922.57
517.37	31606.59
517.54	31728.30
517.72	31793.84
517.89	32308.76
518.06	31882.78
518.24	32011.51
518.41	31906.18
518.58	31915.54
518.75	32409.40
518.93	32589.62
519.10	32477.27
519.27	32966.45
519.45	32322.80
519.62	33235.61
519.79	32776.86
519.96	32840.06
520.14	32886.87
520.31	32912.61
520.48	32940.70
520.65	33125.60
520.83	33137.30
521.00	33631.16
521.17	33146.67
521.34	33291.78
521.52	33755.21
521.69	33488.38
521.86	33378.38
522.03	33771.59
522.20	33872.23
522.38	34106.29
522.55	33991.60
522.72	34260.76
522.89	34150.76
523.07	34553.33
523.24	34515.88
523.41	34375.45
523.58	34558.01
523.75	34546.31
523.92	34272.46
524.10	34338.00
524.27	34607.16
524.44	34902.07
524.61	34693.76
524.78	34707.80
524.96	35037.82
525.13	35433.37
525.30	35592.53
525.47	35105.70
525.64	35236.77
525.81	35138.46
525.98	35424.01
526.16	35306.98
526.33	35007.39
526.50	35899.14
526.67	35016.75
526.84	35796.15
527.01	35405.28
527.18	36105.10
527.36	35866.37
527.53	35807.86
527.70	36095.74
527.87	35943.61
528.04	36205.75
528.21	35974.03
528.38	35934.24
528.55	36620.02
528.72	36280.64
528.89	36208.09
529.07	35950.63
529.24	36095.74
529.41	36311.07
529.58	36458.52
529.75	36451.50
529.92	36807.26
530.09	36432.78
530.26	36594.28
530.43	36854.08
530.60	36683.22
530.77	36524.06
530.94	36804.92
531.11	36954.72
531.28	36706.62
531.46	36905.57
531.63	37125.58
531.80	37191.11
531.97	37486.02
532.14	37244.94
532.31	37408.78
532.48	37666.24
532.65	37926.04
532.82	37134.94
532.99	37544.53
533.16	37596.03
533.33	37764.54
533.50	37876.89
533.67	37509.43
533.84	37530.49
534.01	37689.65
534.18	37834.76
534.35	38148.39
534.52	38302.87
534.69	38522.88
534.86	37986.89
535.03	37933.06
535.20	38176.48
535.37	38550.96
535.54	38518.20
535.71	38457.34
535.88	38611.82
536.05	38300.53
536.22	38808.42
536.38	38183.50
536.55	38653.95
536.72	38789.70
536.89	38693.74
537.06	38632.88
537.23	38909.07
537.40	38541.60
537.57	38710.12
537.74	38829.49
537.91	38745.23
538.08	39269.51
538.25	38801.40
538.42	38946.51
538.59	39583.14
538.75	39019.07
538.92	39632.29
539.09	39522.29
539.26	39253.12
539.43	39381.85
539.60	39522.29
539.77	39159.50
539.94	39461.43
540.11	39810.17
540.28	39456.75
540.44	39934.22
540.61	39768.04
540.78	39569.10
540.95	39805.49
541.12	39423.98
541.29	39679.10
541.46	40168.27
541.62	40081.67
541.79	39908.47
541.96	40376.58
542.13	39824.22
542.30	39665.06
542.47	40144.87
542.63	40179.98
542.80	40552.12
542.97	40804.90
543.14	40851.71
543.31	40481.91
543.48	40587.23
543.64	41258.96
543.81	41228.54
543.98	40409.35
544.15	40781.49
544.32	41359.61
544.48	40795.54
544.65	40924.27
544.82	41230.88
544.99	40811.92
545.16	41275.35
545.32	41017.89
545.49	41581.96
545.66	41577.28
545.83	41670.90
546.00	41591.32
546.16	41467.27
546.33	41097.47
546.50	41265.99
546.67	41668.56
546.83	40940.65
547.00	41392.37
547.17	41055.34
547.34	41614.72
547.50	41619.41
547.67	41865.16
547.84	41970.49
548.00	42157.73
548.17	42050.06
548.34	42131.98
548.51	42162.41
548.67	42171.77
548.84	41670.90
549.01	41652.17
549.18	42087.51
549.34	42483.06
549.51	42326.25
549.68	41787.92
549.84	42291.14
550.01	42674.99
550.18	42251.35
550.34	42213.90
550.51	42347.31
550.68	43107.99
550.84	42536.90
551.01	42623.50
551.18	42066.45
551.34	42911.38
551.51	42600.09
551.68	42492.43
551.84	42815.42
552.01	42241.99
552.18	42660.94
552.34	42763.93
552.51	42469.02
552.68	42923.08
552.84	43107.99
553.01	42843.51
553.18	43096.28
553.34	43147.78
553.51	42937.13
553.67	43391.19
553.84	43452.05
554.01	43131.39
554.17	43435.66
554.34	43349.06
554.51	43421.62
554.67	43601.84
554.84	44144.84
555.00	43856.96
555.17	43110.33
555.33	43470.77
555.50	43220.33
555.67	43606.52
555.83	43723.55
556.00	43948.24
556.16	43964.62
556.33	43517.58
556.50	43381.83
556.66	43606.52
556.83	43648.65
556.99	44128.46
557.16	43709.50
557.32	43470.77
557.49	44041.86
557.65	43501.20
557.82	44327.41
557.98	43894.41
558.15	44158.89
558.32	44165.91
558.48	44163.57
558.65	43655.67
558.81	44224.42
558.98	43856.96
559.14	43896.75
559.31	44275.91
559.47	44048.88
559.64	44512.31
559.80	44575.50
559.97	44144.84
560.13	44065.27
560.30	44184.63
560.46	44069.95
560.63	44624.65
560.79	44762.75
560.96	44582.52
561.12	44512.31
561.29	44570.82
561.45	44942.97
561.61	44238.47
561.78	44509.97
561.94	44318.04
562.11	44362.51
562.27	44699.55
562.44	44676.15
562.60	44678.49
562.77	45062.33
562.93	44563.80
563.10	45090.42
563.26	44788.49
563.42	44762.75
563.59	44875.09
563.75	44699.55
563.92	44690.19
564.08	44802.53
564.24	45048.29
564.41	45158.30
564.57	45097.44
564.74	44917.22
564.90	44528.69
565.07	44760.40
565.23	44795.51
565.39	44839.98
565.56	45174.68
565.72	44945.31
565.88	45254.26
566.05	45090.42
566.21	44837.64
566.38	45113.83
566.54	45387.67
566.70	45233.19
566.87	45237.87
567.03	44793.17
567.19	45387.67
567.36	45301.07
567.52	45343.20
567.68	45460.23
567.85	45298.73
568.01	45661.51
568.17	45258.94
568.34	44999.14
568.50	44957.01
568.66	44957.01
568.83	45563.21
568.99	45261.28
569.15	45074.04
569.32	45134.89
569.48	45539.80
569.64	45724.71
569.81	45577.25
569.97	45375.97
570.13	46087.49
570.30	45401.71
570.46	45663.85
570.62	45457.88
570.78	45593.64
570.95	45078.72
571.11	45621.72
571.27	45324.47
571.43	45373.63
571.60	45668.53
571.76	45359.58
571.92	45511.72
572.09	45759.81
572.25	45607.68
572.41	44964.03
572.57	46014.93
572.74	45956.42
572.90	45574.91
573.06	45556.19
573.22	45663.85
573.38	45975.14
573.55	45743.43
573.71	45790.24
573.87	45858.12
574.03	45797.26
574.20	46054.72
574.36	45930.67
574.52	45876.84
574.68	45883.86
574.84	45649.81
575.01	45841.73
575.17	46031.32
575.33	45720.02
575.49	45645.13
575.65	45701.30
575.82	46129.62
575.98	45394.69
576.14	46277.07
576.30	46698.37
576.46	46007.91
576.62	46101.53
576.79	46239.62
576.95	45352.56
577.11	45888.54
577.27	45972.80
577.43	45703.64
577.59	45935.35
577.75	45661.51
577.92	45621.72
578.08	46005.57
578.24	45797.26
578.40	45808.96
578.56	46113.23
578.72	45614.70
578.88	46305.16
579.04	45834.71
579.21	45869.82
579.37	46305.16
579.53	45848.75
579.69	45715.34
579.85	45755.13
580.01	46050.04
580.17	45769.18
580.33	45904.93
580.49	45757.47
580.65	45890.88
580.82	46017.27
580.98	45841.73
581.14	45933.01
581.30	46045.36
581.46	46024.29
581.62	45907.27
581.78	45876.84
581.94	45944.72
582.10	45918.97
582.26	46115.58
582.42	46195.15
582.58	46209.20
582.74	46564.96
582.90	46129.62
583.06	46019.61
583.22	46543.89
583.38	46288.77
583.54	46075.79
583.70	46050.04
583.86	46408.14
584.02	45874.50
584.18	46363.67
584.34	46120.26
584.50	46525.17
584.66	46115.58
584.82	46291.12
584.98	46642.20
585.14	46398.78
585.30	46480.70
585.46	45886.20
585.62	46050.04
585.78	46295.80
585.94	46094.51
586.10	46248.99
586.26	46270.05
586.42	45705.98
586.58	46244.30
586.74	46031.32
586.90	46248.99
587.06	46370.69
587.22	46094.51
587.38	46106.21
587.54	46351.97
587.70	46546.23
587.86	46344.95
588.02	46202.18
588.18	46244.30
588.34	46176.43
588.49	46415.16
588.65	46361.33
588.81	46604.75
588.97	46677.30
589.13	46398.78
589.29	45925.99
589.45	46281.75
589.61	46679.64
589.77	46326.22
589.93	46445.59
590.08	46571.98
