SpectraSuite Data File
++++++++++++++++++++++++++++++++++++
Date: Fri Oct 25 10:43:31 EDT 2013
User: price-jones
Dark Spectrum Present: No
Reference Spectrum Present: No
Number of Sampled Component Spectra: 1
Spectrometers: USB2+H05261
Integration Time (usec): 100000 (USB2+H05261)
Spectra Averaged: 1 (USB2+H05261)
Boxcar Smoothing: 0 (USB2+H05261)
Correct for Electrical Dark: No (USB2+H05261)
Strobe/Lamp Enabled: No (USB2+H05261)
Correct for Detector Non-linearity: No (USB2+H05261)
Correct for Stray Light: No (USB2+H05261)
Number of Pixels in Processed Spectrum: 2048
>>>>>Begin Processed Spectral Data<<<<<
365.73	161.50
365.92	161.50
366.12	161.50
366.32	2.34
366.52	107.66
366.72	72.56
366.91	25.75
367.11	0.00
367.31	0.00
367.51	46.81
367.70	39.79
367.90	18.72
368.10	9.36
368.30	0.00
368.49	42.13
368.69	110.01
368.89	42.13
369.09	14.04
369.28	21.06
369.48	46.81
369.68	79.58
369.87	95.96
370.07	39.79
370.27	60.85
370.47	145.11
370.66	407.25
370.86	423.64
371.06	514.92
371.25	505.56
371.45	423.64
371.65	454.06
371.84	421.30
372.04	538.32
372.24	442.36
372.44	477.47
372.63	416.62
372.83	486.83
373.03	507.90
373.22	484.49
373.42	486.83
373.62	505.56
373.81	456.40
374.01	550.03
374.21	596.84
374.40	528.96
374.60	575.77
374.79	601.52
374.99	561.73
375.19	554.71
375.38	566.41
375.58	650.67
375.78	603.86
375.97	587.47
376.17	697.48
376.37	620.24
376.56	650.67
376.76	648.33
376.95	594.50
377.15	653.01
377.35	662.37
377.54	620.24
377.74	554.71
377.93	575.77
378.13	643.65
378.33	650.67
378.52	596.84
378.72	678.76
378.91	650.67
379.11	676.41
379.31	681.10
379.50	631.94
379.70	788.76
379.89	725.57
380.09	671.73
380.28	664.71
380.48	676.41
380.68	624.92
380.87	624.92
381.07	727.91
381.26	685.78
381.46	636.63
381.65	610.88
381.85	601.52
382.04	671.73
382.24	697.48
382.43	695.14
382.63	648.33
382.83	655.35
383.02	795.78
383.22	784.08
383.41	669.39
383.61	777.06
383.80	765.36
384.00	744.29
384.19	781.74
384.39	777.06
384.58	800.46
384.78	753.65
384.97	763.01
385.17	741.95
385.36	816.85
385.56	802.80
385.75	861.32
385.95	816.85
386.14	854.30
386.34	837.91
386.53	875.36
386.72	905.79
386.92	819.19
387.11	875.36
387.31	884.72
387.50	854.30
387.70	833.23
387.89	863.66
388.09	819.19
388.28	866.00
388.48	903.45
388.67	978.34
388.86	980.68
389.06	901.11
389.25	966.64
389.45	917.49
389.64	1057.92
389.84	1076.65
390.03	983.02
390.22	1011.11
390.42	1020.47
390.61	940.90
390.81	999.41
391.00	1011.11
391.19	1050.90
391.39	1111.75
391.58	1020.47
391.78	1036.86
391.97	971.32
392.16	954.94
392.36	1057.92
392.55	1043.88
392.75	994.73
392.94	924.51
393.13	1011.11
393.33	1043.88
393.52	1034.52
393.71	1086.01
393.91	1062.60
394.10	1123.46
394.29	1198.35
394.49	1139.84
394.68	1238.14
394.88	1193.67
395.07	1181.97
395.26	1198.35
395.46	1196.01
395.65	1181.97
395.84	1219.42
396.04	1191.33
396.23	1144.52
396.42	1088.35
396.62	1144.52
396.81	1165.59
397.00	1146.86
397.19	1266.23
397.39	1329.42
397.58	1355.17
397.77	1334.11
397.97	1399.64
398.16	1385.60
398.35	1310.70
398.55	1383.26
398.74	1444.11
398.93	1444.11
399.12	1549.43
399.32	1479.22
399.51	1472.20
399.70	1547.09
399.90	1551.78
400.09	1586.88
400.28	1572.84
400.47	1533.05
400.67	1636.03
400.86	1652.42
401.05	1638.38
401.24	1547.09
401.44	1675.82
401.63	1708.59
401.82	1673.48
402.01	1680.50
402.21	1668.80
402.40	1717.95
402.59	1710.93
402.78	1668.80
402.97	1659.44
403.17	1760.08
403.36	1797.53
403.55	1797.53
403.74	1818.60
403.93	1837.32
404.13	1762.42
404.32	1877.11
404.51	1914.56
404.70	1879.45
404.89	1940.30
405.09	1973.07
405.28	1980.09
405.47	1905.20
405.66	1973.07
405.85	1996.48
406.05	2080.74
406.24	1982.43
406.43	1923.92
406.62	2115.84
406.81	2097.12
407.00	2197.76
407.20	2078.40
407.39	2047.97
407.58	2190.74
407.77	2115.84
407.96	2115.84
408.15	2099.46
408.34	2104.14
408.54	2179.04
408.73	2277.34
408.92	2239.89
409.11	2286.70
409.30	2214.15
409.49	2286.70
409.68	2218.83
409.87	2221.17
410.07	2363.94
410.26	2436.50
410.45	2441.18
410.64	2434.16
410.83	2382.67
411.02	2359.26
411.21	2700.98
411.40	2555.86
411.59	2633.10
411.78	2534.80
411.98	2541.82
412.17	2642.46
412.36	2761.83
412.55	2708.00
412.74	2693.96
412.93	2600.34
413.12	2745.45
413.31	2778.22
413.50	2761.83
413.69	2808.64
413.88	2942.05
414.07	2895.24
414.26	2913.97
414.45	2925.67
414.64	3056.74
414.83	3108.23
415.02	2981.84
415.22	3063.76
415.41	3098.87
415.60	3150.36
415.79	3199.51
415.98	3197.17
416.17	3150.36
416.36	3236.96
416.55	3117.59
416.74	3337.60
416.93	3229.94
417.12	3370.37
417.31	3307.18
417.50	3339.94
417.69	3410.16
417.88	3384.41
418.07	3508.46
418.26	3506.12
418.45	3529.53
418.64	3506.12
418.83	3585.70
419.02	3445.27
419.21	3627.83
419.39	3588.04
419.58	3531.87
419.77	3475.70
419.96	3592.72
420.15	3695.71
420.34	3557.61
420.53	3756.56
420.72	3756.56
420.91	3719.11
421.10	3817.41
421.29	3880.61
421.48	3801.03
421.67	3913.38
421.86	3786.99
422.05	3730.81
422.24	3651.24
422.43	3611.45
422.61	3801.03
422.80	3737.84
422.99	3765.92
423.18	3845.50
423.37	3955.51
423.56	3875.93
423.75	3850.18
423.94	3943.80
424.13	3625.49
424.32	3705.07
424.50	3850.18
424.69	3943.80
424.88	3964.87
425.07	3920.40
425.26	3782.31
425.45	3920.40
425.64	3861.88
425.83	3861.88
426.01	3992.95
426.20	4030.40
426.39	3990.61
426.58	3908.69
426.77	3941.46
426.96	3955.51
427.15	3880.61
427.33	4042.11
427.52	4025.72
427.71	4095.94
427.90	4079.55
428.09	4072.53
428.28	4039.76
428.46	4093.60
428.65	4072.53
428.84	4273.82
429.03	4285.52
429.22	4023.38
429.40	4170.83
429.59	4112.32
429.78	3948.48
429.97	3803.37
430.16	3953.16
430.34	4180.20
430.53	4119.34
430.72	4243.39
430.91	4236.37
431.10	4311.27
431.28	4479.79
431.47	4603.83
431.66	4620.22
431.85	4491.49
432.03	4552.34
432.22	4657.67
432.41	4575.75
432.60	4753.63
432.79	4674.05
432.97	4697.46
433.16	4704.48
433.35	4535.96
433.54	4568.73
433.72	4662.35
433.91	4667.03
434.10	4732.56
434.28	4667.03
434.47	4826.18
434.66	4973.64
434.85	4842.57
435.03	4959.60
435.22	4851.93
435.41	5116.41
435.59	5114.07
435.78	4992.36
435.97	5130.45
436.16	5032.15
436.34	5074.28
436.53	5034.49
436.72	5104.71
436.90	5139.82
437.09	5121.09
437.28	5018.11
437.46	5018.11
437.65	5242.80
437.84	5263.86
438.02	5107.05
438.21	5018.11
438.40	5036.83
438.58	5273.23
438.77	5158.54
438.96	5270.89
439.14	5652.39
439.33	5593.88
439.52	5401.96
439.70	5558.77
439.89	5584.52
440.08	5582.18
440.26	5727.29
440.45	5638.35
440.63	5717.93
440.82	5823.25
441.01	5788.14
441.19	5959.00
441.38	5893.47
441.57	6031.56
441.75	6134.54
441.94	6150.93
442.12	6251.57
442.31	6216.46
442.50	6179.01
442.68	6225.82
442.87	6267.95
443.05	6230.51
443.24	6242.21
443.43	6415.41
443.61	6427.11
443.80	6609.67
443.98	6485.62
444.17	6228.17
444.35	6595.63
444.54	6539.46
444.73	6443.49
444.91	6455.20
445.10	6502.01
445.28	6429.45
445.47	6267.95
445.65	6368.60
445.84	6457.54
446.02	6597.97
446.21	6551.16
446.39	6612.01
446.58	6691.59
446.77	6394.34
446.95	6497.33
447.14	6661.16
447.32	6768.83
447.51	6527.75
447.69	6619.04
447.88	6560.52
448.06	6539.46
448.25	6759.47
448.43	6764.15
448.62	6705.63
448.80	6576.91
448.99	6717.34
449.17	6649.46
449.36	6700.95
449.54	6930.33
449.73	6932.67
449.91	7042.67
450.10	7150.34
450.28	7070.76
450.46	7159.70
450.65	7208.85
450.83	7255.66
451.02	7236.94
451.20	7197.15
451.39	6988.84
451.57	7059.06
451.76	7126.93
451.94	6981.82
452.13	7349.28
452.31	7211.19
452.49	6848.41
452.68	7124.59
452.86	7070.76
453.05	7349.28
453.23	7190.13
453.42	7096.50
453.60	7112.89
453.78	7475.67
453.97	7246.30
454.15	7370.35
454.34	7304.81
454.52	7454.61
454.70	7473.33
454.89	7581.00
455.07	7414.82
455.26	7552.91
455.44	7784.62
455.62	7772.92
455.81	7599.72
455.99	7557.59
456.17	7798.66
456.36	8049.10
456.54	7751.85
456.73	7932.08
456.91	8025.70
457.09	8084.21
457.28	8081.87
457.46	7798.66
457.64	8128.68
457.83	8056.12
458.01	7999.95
458.19	8060.80
458.38	8006.97
458.56	8301.88
458.74	8135.70
458.93	7962.50
459.11	8058.46
459.29	8182.51
459.48	8266.77
459.66	8241.03
459.84	8308.90
460.03	8531.25
460.21	8580.40
460.39	8339.33
460.57	8458.70
460.76	8578.06
460.94	8659.98
461.12	8718.50
461.31	8641.26
461.49	8418.91
461.67	8425.93
461.85	8872.97
462.04	8538.27
462.22	9114.05
462.40	8826.16
462.59	8713.81
462.77	8727.86
462.95	8992.34
463.13	8912.76
463.32	9018.08
463.50	8952.55
463.68	8814.46
463.86	8795.73
464.05	8788.71
464.23	8865.95
464.41	9095.32
464.59	8891.70
464.78	9240.44
464.96	9015.74
465.14	9006.38
465.32	9107.02
465.50	9043.83
465.69	9132.77
465.87	9261.50
466.05	9048.51
466.23	9001.70
466.41	9186.60
466.60	9348.10
466.78	9078.94
466.96	9146.81
467.14	9114.05
467.32	9352.78
467.51	9579.81
467.69	8966.59
467.87	9282.56
468.05	9359.80
468.23	9462.79
468.41	9355.12
468.60	9425.34
468.78	9582.15
468.96	9338.74
469.14	9720.24
469.32	9717.90
469.50	9327.03
469.69	9521.30
469.87	9933.23
470.05	9710.88
470.23	9694.50
470.41	9696.84
470.59	9858.34
470.77	9537.68
470.95	9994.09
471.14	10263.25
471.32	9989.41
471.50	10429.43
471.68	10399.00
471.86	10239.84
472.04	10509.01
472.22	10429.43
472.40	10155.58
472.58	10375.59
472.77	10621.35
472.95	10555.82
473.13	10888.17
473.31	10424.75
473.49	10347.51
473.67	10359.21
473.85	10686.89
474.03	10778.17
474.21	10714.97
474.39	10848.38
474.57	10942.00
474.75	11159.67
474.93	11115.20
475.12	11204.14
475.30	11059.03
475.48	11176.06
475.66	11028.60
475.84	11052.01
476.02	11421.81
476.20	11349.26
476.38	11307.13
476.56	11754.17
476.74	11672.25
476.92	11761.19
477.10	11808.00
477.28	11997.59
477.46	11850.13
477.64	12037.38
477.82	12287.81
478.00	12421.22
478.18	12540.59
478.36	12313.56
478.54	12666.98
478.72	12521.87
478.90	12699.75
479.08	12894.01
479.26	12762.94
479.44	12915.08
479.62	13280.20
479.80	13315.31
479.98	13404.25
480.16	13289.56
480.34	13565.74
480.52	13635.96
480.70	13673.41
480.88	13364.46
481.06	13760.01
481.24	13862.99
481.41	14223.44
481.59	14265.57
481.77	14305.35
481.95	14087.68
482.13	14635.37
482.31	14415.36
482.49	15061.35
482.67	14834.32
482.85	14785.16
483.03	15145.61
483.21	15293.06
483.39	15309.44
483.57	15042.62
483.74	15391.36
483.92	15604.35
484.10	15456.90
484.28	15641.80
484.46	16067.78
484.64	15932.03
484.82	15978.84
485.00	16027.99
485.18	16166.08
485.35	16285.45
485.53	16135.65
485.71	15908.62
485.89	16327.58
486.07	16432.90
486.25	16376.73
486.43	16819.09
486.61	16982.93
486.78	16982.93
486.96	17242.73
487.14	17413.59
487.32	17490.82
487.50	17841.90
487.68	17961.27
487.85	18408.31
488.03	18272.56
488.21	18356.82
488.39	18167.24
488.57	18508.96
488.75	18298.31
488.92	19047.28
489.10	19353.89
489.28	19026.21
489.46	19569.22
489.64	19318.78
489.81	19779.87
489.99	19974.13
490.17	20250.32
490.35	20051.37
490.53	20144.99
490.70	20233.93
490.88	20514.80
491.06	20554.58
491.24	20620.12
491.41	20695.02
491.59	20477.35
491.77	20538.20
491.95	20957.16
492.13	21364.41
492.30	21158.44
492.48	21341.00
492.66	21652.30
492.84	21666.34
493.01	21806.77
493.19	21628.89
493.37	21923.80
493.54	22242.11
493.72	22459.78
493.90	22462.12
494.08	22527.66
494.25	23047.26
494.43	23248.54
494.61	23309.40
494.79	23068.32
494.96	23063.64
495.14	23482.59
495.32	23543.45
495.49	23335.14
495.67	23456.85
495.85	24100.50
496.02	23726.01
496.20	23768.14
496.38	24402.43
496.55	24435.19
496.73	24826.06
496.91	24650.52
497.09	24673.93
497.26	24982.88
497.44	24809.68
497.62	25177.14
497.79	25223.95
497.97	24783.93
498.14	25146.72
498.32	25380.77
498.50	25467.37
498.67	25591.42
498.85	25640.57
499.03	26031.44
499.20	26010.37
499.38	26136.76
499.56	26654.02
499.73	26302.94
499.91	26494.86
500.08	26450.39
500.26	26380.18
500.44	26511.25
500.61	26469.12
500.79	26176.55
500.97	26562.74
501.14	27012.12
501.32	26792.11
501.49	26948.93
501.67	27026.17
501.84	27154.90
502.02	27400.65
502.20	27538.74
502.37	27541.08
502.55	27454.48
502.72	27775.14
502.90	27866.42
503.07	27744.71
503.25	27686.20
503.43	28025.57
503.60	27725.99
503.78	28084.09
503.95	28044.30
504.13	28187.07
504.30	28261.97
504.48	28371.97
504.65	28809.65
504.83	29050.73
505.01	29099.88
505.18	29088.18
505.36	29462.66
505.53	29174.78
505.71	29567.99
505.88	29441.60
506.06	29027.32
506.23	29525.86
506.41	29326.91
506.58	29589.05
506.76	29584.37
506.93	29619.48
507.11	29797.36
507.28	29979.92
507.46	29603.10
507.63	29668.63
507.81	29926.09
507.98	30169.51
508.16	30171.85
508.33	30279.51
508.50	30525.27
508.68	30480.80
508.85	30843.58
509.03	30361.43
509.20	30490.16
509.38	31201.68
509.55	30955.93
509.73	30976.99
509.90	31253.17
510.08	31311.69
510.25	31124.44
510.42	31407.65
510.60	31611.28
510.77	31630.00
510.95	31852.35
511.12	31590.21
511.30	31826.60
511.47	31782.13
511.64	31952.99
511.82	31978.74
511.99	31744.69
512.17	32046.62
512.34	31763.41
512.51	32226.84
512.69	32669.20
512.86	32306.41
513.04	32587.28
513.21	32463.23
513.38	32624.73
513.56	32201.09
513.73	32247.90
513.90	32690.26
514.08	32716.01
514.25	32961.76
514.43	32926.66
514.60	32910.27
514.77	32868.14
514.95	33488.38
515.12	33193.48
515.29	33085.81
515.47	33659.24
515.64	33879.25
515.81	32800.27
515.99	33984.58
516.16	33663.93
516.33	33226.24
516.51	33572.64
516.68	33081.13
516.85	33336.25
517.03	33050.70
517.20	33645.20
517.37	34015.01
517.54	34272.46
517.72	33764.57
517.89	33619.46
518.06	33949.47
518.24	34068.84
518.41	34094.58
518.58	34223.31
518.75	34326.30
518.93	34658.65
519.10	34377.79
519.27	34820.15
519.45	34771.00
519.62	35070.59
519.79	34981.65
519.96	35089.31
520.14	34799.08
520.31	34801.43
520.48	35239.11
520.65	34677.38
520.83	35440.39
521.00	35615.93
521.17	35669.76
521.34	36107.44
521.52	35803.17
521.69	35737.64
521.86	35819.56
522.03	35924.88
522.20	36098.08
522.38	36257.24
522.55	35906.16
522.72	36102.76
522.89	35845.30
523.07	36608.32
523.24	36170.64
523.41	36830.67
523.58	36776.84
523.75	36905.57
523.92	36900.89
524.10	37031.96
524.27	36732.37
524.44	37034.30
524.61	37434.53
524.78	36893.86
524.96	36870.46
525.13	37071.75
525.30	37207.50
525.47	37333.89
525.64	37193.45
525.81	37153.66
525.98	36973.44
526.16	37127.92
526.33	37029.62
526.50	36964.08
526.67	37266.01
526.84	36945.36
527.01	37048.34
527.18	37425.17
527.36	38190.52
527.53	37816.04
527.70	38045.41
527.87	37872.21
528.04	37900.29
528.21	38211.59
528.38	37979.87
528.55	38824.81
528.72	38513.52
528.89	38859.91
529.07	38251.38
529.24	38354.36
529.41	38581.39
529.58	38073.49
529.75	38677.35
529.92	38532.24
530.09	38796.72
530.26	38873.96
530.43	38639.90
530.60	39065.88
530.77	38909.07
530.94	39290.57
531.11	38902.04
531.28	39108.01
531.46	39248.44
531.63	39707.19
531.80	39749.32
531.97	38998.01
532.14	39583.14
532.31	38981.62
532.48	38981.62
532.65	39201.63
532.82	39068.22
532.99	39599.52
533.16	39552.71
533.33	39594.84
533.50	39655.70
533.67	39496.54
533.84	39199.29
534.01	39812.51
534.18	40109.76
534.35	40027.84
534.52	39927.20
534.69	39786.77
534.86	40428.07
535.03	39871.03
535.20	40444.46
535.37	40673.83
535.54	40802.56
535.71	39948.26
535.88	40547.44
536.05	40589.57
536.22	40194.02
536.38	40512.33
536.55	40477.22
536.72	40435.10
536.89	39803.15
537.06	40575.53
537.23	41064.70
537.40	40636.38
537.57	40811.92
537.74	40982.78
537.91	41282.37
538.08	40917.25
538.25	40414.03
538.42	40556.80
538.59	41167.68
538.75	40947.67
538.92	41170.02
539.09	41195.77
539.26	41081.08
539.43	40980.44
539.60	40554.46
539.77	41097.47
539.94	40769.79
540.11	41118.53
540.28	41352.58
540.44	41408.76
540.61	40898.52
540.78	41340.88
540.95	41223.86
541.12	41399.40
541.29	41392.37
541.46	41361.95
541.62	41399.40
541.79	41741.11
541.96	41296.41
542.13	41280.03
542.30	41926.02
542.47	41729.41
542.63	41691.96
542.80	41862.82
542.97	42469.02
543.14	42497.11
543.31	42225.60
543.48	42293.48
543.64	42396.46
543.81	42490.09
543.98	42588.39
544.15	42246.67
544.32	42635.20
544.48	43016.71
544.65	42548.60
544.82	42581.37
544.99	42485.40
545.16	42370.72
545.32	42380.08
545.49	42845.85
545.66	43007.34
545.83	42693.71
546.00	43213.31
546.16	42752.23
546.33	42899.68
546.50	42845.85
546.67	43014.37
546.83	42923.08
547.00	42820.10
547.17	42862.23
547.34	42829.46
547.50	43241.40
547.67	42953.51
547.84	43274.16
548.00	43597.16
548.17	43365.45
548.34	43440.34
548.51	43412.26
548.67	43283.53
548.84	43313.95
549.01	43412.26
549.18	43599.50
549.34	43484.81
549.51	43320.98
549.68	43409.92
549.84	43454.39
550.01	43885.04
550.18	43351.40
550.34	43274.16
550.51	43540.99
550.68	43587.80
550.84	43260.12
551.01	43821.85
551.18	43217.99
551.34	43695.46
551.51	43959.94
551.68	44074.63
551.84	43786.74
552.01	43328.00
552.18	43470.77
552.34	43798.44
552.51	43981.01
552.68	43714.19
552.84	43978.67
553.01	43838.23
553.18	44339.11
553.34	43917.81
553.51	44364.85
553.67	44292.30
553.84	44432.73
554.01	44367.20
554.17	44540.39
554.34	44105.06
554.51	44769.77
554.67	44484.22
554.84	44294.64
555.00	44194.00
555.17	44308.68
555.33	44350.81
555.50	44540.39
555.67	44807.22
555.83	44362.51
556.00	44385.92
556.16	45064.67
556.33	44259.53
556.50	44650.40
556.66	44369.54
556.83	44341.45
556.99	44641.04
557.16	44861.05
557.32	44596.57
557.49	45017.86
557.65	44201.02
557.82	44598.91
557.98	44617.63
558.15	44938.29
558.32	44755.72
558.48	44746.36
558.65	44477.20
558.81	44669.12
558.98	44718.28
559.14	44889.13
559.31	44254.85
559.47	44980.42
559.64	44959.35
559.80	45006.16
559.97	44999.14
560.13	45027.23
560.30	44706.57
560.46	44947.65
560.63	45200.43
560.79	45052.97
560.96	45394.69
561.12	44917.22
561.29	44900.84
561.45	45165.32
561.61	45181.70
561.78	45074.04
561.94	44910.20
562.11	44835.30
562.27	44914.88
562.44	45074.04
562.60	45076.38
562.77	44971.05
562.93	45111.49
563.10	45731.73
563.26	45160.64
563.42	45219.15
563.59	45010.84
563.75	45195.74
563.92	45787.90
564.08	45565.55
564.24	45418.10
564.41	45092.76
564.57	45160.64
564.74	45174.68
564.90	45368.94
565.07	45546.82
565.23	45530.44
565.39	45076.38
565.56	45780.88
565.72	45013.18
565.88	45181.70
566.05	45216.81
566.21	45289.37
566.38	45420.44
566.54	45483.63
566.70	45797.26
566.87	45750.45
567.03	45567.89
567.19	45832.37
567.36	45333.84
567.52	45460.23
567.68	45790.24
567.85	45347.88
568.01	45509.38
568.17	45654.49
568.34	45551.51
568.50	45565.55
568.66	45710.66
568.83	45420.44
568.99	45195.74
569.15	45415.76
569.32	45631.08
569.48	45373.63
569.64	45614.70
569.81	45542.14
569.97	45350.22
570.13	45731.73
570.30	45092.76
570.46	45270.64
570.62	45361.92
570.78	45146.59
570.95	45069.36
571.11	45471.93
571.27	45677.90
571.43	45247.24
571.60	45797.26
571.76	45413.41
571.92	46040.68
572.09	45195.74
572.25	45240.21
572.41	45813.65
572.57	45904.93
572.74	45904.93
572.90	45837.05
573.06	45963.44
573.22	45830.03
573.38	46078.13
573.55	45752.79
573.71	45998.55
573.87	45647.47
574.03	45521.08
574.20	45584.27
574.36	45624.06
574.52	45612.36
574.68	45511.72
574.84	45752.79
575.01	45741.09
575.17	45542.14
575.33	45343.20
575.49	45322.13
575.65	45965.78
575.82	45921.31
575.98	45614.70
576.14	45680.24
576.30	45914.29
576.46	45853.44
576.62	45741.09
576.79	45792.58
576.95	45457.88
577.11	45846.41
577.27	45930.67
577.43	45598.32
577.59	45600.66
577.75	45771.52
577.92	45113.83
578.08	45268.30
578.24	45237.87
578.40	45542.14
578.56	45432.14
578.72	45872.16
578.88	45703.64
579.04	45867.48
579.21	45460.23
579.37	45766.84
579.53	45628.74
579.69	45727.05
579.85	45584.27
580.01	45535.12
580.17	45551.51
580.33	45958.76
580.49	45783.22
580.65	45710.66
580.82	45727.05
580.98	45624.06
581.14	45762.15
581.30	45888.54
581.46	45834.71
581.62	46026.63
581.78	45661.51
581.94	46209.20
582.10	46078.13
582.26	45600.66
582.42	45366.60
582.58	45773.86
582.74	45490.65
582.90	45841.73
583.06	45947.06
583.22	45975.14
583.38	46330.90
583.54	45991.53
583.70	45729.39
583.86	45977.48
584.02	45694.28
584.18	45914.29
584.34	45993.87
584.50	45867.48
584.66	46010.25
584.82	45624.06
584.98	45787.90
585.14	45968.12
585.30	45453.20
585.46	45668.53
585.62	45200.43
585.78	45813.65
585.94	45682.58
586.10	45811.31
586.26	45720.02
586.42	46138.98
586.58	45603.00
586.74	45841.73
586.90	45888.54
587.06	45684.92
587.22	45888.54
587.38	45975.14
587.54	46349.63
587.70	46209.20
587.86	45900.25
588.02	45827.69
588.18	46258.35
588.34	45970.46
588.49	45572.57
588.65	45041.27
588.81	45537.46
588.97	45446.18
589.13	45296.39
589.29	45495.33
589.45	45216.81
589.61	45638.11
589.77	46068.76
589.93	46307.50
590.08	45668.53
