SpectraSuite Data File
++++++++++++++++++++++++++++++++++++
Date: Fri Oct 25 11:25:29 EDT 2013
User: price-jones
Dark Spectrum Present: No
Reference Spectrum Present: No
Number of Sampled Component Spectra: 1
Spectrometers: USB2+H05261
Integration Time (usec): 100000 (USB2+H05261)
Spectra Averaged: 1 (USB2+H05261)
Boxcar Smoothing: 0 (USB2+H05261)
Correct for Electrical Dark: No (USB2+H05261)
Strobe/Lamp Enabled: No (USB2+H05261)
Correct for Detector Non-linearity: No (USB2+H05261)
Correct for Stray Light: No (USB2+H05261)
Number of Pixels in Processed Spectrum: 2048
>>>>>Begin Processed Spectral Data<<<<<
365.73	224.69
365.92	224.69
366.12	224.69
366.32	140.43
366.52	58.51
366.72	196.60
366.91	60.85
367.11	121.71
367.31	189.58
367.51	147.45
367.70	161.50
367.90	138.09
368.10	135.75
368.30	91.28
368.49	159.16
368.69	98.30
368.89	163.84
369.09	198.95
369.28	140.43
369.48	166.18
369.68	194.26
369.87	175.54
370.07	241.08
370.27	259.80
370.47	367.46
370.66	585.13
370.86	615.56
371.06	674.07
371.25	664.71
371.45	634.29
371.65	678.76
371.84	627.26
372.04	674.07
372.24	655.35
372.44	650.67
372.63	737.27
372.83	779.40
373.03	772.38
373.22	781.74
373.42	821.53
373.62	807.48
373.81	795.78
374.01	842.59
374.21	835.57
374.40	849.61
374.60	816.85
374.79	833.23
374.99	861.32
375.19	891.74
375.38	844.93
375.58	931.53
375.78	863.66
375.97	861.32
376.17	866.00
376.37	917.49
376.56	866.00
376.76	898.77
376.95	814.51
377.15	884.72
377.35	854.30
377.54	929.19
377.74	926.85
377.93	837.91
378.13	861.32
378.33	833.23
378.52	922.17
378.72	889.40
378.91	833.23
379.11	863.66
379.31	957.28
379.50	877.70
379.70	990.05
379.89	926.85
380.09	922.17
380.28	957.28
380.48	968.98
380.68	1022.81
380.87	1041.54
381.07	1015.79
381.26	1053.24
381.46	1006.43
381.65	994.73
381.85	1039.20
382.04	1057.92
382.24	1069.62
382.43	1060.26
382.63	1102.39
382.83	1116.44
383.02	1086.01
383.22	1121.12
383.41	1081.33
383.61	1025.15
383.80	1071.97
384.00	1163.25
384.19	1083.67
384.39	1088.35
384.58	1048.56
384.78	1074.31
384.97	1081.33
385.17	1071.97
385.36	1170.27
385.56	1235.80
385.75	1165.59
385.95	1179.63
386.14	1217.08
386.34	1188.99
386.53	1263.89
386.72	1193.67
386.92	1240.48
387.11	1217.08
387.31	1313.04
387.50	1322.40
387.70	1156.22
387.89	1254.53
388.09	1254.53
388.28	1310.70
388.48	1301.34
388.67	1385.60
388.86	1378.58
389.06	1270.91
389.25	1336.45
389.45	1273.25
389.64	1341.13
389.84	1334.11
390.03	1390.28
390.22	1392.62
390.42	1310.70
390.61	1390.28
390.81	1371.55
391.00	1373.89
391.19	1430.07
391.39	1460.49
391.58	1493.26
391.78	1474.54
391.97	1460.49
392.16	1409.00
392.36	1603.27
392.55	1500.28
392.75	1479.22
392.94	1675.82
393.13	1446.45
393.33	1589.22
393.52	1556.46
393.71	1502.62
393.91	1699.23
394.10	1530.71
394.29	1542.41
394.49	1636.03
394.68	1657.10
394.88	1596.25
395.07	1682.85
395.26	1607.95
395.46	1577.52
395.65	1717.95
395.84	1729.66
396.04	1830.30
396.23	1682.85
396.42	1671.14
396.62	1755.40
396.81	1856.04
397.00	1830.30
397.19	1799.87
397.39	1823.28
397.58	1720.29
397.77	1820.94
397.97	1790.51
398.16	1795.19
398.35	1907.54
398.55	1816.26
398.74	1923.92
398.93	1858.39
399.12	1825.62
399.32	1858.39
399.51	1839.66
399.70	1991.80
399.90	1947.33
400.09	2132.23
400.28	2080.74
400.47	2019.88
400.67	2085.42
400.86	2031.58
401.05	2029.24
401.24	2122.87
401.44	2181.38
401.63	2239.89
401.82	2183.72
402.01	2132.23
402.21	2218.83
402.40	2143.93
402.59	2183.72
402.78	2197.76
402.97	2202.44
403.17	2169.68
403.36	2176.70
403.55	2230.53
403.74	2354.58
403.93	2214.15
404.13	2317.13
404.32	2303.09
404.51	2244.57
404.70	2370.96
404.89	2410.75
405.09	2490.33
405.28	2385.01
405.47	2406.07
405.66	2389.69
405.85	2448.20
406.05	2527.78
406.24	2572.25
406.43	2534.80
406.62	2572.25
406.81	2642.46
407.00	2487.99
407.20	2574.59
407.39	2520.76
407.58	2682.25
407.77	2654.17
407.96	2661.19
408.15	2665.87
408.34	2808.64
408.54	2827.37
408.73	2944.39
408.92	2796.94
409.11	2906.95
409.30	2897.58
409.49	2832.05
409.68	2902.26
409.87	2932.69
410.07	2972.48
410.26	2984.18
410.45	3040.36
410.64	3049.72
410.83	3077.80
411.02	3033.33
411.21	3141.00
411.40	3185.47
411.59	3098.87
411.78	3110.57
411.98	3162.06
412.17	3251.00
412.36	3197.17
412.55	3389.10
412.74	3438.25
412.93	3176.11
413.12	3400.80
413.31	3482.72
413.50	3468.67
413.69	3417.18
413.88	3407.82
414.07	3494.42
414.26	3662.94
414.45	3714.43
414.64	3644.21
414.83	3669.96
415.02	3812.73
415.22	3894.65
415.41	3808.05
415.60	3749.54
415.79	3960.19
415.98	3908.69
416.17	3889.97
416.36	3920.40
416.55	4014.02
416.74	4042.11
416.93	3939.12
417.12	4032.74
417.31	4217.65
417.50	4098.28
417.69	4196.58
417.88	4215.30
418.07	4234.03
418.26	4238.71
418.45	4252.75
418.64	4449.36
418.83	4315.95
419.02	4440.00
419.21	4437.66
419.39	4496.17
419.58	4306.59
419.77	4425.95
419.96	4475.10
420.15	4552.34
420.34	4463.40
420.53	4397.87
420.72	4564.04
420.91	4592.13
421.10	4709.16
421.29	4688.09
421.48	4615.54
421.67	4704.48
421.86	4809.80
422.05	4807.46
422.24	4821.50
422.43	4795.76
422.61	4830.87
422.80	4901.08
422.99	4915.12
423.18	4891.72
423.37	4968.96
423.56	4812.14
423.75	4978.32
423.94	4821.50
424.13	4699.80
424.32	4676.39
424.50	4980.66
424.69	4957.25
424.88	4915.12
425.07	4919.81
425.26	4844.91
425.45	4903.42
425.64	4994.70
425.83	4877.68
426.01	5046.20
426.20	5060.24
426.39	5043.85
426.58	5006.41
426.77	5062.58
426.96	5226.42
427.15	5188.97
427.33	5055.56
427.52	5041.51
427.71	5205.35
427.90	5231.10
428.09	5085.98
428.28	5341.10
428.46	5317.70
428.65	5217.05
428.84	5394.93
429.03	5366.85
429.22	5277.91
429.40	5425.36
429.59	5483.88
429.78	5268.55
429.97	5156.20
430.16	5465.15
430.34	5500.26
430.53	5589.20
430.72	5603.24
430.91	5479.19
431.10	5556.43
431.28	5708.57
431.47	5912.19
431.66	5788.14
431.85	5816.23
432.03	5823.25
432.22	5982.41
432.41	5846.66
432.60	5877.09
432.79	5858.36
432.97	5860.70
433.16	5799.85
433.35	5893.47
433.54	6080.71
433.72	6221.14
433.91	6193.06
434.10	6169.65
434.28	6019.86
434.47	6108.80
434.66	6078.37
434.85	6164.97
435.03	6251.57
435.22	6218.80
435.41	6373.28
435.59	6490.31
435.78	6324.13
435.97	6399.02
436.16	6338.17
436.34	6389.66
436.53	6513.71
436.72	6602.65
436.90	6499.67
437.09	6539.46
437.28	6626.06
437.46	6583.93
437.65	6590.95
437.84	6799.26
438.02	6693.93
438.21	6860.11
438.40	6567.54
438.58	6920.96
438.77	6920.96
438.96	6942.03
439.14	7042.67
439.33	7101.19
439.52	7225.23
439.70	7180.76
439.89	7250.98
440.08	7279.07
440.26	7375.03
440.45	7096.50
440.63	7190.13
440.82	7531.84
441.01	7459.29
441.19	7520.14
441.38	7667.60
441.57	7644.19
441.75	7545.89
441.94	8095.91
442.12	7861.86
442.31	8184.85
442.50	8021.02
442.68	7784.62
442.87	8067.83
443.05	8058.46
443.24	8278.47
443.43	8119.32
443.61	8079.53
443.80	8400.18
443.98	7911.01
444.17	7946.12
444.35	8102.93
444.54	8383.80
444.73	8149.75
444.91	8280.82
445.10	8238.69
445.28	8051.44
445.47	8229.32
445.65	8299.54
445.84	8269.11
446.02	8383.80
446.21	8362.73
446.39	8332.31
446.58	8294.86
446.77	8479.76
446.95	8278.47
447.14	8446.99
447.32	8360.39
447.51	8493.80
447.69	8524.23
447.88	8594.45
448.06	8496.14
448.25	8444.65
448.43	8547.64
448.62	8400.18
448.80	8517.21
448.99	8601.47
449.17	8596.79
449.36	8465.72
449.54	8769.99
449.73	8929.14
449.91	8854.25
450.10	8887.01
450.28	8945.53
450.46	8896.38
450.65	9104.68
450.83	9001.70
451.02	8950.21
451.20	9137.45
451.39	9153.84
451.57	9186.60
451.76	9013.40
451.94	9202.99
452.13	9153.84
452.31	9167.88
452.49	9043.83
452.68	9266.18
452.86	9006.38
453.05	9465.13
453.23	9385.55
453.42	9348.10
453.60	9226.39
453.78	9296.61
453.97	9544.70
454.15	9355.12
454.34	9535.34
454.52	9673.43
454.70	9661.73
454.89	9610.24
455.07	9877.06
455.26	9764.72
455.44	9951.96
455.62	9935.57
455.81	9977.70
455.99	9853.66
456.17	9851.31
456.36	9994.09
456.54	10211.76
456.73	10022.17
456.91	10260.91
457.09	10506.66
457.28	10408.36
457.46	10157.92
457.64	10497.30
457.83	10368.57
458.01	10427.09
458.19	10595.61
458.38	10504.32
458.56	10824.98
458.74	10590.92
458.93	10640.08
459.11	10452.83
459.29	10626.03
459.48	10630.71
459.66	10822.64
459.84	10752.42
460.03	10979.45
460.21	10752.42
460.39	10932.64
460.57	11035.63
460.76	11098.82
460.94	11014.56
461.12	11171.38
461.31	10888.17
461.49	11073.07
461.67	11286.06
461.85	11391.39
462.04	11288.40
462.22	11597.35
462.40	11461.60
462.59	11386.71
462.77	11440.54
462.95	11602.04
463.13	11604.38
463.32	11712.04
463.50	11456.92
463.68	11492.03
463.86	11721.40
464.05	11751.83
464.23	11789.28
464.41	11709.70
464.59	11648.85
464.78	11969.50
464.96	11651.19
465.14	11749.49
465.32	12187.17
465.50	11854.81
465.69	12067.80
465.87	12023.33
466.05	12126.32
466.23	12065.46
466.41	12201.21
466.60	12269.09
466.78	11918.01
466.96	12140.36
467.14	12430.59
467.32	12187.17
467.51	12358.03
467.69	12018.65
467.87	12360.37
468.05	12704.43
468.23	12444.63
468.41	12353.35
468.60	12491.44
468.78	12482.08
468.96	12465.69
469.14	12737.20
469.32	12908.05
469.50	12496.12
469.69	12982.95
469.87	13011.04
470.05	13078.91
470.23	13050.83
470.41	12823.80
470.59	13153.81
470.77	13191.26
470.95	12968.91
471.14	13516.59
471.32	13081.25
471.50	13495.53
471.68	13542.34
471.86	13495.53
472.04	13830.23
472.22	13809.16
472.40	13525.96
472.58	13575.11
472.77	13956.61
472.95	13788.10
473.13	14288.97
473.31	13998.74
473.49	14040.87
473.67	14038.53
473.85	14286.63
474.03	14375.57
474.21	14469.19
474.39	14429.40
474.57	14389.61
474.75	14700.90
474.93	14941.98
475.12	14831.97
475.30	14904.53
475.48	14986.45
475.66	15070.71
475.84	15115.18
476.02	15098.80
476.20	15183.06
476.38	15768.19
476.56	15723.72
476.74	15812.66
476.92	15763.51
477.10	15616.05
477.28	15873.51
477.46	16257.36
477.64	16184.80
477.82	16360.34
478.00	16608.44
478.18	16669.30
478.36	17003.99
478.54	16821.43
478.72	17298.90
478.90	17224.00
479.08	17254.43
479.26	17572.74
479.44	17352.73
479.62	17666.36
479.80	17958.93
479.98	17963.61
480.16	18382.57
480.34	18097.02
480.52	18682.16
480.70	18515.98
480.88	18333.42
481.06	18647.05
481.24	18497.25
481.41	18773.44
481.59	19229.84
481.77	19208.78
481.95	19367.93
482.13	19763.48
482.31	19243.88
482.49	19922.64
482.67	20023.28
482.85	20343.94
483.03	20489.05
483.21	20620.12
483.39	20980.56
483.57	20629.48
483.74	21050.78
483.92	21081.21
484.10	20879.92
484.28	21561.02
484.46	21867.63
484.64	22326.37
484.82	21884.01
485.00	22178.92
485.18	22661.07
485.35	22944.27
485.53	22719.58
485.71	22689.15
485.89	23274.29
486.07	23119.81
486.25	23173.64
486.43	23227.48
486.61	24006.87
486.78	23833.68
486.96	23847.72
487.14	24428.17
487.32	24503.07
487.50	24456.26
487.68	25230.98
487.85	24898.62
488.03	25268.42
488.21	25619.50
488.39	25221.61
488.57	25914.41
488.75	26068.89
488.92	26401.24
489.10	26628.27
489.28	26656.36
489.46	26911.48
489.64	26600.19
489.81	27314.05
489.99	27505.98
490.17	27442.78
490.35	27988.13
490.53	27892.16
490.70	28201.11
490.88	28444.53
491.06	28261.97
491.24	28437.51
491.41	29071.79
491.59	29319.89
491.77	29277.76
491.95	29310.53
492.13	29652.25
492.30	29603.10
492.48	29633.52
492.66	29930.77
492.84	29905.02
493.01	29986.94
493.19	30466.75
493.37	30841.24
493.54	30885.71
493.72	31381.90
493.90	31264.88
494.08	31218.07
494.25	31819.58
494.43	31782.13
494.61	32091.09
494.79	32704.31
494.96	32301.73
495.14	32814.31
495.32	32774.52
495.49	32947.72
495.67	32945.38
495.85	33085.81
496.02	33607.75
496.20	33731.80
496.38	33556.26
496.55	34108.63
496.73	34651.63
496.91	34426.94
497.09	34403.53
497.26	34747.59
497.44	34787.38
497.62	34918.45
497.79	35569.12
497.97	35239.11
498.14	35508.27
498.32	35637.00
498.50	35866.37
498.67	36212.77
498.85	36315.75
499.03	36278.30
499.20	36332.14
499.38	36629.38
499.56	36767.48
499.73	36238.51
499.91	37102.17
500.08	37343.25
500.26	36954.72
500.44	37638.15
500.61	37600.71
500.79	37345.59
500.97	37780.93
501.14	38361.38
501.32	38211.59
501.49	38122.65
501.67	38230.31
501.84	38920.77
502.02	38422.23
502.20	39058.86
502.37	38927.79
502.55	39054.18
502.72	39108.01
502.90	39185.25
503.07	39267.17
503.25	39587.82
503.43	39597.18
503.60	39840.60
503.78	39643.99
503.95	40107.42
504.13	39992.73
504.30	39824.22
504.48	40226.79
504.65	40350.84
504.83	40524.04
505.01	41205.13
505.18	40779.15
505.36	41083.42
505.53	40638.72
505.71	41006.19
505.88	41572.60
506.06	41174.70
506.23	41738.77
506.41	41846.44
506.58	41645.15
506.76	41963.46
506.93	42319.23
507.11	42410.51
507.28	42204.54
507.46	42436.25
507.63	42541.58
507.81	43007.34
507.98	42546.26
508.16	43187.56
508.33	43288.21
508.50	43260.12
508.68	43320.98
508.85	43515.24
509.03	43210.97
509.20	43576.09
509.38	44055.90
509.55	43908.45
509.73	44156.55
509.90	44093.35
510.08	44357.83
510.25	44322.72
510.42	44516.99
510.60	44636.36
510.77	44713.59
510.95	45242.56
511.12	44809.56
511.30	44821.26
511.47	44971.05
511.64	45333.84
511.82	45340.86
511.99	45357.24
512.17	45574.91
512.34	45603.00
512.51	46099.19
512.69	46616.45
512.86	46181.11
513.04	46340.27
513.21	46756.88
513.38	46099.19
513.56	46440.91
513.73	46256.01
513.90	46740.50
514.08	46380.06
514.25	46801.35
514.43	47103.28
514.60	47100.94
514.77	46752.20
514.95	47042.43
515.12	47365.42
515.29	47199.24
515.47	47711.82
515.64	47580.75
515.81	47463.72
515.99	47826.51
516.16	48065.24
516.33	47648.63
516.51	48432.71
516.68	47990.34
516.85	48505.26
517.03	48751.02
517.20	48435.05
517.37	48098.01
517.54	48959.33
517.72	48809.53
517.89	48549.73
518.06	48849.32
518.24	48968.69
518.41	49003.80
518.58	49202.74
518.75	49008.48
518.93	49226.15
519.10	49371.26
519.27	49420.41
519.45	49198.06
519.62	49502.33
519.79	49233.17
519.96	49481.27
520.14	49947.03
520.31	49825.32
520.48	50066.40
520.65	50138.96
520.83	50153.00
521.00	50504.08
521.17	50241.94
521.34	50501.74
521.52	50344.92
521.69	50277.05
521.86	50873.88
522.03	50899.63
522.20	51096.24
522.38	51166.45
522.55	50951.12
522.72	51110.28
522.89	51173.47
523.07	51545.62
523.24	51381.78
523.41	51583.07
523.58	51194.54
523.75	51686.05
523.92	51444.98
524.10	51562.00
524.27	51716.48
524.44	52027.77
524.61	51751.59
524.78	51863.93
524.96	52116.71
525.13	52193.95
525.30	52076.92
525.47	52273.52
525.64	52343.74
525.81	52238.42
525.98	52320.34
526.16	52177.56
526.33	52299.27
526.50	52851.64
526.67	52692.48
526.84	53062.29
527.01	52608.22
527.18	52760.36
527.36	52673.76
527.53	52552.05
527.70	53127.82
527.87	53275.27
528.04	53146.54
528.21	53223.78
528.38	53275.27
528.55	53310.38
528.72	53396.98
528.89	53268.25
529.07	52910.15
529.24	53453.15
529.41	53460.18
529.58	53331.45
529.75	53595.93
529.92	53815.94
530.09	53848.71
530.26	53715.29
530.43	53712.95
530.60	53329.11
530.77	53682.53
530.94	53930.62
531.11	53968.07
531.28	53947.01
531.46	54092.12
531.63	53614.65
531.80	54082.76
531.97	54408.09
532.14	54178.72
532.31	54122.55
532.48	54424.48
532.65	54593.00
532.82	54347.24
532.99	54562.57
533.16	54347.24
533.33	54691.30
533.50	54700.66
533.67	54553.21
533.84	54422.14
534.01	54679.60
534.18	54539.16
534.35	54906.63
534.52	54642.15
534.69	54836.41
534.86	55136.00
535.03	55096.21
535.20	55150.04
535.37	55196.85
535.54	55334.95
535.71	55004.93
535.88	55365.37
536.05	55318.56
536.22	55341.97
536.38	55519.85
536.55	55285.79
536.72	55117.28
536.89	55112.59
537.06	55590.06
537.23	55426.23
537.40	55201.53
537.57	55313.88
537.74	55496.44
537.91	55847.52
538.08	55632.19
538.25	55557.30
538.42	55538.57
538.59	55920.08
538.75	55913.06
538.92	55913.06
539.09	55955.19
539.26	55814.76
539.43	55849.86
539.60	56048.81
539.77	55999.66
539.94	56423.29
540.11	56226.69
540.28	56130.73
540.44	56334.35
540.61	56381.16
540.78	56114.34
540.95	55990.30
541.12	56339.04
541.29	56231.37
541.46	56264.14
541.62	56388.19
541.79	56491.17
541.96	56222.01
542.13	56512.23
542.30	56404.57
542.47	56647.99
542.63	56844.59
542.80	56659.69
542.97	56970.98
543.14	57045.88
543.31	57195.67
543.48	56893.74
543.64	57158.22
543.81	57017.79
543.98	57062.26
544.15	57169.93
544.32	57352.49
544.48	57420.36
544.65	57418.02
544.82	57095.03
544.99	57066.94
545.16	57361.85
545.32	57233.12
545.49	57701.23
545.66	57577.18
545.83	57317.38
546.00	57542.07
546.16	57502.28
546.33	57310.36
546.50	57333.76
546.67	57446.11
546.83	57275.25
547.00	57626.33
547.17	57682.50
547.34	57726.97
547.50	57717.61
547.67	57787.83
547.84	57902.51
548.00	57834.64
548.17	58061.67
548.34	57886.13
548.51	58131.89
548.67	58068.69
548.84	57918.90
549.01	57944.64
549.18	58115.50
549.34	57911.88
549.51	58255.93
549.68	58082.73
549.84	58188.06
550.01	58202.10
550.18	58159.97
550.34	58124.86
550.51	58344.87
550.68	58094.44
550.84	58192.74
551.01	58356.58
551.18	58351.90
551.34	58255.93
551.51	58391.68
551.68	58323.81
551.84	58635.10
552.01	58326.15
552.18	58497.01
552.34	58295.72
552.51	58529.78
552.68	58232.53
552.84	58489.99
553.01	58820.00
553.18	58597.65
553.34	58588.29
553.51	58454.88
553.67	58532.12
553.84	58873.84
554.01	58742.77
554.17	58915.96
554.34	58927.67
554.51	58775.53
554.67	59157.04
554.84	58880.86
555.00	58834.05
555.17	58880.86
555.33	58843.41
555.50	58820.00
555.67	58761.49
555.83	58859.79
556.00	58981.50
556.16	59222.58
556.33	59150.02
556.50	59007.25
556.66	59217.89
556.83	58908.94
556.99	59173.42
557.16	59358.33
557.32	59320.88
557.49	59444.93
557.65	59131.29
557.82	59128.95
557.98	59201.51
558.15	59330.24
558.32	59461.31
558.48	59374.71
558.65	59260.02
558.81	59568.97
558.98	59519.82
559.14	59423.86
559.31	59358.33
559.47	59669.62
559.64	59629.83
559.80	59515.14
559.97	59763.24
560.13	59465.99
560.30	59543.23
560.46	59716.43
560.63	59688.34
560.79	59547.91
560.96	59667.28
561.12	59627.49
561.29	59650.89
561.45	59716.43
561.61	59676.64
561.78	59681.32
561.94	59505.78
562.11	59550.25
562.27	59639.19
562.44	59929.42
562.60	59753.88
562.77	59796.01
562.93	59777.28
563.10	59796.01
563.26	59842.82
563.42	59934.10
563.59	59571.32
563.75	59587.70
563.92	60018.36
564.08	59728.13
564.24	59992.61
564.41	60027.72
564.57	59915.37
564.74	59955.16
564.90	60027.72
565.07	60041.76
565.23	59936.44
565.39	60126.02
565.56	60156.45
565.72	59964.52
565.88	59955.16
566.05	59957.50
566.21	60004.31
566.38	60088.57
566.54	60210.28
566.70	60224.32
566.87	60034.74
567.03	59976.23
567.19	60336.67
567.36	60231.35
567.52	60243.05
567.68	60287.52
567.85	60224.32
568.01	60163.47
568.17	60198.58
568.34	60275.82
568.50	60030.06
568.66	60198.58
568.83	60238.37
568.99	60303.90
569.15	60018.36
569.32	60144.75
569.48	59962.18
569.64	60367.10
569.81	60217.30
569.97	60074.53
570.13	60397.52
570.30	60245.39
570.46	60367.10
570.62	60320.29
570.78	60336.67
570.95	60296.88
571.11	60477.10
571.27	60182.19
571.43	60250.07
571.60	60458.38
571.76	60329.65
571.92	60357.74
572.09	60378.80
572.25	60603.49
572.41	60296.88
572.57	60397.52
572.74	60669.03
572.90	60196.24
573.06	60467.74
573.22	60420.93
573.38	60596.47
573.55	60493.49
573.71	60640.94
573.87	60413.91
574.03	60287.52
574.20	60521.57
574.36	60559.02
574.52	60446.68
574.68	60673.71
574.84	60449.02
575.01	60652.64
575.17	60542.64
575.33	60397.52
575.49	60594.13
575.65	60626.90
575.82	60671.37
575.98	60601.15
576.14	60898.40
576.30	60676.05
576.46	60477.10
576.62	60617.53
576.79	60582.43
576.95	60416.25
577.11	60750.94
577.27	60781.37
577.43	60750.94
577.59	60528.59
577.75	60711.16
577.92	60549.66
578.08	60537.96
578.24	60608.17
578.40	60870.31
578.56	60734.56
578.72	60823.50
578.88	60842.23
579.04	60718.18
579.21	60715.84
579.37	60849.25
579.53	60867.97
579.69	60559.02
579.85	60411.57
580.01	60676.05
580.17	60711.16
580.33	60669.03
580.49	60877.33
580.65	60697.11
580.82	60694.77
580.98	60708.82
581.14	60566.04
581.30	60870.31
581.46	60645.62
581.62	60772.01
581.78	60739.24
581.94	60776.69
582.10	60704.13
582.26	60898.40
582.42	60828.18
582.58	60926.49
582.74	60692.43
582.90	60755.63
583.06	60757.97
583.22	60575.40
583.38	60835.20
583.54	60837.54
583.70	60807.12
583.86	61041.17
584.02	60736.90
584.18	60853.93
584.34	60779.03
584.50	60797.76
584.66	60711.16
584.82	60643.28
584.98	60900.74
585.14	61031.81
585.30	60699.45
585.46	61083.30
585.62	60811.80
585.78	60987.34
585.94	60764.99
586.10	60795.42
586.26	60874.99
586.42	60989.68
586.58	60905.42
586.74	60781.37
586.90	60818.82
587.06	60816.48
587.22	60966.27
587.38	60830.52
587.54	60776.69
587.70	61209.69
587.86	60963.93
588.02	60851.59
588.18	60851.59
588.34	60924.14
588.49	60935.85
