SpectraSuite Data File
++++++++++++++++++++++++++++++++++++
Date: Fri Oct 25 10:43:24 EDT 2013
User: price-jones
Dark Spectrum Present: No
Reference Spectrum Present: No
Number of Sampled Component Spectra: 1
Spectrometers: USB2+H05261
Integration Time (usec): 100000 (USB2+H05261)
Spectra Averaged: 1 (USB2+H05261)
Boxcar Smoothing: 0 (USB2+H05261)
Correct for Electrical Dark: No (USB2+H05261)
Strobe/Lamp Enabled: No (USB2+H05261)
Correct for Detector Non-linearity: No (USB2+H05261)
Correct for Stray Light: No (USB2+H05261)
Number of Pixels in Processed Spectrum: 2048
>>>>>Begin Processed Spectral Data<<<<<
365.73	147.45
365.92	147.45
366.12	147.45
366.32	63.19
366.52	58.51
366.72	107.66
366.91	72.56
367.11	51.49
367.31	53.83
367.51	46.81
367.70	0.00
367.90	21.06
368.10	0.00
368.30	86.60
368.49	9.36
368.69	25.75
368.89	37.45
369.09	60.85
369.28	56.17
369.48	39.79
369.68	42.13
369.87	67.88
370.07	102.98
370.27	184.90
370.47	201.29
370.66	355.76
370.86	421.30
371.06	397.89
371.25	442.36
371.45	376.83
371.65	545.34
371.84	418.96
372.04	559.39
372.24	454.06
372.44	477.47
372.63	479.81
372.83	477.47
373.03	442.36
373.22	503.22
373.42	505.56
373.62	561.73
373.81	521.94
374.01	554.71
374.21	557.05
374.40	512.58
374.60	559.39
374.79	550.03
374.99	493.85
375.19	554.71
375.38	571.09
375.58	704.50
375.78	650.67
375.97	599.18
376.17	718.54
376.37	671.73
376.56	603.86
376.76	655.35
376.95	631.94
377.15	645.99
377.35	585.13
377.54	617.90
377.74	629.60
377.93	667.05
378.13	683.44
378.33	629.60
378.52	653.01
378.72	589.82
378.91	631.94
379.11	695.14
379.31	610.88
379.50	594.50
379.70	711.52
379.89	727.91
380.09	699.82
380.28	685.78
380.48	718.54
380.68	716.20
380.87	706.84
381.07	692.80
381.26	741.95
381.46	688.12
381.65	695.14
381.85	718.54
382.04	763.01
382.24	753.65
382.43	638.97
382.63	631.94
382.83	690.46
383.02	741.95
383.22	746.63
383.41	669.39
383.61	685.78
383.80	805.14
384.00	723.23
384.19	716.20
384.39	823.87
384.58	755.99
384.78	840.25
384.97	812.17
385.17	870.68
385.36	826.21
385.56	858.98
385.75	807.48
385.95	837.91
386.14	739.61
386.34	781.74
386.53	896.43
386.72	837.91
386.92	842.59
387.11	917.49
387.31	842.59
387.50	847.27
387.70	816.85
387.89	868.34
388.09	842.59
388.28	891.74
388.48	877.70
388.67	851.96
388.86	866.00
389.06	999.41
389.25	978.34
389.45	983.02
389.64	980.68
389.84	924.51
390.03	994.73
390.22	1123.46
390.42	976.00
390.61	957.28
390.81	1032.18
391.00	1174.95
391.19	1102.39
391.39	1137.50
391.58	1050.90
391.78	922.17
391.97	1062.60
392.16	1018.13
392.36	1128.14
392.55	1015.79
392.75	1088.35
392.94	976.00
393.13	999.41
393.33	1011.11
393.52	1008.77
393.71	1078.99
393.91	1107.07
394.10	1109.41
394.29	1137.50
394.49	1067.28
394.68	1165.59
394.88	1174.95
395.07	1308.36
395.26	1086.01
395.46	1228.78
395.65	1240.48
395.84	1071.97
396.04	1228.78
396.23	1193.67
396.42	1107.07
396.62	1128.14
396.81	1205.38
397.00	1165.59
397.19	1249.85
397.39	1334.11
397.58	1380.92
397.77	1420.71
397.97	1275.59
398.16	1392.62
398.35	1409.00
398.55	1334.11
398.74	1476.88
398.93	1453.47
399.12	1495.60
399.32	1502.62
399.51	1526.03
399.70	1540.07
399.90	1511.99
400.09	1600.93
400.28	1598.59
400.47	1664.12
400.67	1540.07
400.86	1671.14
401.05	1605.61
401.24	1694.55
401.44	1675.82
401.63	1563.48
401.82	1643.06
402.01	1603.27
402.21	1717.95
402.40	1734.34
402.59	1682.85
402.78	1741.36
402.97	1760.08
403.17	1760.08
403.36	1806.89
403.55	1708.59
403.74	1823.28
403.93	1792.85
404.13	1867.75
404.32	1790.51
404.51	1891.15
404.70	1963.71
404.89	1940.30
405.09	1923.92
405.28	1888.81
405.47	1956.69
405.66	1984.77
405.85	2017.54
406.05	1849.02
406.24	2059.67
406.43	1996.48
406.62	2033.93
406.81	2038.61
407.00	2050.31
407.20	2050.31
407.39	2069.03
407.58	2090.10
407.77	2127.55
407.96	2258.62
408.15	2186.06
408.34	2162.66
408.54	2249.25
408.73	2214.15
408.92	2237.55
409.11	2305.43
409.30	2342.88
409.49	2303.09
409.68	2239.89
409.87	2359.26
410.07	2314.79
410.26	2361.60
410.45	2403.73
410.64	2349.90
410.83	2469.27
411.02	2490.33
411.21	2562.89
411.40	2642.46
411.59	2499.69
411.78	2548.84
411.98	2527.78
412.17	2590.97
412.36	2590.97
412.55	2642.46
412.74	2689.28
412.93	2698.64
413.12	2614.38
413.31	2878.86
413.50	2843.75
413.69	2761.83
413.88	2843.75
414.07	2906.95
414.26	2913.97
414.45	2794.60
414.64	3030.99
414.83	2892.90
415.02	3063.76
415.22	3052.06
415.41	3122.27
415.60	3068.44
415.79	3042.70
415.98	3267.39
416.17	3218.24
416.36	3251.00
416.55	3215.90
416.74	3335.26
416.93	3169.09
417.12	3286.11
417.31	3426.54
417.50	3389.10
417.69	3407.82
417.88	3440.59
418.07	3316.54
418.26	3377.39
418.45	3454.63
418.64	3478.04
418.83	3552.93
419.02	3459.31
419.21	3571.66
419.39	3508.46
419.58	3503.78
419.77	3480.38
419.96	3552.93
420.15	3702.73
420.34	3609.11
420.53	3723.79
420.72	3810.39
420.91	3777.62
421.10	3791.67
421.29	3962.53
421.48	3833.80
421.67	3721.45
421.86	3747.20
422.05	3730.81
422.24	3691.02
422.43	3733.15
422.61	3801.03
422.80	3789.33
422.99	3927.42
423.18	3899.33
423.37	3995.29
423.56	3871.25
423.75	3943.80
423.94	3861.88
424.13	3569.32
424.32	3786.99
424.50	3686.34
424.69	3922.74
424.88	4025.72
425.07	3805.71
425.26	3819.75
425.45	3857.20
425.64	3850.18
425.83	4079.55
426.01	4112.32
426.20	3974.23
426.39	4072.53
426.58	3805.71
426.77	3880.61
426.96	3887.63
427.15	3904.01
427.33	3992.95
427.52	3997.64
427.71	4028.06
427.90	4079.55
428.09	4217.65
428.28	4009.34
428.46	4032.74
428.65	4161.47
428.84	4135.73
429.03	4231.69
429.22	4070.19
429.40	4056.15
429.59	4159.13
429.78	3892.31
429.97	3971.89
430.16	3985.93
430.34	4053.81
430.53	4168.49
430.72	4107.64
430.91	4114.66
431.10	4341.69
431.28	4423.61
431.47	4540.64
431.66	4730.22
431.85	4535.96
432.03	4505.53
432.22	4580.43
432.41	4645.96
432.60	4568.73
432.79	4526.60
432.97	4695.11
433.16	4706.82
433.35	4564.04
433.54	4678.73
433.72	4648.30
433.91	4545.32
434.10	4660.01
434.28	4685.75
434.47	4826.18
434.66	4889.38
434.85	4793.42
435.03	4952.57
435.22	4905.76
435.41	5125.77
435.59	5083.64
435.78	4938.53
435.97	5071.94
436.16	4980.66
436.34	5137.48
436.53	5057.90
436.72	5301.31
436.90	5118.75
437.09	5057.90
437.28	5076.62
437.46	5179.61
437.65	5163.22
437.84	5200.67
438.02	5221.74
438.21	5245.14
438.40	5137.48
438.58	5270.89
438.77	5383.23
438.96	5359.83
439.14	5259.18
439.33	5490.90
439.52	5584.52
439.70	5533.03
439.89	5671.12
440.08	5586.86
440.26	5570.48
440.45	5605.58
440.63	5748.36
440.82	5860.70
441.01	5743.67
441.19	6010.50
441.38	6005.81
441.57	6066.67
441.75	6129.86
441.94	6188.38
442.12	6200.08
442.31	6342.85
442.50	6197.74
442.68	6174.33
442.87	6310.08
443.05	6345.19
443.24	6328.81
443.43	6370.94
443.61	6443.49
443.80	6619.04
443.98	6260.93
444.17	6047.94
444.35	6340.51
444.54	6581.59
444.73	6490.31
444.91	6408.39
445.10	6448.18
445.28	6434.13
445.47	6328.81
445.65	6373.28
445.84	6541.80
446.02	6581.59
446.21	6509.03
446.39	6560.52
446.58	6537.12
446.77	6745.42
446.95	6438.81
447.14	6668.19
447.32	6672.87
447.51	6565.20
447.69	6551.16
447.88	6579.25
448.06	6539.46
448.25	6597.97
448.43	6750.10
448.62	6717.34
448.80	6726.70
448.99	6792.23
449.17	6787.55
449.36	6761.81
449.54	6979.48
449.73	6946.71
449.91	7136.29
450.10	6881.18
450.28	7339.92
450.46	7248.64
450.65	7262.68
450.83	7222.89
451.02	7204.17
451.20	7091.82
451.39	7037.99
451.57	7150.34
451.76	7129.27
451.94	7178.42
452.13	7194.81
452.31	7119.91
452.49	7002.88
452.68	7077.78
452.86	7089.48
453.05	7157.36
453.23	7265.02
453.42	7377.37
453.60	7208.85
453.78	7541.21
453.97	7353.96
454.15	7349.28
454.34	7365.67
454.52	7424.18
454.70	7517.80
454.89	7602.06
455.07	7433.54
455.26	7606.74
455.44	7522.48
455.62	7438.22
455.81	7777.60
455.99	7639.51
456.17	7805.69
456.36	7719.09
456.54	7714.41
456.73	7875.90
456.91	8140.38
457.09	8037.40
457.28	8128.68
457.46	7999.95
457.64	8023.36
457.83	8058.46
458.01	7929.74
458.19	8100.59
458.38	8053.78
458.56	8311.24
458.74	8088.89
458.93	7971.86
459.11	8166.13
459.29	8100.59
459.48	8545.30
459.66	8201.24
459.84	8376.78
460.03	8528.91
460.21	8383.80
460.39	8351.03
460.57	8446.99
460.76	8472.74
460.94	8531.25
461.12	8507.85
461.31	8503.17
461.49	8622.53
461.67	8631.90
461.85	8711.47
462.04	8826.16
462.22	9114.05
462.40	8938.51
462.59	8765.31
462.77	8702.11
462.95	8821.48
463.13	8772.33
463.32	8765.31
463.50	9004.04
463.68	8910.42
463.86	8847.22
464.05	8837.86
464.23	8744.24
464.41	8954.89
464.59	9008.72
464.78	9186.60
464.96	9151.49
465.14	9025.11
465.32	8985.32
465.50	9259.16
465.69	9142.13
465.87	9303.63
466.05	9069.58
466.23	8950.21
466.41	9008.72
466.60	9191.28
466.78	9165.54
466.96	9097.66
467.14	9071.92
467.32	9221.71
467.51	9287.25
467.69	9085.96
467.87	9247.46
468.05	9462.79
468.23	9217.03
468.41	9249.80
468.60	9327.03
468.78	9647.69
468.96	9474.49
469.14	9549.39
469.32	9589.17
469.50	9518.96
469.69	9753.01
469.87	9689.82
470.05	9760.03
470.23	9614.92
470.41	9666.41
470.59	10167.29
470.77	9853.66
470.95	9816.21
471.14	9968.34
471.32	9881.74
471.50	10312.40
471.68	10181.33
471.86	10228.14
472.04	10178.99
472.22	10279.63
472.40	10160.27
472.58	10281.97
472.77	10354.53
472.95	10473.90
473.13	10686.89
473.31	10289.00
473.49	10487.94
473.67	10394.32
473.85	10560.50
474.03	10906.90
474.21	10801.57
474.39	10853.06
474.57	10949.03
474.75	11082.44
474.93	11052.01
475.12	10984.13
475.30	11166.70
475.48	11124.57
475.66	11157.33
475.84	11302.45
476.02	11295.43
476.20	11314.15
476.38	11349.26
476.56	11899.28
476.74	11875.88
476.92	11735.45
477.10	11709.70
477.28	11866.52
477.46	11974.18
477.64	12079.50
477.82	12152.06
478.00	12620.17
478.18	12358.03
478.36	12449.31
478.54	12685.70
478.72	12442.29
478.90	12840.18
479.08	12671.66
479.26	13057.85
479.44	13083.59
479.62	13198.28
479.80	13217.01
479.98	13207.64
480.16	13696.82
480.34	13570.43
480.52	13757.67
480.70	13689.79
480.88	13472.12
481.06	13769.37
481.24	13914.48
481.41	14045.55
481.59	14209.39
481.77	14022.15
481.95	14118.11
482.13	14464.51
482.31	14185.99
482.49	14869.42
482.67	14541.75
482.85	14869.42
483.03	15112.84
483.21	15035.60
483.39	15379.66
483.57	15229.87
483.74	15367.96
483.92	15585.63
484.10	15328.17
484.28	15978.84
484.46	15974.16
484.64	16369.71
484.82	15683.93
485.00	15981.18
485.18	16166.08
485.35	16404.81
485.53	16166.08
485.71	15995.22
485.89	16297.15
486.07	16238.64
486.25	16493.76
486.43	16762.92
486.61	17022.72
486.78	16819.09
486.96	17458.06
487.14	17673.39
487.32	17467.42
487.50	17893.40
487.68	18097.02
487.85	18277.24
488.03	18389.59
488.21	18401.29
488.39	18167.24
488.57	18415.34
488.75	18775.78
488.92	18693.86
489.10	19227.50
489.28	19131.54
489.46	19398.36
489.64	19541.13
489.81	20072.43
489.99	20065.41
490.17	19822.00
490.35	20222.23
490.53	20053.71
490.70	20271.38
490.88	20313.51
491.06	20575.65
491.24	20409.47
491.41	20596.71
491.59	20720.76
491.77	20592.03
491.95	20713.74
492.13	21118.65
492.30	21661.66
492.48	21624.21
492.66	21518.89
492.84	21792.73
493.01	22132.11
493.19	21678.04
493.37	22169.55
493.54	21907.41
493.72	22387.22
493.90	22141.47
494.08	22644.68
494.25	23154.92
494.43	22698.52
494.61	23173.64
494.79	23194.71
494.96	23293.01
495.14	23522.38
495.32	23356.21
495.49	23215.77
495.67	23508.34
495.85	23899.21
496.02	24114.54
496.20	24044.32
496.38	24407.11
496.55	24428.17
496.73	24840.11
496.91	24617.75
497.09	24393.06
497.26	24692.65
497.44	24713.72
497.62	25055.43
497.79	24938.41
497.97	25022.67
498.14	25322.26
498.32	25586.74
498.50	25266.08
498.67	25823.13
498.85	25462.69
499.03	26136.76
499.20	25724.83
499.38	26052.50
499.56	26043.14
499.73	26169.53
499.91	26324.01
500.08	26677.43
500.26	26597.85
500.44	26214.00
500.61	26590.83
500.79	26298.26
500.97	26757.00
501.14	26909.14
501.32	26862.33
501.49	26649.34
501.67	26852.97
501.84	27346.82
502.02	27630.02
502.20	27297.67
502.37	27398.31
502.55	27805.56
502.72	27199.37
502.90	27798.54
503.07	27704.92
503.25	27742.37
503.43	27697.90
503.60	27730.67
503.78	27824.29
503.95	27702.58
504.13	28112.17
504.30	28264.31
504.48	28315.80
504.65	28121.54
504.83	28496.02
505.01	28919.66
505.18	28793.27
505.36	29418.19
505.53	29223.93
505.71	29406.49
505.88	29303.51
506.06	28950.09
506.23	29521.18
506.41	29277.76
506.58	29909.71
506.76	29673.31
506.93	29539.90
507.11	29401.81
507.28	30024.39
507.46	29869.92
507.63	29797.36
507.81	30045.46
507.98	29537.56
508.16	29975.24
508.33	29926.09
508.50	30345.05
508.68	31044.87
508.85	31063.59
509.03	30560.37
509.20	30899.75
509.38	30724.21
509.55	30874.01
509.73	31124.44
509.90	30953.58
510.08	30913.80
510.25	31171.25
510.42	31044.87
510.60	31466.16
510.77	31445.10
510.95	31789.16
511.12	31580.85
511.30	31899.16
511.47	32283.01
511.64	32013.85
511.82	31983.42
511.99	31882.78
512.17	32158.96
512.34	31765.75
512.51	32414.08
512.69	32818.99
512.86	32252.58
513.04	32423.44
513.21	32236.20
513.38	32369.61
513.56	32821.33
513.73	32854.10
513.90	32500.68
514.08	33003.89
514.25	33039.00
514.43	33048.36
514.60	32989.85
514.77	33212.20
514.95	33333.91
515.12	33029.64
515.29	33544.56
515.47	33694.35
515.64	33619.46
515.81	33127.94
515.99	33546.90
516.16	33486.04
516.33	33259.01
516.51	33146.67
516.68	33205.18
516.85	32603.66
517.03	33514.13
517.20	33956.49
517.37	34122.67
517.54	34244.38
517.72	34036.07
517.89	33603.07
518.06	33687.33
518.24	33914.36
518.41	34281.83
518.58	34490.13
518.75	34312.25
518.93	34345.02
519.10	34787.38
519.27	34511.20
519.45	34651.63
519.62	34934.84
519.79	34930.16
519.96	35014.41
520.14	35093.99
520.31	34508.86
520.48	34920.79
520.65	35161.87
520.83	35398.26
521.00	35550.40
521.17	36058.29
521.34	35637.00
521.52	36060.63
521.69	35480.18
521.86	35952.97
522.03	35835.94
522.20	35931.90
522.38	36093.40
522.55	35952.97
522.72	36304.05
522.89	35739.98
523.07	36842.37
523.24	36280.64
523.41	36519.38
523.58	36168.30
523.75	36992.17
523.92	37212.18
524.10	36903.23
524.27	36877.48
524.44	36669.17
524.61	36982.80
524.78	37357.29
524.96	36975.78
525.13	37057.70
525.30	37296.44
525.47	37464.96
525.64	37233.24
525.81	37535.17
525.98	37387.72
526.16	37083.45
526.33	37357.29
526.50	36957.06
526.67	37088.13
526.84	36903.23
527.01	37296.44
527.18	37673.26
527.36	37799.65
527.53	37900.29
527.70	37914.34
527.87	38068.81
528.04	37940.08
528.21	38059.45
528.38	38443.30
528.55	38464.36
528.72	38330.95
528.89	38703.10
529.07	38251.38
529.24	38665.65
529.41	38190.52
529.58	38630.54
529.75	38103.92
529.92	38916.09
530.09	38902.04
530.26	38899.70
530.43	39049.50
530.60	38824.81
530.77	38974.60
530.94	38923.11
531.11	38806.08
531.28	39264.83
531.46	38888.00
531.63	39557.39
531.80	39604.20
531.97	39239.08
532.14	38974.60
532.31	38756.93
532.48	39154.82
532.65	39189.93
532.82	39529.31
532.99	39498.88
533.16	39459.09
533.33	39817.19
533.50	40002.10
533.67	40016.14
533.84	39210.99
534.01	39983.37
534.18	39367.81
534.35	40011.46
534.52	39892.09
534.69	40505.31
534.86	40102.74
535.03	40095.72
535.20	40568.51
535.37	40982.78
535.54	40711.28
535.71	40112.10
535.88	40690.21
536.05	40488.93
536.22	40947.67
536.38	40561.48
536.55	40542.76
536.72	40133.17
536.89	40353.18
537.06	39995.07
537.23	40751.07
537.40	40973.42
537.57	40940.65
537.74	40521.69
537.91	41123.21
538.08	40800.22
538.25	40847.03
538.42	41027.25
538.59	41036.61
538.75	40886.82
538.92	40664.47
539.09	41345.56
539.26	40697.24
539.43	40657.45
539.60	41177.04
539.77	41284.71
539.94	40903.20
540.11	41067.04
540.28	41160.66
540.44	41516.42
540.61	41298.75
540.78	40903.20
540.95	41310.46
541.12	41155.98
541.29	41635.79
541.46	41368.97
541.62	41965.81
541.79	41390.03
541.96	41088.10
542.13	41514.08
542.30	41830.05
542.47	42096.88
542.63	41581.96
542.80	41860.48
542.97	42347.31
543.14	42080.49
543.31	42354.33
543.48	42146.03
543.64	42314.55
543.81	42684.35
543.98	42401.14
544.15	42129.64
544.32	42593.07
544.48	42866.91
544.65	42658.60
544.82	42457.32
544.99	42139.00
545.16	42274.76
545.32	42672.65
545.49	42876.27
545.66	43173.52
545.83	42665.63
546.00	43079.90
546.16	42623.50
546.33	42850.53
546.50	42422.21
546.67	42911.38
546.83	42766.27
547.00	43098.62
547.17	42663.28
547.34	42899.68
547.50	43262.46
547.67	43189.91
547.84	42745.20
548.00	43501.20
548.17	43463.75
548.34	43367.79
548.51	43311.61
548.67	43728.23
548.84	43601.84
549.01	43054.15
549.18	43290.55
549.34	43316.29
549.51	43210.97
549.68	43388.85
549.84	43826.53
550.01	43639.29
550.18	43356.08
550.34	43442.68
550.51	43604.18
550.68	43749.29
550.84	43098.62
551.01	43744.61
551.18	43784.40
551.34	43688.44
551.51	44093.35
551.68	44088.67
551.84	43576.09
552.01	43402.89
552.18	43578.43
552.34	43304.59
552.51	43732.91
552.68	44177.61
552.84	44430.39
553.01	44322.72
553.18	44065.27
553.34	43807.81
553.51	43936.54
553.67	44254.85
553.84	44493.58
554.01	44720.62
554.17	44655.08
554.34	44729.98
554.51	44659.76
554.67	44498.26
554.84	44165.91
555.00	44065.27
555.17	44130.80
555.33	44208.04
555.50	44423.37
555.67	44528.69
555.83	44194.00
556.00	44566.14
556.16	45249.58
556.33	44306.34
556.50	44729.98
556.66	44626.99
556.83	44311.02
556.99	44458.48
557.16	44767.43
557.32	44257.19
557.49	44818.92
557.65	45022.54
557.82	44900.84
557.98	45029.57
558.15	44844.66
558.32	45235.53
558.48	44645.72
558.65	44617.63
558.81	44428.05
558.98	44683.17
559.14	44704.23
559.31	44472.52
559.47	44828.28
559.64	45106.80
559.80	44648.06
559.97	45144.25
560.13	44699.55
560.30	44683.17
560.46	45104.46
560.63	45041.27
560.79	45034.25
560.96	45340.86
561.12	44615.29
561.29	44783.81
561.45	45034.25
561.61	44928.92
561.78	45027.23
561.94	44912.54
562.11	44919.56
562.27	44921.90
562.44	45099.78
562.60	45525.76
562.77	45420.44
562.93	45357.24
563.10	45453.20
563.26	45064.67
563.42	45483.63
563.59	45233.19
563.75	45471.93
563.92	45500.01
564.08	45202.77
564.24	45724.71
564.41	45045.95
564.57	45338.52
564.74	45361.92
564.90	45280.00
565.07	45853.44
565.23	45305.75
565.39	45153.62
565.56	45532.78
565.72	45216.81
565.88	45361.92
566.05	44989.78
566.21	45247.24
566.38	44987.44
566.54	45813.65
566.70	45661.51
566.87	45883.86
567.03	45605.34
567.19	45993.87
567.36	45617.04
567.52	45874.50
567.68	45626.40
567.85	45226.17
568.01	45703.64
568.17	45659.17
568.34	45794.92
568.50	45198.09
568.66	45420.44
568.83	45516.40
568.99	45287.03
569.15	45387.67
569.32	45684.92
569.48	45275.32
569.64	45858.12
569.81	45806.62
569.97	45787.90
570.13	45687.26
570.30	44856.37
570.46	45277.66
570.62	45174.68
570.78	44727.64
570.95	45127.87
571.11	45368.94
571.27	44825.94
571.43	45401.71
571.60	45219.15
571.76	45778.54
571.92	45408.73
572.09	45677.90
572.25	45947.06
572.41	45825.35
572.57	45659.17
572.74	46146.00
572.90	45207.45
573.06	45867.48
573.22	45670.87
573.38	45731.73
573.55	45701.30
573.71	46354.31
573.87	45993.87
574.03	45605.34
574.20	45684.92
574.36	45684.92
574.52	46057.06
574.68	45823.01
574.84	45631.08
575.01	45815.99
575.17	45570.23
575.33	45815.99
575.49	45794.92
575.65	46040.68
575.82	45635.77
575.98	45911.95
576.14	45925.99
576.30	45954.08
576.46	45277.66
576.62	45998.55
576.79	45610.02
576.95	45345.54
577.11	45869.82
577.27	45773.86
577.43	45935.35
577.59	45371.28
577.75	45911.95
577.92	45404.05
578.08	44971.05
578.24	45436.82
578.40	45769.18
578.56	45867.48
578.72	45799.60
578.88	46391.76
579.04	45881.52
579.21	45319.79
579.37	45663.85
579.53	45481.29
579.69	45228.51
579.85	45443.84
580.01	45694.28
580.17	45727.05
580.33	45911.95
580.49	45757.47
580.65	45682.58
580.82	45617.04
580.98	45916.63
581.14	45490.65
581.30	46068.76
581.46	45656.83
581.62	45961.10
581.78	46232.60
581.94	46167.07
582.10	45907.27
582.26	45958.76
582.42	45937.69
582.58	45855.78
582.74	45832.37
582.90	45949.40
583.06	46110.89
583.22	46040.68
583.38	46171.75
583.54	45705.98
583.70	46298.14
583.86	45881.52
584.02	45691.94
584.18	45993.87
584.34	45825.35
584.50	46054.72
584.66	46330.90
584.82	45766.84
584.98	46028.98
585.14	45989.19
585.30	45736.41
585.46	45565.55
585.62	45521.08
585.78	45455.54
585.94	45038.93
586.10	45408.73
586.26	45418.10
586.42	46183.45
586.58	46094.51
586.74	45698.96
586.90	45455.54
587.06	45427.46
587.22	45883.86
587.38	46021.95
587.54	46026.63
587.70	45764.49
587.86	45918.97
588.02	46197.49
588.18	45825.35
588.34	45563.21
588.49	45366.60
588.65	45235.53
588.81	45317.45
588.97	45111.49
589.13	45574.91
589.29	45528.10
589.45	45401.71
589.61	45982.16
589.77	46012.59
589.93	46223.24
