SpectraSuite Data File
++++++++++++++++++++++++++++++++++++
Date: Fri Oct 25 11:25:50 EDT 2013
User: price-jones
Dark Spectrum Present: No
Reference Spectrum Present: No
Number of Sampled Component Spectra: 1
Spectrometers: USB2+H05261
Integration Time (usec): 100000 (USB2+H05261)
Spectra Averaged: 1 (USB2+H05261)
Boxcar Smoothing: 0 (USB2+H05261)
Correct for Electrical Dark: No (USB2+H05261)
Strobe/Lamp Enabled: No (USB2+H05261)
Correct for Detector Non-linearity: No (USB2+H05261)
Correct for Stray Light: No (USB2+H05261)
Number of Pixels in Processed Spectrum: 2048
>>>>>Begin Processed Spectral Data<<<<<
365.73	266.82
365.92	266.82
366.12	266.82
366.32	168.52
366.52	156.82
366.72	182.56
366.91	142.77
367.11	114.69
367.31	154.48
367.51	100.64
367.70	79.58
367.90	102.98
368.10	159.16
368.30	72.56
368.49	168.52
368.69	177.88
368.89	117.03
369.09	154.48
369.28	161.50
369.48	236.39
369.68	166.18
369.87	210.65
370.07	220.01
370.27	301.93
370.47	297.25
370.66	566.41
370.86	554.71
371.06	709.18
371.25	711.52
371.45	704.50
371.65	671.73
371.84	751.31
372.04	777.06
372.24	704.50
372.44	704.50
372.63	695.14
372.83	683.44
373.03	683.44
373.22	734.93
373.42	795.78
373.62	772.38
373.81	723.23
374.01	870.68
374.21	863.66
374.40	753.65
374.60	828.55
374.79	816.85
374.99	795.78
375.19	866.00
375.38	889.40
375.58	873.02
375.78	868.34
375.97	828.55
376.17	842.59
376.37	922.17
376.56	866.00
376.76	795.78
376.95	840.25
377.15	938.55
377.35	898.77
377.54	891.74
377.74	933.87
377.93	908.13
378.13	938.55
378.33	966.64
378.52	877.70
378.72	971.32
378.91	954.94
379.11	945.58
379.31	940.90
379.50	912.81
379.70	1006.43
379.89	931.53
380.09	985.37
380.28	912.81
380.48	1029.84
380.68	943.24
380.87	978.34
381.07	950.26
381.26	1029.84
381.46	1018.13
381.65	1088.35
381.85	1069.62
382.04	1062.60
382.24	961.96
382.43	1130.48
382.63	1074.31
382.83	1146.86
383.02	1078.99
383.22	1029.84
383.41	1107.07
383.61	1020.47
383.80	1181.97
384.00	1132.82
384.19	1121.12
384.39	1135.16
384.58	1188.99
384.78	1130.48
384.97	1203.04
385.17	1121.12
385.36	1170.27
385.56	1179.63
385.75	1090.69
385.95	1200.69
386.14	1170.27
386.34	1266.23
386.53	1135.16
386.72	1186.65
386.92	1327.08
387.11	1228.78
387.31	1291.98
387.50	1219.42
387.70	1123.46
387.89	1203.04
388.09	1315.38
388.28	1270.91
388.48	1273.25
388.67	1416.02
388.86	1299.00
389.06	1289.64
389.25	1348.15
389.45	1345.81
389.64	1387.94
389.84	1299.00
390.03	1390.28
390.22	1427.73
390.42	1310.70
390.61	1437.09
390.81	1352.83
391.00	1490.92
391.19	1427.73
391.39	1462.83
391.58	1472.20
391.78	1425.39
391.97	1411.34
392.16	1423.05
392.36	1551.78
392.55	1418.36
392.75	1514.33
392.94	1582.20
393.13	1586.88
393.33	1469.86
393.52	1568.16
393.71	1626.67
393.91	1500.28
394.10	1544.75
394.29	1530.71
394.49	1664.12
394.68	1645.40
394.88	1657.10
395.07	1710.93
395.26	1680.50
395.46	1776.47
395.65	1727.32
395.84	1764.76
396.04	1816.26
396.23	1720.29
396.42	1743.70
396.62	1792.85
396.81	1832.64
397.00	1823.28
397.19	1792.85
397.39	1732.00
397.58	1746.04
397.77	1760.08
397.97	1792.85
398.16	1776.47
398.35	1884.13
398.55	1940.30
398.74	1842.00
398.93	1902.86
399.12	1909.88
399.32	1998.82
399.51	2036.27
399.70	1935.62
399.90	1987.11
400.09	1980.09
400.28	2083.08
400.47	2024.56
400.67	2104.14
400.86	2101.80
401.05	2078.40
401.24	2230.53
401.44	2106.48
401.63	2090.10
401.82	2209.47
402.01	2118.18
402.21	2321.81
402.40	2200.10
402.59	2221.17
402.78	2193.08
402.97	2296.07
403.17	2324.15
403.36	2193.08
403.55	2230.53
403.74	2370.96
403.93	2438.84
404.13	2399.05
404.32	2305.43
404.51	2370.96
404.70	2431.82
404.89	2326.49
405.09	2459.90
405.28	2441.18
405.47	2438.84
405.66	2492.67
405.85	2480.97
406.05	2593.31
406.24	2555.86
406.43	2525.44
406.62	2558.21
406.81	2686.94
407.00	2595.65
407.20	2644.81
407.39	2626.08
407.58	2717.36
407.77	2789.92
407.96	2794.60
408.15	2731.41
408.34	2670.55
408.54	2785.24
408.73	2782.90
408.92	2832.05
409.11	2841.41
409.30	2857.79
409.49	2916.31
409.68	2897.58
409.87	2906.95
410.07	2998.23
410.26	3012.27
410.45	2977.16
410.64	3047.38
410.83	3042.70
411.02	3040.36
411.21	3201.85
411.40	3131.64
411.59	3251.00
411.78	3225.26
411.98	3293.13
412.17	3190.15
412.36	3293.13
412.55	3396.12
412.74	3473.36
412.93	3396.12
413.12	3286.11
413.31	3452.29
413.50	3487.40
413.69	3435.91
413.88	3510.80
414.07	3541.23
414.26	3751.88
414.45	3611.45
414.64	3840.82
414.83	3700.39
415.02	3700.39
415.22	3779.97
415.41	3765.92
415.60	3868.91
415.79	3906.35
415.98	3964.87
416.17	3932.10
416.36	4042.11
416.55	4072.53
416.74	4140.41
416.93	4098.28
417.12	4067.85
417.31	4173.18
417.50	4166.15
417.69	4238.71
417.88	4301.90
418.07	4308.93
418.26	4217.65
418.45	4423.61
418.64	4479.79
418.83	4236.37
419.02	4365.10
419.21	4552.34
419.39	4617.88
419.58	4337.01
419.77	4409.57
419.96	4547.66
420.15	4603.83
420.34	4519.57
420.53	4681.07
420.72	4732.56
420.91	4744.27
421.10	4662.35
421.29	4702.14
421.48	4725.54
421.67	4795.76
421.86	4629.58
422.05	4678.73
422.24	4793.42
422.43	4791.08
422.61	4826.18
422.80	4887.04
422.99	5041.51
423.18	4983.00
423.37	5015.77
423.56	4922.15
423.75	4922.15
423.94	4674.05
424.13	4629.58
424.32	4702.14
424.50	4987.68
424.69	5109.39
424.88	5097.69
425.07	4910.44
425.26	4884.70
425.45	4959.60
425.64	4968.96
425.83	4952.57
426.01	5001.72
426.20	4961.94
426.39	4936.19
426.58	4791.08
426.77	4952.57
426.96	5156.20
427.15	5046.20
427.33	5247.48
427.52	5231.10
427.71	5151.52
427.90	5275.57
428.09	5294.29
428.28	5465.15
428.46	5366.85
428.65	5350.46
428.84	5362.17
429.03	5516.64
429.22	5301.31
429.40	5432.38
429.59	5432.38
429.78	5329.40
429.97	5441.75
430.16	5619.63
430.34	5518.98
430.53	5551.75
430.72	5472.17
430.91	5621.97
431.10	5636.01
431.28	5750.70
431.47	5818.57
431.66	5762.40
431.85	5853.68
432.03	5757.72
432.22	5933.26
432.41	6054.97
432.60	5900.49
432.79	6038.58
432.97	6012.84
433.16	5980.07
433.35	6066.67
433.54	5987.09
433.72	6078.37
433.91	6012.84
434.10	6207.10
434.28	5991.77
434.47	6253.91
434.66	6289.02
434.85	6303.06
435.03	6392.00
435.22	6375.62
435.41	6403.71
435.59	6476.26
435.78	6539.46
435.97	6394.34
436.16	6333.49
436.34	6450.52
436.53	6569.88
436.72	6700.95
436.90	6499.67
437.09	6736.06
437.28	6511.37
437.46	6637.76
437.65	6682.23
437.84	6726.70
438.02	6719.68
438.21	6878.83
438.40	6516.05
438.58	6899.90
438.77	6808.62
438.96	6944.37
439.14	7077.78
439.33	7255.66
439.52	7115.23
439.70	7236.94
439.89	7286.09
440.08	7478.01
440.26	7318.86
440.45	7344.60
440.63	7515.46
440.82	7501.42
441.01	7286.09
441.19	7520.14
441.38	7775.26
441.57	7679.30
441.75	7751.85
441.94	7957.82
442.12	7918.03
442.31	8042.08
442.50	8168.47
442.68	7901.65
442.87	8011.65
443.05	8060.80
443.24	8156.77
443.43	8119.32
443.61	8280.82
443.80	8451.67
443.98	8056.12
444.17	7737.81
444.35	8184.85
444.54	8390.82
444.73	8219.96
444.91	8336.99
445.10	8325.29
445.28	8142.72
445.47	8152.09
445.65	8290.18
445.84	8465.72
446.02	8318.26
446.21	8418.91
446.39	8362.73
446.58	8402.52
446.77	8386.14
446.95	8355.71
447.14	8435.29
447.32	8517.21
447.51	8596.79
447.69	8444.65
447.88	8493.80
448.06	8444.65
448.25	8446.99
448.43	8545.30
448.62	8615.51
448.80	8601.47
448.99	8554.66
449.17	8786.37
449.36	8428.27
449.54	8704.45
449.73	8926.80
449.91	8872.97
450.10	9043.83
450.28	8833.18
450.46	9053.19
450.65	8954.89
450.83	9043.83
451.02	8905.74
451.20	9088.30
451.39	9116.39
451.57	9088.30
451.76	9039.15
451.94	9179.58
452.13	9210.01
452.31	9085.96
452.49	9004.04
452.68	9287.25
452.86	9568.11
453.05	9444.06
453.23	9525.98
453.42	9453.42
453.60	9439.38
453.78	9717.90
453.97	9280.22
454.15	9476.83
454.34	9341.08
454.52	9577.47
454.70	9575.13
454.89	9767.06
455.07	9837.27
455.26	9790.46
455.44	9776.42
455.62	9811.53
455.81	9905.15
455.99	9994.09
456.17	9963.66
456.36	9928.55
456.54	10207.08
456.73	10228.14
456.91	10265.59
457.09	10518.37
457.28	10562.84
457.46	10228.14
457.64	10647.10
457.83	10567.52
458.01	10478.58
458.19	10656.46
458.38	10462.19
458.56	10796.89
458.74	10857.75
458.93	10548.79
459.11	10534.75
459.29	10686.89
459.48	10628.37
459.66	10801.57
459.84	10979.45
460.03	10937.32
460.21	11115.20
460.39	10984.13
460.57	10932.64
460.76	11061.37
460.94	11012.22
461.12	11171.38
461.31	11159.67
461.49	11049.67
461.67	10869.45
461.85	11543.52
462.04	11360.96
462.22	11815.02
462.40	11611.40
462.59	11452.24
462.77	11438.20
462.95	11604.38
463.13	11503.73
463.32	11679.27
463.50	11686.29
463.68	11808.00
463.86	11683.95
464.05	11829.07
464.23	11721.40
464.41	11662.89
464.59	11463.94
464.78	12044.40
464.96	11829.07
465.14	11903.96
465.32	11927.37
465.50	12025.67
465.69	11997.59
465.87	12297.17
466.05	12241.00
466.23	11964.82
466.41	12255.04
466.60	12348.67
466.78	12182.49
466.96	12175.47
467.14	12320.58
467.32	12428.24
467.51	12505.48
467.69	12358.03
467.87	12615.49
468.05	12489.10
468.23	12367.39
468.41	12308.88
468.60	12559.31
468.78	12664.64
468.96	12622.51
469.14	12760.60
469.32	13041.46
469.50	12716.13
469.69	13046.15
469.87	13142.11
470.05	13069.55
470.23	13174.88
470.41	13144.45
470.59	13266.16
470.77	13245.09
470.95	13114.02
471.14	13282.54
471.32	13334.03
471.50	13661.71
471.68	13535.32
471.86	13811.50
472.04	13460.42
472.22	13872.36
472.40	13713.20
472.58	13729.58
472.77	13956.61
472.95	13940.23
473.13	14614.30
473.31	14075.98
473.49	13909.80
473.67	14066.62
473.85	14101.73
474.03	14745.38
474.21	14586.22
474.39	14750.06
474.57	14588.56
474.75	14703.25
474.93	15061.35
475.12	14789.85
475.30	15318.81
475.48	14731.33
475.66	15077.73
475.84	15194.76
476.02	15363.28
476.20	15492.01
476.38	15557.54
476.56	16081.82
476.74	16159.06
476.92	15948.41
477.10	15599.67
477.28	15953.09
477.46	16145.02
477.64	16250.34
477.82	16409.50
478.00	16919.73
478.18	16681.00
478.36	16765.26
478.54	17111.66
478.72	17167.83
478.90	17219.32
479.08	17488.48
479.26	17703.81
479.44	17795.09
479.62	17617.21
479.80	18127.45
479.98	18162.56
480.16	18633.00
480.34	17905.10
480.52	18590.88
480.70	18412.99
480.88	18274.90
481.06	18806.20
481.24	18967.70
481.41	18750.03
481.59	19035.58
481.77	19276.65
481.95	19688.59
482.13	19906.26
482.31	19384.32
482.49	19899.23
482.67	20229.25
482.85	20257.34
483.03	20542.88
483.21	20683.31
483.39	20854.17
483.57	20769.91
483.74	20912.69
483.92	21291.85
484.10	20966.52
484.28	21422.92
484.46	21511.86
484.64	22211.68
484.82	21898.05
485.00	22485.53
485.18	22593.19
485.35	23241.52
485.53	22586.17
485.71	23035.55
485.89	23108.11
486.07	23168.96
486.25	23070.66
486.43	23756.44
486.61	23630.05
486.78	23828.99
486.96	24133.26
487.14	24430.51
487.32	24395.40
487.50	24769.89
487.68	24814.36
487.85	25289.49
488.03	25649.93
488.21	25738.87
488.39	25883.98
488.57	26059.52
488.75	26277.19
488.92	26211.66
489.10	26586.15
489.28	26686.79
489.46	27140.85
489.64	26948.93
489.81	27627.68
489.99	27473.21
490.17	27653.43
490.35	27971.74
490.53	28327.50
490.70	28381.34
490.88	27946.00
491.06	28790.93
491.24	28624.75
491.41	28624.75
491.59	29336.27
491.77	29429.90
491.95	29102.22
492.13	29504.79
492.30	29839.49
492.48	29858.21
492.66	30462.07
492.84	30171.85
493.01	30555.69
493.19	30359.09
493.37	30775.70
493.54	31082.31
493.72	31805.54
493.90	31381.90
494.08	31442.76
494.25	31835.97
494.43	31880.44
494.61	32058.32
494.79	32460.89
494.96	32268.97
495.14	32753.46
495.32	32870.48
495.49	33266.03
495.67	33266.03
495.85	33031.98
496.02	33727.12
496.20	33823.08
496.38	33893.30
496.55	34204.59
496.73	34604.82
496.91	34508.86
497.09	34677.38
497.26	34553.33
497.44	34892.71
497.62	35072.93
497.79	35943.61
497.97	35672.10
498.14	36306.39
498.32	36039.57
498.50	35959.99
498.67	36507.68
498.85	36503.00
499.03	36573.21
499.20	36870.46
499.38	36751.09
499.56	36961.74
499.73	36758.11
499.91	37247.29
500.08	37691.99
500.26	37263.67
500.44	37661.56
500.61	37914.34
500.79	37886.25
500.97	38031.36
501.14	38017.32
501.32	38300.53
501.49	38506.49
501.67	38590.75
501.84	38841.19
502.02	38759.27
502.20	39178.23
502.37	39047.16
502.55	39112.69
502.72	38990.98
502.90	39466.11
503.07	39765.70
503.25	39536.33
503.43	39445.05
503.60	40116.78
503.78	40360.20
503.95	40390.62
504.13	40407.01
504.30	40680.85
504.48	40285.30
504.65	40416.37
504.83	41055.34
505.01	41331.52
505.18	40816.60
505.36	41684.94
505.53	41113.85
505.71	41942.40
505.88	41354.93
506.06	41584.30
506.23	41626.43
506.41	41907.29
506.58	42026.66
506.76	42267.73
506.93	42462.00
507.11	41977.51
507.28	41996.23
507.46	42817.76
507.63	42918.40
507.81	43643.97
507.98	42419.87
508.16	43119.69
508.33	43131.39
508.50	43587.80
508.68	43454.39
508.85	43835.89
509.03	43480.13
509.20	43615.88
509.38	44116.76
509.55	44254.85
509.73	44395.28
509.90	44449.11
510.08	44610.61
510.25	44767.43
510.42	44755.72
510.60	44942.97
510.77	45476.61
510.95	45221.49
511.12	45076.38
511.30	45457.88
511.47	45373.63
511.64	45771.52
511.82	45474.27
511.99	45474.27
512.17	45897.91
512.34	45860.46
512.51	46153.02
512.69	46155.36
512.86	46604.75
513.04	46831.78
513.21	46344.95
513.38	46483.04
513.56	46731.14
513.73	46590.70
513.90	46986.25
514.08	46855.18
514.25	46799.01
514.43	47264.78
514.60	47248.39
514.77	46902.00
514.95	47702.46
515.12	47615.86
515.29	47342.02
515.47	48184.61
515.64	48060.56
515.81	47636.92
515.99	47915.45
516.16	48107.37
516.33	48175.25
516.51	48692.50
516.68	48622.29
516.85	48502.92
517.03	48971.03
517.20	48839.96
517.37	48725.27
517.54	48629.31
517.72	49181.68
517.89	48781.45
518.06	49111.46
518.24	48945.28
518.41	48690.16
518.58	49247.21
518.75	49104.44
518.93	49422.75
519.10	49804.26
519.27	49560.84
519.45	49485.95
519.62	49499.99
519.79	49904.90
519.96	49720.00
520.14	50298.11
520.31	50012.57
520.48	50284.07
520.65	50330.88
520.83	50670.26
521.00	50707.71
521.17	50487.70
521.34	50791.97
521.52	50705.37
521.69	50679.62
521.86	50808.35
522.03	51009.64
522.20	51047.08
522.38	51313.90
522.55	51243.69
522.72	51171.13
522.89	51058.79
523.07	51526.89
523.24	51793.71
523.41	51700.09
523.58	51435.61
523.75	52081.60
523.92	51608.81
524.10	51924.78
524.27	51767.97
524.44	51938.83
524.61	52020.75
524.78	51707.12
524.96	52299.27
525.13	52081.60
525.30	52062.88
525.47	52549.71
525.64	52226.71
525.81	52264.16
525.98	52669.08
526.16	52402.25
526.33	52428.00
526.50	53029.52
526.67	52722.91
526.84	53034.20
527.01	52680.78
527.18	52629.29
527.36	52760.36
527.53	53015.47
527.70	53233.14
527.87	53333.79
528.04	53116.12
528.21	53359.53
528.38	53579.54
528.55	53233.14
528.72	53097.39
528.89	53635.72
529.07	53095.05
529.24	53212.08
529.41	53670.82
529.58	53661.46
529.75	53635.72
529.92	53588.91
530.09	53591.25
530.26	53813.60
530.43	53982.12
530.60	53530.39
530.77	53806.58
530.94	54071.06
531.11	53832.32
531.28	54117.87
531.46	54096.80
531.63	54426.82
531.80	54307.45
531.97	54417.46
532.14	54777.90
532.31	54181.06
532.48	54330.86
532.65	54513.42
532.82	54417.46
532.99	54522.78
533.16	54295.75
533.33	54836.41
533.50	54836.41
533.67	54740.45
533.84	54717.04
534.01	54923.01
534.18	54738.11
534.35	55143.02
534.52	54937.05
534.69	55068.12
534.86	55042.38
535.03	54885.56
535.20	54986.21
535.37	55332.60
535.54	55391.12
535.71	55327.92
535.88	55363.03
536.05	55395.80
536.22	55370.05
536.38	55587.72
536.55	55363.03
536.72	55508.14
536.89	55444.95
537.06	55711.77
537.23	55814.76
537.40	55627.51
537.57	55435.59
537.74	55842.84
537.91	55903.70
538.08	56193.92
538.25	55723.47
538.42	55917.74
538.59	55941.14
538.75	55634.53
538.92	56032.42
539.09	56112.00
539.26	56069.87
539.43	55887.31
539.60	56053.49
539.77	56296.91
539.94	56205.62
540.11	56425.64
540.28	56018.38
540.44	56474.79
540.61	56348.40
540.78	56442.02
540.95	56292.22
541.12	56409.25
541.29	56346.06
541.46	56697.14
541.62	56645.65
541.79	56636.28
541.96	56268.82
542.13	56435.00
542.30	56624.58
542.47	56849.27
542.63	56900.76
542.80	56746.29
542.97	57153.54
543.14	57286.95
543.31	57080.98
543.48	57146.52
543.64	57289.29
543.81	57188.65
543.98	57385.25
544.15	57151.20
544.32	57631.01
544.48	57488.24
544.65	57333.76
544.82	57331.42
544.99	56928.85
545.16	57284.61
545.32	57368.87
545.49	57598.24
545.66	57612.29
545.83	57464.83
546.00	57659.10
546.16	57607.61
546.33	57474.20
546.50	57415.68
546.67	57542.07
546.83	57284.61
547.00	57549.09
547.17	57542.07
547.34	57710.59
547.50	57918.90
547.67	57968.05
547.84	57979.75
548.00	57825.28
548.17	58033.58
548.34	57946.98
548.51	58047.63
548.67	58145.93
548.84	57991.45
549.01	57853.36
549.18	58031.24
549.34	58120.18
549.51	58389.34
549.68	58319.13
549.84	58042.95
550.01	58319.13
550.18	58375.30
550.34	58553.18
550.51	58401.05
550.68	58316.79
550.84	58131.89
551.01	58482.97
551.18	58471.26
551.34	58433.81
551.51	58585.95
551.68	58447.86
551.84	58499.35
552.01	58431.47
552.18	58536.80
552.34	58710.00
552.51	58611.70
552.68	58595.31
552.84	58405.73
553.01	58815.32
553.18	58944.05
553.34	58597.65
553.51	58597.65
553.67	58911.28
553.84	58829.37
554.01	58876.18
554.17	58908.94
554.34	58934.69
554.51	59023.63
554.67	59047.04
554.84	58997.88
555.00	58763.83
555.17	58892.56
555.33	59000.22
555.50	58719.36
555.67	58859.79
555.83	58906.60
556.00	58974.48
556.16	59299.81
556.33	59072.78
556.50	58988.52
556.66	59501.10
556.83	58864.47
556.99	59456.63
557.16	59508.12
557.32	59458.97
557.49	59447.27
557.65	59035.33
557.82	59257.68
557.98	59473.01
558.15	59313.86
558.32	59473.01
558.48	59501.10
558.65	59543.23
558.81	59428.54
558.98	59632.17
559.14	59377.05
559.31	59358.33
559.47	59489.40
559.64	59653.23
559.80	59646.21
559.97	59620.47
560.13	59501.10
560.30	59597.06
560.46	59718.77
560.63	59906.01
560.79	59622.81
560.96	59845.16
561.12	59826.43
561.29	59812.39
561.45	59746.86
561.61	59821.75
561.78	59805.37
561.94	59915.37
562.11	59800.69
562.27	59920.05
562.44	59805.37
562.60	59983.25
562.77	59793.67
562.93	59636.85
563.10	60133.04
563.26	59732.81
563.42	60088.57
563.59	59852.18
563.75	59959.84
563.92	60030.06
564.08	60032.40
564.24	60095.60
564.41	60229.01
564.57	60055.81
564.74	60081.55
564.90	60168.15
565.07	59884.95
565.23	60011.34
565.39	60004.31
565.56	60200.92
565.72	60025.38
565.88	59964.52
566.05	60203.26
566.21	60151.77
566.38	60093.25
566.54	60172.83
566.70	60423.27
566.87	60200.92
567.03	60048.78
567.19	60275.82
567.36	60238.37
567.52	60058.15
567.68	60505.19
567.85	60203.26
568.01	60376.46
568.17	60250.07
568.34	60432.63
568.50	60388.16
568.66	60210.28
568.83	60362.42
568.99	60259.43
569.15	60563.70
569.32	60348.37
569.48	60196.24
569.64	60355.39
569.81	60385.82
569.97	60137.72
570.13	60367.10
570.30	60292.20
570.46	60329.65
570.62	60413.91
570.78	60336.67
570.95	60498.17
571.11	60570.72
571.27	60416.25
571.43	60533.28
571.60	60605.83
571.76	60542.64
571.92	60659.66
572.09	60413.91
572.25	60486.46
572.41	60367.10
572.57	60512.21
572.74	60591.79
572.90	60470.08
573.06	60528.59
573.22	60678.39
573.38	60603.49
573.55	60725.20
573.71	60860.95
573.87	60540.30
574.03	60535.62
574.20	60519.23
574.36	60563.70
574.52	60666.69
574.68	60547.32
574.84	60650.30
575.01	60741.58
575.17	60680.73
575.33	60535.62
575.49	60598.81
575.65	60638.60
575.82	60514.55
575.98	60891.38
576.14	61006.06
576.30	60573.06
576.46	60687.75
576.62	60743.92
576.79	60596.47
576.95	60589.45
577.11	60626.90
577.27	60811.80
577.43	60657.32
577.59	60699.45
577.75	60762.65
577.92	60884.36
578.08	60559.02
578.24	60802.44
578.40	60935.85
578.56	61127.77
578.72	60846.91
578.88	60779.03
579.04	60973.30
579.21	60788.39
579.37	60994.36
579.53	60774.35
579.69	60760.31
579.85	60720.52
580.01	60823.50
580.17	60626.90
580.33	60800.10
580.49	60856.27
580.65	60952.23
580.82	60809.46
580.98	60940.53
581.14	60842.23
581.30	60753.29
581.46	60832.86
581.62	60945.21
581.78	60874.99
581.94	60893.72
582.10	60872.65
582.26	60762.65
582.42	60919.46
582.58	60797.76
582.74	60867.97
582.90	60865.63
583.06	60917.12
583.22	60830.52
583.38	60762.65
583.54	60959.25
583.70	60809.46
583.86	60985.00
584.02	60893.72
584.18	61022.45
584.34	60919.46
584.50	60872.65
584.66	60874.99
584.82	60659.66
584.98	60956.91
585.14	61223.73
585.30	60818.82
585.46	61190.97
585.62	61069.26
585.78	60945.21
585.94	60659.66
586.10	60860.95
586.26	60966.27
586.42	61062.24
586.58	61097.34
586.74	60877.33
586.90	60947.55
587.06	60860.95
587.22	61141.81
587.38	60970.96
587.54	61017.77
587.70	61134.79
587.86	60996.70
588.02	60900.74
588.18	61027.13
588.34	61104.37
588.49	60905.42
