SpectraSuite Data File
++++++++++++++++++++++++++++++++++++
Date: Fri Oct 25 11:33:50 EDT 2013
User: price-jones
Dark Spectrum Present: No
Reference Spectrum Present: No
Number of Sampled Component Spectra: 1
Spectrometers: USB2+H05261
Integration Time (usec): 100000 (USB2+H05261)
Spectra Averaged: 1 (USB2+H05261)
Boxcar Smoothing: 0 (USB2+H05261)
Correct for Electrical Dark: No (USB2+H05261)
Strobe/Lamp Enabled: No (USB2+H05261)
Correct for Detector Non-linearity: No (USB2+H05261)
Correct for Stray Light: No (USB2+H05261)
Number of Pixels in Processed Spectrum: 2048
>>>>>Begin Processed Spectral Data<<<<<
365.73	283.20
365.92	283.20
366.12	283.20
366.32	177.88
366.52	229.37
366.72	191.92
366.91	110.01
367.11	149.79
367.31	135.75
367.51	248.10
367.70	161.50
367.90	149.79
368.10	203.63
368.30	180.22
368.49	264.48
368.69	243.42
368.89	231.71
369.09	168.52
369.28	180.22
369.48	250.44
369.68	184.90
369.87	306.61
370.07	245.76
370.27	252.78
370.47	276.18
370.66	519.60
370.86	510.24
371.06	566.41
371.25	535.98
371.45	507.90
371.65	543.00
371.84	528.96
372.04	557.05
372.24	557.05
372.44	540.66
372.63	610.88
372.83	648.33
373.03	543.00
373.22	599.18
373.42	582.79
373.62	622.58
373.81	582.79
374.01	627.26
374.21	610.88
374.40	645.99
374.60	688.12
374.79	681.10
374.99	660.03
375.19	624.92
375.38	631.94
375.58	653.01
375.78	690.46
375.97	697.48
376.17	683.44
376.37	650.67
376.56	744.29
376.76	603.86
376.95	690.46
377.15	683.44
377.35	734.93
377.54	620.24
377.74	688.12
377.93	706.84
378.13	653.01
378.33	723.23
378.52	657.69
378.72	734.93
378.91	744.29
379.11	688.12
379.31	692.80
379.50	685.78
379.70	809.83
379.89	713.86
380.09	725.57
380.28	753.65
380.48	739.61
380.68	683.44
380.87	767.70
381.07	800.46
381.26	767.70
381.46	763.01
381.65	744.29
381.85	828.55
382.04	833.23
382.24	734.93
382.43	800.46
382.63	734.93
382.83	798.12
383.02	791.10
383.22	779.40
383.41	725.57
383.61	812.17
383.80	781.74
384.00	847.27
384.19	772.38
384.39	791.10
384.58	772.38
384.78	809.83
384.97	877.70
385.17	828.55
385.36	819.19
385.56	840.25
385.75	856.64
385.95	940.90
386.14	830.89
386.34	849.61
386.53	823.87
386.72	823.87
386.92	903.45
387.11	929.19
387.31	868.34
387.50	992.39
387.70	896.43
387.89	816.85
388.09	971.32
388.28	877.70
388.48	863.66
388.67	896.43
388.86	851.96
389.06	912.81
389.25	917.49
389.45	903.45
389.64	980.68
389.84	971.32
390.03	898.77
390.22	931.53
390.42	983.02
390.61	877.70
390.81	983.02
391.00	926.85
391.19	992.39
391.39	1001.75
391.58	1022.81
391.78	973.66
391.97	966.64
392.16	1034.52
392.36	1048.56
392.55	1071.97
392.75	1123.46
392.94	1076.65
393.13	1048.56
393.33	1107.07
393.52	1104.73
393.71	1135.16
393.91	1095.37
394.10	1055.58
394.29	1074.31
394.49	1142.18
394.68	1118.78
394.88	1137.50
395.07	1210.06
395.26	1203.04
395.46	1102.39
395.65	1135.16
395.84	1125.80
396.04	1177.29
396.23	1137.50
396.42	1174.95
396.62	1219.42
396.81	1179.63
397.00	1238.14
397.19	1170.27
397.39	1231.12
397.58	1130.48
397.77	1167.93
397.97	1249.85
398.16	1193.67
398.35	1299.00
398.55	1207.72
398.74	1252.19
398.93	1392.62
399.12	1310.70
399.32	1245.16
399.51	1266.23
399.70	1331.76
399.90	1273.25
400.09	1341.13
400.28	1324.74
400.47	1345.81
400.67	1341.13
400.86	1313.04
401.05	1376.24
401.24	1455.81
401.44	1373.89
401.63	1439.43
401.82	1397.30
402.01	1413.68
402.21	1446.45
402.40	1425.39
402.59	1453.47
402.78	1481.56
402.97	1455.81
403.17	1472.20
403.36	1458.15
403.55	1556.46
403.74	1612.63
403.93	1600.93
404.13	1591.56
404.32	1647.74
404.51	1540.07
404.70	1682.85
404.89	1706.25
405.09	1706.25
405.28	1753.06
405.47	1600.93
405.66	1647.74
405.85	1771.79
406.05	1701.57
406.24	1657.10
406.43	1724.97
406.62	1701.57
406.81	1797.53
407.00	1689.87
407.20	1699.23
407.39	1741.36
407.58	1790.51
407.77	1771.79
407.96	1799.87
408.15	1977.75
408.34	1846.68
408.54	1895.83
408.73	1865.41
408.92	1937.96
409.11	1930.94
409.30	1991.80
409.49	1933.28
409.68	1949.67
409.87	1984.77
410.07	2052.65
410.26	1949.67
410.45	1982.43
410.64	2118.18
410.83	2057.33
411.02	2092.44
411.21	2162.66
411.40	2202.44
411.59	2200.10
411.78	2134.57
411.98	2214.15
412.17	2193.08
412.36	2200.10
412.55	2345.22
412.74	2265.64
412.93	2361.60
413.12	2347.56
413.31	2370.96
413.50	2342.88
413.69	2314.79
413.88	2462.24
414.07	2541.82
414.26	2506.71
414.45	2506.71
414.64	2382.67
414.83	2668.21
415.02	2530.12
415.22	2560.55
415.41	2635.44
415.60	2675.23
415.79	2724.38
415.98	2780.56
416.17	2703.32
416.36	2679.91
416.55	2686.94
416.74	2911.63
416.93	2906.95
417.12	2803.96
417.31	2808.64
417.50	2736.09
417.69	2860.13
417.88	2995.89
418.07	2885.88
418.26	2998.23
418.45	2979.50
418.64	2888.22
418.83	3089.51
419.02	3049.72
419.21	3089.51
419.39	3098.87
419.58	3091.85
419.77	3089.51
419.96	3082.49
420.15	3159.72
420.34	3124.62
420.53	3215.90
420.72	3269.73
420.91	3225.26
421.10	3281.43
421.29	3232.28
421.48	3286.11
421.67	3225.26
421.86	3213.56
422.05	3258.03
422.24	3241.64
422.43	3297.81
422.61	3421.86
422.80	3459.31
422.99	3332.92
423.18	3487.40
423.37	3400.80
423.56	3311.86
423.75	3300.16
423.94	3206.53
424.13	3267.39
424.32	3208.87
424.50	3440.59
424.69	3564.64
424.88	3459.31
425.07	3419.52
425.26	3361.01
425.45	3524.85
425.64	3414.84
425.83	3478.04
426.01	3494.42
426.20	3346.97
426.39	3461.65
426.58	3353.99
426.77	3482.72
426.96	3501.44
427.15	3534.21
427.33	3524.85
427.52	3468.67
427.71	3510.80
427.90	3592.72
428.09	3712.09
428.28	3695.71
428.46	3698.05
428.65	3651.24
428.84	3744.86
429.03	3822.09
429.22	3758.90
429.40	3693.37
429.59	3742.52
429.78	3742.52
429.97	3592.72
430.16	3744.86
430.34	3918.06
430.53	3904.01
430.72	3758.90
430.91	3882.95
431.10	3831.46
431.28	3962.53
431.47	3707.41
431.66	3957.85
431.85	3894.65
432.03	3941.46
432.22	4212.96
432.41	4065.51
432.60	4124.02
432.79	4014.02
432.97	4065.51
433.16	3988.27
433.35	4091.26
433.54	4140.41
433.72	4117.00
433.91	4224.67
434.10	4222.33
434.28	4079.55
434.47	4294.88
434.66	4161.47
434.85	4325.31
435.03	4367.44
435.22	4191.90
435.41	4465.74
435.59	4418.93
435.78	4547.66
435.97	4418.93
436.16	4418.93
436.34	4423.61
436.53	4402.55
436.72	4592.13
436.90	4538.30
437.09	4603.83
437.28	4430.63
437.46	4510.21
437.65	4489.15
437.84	4592.13
438.02	4540.64
438.21	4552.34
438.40	4676.39
438.58	4770.01
438.77	4727.88
438.96	4557.02
439.14	4844.91
439.33	4802.78
439.52	4877.68
439.70	4844.91
439.89	4898.74
440.08	4968.96
440.26	4971.30
440.45	4987.68
440.63	5226.42
440.82	5076.62
441.01	4964.28
441.19	5160.88
441.38	5233.44
441.57	5280.25
441.75	5336.42
441.94	5200.67
442.12	5401.96
442.31	5495.58
442.50	5420.68
442.68	5483.88
442.87	5348.12
443.05	5296.63
443.24	5535.37
443.43	5493.24
443.61	5507.28
443.80	5638.35
443.98	5455.79
444.17	5320.04
444.35	5563.45
444.54	5640.69
444.73	5547.07
444.91	5530.69
445.10	5668.78
445.28	5584.52
445.47	5607.92
445.65	5664.10
445.84	5645.37
446.02	5844.32
446.21	5729.63
446.39	5643.03
446.58	5734.31
446.77	5664.10
446.95	5547.07
447.14	5551.75
447.32	5675.80
447.51	5638.35
447.69	5746.02
447.88	5891.13
448.06	5940.28
448.25	5731.97
448.43	5673.46
448.62	5715.59
448.80	5818.57
448.99	5804.53
449.17	5961.34
449.36	5907.51
449.54	5982.41
449.73	6059.65
449.91	6059.65
450.10	5966.03
450.28	6310.08
450.46	6155.61
450.65	6069.01
450.83	6155.61
451.02	6012.84
451.20	6319.45
451.39	6083.05
451.57	6071.35
451.76	6223.48
451.94	6148.59
452.13	6036.24
452.31	6293.70
452.49	6097.10
452.68	6354.55
452.86	6394.34
453.05	6321.79
453.23	6436.47
453.42	6349.87
453.60	6211.78
453.78	6420.09
453.97	6345.19
454.15	6298.38
454.34	6267.95
454.52	6532.44
454.70	6504.35
454.89	6541.80
455.07	6443.49
455.26	6539.46
455.44	6560.52
455.62	6764.15
455.81	6712.66
455.99	6518.39
456.17	6689.25
456.36	6677.55
456.54	6724.36
456.73	6806.28
456.91	7192.47
457.09	6911.60
457.28	7119.91
457.46	7026.29
457.64	7239.28
457.83	7045.01
458.01	6946.71
458.19	7300.13
458.38	7222.89
458.56	7110.55
458.74	7243.96
458.93	7262.68
459.11	7150.34
459.29	7258.00
459.48	7258.00
459.66	7112.89
459.84	7297.79
460.03	7396.09
460.21	7236.94
460.39	7342.26
460.57	7375.03
460.76	7229.91
460.94	7318.86
461.12	7644.19
461.31	7541.21
461.49	7485.03
461.67	7321.20
461.85	7679.30
462.04	7428.86
462.22	8100.59
462.40	7819.73
462.59	7651.21
462.77	7683.98
462.95	7625.47
463.13	7674.62
463.32	7705.04
463.50	7812.71
463.68	7978.89
463.86	8063.15
464.05	7744.83
464.23	7672.28
464.41	7969.52
464.59	7875.90
464.78	7969.52
464.96	7843.14
465.14	7838.45
465.32	7918.03
465.50	8044.42
465.69	8081.87
465.87	7943.78
466.05	8201.24
466.23	8243.37
466.41	8091.23
466.60	8414.23
466.78	7976.55
466.96	8255.07
467.14	8107.62
467.32	8437.63
467.51	8404.86
467.69	8161.45
467.87	8245.71
468.05	8306.56
468.23	8418.91
468.41	8318.26
468.60	8423.59
468.78	8479.76
468.96	8383.80
469.14	8484.44
469.32	8636.58
469.50	8374.44
469.69	8814.46
469.87	8765.31
470.05	8620.19
470.23	8919.78
470.41	8713.81
470.59	8924.46
470.77	8957.23
470.95	8851.91
471.14	8856.59
471.32	8718.50
471.50	9097.66
471.68	9039.15
471.86	9107.02
472.04	9252.14
472.22	9406.61
472.40	9174.90
472.58	9179.58
472.77	9249.80
472.95	9453.42
473.13	9621.94
473.31	9366.82
473.49	9399.59
473.67	9270.86
473.85	9362.14
474.03	9685.14
474.21	9816.21
474.39	9839.61
474.57	9652.37
474.75	9961.32
474.93	9877.06
475.12	9914.51
475.30	10052.60
475.48	9879.40
475.66	10263.25
475.84	9987.07
476.02	10108.77
476.20	10181.33
476.38	10438.79
476.56	10504.32
476.74	10558.16
476.92	10487.94
477.10	10511.35
477.28	10565.18
477.46	10829.66
477.64	10892.85
477.82	11140.95
478.00	11145.63
478.18	11190.10
478.36	11117.54
478.54	11246.27
478.72	11419.47
478.90	11463.94
479.08	11473.31
479.26	11501.39
479.44	11555.22
479.62	11824.39
479.80	11714.38
479.98	11730.76
480.16	12243.34
480.34	12100.57
480.52	12318.24
480.70	12435.27
480.88	12128.66
481.06	12510.16
481.24	12500.80
481.41	12580.38
481.59	12730.17
481.77	12732.51
481.95	12807.41
482.13	12919.76
482.31	13022.74
482.49	13584.47
482.67	13401.91
482.85	13401.91
483.03	13645.32
483.21	13752.99
483.39	13895.76
483.57	13853.63
483.74	13872.36
483.92	14207.05
484.10	14075.98
484.28	14424.72
484.46	14539.41
484.64	14452.81
484.82	14420.04
485.00	14504.30
485.18	14757.08
485.35	15332.85
485.53	15023.90
485.71	15117.52
485.89	15356.25
486.07	15531.80
486.25	15290.72
486.43	15576.27
486.61	15639.46
486.78	15772.87
486.96	15913.30
487.14	16049.05
487.32	15971.82
487.50	16145.02
487.68	16367.37
487.85	16470.35
488.03	16781.64
488.21	16603.76
488.39	16936.12
488.57	17277.83
488.75	16987.61
488.92	16964.20
489.10	17671.04
489.28	17539.97
489.46	17530.61
489.64	17640.62
489.81	18160.22
489.99	17949.57
490.17	18258.52
490.35	18403.63
490.53	18258.52
490.70	18773.44
490.88	18501.93
491.06	18541.72
491.24	18874.08
491.41	18892.80
491.59	19023.87
491.77	19194.73
491.95	19337.51
492.13	19407.72
492.30	19403.04
492.48	19398.36
492.66	19819.66
492.84	19798.59
493.01	20112.22
493.19	20140.31
493.37	19946.05
493.54	20521.82
493.72	20613.10
493.90	20727.78
494.08	20643.52
494.25	20695.02
494.43	21078.86
494.61	21062.48
494.79	21408.88
494.96	20982.90
495.14	21879.33
495.32	21783.37
495.49	21500.16
495.67	21884.01
495.85	21745.92
496.02	22111.04
496.20	22319.35
496.38	22597.87
496.55	22405.95
496.73	22944.27
496.91	22473.82
497.09	22787.46
497.26	22838.95
497.44	23035.55
497.62	22991.08
497.79	23611.32
497.97	23332.80
498.14	23384.29
498.32	23913.25
498.50	23517.70
498.67	23711.97
498.85	24088.79
499.03	23740.05
499.20	24123.90
499.38	23894.53
499.56	24285.40
499.73	24357.96
499.91	24613.07
500.08	24643.50
500.26	24706.70
500.44	24851.81
500.61	24922.02
500.79	24896.28
500.97	24835.42
501.14	25390.13
501.32	25565.67
501.49	25123.31
501.67	25142.03
501.84	25745.89
502.02	25441.62
502.20	25467.37
502.37	25481.41
502.55	25605.46
502.72	25467.37
502.90	25979.95
503.07	25879.30
503.25	26164.85
503.43	26171.87
503.60	26192.94
503.78	26412.95
503.95	26377.84
504.13	26513.59
504.30	26810.84
504.48	26717.22
504.65	26836.58
504.83	26862.33
505.01	27096.38
505.18	27232.13
505.36	27197.02
505.53	27094.04
505.71	27140.85
505.88	27370.22
506.06	27225.11
506.23	27796.20
506.41	27599.60
506.58	27536.40
506.76	27557.47
506.93	27910.89
507.11	28128.56
507.28	27854.72
507.46	28203.46
507.63	27971.74
507.81	28264.31
507.98	27906.21
508.16	28048.98
508.33	28547.51
508.50	28755.82
508.68	28711.35
508.85	29099.88
509.03	28826.04
509.20	29301.17
509.38	29223.93
509.55	29465.00
509.73	29469.69
509.90	29247.33
510.08	29378.40
510.25	29420.53
510.42	29659.27
510.60	29408.83
510.77	29757.57
510.95	29968.22
511.12	29696.72
511.30	29631.18
511.47	30188.23
511.64	29956.52
511.82	30436.33
511.99	30251.42
512.17	30441.01
512.34	30143.76
512.51	30998.06
512.69	31012.10
512.86	30937.20
513.04	30944.22
513.21	30614.21
513.38	30899.75
513.56	30902.09
513.73	30864.64
513.90	31150.19
514.08	30810.81
514.25	31344.45
514.43	31182.96
514.60	31807.88
514.77	31604.25
514.95	31508.29
515.12	31501.27
515.29	31716.60
515.47	31723.62
515.64	32158.96
515.81	31601.91
515.99	31850.01
516.16	32533.45
516.33	32217.47
516.51	31847.67
516.68	32034.91
516.85	32334.50
517.03	32854.10
517.20	33062.41
517.37	32503.02
517.54	32772.18
517.72	33071.77
517.89	32879.85
518.06	33050.70
518.24	33031.98
518.41	32769.84
518.58	32992.19
518.75	32617.71
518.93	33469.66
519.10	33336.25
519.27	33219.22
519.45	33333.91
519.62	33825.42
519.79	33986.92
519.96	33481.36
520.14	33432.21
520.31	33120.92
520.48	33799.68
520.65	33996.28
520.83	34132.03
521.00	34380.13
521.17	34106.29
521.34	34148.42
521.52	34110.97
521.69	34146.08
521.86	34698.44
522.03	34635.25
522.20	35012.07
522.38	35047.18
522.55	34895.05
522.72	35063.57
522.89	35030.80
523.07	35608.91
523.24	34850.58
523.41	35250.81
523.58	34857.60
523.75	35793.81
523.92	35229.74
524.10	35775.09
524.27	35637.00
524.44	35634.66
524.61	35880.41
524.78	35765.73
524.96	35880.41
525.13	36144.89
525.30	36123.83
525.47	36093.40
525.64	35747.00
525.81	35985.74
525.98	36348.52
526.16	35950.63
526.33	36165.96
526.50	36259.58
526.67	36060.63
526.84	36556.83
527.01	36481.93
527.18	36268.94
527.36	36540.44
527.53	36898.55
527.70	37057.70
527.87	36783.86
528.04	36898.55
528.21	36893.86
528.38	36851.73
528.55	37303.46
528.72	37069.40
528.89	37132.60
529.07	36865.78
529.24	36992.17
529.41	37413.46
529.58	37214.52
529.75	37373.67
529.92	37099.83
530.09	37385.38
530.26	37469.64
530.43	37839.44
530.60	37530.49
530.77	37691.99
530.94	37830.08
531.11	37593.68
531.28	37757.52
531.46	37860.51
531.63	38085.20
531.80	38045.41
531.97	38459.68
532.14	38005.62
532.31	37963.49
532.48	38251.38
532.65	38286.48
532.82	38164.78
532.99	38440.96
533.16	38115.62
533.33	38593.09
533.50	38572.03
533.67	38356.70
533.84	38436.28
534.01	38859.91
534.18	38848.21
534.35	39063.54
534.52	39093.97
534.69	39026.09
534.86	39468.45
535.03	38920.77
535.20	39028.43
535.37	39447.39
535.54	39454.41
535.71	39140.78
535.88	39290.57
536.05	39576.12
536.22	39948.26
536.38	39452.07
536.55	39793.79
536.72	39536.33
536.89	39147.80
537.06	39899.11
537.23	40432.75
537.40	39545.69
537.57	39634.63
537.74	39615.91
537.91	39892.09
538.08	39735.27
538.25	39768.04
538.42	39992.73
538.59	40556.80
538.75	40268.92
538.92	40444.46
539.09	40566.16
539.26	40587.23
539.43	39969.33
539.60	40690.21
539.77	40327.43
539.94	40912.56
540.11	40657.45
540.28	40830.65
540.44	40196.36
540.61	40926.61
540.78	40488.93
540.95	40837.67
541.12	40718.30
541.29	40594.25
541.46	40985.12
541.62	40921.93
541.79	40966.40
541.96	40669.15
542.13	40856.39
542.30	40905.54
542.47	41209.81
542.63	41626.43
542.80	41588.98
542.97	41612.38
543.14	41834.74
543.31	41902.61
543.48	41366.63
543.64	42300.50
543.81	41851.12
543.98	41818.35
544.15	41860.48
544.32	41968.15
544.48	42452.64
544.65	42080.49
544.82	42351.99
544.99	42000.91
545.16	41876.86
545.32	42265.39
545.49	42550.94
545.66	42447.96
545.83	42513.49
546.00	42480.72
546.16	42258.37
546.33	42422.21
546.50	42464.34
546.67	42405.83
546.83	42089.85
547.00	42501.79
547.17	42438.59
547.34	42454.98
547.50	42602.43
547.67	42607.11
547.84	42525.19
548.00	42710.10
548.17	43381.83
548.34	43058.84
548.51	42892.66
548.67	42724.14
548.84	42841.17
549.01	42927.77
549.18	43239.06
549.34	43047.13
549.51	43145.44
549.68	43597.16
549.84	43129.05
550.01	43665.03
550.18	42890.32
550.34	43007.34
550.51	43543.33
550.68	43419.28
550.84	43154.80
551.01	43306.93
551.18	43531.62
551.34	43587.80
551.51	43966.96
551.68	43859.30
551.84	43821.85
552.01	43653.33
552.18	44009.09
552.34	43274.16
552.51	43854.62
552.68	44142.50
552.84	43477.79
553.01	43943.56
553.18	44233.78
553.34	43452.05
553.51	43739.93
553.67	44514.65
553.84	44589.55
554.01	44577.84
554.17	44140.16
554.34	44264.21
554.51	44453.79
554.67	44594.23
554.84	44280.60
555.00	44348.47
555.17	44399.96
555.33	44865.73
555.50	44388.26
555.67	44664.44
555.83	44664.44
556.00	44538.05
556.16	45165.32
556.33	44603.59
556.50	44570.82
556.66	45205.11
556.83	44191.65
556.99	45069.36
557.16	45102.12
557.32	45125.53
557.49	45233.19
557.65	44844.66
557.82	44919.56
557.98	45085.74
558.15	44755.72
558.32	45088.08
558.48	45036.59
558.65	44849.35
558.81	45488.31
558.98	44992.12
559.14	44692.53
559.31	44708.91
559.47	44802.53
559.64	44842.32
559.80	45102.12
559.97	45701.30
560.13	44973.39
560.30	45102.12
560.46	45460.23
560.63	45511.72
560.79	45329.16
560.96	45530.44
561.12	45787.90
561.29	45757.47
561.45	45397.03
561.61	45345.54
561.78	45289.37
561.94	45691.94
562.11	45734.07
562.27	45764.49
562.44	45720.02
562.60	45642.79
562.77	45783.22
562.93	45577.25
563.10	46014.93
563.26	45792.58
563.42	45776.20
563.59	45895.56
563.75	45853.44
563.92	45764.49
564.08	45357.24
564.24	45900.25
564.41	45705.98
564.57	45862.80
564.74	46309.84
564.90	45565.55
565.07	45804.28
565.23	45848.75
565.39	46344.95
565.56	46323.88
565.72	45769.18
565.88	45668.53
566.05	46541.55
566.21	45977.48
566.38	45682.58
566.54	46080.47
566.70	46326.22
566.87	46696.03
567.03	46323.88
567.19	45930.67
567.36	45888.54
567.52	46312.18
567.68	46429.21
567.85	46190.47
568.01	46522.83
568.17	46124.94
568.34	46244.30
568.50	46513.47
568.66	45804.28
568.83	46403.46
568.99	46305.16
569.15	46323.88
569.32	45865.14
569.48	45860.46
569.64	46916.04
569.81	46263.03
569.97	46618.79
570.13	46817.74
570.30	46237.28
570.46	46457.29
570.62	46461.97
570.78	46660.92
570.95	46782.63
571.11	46639.86
571.27	46127.28
571.43	46630.49
571.60	46738.16
571.76	46747.52
571.92	46120.26
572.09	46562.62
572.25	46040.68
572.41	46270.05
572.57	46597.73
572.74	46618.79
572.90	46476.02
573.06	47021.36
573.22	46740.50
573.38	46873.91
573.55	46368.35
573.71	46841.14
573.87	46871.57
574.03	46822.42
574.20	47246.05
574.36	46717.09
574.52	47313.93
574.68	46789.65
574.84	46906.68
575.01	46934.76
575.17	46852.84
575.33	47054.13
575.49	46958.17
575.65	46557.94
575.82	47360.74
575.98	46787.31
576.14	46670.28
576.30	47374.78
576.46	46607.09
576.62	46873.91
576.79	46918.38
576.95	46480.70
577.11	46916.04
577.27	46953.49
577.43	46681.98
577.59	46651.56
577.75	47014.34
577.92	46918.38
578.08	46909.02
578.24	47297.55
578.40	47138.39
578.56	46731.14
578.72	46937.10
578.88	47466.06
579.04	47096.26
579.21	46665.60
579.37	46995.62
579.53	46838.80
579.69	46604.75
579.85	47112.64
580.01	47114.98
580.17	46735.82
580.33	47398.19
580.49	47000.30
580.65	46880.93
580.82	47166.48
580.98	46787.31
581.14	46724.11
581.30	47346.70
581.46	46628.15
581.62	46583.68
581.78	46906.68
581.94	47262.44
582.10	46981.57
582.26	47234.35
582.42	47086.90
582.58	47093.92
582.74	47367.76
582.90	46742.84
583.06	47428.62
583.22	47084.56
583.38	47040.09
583.54	47089.24
583.70	47136.05
583.86	47316.27
584.02	47164.14
584.18	47283.50
584.34	47021.36
584.50	47290.52
584.66	47154.77
584.82	47150.09
584.98	47416.91
585.14	47374.78
585.30	46735.82
585.46	47482.45
585.62	46890.29
585.78	47033.07
585.94	46918.38
586.10	46944.12
586.26	46866.89
586.42	47178.18
586.58	47248.39
586.74	47447.34
586.90	47047.11
587.06	47065.83
587.22	47215.63
587.38	47405.21
587.54	47358.40
587.70	47524.58
587.86	47459.04
588.02	47084.56
588.18	47023.70
588.34	47072.85
588.49	47494.15
588.65	47365.42
588.81	47473.09
588.97	47388.83
589.13	47318.61
589.29	47707.14
589.45	47763.31
589.61	47452.02
589.77	47878.00
589.93	47817.14
590.08	47744.59
