SpectraSuite Data File
++++++++++++++++++++++++++++++++++++
Date: Fri Oct 25 11:26:24 EDT 2013
User: price-jones
Dark Spectrum Present: No
Reference Spectrum Present: No
Number of Sampled Component Spectra: 1
Spectrometers: USB2+H05261
Integration Time (usec): 100000 (USB2+H05261)
Spectra Averaged: 1 (USB2+H05261)
Boxcar Smoothing: 0 (USB2+H05261)
Correct for Electrical Dark: No (USB2+H05261)
Strobe/Lamp Enabled: No (USB2+H05261)
Correct for Detector Non-linearity: No (USB2+H05261)
Correct for Stray Light: No (USB2+H05261)
Number of Pixels in Processed Spectrum: 2048
>>>>>Begin Processed Spectral Data<<<<<
365.73	234.05
365.92	234.05
366.12	234.05
366.32	168.52
366.52	184.90
366.72	117.03
366.91	177.88
367.11	133.41
367.31	70.22
367.51	121.71
367.70	100.64
367.90	114.69
368.10	138.09
368.30	140.43
368.49	128.73
368.69	184.90
368.89	184.90
369.09	114.69
369.28	191.92
369.48	135.75
369.68	161.50
369.87	173.20
370.07	156.82
370.27	243.42
370.47	353.42
370.66	683.44
370.86	671.73
371.06	688.12
371.25	704.50
371.45	674.07
371.65	718.54
371.84	671.73
372.04	713.86
372.24	737.27
372.44	723.23
372.63	676.41
372.83	737.27
373.03	711.52
373.22	884.72
373.42	798.12
373.62	779.40
373.81	788.76
374.01	882.38
374.21	880.04
374.40	882.38
374.60	891.74
374.79	791.10
374.99	837.91
375.19	861.32
375.38	901.11
375.58	905.79
375.78	887.06
375.97	910.47
376.17	940.90
376.37	828.55
376.56	873.02
376.76	844.93
376.95	873.02
377.15	844.93
377.35	933.87
377.54	987.71
377.74	887.06
377.93	894.08
378.13	973.66
378.33	990.05
378.52	987.71
378.72	917.49
378.91	1008.77
379.11	938.55
379.31	847.27
379.50	1055.58
379.70	966.64
379.89	983.02
380.09	961.96
380.28	961.96
380.48	901.11
380.68	891.74
380.87	950.26
381.07	1046.22
381.26	1041.54
381.46	1018.13
381.65	1034.52
381.85	1102.39
382.04	1078.99
382.24	1071.97
382.43	1081.33
382.63	1074.31
382.83	1008.77
383.02	1097.71
383.22	1156.22
383.41	1046.22
383.61	1135.16
383.80	1151.54
384.00	1116.44
384.19	1160.91
384.39	1165.59
384.58	1093.03
384.78	1032.18
384.97	1165.59
385.17	1104.73
385.36	1123.46
385.56	1097.71
385.75	1074.31
385.95	1203.04
386.14	1137.50
386.34	1200.69
386.53	1181.97
386.72	1153.88
386.92	1200.69
387.11	1179.63
387.31	1299.00
387.50	1329.42
387.70	1172.61
387.89	1212.40
388.09	1350.49
388.28	1289.64
388.48	1228.78
388.67	1369.21
388.86	1371.55
389.06	1413.68
389.25	1366.87
389.45	1348.15
389.64	1376.24
389.84	1369.21
390.03	1242.82
390.22	1472.20
390.42	1371.55
390.61	1352.83
390.81	1385.60
391.00	1401.98
391.19	1390.28
391.39	1434.75
391.58	1467.52
391.78	1420.71
391.97	1486.24
392.16	1465.18
392.36	1479.22
392.55	1549.43
392.75	1547.09
392.94	1521.35
393.13	1563.48
393.33	1465.18
393.52	1629.01
393.71	1563.48
393.91	1568.16
394.10	1640.72
394.29	1664.12
394.49	1619.65
394.68	1530.71
394.88	1575.18
395.07	1720.29
395.26	1722.63
395.46	1650.08
395.65	1701.57
395.84	1736.68
396.04	1743.70
396.23	1671.14
396.42	1764.76
396.62	1764.76
396.81	1799.87
397.00	1842.00
397.19	1811.57
397.39	1680.50
397.58	1867.75
397.77	1863.07
397.97	1816.26
398.16	1802.21
398.35	1849.02
398.55	1757.74
398.74	1851.36
398.93	1961.37
399.12	1952.01
399.32	1898.17
399.51	1832.64
399.70	2045.63
399.90	1970.73
400.09	1944.99
400.28	1984.77
400.47	1982.43
400.67	2097.12
400.86	2071.37
401.05	2097.12
401.24	2087.76
401.44	2059.67
401.63	2071.37
401.82	2052.65
402.01	2057.33
402.21	2174.36
402.40	2244.57
402.59	2157.97
402.78	2172.02
402.97	2242.23
403.17	2211.81
403.36	2298.41
403.55	2218.83
403.74	2272.66
403.93	2305.43
404.13	2361.60
404.32	2291.38
404.51	2279.68
404.70	2436.50
404.89	2441.18
405.09	2438.84
405.28	2640.12
405.47	2406.07
405.66	2417.77
405.85	2473.95
406.05	2572.25
406.24	2586.29
406.43	2635.44
406.62	2516.08
406.81	2658.85
407.00	2602.68
407.20	2562.89
407.39	2532.46
407.58	2722.04
407.77	2813.32
407.96	2768.85
408.15	2738.43
408.34	2672.89
408.54	2796.94
408.73	2745.45
408.92	2836.73
409.11	2876.52
409.30	2881.20
409.49	2808.64
409.68	2885.88
409.87	2883.54
410.07	2862.48
410.26	3077.80
410.45	3016.95
410.64	3019.29
410.83	3089.51
411.02	3061.42
411.21	3150.36
411.40	3080.14
411.59	3185.47
411.78	3232.28
411.98	3286.11
412.17	3208.87
412.36	3295.47
412.55	3363.35
412.74	3281.43
412.93	3398.46
413.12	3300.16
413.31	3581.02
413.50	3536.55
413.69	3583.36
413.88	3478.04
414.07	3510.80
414.26	3604.42
414.45	3555.27
414.64	3559.95
414.83	3648.90
415.02	3721.45
415.22	3831.46
415.41	3784.65
415.60	3801.03
415.79	3955.51
415.98	3936.78
416.17	3969.55
416.36	3974.23
416.55	3941.46
416.74	3995.29
416.93	4102.96
417.12	4081.89
417.31	4044.45
417.50	4112.32
417.69	4215.30
417.88	4257.43
418.07	4269.14
418.26	4208.28
418.45	4266.80
418.64	4594.47
418.83	4449.36
419.02	4294.88
419.21	4447.02
419.39	4449.36
419.58	4472.76
419.77	4608.51
419.96	4444.68
420.15	4568.73
420.34	4594.47
420.53	4585.11
420.72	4713.84
420.91	4753.63
421.10	4737.24
421.29	4744.27
421.48	4594.47
421.67	4519.57
421.86	4732.56
422.05	4798.10
422.24	4727.88
422.43	4847.25
422.61	5001.72
422.80	4863.63
422.99	4898.74
423.18	4795.76
423.37	4936.19
423.56	4858.95
423.75	4929.17
423.94	4753.63
424.13	4599.15
424.32	4851.93
424.50	4835.55
424.69	5142.16
424.88	5174.92
425.07	4910.44
425.26	4891.72
425.45	4950.23
425.64	4894.06
425.83	4870.65
426.01	5043.85
426.20	5032.15
426.39	5053.22
426.58	4975.98
426.77	5163.22
426.96	5158.54
427.15	5076.62
427.33	5252.16
427.52	5291.95
427.71	5266.21
427.90	4999.38
428.09	5273.23
428.28	5228.76
428.46	5453.45
428.65	5362.17
428.84	5490.90
429.03	5533.03
429.22	5373.87
429.40	5687.50
429.59	5483.88
429.78	5324.72
429.97	5210.03
430.16	5308.34
430.34	5586.86
430.53	5673.46
430.72	5596.22
430.91	5530.69
431.10	5647.71
431.28	5675.80
431.47	5886.45
431.66	5830.27
431.85	5802.19
432.03	6001.13
432.22	5944.96
432.41	5919.21
432.60	5832.62
432.79	6019.86
432.97	6015.18
433.16	5970.71
433.35	5935.60
433.54	6242.21
433.72	6052.63
433.91	6087.73
434.10	6169.65
434.28	6022.20
434.47	5994.11
434.66	6286.68
434.85	6256.25
435.03	6169.65
435.22	6286.68
435.41	6445.84
435.59	6363.92
435.78	6478.60
435.97	6504.35
436.16	6396.68
436.34	6408.39
436.53	6406.05
436.72	6431.79
436.90	6349.87
437.09	6441.15
437.28	6450.52
437.46	6637.76
437.65	6663.51
437.84	6738.40
438.02	6649.46
438.21	6759.47
438.40	6621.38
438.58	6862.45
438.77	7026.29
438.96	6820.32
439.14	7066.08
439.33	7052.03
439.52	6986.50
439.70	7190.13
439.89	7232.26
440.08	7386.73
440.26	7258.00
440.45	7248.64
440.63	7407.80
440.82	7461.63
441.01	7431.20
441.19	7480.35
441.38	7597.38
441.57	7688.66
441.75	7927.39
441.94	7812.71
442.12	7740.15
442.31	7882.92
442.50	8121.66
442.68	8004.63
442.87	8004.63
443.05	8028.04
443.24	8184.85
443.43	8086.55
443.61	8013.99
443.80	8439.97
443.98	7915.69
444.17	7801.01
444.35	8168.47
444.54	8255.07
444.73	8336.99
444.91	8196.56
445.10	8287.84
445.28	8367.42
445.47	8212.94
445.65	8472.74
445.84	8393.16
446.02	8456.36
446.21	8320.60
446.39	8442.31
446.58	8608.49
446.77	8116.98
446.95	8229.32
447.14	8486.78
447.32	8578.06
447.51	8315.92
447.69	8355.71
447.88	8381.46
448.06	8367.42
448.25	8507.85
448.43	8610.83
448.62	8608.49
448.80	8507.85
448.99	8512.53
449.17	8535.93
449.36	8571.04
449.54	8758.28
449.73	8971.27
449.91	9001.70
450.10	8903.40
450.28	8863.61
450.46	9060.21
450.65	9022.77
450.83	8990.00
451.02	8987.66
451.20	9128.09
451.39	9188.94
451.57	9132.77
451.76	8896.38
451.94	9174.90
452.13	9334.06
452.31	9060.21
452.49	9172.56
452.68	9322.35
452.86	9303.63
453.05	9320.01
453.23	9516.62
453.42	9350.44
453.60	9322.35
453.78	9535.34
453.97	9458.10
454.15	9179.58
454.34	9366.82
454.52	9650.03
454.70	9657.05
454.89	9586.83
455.07	9841.95
455.26	9863.02
455.44	9888.76
455.62	9891.10
455.81	9785.78
455.99	10106.43
456.17	9921.53
456.36	10176.65
456.54	10001.11
456.73	10342.83
456.91	10214.10
457.09	10129.84
457.28	10569.86
457.46	10148.56
457.64	10492.62
457.83	10574.54
458.01	10277.29
458.19	10562.84
458.38	10335.81
458.56	10560.50
458.74	10504.32
458.93	10546.45
459.11	10857.75
459.29	10686.89
459.48	10726.68
459.66	10656.46
459.84	10965.41
460.03	10988.82
460.21	10717.31
460.39	11021.58
460.57	10686.89
460.76	11012.22
460.94	11047.33
461.12	11201.80
461.31	10998.18
461.49	11035.63
461.67	11091.80
461.85	11293.08
462.04	11192.44
462.22	11363.30
462.40	11407.77
462.59	11524.80
462.77	11379.68
462.95	11644.17
463.13	11494.37
463.32	11487.35
463.50	11690.98
463.68	11728.42
463.86	11681.61
464.05	11452.24
464.23	11501.39
464.41	11873.54
464.59	11515.44
464.78	11971.84
464.96	11899.28
465.14	11765.87
465.32	11831.41
465.50	12161.42
465.69	12163.76
465.87	12290.15
466.05	11880.56
466.23	11875.88
466.41	12046.74
466.60	12699.75
466.78	11976.52
466.96	11969.50
467.14	11962.48
467.32	12236.32
467.51	12320.58
467.69	12173.13
467.87	12470.37
468.05	12662.30
468.23	12453.99
468.41	12217.60
468.60	12503.14
468.78	12659.96
468.96	12294.83
469.14	12620.17
469.32	12975.93
469.50	12346.33
469.69	12807.41
469.87	13062.53
470.05	12896.35
470.23	12905.71
470.41	13254.45
470.59	13231.05
470.77	13217.01
470.95	13071.89
471.14	13256.79
471.32	13027.42
471.50	13408.93
471.68	13547.02
471.86	13507.23
472.04	13678.09
472.22	13947.25
472.40	13593.83
472.58	13877.04
472.77	13900.44
472.95	14026.83
473.13	14162.58
473.31	13935.55
473.49	13996.40
473.67	13916.83
473.85	14267.91
474.03	14537.07
474.21	14586.22
474.39	14670.48
474.57	14595.58
474.75	14918.57
474.93	14721.97
475.12	15075.39
475.30	14918.57
475.48	14967.73
475.66	15037.94
475.84	14913.89
476.02	15257.95
476.20	15302.42
476.38	15730.74
476.56	15845.43
476.74	15763.51
476.92	15892.24
477.10	15433.49
477.28	16018.63
477.46	16072.46
477.64	16383.75
477.82	16322.90
478.00	16868.24
478.18	16617.80
478.36	16683.34
478.54	16964.20
478.72	17027.40
478.90	17247.41
479.08	17338.69
479.26	17521.25
479.44	17891.06
479.62	17645.30
479.80	18026.81
479.98	18164.90
480.16	18366.18
480.34	18080.64
480.52	18125.11
480.70	18417.68
480.88	18389.59
481.06	18703.22
481.24	18665.77
481.41	18988.77
481.59	19161.97
481.77	19349.21
481.95	19150.26
482.13	19939.02
482.31	19545.81
482.49	19997.54
482.67	19988.18
482.85	20395.43
483.03	20217.55
483.21	20580.33
483.39	20823.75
483.57	20898.64
483.74	21076.52
483.92	21434.63
484.10	20980.56
484.28	21397.18
484.46	21734.21
484.64	22249.13
484.82	21624.21
485.00	22148.49
485.18	22705.54
485.35	22890.44
485.53	22696.17
485.71	22604.89
485.89	23363.23
486.07	23194.71
486.25	23278.97
486.43	23639.41
486.61	23644.09
486.78	23800.91
486.96	24184.76
487.14	24276.04
487.32	24180.07
487.50	24732.44
487.68	24748.82
487.85	24772.23
488.03	25575.03
488.21	25617.16
488.39	25092.88
488.57	25972.92
488.75	25802.07
488.92	26040.80
489.10	26525.29
489.28	26862.33
489.46	26965.31
489.64	27143.19
489.81	27601.94
489.99	27470.87
490.17	27623.00
490.35	27503.64
490.53	28250.27
490.70	28053.66
490.88	27948.34
491.06	28842.42
491.24	28758.16
491.41	28898.59
491.59	28753.48
491.77	29331.59
491.95	29383.09
492.13	29593.73
492.30	29483.73
492.48	29715.44
492.66	29809.06
492.84	29942.47
493.01	30595.48
493.19	30237.38
493.37	30904.43
493.54	30923.16
493.72	31248.49
493.90	30953.58
494.08	31442.76
494.25	31854.69
494.43	31936.61
494.61	31990.44
494.79	32098.11
494.96	32196.41
495.14	32332.16
495.32	32608.34
495.49	33207.52
495.67	32858.78
495.85	33230.93
496.02	33500.09
496.20	33802.02
496.38	34066.50
496.55	34019.69
496.73	34691.42
496.91	33804.36
497.09	34574.39
497.26	34431.62
497.44	34660.99
497.62	34888.03
497.79	35363.15
497.97	35154.85
498.14	35519.97
498.32	35807.86
498.50	35772.75
498.67	36362.56
498.85	36266.60
499.03	36187.02
499.20	36400.01
499.38	36510.02
499.56	36708.96
499.73	36861.10
499.91	36978.12
500.08	37394.74
500.26	37280.05
500.44	37298.78
500.61	37729.44
500.79	37170.05
500.97	37923.70
501.14	38267.76
501.32	38340.32
501.49	38176.48
501.67	38319.25
501.84	38590.75
502.02	38438.62
502.20	38476.07
502.37	38923.11
502.55	39016.73
502.72	38747.57
502.90	39229.72
503.07	38955.88
503.25	39508.24
503.43	39632.29
503.60	40191.68
503.78	40172.96
503.95	40055.93
504.13	40322.75
504.30	40336.79
504.48	40158.91
504.65	40463.18
504.83	40744.05
505.01	41034.27
505.18	40624.68
505.36	40973.42
505.53	40896.18
505.71	41471.95
505.88	41577.28
506.06	41076.40
506.23	41638.13
506.41	41680.26
506.58	41713.03
506.76	41872.18
506.93	42052.41
507.11	41996.23
507.28	42410.51
507.46	42396.46
507.63	42698.39
507.81	43316.29
507.98	42909.04
508.16	42883.30
508.33	43395.87
508.50	43107.99
508.68	43400.55
508.85	44013.77
509.03	43435.66
509.20	43695.46
509.38	44498.26
509.55	44130.80
509.73	44243.15
509.90	44357.83
510.08	44322.72
510.25	44287.62
510.42	44170.59
510.60	44605.93
510.77	44664.44
510.95	45371.28
511.12	45095.10
511.30	44542.74
511.47	45521.08
511.64	44851.69
511.82	45565.55
511.99	45223.83
512.17	45546.82
512.34	45680.24
512.51	45558.53
512.69	45963.44
512.86	45806.62
513.04	46305.16
513.21	46246.65
513.38	46550.91
513.56	46635.17
513.73	46576.66
513.90	47138.39
514.08	46981.57
514.25	47250.74
514.43	47215.63
514.60	46946.47
514.77	46927.74
514.95	47775.02
515.12	47545.64
515.29	47157.11
515.47	47634.58
515.64	48067.58
515.81	47758.63
515.99	48170.57
516.16	48135.46
516.33	47569.05
516.51	48053.54
516.68	48009.07
516.85	48245.46
517.03	48170.57
517.20	49006.14
517.37	48460.79
517.54	48842.30
517.72	48807.19
517.89	49237.85
518.06	49106.78
518.24	49050.61
518.41	48863.36
518.58	49064.65
518.75	49151.25
518.93	49565.52
519.10	49235.51
519.27	49359.56
519.45	49317.43
519.62	49888.52
519.79	49502.33
519.96	49799.58
520.14	49822.98
520.31	49783.19
520.48	50274.71
520.65	49902.56
520.83	50433.86
521.00	50389.39
521.17	50061.72
521.34	50185.77
521.52	50742.81
521.69	50529.83
521.86	50656.21
522.03	51016.66
522.20	50908.99
522.38	51140.71
522.55	51150.07
522.72	51306.88
522.89	51175.81
523.07	51079.85
523.24	51180.49
523.41	51192.20
523.58	51407.53
523.75	51601.79
523.92	51545.62
524.10	51695.41
524.27	51798.40
524.44	51751.59
524.61	52037.13
524.78	51927.13
524.96	51962.23
525.13	51885.00
525.30	52060.54
525.47	52112.03
525.64	52301.61
525.81	52275.87
525.98	52645.67
526.16	52348.42
526.33	52222.03
526.50	52865.68
526.67	52350.76
526.84	52783.76
527.01	52547.37
527.18	52626.95
527.36	52928.87
527.53	52765.04
527.70	53050.58
527.87	52889.09
528.04	53130.16
528.21	53333.79
528.38	52896.11
528.55	53490.60
528.72	52849.30
528.89	53523.37
529.07	53043.56
529.24	53081.01
529.41	53701.25
529.58	53347.83
529.75	53542.10
529.92	53708.27
530.09	53724.66
530.26	53518.69
530.43	53832.32
530.60	53556.14
530.77	53757.42
530.94	53928.28
531.11	53731.68
531.28	53837.00
531.46	54080.42
531.63	54042.97
531.80	53729.34
531.97	54136.59
532.14	54323.83
532.31	54225.53
532.48	54281.70
532.65	54155.32
532.82	54330.86
532.99	54616.40
533.16	54389.37
533.33	54415.11
533.50	54731.09
533.67	54550.87
533.84	54550.87
534.01	54609.38
534.18	54827.05
534.35	55033.02
534.52	54798.96
534.69	54784.92
534.86	54829.39
535.03	55114.94
535.20	55051.74
535.37	55154.72
535.54	55023.65
535.71	54962.80
535.88	55241.32
536.05	55201.53
536.22	55515.17
536.38	55456.65
536.55	55224.94
536.72	55278.77
536.89	55075.15
537.06	55489.42
537.23	55686.03
537.40	55428.57
537.57	55381.76
537.74	55545.59
537.91	55683.69
538.08	55533.89
538.25	55655.60
538.42	55561.98
538.59	55707.09
538.75	55711.77
538.92	55828.80
539.09	56210.31
539.26	56030.08
539.43	55800.71
539.60	56217.33
539.77	56044.13
539.94	56238.39
540.11	56081.58
540.28	56189.24
540.44	56442.02
540.61	56229.03
540.78	56140.09
540.95	56264.14
541.12	56285.20
541.29	56294.56
541.46	56313.29
541.62	56420.95
541.79	56772.03
541.96	56128.39
542.13	56186.90
542.30	56463.08
542.47	56802.46
542.63	56594.15
542.80	56706.50
542.97	56973.32
543.14	57045.88
543.31	57141.84
543.48	57057.58
543.64	57237.80
543.81	57277.59
543.98	57057.58
544.15	57230.78
544.32	57022.47
544.48	57483.56
544.65	57378.23
544.82	57045.88
544.99	56933.53
545.16	57312.70
545.32	57188.65
545.49	57474.20
545.66	57506.96
545.83	57270.57
546.00	57506.96
546.16	57340.78
546.33	57284.61
546.50	57389.94
546.67	57602.92
546.83	57324.40
547.00	57329.08
547.17	57612.29
547.34	57614.63
547.50	58040.60
547.67	57832.30
547.84	57869.75
548.00	57998.48
548.17	57825.28
548.34	57916.56
548.51	57862.72
548.67	57921.24
548.84	57638.03
549.01	57815.91
549.18	57996.13
549.34	57935.28
549.51	58085.07
549.68	58274.66
549.84	57965.71
550.01	58073.37
550.18	57773.78
550.34	58225.51
550.51	58143.59
550.68	58351.90
550.84	58206.78
551.01	58492.33
551.18	58394.03
551.34	58164.65
551.51	58454.88
551.68	58319.13
551.84	58426.79
552.01	58333.17
552.18	58529.78
552.34	58417.43
552.51	58438.50
552.68	58382.32
552.84	58499.35
553.01	58679.57
553.18	58578.93
553.34	58599.99
553.51	58705.32
553.67	58761.49
553.84	58852.77
554.01	58974.48
554.17	58827.02
554.34	58904.26
554.51	58866.81
554.67	58796.60
554.84	58997.88
555.00	58838.73
555.17	58766.17
555.33	58745.11
555.50	58665.53
555.67	58801.28
555.83	58735.74
556.00	58960.44
556.16	59325.56
556.33	59107.89
556.50	59042.35
556.66	59180.45
556.83	59000.22
556.99	59278.75
557.16	59227.26
557.32	59264.70
557.49	59480.03
557.65	59241.30
557.82	59203.85
557.98	59344.28
558.15	59201.51
558.32	59119.59
558.48	59215.55
558.65	59400.46
558.81	59290.45
558.98	59224.92
559.14	59386.41
559.31	59414.50
559.47	59554.93
559.64	59571.32
559.80	59377.05
559.97	59494.08
560.13	59433.22
560.30	59592.38
560.46	59536.21
560.63	59543.23
560.79	59608.76
560.96	59826.43
561.12	59536.21
561.29	59625.15
561.45	59730.47
561.61	59620.47
561.78	59760.90
561.94	59550.25
562.11	59758.56
562.27	59718.77
562.44	59721.11
562.60	59922.40
562.77	59763.24
562.93	59657.91
563.10	59920.05
563.26	59697.70
563.42	59948.14
563.59	59842.82
563.75	59922.40
563.92	59798.35
564.08	59910.69
564.24	59966.87
564.41	59952.82
564.57	59889.63
564.74	59744.51
564.90	59873.24
565.07	59882.61
565.23	59849.84
565.39	59824.09
565.56	59852.18
565.72	60013.68
565.88	60067.51
566.05	59877.93
566.21	59959.84
566.38	59994.95
566.54	59896.65
566.70	60315.61
566.87	60163.47
567.03	60252.41
567.19	60083.89
567.36	60025.38
567.52	60144.75
567.68	60252.41
567.85	60308.58
568.01	60086.23
568.17	60123.68
568.34	60310.92
568.50	60200.92
568.66	60128.36
568.83	60175.17
568.99	60090.91
569.15	60292.20
569.32	60320.29
569.48	60247.73
569.64	60308.58
569.81	60327.31
569.97	60116.66
570.13	60217.30
570.30	60144.75
570.46	60324.97
570.62	60432.63
570.78	60320.29
570.95	60385.82
571.11	60374.12
571.27	60362.42
571.43	60285.18
571.60	60594.13
571.76	60437.31
571.92	60481.78
572.09	60535.62
572.25	60224.32
572.41	60289.86
572.57	60151.77
572.74	60467.74
572.90	60299.22
573.06	60334.33
573.22	60402.21
573.38	60322.63
573.55	60582.43
573.71	60626.90
573.87	60516.89
574.03	60229.01
574.20	60523.91
574.36	60369.44
574.52	60484.12
574.68	60554.34
574.84	60711.16
575.01	60603.49
575.17	60441.99
575.33	60486.46
575.49	60357.74
575.65	60385.82
575.82	60657.32
575.98	60629.24
576.14	60786.05
576.30	60720.52
576.46	60402.21
576.62	60559.02
576.79	60570.72
576.95	60535.62
577.11	60615.19
577.27	60528.59
577.43	60680.73
577.59	60626.90
577.75	60528.59
577.92	60547.32
578.08	60652.64
578.24	60690.09
578.40	60776.69
578.56	60638.60
578.72	60643.28
578.88	60657.32
579.04	60870.31
579.21	60596.47
579.37	60884.36
579.53	60797.76
579.69	60537.96
579.85	60484.12
580.01	60617.53
580.17	60580.09
580.33	60886.70
580.49	60664.35
580.65	60640.94
580.82	60924.14
580.98	60495.83
581.14	60596.47
581.30	60760.31
581.46	60636.26
581.62	60872.65
581.78	60568.38
581.94	60767.33
582.10	60533.28
582.26	60535.62
582.42	60587.11
582.58	60718.18
582.74	60762.65
582.90	60584.77
583.06	60720.52
583.22	60788.39
583.38	60652.64
583.54	60676.05
583.70	60858.61
583.86	60889.04
584.02	60662.00
584.18	60844.57
584.34	60811.80
584.50	61038.83
584.66	60767.33
584.82	60683.07
584.98	60975.64
585.14	60889.04
585.30	60568.38
585.46	60856.27
585.62	60776.69
585.78	61031.81
585.94	60783.71
586.10	60886.70
586.26	60973.30
586.42	60776.69
586.58	61057.56
586.74	60797.76
586.90	60874.99
587.06	60917.12
587.22	61146.50
587.38	60804.78
587.54	60945.21
587.70	61064.58
587.86	60690.09
588.02	60718.18
588.18	60917.12
588.34	60722.86
588.49	60996.70
