SpectraSuite Data File
++++++++++++++++++++++++++++++++++++
Date: Fri Oct 25 11:25:12 EDT 2013
User: price-jones
Dark Spectrum Present: No
Reference Spectrum Present: No
Number of Sampled Component Spectra: 1
Spectrometers: USB2+H05261
Integration Time (usec): 100000 (USB2+H05261)
Spectra Averaged: 1 (USB2+H05261)
Boxcar Smoothing: 0 (USB2+H05261)
Correct for Electrical Dark: No (USB2+H05261)
Strobe/Lamp Enabled: No (USB2+H05261)
Correct for Detector Non-linearity: No (USB2+H05261)
Correct for Stray Light: No (USB2+H05261)
Number of Pixels in Processed Spectrum: 2048
>>>>>Begin Processed Spectral Data<<<<<
365.73	271.50
365.92	271.50
366.12	271.50
366.32	215.33
366.52	138.09
366.72	133.41
366.91	49.15
367.11	138.09
367.31	112.35
367.51	145.11
367.70	215.33
367.90	93.62
368.10	140.43
368.30	86.60
368.49	107.66
368.69	147.45
368.89	84.26
369.09	114.69
369.28	110.01
369.48	159.16
369.68	208.31
369.87	187.24
370.07	154.48
370.27	276.18
370.47	388.53
370.66	622.58
370.86	603.86
371.06	627.26
371.25	657.69
371.45	683.44
371.65	725.57
371.84	653.01
372.04	716.20
372.24	744.29
372.44	667.05
372.63	746.63
372.83	774.72
373.03	772.38
373.22	725.57
373.42	737.27
373.62	732.59
373.81	725.57
374.01	849.61
374.21	828.55
374.40	805.14
374.60	830.89
374.79	807.48
374.99	807.48
375.19	849.61
375.38	823.87
375.58	854.30
375.78	873.02
375.97	830.89
376.17	861.32
376.37	814.51
376.56	894.08
376.76	891.74
376.95	854.30
377.15	880.04
377.35	887.06
377.54	884.72
377.74	915.15
377.93	959.62
378.13	933.87
378.33	933.87
378.52	933.87
378.72	994.73
378.91	950.26
379.11	943.24
379.31	929.19
379.50	870.68
379.70	1013.45
379.89	1050.90
380.09	1025.15
380.28	912.81
380.48	1001.75
380.68	1006.43
380.87	959.62
381.07	931.53
381.26	1001.75
381.46	968.98
381.65	990.05
381.85	964.30
382.04	1067.28
382.24	1090.69
382.43	1060.26
382.63	971.32
382.83	1188.99
383.02	980.68
383.22	1104.73
383.41	1156.22
383.61	1160.91
383.80	1062.60
384.00	1093.03
384.19	1067.28
384.39	1123.46
384.58	1025.15
384.78	1100.05
384.97	1130.48
385.17	1116.44
385.36	1163.25
385.56	1156.22
385.75	1132.82
385.95	1118.78
386.14	1247.51
386.34	1177.29
386.53	1081.33
386.72	1231.12
386.92	1184.31
387.11	1203.04
387.31	1200.69
387.50	1217.08
387.70	1254.53
387.89	1261.55
388.09	1324.74
388.28	1378.58
388.48	1322.40
388.67	1345.81
388.86	1301.34
389.06	1376.24
389.25	1404.32
389.45	1313.04
389.64	1308.36
389.84	1324.74
390.03	1416.02
390.22	1306.02
390.42	1380.92
390.61	1364.53
390.81	1507.30
391.00	1357.51
391.19	1488.58
391.39	1479.22
391.58	1502.62
391.78	1397.30
391.97	1416.02
392.16	1528.37
392.36	1483.90
392.55	1521.35
392.75	1572.84
392.94	1554.12
393.13	1495.60
393.33	1519.01
393.52	1523.69
393.71	1612.63
393.91	1516.67
394.10	1607.95
394.29	1629.01
394.49	1558.80
394.68	1614.97
394.88	1661.78
395.07	1624.33
395.26	1568.16
395.46	1638.38
395.65	1703.91
395.84	1661.78
396.04	1732.00
396.23	1736.68
396.42	1799.87
396.62	1753.06
396.81	1851.36
397.00	1774.13
397.19	1858.39
397.39	1771.79
397.58	1834.98
397.77	1785.83
397.97	1851.36
398.16	1842.00
398.35	1806.89
398.55	1825.62
398.74	1865.41
398.93	1940.30
399.12	1895.83
399.32	1842.00
399.51	1914.56
399.70	1991.80
399.90	1888.81
400.09	2045.63
400.28	2019.88
400.47	1989.46
400.67	2043.29
400.86	2036.27
401.05	1980.09
401.24	1956.69
401.44	2181.38
401.63	2160.31
401.82	2118.18
402.01	2106.48
402.21	2211.81
402.40	2071.37
402.59	2141.59
402.78	2209.47
402.97	2214.15
403.17	2167.34
403.36	2221.17
403.55	2197.76
403.74	2347.56
403.93	2377.98
404.13	2326.49
404.32	2326.49
404.51	2296.07
404.70	2408.41
404.89	2380.32
405.09	2401.39
405.28	2523.10
405.47	2387.35
405.66	2457.56
405.85	2471.61
406.05	2562.89
406.24	2562.89
406.43	2459.90
406.62	2502.03
406.81	2663.53
407.00	2581.61
407.20	2595.65
407.39	2656.51
407.58	2593.31
407.77	2665.87
407.96	2712.68
408.15	2670.55
408.34	2644.81
408.54	2759.49
408.73	2757.15
408.92	2832.05
409.11	2850.77
409.30	2818.00
409.49	2803.96
409.68	2846.09
409.87	2890.56
410.07	2942.05
410.26	2991.20
410.45	3077.80
410.64	2946.73
410.83	3068.44
411.02	3087.17
411.21	3269.73
411.40	3126.96
411.59	3262.71
411.78	3159.72
411.98	3255.69
412.17	3232.28
412.36	3229.94
412.55	3396.12
412.74	3297.81
412.93	3384.41
413.12	3328.24
413.31	3564.64
413.50	3447.61
413.69	3463.99
413.88	3625.49
414.07	3487.40
414.26	3574.00
414.45	3595.06
414.64	3566.98
414.83	3545.91
415.02	3740.18
415.22	3693.37
415.41	3901.67
415.60	3681.66
415.79	3756.56
415.98	3878.27
416.17	3927.42
416.36	4044.45
416.55	3981.25
416.74	4163.81
416.93	3969.55
417.12	3997.64
417.31	4065.51
417.50	4065.51
417.69	4241.05
417.88	4238.71
418.07	4142.75
418.26	4135.73
418.45	4304.25
418.64	4503.19
418.83	4383.82
419.02	4315.95
419.21	4479.79
419.39	4505.53
419.58	4524.26
419.77	4411.91
419.96	4528.94
420.15	4510.21
420.34	4559.36
420.53	4550.00
420.72	4655.33
420.91	4681.07
421.10	4772.35
421.29	4720.86
421.48	4489.15
421.67	4777.03
421.86	4781.71
422.05	4905.76
422.24	4805.12
422.43	4884.70
422.61	4847.25
422.80	4858.95
422.99	4758.31
423.18	5006.41
423.37	5039.17
423.56	4884.70
423.75	4828.53
423.94	4765.33
424.13	4437.66
424.32	4699.80
424.50	4868.31
424.69	5121.09
424.88	5046.20
425.07	4964.28
425.26	4814.48
425.45	4851.93
425.64	4931.51
425.83	4898.74
426.01	4990.02
426.20	5097.69
426.39	4952.57
426.58	4767.67
426.77	4812.14
426.96	5249.82
427.15	5093.01
427.33	5055.56
427.52	5088.32
427.71	5212.37
427.90	5210.03
428.09	5366.85
428.28	5303.65
428.46	5425.36
428.65	5275.57
428.84	5558.77
429.03	5474.51
429.22	5437.06
429.40	5334.08
429.59	5444.09
429.78	5343.44
429.97	5177.26
430.16	5575.16
430.34	5533.03
430.53	5577.50
430.72	5694.52
430.91	5673.46
431.10	5345.78
431.28	5575.16
431.47	5738.99
431.66	5657.07
431.85	5769.42
432.03	5980.07
432.22	5902.83
432.41	5849.00
432.60	6005.81
432.79	6080.71
432.97	5781.12
433.16	5984.75
433.35	5806.87
433.54	6052.63
433.72	6083.05
433.91	6045.60
434.10	6162.63
434.28	5989.43
434.47	6253.91
434.66	6031.56
434.85	6260.93
435.03	6136.88
435.22	6174.33
435.41	6544.14
435.59	6242.21
435.78	6347.53
435.97	6340.51
436.16	6403.71
436.34	6548.82
436.53	6436.47
436.72	6443.49
436.90	6452.86
437.09	6656.48
437.28	6420.09
437.46	6518.39
437.65	6567.54
437.84	6834.36
438.02	6670.53
438.21	6715.00
438.40	6710.32
438.58	6897.56
438.77	6995.86
438.96	6789.89
439.14	7119.91
439.33	7012.24
439.52	7080.12
439.70	7082.46
439.89	7262.68
440.08	7288.43
440.26	7377.37
440.45	7300.13
440.63	7389.07
440.82	7625.47
441.01	7541.21
441.19	7501.42
441.38	7588.02
441.57	7545.89
441.75	7674.62
441.94	7824.41
442.12	7843.14
442.31	7939.10
442.50	7988.25
442.68	8070.17
442.87	7988.25
443.05	8131.02
443.24	8194.22
443.43	7903.99
443.61	7988.25
443.80	8351.03
443.98	8060.80
444.17	7735.47
444.35	8250.39
444.54	8329.97
444.73	8058.46
444.91	8180.17
445.10	8184.85
445.28	8205.92
445.47	8294.86
445.65	8271.45
445.84	8416.57
446.02	8449.33
446.21	8533.59
446.39	8248.05
446.58	8245.71
446.77	8393.16
446.95	8184.85
447.14	8439.97
447.32	8468.06
447.51	8285.50
447.69	8393.16
447.88	8629.56
448.06	8468.06
448.25	8477.42
448.43	8496.14
448.62	8533.59
448.80	8484.44
448.99	8533.59
449.17	8695.09
449.36	8610.83
449.54	8669.34
449.73	8901.06
449.91	8945.53
450.10	8903.40
450.28	9081.28
450.46	9177.24
450.65	9163.20
450.83	8936.17
451.02	9188.94
451.20	9383.21
451.39	9104.68
451.57	8922.12
451.76	9172.56
451.94	9071.92
452.13	9172.56
452.31	9263.84
452.49	9186.60
452.68	9130.43
452.86	9245.12
453.05	9088.30
453.23	9387.89
453.42	9362.14
453.60	9266.18
453.78	9521.30
453.97	9373.85
454.15	9404.27
454.34	9390.23
454.52	9593.86
454.70	9507.26
454.89	9661.73
455.07	9504.92
455.26	9916.85
455.44	9991.75
455.62	9951.96
455.81	10022.17
455.99	10010.47
456.17	10127.50
456.36	10125.16
456.54	10164.95
456.73	10209.42
456.91	10363.89
457.09	10408.36
457.28	10277.29
457.46	10298.36
457.64	10523.05
457.83	10530.07
458.01	10347.51
458.19	10555.82
458.38	10377.94
458.56	10822.64
458.74	10663.48
458.93	10420.06
459.11	10726.68
459.29	10820.30
459.48	10733.70
459.66	10658.80
459.84	10906.90
460.03	10700.93
460.21	10960.73
460.39	11068.39
460.57	10726.68
460.76	10801.57
460.94	11173.72
461.12	10839.02
461.31	11279.04
461.49	11028.60
461.67	11063.71
461.85	11419.47
462.04	11129.25
462.22	11805.66
462.40	11400.75
462.59	11440.54
462.77	11344.58
462.95	11803.32
463.13	11389.05
463.32	11616.08
463.50	11590.33
463.68	11644.17
463.86	11740.13
464.05	11510.75
464.23	11510.75
464.41	11805.66
464.59	11611.40
464.78	12095.89
464.96	11728.42
465.14	11852.47
465.32	11939.07
465.50	12100.57
465.69	11864.18
465.87	12032.69
466.05	12159.08
466.23	12161.42
466.41	11831.41
466.60	12423.56
466.78	11964.82
466.96	12058.44
467.14	12149.72
467.32	12025.67
467.51	12500.80
467.69	11920.35
467.87	12367.39
468.05	12484.42
468.23	12301.86
468.41	12425.90
468.60	12432.93
468.78	12545.27
468.96	12676.34
469.14	12634.21
469.32	12791.03
469.50	12533.57
469.69	12779.32
469.87	13048.49
470.05	13209.98
470.23	13109.34
470.41	12982.95
470.59	13195.94
470.77	13128.06
470.95	13146.79
471.14	13394.89
471.32	12989.97
471.50	13275.52
471.68	13362.12
471.86	13549.36
472.04	13355.10
472.22	14068.96
472.40	13565.74
472.58	14010.45
472.77	13926.19
472.95	14083.00
473.13	14281.95
473.31	14045.55
473.49	14122.79
473.67	13947.25
473.85	14099.39
474.03	14635.37
474.21	14473.87
474.39	14785.16
474.57	14614.30
474.75	14965.39
474.93	14736.01
475.12	14567.49
475.30	14909.21
475.48	15005.17
475.66	15075.39
475.84	14759.42
476.02	15260.29
476.20	15206.46
476.38	15578.61
476.56	16243.32
476.74	16009.26
476.92	15721.38
477.10	15740.10
477.28	15892.24
477.46	16116.93
477.64	16395.45
477.82	16554.61
478.00	16685.68
478.18	16704.40
478.36	16699.72
478.54	16702.06
478.72	17053.14
478.90	17378.48
479.08	17532.95
479.26	17469.76
479.44	17633.60
479.62	17767.01
479.80	17832.54
479.98	18197.67
480.16	18410.65
480.34	18207.03
480.52	18462.15
480.70	18258.52
480.88	18249.16
481.06	18469.17
481.24	18527.68
481.41	19161.97
481.59	18944.30
481.77	19552.84
481.95	19365.59
482.13	19721.35
482.31	19452.19
482.49	19910.94
482.67	19871.15
482.85	20290.10
483.03	20381.38
483.21	20400.11
483.39	20821.41
483.57	20577.99
483.74	20779.28
483.92	21287.17
484.10	21036.74
484.28	21104.61
484.46	21792.73
484.64	22192.96
484.82	21633.57
485.00	22625.96
485.18	22565.10
485.35	22773.41
485.53	22761.71
485.71	22948.95
485.89	23379.61
486.07	23218.11
486.25	23197.05
486.43	23466.21
486.61	23550.47
486.78	23838.36
486.96	23859.42
487.14	24500.73
487.32	24687.97
487.50	24664.57
487.68	25071.82
487.85	25200.55
488.03	25177.14
488.21	25678.02
488.39	25493.12
488.57	25839.51
488.75	25937.82
488.92	26244.43
489.10	26707.85
489.28	26335.71
489.46	26937.23
489.64	27040.21
489.81	27723.65
489.99	27522.36
490.17	27641.73
490.35	28065.36
490.53	27885.14
490.70	28051.32
490.88	27971.74
491.06	28063.02
491.24	28638.80
491.41	28994.56
491.59	29013.28
491.77	28907.96
491.95	29291.80
492.13	29823.11
492.30	29670.97
492.48	29692.04
492.66	30064.18
492.84	30363.77
493.01	30497.18
493.19	30272.49
493.37	30888.05
493.54	30803.79
493.72	31386.58
493.90	31094.02
494.08	31646.38
494.25	31419.35
494.43	31910.86
494.61	31850.01
494.79	32107.47
494.96	32133.21
495.14	32734.73
495.32	32818.99
495.49	32758.14
495.67	33104.54
495.85	33074.11
496.02	33722.44
496.20	33993.94
496.38	33921.38
496.55	33890.96
496.73	34857.60
496.91	34094.58
497.09	34700.78
497.26	34459.71
497.44	34653.97
497.62	35000.37
497.79	35402.94
497.97	35248.47
498.14	35517.63
498.32	35608.91
498.50	35899.14
498.67	36175.32
498.85	35995.10
499.03	36364.90
499.20	36769.82
499.38	36512.36
499.56	36598.96
499.73	36723.01
499.91	36837.69
500.08	37411.12
500.26	37221.54
500.44	37233.24
500.61	37596.03
500.79	37254.31
500.97	37823.06
501.14	38316.91
501.32	37820.72
501.49	38401.17
501.67	38071.15
501.84	38721.82
502.02	38522.88
502.20	39072.90
502.37	39122.05
502.55	38969.92
502.72	39363.13
502.90	39566.76
503.07	39344.41
503.25	39363.13
503.43	39487.18
503.60	39765.70
503.78	40109.76
503.95	39807.83
504.13	40634.04
504.30	40540.42
504.48	39835.92
504.65	40460.84
504.83	40542.76
505.01	41324.50
505.18	40603.61
505.36	41383.01
505.53	41223.86
505.71	41081.08
505.88	41352.58
506.06	41493.02
506.23	41504.72
506.41	41249.60
506.58	41778.56
506.76	41497.70
506.93	42431.57
507.11	42071.13
507.28	42351.99
507.46	42031.34
507.63	42663.28
507.81	43117.35
507.98	42892.66
508.16	42696.05
508.33	42696.05
508.50	43136.07
508.68	43330.34
508.85	43693.12
509.03	43335.02
509.20	43583.12
509.38	43737.59
509.55	44018.46
509.73	44098.03
509.90	44439.75
510.08	43948.24
510.25	44149.53
510.42	44161.23
510.60	44664.44
510.77	44769.77
510.95	45141.91
511.12	44587.21
511.30	44680.83
511.47	45151.27
511.64	45333.84
511.82	45797.26
511.99	45397.03
512.17	45347.88
512.34	45701.30
512.51	45759.81
512.69	45886.20
512.86	45787.90
513.04	46597.73
513.21	46220.90
513.38	46506.44
513.56	46375.37
513.73	46529.85
513.90	46745.18
514.08	46656.24
514.25	46902.00
514.43	47000.30
514.60	47196.90
514.77	47232.01
514.95	47367.76
515.12	47206.26
515.29	47136.05
515.47	47604.16
515.64	47498.83
515.81	47681.39
515.99	48088.65
516.16	48313.34
516.33	47924.81
516.51	48746.34
516.68	47978.64
516.85	48037.16
517.03	48816.55
517.20	48809.53
517.37	48678.46
517.54	48725.27
517.72	48910.17
517.89	49069.33
518.06	49013.16
518.24	48966.35
518.41	48666.76
518.58	49120.82
518.75	49109.12
518.93	49294.02
519.10	49081.03
519.27	49214.44
519.45	49467.22
519.62	49469.56
519.79	49610.00
519.96	49624.04
520.14	49841.71
520.31	49813.62
520.48	50050.02
520.65	50071.08
520.83	50419.82
521.00	50389.39
521.17	50054.70
521.34	50546.21
521.52	50494.72
521.69	50583.66
521.86	50588.34
522.03	50920.70
522.20	51100.92
522.38	51299.86
522.55	51119.64
522.72	51372.42
522.89	51187.52
523.07	51318.59
523.24	51262.41
523.41	51571.36
523.58	51072.83
523.75	51915.42
523.92	51269.43
524.10	51573.70
524.27	51608.81
524.44	51934.15
524.61	51564.34
524.78	51826.48
524.96	52058.20
525.13	51854.57
525.30	52123.73
525.47	52128.41
525.64	52280.55
525.81	52254.80
525.98	52495.88
526.16	52341.40
526.33	52395.23
526.50	52467.79
526.67	52615.24
526.84	52734.61
527.01	52781.42
527.18	52472.47
527.36	52680.78
527.53	52870.36
527.70	53081.01
527.87	52898.45
528.04	52919.51
528.21	53198.04
528.38	53059.94
528.55	53179.31
528.72	53111.44
528.89	53134.84
529.07	53432.09
529.24	53024.84
529.41	53506.99
529.58	53626.35
529.75	53450.81
529.92	53422.73
530.09	53415.71
530.26	53867.43
530.43	53888.49
530.60	53481.24
530.77	53595.93
530.94	54059.35
531.11	53661.46
531.28	53771.47
531.46	53792.53
531.63	54129.57
531.80	54012.54
531.97	54078.08
532.14	54450.22
532.31	54321.49
532.48	54482.99
532.65	54340.22
532.82	54408.09
532.99	54560.23
533.16	54417.46
533.33	54569.59
533.50	54773.22
533.67	54363.62
533.84	54417.46
534.01	54777.90
534.18	54777.90
534.35	54974.50
534.52	54841.09
534.69	55040.04
534.86	54901.95
535.03	54951.10
535.20	54972.16
535.37	55054.08
535.54	55037.70
535.71	54880.88
535.88	55173.45
536.05	55220.26
536.22	55449.63
536.38	55185.15
536.55	55154.72
536.72	55447.29
536.89	55248.35
537.06	55253.03
537.23	55608.79
537.40	55276.43
537.57	55580.70
537.74	55540.91
537.91	55709.43
538.08	55913.06
538.25	55426.23
538.42	55702.41
538.59	55805.39
538.75	55421.55
538.92	55906.04
539.09	55849.86
539.26	55908.38
539.43	55870.93
539.60	55994.98
539.77	56156.47
539.94	56081.58
540.11	56088.60
540.28	55847.52
540.44	56067.53
540.61	56144.77
540.78	56247.75
540.95	55845.18
541.12	56238.39
541.29	56392.87
541.46	56268.82
541.62	56205.62
541.79	56385.85
541.96	56062.85
542.13	56498.19
542.30	56549.68
542.47	56671.39
542.63	56598.83
542.80	56596.49
542.97	56872.68
543.14	57102.05
543.31	56893.74
543.48	56978.00
543.64	57167.58
543.81	57073.96
543.98	57289.29
544.15	57214.40
544.32	57240.14
544.48	57263.55
544.65	57097.37
544.82	57139.50
544.99	57155.88
545.16	57031.83
545.32	57286.95
545.49	57539.73
545.66	57513.98
545.83	57439.09
546.00	57315.04
546.16	57296.31
546.33	57392.28
546.50	57361.85
546.67	57403.98
546.83	57190.99
547.00	57759.74
547.17	57691.86
547.34	57628.67
547.50	57619.31
547.67	57783.15
547.84	57764.42
548.00	57799.53
548.17	58089.76
548.34	57799.53
548.51	57881.45
548.67	57939.96
548.84	58000.82
549.01	57750.38
549.18	58007.84
549.34	57893.15
549.51	58188.06
549.68	58185.72
549.84	58164.65
550.01	58262.96
550.18	58305.09
550.34	58106.14
550.51	58115.50
550.68	58080.39
550.84	57928.26
551.01	58330.83
551.18	58241.89
551.34	58103.80
551.51	58417.43
551.68	58230.19
551.84	58377.64
552.01	58293.38
552.18	58607.01
552.34	58410.41
552.51	58412.75
552.68	58379.98
552.84	58492.33
553.01	58761.49
553.18	58649.14
553.34	58623.40
553.51	58726.38
553.67	58705.32
553.84	58815.32
554.01	58665.53
554.17	58939.37
554.34	58995.54
554.51	58885.54
554.67	58864.47
554.84	58869.15
555.00	58932.35
555.17	58368.28
555.33	59180.45
555.50	58775.53
555.67	58721.70
555.83	58897.24
556.00	58969.80
556.16	59150.02
556.33	59185.13
556.50	59004.91
556.66	59159.38
556.83	58934.69
556.99	59217.89
557.16	59217.89
557.32	59508.12
557.49	59519.82
557.65	59180.45
557.82	59278.75
557.98	59051.72
558.15	59318.54
558.32	59269.39
558.48	59042.35
558.65	59306.83
558.81	59348.96
558.98	59416.84
559.14	59407.48
559.31	59480.03
559.47	59391.09
559.64	59416.84
559.80	59529.19
559.97	59552.59
560.13	59428.54
560.30	59355.99
560.46	59536.21
560.63	59711.75
560.79	59650.89
560.96	59503.44
561.12	59515.14
561.29	59543.23
561.45	59632.17
561.61	59480.03
561.78	59618.13
561.94	59494.08
562.11	59540.89
562.27	59810.05
562.44	59831.11
562.60	59796.01
562.77	59875.58
562.93	59711.75
563.10	59873.24
563.26	59688.34
563.42	60020.70
563.59	59840.48
563.75	59796.01
563.92	59732.81
564.08	59959.84
564.24	59824.09
564.41	59803.03
564.57	59835.80
564.74	59898.99
564.90	59964.52
565.07	59985.59
565.23	60046.44
565.39	60100.28
565.56	60200.92
565.72	59824.09
565.88	60240.71
566.05	59810.05
566.21	59704.73
566.38	60041.76
566.54	59980.91
566.70	60189.22
566.87	60236.03
567.03	59765.58
567.19	60245.39
567.36	60135.38
567.52	60023.04
567.68	60498.17
567.85	60102.62
568.01	60381.14
568.17	60116.66
568.34	60353.05
568.50	60207.94
568.66	60144.75
568.83	60273.48
568.99	60193.90
569.15	60434.97
569.32	60348.37
569.48	60193.90
569.64	60200.92
569.81	60198.58
569.97	60097.94
570.13	60259.43
570.30	60292.20
570.46	60395.18
570.62	60137.72
570.78	60128.36
570.95	60212.62
571.11	60523.91
571.27	60177.51
571.43	60310.92
571.60	60430.29
571.76	60133.04
571.92	60362.42
572.09	60449.02
572.25	60214.96
572.41	60355.39
572.57	60303.90
572.74	60598.81
572.90	60427.95
573.06	60477.10
573.22	60292.20
573.38	60465.40
573.55	60509.87
573.71	60535.62
573.87	60472.42
574.03	60481.78
574.20	60566.04
574.36	60523.91
574.52	60704.13
574.68	60556.68
574.84	60671.37
575.01	60736.90
575.17	60374.12
575.33	60552.00
575.49	60444.33
575.65	60493.49
575.82	60654.98
575.98	60694.77
576.14	60860.95
576.30	60582.43
576.46	60570.72
576.62	60530.93
576.79	60676.05
576.95	60512.21
577.11	60559.02
577.27	60601.15
577.43	60748.60
577.59	60580.09
577.75	60399.86
577.92	60327.31
578.08	60624.56
578.24	60540.30
578.40	60952.23
578.56	60975.64
578.72	60669.03
578.88	60856.27
579.04	60814.14
579.21	60713.50
579.37	60804.78
579.53	60832.86
579.69	60390.50
579.85	60608.17
580.01	60573.06
580.17	60488.80
580.33	60629.24
580.49	60870.31
580.65	60694.77
580.82	60830.52
580.98	60858.61
581.14	60673.71
581.30	60973.30
581.46	60853.93
581.62	60790.73
581.78	60460.72
581.94	60839.89
582.10	60809.46
582.26	60645.62
582.42	60720.52
582.58	60718.18
582.74	60736.90
582.90	60830.52
583.06	61008.40
583.22	60662.00
583.38	60544.98
583.54	60601.15
583.70	60715.84
583.86	60921.80
584.02	60575.40
584.18	60816.48
584.34	60706.47
584.50	60898.40
584.66	60809.46
584.82	60601.15
584.98	60942.87
585.14	60968.61
585.30	60767.33
585.46	61036.49
585.62	61010.74
585.78	60917.12
585.94	60479.44
586.10	60741.58
586.26	60928.83
586.42	60999.04
586.58	60987.34
586.74	60858.61
586.90	60884.36
587.06	60664.35
587.22	61048.19
587.38	60844.57
587.54	60985.00
587.70	61085.64
587.86	60914.78
588.02	61125.43
588.18	61034.15
588.34	60956.91
588.49	60779.03
