SpectraSuite Data File
++++++++++++++++++++++++++++++++++++
Date: Fri Oct 25 10:43:47 EDT 2013
User: price-jones
Dark Spectrum Present: No
Reference Spectrum Present: No
Number of Sampled Component Spectra: 1
Spectrometers: USB2+H05261
Integration Time (usec): 100000 (USB2+H05261)
Spectra Averaged: 1 (USB2+H05261)
Boxcar Smoothing: 0 (USB2+H05261)
Correct for Electrical Dark: No (USB2+H05261)
Strobe/Lamp Enabled: No (USB2+H05261)
Correct for Detector Non-linearity: No (USB2+H05261)
Correct for Stray Light: No (USB2+H05261)
Number of Pixels in Processed Spectrum: 2048
>>>>>Begin Processed Spectral Data<<<<<
365.73	131.07
365.92	131.07
366.12	131.07
366.32	0.00
366.52	18.72
366.72	74.90
366.91	0.00
367.11	23.41
367.31	32.77
367.51	0.00
367.70	18.72
367.90	21.06
368.10	23.41
368.30	0.00
368.49	0.00
368.69	11.70
368.89	98.30
369.09	51.49
369.28	35.11
369.48	102.98
369.68	72.56
369.87	93.62
370.07	72.56
370.27	88.94
370.47	222.35
370.66	383.85
370.86	435.34
371.06	447.04
371.25	498.53
371.45	374.49
371.65	489.17
371.84	477.47
372.04	435.34
372.24	505.56
372.44	402.57
372.63	524.28
372.83	543.00
373.03	519.60
373.22	500.87
373.42	526.62
373.62	463.43
373.81	533.64
374.01	528.96
374.21	575.77
374.40	561.73
374.60	620.24
374.79	437.68
374.99	524.28
375.19	519.60
375.38	601.52
375.58	617.90
375.78	664.71
375.97	641.31
376.17	641.31
376.37	582.79
376.56	634.29
376.76	578.11
376.95	496.19
377.15	634.29
377.35	638.97
377.54	676.41
377.74	655.35
377.93	648.33
378.13	615.56
378.33	596.84
378.52	655.35
378.72	622.58
378.91	711.52
379.11	655.35
379.31	643.65
379.50	653.01
379.70	697.48
379.89	699.82
380.09	629.60
380.28	596.84
380.48	660.03
380.68	723.23
380.87	660.03
381.07	697.48
381.26	671.73
381.46	657.69
381.65	648.33
381.85	681.10
382.04	653.01
382.24	758.33
382.43	805.14
382.63	678.76
382.83	683.44
383.02	697.48
383.22	702.16
383.41	709.18
383.61	725.57
383.80	755.99
384.00	767.70
384.19	767.70
384.39	791.10
384.58	774.72
384.78	856.64
384.97	814.51
385.17	751.31
385.36	770.04
385.56	809.83
385.75	669.39
385.95	826.21
386.14	858.98
386.34	844.93
386.53	877.70
386.72	866.00
386.92	805.14
387.11	814.51
387.31	903.45
387.50	826.21
387.70	844.93
387.89	833.23
388.09	938.55
388.28	863.66
388.48	917.49
388.67	875.36
388.86	891.74
389.06	999.41
389.25	978.34
389.45	1013.45
389.64	1015.79
389.84	985.37
390.03	994.73
390.22	976.00
390.42	999.41
390.61	990.05
390.81	1060.26
391.00	971.32
391.19	1111.75
391.39	1123.46
391.58	1071.97
391.78	1043.88
391.97	1107.07
392.16	947.92
392.36	1083.67
392.55	1064.94
392.75	961.96
392.94	915.15
393.13	1093.03
393.33	1032.18
393.52	1074.31
393.71	1057.92
393.91	1055.58
394.10	1116.44
394.29	1137.50
394.49	1177.29
394.68	1170.27
394.88	1273.25
395.07	1163.25
395.26	1198.35
395.46	1191.33
395.65	1263.89
395.84	1233.46
396.04	1294.32
396.23	1291.98
396.42	1226.44
396.62	1142.18
396.81	1132.82
397.00	1289.64
397.19	1214.74
397.39	1338.79
397.58	1261.55
397.77	1284.95
397.97	1383.26
398.16	1364.53
398.35	1425.39
398.55	1425.39
398.74	1568.16
398.93	1483.90
399.12	1509.65
399.32	1502.62
399.51	1490.92
399.70	1537.73
399.90	1533.05
400.09	1575.18
400.28	1633.69
400.47	1682.85
400.67	1605.61
400.86	1577.52
401.05	1666.46
401.24	1556.46
401.44	1729.66
401.63	1652.42
401.82	1732.00
402.01	1633.69
402.21	1771.79
402.40	1727.32
402.59	1661.78
402.78	1614.97
402.97	1802.21
403.17	1795.19
403.36	1781.15
403.55	1743.70
403.74	1860.73
403.93	1823.28
404.13	1970.73
404.32	1851.36
404.51	1804.55
404.70	1802.21
404.89	1795.19
405.09	1989.46
405.28	1970.73
405.47	1984.77
405.66	1919.24
405.85	2015.20
406.05	1980.09
406.24	1975.41
406.43	1884.13
406.62	2064.35
406.81	2111.16
407.00	1984.77
407.20	2050.31
407.39	2083.08
407.58	2122.87
407.77	2179.04
407.96	2181.38
408.15	2211.81
408.34	2232.87
408.54	2193.08
408.73	2352.24
408.92	2359.26
409.11	2321.81
409.30	2282.02
409.49	2228.19
409.68	2214.15
409.87	2307.77
410.07	2298.41
410.26	2363.94
410.45	2525.44
410.64	2511.39
410.83	2417.77
411.02	2403.73
411.21	2518.42
411.40	2572.25
411.59	2544.16
411.78	2497.35
411.98	2567.57
412.17	2663.53
412.36	2588.63
412.55	2712.68
412.74	2670.55
412.93	2626.08
413.12	2773.53
413.31	2806.30
413.50	2726.72
413.69	2909.29
413.88	2937.37
414.07	2794.60
414.26	2869.50
414.45	2937.37
414.64	2913.97
414.83	3014.61
415.02	2995.89
415.22	2967.80
415.41	3131.64
415.60	3047.38
415.79	3197.17
415.98	3297.81
416.17	3269.73
416.36	3283.77
416.55	3283.77
416.74	3229.94
416.93	3255.69
417.12	3321.22
417.31	3300.16
417.50	3403.14
417.69	3316.54
417.88	3389.10
418.07	3274.41
418.26	3454.63
418.45	3463.99
418.64	3698.05
418.83	3574.00
419.02	3426.54
419.21	3583.36
419.39	3503.78
419.58	3557.61
419.77	3508.46
419.96	3623.15
420.15	3744.86
420.34	3585.70
420.53	3637.19
420.72	3899.33
420.91	3826.78
421.10	3812.73
421.29	3786.99
421.48	3693.37
421.67	3805.71
421.86	3885.29
422.05	3709.75
422.24	3768.26
422.43	3880.61
422.61	3644.21
422.80	3742.52
422.99	3889.97
423.18	4021.04
423.37	4025.72
423.56	3882.95
423.75	3981.25
423.94	3866.56
424.13	3552.93
424.32	3770.60
424.50	4037.42
424.69	3887.63
424.88	4056.15
425.07	3985.93
425.26	3721.45
425.45	3805.71
425.64	3913.38
425.83	3840.82
426.01	3974.23
426.20	3939.12
426.39	4007.00
426.58	3964.87
426.77	3906.35
426.96	4025.72
427.15	3918.06
427.33	4074.87
427.52	3988.27
427.71	4058.49
427.90	4114.66
428.09	4023.38
428.28	4201.26
428.46	4009.34
428.65	4135.73
428.84	4147.43
429.03	4271.48
429.22	4166.15
429.40	4196.58
429.59	4131.05
429.78	3939.12
429.97	3927.42
430.16	3969.55
430.34	3997.64
430.53	4093.60
430.72	4107.64
430.91	4145.09
431.10	4269.14
431.28	4505.53
431.47	4617.88
431.66	4655.33
431.85	4580.43
432.03	4592.13
432.22	4498.51
432.41	4542.98
432.60	4652.98
432.79	4528.94
432.97	4826.18
433.16	4718.52
433.35	4620.22
433.54	4622.56
433.72	4683.41
433.91	4627.24
434.10	4809.80
434.28	4695.11
434.47	4734.90
434.66	4901.08
434.85	4765.33
435.03	4966.62
435.22	4880.02
435.41	5057.90
435.59	4994.70
435.78	5123.43
435.97	5139.82
436.16	5029.81
436.34	4973.64
436.53	5238.12
436.72	5256.84
436.90	5006.41
437.09	5226.42
437.28	4999.38
437.46	4938.53
437.65	4999.38
437.84	5172.58
438.02	5149.18
438.21	5118.75
438.40	5132.79
438.58	5416.00
438.77	5284.93
438.96	5486.22
439.14	5399.62
439.33	5589.20
439.52	5598.56
439.70	5696.86
439.89	5731.97
440.08	5650.05
440.26	5678.14
440.45	5717.93
440.63	5874.74
440.82	5959.00
441.01	5858.36
441.19	5870.06
441.38	6012.84
441.57	5888.79
441.75	6174.33
441.94	6197.74
442.12	6296.04
442.31	6162.63
442.50	6403.71
442.68	6061.99
442.87	6345.19
443.05	6235.19
443.24	6296.04
443.43	6462.22
443.61	6436.47
443.80	6626.06
443.98	6223.48
444.17	6136.88
444.35	6415.41
444.54	6530.09
444.73	6518.39
444.91	6338.17
445.10	6511.37
445.28	6511.37
445.47	6415.41
445.65	6410.73
445.84	6518.39
446.02	6602.65
446.21	6480.94
446.39	6296.04
446.58	6590.95
446.77	6668.19
446.95	6548.82
447.14	6623.72
447.32	6595.63
447.51	6539.46
447.69	6637.76
447.88	6700.95
448.06	6787.55
448.25	6684.57
448.43	6754.79
448.62	6635.42
448.80	6705.63
448.99	6911.60
449.17	6789.89
449.36	6778.19
449.54	6888.20
449.73	6911.60
449.91	7157.36
450.10	7047.35
450.28	7140.97
450.46	6998.20
450.65	7037.99
450.83	7082.46
451.02	7075.44
451.20	7084.80
451.39	7201.83
451.57	7103.53
451.76	7061.40
451.94	7171.40
452.13	7122.25
452.31	7185.44
452.49	7176.08
452.68	7045.01
452.86	7265.02
453.05	7323.54
453.23	7389.07
453.42	7307.15
453.60	7157.36
453.78	7393.75
453.97	7431.20
454.15	7286.09
454.34	7449.93
454.52	7328.22
454.70	7433.54
454.89	7494.40
455.07	7536.52
455.26	7536.52
455.44	7658.23
455.62	7602.06
455.81	7824.41
455.99	7691.00
456.17	7702.70
456.36	7943.78
456.54	7810.37
456.73	7941.44
456.91	7999.95
457.09	7967.18
457.28	8060.80
457.46	7889.95
457.64	8093.57
457.83	8145.06
458.01	7992.93
458.19	8224.64
458.38	8161.45
458.56	8355.71
458.74	8175.49
458.93	8266.77
459.11	8131.02
459.29	8231.66
459.48	8248.05
459.66	8203.58
459.84	8294.86
460.03	8486.78
460.21	8407.20
460.39	8524.23
460.57	8458.70
460.76	8606.15
460.94	8676.37
461.12	8634.24
461.31	8592.11
461.49	8664.66
461.67	8617.85
461.85	8865.95
462.04	8734.88
462.22	8947.87
462.40	9013.40
462.59	8898.72
462.77	8992.34
462.95	8856.59
463.13	8795.73
463.32	8926.80
463.50	8945.53
463.68	9092.98
463.86	9011.06
464.05	8786.37
464.23	8926.80
464.41	8917.44
464.59	8645.94
464.78	9146.81
464.96	8999.36
465.14	8865.95
465.32	9191.28
465.50	9390.23
465.69	9254.48
465.87	9254.48
466.05	9252.14
466.23	9142.13
466.41	8954.89
466.60	9483.85
466.78	9125.75
466.96	9076.60
467.14	9362.14
467.32	9263.84
467.51	9352.78
467.69	9027.45
467.87	9338.74
468.05	9439.38
468.23	9284.91
468.41	9331.72
468.60	9310.65
468.78	9619.60
468.96	9584.49
469.14	9633.64
469.32	9633.64
469.50	9586.83
469.69	9584.49
469.87	9736.63
470.05	9694.50
470.23	9774.08
470.41	9680.46
470.59	9928.55
470.77	9647.69
470.95	10036.22
471.14	9874.72
471.32	9963.66
471.50	10340.49
471.68	10083.03
471.86	10183.67
472.04	10146.22
472.22	10497.30
472.40	10321.76
472.58	10263.25
472.77	10410.70
472.95	10466.88
473.13	10759.44
473.31	10478.58
473.49	10389.64
473.67	10487.94
473.85	10747.74
474.03	10881.15
474.21	11030.94
474.39	10904.56
474.57	10799.23
474.75	10934.98
474.93	11077.76
475.12	11059.03
475.30	11236.91
475.48	11206.48
475.66	11335.21
475.84	11204.14
476.02	11309.47
476.20	11428.84
476.38	11808.00
476.56	11910.99
476.74	11866.52
476.92	11705.02
477.10	11709.70
477.28	11693.32
477.46	12013.97
477.64	12145.04
477.82	12196.53
478.00	12643.57
478.18	12170.79
478.36	12526.55
478.54	12617.83
478.72	12564.00
478.90	12828.48
479.08	13057.85
479.26	12947.84
479.44	13151.47
479.62	13114.02
479.80	13315.31
479.98	13448.72
480.16	13713.20
480.34	13628.94
480.52	13626.60
480.70	13493.19
480.88	13521.27
481.06	13834.91
481.24	13895.76
481.41	14120.45
481.59	14555.79
481.77	14188.33
481.95	14281.95
482.13	14499.62
482.31	14618.99
482.49	14640.05
482.67	14443.45
482.85	14949.00
483.03	14934.96
483.21	15166.67
483.39	15056.67
483.57	15337.53
483.74	15311.78
483.92	15438.17
484.10	15480.30
484.28	15627.76
484.46	16027.99
484.64	16065.44
484.82	16063.10
485.00	16046.71
485.18	16285.45
485.35	16248.00
485.53	15997.56
485.71	16123.95
485.89	16376.73
486.07	16468.01
486.25	16514.82
486.43	16678.66
486.61	16718.45
486.78	17067.19
486.96	17324.65
487.14	17362.09
487.32	17607.85
487.50	17832.54
487.68	17841.90
487.85	18328.74
488.03	18443.42
488.21	18881.10
488.39	18548.75
488.57	18590.88
488.75	19000.47
488.92	18885.78
489.10	19077.71
489.28	19297.72
489.46	19419.42
489.64	19456.87
489.81	19768.16
489.99	19747.10
490.17	19953.07
490.35	20336.91
490.53	20240.95
490.70	20458.62
490.88	20189.46
491.06	20570.97
491.24	20570.97
491.41	20629.48
491.59	20783.96
491.77	20765.23
491.95	21109.29
492.13	21167.80
492.30	21387.82
492.48	21724.85
492.66	21425.26
492.84	21759.96
493.01	21752.94
493.19	22022.10
493.37	22019.76
493.54	22176.58
493.72	22148.49
493.90	22480.85
494.08	22801.50
494.25	22871.72
494.43	22909.16
494.61	23470.89
494.79	23412.38
494.96	23257.90
495.14	23487.28
495.32	23580.90
495.49	23555.15
495.67	23576.22
495.85	23857.08
496.02	23901.55
496.20	24496.05
496.38	24140.29
496.55	24292.42
496.73	24982.88
496.91	24835.42
497.09	24849.47
497.26	25174.80
497.44	24706.70
497.62	24919.68
497.79	25083.52
497.97	25261.40
498.14	25441.62
498.32	25605.46
498.50	25088.20
498.67	25963.56
498.85	25921.43
499.03	26277.19
499.20	26419.97
499.38	26078.25
499.56	26265.49
499.73	26305.28
499.91	26602.53
500.08	26450.39
500.26	26342.73
500.44	26361.45
500.61	26338.05
500.79	26377.84
500.97	26471.46
501.14	27012.12
501.32	26459.76
501.49	27037.87
501.67	26827.22
501.84	27143.19
502.02	27386.61
502.20	27498.95
502.37	27768.12
502.55	27913.23
502.72	27761.09
502.90	27601.94
503.07	27775.14
503.25	28039.62
503.43	27871.10
503.60	28315.80
503.78	27847.69
503.95	27899.19
504.13	28353.25
504.30	28882.21
504.48	28437.51
504.65	28755.82
504.83	28807.31
505.01	29312.87
505.18	28882.21
505.36	29352.66
505.53	29425.22
505.71	29579.69
505.88	29427.56
506.06	29074.13
506.23	29912.05
506.41	29558.63
506.58	29523.52
506.76	29661.61
506.93	29968.22
507.11	29596.07
507.28	30218.66
507.46	29579.69
507.63	29776.30
507.81	30047.80
507.98	30101.63
508.16	30089.93
508.33	30693.79
508.50	30658.68
508.68	30656.34
508.85	30780.39
509.03	30672.72
509.20	30883.37
509.38	30855.28
509.55	31159.55
509.73	31370.20
509.90	31395.95
510.08	31489.57
510.25	31180.62
510.42	31351.48
510.60	31763.41
510.77	31747.03
510.95	32023.21
511.12	31606.59
511.30	32116.83
511.47	31894.48
511.64	32348.54
511.82	32046.62
511.99	32119.17
512.17	32540.47
512.34	32086.40
512.51	32603.66
512.69	32400.04
512.86	32355.57
513.04	32669.20
513.21	32781.54
513.38	32772.18
513.56	32547.49
513.73	32311.10
513.90	32760.48
514.08	32711.33
514.25	33191.14
514.43	32931.34
514.60	32921.98
514.77	33488.38
514.95	33523.49
515.12	33287.10
515.29	33450.94
515.47	34115.65
515.64	33528.17
515.81	33874.57
515.99	33390.08
516.16	33479.02
516.33	33582.01
516.51	33780.95
516.68	33383.06
516.85	33163.05
517.03	33577.33
517.20	33483.70
517.37	34178.84
517.54	34443.32
517.72	34038.41
517.89	33635.84
518.06	34024.37
518.24	33930.75
518.41	34113.31
518.58	34436.30
518.75	34422.26
518.93	34696.10
519.10	34527.58
519.27	34892.71
519.45	35023.78
519.62	35302.30
519.79	35206.34
519.96	35267.19
520.14	35416.99
520.31	35101.01
520.48	35089.31
520.65	35070.59
520.83	35424.01
521.00	35674.45
521.17	35487.20
521.34	35948.29
521.52	35826.58
521.69	36009.14
521.86	36275.96
522.03	35744.66
522.20	36275.96
522.38	36172.98
522.55	36189.36
522.72	36203.41
522.89	36479.59
523.07	36540.44
523.24	36348.52
523.41	36994.51
523.58	36671.51
523.75	37256.65
523.92	37015.57
524.10	37015.57
524.27	37153.66
524.44	37549.21
524.61	37254.31
524.78	37549.21
524.96	37191.11
525.13	37537.51
525.30	37287.07
525.47	37691.99
525.64	37179.41
525.81	37436.87
525.98	37544.53
526.16	37378.36
526.33	37181.75
526.50	37558.58
526.67	36723.01
526.84	37242.60
527.01	37661.56
527.18	37855.82
527.36	37649.86
527.53	38106.26
527.70	38284.14
527.87	38197.54
528.04	38309.89
528.21	37860.51
528.38	38029.02
528.55	38710.12
528.72	38396.49
528.89	38684.37
529.07	38859.91
529.24	38574.37
529.41	38794.38
529.58	38642.24
529.75	38265.42
529.92	39210.99
530.09	39108.01
530.26	38925.45
530.43	39026.09
530.60	38611.82
530.77	38843.53
530.94	39194.61
531.11	39040.14
531.28	39278.87
531.46	39402.92
531.63	39487.18
531.80	39374.83
531.97	39103.33
532.14	39861.66
532.31	39328.02
532.48	39318.66
532.65	39428.66
532.82	39096.31
532.99	39428.66
533.16	39480.16
533.33	39501.22
533.50	40126.14
533.67	39885.07
533.84	39468.45
534.01	39936.56
534.18	39875.71
534.35	40713.62
534.52	40020.82
534.69	40182.32
534.86	40371.90
535.03	40275.94
535.20	40776.81
535.37	40652.76
535.54	40636.38
535.71	40495.95
535.88	40622.34
536.05	40767.45
536.22	40636.38
536.38	40542.76
536.55	40502.97
536.72	40671.49
536.89	40570.85
537.06	40795.54
537.23	40629.36
537.40	40994.48
537.57	41268.33
537.74	41034.27
537.91	41474.29
538.08	41338.54
538.25	40631.70
538.42	41118.53
538.59	41144.28
538.75	40627.02
538.92	41134.92
539.09	41745.80
539.26	41390.03
539.43	41514.08
539.60	41074.06
539.77	40856.39
539.94	41172.36
540.11	40905.54
540.28	41518.76
540.44	41509.40
540.61	41673.24
540.78	41193.43
540.95	41177.04
541.12	41448.55
541.29	41654.51
541.46	41799.63
541.62	41827.71
541.79	41993.89
541.96	41151.30
542.13	41659.20
542.30	41577.28
542.47	42087.51
542.63	41911.97
542.80	41963.46
542.97	42412.85
543.14	42569.66
543.31	42642.22
543.48	42590.73
543.64	43217.99
543.81	42410.51
543.98	42377.74
544.15	42670.31
544.32	42864.57
544.48	43377.15
544.65	42761.59
544.82	42618.81
544.99	42836.48
545.16	42862.23
545.32	42754.57
545.49	42979.26
545.66	43232.04
545.83	43519.92
546.00	43250.76
546.16	43157.14
546.33	43253.10
546.50	42789.67
546.67	43325.66
546.83	42941.81
547.00	43173.52
547.17	43042.45
547.34	42965.21
547.50	42838.83
547.67	43393.53
547.84	43419.28
548.00	43225.01
548.17	43533.96
548.34	43421.62
548.51	43737.59
548.67	44011.43
548.84	43753.97
549.01	43412.26
549.18	43255.44
549.34	43388.85
549.51	43950.58
549.68	43950.58
549.84	43697.80
550.01	43716.53
550.18	43627.59
550.34	43676.74
550.51	44016.11
550.68	43367.79
550.84	43335.02
551.01	43742.27
551.18	43931.86
551.34	44128.46
551.51	44250.17
551.68	44086.33
551.84	43807.81
552.01	44095.69
552.18	44112.08
552.34	44348.47
552.51	44194.00
552.68	44238.47
552.84	44172.93
553.01	44690.19
553.18	44058.24
553.34	44706.57
553.51	44311.02
553.67	44399.96
553.84	44322.72
554.01	44900.84
554.17	44828.28
554.34	44444.43
554.51	44919.56
554.67	44741.68
554.84	44753.38
555.00	44610.61
555.17	44320.38
555.33	44694.87
555.50	44687.85
555.67	44444.43
555.83	44535.71
556.00	44559.12
556.16	45090.42
556.33	44629.34
556.50	45092.76
556.66	44786.15
556.83	44545.08
556.99	44376.56
557.16	44854.03
557.32	45029.57
557.49	44879.77
557.65	44725.30
557.82	44783.81
557.98	45272.98
558.15	44793.17
558.32	45106.80
558.48	45102.12
558.65	45366.60
558.81	44720.62
558.98	44907.86
559.14	44844.66
559.31	44865.73
559.47	45343.20
559.64	45029.57
559.80	45591.30
559.97	45375.97
560.13	45109.14
560.30	45221.49
560.46	45083.40
560.63	45219.15
560.79	45642.79
560.96	45551.51
561.12	45223.83
561.29	44980.42
561.45	44917.22
561.61	45638.11
561.78	45577.25
561.94	45137.23
562.11	44928.92
562.27	44966.37
562.44	45284.68
562.60	45485.97
562.77	45139.57
562.93	45198.09
563.10	45841.73
563.26	45373.63
563.42	45687.26
563.59	45298.73
563.75	45336.18
563.92	45797.26
564.08	45694.28
564.24	45839.39
564.41	45368.94
564.57	45462.57
564.74	44964.03
564.90	45539.80
565.07	45338.52
565.23	45675.55
565.39	45705.98
565.56	45560.87
565.72	44851.69
565.88	45048.29
566.05	45535.12
566.21	45642.79
566.38	45380.65
566.54	45453.20
566.70	45752.79
566.87	45720.02
567.03	45525.76
567.19	46138.98
567.36	46167.07
567.52	45523.42
567.68	45862.80
567.85	45385.33
568.01	45542.14
568.17	45605.34
568.34	45923.65
568.50	45780.88
568.66	45827.69
568.83	46216.22
568.99	45230.85
569.15	45148.93
569.32	45694.28
569.48	45488.31
569.64	45853.44
569.81	45701.30
569.97	45570.23
570.13	45478.95
570.30	45647.47
570.46	45549.17
570.62	45696.62
570.78	45507.04
570.95	45584.27
571.11	45446.18
571.27	45605.34
571.43	45500.01
571.60	46066.42
571.76	45738.75
571.92	46110.89
572.09	45638.11
572.25	45432.14
572.41	45804.28
572.57	46216.22
572.74	46302.82
572.90	45689.60
573.06	46073.45
573.22	45748.11
573.38	46089.83
573.55	45467.25
573.71	46005.57
573.87	45865.14
574.03	45694.28
574.20	45900.25
574.36	45916.63
574.52	45977.48
574.68	45640.45
574.84	46377.72
575.01	45722.37
575.17	45804.28
575.33	46014.93
575.49	45567.89
575.65	45722.37
575.82	45909.61
575.98	45373.63
576.14	46368.35
576.30	46234.94
576.46	45942.38
576.62	45853.44
576.79	45790.24
576.95	45876.84
577.11	45806.62
577.27	46302.82
577.43	45668.53
577.59	45991.53
577.75	45645.13
577.92	45640.45
578.08	45769.18
578.24	45572.57
578.40	45631.08
578.56	46143.66
578.72	45694.28
578.88	46305.16
579.04	46103.87
579.21	45567.89
579.37	46089.83
579.53	45792.58
579.69	45598.32
579.85	45514.06
580.01	46248.99
580.17	46256.01
580.33	46153.02
580.49	45720.02
580.65	45834.71
580.82	45947.06
580.98	45715.34
581.14	45818.33
581.30	46017.27
581.46	46211.54
581.62	46270.05
581.78	46181.11
581.94	46230.26
582.10	45790.24
582.26	46183.45
582.42	46108.55
582.58	46078.13
582.74	45860.46
582.90	46281.75
583.06	46387.08
583.22	46483.04
583.38	46630.49
583.54	46300.48
583.70	46534.53
583.86	46307.50
584.02	46227.92
584.18	45940.04
584.34	46237.28
584.50	46213.88
584.66	45846.41
584.82	46061.74
584.98	45949.40
585.14	46387.08
585.30	45691.94
585.46	45720.02
585.62	45947.06
585.78	45762.15
585.94	45581.93
586.10	45986.85
586.26	45827.69
586.42	46314.52
586.58	46405.80
586.74	46057.06
586.90	45776.20
587.06	45904.93
587.22	46377.72
587.38	46150.68
587.54	45893.22
587.70	46445.59
587.86	46082.81
588.02	46164.73
588.18	46218.56
588.34	45918.97
588.49	45495.33
588.65	45535.12
588.81	45544.48
588.97	45642.79
589.13	45378.31
589.29	45823.01
589.45	45911.95
589.61	45811.31
589.77	45935.35
589.93	46323.88
590.08	46469.00
