SpectraSuite Data File
++++++++++++++++++++++++++++++++++++
Date: Fri Oct 25 11:34:27 EDT 2013
User: price-jones
Dark Spectrum Present: No
Reference Spectrum Present: No
Number of Sampled Component Spectra: 1
Spectrometers: USB2+H05261
Integration Time (usec): 100000 (USB2+H05261)
Spectra Averaged: 1 (USB2+H05261)
Boxcar Smoothing: 0 (USB2+H05261)
Correct for Electrical Dark: No (USB2+H05261)
Strobe/Lamp Enabled: No (USB2+H05261)
Correct for Detector Non-linearity: No (USB2+H05261)
Correct for Stray Light: No (USB2+H05261)
Number of Pixels in Processed Spectrum: 2048
>>>>>Begin Processed Spectral Data<<<<<
365.73	297.25
365.92	297.25
366.12	297.25
366.32	170.86
366.52	224.69
366.72	198.95
366.91	131.07
367.11	208.31
367.31	194.26
367.51	114.69
367.70	159.16
367.90	243.42
368.10	163.84
368.30	156.82
368.49	140.43
368.69	231.71
368.89	187.24
369.09	184.90
369.28	248.10
369.48	173.20
369.68	255.12
369.87	250.44
370.07	241.08
370.27	315.97
370.47	339.38
370.66	477.47
370.86	463.43
371.06	533.64
371.25	547.69
371.45	528.96
371.65	538.32
371.84	533.64
372.04	561.73
372.24	524.28
372.44	559.39
372.63	585.13
372.83	643.65
373.03	601.52
373.22	538.32
373.42	543.00
373.62	662.37
373.81	641.31
374.01	594.50
374.21	650.67
374.40	634.29
374.60	648.33
374.79	645.99
374.99	676.41
375.19	636.63
375.38	688.12
375.58	622.58
375.78	641.31
375.97	610.88
376.17	725.57
376.37	662.37
376.56	699.82
376.76	732.59
376.95	711.52
377.15	641.31
377.35	737.27
377.54	653.01
377.74	727.91
377.93	671.73
378.13	636.63
378.33	748.97
378.52	624.92
378.72	692.80
378.91	734.93
379.11	741.95
379.31	681.10
379.50	751.31
379.70	809.83
379.89	606.20
380.09	741.95
380.28	713.86
380.48	706.84
380.68	802.80
380.87	688.12
381.07	793.44
381.26	765.36
381.46	788.76
381.65	758.33
381.85	798.12
382.04	662.37
382.24	681.10
382.43	812.17
382.63	688.12
382.83	730.25
383.02	844.93
383.22	786.42
383.41	802.80
383.61	802.80
383.80	765.36
384.00	795.78
384.19	727.91
384.39	823.87
384.58	781.74
384.78	814.51
384.97	772.38
385.17	823.87
385.36	833.23
385.56	765.36
385.75	786.42
385.95	875.36
386.14	835.57
386.34	833.23
386.53	840.25
386.72	837.91
386.92	826.21
387.11	826.21
387.31	851.96
387.50	800.46
387.70	826.21
387.89	891.74
388.09	814.51
388.28	898.77
388.48	870.68
388.67	905.79
388.86	905.79
389.06	858.98
389.25	922.17
389.45	870.68
389.64	917.49
389.84	908.13
390.03	961.96
390.22	999.41
390.42	856.64
390.61	926.85
390.81	875.36
391.00	1022.81
391.19	973.66
391.39	1029.84
391.58	1004.09
391.78	966.64
391.97	938.55
392.16	966.64
392.36	1090.69
392.55	990.05
392.75	971.32
392.94	1011.11
393.13	1135.16
393.33	950.26
393.52	1093.03
393.71	1111.75
393.91	978.34
394.10	1025.15
394.29	1100.05
394.49	1090.69
394.68	1008.77
394.88	1125.80
395.07	1210.06
395.26	1116.44
395.46	1029.84
395.65	1130.48
395.84	1188.99
396.04	1179.63
396.23	1174.95
396.42	1142.18
396.62	1167.93
396.81	1238.14
397.00	1294.32
397.19	1165.59
397.39	1210.06
397.58	1277.93
397.77	1132.82
397.97	1282.61
398.16	1219.42
398.35	1294.32
398.55	1263.89
398.74	1280.27
398.93	1193.67
399.12	1249.85
399.32	1252.19
399.51	1254.53
399.70	1427.73
399.90	1301.34
400.09	1242.82
400.28	1430.07
400.47	1409.00
400.67	1455.81
400.86	1299.00
401.05	1420.71
401.24	1444.11
401.44	1437.09
401.63	1352.83
401.82	1413.68
402.01	1369.21
402.21	1399.64
402.40	1439.43
402.59	1490.92
402.78	1404.32
402.97	1444.11
403.17	1544.75
403.36	1474.54
403.55	1561.14
403.74	1624.33
403.93	1533.05
404.13	1544.75
404.32	1460.49
404.51	1563.48
404.70	1645.40
404.89	1540.07
405.09	1605.61
405.28	1617.31
405.47	1605.61
405.66	1558.80
405.85	1645.40
406.05	1603.27
406.24	1689.87
406.43	1621.99
406.62	1652.42
406.81	1689.87
407.00	1713.27
407.20	1722.63
407.39	1717.95
407.58	1750.72
407.77	1675.82
407.96	1891.15
408.15	1781.15
408.34	1795.19
408.54	1842.00
408.73	1839.66
408.92	1961.37
409.11	1933.28
409.30	1893.49
409.49	1895.83
409.68	1935.62
409.87	1926.26
410.07	1898.17
410.26	1949.67
410.45	1980.09
410.64	2047.97
410.83	2024.56
411.02	2174.36
411.21	2087.76
411.40	2036.27
411.59	2120.53
411.78	2256.28
411.98	2155.63
412.17	2071.37
412.36	2197.76
412.55	2251.60
412.74	2289.04
412.93	2143.93
413.12	2326.49
413.31	2293.72
413.50	2258.62
413.69	2370.96
413.88	2321.81
414.07	2352.24
414.26	2415.43
414.45	2436.50
414.64	2462.24
414.83	2455.22
415.02	2567.57
415.22	2569.91
415.41	2583.95
415.60	2614.38
415.79	2600.34
415.98	2658.85
416.17	2691.62
416.36	2600.34
416.55	2569.91
416.74	2665.87
416.93	2607.36
417.12	2794.60
417.31	2871.84
417.50	2883.54
417.69	2827.37
417.88	2850.77
418.07	2829.71
418.26	2698.64
418.45	2794.60
418.64	2972.48
418.83	2904.60
419.02	2932.69
419.21	2916.31
419.39	3047.38
419.58	3042.70
419.77	2965.46
419.96	2897.58
420.15	3026.31
420.34	2902.26
420.53	3042.70
420.72	3136.32
420.91	3059.08
421.10	3141.00
421.29	3183.13
421.48	3073.12
421.67	3138.66
421.86	3274.41
422.05	3300.16
422.24	3105.89
422.43	3253.34
422.61	3215.90
422.80	3302.50
422.99	3276.75
423.18	3300.16
423.37	3475.70
423.56	3288.45
423.75	3309.52
423.94	3169.09
424.13	3077.80
424.32	3265.05
424.50	3314.20
424.69	3358.67
424.88	3258.03
425.07	3379.73
425.26	3194.83
425.45	3211.22
425.64	3272.07
425.83	3393.78
426.01	3302.50
426.20	3398.46
426.39	3372.71
426.58	3330.58
426.77	3449.95
426.96	3311.86
427.15	3421.86
427.33	3349.31
427.52	3356.33
427.71	3571.66
427.90	3400.80
428.09	3480.38
428.28	3522.51
428.46	3438.25
428.65	3616.13
428.84	3578.68
429.03	3543.57
429.22	3527.19
429.40	3632.51
429.59	3576.34
429.78	3578.68
429.97	3524.85
430.16	3585.70
430.34	3691.02
430.53	3592.72
430.72	3733.15
430.91	3700.39
431.10	3665.28
431.28	3763.58
431.47	3763.58
431.66	3948.48
431.85	3892.31
432.03	3904.01
432.22	3962.53
432.41	3939.12
432.60	3967.21
432.79	3871.25
432.97	3913.38
433.16	3950.82
433.35	3913.38
433.54	4042.11
433.72	4070.19
433.91	4133.39
434.10	4215.30
434.28	3939.12
434.47	4124.02
434.66	4133.39
434.85	4100.62
435.03	4124.02
435.22	4042.11
435.41	4259.78
435.59	4269.14
435.78	4210.62
435.97	4259.78
436.16	4224.67
436.34	4159.13
436.53	4301.90
436.72	4414.25
436.90	4304.25
437.09	4386.16
437.28	4290.20
437.46	4358.08
437.65	4287.86
437.84	4470.42
438.02	4297.22
438.21	4407.23
438.40	4334.67
438.58	4498.51
438.77	4641.28
438.96	4578.09
439.14	4561.70
439.33	4617.88
439.52	4760.65
439.70	4713.84
439.89	4704.48
440.08	4699.80
440.26	4821.50
440.45	4837.89
440.63	4894.06
440.82	5043.85
441.01	4990.02
441.19	4999.38
441.38	4894.06
441.57	5001.72
441.75	5224.08
441.94	5116.41
442.12	5116.41
442.31	5179.61
442.50	5252.16
442.68	5294.29
442.87	5298.97
443.05	5245.14
443.24	5343.44
443.43	5387.91
443.61	5270.89
443.80	5338.76
443.98	5228.76
444.17	5144.50
444.35	5432.38
444.54	5364.51
444.73	5357.49
444.91	5338.76
445.10	5404.30
445.28	5514.30
445.47	5446.43
445.65	5259.18
445.84	5593.88
446.02	5570.48
446.21	5472.17
446.39	5500.26
446.58	5490.90
446.77	5357.49
446.95	5289.61
447.14	5680.48
447.32	5488.56
447.51	5427.70
447.69	5664.10
447.88	5387.91
448.06	5685.16
448.25	5481.53
448.43	5523.66
448.62	5652.39
448.80	5476.85
448.99	5664.10
449.17	5731.97
449.36	5607.92
449.54	5645.37
449.73	5834.96
449.91	5764.74
450.10	5860.70
450.28	5846.66
450.46	5921.56
450.65	5778.78
450.83	5930.92
451.02	5771.76
451.20	6045.60
451.39	5837.30
451.57	6024.54
451.76	5949.64
451.94	5895.81
452.13	5912.19
452.31	6132.20
452.49	6031.56
452.68	5973.05
452.86	5996.45
453.05	5994.11
453.23	6132.20
453.42	6066.67
453.60	6120.50
453.78	6218.80
453.97	5970.71
454.15	6024.54
454.34	6164.97
454.52	6225.82
454.70	6312.42
454.89	6319.45
455.07	6352.21
455.26	6242.21
455.44	6422.43
455.62	6431.79
455.81	6424.77
455.99	6555.84
456.17	6612.01
456.36	6422.43
456.54	6612.01
456.73	6541.80
456.91	6839.05
457.09	6583.93
457.28	6750.10
457.46	6752.45
457.64	6906.92
457.83	6686.91
458.01	6633.08
458.19	7007.56
458.38	6815.64
458.56	7075.44
458.74	6995.86
458.93	6782.87
459.11	6927.99
459.29	6984.16
459.48	6984.16
459.66	6932.67
459.84	6916.28
460.03	7082.46
460.21	7183.10
460.39	7143.32
460.57	7136.29
460.76	7089.48
460.94	7094.16
461.12	7122.25
461.31	7211.19
461.49	7234.60
461.67	7332.90
461.85	7508.44
462.04	7213.53
462.22	7826.75
462.40	7595.04
462.59	7494.40
462.77	7459.29
462.95	7513.12
463.13	7637.17
463.32	7375.03
463.50	7552.91
463.68	7660.57
463.86	7667.60
464.05	7419.50
464.23	7428.86
464.41	7852.50
464.59	7583.34
464.78	7758.88
464.96	7660.57
465.14	7672.28
465.32	7686.32
465.50	7719.09
465.69	7887.61
465.87	7798.66
466.05	7906.33
466.23	7899.31
466.41	7964.84
466.60	7985.91
466.78	7805.69
466.96	7609.08
467.14	7901.65
467.32	7976.55
467.51	8039.74
467.69	7955.48
467.87	7941.44
468.05	8102.93
468.23	7985.91
468.41	8042.08
468.60	8037.40
468.78	8203.58
468.96	7967.18
469.14	8168.47
469.32	8304.22
469.50	8184.85
469.69	8390.82
469.87	8283.16
470.05	8465.72
470.23	8425.93
470.41	8404.86
470.59	8496.14
470.77	8336.99
470.95	8634.24
471.14	8613.17
471.32	8542.96
471.50	8767.65
471.68	8631.90
471.86	8692.75
472.04	8805.10
472.22	8957.23
472.40	8692.75
472.58	8884.67
472.77	8901.06
472.95	8957.23
473.13	9371.50
473.31	9088.30
473.49	9160.86
473.67	8999.36
473.85	9228.73
474.03	9685.14
474.21	9291.93
474.39	9277.88
474.57	9301.29
474.75	9535.34
474.93	9692.16
475.12	9650.03
475.30	9710.88
475.48	9610.24
475.66	9565.77
475.84	9586.83
476.02	9806.84
476.20	9891.10
476.38	9914.51
476.56	10132.18
476.74	10122.82
476.92	10214.10
477.10	9863.02
477.28	10171.97
477.46	10099.41
477.64	10609.65
477.82	10473.90
478.00	10754.76
478.18	10640.08
478.36	10944.34
478.54	10628.37
478.72	10841.36
478.90	10967.75
479.08	11063.71
479.26	11398.41
479.44	11154.99
479.62	11288.40
479.80	11389.05
479.98	11604.38
480.16	11775.24
480.34	11604.38
480.52	11777.58
480.70	11782.26
480.88	11810.34
481.06	11789.28
481.24	11932.05
481.41	12098.23
481.59	12425.90
481.77	12453.99
481.95	12273.77
482.13	12627.19
482.31	12297.17
482.49	12877.63
482.67	12659.96
482.85	12886.99
483.03	13048.49
483.21	13111.68
483.39	13076.57
483.57	13055.51
483.74	13338.71
483.92	13310.63
484.10	13088.28
484.28	13682.77
484.46	13776.39
484.64	14216.41
484.82	13870.01
485.00	14001.08
485.18	14457.49
485.35	14373.23
485.53	14200.03
485.71	14314.72
485.89	14717.29
486.07	14668.14
486.25	14691.54
486.43	14977.09
486.61	15026.24
486.78	15190.08
486.96	15105.82
487.14	15309.44
487.32	15477.96
487.50	15599.67
487.68	15885.22
487.85	15988.20
488.03	15971.82
488.21	16320.56
488.39	16184.80
488.57	16315.87
488.75	16437.58
488.92	16673.98
489.10	16919.73
489.28	17071.87
489.46	17125.70
489.64	17167.83
489.81	17481.46
489.99	17231.02
490.17	17256.77
490.35	17745.94
490.53	17568.06
490.70	17532.95
490.88	17743.60
491.06	18214.05
491.24	18279.58
491.41	18307.67
491.59	18300.65
491.77	18317.03
491.95	18464.49
492.13	18714.92
492.30	19061.32
492.48	18838.97
492.66	18857.70
492.84	19178.35
493.01	19407.72
493.19	19393.68
493.37	19293.04
493.54	19510.71
493.72	19894.55
493.90	19733.06
494.08	19960.09
494.25	19941.36
494.43	19985.83
494.61	20320.53
494.79	20285.42
494.96	20620.12
495.14	20671.61
495.32	20854.17
495.49	20697.36
495.67	20882.26
495.85	21287.17
496.02	21048.44
496.20	21252.06
496.38	21493.14
496.55	21689.74
496.73	22061.89
496.91	21963.59
497.09	21827.84
497.26	22108.70
497.44	22024.44
497.62	21888.69
497.79	22452.76
497.97	22258.49
498.14	22391.91
498.32	22747.67
498.50	22630.64
498.67	22953.63
498.85	22958.31
499.03	22916.19
499.20	22939.59
499.38	22892.78
499.56	23257.90
499.73	23751.76
499.91	23159.60
500.08	23580.90
500.26	23611.32
500.44	23723.67
500.61	23662.82
500.79	23843.04
500.97	23866.44
501.14	24456.26
501.32	24290.08
501.49	24222.20
501.67	24479.66
501.84	24706.70
502.02	24538.18
502.20	24304.12
502.37	24280.72
502.55	24741.80
502.72	24645.84
502.90	24886.92
503.07	24613.07
503.25	24772.23
503.43	25036.71
503.60	25144.38
503.78	25156.08
503.95	25071.82
504.13	25348.00
504.30	25333.96
504.48	25628.87
504.65	25970.58
504.83	25802.07
505.01	25699.08
505.18	25883.98
505.36	25951.86
505.53	25865.26
505.71	26326.35
505.88	26251.45
506.06	26134.42
506.23	26157.83
506.41	26195.28
506.58	26448.05
506.76	26852.97
506.93	26918.50
507.11	26515.93
507.28	26745.30
507.46	27131.49
507.63	27136.17
507.81	27175.96
507.98	27232.13
508.16	27070.64
508.33	27461.51
508.50	27651.09
508.68	27201.71
508.85	27744.71
509.03	27868.76
509.20	27274.26
509.38	28079.41
509.55	28100.47
509.73	27887.48
509.90	28268.99
510.08	28095.79
510.25	28189.41
510.42	28613.05
510.60	28535.81
510.77	28737.10
510.95	28917.32
511.12	28435.17
511.30	28760.50
511.47	28952.43
511.64	28685.61
511.82	29006.26
511.99	28673.90
512.17	28889.23
512.34	28809.65
512.51	29371.38
512.69	29497.77
512.86	29362.02
513.04	29607.78
513.21	29607.78
513.38	29858.21
513.56	30408.24
513.73	29603.10
513.90	29766.93
514.08	29898.00
514.25	29928.43
514.43	30265.47
514.60	30305.26
514.77	30204.61
514.95	30422.28
515.12	30288.87
515.29	29979.92
515.47	30780.39
515.64	30766.34
515.81	30932.52
515.99	30632.93
516.16	31239.13
516.33	30916.14
516.51	31005.08
516.68	30855.28
516.85	31414.67
517.03	31255.51
517.20	31187.64
517.37	31211.04
517.54	31178.28
517.72	31583.19
517.89	31644.04
518.06	31527.02
518.24	31878.10
518.41	31491.91
518.58	31360.84
518.75	31323.39
518.93	32247.90
519.10	31962.36
519.27	32086.40
519.45	32161.30
519.62	32353.23
519.79	32130.87
519.96	32142.58
520.14	32367.27
520.31	32128.53
520.48	32594.30
520.65	32971.13
520.83	33179.43
521.00	33259.01
521.17	32975.81
521.34	33170.07
521.52	33137.30
521.69	33022.62
521.86	33174.75
522.03	33039.00
522.20	33558.60
522.38	33787.97
522.55	33603.07
522.72	33720.10
522.89	33659.24
523.07	33778.61
523.24	33701.37
523.41	33680.31
523.58	33738.82
523.75	34150.76
523.92	33823.08
524.10	33748.18
524.27	34054.79
524.44	33893.30
524.61	34160.12
524.78	34080.54
524.96	34452.69
525.13	34443.32
525.30	34541.63
525.47	34799.08
525.64	34487.79
525.81	35047.18
525.98	34951.22
526.16	34525.24
526.33	34836.53
526.50	34796.74
526.67	34738.23
526.84	34857.60
527.01	35005.05
527.18	35122.08
527.36	35447.41
527.53	35328.05
527.70	35304.64
527.87	35072.93
528.04	35157.19
528.21	35269.53
528.38	35608.91
528.55	35604.23
528.72	35534.01
528.89	35489.54
529.07	35735.30
529.24	35583.16
529.41	35950.63
529.58	35669.76
529.75	35679.13
529.92	36147.23
530.09	36156.60
530.26	36032.55
530.43	36297.03
530.60	35967.01
530.77	35959.99
530.94	36088.72
531.11	35908.50
531.28	36217.45
531.46	36613.00
531.63	36505.34
531.80	36009.14
531.97	36744.07
532.14	36781.52
532.31	36360.22
532.48	36914.93
532.65	36891.52
532.82	36168.30
532.99	36577.89
533.16	36760.45
533.33	37151.32
533.50	37483.68
533.67	37294.10
533.84	36844.71
534.01	37385.38
534.18	36928.97
534.35	37708.37
534.52	37453.25
534.69	37565.60
534.86	37713.05
535.03	37326.86
535.20	37902.64
535.37	37968.17
535.54	38129.67
535.71	37717.73
535.88	37731.78
536.05	37883.91
536.22	38160.09
536.38	37787.95
536.55	37787.95
536.72	37827.74
536.89	37853.48
537.06	38337.98
537.23	38024.34
537.40	38272.44
537.57	37949.45
537.74	38185.84
537.91	38288.82
538.08	38412.87
538.25	38204.56
538.42	38309.89
538.59	38941.83
538.75	38415.21
538.92	38988.64
539.09	39089.29
539.26	38560.33
539.43	38693.74
539.60	38780.34
539.77	38902.04
539.94	39124.40
540.11	38820.13
540.28	38934.81
540.44	39100.99
540.61	38864.60
540.78	38756.93
540.95	39026.09
541.12	39002.69
541.29	39225.04
541.46	39056.52
541.62	39117.37
541.79	39255.46
541.96	39063.54
542.13	39192.27
542.30	39505.90
542.47	39552.71
542.63	39241.42
542.80	39763.36
542.97	40170.61
543.14	40013.80
543.31	39899.11
543.48	40093.38
543.64	40612.98
543.81	40364.88
543.98	40266.58
544.15	39950.60
544.32	40376.58
544.48	40371.90
544.65	40395.31
544.82	40933.63
544.99	40130.83
545.16	40465.52
545.32	40367.22
545.49	41329.18
545.66	40849.37
545.83	40832.99
546.00	40832.99
546.16	40814.26
546.33	40818.94
546.50	40737.02
546.67	40664.47
546.83	40615.32
547.00	40872.78
547.17	40615.32
547.34	40835.33
547.50	41387.69
547.67	41256.62
547.84	41294.07
548.00	41137.26
548.17	41757.50
548.34	41586.64
548.51	41553.87
548.67	41560.89
548.84	40900.86
549.01	41237.90
549.18	41434.50
549.34	41656.85
549.51	41797.29
549.68	41872.18
549.84	41443.87
550.01	41727.07
550.18	41230.88
550.34	41560.89
550.51	41790.27
550.68	41801.97
550.84	41443.87
551.01	41897.93
551.18	41708.35
551.34	42099.22
551.51	42199.86
551.68	42127.30
551.84	42131.98
552.01	42237.31
552.18	41804.31
552.34	42014.96
552.51	42511.15
552.68	42019.64
552.84	42089.85
553.01	42450.30
553.18	42476.04
553.34	42747.54
553.51	42197.52
553.67	42792.01
553.84	42499.45
554.01	42541.58
554.17	42450.30
554.34	42564.98
554.51	42515.83
554.67	42986.28
554.84	42686.69
555.00	42831.80
555.17	42398.80
555.33	42792.01
555.50	42405.83
555.67	42717.12
555.83	42808.40
556.00	43196.93
556.16	43213.31
556.33	43414.60
556.50	43171.18
556.66	43171.18
556.83	42686.69
556.99	43533.96
557.16	42878.61
557.32	43299.91
557.49	43199.27
557.65	42871.59
557.82	42859.89
557.98	43480.13
558.15	43159.48
558.32	43058.84
558.48	43051.81
558.65	43386.51
558.81	43519.92
558.98	43248.42
559.14	43246.08
559.31	43723.55
559.47	43194.59
559.64	43285.87
559.80	43540.99
559.97	43548.01
560.13	43892.07
560.30	43416.94
560.46	43831.21
560.63	43842.92
560.79	43908.45
560.96	43728.23
561.12	43599.50
561.29	43430.98
561.45	43770.36
561.61	43538.65
561.78	43662.69
561.94	43810.15
562.11	43702.48
562.27	43641.63
562.44	44149.53
562.60	44107.40
562.77	43943.56
562.93	43536.30
563.10	43814.83
563.26	43861.64
563.42	43756.32
563.59	43934.20
563.75	44119.10
563.92	44130.80
564.08	43903.77
564.24	44189.31
564.41	43952.92
564.57	44648.06
564.74	43803.13
564.90	44079.31
565.07	43931.86
565.23	44168.25
565.39	44538.05
565.56	44498.26
565.72	44404.64
565.88	44175.27
566.05	44378.90
566.21	44191.65
566.38	44423.37
566.54	44774.45
566.70	44285.28
566.87	44554.44
567.03	44367.20
567.19	44456.14
567.36	44254.85
567.52	44498.26
567.68	44907.86
567.85	44563.80
568.01	44875.09
568.17	44271.23
568.34	44343.79
568.50	44360.17
568.66	44481.88
568.83	44498.26
568.99	44671.46
569.15	44512.31
569.32	44306.34
569.48	44467.84
569.64	45081.06
569.81	44744.02
569.97	44713.59
570.13	44989.78
570.30	44676.15
570.46	44502.95
570.62	44671.46
570.78	45064.67
570.95	44428.05
571.11	44612.95
571.27	44601.25
571.43	44671.46
571.60	44591.89
571.76	44318.04
571.92	44720.62
572.09	44704.23
572.25	44964.03
572.41	44507.63
572.57	44905.52
572.74	45258.94
572.90	44781.47
573.06	44861.05
573.22	45106.80
573.38	45212.13
573.55	44914.88
573.71	45294.05
573.87	44765.09
574.03	45230.85
574.20	44807.22
574.36	44697.21
574.52	45113.83
574.68	44870.41
574.84	45294.05
575.01	45504.70
575.17	45338.52
575.33	45235.53
575.49	45336.18
575.65	44832.96
575.82	45263.62
575.98	45050.63
576.14	45233.19
576.30	45310.43
576.46	45118.51
576.62	44900.84
576.79	45418.10
576.95	45043.61
577.11	45120.85
577.27	44999.14
577.43	44704.23
577.59	45336.18
577.75	45291.71
577.92	45111.49
578.08	45244.90
578.24	45272.98
578.40	45778.54
578.56	45509.38
578.72	45158.30
578.88	45326.81
579.04	45181.70
579.21	45034.25
579.37	45570.23
579.53	45198.09
579.69	45043.61
579.85	45436.82
580.01	45268.30
580.17	44989.78
580.33	45411.07
580.49	45549.17
580.65	45343.20
580.82	45528.10
580.98	44945.31
581.14	45357.24
581.30	45081.06
581.46	45434.48
581.62	45067.02
581.78	45310.43
581.94	45462.57
582.10	45170.00
582.26	45411.07
582.42	45308.09
582.58	45280.00
582.74	45258.94
582.90	45429.80
583.06	45460.23
583.22	45595.98
583.38	45762.15
583.54	45125.53
583.70	45556.19
583.86	45654.49
584.02	45214.47
584.18	45698.96
584.34	45357.24
584.50	45366.60
584.66	45450.86
584.82	45851.09
584.98	45806.62
585.14	45687.26
585.30	45354.90
585.46	45144.25
585.62	45282.34
585.78	45825.35
585.94	45441.50
586.10	45298.73
586.26	45212.13
586.42	45778.54
586.58	45595.98
586.74	45556.19
586.90	45261.28
587.06	45235.53
587.22	45390.01
587.38	45258.94
587.54	45607.68
587.70	45659.17
587.86	45521.08
588.02	45420.44
588.18	45715.34
588.34	45464.91
588.49	45507.04
588.65	45401.71
588.81	45579.59
588.97	45680.24
589.13	45516.40
589.29	45605.34
589.45	45855.78
589.61	45827.69
589.77	45734.07
589.93	45797.26
590.08	45799.60
