SpectraSuite Data File
++++++++++++++++++++++++++++++++++++
Date: Fri Oct 25 10:48:08 EDT 2013
User: price-jones
Dark Spectrum Present: No
Reference Spectrum Present: No
Number of Sampled Component Spectra: 1
Spectrometers: USB2+H05261
Integration Time (usec): 100000 (USB2+H05261)
Spectra Averaged: 1 (USB2+H05261)
Boxcar Smoothing: 0 (USB2+H05261)
Correct for Electrical Dark: No (USB2+H05261)
Strobe/Lamp Enabled: No (USB2+H05261)
Correct for Detector Non-linearity: No (USB2+H05261)
Correct for Stray Light: No (USB2+H05261)
Number of Pixels in Processed Spectrum: 2048
>>>>>Begin Processed Spectral Data<<<<<
365.73	102.98
365.92	102.98
366.12	102.98
366.32	74.90
366.52	49.15
366.72	65.54
366.91	0.00
367.11	0.00
367.31	49.15
367.51	79.58
367.70	0.00
367.90	30.43
368.10	91.28
368.30	44.47
368.49	133.41
368.69	105.32
368.89	37.45
369.09	58.51
369.28	124.05
369.48	39.79
369.68	60.85
369.87	149.79
370.07	114.69
370.27	156.82
370.47	145.11
370.66	374.49
370.86	430.66
371.06	433.00
371.25	463.43
371.45	362.78
371.65	524.28
371.84	475.13
372.04	421.30
372.24	404.91
372.44	514.92
372.63	486.83
372.83	571.09
373.03	479.81
373.22	482.15
373.42	519.60
373.62	535.98
373.81	519.60
374.01	533.64
374.21	559.39
374.40	533.64
374.60	528.96
374.79	514.92
374.99	547.69
375.19	587.47
375.38	505.56
375.58	477.47
375.78	533.64
375.97	411.93
376.17	582.79
376.37	622.58
376.56	608.54
376.76	634.29
376.95	606.20
377.15	631.94
377.35	613.22
377.54	599.18
377.74	681.10
377.93	681.10
378.13	589.82
378.33	615.56
378.52	608.54
378.72	631.94
378.91	643.65
379.11	608.54
379.31	653.01
379.50	566.41
379.70	617.90
379.89	631.94
380.09	643.65
380.28	566.41
380.48	606.20
380.68	699.82
380.87	631.94
381.07	587.47
381.26	727.91
381.46	608.54
381.65	699.82
381.85	688.12
382.04	692.80
382.24	744.29
382.43	730.25
382.63	662.37
382.83	716.20
383.02	692.80
383.22	748.97
383.41	744.29
383.61	758.33
383.80	688.12
384.00	723.23
384.19	716.20
384.39	755.99
384.58	758.33
384.78	779.40
384.97	746.63
385.17	795.78
385.36	702.16
385.56	755.99
385.75	695.14
385.95	770.04
386.14	826.21
386.34	791.10
386.53	800.46
386.72	732.59
386.92	903.45
387.11	898.77
387.31	828.55
387.50	709.18
387.70	744.29
387.89	748.97
388.09	748.97
388.28	807.48
388.48	751.31
388.67	798.12
388.86	840.25
389.06	802.80
389.25	891.74
389.45	959.62
389.64	919.83
389.84	915.15
390.03	875.36
390.22	896.43
390.42	880.04
390.61	924.51
390.81	863.66
391.00	950.26
391.19	1020.47
391.39	964.30
391.58	919.83
391.78	901.11
391.97	929.19
392.16	910.47
392.36	884.72
392.55	1029.84
392.75	940.90
392.94	880.04
393.13	966.64
393.33	978.34
393.52	957.28
393.71	1064.94
393.91	1006.43
394.10	1053.24
394.29	1062.60
394.49	1067.28
394.68	1034.52
394.88	1104.73
395.07	1095.37
395.26	1071.97
395.46	1125.80
395.65	1062.60
395.84	1200.69
396.04	1095.37
396.23	1060.26
396.42	1114.10
396.62	1135.16
396.81	1128.14
397.00	1109.41
397.19	1114.10
397.39	1217.08
397.58	1219.42
397.77	1235.80
397.97	1263.89
398.16	1153.88
398.35	1210.06
398.55	1247.51
398.74	1334.11
398.93	1348.15
399.12	1406.66
399.32	1277.93
399.51	1357.51
399.70	1369.21
399.90	1406.66
400.09	1294.32
400.28	1296.66
400.47	1359.85
400.67	1380.92
400.86	1348.15
401.05	1371.55
401.24	1448.79
401.44	1500.28
401.63	1416.02
401.82	1544.75
402.01	1411.34
402.21	1479.22
402.40	1467.52
402.59	1472.20
402.78	1488.58
402.97	1495.60
403.17	1554.12
403.36	1565.82
403.55	1570.50
403.74	1537.73
403.93	1603.27
404.13	1591.56
404.32	1685.19
404.51	1507.30
404.70	1626.67
404.89	1680.50
405.09	1762.42
405.28	1631.35
405.47	1582.20
405.66	1614.97
405.85	1799.87
406.05	1694.55
406.24	1741.36
406.43	1818.60
406.62	1839.66
406.81	1813.92
407.00	1781.15
407.20	1879.45
407.39	1888.81
407.58	1842.00
407.77	1816.26
407.96	1947.33
408.15	1851.36
408.34	1881.79
408.54	1970.73
408.73	1956.69
408.92	1891.15
409.11	2040.95
409.30	2031.58
409.49	1996.48
409.68	2045.63
409.87	2010.52
410.07	2043.29
410.26	2122.87
410.45	2190.74
410.64	1996.48
410.83	2069.03
411.02	2097.12
411.21	2237.55
411.40	2214.15
411.59	2340.54
411.78	2291.38
411.98	2249.25
412.17	2321.81
412.36	2363.94
412.55	2270.32
412.74	2314.79
412.93	2389.69
413.12	2450.54
413.31	2427.14
413.50	2520.76
413.69	2504.37
413.88	2551.18
414.07	2530.12
414.26	2513.74
414.45	2551.18
414.64	2612.04
414.83	2675.23
415.02	2537.14
415.22	2597.99
415.41	2705.66
415.60	2715.02
415.79	2752.47
415.98	2775.88
416.17	2806.30
416.36	2799.28
416.55	2801.62
416.74	2825.03
416.93	2911.63
417.12	2862.48
417.31	2965.46
417.50	2883.54
417.69	3075.46
417.88	2972.48
418.07	2902.26
418.26	3068.44
418.45	3070.78
418.64	3213.56
418.83	3014.61
419.02	3133.98
419.21	3148.02
419.39	3260.37
419.58	3021.63
419.77	3073.12
419.96	3199.51
420.15	3112.91
420.34	3262.71
420.53	3201.85
420.72	3449.95
420.91	3389.10
421.10	3384.41
421.29	3403.14
421.48	3164.40
421.67	3421.86
421.86	3288.45
422.05	3283.77
422.24	3349.31
422.43	3407.82
422.61	3454.63
422.80	3368.03
422.99	3468.67
423.18	3492.08
423.37	3419.52
423.56	3503.78
423.75	3428.88
423.94	3363.35
424.13	3262.71
424.32	3302.50
424.50	3576.34
424.69	3585.70
424.88	3536.55
425.07	3447.61
425.26	3442.93
425.45	3471.01
425.64	3534.21
425.83	3524.85
426.01	3468.67
426.20	3478.04
426.39	3550.59
426.58	3438.25
426.77	3529.53
426.96	3630.17
427.15	3508.46
427.33	3662.94
427.52	3557.61
427.71	3602.08
427.90	3658.26
428.09	3742.52
428.28	3662.94
428.46	3723.79
428.65	3721.45
428.84	3836.14
429.03	3768.26
429.22	3669.96
429.40	3688.68
429.59	3763.58
429.78	3492.08
429.97	3566.98
430.16	3822.09
430.34	3698.05
430.53	3838.48
430.72	3805.71
430.91	3735.50
431.10	3817.41
431.28	3880.61
431.47	3915.72
431.66	4067.85
431.85	4004.66
432.03	4049.13
432.22	4131.05
432.41	4184.88
432.60	4168.49
432.79	4037.42
432.97	4070.19
433.16	4177.86
433.35	4063.17
433.54	4311.27
433.72	4126.36
433.91	4184.88
434.10	4344.03
434.28	4163.81
434.47	4332.33
434.66	4278.50
434.85	4313.61
435.03	4418.93
435.22	4402.55
435.41	4535.96
435.59	4554.68
435.78	4486.81
435.97	4498.51
436.16	4533.62
436.34	4369.78
436.53	4517.23
436.72	4596.81
436.90	4432.97
437.09	4535.96
437.28	4447.02
437.46	4571.07
437.65	4477.44
437.84	4713.84
438.02	4685.75
438.21	4725.54
438.40	4580.43
438.58	4830.87
438.77	4919.81
438.96	4840.23
439.14	4957.25
439.33	4901.08
439.52	4978.32
439.70	4957.25
439.89	5025.13
440.08	4940.87
440.26	5097.69
440.45	5116.41
440.63	5170.24
440.82	5226.42
441.01	5284.93
441.19	5359.83
441.38	5336.42
441.57	5102.37
441.75	5451.11
441.94	5556.43
442.12	5540.05
442.31	5598.56
442.50	5476.85
442.68	5511.96
442.87	5598.56
443.05	5633.67
443.24	5738.99
443.43	5661.76
443.61	5603.24
443.80	5813.89
443.98	5549.41
444.17	5437.06
444.35	5720.27
444.54	5746.02
444.73	5771.76
444.91	5792.83
445.10	5593.88
445.28	5628.99
445.47	5460.47
445.65	5799.85
445.84	5729.63
446.02	5886.45
446.21	5790.49
446.39	5839.64
446.58	5944.96
446.77	5760.06
446.95	5750.70
447.14	5973.05
447.32	5853.68
447.51	5813.89
447.69	5867.72
447.88	5799.85
448.06	5753.04
448.25	6040.92
448.43	6106.46
448.62	5914.53
448.80	5799.85
448.99	6214.12
449.17	6064.33
449.36	5902.83
449.54	6043.26
449.73	5998.79
449.91	6230.51
450.10	6169.65
450.28	6328.81
450.46	6429.45
450.65	6094.76
450.83	6225.82
451.02	6396.68
451.20	6366.26
451.39	6319.45
451.57	6235.19
451.76	6286.68
451.94	6420.09
452.13	6408.39
452.31	6171.99
452.49	6408.39
452.68	6356.90
452.86	6392.00
453.05	6375.62
453.23	6214.12
453.42	6436.47
453.60	6438.81
453.78	6548.82
453.97	6406.05
454.15	6438.81
454.34	6544.14
454.52	6579.25
454.70	6684.57
454.89	6525.41
455.07	6614.35
455.26	6647.12
455.44	6876.49
455.62	6792.23
455.81	6689.25
455.99	6825.00
456.17	6993.52
456.36	6604.99
456.54	7009.90
456.73	7124.59
456.91	6942.03
457.09	7021.61
457.28	7138.63
457.46	7145.66
457.64	7227.57
457.83	7110.55
458.01	7155.02
458.19	7356.30
458.38	7304.81
458.56	7325.88
458.74	7246.30
458.93	7157.36
459.11	7225.23
459.29	7330.56
459.48	7447.58
459.66	7384.39
459.84	7452.27
460.03	7588.02
460.21	7375.03
460.39	7578.65
460.57	7644.19
460.76	7527.16
460.94	7585.68
461.12	7431.20
461.31	7791.64
461.49	7833.77
461.67	7688.66
461.85	7843.14
462.04	7779.94
462.22	8411.89
462.40	7894.63
462.59	7911.01
462.77	7885.26
462.95	7761.22
463.13	7763.56
463.32	7911.01
463.50	7868.88
463.68	7990.59
463.86	8119.32
464.05	7868.88
464.23	7941.44
464.41	8081.87
464.59	8023.36
464.78	8215.28
464.96	7936.76
465.14	8119.32
465.32	8093.57
465.50	8285.50
465.69	8257.41
465.87	8074.85
466.05	8203.58
466.23	8121.66
466.41	8329.97
466.60	8505.51
466.78	8159.11
466.96	8056.12
467.14	8086.55
467.32	8531.25
467.51	8404.86
467.69	8163.79
467.87	8362.73
468.05	8634.24
468.23	8372.10
468.41	8189.53
468.60	8472.74
468.78	8449.33
468.96	8346.35
469.14	8812.12
469.32	8922.12
469.50	8395.50
469.69	8741.90
469.87	8709.13
470.05	9029.79
470.23	8840.20
470.41	8709.13
470.59	9090.64
470.77	8826.16
470.95	8940.85
471.14	8903.40
471.32	8765.31
471.50	9179.58
471.68	8917.44
471.86	9095.32
472.04	9092.98
472.22	9315.33
472.40	9242.78
472.58	9376.19
472.77	9303.63
472.95	9380.87
473.13	9722.59
473.31	9392.57
473.49	9408.95
473.67	9474.49
473.85	9479.17
474.03	9846.63
474.21	9827.91
474.39	9884.08
474.57	9617.26
474.75	9900.47
474.93	9991.75
475.12	9893.44
475.30	10277.29
475.48	10153.24
475.66	9963.66
475.84	10040.90
476.02	10155.58
476.20	10284.31
476.38	10494.96
476.56	10764.12
476.74	10562.84
476.92	10530.07
477.10	10483.26
477.28	10724.33
477.46	10764.12
477.64	10794.55
477.82	11035.63
478.00	11414.79
478.18	11377.34
478.36	11138.61
478.54	11360.96
478.72	11494.37
478.90	11599.70
479.08	11517.78
479.26	11623.10
479.44	11815.02
479.62	11789.28
479.80	11908.65
479.98	11929.71
480.16	12280.79
480.34	12086.53
480.52	12233.98
480.70	12142.70
480.88	12278.45
481.06	12145.04
481.24	12379.09
481.41	12709.11
481.59	12814.43
481.77	12840.18
481.95	13027.42
482.13	13062.53
482.31	12718.47
482.49	13341.05
482.67	13319.99
482.85	13341.05
483.03	13685.11
483.21	13680.43
483.39	13731.92
483.57	13881.72
483.74	13860.65
483.92	14003.43
484.10	14136.84
484.28	14267.91
484.46	14588.56
484.64	14621.33
484.82	14523.02
485.00	14516.00
485.18	14747.72
485.35	14726.65
485.53	14724.31
485.71	14897.51
485.89	15119.86
486.07	15098.80
486.25	15431.15
486.43	15552.86
486.61	15552.86
486.78	15550.52
486.96	15770.53
487.14	16142.67
487.32	15953.09
487.50	16376.73
487.68	16552.27
487.85	16566.31
488.03	16746.53
488.21	16823.77
488.39	16844.84
488.57	16793.34
488.75	17240.39
488.92	17109.32
489.10	17579.76
489.28	17713.17
489.46	17729.56
489.64	17666.36
489.81	17914.46
489.99	18073.62
490.17	18424.70
490.35	17998.72
490.53	18403.63
490.70	18565.13
490.88	18574.49
491.06	18792.16
491.24	18810.89
491.41	18860.04
491.59	19035.58
491.77	19009.83
491.95	19115.16
492.13	19576.24
492.30	19449.85
492.48	19585.60
492.66	19667.52
492.84	19672.20
493.01	19981.15
493.19	19880.51
493.37	20191.80
493.54	20414.15
493.72	20318.19
493.90	20299.47
494.08	20449.26
494.25	20702.04
494.43	20830.77
494.61	21214.62
494.79	21399.52
494.96	21050.78
495.14	21125.68
495.32	21436.97
495.49	21736.56
495.67	21710.81
495.85	21687.40
496.02	21954.22
496.20	22043.17
496.38	22132.11
496.55	22263.18
496.73	22656.39
496.91	22314.67
497.09	22654.05
497.26	22810.86
497.44	22551.06
497.62	22885.76
497.79	23241.52
497.97	22855.33
498.14	23351.52
498.32	23211.09
498.50	23709.63
498.67	23260.24
498.85	23718.99
499.03	24254.97
499.20	23728.35
499.38	23601.96
499.56	23967.09
499.73	23899.21
499.91	24390.72
500.08	24320.51
500.26	24187.10
500.44	24091.13
500.61	24233.91
500.79	24432.85
500.97	24856.49
501.14	25230.98
501.32	25020.33
501.49	24755.85
501.67	24812.02
501.84	25172.46
502.02	24755.85
502.20	25144.38
502.37	25811.43
502.55	25474.39
502.72	25598.44
502.90	25465.03
503.07	25600.78
503.25	26038.46
503.43	25633.55
503.60	26003.35
503.78	25956.54
503.95	26235.06
504.13	26012.71
504.30	25947.18
504.48	26078.25
504.65	26099.31
504.83	26600.19
505.01	27236.81
505.18	26249.11
505.36	27023.83
505.53	26876.37
505.71	27166.60
505.88	27150.21
506.06	26663.38
506.23	26698.49
506.41	27110.43
506.58	27356.18
506.76	27292.99
506.93	27578.53
507.11	27445.12
507.28	27711.94
507.46	27449.80
507.63	27742.37
507.81	28016.21
507.98	27625.34
508.16	28095.79
508.33	28095.79
508.50	27812.59
508.68	28442.19
508.85	28329.84
509.03	28133.24
509.20	28645.82
509.38	28643.48
509.55	28830.72
509.73	28875.19
509.90	28844.76
510.08	28933.70
510.25	28891.57
510.42	28797.95
510.60	28905.62
510.77	29359.68
510.95	29467.34
511.12	29310.53
511.30	29661.61
511.47	29504.79
511.64	29284.78
511.82	29902.68
511.99	29750.55
512.17	29984.60
512.34	29872.26
512.51	29942.47
512.69	30328.66
512.86	30202.27
513.04	30707.83
513.21	30335.68
513.38	30569.74
513.56	30611.87
513.73	30529.95
513.90	30576.76
514.08	30246.74
514.25	30649.32
514.43	30459.73
514.60	30988.69
514.77	30567.40
514.95	30969.97
515.12	30876.35
515.29	30918.48
515.47	31665.11
515.64	31550.42
515.81	30881.03
515.99	31246.15
516.16	31470.84
516.33	31541.06
516.51	31243.81
516.68	31072.95
516.85	31330.41
517.03	31625.32
517.20	31634.68
517.37	31683.83
517.54	31967.04
517.72	32009.17
517.89	32191.73
518.06	32165.98
518.24	31896.82
518.41	32025.55
518.58	31859.37
518.75	32306.41
518.93	32694.94
519.10	32320.46
519.27	32393.01
519.45	32645.79
519.62	32598.98
519.79	32563.87
519.96	32978.15
520.14	33291.78
520.31	33046.02
520.48	32917.29
520.65	33006.23
520.83	33457.96
521.00	33289.44
521.17	33240.29
521.34	33308.16
521.52	33626.48
521.69	33504.77
521.86	33511.79
522.03	33986.92
522.20	33727.12
522.38	33792.65
522.55	33909.68
522.72	33773.93
522.89	34244.38
523.07	34155.44
523.24	34022.03
523.41	34040.75
523.58	34361.40
523.75	34410.56
523.92	34579.07
524.10	34218.63
524.27	34668.02
524.44	34429.28
524.61	34820.15
524.78	35016.75
524.96	34639.93
525.13	34951.22
525.30	35424.01
525.47	35262.51
525.64	34721.85
525.81	34691.42
525.98	35194.64
526.16	35068.25
526.33	34951.22
526.50	35068.25
526.67	34981.65
526.84	35398.26
527.01	34768.66
527.18	35395.92
527.36	35707.21
527.53	35828.92
527.70	35798.49
527.87	35929.56
528.04	35681.47
528.21	35786.79
528.38	35508.27
528.55	36282.98
528.72	36673.85
528.89	36388.31
529.07	35852.33
529.24	36374.27
529.41	36233.83
529.58	36320.43
529.75	36371.92
529.92	36371.92
530.09	36098.08
530.26	36652.79
530.43	36746.41
530.60	36538.10
530.77	36411.71
530.94	36734.71
531.11	36966.42
531.28	36842.37
531.46	36907.91
531.63	37088.13
531.80	36968.76
531.97	36730.03
532.14	36989.83
532.31	37125.58
532.48	37088.13
532.65	37249.63
532.82	36903.23
532.99	37139.62
533.16	37057.70
533.33	37794.97
533.50	38403.51
533.67	37546.87
533.84	37567.94
534.01	37467.30
534.18	37741.14
534.35	37886.25
534.52	37699.01
534.69	37567.94
534.86	37874.55
535.03	38129.67
535.20	38169.46
535.37	37944.76
535.54	38251.38
535.71	37888.59
535.88	38295.85
536.05	37621.77
536.22	38356.70
536.38	38026.68
536.55	38164.78
536.72	38637.56
536.89	38401.17
537.06	38389.47
537.23	38312.23
537.40	38497.13
537.57	38525.22
537.74	38382.45
537.91	38731.18
538.08	38436.28
538.25	38508.83
538.42	38719.48
538.59	39037.80
538.75	38506.49
538.92	39152.48
539.09	39096.31
539.26	39309.30
539.43	38913.75
539.60	39159.50
539.77	39049.50
539.94	39445.05
540.11	39040.14
540.28	39388.88
540.44	39068.22
540.61	38806.08
540.78	39112.69
540.95	39044.82
541.12	39189.93
541.29	39288.23
541.46	39255.46
541.62	39763.36
541.79	39803.15
541.96	39416.96
542.13	39658.04
542.30	39484.84
542.47	39817.19
542.63	39686.12
542.80	39859.32
542.97	40477.22
543.14	40514.67
543.31	40533.40
543.48	39859.32
543.64	40587.23
543.81	40226.79
543.98	40154.23
544.15	40545.10
544.32	40601.27
544.48	40868.09
544.65	40634.04
544.82	40559.14
544.99	40292.32
545.16	40601.27
545.32	40577.87
545.49	40769.79
545.66	40500.63
545.83	40818.94
546.00	40854.05
546.16	41036.61
546.33	40758.09
546.50	40664.47
546.67	41144.28
546.83	40395.31
547.00	41043.63
547.17	40884.48
547.34	40744.05
547.50	41155.98
547.67	41153.64
547.84	40954.69
548.00	41247.26
548.17	41350.24
548.34	41319.82
548.51	41450.89
548.67	41336.20
548.84	41233.22
549.01	41586.64
549.18	41493.02
549.34	41280.03
549.51	41642.81
549.68	41581.96
549.84	41895.59
550.01	41949.42
550.18	41258.96
550.34	41502.38
550.51	41736.43
550.68	41507.06
550.84	41663.88
551.01	41778.56
551.18	42003.25
551.34	41612.38
551.51	41731.75
551.68	41869.84
551.84	42089.85
552.01	41785.58
552.18	41865.16
552.34	41698.98
552.51	41769.20
552.68	41684.94
552.84	42272.42
553.01	42227.95
553.18	41996.23
553.34	42089.85
553.51	41778.56
553.67	42316.89
553.84	42181.13
554.01	42347.31
554.17	42380.08
554.34	42478.38
554.51	42190.50
554.67	42424.55
554.84	42553.28
555.00	41940.06
555.17	42073.47
555.33	42204.54
555.50	42738.18
555.67	42763.93
555.83	42600.09
556.00	42696.05
556.16	43246.08
556.33	42876.27
556.50	42679.67
556.66	43381.83
556.83	42609.45
556.99	43009.68
557.16	42726.48
557.32	43021.39
557.49	43107.99
557.65	42623.50
557.82	42773.29
557.98	42869.25
558.15	43330.34
558.32	43019.05
558.48	42843.51
558.65	42972.24
558.81	42955.85
558.98	43136.07
559.14	43208.63
559.31	42941.81
559.47	43786.74
559.64	43475.45
559.80	43227.35
559.97	43646.31
560.13	42995.64
560.30	43449.70
560.46	43395.87
560.63	43297.57
560.79	43346.72
560.96	43040.11
561.12	43398.21
561.29	43704.82
561.45	43119.69
561.61	43328.00
561.78	43522.26
561.94	43470.77
562.11	43166.50
562.27	43363.11
562.44	43363.11
562.60	43328.00
562.77	43484.81
562.93	43466.09
563.10	43873.34
563.26	43068.20
563.42	43739.93
563.59	43468.43
563.75	43831.21
563.92	43842.92
564.08	43728.23
564.24	43636.95
564.41	43753.97
564.57	43735.25
564.74	43885.04
564.90	44261.87
565.07	43676.74
565.23	43585.46
565.39	43784.40
565.56	44093.35
565.72	43704.82
565.88	43868.66
566.05	43585.46
566.21	44093.35
566.38	43676.74
566.54	43452.05
566.70	43810.15
566.87	44219.74
567.03	43416.94
567.19	44376.56
567.36	43945.90
567.52	43838.23
567.68	43978.67
567.85	43660.35
568.01	43723.55
568.17	43957.60
568.34	43936.54
568.50	43854.62
568.66	44037.18
568.83	43983.35
568.99	43917.81
569.15	44364.85
569.32	43952.92
569.48	43789.08
569.64	44065.27
569.81	44327.41
569.97	44037.18
570.13	44107.40
570.30	43728.23
570.46	43707.16
570.62	43552.69
570.78	43725.89
570.95	43959.94
571.11	44023.14
571.27	44257.19
571.43	44179.95
571.60	44446.77
571.76	44325.07
571.92	44032.50
572.09	44217.40
572.25	44196.34
572.41	43917.81
572.57	44306.34
572.74	44238.47
572.90	44322.72
573.06	44093.35
573.22	44411.67
573.38	43927.17
573.55	44046.54
573.71	44626.99
573.87	44189.31
574.03	44226.76
574.20	44275.91
574.36	44282.94
574.52	43983.35
574.68	44449.11
574.84	44381.24
575.01	44247.83
575.17	44516.99
575.33	43896.75
575.49	44446.77
575.65	44381.24
575.82	44409.32
575.98	44294.64
576.14	44538.05
576.30	44383.58
576.46	43868.66
576.62	44081.65
576.79	44137.82
576.95	43941.22
577.11	44027.82
577.27	44884.45
577.43	44737.00
577.59	43915.47
577.75	44144.84
577.92	44091.01
578.08	43625.25
578.24	44119.10
578.40	44484.22
578.56	44184.63
578.72	44437.41
578.88	44238.47
579.04	44505.29
579.21	44287.62
579.37	44446.77
579.53	43973.98
579.69	44535.71
579.85	44500.61
580.01	44165.91
580.17	44353.15
580.33	44697.21
580.49	44540.39
580.65	44608.27
580.82	44666.78
580.98	44439.75
581.14	44563.80
581.30	44488.90
581.46	44273.57
581.62	44589.55
581.78	44547.42
581.94	44596.57
582.10	44428.05
582.26	44814.24
582.42	44500.61
582.58	44278.25
582.74	44701.89
582.90	44446.77
583.06	44362.51
583.22	44690.19
583.38	44701.89
583.54	44704.23
583.70	44215.06
583.86	44130.80
584.02	44404.64
584.18	44566.14
584.34	44687.85
584.50	44516.99
584.66	44612.95
584.82	44376.56
584.98	44694.87
585.14	44720.62
585.30	44477.20
585.46	44720.62
585.62	44062.93
585.78	44463.16
585.94	43786.74
586.10	44388.26
586.26	44484.22
586.42	44512.31
586.58	44570.82
586.74	44657.42
586.90	44350.81
587.06	44156.55
587.22	44720.62
587.38	44252.51
587.54	44863.39
587.70	44673.81
587.86	44474.86
588.02	44683.17
588.18	44980.42
588.34	44556.78
588.49	44680.83
588.65	44519.33
588.81	44526.35
588.97	44741.68
589.13	44388.26
589.29	44374.22
589.45	44481.88
589.61	44421.03
589.77	45284.68
589.93	44556.78
590.08	45031.91
590.24	45074.04
