SpectraSuite Data File
++++++++++++++++++++++++++++++++++++
Date: Fri Oct 25 10:48:13 EDT 2013
User: price-jones
Dark Spectrum Present: No
Reference Spectrum Present: No
Number of Sampled Component Spectra: 1
Spectrometers: USB2+H05261
Integration Time (usec): 100000 (USB2+H05261)
Spectra Averaged: 1 (USB2+H05261)
Boxcar Smoothing: 0 (USB2+H05261)
Correct for Electrical Dark: No (USB2+H05261)
Strobe/Lamp Enabled: No (USB2+H05261)
Correct for Detector Non-linearity: No (USB2+H05261)
Correct for Stray Light: No (USB2+H05261)
Number of Pixels in Processed Spectrum: 2048
>>>>>Begin Processed Spectral Data<<<<<
365.73	119.37
365.92	119.37
366.12	119.37
366.32	32.77
366.52	91.28
366.72	65.54
366.91	53.83
367.11	23.41
367.31	72.56
367.51	35.11
367.70	14.04
367.90	39.79
368.10	23.41
368.30	56.17
368.49	0.00
368.69	56.17
368.89	65.54
369.09	105.32
369.28	110.01
369.48	4.68
369.68	72.56
369.87	53.83
370.07	147.45
370.27	168.52
370.47	241.08
370.66	383.85
370.86	404.91
371.06	456.40
371.25	491.51
371.45	397.89
371.65	458.74
371.84	444.70
372.04	451.72
372.24	500.87
372.44	416.62
372.63	496.19
372.83	449.38
373.03	411.93
373.22	449.38
373.42	500.87
373.62	528.96
373.81	416.62
374.01	613.22
374.21	599.18
374.40	575.77
374.60	608.54
374.79	496.19
374.99	547.69
375.19	561.73
375.38	580.45
375.58	496.19
375.78	575.77
375.97	716.20
376.17	636.63
376.37	653.01
376.56	627.26
376.76	568.75
376.95	624.92
377.15	624.92
377.35	613.22
377.54	655.35
377.74	550.03
377.93	615.56
378.13	671.73
378.33	713.86
378.52	587.47
378.72	613.22
378.91	622.58
379.11	557.05
379.31	575.77
379.50	653.01
379.70	617.90
379.89	671.73
380.09	610.88
380.28	636.63
380.48	638.97
380.68	662.37
380.87	655.35
381.07	606.20
381.26	662.37
381.46	692.80
381.65	660.03
381.85	657.69
382.04	763.01
382.24	599.18
382.43	737.27
382.63	648.33
382.83	758.33
383.02	688.12
383.22	725.57
383.41	681.10
383.61	720.88
383.80	674.07
384.00	812.17
384.19	791.10
384.39	891.74
384.58	781.74
384.78	688.12
384.97	744.29
385.17	837.91
385.36	748.97
385.56	791.10
385.75	774.72
385.95	748.97
386.14	725.57
386.34	800.46
386.53	837.91
386.72	772.38
386.92	863.66
387.11	882.38
387.31	868.34
387.50	814.51
387.70	765.36
387.89	849.61
388.09	884.72
388.28	809.83
388.48	884.72
388.67	891.74
388.86	889.40
389.06	917.49
389.25	971.32
389.45	950.26
389.64	901.11
389.84	891.74
390.03	961.96
390.22	957.28
390.42	961.96
390.61	950.26
390.81	894.08
391.00	976.00
391.19	997.07
391.39	1015.79
391.58	990.05
391.78	945.58
391.97	1015.79
392.16	952.60
392.36	978.34
392.55	1020.47
392.75	961.96
392.94	957.28
393.13	1034.52
393.33	1001.75
393.52	1036.86
393.71	1027.50
393.91	1076.65
394.10	1135.16
394.29	1090.69
394.49	1046.22
394.68	1137.50
394.88	1135.16
395.07	1095.37
395.26	1153.88
395.46	1149.20
395.65	1137.50
395.84	1191.33
396.04	1177.29
396.23	1130.48
396.42	1130.48
396.62	1210.06
396.81	1153.88
397.00	1146.86
397.19	1130.48
397.39	1165.59
397.58	1282.61
397.77	1238.14
397.97	1289.64
398.16	1266.23
398.35	1299.00
398.55	1308.36
398.74	1343.47
398.93	1294.32
399.12	1343.47
399.32	1357.51
399.51	1341.13
399.70	1420.71
399.90	1378.58
400.09	1448.79
400.28	1451.13
400.47	1387.94
400.67	1558.80
400.86	1416.02
401.05	1490.92
401.24	1570.50
401.44	1570.50
401.63	1596.25
401.82	1455.81
402.01	1558.80
402.21	1673.48
402.40	1490.92
402.59	1570.50
402.78	1577.52
402.97	1528.37
403.17	1631.35
403.36	1659.44
403.55	1732.00
403.74	1607.95
403.93	1650.08
404.13	1724.97
404.32	1631.35
404.51	1687.53
404.70	1750.72
404.89	1741.36
405.09	1809.23
405.28	1701.57
405.47	1724.97
405.66	1706.25
405.85	1860.73
406.05	1825.62
406.24	1825.62
406.43	1774.13
406.62	1947.33
406.81	1905.20
407.00	1844.34
407.20	1888.81
407.39	1853.70
407.58	1944.99
407.77	2003.50
407.96	1963.71
408.15	2008.18
408.34	1956.69
408.54	1916.90
408.73	2080.74
408.92	2026.90
409.11	2172.02
409.30	2122.87
409.49	2045.63
409.68	1966.05
409.87	2139.25
410.07	2031.58
410.26	2143.93
410.45	2183.72
410.64	2202.44
410.83	2218.83
411.02	2267.98
411.21	2223.51
411.40	2305.43
411.59	2296.07
411.78	2282.02
411.98	2228.19
412.17	2420.11
412.36	2258.62
412.55	2363.94
412.74	2443.52
412.93	2431.82
413.12	2441.18
413.31	2553.52
413.50	2443.52
413.69	2555.86
413.88	2614.38
414.07	2675.23
414.26	2583.95
414.45	2579.27
414.64	2731.41
414.83	2715.02
415.02	2717.36
415.22	2825.03
415.41	2815.66
415.60	2747.79
415.79	2860.13
415.98	2993.55
416.17	2937.37
416.36	2942.05
416.55	2946.73
416.74	2970.14
416.93	2953.76
417.12	3028.65
417.31	2960.78
417.50	2902.26
417.69	2998.23
417.88	3094.19
418.07	3253.34
418.26	3190.15
418.45	3229.94
418.64	3246.32
418.83	3307.18
419.02	3049.72
419.21	3328.24
419.39	3222.92
419.58	3145.68
419.77	3222.92
419.96	3389.10
420.15	3403.14
420.34	3197.17
420.53	3328.24
420.72	3454.63
420.91	3414.84
421.10	3400.80
421.29	3435.91
421.48	3421.86
421.67	3353.99
421.86	3487.40
422.05	3419.52
422.24	3473.36
422.43	3503.78
422.61	3524.85
422.80	3595.06
422.99	3485.06
423.18	3522.51
423.37	3630.17
423.56	3517.83
423.75	3627.83
423.94	3541.23
424.13	3368.03
424.32	3468.67
424.50	3672.30
424.69	3616.13
424.88	3634.85
425.07	3599.74
425.26	3524.85
425.45	3595.06
425.64	3536.55
425.83	3684.00
426.01	3765.92
426.20	3716.77
426.39	3648.90
426.58	3569.32
426.77	3534.21
426.96	3648.90
427.15	3688.68
427.33	3698.05
427.52	3723.79
427.71	3744.86
427.90	3775.28
428.09	3763.58
428.28	3761.24
428.46	3819.75
428.65	3688.68
428.84	3925.08
429.03	3857.20
429.22	3812.73
429.40	3632.51
429.59	3850.18
429.78	3618.47
429.97	3660.60
430.16	3728.47
430.34	3836.14
430.53	3831.46
430.72	3985.93
430.91	3932.10
431.10	4056.15
431.28	4212.96
431.47	4173.18
431.66	4063.17
431.85	4102.96
432.03	4238.71
432.22	4191.90
432.41	4217.65
432.60	4299.56
432.79	4287.86
432.97	4402.55
433.16	4351.06
433.35	4262.12
433.54	4381.48
433.72	4365.10
433.91	4250.41
434.10	4505.53
434.28	4196.58
434.47	4465.74
434.66	4372.12
434.85	4477.44
435.03	4470.42
435.22	4484.47
435.41	4674.05
435.59	4599.15
435.78	4648.30
435.97	4580.43
436.16	4564.04
436.34	4648.30
436.53	4482.13
436.72	4688.09
436.90	4645.96
437.09	4681.07
437.28	4629.58
437.46	4847.25
437.65	4676.39
437.84	4589.79
438.02	4840.23
438.21	4748.95
438.40	4692.77
438.58	4952.57
438.77	4933.85
438.96	4964.28
439.14	5160.88
439.33	5212.37
439.52	5160.88
439.70	5221.74
439.89	5320.04
440.08	5163.22
440.26	5268.55
440.45	5156.20
440.63	5483.88
440.82	5533.03
441.01	5411.32
441.19	5369.19
441.38	5366.85
441.57	5427.70
441.75	5666.44
441.94	5607.92
442.12	5680.48
442.31	5694.52
442.50	5694.52
442.68	5626.65
442.87	5771.76
443.05	5738.99
443.24	5907.51
443.43	5994.11
443.61	5954.32
443.80	5921.56
443.98	5790.49
444.17	5626.65
444.35	5795.17
444.54	5961.34
444.73	5809.21
444.91	5809.21
445.10	5959.00
445.28	5860.70
445.47	5963.68
445.65	5905.17
445.84	5949.64
446.02	5919.21
446.21	5961.34
446.39	6101.78
446.58	5996.45
446.77	6101.78
446.95	5844.32
447.14	6017.52
447.32	5947.30
447.51	6164.97
447.69	6188.38
447.88	6085.39
448.06	6019.86
448.25	6237.53
448.43	6153.27
448.62	6076.03
448.80	5987.09
448.99	6036.24
449.17	6284.34
449.36	6225.82
449.54	6176.67
449.73	6373.28
449.91	6452.86
450.10	6361.58
450.28	6478.60
450.46	6525.41
450.65	6497.33
450.83	6494.99
451.02	6450.52
451.20	6630.74
451.39	6574.56
451.57	6572.22
451.76	6443.49
451.94	6537.12
452.13	6677.55
452.31	6565.20
452.49	6289.02
452.68	6548.82
452.86	6677.55
453.05	6679.89
453.23	6815.64
453.42	6612.01
453.60	6689.25
453.78	6740.74
453.97	6707.98
454.15	6628.40
454.34	6597.97
454.52	6820.32
454.70	6970.12
454.89	6841.39
455.07	6965.43
455.26	6743.08
455.44	7000.54
455.62	7070.76
455.81	7056.72
455.99	7080.12
456.17	7047.35
456.36	7045.01
456.54	7206.51
456.73	7162.04
456.91	7449.93
457.09	7419.50
457.28	7475.67
457.46	7508.44
457.64	7508.44
457.83	7117.57
458.01	7358.64
458.19	7513.12
458.38	7494.40
458.56	7485.03
458.74	7410.14
458.93	7356.30
459.11	7566.95
459.29	7508.44
459.48	7515.46
459.66	7737.81
459.84	7609.08
460.03	7751.85
460.21	7929.74
460.39	7632.49
460.57	7786.96
460.76	7864.20
460.94	7894.63
461.12	7789.30
461.31	7831.43
461.49	7978.89
461.67	7939.10
461.85	8021.02
462.04	7927.39
462.22	8531.25
462.40	7939.10
462.59	8070.17
462.77	8135.70
462.95	8248.05
463.13	8241.03
463.32	8168.47
463.50	8299.54
463.68	8341.67
463.86	8322.94
464.05	8042.08
464.23	8051.44
464.41	8479.76
464.59	8285.50
464.78	8306.56
464.96	8248.05
465.14	8308.90
465.32	8559.34
465.50	8423.59
465.69	8437.63
465.87	8552.32
466.05	8388.48
466.23	8346.35
466.41	8358.05
466.60	8674.03
466.78	8627.21
466.96	8491.46
467.14	8681.05
467.32	8580.40
467.51	8809.78
467.69	8318.26
467.87	8599.13
468.05	8606.15
468.23	8779.35
468.41	8753.60
468.60	8456.36
468.78	8851.91
468.96	8758.28
469.14	8821.48
469.32	9032.13
469.50	8903.40
469.69	8901.06
469.87	9057.87
470.05	9055.53
470.23	8938.51
470.41	9296.61
470.59	9018.08
470.77	9186.60
470.95	9247.46
471.14	9378.53
471.32	9207.67
471.50	9509.60
471.68	9380.87
471.86	9165.54
472.04	9397.25
472.22	9795.14
472.40	9376.19
472.58	9451.08
472.77	9577.47
472.95	9689.82
473.13	10108.77
473.31	9720.24
473.49	9645.35
473.67	9811.53
473.85	9839.61
474.03	9837.27
474.21	10127.50
474.39	9947.28
474.57	10024.51
474.75	10293.68
474.93	10349.85
475.12	10169.63
475.30	10317.08
475.48	10289.00
475.66	10443.47
475.84	10450.49
476.02	10431.77
476.20	10483.26
476.38	10743.06
476.56	10967.75
476.74	10721.99
476.92	10766.46
477.10	10946.69
477.28	10998.18
477.46	11138.61
477.64	11257.98
477.82	11290.74
478.00	11606.72
478.18	11405.43
478.36	11625.44
478.54	11398.41
478.72	11770.55
478.90	11861.84
479.08	11772.89
479.26	11850.13
479.44	12079.50
479.62	12133.34
479.80	12189.51
479.98	12540.59
480.16	12739.54
480.34	12400.16
480.52	12231.64
480.70	12521.87
480.88	12622.51
481.06	12561.66
481.24	12725.49
481.41	12973.59
481.59	12903.37
481.77	13247.43
481.95	13242.75
482.13	13376.16
482.31	13287.22
482.49	13619.58
482.67	13659.37
482.85	13799.80
483.03	13951.93
483.21	13947.25
483.39	14366.21
483.57	14352.16
483.74	14317.06
483.92	14391.95
484.10	14455.15
484.28	14600.26
484.46	14888.15
484.64	14977.09
484.82	14874.10
485.00	14874.10
485.18	15044.96
485.35	15171.35
485.53	15101.14
485.71	15314.13
485.89	15449.88
486.07	15365.62
486.25	15630.10
486.43	15538.82
486.61	16128.63
486.78	15976.50
486.96	16060.76
487.14	16376.73
487.32	16306.51
487.50	16437.58
487.68	16737.17
487.85	17090.59
488.03	16776.96
488.21	17160.81
488.39	17256.77
488.57	17057.82
488.75	17420.61
488.92	17877.01
489.10	17916.80
489.28	17591.47
489.46	18183.62
489.64	18310.01
489.81	18539.38
489.99	18576.83
490.17	18633.00
490.35	18836.63
490.53	18717.26
490.70	18860.04
490.88	19002.81
491.06	18995.79
491.24	19108.13
491.41	19122.18
491.59	19435.81
491.77	19365.59
491.95	19885.19
492.13	19915.62
492.30	19917.96
492.48	20271.38
492.66	20100.52
492.84	20187.12
493.01	20346.28
493.19	20397.77
493.37	20772.25
493.54	20697.36
493.72	20814.38
493.90	20837.79
494.08	21235.68
494.25	21399.52
494.43	21542.29
494.61	21476.76
494.79	21713.15
494.96	21628.89
495.14	21565.70
495.32	22249.13
495.49	22012.74
495.67	21986.99
495.85	22162.53
496.02	22607.23
496.20	22546.38
496.38	22448.08
496.55	22855.33
496.73	23218.11
496.91	22773.41
497.09	23183.01
497.26	23023.85
497.44	23229.82
497.62	23417.06
497.79	23784.52
497.97	23597.28
498.14	23826.65
498.32	23917.93
498.50	23325.78
498.67	24226.89
498.85	24135.60
499.03	24374.34
499.20	24093.47
499.38	24606.05
499.56	24327.53
499.73	24519.45
499.91	24563.92
500.08	24943.09
500.26	24547.54
500.44	24828.40
500.61	24833.08
500.79	25214.59
500.97	25198.21
501.14	25481.41
501.32	25549.29
501.49	25436.94
501.67	25378.43
501.84	25565.67
502.02	25759.94
502.20	25762.28
502.37	25685.04
502.55	25883.98
502.72	25883.98
502.90	26078.25
503.07	26036.12
503.25	26150.81
503.43	26324.01
503.60	26319.32
503.78	26642.32
503.95	26373.16
504.13	26551.04
504.30	26529.97
504.48	26501.89
504.65	26850.63
504.83	27435.76
505.01	27283.62
505.18	27075.32
505.36	27452.14
505.53	27613.64
505.71	27852.38
505.88	27983.44
506.06	27601.94
506.23	27859.40
506.41	27637.05
506.58	27419.38
506.76	27789.18
506.93	28133.24
507.11	28182.39
507.28	28020.89
507.46	28140.26
507.63	28009.19
507.81	28650.50
507.98	28208.14
508.16	28542.83
508.33	28762.84
508.50	28952.43
508.68	28800.29
508.85	29181.80
509.03	28891.57
509.20	28804.97
509.38	29450.96
509.55	29448.62
509.73	29146.69
509.90	29472.03
510.08	29542.24
510.25	29467.34
510.42	29736.51
510.60	30024.39
510.77	29706.08
510.95	29991.62
511.12	29408.83
511.30	30558.03
511.47	30155.46
511.64	30281.85
511.82	30366.11
511.99	29841.83
512.17	30637.61
512.34	30546.33
512.51	30787.41
512.69	30609.53
512.86	30815.49
513.04	31150.19
513.21	30831.88
513.38	31000.40
513.56	30803.79
513.73	30499.52
513.90	31220.41
514.08	31040.18
514.25	31129.12
514.43	31236.79
514.60	31232.11
514.77	31166.57
514.95	31639.36
515.12	32055.98
515.29	31665.11
515.47	31807.88
515.64	32266.63
515.81	32002.14
515.99	31906.18
516.16	31962.36
516.33	31737.66
516.51	31995.12
516.68	31737.66
516.85	31828.95
517.03	31693.19
517.20	32451.53
517.37	32238.54
517.54	32369.61
517.72	32783.88
517.89	32542.81
518.06	32266.63
518.24	32538.13
518.41	32252.58
518.58	32858.78
518.75	32727.71
518.93	33163.05
519.10	32849.42
519.27	33371.36
519.45	33488.38
519.62	33525.83
519.79	33329.23
519.96	33149.01
520.14	33479.02
520.31	33387.74
520.48	34068.84
520.65	33633.50
520.83	34015.01
521.00	33553.92
521.17	34251.40
521.34	34230.33
521.52	34043.09
521.69	34548.65
521.86	34288.85
522.03	34153.10
522.20	34347.36
522.38	34913.77
522.55	35063.57
522.72	34679.72
522.89	34457.37
523.07	34749.93
523.24	34347.36
523.41	35098.67
523.58	34501.84
523.75	35470.82
523.92	34820.15
524.10	35124.42
524.27	35454.44
524.44	35232.08
524.61	35578.48
524.78	35634.66
524.96	35480.18
525.13	35101.01
525.30	35833.60
525.47	35779.77
525.64	35562.10
525.81	35978.72
525.98	35805.52
526.16	35304.64
526.33	35222.72
526.50	36121.49
526.67	35564.44
526.84	35477.84
527.01	35695.51
527.18	36018.50
527.36	36191.70
527.53	36201.07
527.70	36823.65
527.87	36739.39
528.04	36510.02
528.21	36407.03
528.38	35955.31
528.55	36877.48
528.72	36926.63
528.89	36521.72
529.07	36400.01
529.24	36510.02
529.41	37057.70
529.58	37130.26
529.75	36877.48
529.92	36809.61
530.09	37008.55
530.26	36907.91
530.43	37104.51
530.60	36774.50
530.77	37467.30
530.94	37633.47
531.11	37598.37
531.28	37198.13
531.46	37825.40
531.63	37521.13
531.80	37385.38
531.97	37848.80
532.14	37422.83
532.31	37460.27
532.48	37642.84
532.65	38087.54
532.82	38195.20
532.99	37553.90
533.16	37837.10
533.33	38267.76
533.50	38157.75
533.67	38150.73
533.84	37954.13
534.01	38047.75
534.18	37949.45
534.35	38766.29
534.52	38052.43
534.69	38251.38
534.86	38497.13
535.03	38478.41
535.20	38883.32
535.37	38834.17
535.54	39164.18
535.71	38539.26
535.88	38534.58
536.05	38281.80
536.22	38728.84
536.38	39239.08
536.55	38983.96
536.72	38890.34
536.89	38843.53
537.06	39103.33
537.23	39140.78
537.40	38677.35
537.57	39030.77
537.74	39271.85
537.91	39505.90
538.08	39316.32
538.25	38883.32
538.42	39239.08
538.59	39634.63
538.75	39023.75
538.92	39260.15
539.09	39566.76
539.26	39550.37
539.43	39480.16
539.60	39819.53
539.77	39419.30
539.94	39323.34
540.11	39803.15
540.28	39728.25
540.44	39505.90
540.61	39819.53
540.78	39421.64
540.95	39772.72
541.12	39690.80
541.29	39988.05
541.46	39985.71
541.62	40285.30
541.79	40311.05
541.96	39655.70
542.13	40210.40
542.30	40266.58
542.47	40053.59
542.63	40137.85
542.80	40737.02
542.97	40460.84
543.14	40945.33
543.31	40669.15
543.48	40411.69
543.64	41249.60
543.81	40842.35
543.98	40470.20
544.15	40868.09
544.32	41193.43
544.48	41729.41
544.65	41373.65
544.82	40807.24
544.99	40741.71
545.16	41031.93
545.32	41092.79
545.49	41251.94
545.66	41457.91
545.83	41584.30
546.00	41446.21
546.16	41233.22
546.33	41146.62
546.50	40835.33
546.67	41078.74
546.83	41184.07
547.00	41631.11
547.17	41443.87
547.34	41528.13
547.50	41500.04
547.67	41904.95
547.84	41902.61
548.00	41542.17
548.17	41872.18
548.34	42043.04
548.51	42103.90
548.67	41914.31
548.84	42005.59
549.01	41717.71
549.18	41778.56
549.34	41984.53
549.51	42096.88
549.68	42651.58
549.84	42110.92
550.01	42253.69
550.18	42373.06
550.34	42333.27
550.51	42316.89
550.68	42005.59
550.84	41811.33
551.01	42426.89
551.18	42459.66
551.34	42361.36
551.51	42590.73
551.68	42670.31
551.84	42651.58
552.01	42476.04
552.18	42464.34
552.34	42263.05
552.51	42541.58
552.68	42684.35
552.84	42813.08
553.01	43002.66
553.18	42232.63
553.34	42555.62
553.51	42770.95
553.67	42660.94
553.84	43056.50
554.01	42920.74
554.17	43089.26
554.34	43608.86
554.51	42887.98
554.67	43133.73
554.84	42902.02
555.00	42796.70
555.17	42787.33
555.33	42850.53
555.50	43466.09
555.67	43253.10
555.83	43295.23
556.00	43070.54
556.16	43428.64
556.33	43217.99
556.50	43311.61
556.66	43470.77
556.83	42857.55
556.99	43828.87
557.16	43512.90
557.32	43817.17
557.49	43985.69
557.65	43189.91
557.82	43697.80
557.98	43533.96
558.15	43658.01
558.32	43714.19
558.48	43201.61
558.65	43414.60
558.81	43578.43
558.98	43557.37
559.14	43519.92
559.31	43672.06
559.47	43641.63
559.64	43772.70
559.80	44287.62
559.97	44116.76
560.13	43636.95
560.30	44062.93
560.46	43597.16
560.63	43395.87
560.79	43739.93
560.96	44322.72
561.12	43737.59
561.29	44385.92
561.45	43753.97
561.61	43831.21
561.78	43938.88
561.94	43892.07
562.11	43934.20
562.27	43758.66
562.44	43777.38
562.60	44629.34
562.77	44114.42
562.93	43632.27
563.10	44458.48
563.26	43840.57
563.42	44444.43
563.59	44353.15
563.75	44147.18
563.92	44238.47
564.08	44086.33
564.24	44252.51
564.41	44044.20
564.57	44266.55
564.74	44282.94
564.90	44147.18
565.07	44596.57
565.23	44360.17
565.39	44325.07
565.56	44294.64
565.72	43962.28
565.88	44657.42
566.05	44793.17
566.21	44556.78
566.38	44196.34
566.54	44456.14
566.70	44706.57
566.87	45029.57
567.03	44521.67
567.19	44776.79
567.36	44666.78
567.52	44470.18
567.68	44694.87
567.85	44421.03
568.01	44608.27
568.17	44282.94
568.34	44264.21
568.50	44500.61
568.66	44577.84
568.83	44584.86
568.99	43983.35
569.15	44025.48
569.32	44573.16
569.48	44296.98
569.64	44690.19
569.81	44528.69
569.97	44477.20
570.13	44519.33
570.30	44776.79
570.46	44175.27
570.62	44706.57
570.78	44491.24
570.95	44521.67
571.11	44989.78
571.27	44751.04
571.43	44458.48
571.60	44725.30
571.76	44814.24
571.92	44348.47
572.09	44601.25
572.25	45092.76
572.41	44388.26
572.57	45001.48
572.74	44926.58
572.90	45006.16
573.06	44582.52
573.22	44725.30
573.38	44547.42
573.55	44634.02
573.71	45233.19
573.87	44388.26
574.03	44362.51
574.20	44486.56
574.36	44734.66
574.52	44753.38
574.68	44687.85
574.84	44980.42
575.01	44863.39
575.17	45069.36
575.33	44786.15
575.49	44320.38
575.65	45184.04
575.82	44739.34
575.98	44868.07
576.14	44884.45
576.30	45085.74
576.46	44357.83
576.62	44472.52
576.79	44442.09
576.95	44641.04
577.11	44814.24
577.27	44797.85
577.43	44975.73
577.59	44582.52
577.75	45031.91
577.92	44210.38
578.08	44479.54
578.24	44783.81
578.40	44673.81
578.56	44720.62
578.72	44835.30
578.88	45010.84
579.04	44603.59
579.21	45160.64
579.37	44769.77
579.53	44968.71
579.69	44563.80
579.85	44825.94
580.01	45102.12
580.17	44947.65
580.33	44790.83
580.49	44919.56
580.65	45305.75
580.82	45188.72
580.98	44800.19
581.14	44664.44
581.30	44975.73
581.46	44905.52
581.62	44795.51
581.78	44919.56
581.94	45270.64
582.10	44797.85
582.26	45092.76
582.42	45088.08
582.58	44737.00
582.74	44683.17
582.90	45001.48
583.06	45162.98
583.22	45521.08
583.38	45191.06
583.54	45193.40
583.70	44758.06
583.86	45184.04
584.02	44823.60
584.18	45148.93
584.34	44854.03
584.50	45059.99
584.66	45401.71
584.82	44898.50
584.98	45097.44
585.14	45048.29
585.30	44839.98
585.46	45038.93
585.62	44816.58
585.78	44816.58
585.94	44940.63
586.10	44875.09
586.26	44701.89
586.42	45052.97
586.58	45364.26
586.74	45301.07
586.90	44685.51
587.06	45015.52
587.22	45158.30
587.38	44493.58
587.54	45305.75
587.70	45113.83
587.86	45378.31
588.02	44729.98
588.18	45375.97
588.34	44945.31
588.49	44570.82
588.65	44706.57
588.81	44687.85
588.97	44870.41
589.13	44493.58
589.29	44603.59
589.45	45031.91
589.61	45301.07
589.77	45074.04
589.93	44856.37
590.08	45155.96
590.24	45272.98
