SpectraSuite Data File
++++++++++++++++++++++++++++++++++++
Date: Fri Oct 25 11:25:10 EDT 2013
User: price-jones
Dark Spectrum Present: No
Reference Spectrum Present: No
Number of Sampled Component Spectra: 1
Spectrometers: USB2+H05261
Integration Time (usec): 100000 (USB2+H05261)
Spectra Averaged: 1 (USB2+H05261)
Boxcar Smoothing: 0 (USB2+H05261)
Correct for Electrical Dark: No (USB2+H05261)
Strobe/Lamp Enabled: No (USB2+H05261)
Correct for Detector Non-linearity: No (USB2+H05261)
Correct for Stray Light: No (USB2+H05261)
Number of Pixels in Processed Spectrum: 2048
>>>>>Begin Processed Spectral Data<<<<<
365.73	266.82
365.92	266.82
366.12	266.82
366.32	201.29
366.52	121.71
366.72	140.43
366.91	107.66
367.11	194.26
367.31	105.32
367.51	114.69
367.70	140.43
367.90	133.41
368.10	133.41
368.30	149.79
368.49	124.05
368.69	184.90
368.89	168.52
369.09	98.30
369.28	187.24
369.48	102.98
369.68	121.71
369.87	201.29
370.07	201.29
370.27	259.80
370.47	264.48
370.66	533.64
370.86	641.31
371.06	627.26
371.25	653.01
371.45	648.33
371.65	688.12
371.84	678.76
372.04	678.76
372.24	704.50
372.44	781.74
372.63	800.46
372.83	737.27
373.03	725.57
373.22	786.42
373.42	741.95
373.62	748.97
373.81	791.10
374.01	814.51
374.21	842.59
374.40	844.93
374.60	861.32
374.79	734.93
374.99	781.74
375.19	875.36
375.38	800.46
375.58	847.27
375.78	835.57
375.97	936.21
376.17	954.94
376.37	889.40
376.56	802.80
376.76	823.87
376.95	929.19
377.15	849.61
377.35	924.51
377.54	868.34
377.74	973.66
377.93	894.08
378.13	884.72
378.33	985.37
378.52	954.94
378.72	929.19
378.91	919.83
379.11	997.07
379.31	1001.75
379.50	964.30
379.70	922.17
379.89	896.43
380.09	980.68
380.28	894.08
380.48	954.94
380.68	919.83
380.87	999.41
381.07	968.98
381.26	945.58
381.46	1156.22
381.65	992.39
381.85	1032.18
382.04	990.05
382.24	1067.28
382.43	980.68
382.63	1032.18
382.83	1071.97
383.02	1036.86
383.22	1165.59
383.41	1142.18
383.61	1170.27
383.80	1067.28
384.00	1055.58
384.19	1071.97
384.39	1116.44
384.58	1104.73
384.78	1069.62
384.97	1142.18
385.17	1132.82
385.36	1177.29
385.56	1121.12
385.75	1214.74
385.95	1179.63
386.14	1198.35
386.34	1149.20
386.53	1221.76
386.72	1233.46
386.92	1179.63
387.11	1214.74
387.31	1282.61
387.50	1214.74
387.70	1277.93
387.89	1259.21
388.09	1284.95
388.28	1252.19
388.48	1252.19
388.67	1350.49
388.86	1259.21
389.06	1317.72
389.25	1392.62
389.45	1380.92
389.64	1329.42
389.84	1451.13
390.03	1299.00
390.22	1455.81
390.42	1378.58
390.61	1404.32
390.81	1453.47
391.00	1378.58
391.19	1432.41
391.39	1399.64
391.58	1469.86
391.78	1409.00
391.97	1420.71
392.16	1465.18
392.36	1507.30
392.55	1458.15
392.75	1540.07
392.94	1514.33
393.13	1575.18
393.33	1486.24
393.52	1600.93
393.71	1607.95
393.91	1629.01
394.10	1514.33
394.29	1558.80
394.49	1565.82
394.68	1554.12
394.88	1612.63
395.07	1748.38
395.26	1694.55
395.46	1631.35
395.65	1652.42
395.84	1643.06
396.04	1877.11
396.23	1797.53
396.42	1722.63
396.62	1755.40
396.81	1834.98
397.00	1750.72
397.19	1842.00
397.39	1827.96
397.58	1703.91
397.77	1832.64
397.97	1823.28
398.16	1771.79
398.35	1804.55
398.55	1870.09
398.74	1902.86
398.93	1966.05
399.12	1923.92
399.32	1940.30
399.51	1909.88
399.70	2012.86
399.90	1968.39
400.09	1930.94
400.28	2033.93
400.47	1991.80
400.67	2001.16
400.86	2111.16
401.05	2062.01
401.24	2127.55
401.44	2129.89
401.63	2040.95
401.82	2052.65
402.01	2143.93
402.21	2157.97
402.40	2176.70
402.59	2188.40
402.78	2197.76
402.97	2118.18
403.17	2193.08
403.36	2303.09
403.55	2298.41
403.74	2256.28
403.93	2293.72
404.13	2303.09
404.32	2331.17
404.51	2326.49
404.70	2335.85
404.89	2410.75
405.09	2455.22
405.28	2448.20
405.47	2572.25
405.66	2429.48
405.85	2406.07
406.05	2548.84
406.24	2555.86
406.43	2483.31
406.62	2574.59
406.81	2530.12
407.00	2593.31
407.20	2565.23
407.39	2558.21
407.58	2738.43
407.77	2778.22
407.96	2705.66
408.15	2668.21
408.34	2754.81
408.54	2787.58
408.73	2803.96
408.92	2871.84
409.11	2832.05
409.30	2888.22
409.49	2970.14
409.68	2897.58
409.87	2932.69
410.07	2993.55
410.26	2911.63
410.45	2986.52
410.64	3091.85
410.83	3033.33
411.02	3012.27
411.21	3126.96
411.40	3070.78
411.59	3192.49
411.78	3215.90
411.98	3211.22
412.17	3260.37
412.36	3204.19
412.55	3370.37
412.74	3482.72
412.93	3300.16
413.12	3311.86
413.31	3501.44
413.50	3459.31
413.69	3571.66
413.88	3564.64
414.07	3618.47
414.26	3566.98
414.45	3595.06
414.64	3632.51
414.83	3686.34
415.02	3646.55
415.22	3808.05
415.41	3770.60
415.60	3709.75
415.79	3791.67
415.98	3943.80
416.17	3913.38
416.36	3929.76
416.55	3939.12
416.74	4095.94
416.93	4086.58
417.12	4023.38
417.31	4079.55
417.50	3995.29
417.69	4159.13
417.88	4280.84
418.07	4079.55
418.26	4255.09
418.45	4250.41
418.64	4315.95
418.83	4320.63
419.02	4463.40
419.21	4416.59
419.39	4521.92
419.58	4505.53
419.77	4379.14
419.96	4557.02
420.15	4601.49
420.34	4498.51
420.53	4582.77
420.72	4699.80
420.91	4538.30
421.10	4809.80
421.29	4795.76
421.48	4608.51
421.67	4617.88
421.86	4795.76
422.05	4669.37
422.24	4828.53
422.43	4762.99
422.61	4765.33
422.80	4793.42
422.99	4903.42
423.18	4887.04
423.37	4919.81
423.56	4870.65
423.75	4856.61
423.94	4898.74
424.13	4571.07
424.32	4671.71
424.50	5025.13
424.69	5050.88
424.88	4894.06
425.07	4844.91
425.26	4873.00
425.45	4908.10
425.64	4772.35
425.83	4943.21
426.01	5039.17
426.20	4891.72
426.39	5027.47
426.58	5067.26
426.77	5057.90
426.96	5142.16
427.15	4983.00
427.33	5074.28
427.52	4954.91
427.71	5277.91
427.90	5081.30
428.09	5327.06
428.28	5266.21
428.46	5254.50
428.65	5263.86
428.84	5441.75
429.03	5565.79
429.22	5219.39
429.40	5439.40
429.59	5444.09
429.78	5203.01
429.97	5167.90
430.16	5441.75
430.34	5514.30
430.53	5687.50
430.72	5582.18
430.91	5575.16
431.10	5472.17
431.28	5584.52
431.47	5734.31
431.66	5781.12
431.85	5746.02
432.03	5856.02
432.22	5863.04
432.41	6031.56
432.60	5996.45
432.79	5905.17
432.97	5949.64
433.16	6153.27
433.35	5905.17
433.54	5926.24
433.72	6090.07
433.91	6069.01
434.10	6127.52
434.28	6015.18
434.47	6171.99
434.66	6263.27
434.85	6274.98
435.03	6382.64
435.22	6195.40
435.41	6321.79
435.59	6232.85
435.78	6338.17
435.97	6506.69
436.16	6429.45
436.34	6614.35
436.53	6569.88
436.72	6595.63
436.90	6326.47
437.09	6595.63
437.28	6434.13
437.46	6516.05
437.65	6630.74
437.84	6855.43
438.02	6619.04
438.21	6686.91
438.40	6672.87
438.58	6906.92
438.77	6956.07
438.96	7023.95
439.14	7087.14
439.33	7103.53
439.52	7122.25
439.70	7096.50
439.89	7243.96
440.08	7136.29
440.26	7152.68
440.45	7222.89
440.63	7405.46
440.82	7470.99
441.01	7433.54
441.19	7632.49
441.38	7419.50
441.57	7534.18
441.75	7595.04
441.94	7831.43
442.12	7789.30
442.31	7889.95
442.50	7824.41
442.68	7803.35
442.87	7981.23
443.05	7815.05
443.24	8105.28
443.43	8243.37
443.61	8035.06
443.80	8294.86
443.98	8100.59
444.17	7953.14
444.35	8140.38
444.54	8418.91
444.73	8351.03
444.91	8287.84
445.10	8311.24
445.28	8421.25
445.47	8271.45
445.65	8271.45
445.84	8425.93
446.02	8407.20
446.21	8292.52
446.39	8446.99
446.58	8578.06
446.77	8418.91
446.95	8339.33
447.14	8386.14
447.32	8367.42
447.51	8292.52
447.69	8568.70
447.88	8423.59
448.06	8411.89
448.25	8404.86
448.43	8369.76
448.62	8531.25
448.80	8402.52
448.99	8582.74
449.17	8887.01
449.36	8587.43
449.54	8725.52
449.73	8772.33
449.91	8903.40
450.10	9060.21
450.28	8997.02
450.46	9153.84
450.65	8856.59
450.83	9191.28
451.02	8975.95
451.20	9067.24
451.39	9006.38
451.57	9081.28
451.76	8966.59
451.94	9289.59
452.13	9540.02
452.31	9088.30
452.49	9076.60
452.68	9397.25
452.86	9369.16
453.05	9165.54
453.23	9341.08
453.42	9331.72
453.60	9376.19
453.78	9533.00
453.97	9493.21
454.15	9329.38
454.34	9451.08
454.52	9600.88
454.70	9582.15
454.89	9643.01
455.07	9846.63
455.26	9657.05
455.44	9710.88
455.62	9921.53
455.81	9968.34
455.99	9937.91
456.17	10019.83
456.36	9874.72
456.54	9933.23
456.73	9963.66
456.91	10389.64
457.09	10209.42
457.28	10399.00
457.46	10209.42
457.64	10520.71
457.83	10403.68
458.01	10265.59
458.19	10649.44
458.38	10450.49
458.56	10551.14
458.74	10583.90
458.93	10796.89
459.11	10614.33
459.29	10640.08
459.48	10537.09
459.66	10485.60
459.84	10541.77
460.03	10923.28
460.21	10956.05
460.39	10867.11
460.57	10810.93
460.76	11311.81
460.94	10984.13
461.12	11061.37
461.31	11061.37
461.49	10939.66
461.67	11152.65
461.85	11265.00
462.04	11311.81
462.22	11796.30
462.40	11367.98
462.59	11419.47
462.77	11421.81
462.95	11545.86
463.13	11522.46
463.32	11475.65
463.50	11747.15
463.68	11538.84
463.86	11847.79
464.05	11655.87
464.23	11480.33
464.41	11946.09
464.59	11644.17
464.78	12142.70
464.96	11957.80
465.14	11679.27
465.32	12016.31
465.50	12093.55
465.69	12114.61
465.87	12095.89
466.05	11960.14
466.23	12201.21
466.41	12231.64
466.60	12416.54
466.78	12100.57
466.96	11899.28
467.14	12222.28
467.32	12308.88
467.51	12601.44
467.69	11934.39
467.87	12311.22
468.05	12528.89
468.23	12297.17
468.41	12243.34
468.60	12650.60
468.78	12578.04
468.96	12594.42
469.14	12699.75
469.32	12765.28
469.50	12472.71
469.69	12802.73
469.87	12863.58
470.05	13025.08
470.23	13275.52
470.41	12915.08
470.59	13064.87
470.77	13146.79
470.95	13156.15
471.14	13586.81
471.32	13151.47
471.50	13219.35
471.68	13310.63
471.86	13528.30
472.04	13650.00
472.22	14019.81
472.40	13874.70
472.58	13834.91
472.77	14120.45
472.95	13907.46
473.13	14223.44
473.31	14005.77
473.49	13928.53
473.67	14127.47
473.85	14064.28
474.03	14607.28
474.21	14420.04
474.39	14532.39
474.57	14415.36
474.75	14567.49
474.93	14792.19
475.12	14963.04
475.30	14974.75
475.48	14953.68
475.66	15129.22
475.84	15068.37
476.02	15096.46
476.20	15475.62
476.38	15342.21
476.56	15669.89
476.74	15878.19
476.92	15789.25
477.10	15590.31
477.28	16067.78
477.46	15913.30
477.64	16191.83
477.82	16650.57
478.00	16716.11
478.18	16718.45
478.36	16947.82
478.54	17095.27
478.72	16755.90
478.90	16996.97
479.08	17411.25
479.26	17530.61
479.44	17425.29
479.62	17422.95
479.80	17731.90
479.98	18026.81
480.16	18427.04
480.34	18057.23
480.52	18738.33
480.70	18438.74
480.88	18391.93
481.06	18455.12
481.24	18675.13
481.41	19094.09
481.59	18930.25
481.77	19157.28
481.95	19349.21
482.13	19407.72
482.31	19735.40
482.49	19812.63
482.67	19997.54
482.85	19920.30
483.03	20650.55
483.21	20472.67
483.39	20882.26
483.57	20769.91
483.74	21132.70
483.92	21252.06
484.10	20870.56
484.28	21837.20
484.46	21600.80
484.64	22230.41
484.82	21406.54
485.00	22317.01
485.18	22567.45
485.35	22604.89
485.53	22609.58
485.71	22551.06
485.89	23459.19
486.07	23297.69
486.25	23300.03
486.43	23283.65
486.61	23784.52
486.78	23723.67
486.96	24049.00
487.14	24311.14
487.32	24418.81
487.50	24423.49
487.68	24879.89
487.85	24947.77
488.03	25696.74
488.21	25570.35
488.39	25565.67
488.57	25818.45
488.75	26108.68
488.92	26551.04
489.10	26480.82
489.28	26593.17
489.46	27033.19
489.64	26782.75
489.81	27257.88
489.99	27545.76
490.17	27204.05
490.35	27658.11
490.53	28088.77
490.70	28458.57
490.88	28320.48
491.06	28467.94
491.24	28481.98
491.41	28730.08
491.59	28924.34
491.77	28765.18
491.95	29394.79
492.13	29752.89
492.30	29567.99
492.48	29944.81
492.66	30005.67
492.84	30239.72
493.01	30553.35
493.19	30822.51
493.37	30705.49
493.54	30686.76
493.72	31417.01
493.90	31157.21
494.08	31339.77
494.25	31646.38
494.43	31608.93
494.61	31908.52
494.79	32318.12
494.96	32271.31
495.14	32580.26
495.32	33006.23
495.49	32957.08
495.67	33502.43
495.85	33031.98
496.02	33572.64
496.20	33666.27
496.38	33986.92
496.55	34108.63
496.73	34471.41
496.91	34117.99
497.09	34462.05
497.26	34323.96
497.44	34373.11
497.62	34768.66
497.79	35651.04
497.97	35398.26
498.14	35674.45
498.32	35854.67
498.50	36039.57
498.67	36318.09
498.85	35875.73
499.03	36297.03
499.20	36669.17
499.38	36964.08
499.56	36643.43
499.73	36947.70
499.91	36769.82
500.08	37219.20
500.26	37266.01
500.44	37368.99
500.61	37460.27
500.79	37614.75
500.97	37907.32
501.14	38382.45
501.32	38223.29
501.49	38197.54
501.67	38532.24
501.84	38536.92
502.02	38693.74
502.20	38646.93
502.37	38651.61
502.55	38897.36
502.72	39267.17
502.90	38731.18
503.07	39503.56
503.25	39218.02
503.43	39402.92
503.60	39714.21
503.78	39892.09
503.95	39901.45
504.13	40055.93
504.30	40093.38
504.48	39976.35
504.65	40224.45
504.83	40694.89
505.01	41301.09
505.18	41069.38
505.36	40788.52
505.53	41041.29
505.71	41055.34
505.88	41596.00
506.06	41270.67
506.23	41628.77
506.41	41588.98
506.58	42347.31
506.76	41832.39
506.93	42359.02
507.11	42206.88
507.28	42169.43
507.46	41738.77
507.63	42511.15
507.81	42815.42
507.98	42815.42
508.16	42920.74
508.33	43093.94
508.50	43194.59
508.68	43531.62
508.85	43782.06
509.03	43430.98
509.20	43634.61
509.38	44435.07
509.55	44002.07
509.73	44203.36
509.90	44158.89
510.08	43964.62
510.25	44177.61
510.42	43863.98
510.60	44711.25
510.77	45022.54
510.95	44596.57
511.12	44870.41
511.30	44896.16
511.47	45422.78
511.64	45441.50
511.82	45902.59
511.99	45230.85
512.17	45490.65
512.34	45521.08
512.51	46197.49
512.69	46202.18
512.86	46274.73
513.04	46705.39
513.21	46211.54
513.38	46628.15
513.56	46698.37
513.73	46288.77
513.90	46742.84
514.08	46679.64
514.25	47224.99
514.43	47150.09
514.60	47070.51
514.77	47159.45
514.95	47309.25
515.12	47255.42
515.29	47283.50
515.47	47938.85
515.64	47606.50
515.81	47255.42
515.99	47601.82
516.16	48299.30
516.33	47868.64
516.51	48285.25
516.68	48233.76
516.85	48069.92
517.03	48612.93
517.20	48308.66
517.37	48254.82
517.54	48217.38
517.72	48839.96
517.89	48767.40
518.06	49155.93
518.24	48992.09
518.41	48938.26
518.58	49172.31
518.75	48968.69
518.93	49277.64
519.10	49492.97
519.27	49654.47
519.45	49294.02
519.62	49516.37
519.79	49581.91
519.96	49656.81
520.14	49607.65
520.31	49872.14
520.48	50106.19
520.65	50047.68
520.83	50450.25
521.00	50192.79
521.17	50461.95
521.34	50588.34
521.52	50539.19
521.69	50703.03
521.86	50494.72
522.03	50700.68
522.20	51096.24
522.38	51093.89
522.55	51180.49
522.72	50988.57
522.89	51068.15
523.07	51187.52
523.24	51133.68
523.41	51618.17
523.58	51171.13
523.75	51606.47
523.92	51697.75
524.10	51913.08
524.27	51805.42
524.44	51742.22
524.61	51863.93
524.78	52154.16
524.96	51957.55
525.13	51819.46
525.30	52233.74
525.47	52245.44
525.64	51880.31
525.81	52399.91
525.98	52493.54
526.16	52584.82
526.33	52013.73
526.50	52605.88
526.67	52229.05
526.84	52584.82
527.01	52528.64
527.18	52758.02
527.36	52715.89
527.53	52872.70
527.70	52835.25
527.87	53233.14
528.04	52924.19
528.21	53380.60
528.38	53081.01
528.55	53434.43
528.72	53165.27
528.89	52952.28
529.07	53081.01
529.24	53034.20
529.41	53347.83
529.58	53600.61
529.75	53621.67
529.92	53516.35
530.09	53539.75
530.26	53572.52
530.43	53656.78
530.60	53666.14
530.77	53886.15
530.94	53951.69
531.11	53883.81
531.28	53738.70
531.46	53956.37
531.63	53996.16
531.80	53998.50
531.97	54218.51
532.14	54284.04
532.31	54213.83
532.48	54417.46
532.65	54314.47
532.82	54351.92
532.99	54593.00
533.16	54244.26
533.33	54265.32
533.50	54632.78
533.67	54323.83
533.84	54482.99
534.01	54511.08
534.18	54548.53
534.35	55030.68
534.52	54880.88
534.69	55025.99
534.86	55030.68
535.03	55110.25
535.20	55072.81
535.37	55236.64
535.54	55260.05
535.71	55126.64
535.88	55065.78
536.05	55049.40
536.22	55250.69
536.38	55320.90
536.55	55456.65
536.72	55447.29
536.89	55238.98
537.06	55564.32
537.23	55508.14
537.40	55569.00
537.57	55475.38
537.74	55688.37
537.91	55686.03
538.08	55697.73
538.25	55540.91
538.42	55433.25
538.59	56074.55
538.75	55880.29
538.92	55751.56
539.09	56044.13
539.26	55838.16
539.43	55877.95
539.60	56018.38
539.77	56083.92
539.94	56315.63
540.11	56086.26
540.28	56240.73
540.44	56156.47
540.61	56116.68
540.78	56104.98
540.95	56086.26
541.12	56198.60
541.29	56062.85
541.46	56308.61
541.62	56299.25
541.79	56552.02
541.96	56046.47
542.13	56420.95
542.30	56336.69
542.47	56713.52
542.63	56523.94
542.80	56437.34
542.97	56858.63
543.14	57073.96
543.31	56910.13
543.48	57015.45
543.64	57338.44
543.81	56872.68
543.98	57097.37
544.15	56996.73
544.32	57256.53
544.48	57359.51
544.65	57237.80
544.82	57298.65
544.99	57233.12
545.16	57570.16
545.32	57315.04
545.49	57411.00
545.66	57151.20
545.83	57308.02
546.00	57499.94
546.16	57434.41
546.33	57413.34
546.50	57485.90
546.67	57645.05
546.83	57361.85
547.00	57680.16
547.17	57542.07
547.34	57439.09
547.50	57956.35
547.67	57710.59
547.84	57792.51
548.00	57968.05
548.17	58138.91
548.34	57839.32
548.51	58024.22
548.67	57939.96
548.84	58035.92
549.01	57752.72
549.18	58127.20
549.34	57979.75
549.51	58213.80
549.68	58075.71
549.84	57923.58
550.01	58361.26
550.18	57902.51
550.34	58192.74
550.51	58375.30
550.68	58143.59
550.84	58131.89
551.01	58560.20
551.18	58344.87
551.34	58227.85
551.51	58375.30
551.68	58342.53
551.84	58394.03
552.01	58300.40
552.18	58681.91
552.34	58424.45
552.51	58735.74
552.68	58616.38
552.84	58518.07
553.01	58859.79
553.18	58614.04
553.34	58850.43
553.51	58607.01
553.67	58436.16
553.84	58859.79
554.01	58820.00
554.17	58958.09
554.34	58880.86
554.51	58951.07
554.67	58871.49
554.84	58899.58
555.00	58960.44
555.17	58913.62
555.33	58841.07
555.50	58700.64
555.67	58791.92
555.83	58735.74
556.00	59000.22
556.16	59210.87
556.33	59004.91
556.50	59290.45
556.66	59330.24
556.83	58944.05
556.99	59377.05
557.16	59332.58
557.32	59227.26
557.49	59334.92
557.65	59105.55
557.82	59100.87
557.98	59044.69
558.15	59178.10
558.32	59426.20
558.48	59250.66
558.65	59269.39
558.81	59199.17
558.98	59154.70
559.14	59519.82
559.31	59391.09
559.47	59426.20
559.64	59653.23
559.80	59721.11
559.97	59641.53
560.13	59473.01
560.30	59561.95
560.46	59515.14
560.63	59573.66
560.79	59664.94
560.96	59704.73
561.12	59751.54
561.29	59561.95
561.45	59657.91
561.61	59620.47
561.78	59547.91
561.94	59660.26
562.11	59632.17
562.27	59716.43
562.44	59826.43
562.60	59906.01
562.77	59681.32
562.93	59543.23
563.10	59896.65
563.26	59744.51
563.42	60062.83
563.59	59756.22
563.75	59891.97
563.92	59962.18
564.08	59765.58
564.24	59938.78
564.41	59957.50
564.57	60032.40
564.74	59936.44
564.90	59817.07
565.07	59842.82
565.23	59929.42
565.39	59824.09
565.56	60161.13
565.72	59894.31
565.88	59906.01
566.05	59833.46
566.21	59945.80
566.38	59985.59
566.54	60142.41
566.70	60154.11
566.87	59978.57
567.03	60009.00
567.19	60240.71
567.36	60018.36
567.52	60090.91
567.68	60486.46
567.85	60093.25
568.01	60175.17
568.17	60074.53
568.34	60149.43
568.50	60186.88
568.66	60193.90
568.83	60133.04
568.99	60107.30
569.15	60158.79
569.32	60273.48
569.48	60154.11
569.64	60191.56
569.81	60184.54
569.97	60069.85
570.13	60158.79
570.30	60278.16
570.46	60149.43
570.62	60388.16
570.78	60381.14
570.95	60217.30
571.11	60449.02
571.27	60170.49
571.43	60320.29
571.60	60273.48
571.76	60406.89
571.92	60381.14
572.09	60367.10
572.25	60392.84
572.41	60418.59
572.57	60479.44
572.74	60631.58
572.90	60374.12
573.06	60521.57
573.22	60392.84
573.38	60561.36
573.55	60317.95
573.71	60561.36
573.87	60580.09
574.03	60537.96
574.20	60580.09
574.36	60535.62
574.52	60643.28
574.68	60556.68
574.84	60739.24
575.01	60603.49
575.17	60540.30
575.33	60444.33
575.49	60488.80
575.65	60671.37
575.82	60561.36
575.98	60673.71
576.14	60776.69
576.30	60566.04
576.46	60530.93
576.62	60535.62
576.79	60540.30
576.95	60434.97
577.11	60451.36
577.27	60500.51
577.43	60640.94
577.59	60460.72
577.75	60584.77
577.92	60437.31
578.08	60631.58
578.24	60669.03
578.40	60781.37
578.56	60811.80
578.72	60774.35
578.88	60781.37
579.04	60835.20
579.21	60729.88
579.37	60804.78
579.53	60931.17
579.69	60416.25
579.85	60676.05
580.01	60619.88
580.17	60755.63
580.33	60853.93
580.49	60814.14
580.65	60694.77
580.82	60666.69
580.98	60741.58
581.14	60502.85
581.30	60772.01
581.46	60762.65
581.62	60804.78
581.78	60650.30
581.94	60657.32
582.10	60994.36
582.26	60748.60
582.42	60610.51
582.58	60807.12
582.74	60968.61
582.90	60910.10
583.06	60690.09
583.22	60729.88
583.38	60811.80
583.54	60683.07
583.70	60706.47
583.86	60907.76
584.02	60584.77
584.18	60860.95
584.34	60706.47
584.50	60884.36
584.66	60900.74
584.82	60666.69
584.98	60935.85
585.14	60928.83
585.30	60643.28
585.46	60795.42
585.62	60896.06
585.78	61109.05
585.94	60729.88
586.10	60896.06
586.26	60954.57
586.42	60938.19
586.58	60743.92
586.74	60715.84
586.90	60842.23
587.06	60884.36
587.22	61057.56
587.38	60931.17
587.54	60924.14
587.70	61064.58
587.86	60802.44
588.02	60697.11
588.18	60996.70
588.34	60863.29
588.49	60935.85
