SpectraSuite Data File
++++++++++++++++++++++++++++++++++++
Date: Fri Oct 25 11:23:03 EDT 2013
User: price-jones
Dark Spectrum Present: No
Reference Spectrum Present: No
Number of Sampled Component Spectra: 1
Spectrometers: USB2+H05261
Integration Time (usec): 100000 (USB2+H05261)
Spectra Averaged: 1 (USB2+H05261)
Boxcar Smoothing: 0 (USB2+H05261)
Correct for Electrical Dark: No (USB2+H05261)
Strobe/Lamp Enabled: No (USB2+H05261)
Correct for Detector Non-linearity: No (USB2+H05261)
Correct for Stray Light: No (USB2+H05261)
Number of Pixels in Processed Spectrum: 2048
>>>>>Begin Processed Spectral Data<<<<<
365.73	170.86
365.92	170.86
366.12	170.86
366.32	133.41
366.52	126.39
366.72	105.32
366.91	46.81
367.11	124.05
367.31	102.98
367.51	131.07
367.70	128.73
367.90	189.58
368.10	110.01
368.30	30.43
368.49	93.62
368.69	145.11
368.89	189.58
369.09	156.82
369.28	252.78
369.48	124.05
369.68	180.22
369.87	131.07
370.07	170.86
370.27	266.82
370.47	325.33
370.66	559.39
370.86	695.14
371.06	643.65
371.25	674.07
371.45	683.44
371.65	622.58
371.84	617.90
372.04	697.48
372.24	697.48
372.44	711.52
372.63	781.74
372.83	676.41
373.03	744.29
373.22	709.18
373.42	784.08
373.62	697.48
373.81	748.97
374.01	812.17
374.21	835.57
374.40	861.32
374.60	926.85
374.79	837.91
374.99	821.53
375.19	823.87
375.38	821.53
375.58	833.23
375.78	882.38
375.97	919.83
376.17	884.72
376.37	866.00
376.56	819.19
376.76	875.36
376.95	854.30
377.15	910.47
377.35	971.32
377.54	901.11
377.74	912.81
377.93	863.66
378.13	964.30
378.33	922.17
378.52	837.91
378.72	1036.86
378.91	947.92
379.11	938.55
379.31	945.58
379.50	997.07
379.70	940.90
379.89	1025.15
380.09	964.30
380.28	919.83
380.48	1032.18
380.68	957.28
380.87	1060.26
381.07	1041.54
381.26	1097.71
381.46	997.07
381.65	1095.37
381.85	978.34
382.04	1006.43
382.24	1095.37
382.43	1043.88
382.63	1104.73
382.83	1132.82
383.02	1130.48
383.22	1078.99
383.41	1095.37
383.61	1060.26
383.80	1142.18
384.00	1128.14
384.19	1090.69
384.39	1170.27
384.58	1174.95
384.78	1200.69
384.97	1235.80
385.17	1167.93
385.36	1132.82
385.56	1153.88
385.75	1109.41
385.95	1238.14
386.14	1188.99
386.34	1226.44
386.53	1245.16
386.72	1149.20
386.92	1296.66
387.11	1294.32
387.31	1296.66
387.50	1184.31
387.70	1259.21
387.89	1263.89
388.09	1317.72
388.28	1203.04
388.48	1317.72
388.67	1352.83
388.86	1320.06
389.06	1212.40
389.25	1348.15
389.45	1296.66
389.64	1299.00
389.84	1390.28
390.03	1359.85
390.22	1273.25
390.42	1338.79
390.61	1362.19
390.81	1416.02
391.00	1413.68
391.19	1521.35
391.39	1341.13
391.58	1493.26
391.78	1479.22
391.97	1444.11
392.16	1373.89
392.36	1575.18
392.55	1544.75
392.75	1472.20
392.94	1551.78
393.13	1511.99
393.33	1514.33
393.52	1629.01
393.71	1453.47
393.91	1680.50
394.10	1584.54
394.29	1666.46
394.49	1629.01
394.68	1724.97
394.88	1689.87
395.07	1736.68
395.26	1636.03
395.46	1675.82
395.65	1657.10
395.84	1778.81
396.04	1764.76
396.23	1757.74
396.42	1729.66
396.62	1830.30
396.81	1689.87
397.00	1710.93
397.19	1811.57
397.39	1834.98
397.58	1806.89
397.77	1790.51
397.97	1806.89
398.16	1874.77
398.35	1940.30
398.55	1823.28
398.74	1891.15
398.93	1975.41
399.12	1834.98
399.32	1914.56
399.51	1991.80
399.70	1944.99
399.90	1991.80
400.09	2080.74
400.28	2106.48
400.47	2083.08
400.67	2125.21
400.86	2108.82
401.05	2076.06
401.24	2043.29
401.44	2062.01
401.63	2136.91
401.82	2176.70
402.01	2143.93
402.21	2188.40
402.40	2108.82
402.59	2225.85
402.78	2153.29
402.97	2319.47
403.17	2188.40
403.36	2265.64
403.55	2242.23
403.74	2366.28
403.93	2396.71
404.13	2434.16
404.32	2394.37
404.51	2408.41
404.70	2490.33
404.89	2331.17
405.09	2485.65
405.28	2413.09
405.47	2462.24
405.66	2551.18
405.85	2523.10
406.05	2562.89
406.24	2569.91
406.43	2630.76
406.62	2719.70
406.81	2686.94
407.00	2654.17
407.20	2630.76
407.39	2539.48
407.58	2722.04
407.77	2773.53
407.96	2832.05
408.15	2818.00
408.34	2743.11
408.54	2897.58
408.73	2810.98
408.92	2944.39
409.11	2911.63
409.30	2881.20
409.49	2846.09
409.68	2836.73
409.87	2949.08
410.07	3002.91
410.26	3007.59
410.45	2953.76
410.64	3080.14
410.83	3080.14
411.02	3152.70
411.21	3304.84
411.40	3103.55
411.59	3290.79
411.78	3323.56
411.98	3243.98
412.17	3286.11
412.36	3356.33
412.55	3396.12
412.74	3323.56
412.93	3391.44
413.12	3400.80
413.31	3592.72
413.50	3459.31
413.69	3588.04
413.88	3632.51
414.07	3583.36
414.26	3559.95
414.45	3761.24
414.64	3590.38
414.83	3812.73
415.02	3719.11
415.22	3918.06
415.41	3871.25
415.60	3887.63
415.79	3934.44
415.98	3934.44
416.17	4025.72
416.36	4011.68
416.55	4011.68
416.74	4098.28
416.93	4138.07
417.12	4021.04
417.31	4241.05
417.50	4227.01
417.69	4337.01
417.88	4428.29
418.07	4337.01
418.26	4332.33
418.45	4348.72
418.64	4599.15
418.83	4327.65
419.02	4395.53
419.21	4507.87
419.39	4559.36
419.58	4566.39
419.77	4519.57
419.96	4631.92
420.15	4688.09
420.34	4638.94
420.53	4596.81
420.72	4652.98
420.91	4669.37
421.10	4709.16
421.29	4781.71
421.48	4622.56
421.67	4802.78
421.86	4713.84
422.05	4842.57
422.24	4887.04
422.43	4938.53
422.61	4975.98
422.80	4940.87
422.99	4919.81
423.18	5004.07
423.37	5067.26
423.56	4854.27
423.75	4968.96
423.94	4924.49
424.13	4620.22
424.32	4877.68
424.50	4950.23
424.69	5203.01
424.88	5214.71
425.07	4936.19
425.26	4978.32
425.45	4973.64
425.64	5076.62
425.83	5181.95
426.01	5259.18
426.20	5310.68
426.39	5195.99
426.58	5064.92
426.77	5057.90
426.96	5144.50
427.15	5238.12
427.33	5249.82
427.52	5219.39
427.71	5345.78
427.90	5231.10
428.09	5392.59
428.28	5451.11
428.46	5509.62
428.65	5497.92
428.84	5570.48
429.03	5430.04
429.22	5373.87
429.40	5462.81
429.59	5689.84
429.78	5472.17
429.97	5322.38
430.16	5542.39
430.34	5565.79
430.53	5668.78
430.72	5746.02
430.91	5544.73
431.10	5706.23
431.28	5832.62
431.47	5937.94
431.66	6085.39
431.85	5877.09
432.03	6022.20
432.22	5980.07
432.41	6111.14
432.60	5905.17
432.79	5874.74
432.97	6057.31
433.16	5783.46
433.35	6111.14
433.54	6249.23
433.72	6153.27
433.91	6094.76
434.10	6139.23
434.28	6204.76
434.47	6167.31
434.66	6377.96
434.85	6586.27
435.03	6431.79
435.22	6382.64
435.41	6438.81
435.59	6417.75
435.78	6417.75
435.97	6382.64
436.16	6541.80
436.34	6530.09
436.53	6464.56
436.72	6700.95
436.90	6473.92
437.09	6630.74
437.28	6516.05
437.46	6574.56
437.65	6516.05
437.84	6909.26
438.02	6827.34
438.21	6902.24
438.40	6682.23
438.58	7066.08
438.77	6970.12
438.96	7068.42
439.14	7148.00
439.33	7377.37
439.52	7215.87
439.70	7297.79
439.89	7300.13
440.08	7506.10
440.26	7353.96
440.45	7353.96
440.63	7592.70
440.82	7632.49
441.01	7456.95
441.19	7761.22
441.38	7819.73
441.57	7854.84
441.75	7850.16
441.94	8037.40
442.12	7960.16
442.31	8182.51
442.50	8234.00
442.68	8063.15
442.87	8006.97
443.05	8208.26
443.24	8292.52
443.43	8194.22
443.61	8390.82
443.80	8400.18
443.98	8231.66
444.17	8124.00
444.35	8313.58
444.54	8425.93
444.73	8449.33
444.91	8313.58
445.10	8332.31
445.28	8416.57
445.47	8329.97
445.65	8559.34
445.84	8482.10
446.02	8477.42
446.21	8617.85
446.39	8348.69
446.58	8512.53
446.77	8594.45
446.95	8435.29
447.14	8634.24
447.32	8667.00
447.51	8528.91
447.69	8533.59
447.88	8652.96
448.06	8568.70
448.25	8531.25
448.43	8744.24
448.62	8650.62
448.80	8622.53
448.99	8807.44
449.17	8802.75
449.36	8781.69
449.54	8805.10
449.73	8999.36
449.91	9266.18
450.10	8973.61
450.28	9118.73
450.46	9198.31
450.65	9027.45
450.83	9158.52
451.02	8943.19
451.20	9430.02
451.39	9114.05
451.57	9352.78
451.76	9291.93
451.94	9266.18
452.13	9528.32
452.31	9427.68
452.49	9399.59
452.68	9572.79
452.86	9476.83
453.05	9397.25
453.23	9614.92
453.42	9500.23
453.60	9441.72
453.78	9647.69
453.97	9617.26
454.15	9624.28
454.34	9600.88
454.52	9776.42
454.70	9729.61
454.89	9668.75
455.07	9879.40
455.26	9909.83
455.44	10167.29
455.62	9991.75
455.81	10059.62
455.99	9928.55
456.17	10171.97
456.36	10087.71
456.54	10228.14
456.73	10361.55
456.91	10509.01
457.09	10572.20
457.28	10810.93
457.46	10424.75
457.64	10640.08
457.83	10480.92
458.01	10494.96
458.19	10745.40
458.38	10579.22
458.56	10974.77
458.74	10672.84
458.93	10834.34
459.11	10750.08
459.29	10951.37
459.48	11066.05
459.66	10897.53
459.84	11152.65
460.03	10909.24
460.21	11290.74
460.39	10918.60
460.57	11260.32
460.76	11176.06
460.94	11293.08
461.12	11253.30
461.31	11089.46
461.49	11494.37
461.67	11267.34
461.85	11791.62
462.04	11419.47
462.22	11751.83
462.40	11683.95
462.59	11520.12
462.77	11721.40
462.95	11595.01
463.13	11843.11
463.32	11815.02
463.50	11824.39
463.68	11918.01
463.86	11967.16
464.05	11833.75
464.23	11857.15
464.41	11889.92
464.59	11840.77
464.78	12168.45
464.96	12437.61
465.14	11934.39
465.32	12339.30
465.50	12088.87
465.69	12351.01
465.87	12348.67
466.05	12145.04
466.23	12180.15
466.41	12311.22
466.60	12674.00
466.78	12245.68
466.96	12037.38
467.14	12477.40
467.32	12592.08
467.51	12645.91
467.69	12376.75
467.87	12648.26
468.05	12849.54
468.23	12798.05
468.41	12498.46
468.60	12348.67
468.78	12924.44
468.96	12823.80
469.14	12975.93
469.32	13083.59
469.50	12924.44
469.69	13249.77
469.87	13275.52
470.05	13427.65
470.23	13406.59
470.41	13212.32
470.59	13280.20
470.77	13479.15
470.95	13364.46
471.14	13521.27
471.32	13165.51
471.50	13654.69
471.68	13486.17
471.86	13827.88
472.04	13444.04
472.22	14134.50
472.40	13748.31
472.58	14193.01
472.77	14143.86
472.95	14345.14
473.13	14768.78
473.31	14401.32
473.49	14377.91
473.67	14415.36
473.85	14445.79
474.03	14609.62
474.21	14848.36
474.39	14843.68
474.57	14941.98
474.75	14991.13
474.93	15098.80
475.12	15176.03
475.30	15279.02
475.48	15337.53
475.66	15332.85
475.84	15176.03
476.02	15793.94
476.20	15489.67
476.38	16147.36
476.56	16446.94
476.74	16418.86
476.92	16245.66
477.10	15950.75
477.28	16233.96
477.46	16381.41
477.64	16367.37
477.82	16758.24
478.00	17160.81
478.18	16830.79
478.36	17048.46
478.54	17397.20
478.72	17256.77
478.90	17563.38
479.08	17617.21
479.26	18125.11
479.44	17781.05
479.62	18244.48
479.80	18281.92
479.98	18279.58
480.16	18888.12
480.34	18614.28
480.52	18640.03
480.70	18787.48
480.88	18771.10
481.06	18616.62
481.24	18853.02
481.41	19456.87
481.59	19550.49
481.77	19676.88
481.95	19613.69
482.13	20079.46
482.31	19957.75
482.49	20673.95
482.67	20360.32
482.85	20697.36
483.03	20964.18
483.21	21015.67
483.39	21289.51
483.57	21076.52
483.74	21448.67
483.92	21532.93
484.10	21542.29
484.28	22008.06
484.46	22398.93
484.64	22721.92
484.82	22169.55
485.00	22717.24
485.18	22738.30
485.35	23091.73
485.53	23276.63
485.71	23150.24
485.89	23854.74
486.07	23529.41
486.25	23716.65
486.43	23931.98
486.61	24058.37
486.78	23997.51
486.96	24250.29
487.14	24933.73
487.32	24924.36
487.50	25085.86
487.68	25453.33
487.85	25507.16
488.03	26008.03
488.21	26209.32
488.39	26431.67
488.57	26405.92
488.75	26410.60
488.92	26845.94
489.10	27026.17
489.28	27218.09
489.46	27725.99
489.64	27625.34
489.81	27723.65
489.99	27800.88
490.17	28128.56
490.35	28533.47
490.53	28229.20
490.70	28802.63
490.88	28797.95
491.06	29254.36
491.24	29287.12
491.41	29551.60
491.59	29333.93
491.77	29539.90
491.95	30085.25
492.13	29818.42
492.30	30436.33
492.48	30155.46
492.66	30501.86
492.84	31157.21
493.01	31089.34
493.19	30937.20
493.37	31311.69
493.54	31578.51
493.72	31990.44
493.90	31810.22
494.08	32055.98
494.25	32165.98
494.43	32353.23
494.61	32662.18
494.79	32933.68
494.96	33113.90
495.14	33345.61
495.32	33862.87
495.49	33076.45
495.67	33443.91
495.85	34087.56
496.02	34080.54
496.20	34190.55
496.38	34602.48
496.55	34651.63
496.73	35370.18
496.91	35070.59
497.09	35089.31
497.26	35566.78
497.44	35534.01
497.62	35454.44
497.79	36039.57
497.97	35632.32
498.14	36704.28
498.32	36175.32
498.50	36591.94
498.67	37153.66
498.85	36613.00
499.03	37191.11
499.20	37118.56
499.38	37593.68
499.56	37530.49
499.73	37516.45
499.91	37666.24
500.08	37902.64
500.26	37778.59
500.44	38459.68
500.61	38756.93
500.79	38223.29
500.97	38593.09
501.14	39185.25
501.32	38705.44
501.49	39239.08
501.67	39124.40
501.84	39636.97
502.02	39339.72
502.20	39321.00
502.37	39833.58
502.55	39585.48
502.72	40074.65
502.90	39999.76
503.07	40332.11
503.25	40266.58
503.43	40589.57
503.60	40446.80
503.78	40807.24
503.95	40278.28
504.13	40989.80
504.30	40636.38
504.48	40933.63
504.65	41235.56
504.83	41593.66
505.01	41883.89
505.18	41619.41
505.36	41937.72
505.53	41787.92
505.71	42302.84
505.88	42291.14
506.06	41820.69
506.23	42305.18
506.41	42452.64
506.58	42759.25
506.76	42309.86
506.93	42855.21
507.11	43040.11
507.28	43119.69
507.46	43143.09
507.63	43306.93
507.81	43580.78
507.98	43086.92
508.16	43597.16
508.33	43835.89
508.50	43721.21
508.68	44388.26
508.85	44519.33
509.03	44385.92
509.20	44343.79
509.38	44460.82
509.55	44612.95
509.73	45120.85
509.90	44727.64
510.08	44722.96
510.25	45188.72
510.42	45425.12
510.60	45287.03
510.77	45471.93
510.95	45890.88
511.12	45586.61
511.30	45661.51
511.47	45572.57
511.64	46244.30
511.82	46431.55
511.99	45837.05
512.17	46248.99
512.34	46110.89
512.51	46829.44
512.69	47063.49
512.86	46789.65
513.04	47107.96
513.21	46866.89
513.38	47002.64
513.56	47449.68
513.73	47278.82
513.90	47320.95
514.08	47358.40
514.25	47592.45
514.43	47791.40
514.60	47800.76
514.77	47854.59
514.95	48236.10
515.12	47861.61
515.29	48533.35
515.47	48308.66
515.64	48622.29
515.81	48144.82
515.99	48715.91
516.16	48713.57
516.33	48687.82
516.51	49366.58
516.68	49092.74
516.85	48699.53
517.03	49198.06
517.20	49134.87
517.37	49560.84
517.54	49511.69
517.72	49434.45
517.89	49602.97
518.06	49511.69
518.24	49329.13
518.41	49397.01
518.58	49811.28
518.75	49799.58
518.93	50129.59
519.10	49984.48
519.27	50302.79
519.45	50483.01
519.62	50213.85
519.79	50490.04
519.96	50354.29
520.14	50567.27
520.31	50347.26
520.48	51016.66
520.65	50646.85
520.83	50836.44
521.00	51030.70
521.17	50883.25
521.34	51192.20
521.52	51110.28
521.69	51337.31
521.86	51274.12
522.03	51466.04
522.20	51725.84
522.38	51484.76
522.55	51952.87
522.72	51735.20
522.89	51716.48
523.07	52025.43
523.24	52065.22
523.41	52193.95
523.58	51840.53
523.75	52322.68
523.92	52289.91
524.10	52154.16
524.27	52207.99
524.44	52575.45
524.61	52339.06
524.78	52446.72
524.96	52678.44
525.13	52591.84
525.30	52879.72
525.47	52982.71
525.64	52959.30
525.81	52987.39
525.98	53106.76
526.16	53141.86
526.33	53127.82
526.50	53593.59
526.67	53052.92
526.84	53389.96
527.01	53109.10
527.18	53495.28
527.36	53518.69
527.53	53385.28
527.70	53567.84
527.87	53829.98
528.04	53364.21
528.21	53972.75
528.38	53719.98
528.55	53888.49
528.72	53757.42
528.89	53815.94
529.07	53790.19
529.24	53703.59
529.41	53956.37
529.58	54258.30
529.75	54106.16
529.92	54286.39
530.09	54429.16
530.26	54143.61
530.43	54363.62
530.60	53947.01
530.77	54328.52
530.94	54609.38
531.11	54532.14
531.28	54773.22
531.46	54415.11
531.63	54703.00
531.80	54597.68
531.97	54600.02
532.14	54894.92
532.31	54958.12
532.48	54796.62
532.65	54923.01
532.82	54901.95
532.99	55175.79
533.16	54913.65
533.33	55194.51
533.50	55206.22
533.67	55517.51
533.84	55224.94
534.01	55201.53
534.18	55384.10
534.35	55559.64
534.52	55374.73
534.69	55538.57
534.86	55669.64
535.03	55501.12
535.20	55515.17
535.37	55522.19
535.54	55606.45
535.71	55463.67
535.88	55934.12
536.05	55618.15
536.22	55863.91
536.38	55875.61
536.55	55955.19
536.72	56104.98
536.89	55852.20
537.06	55891.99
537.23	55910.72
537.40	55906.04
537.57	55952.85
537.74	56149.45
537.91	56334.35
538.08	56416.27
538.25	56097.96
538.42	56104.98
538.59	56362.44
538.75	56156.47
538.92	56317.97
539.09	56498.19
539.26	56512.23
539.43	56521.60
539.60	56493.51
539.77	56537.98
539.94	56781.40
540.11	56535.64
540.28	56837.57
540.44	56680.75
540.61	56720.54
540.78	56554.36
540.95	56828.21
541.12	56961.62
541.29	56931.19
541.46	56837.57
541.62	56818.84
541.79	56954.60
541.96	56427.98
542.13	56832.89
542.30	57179.29
542.47	57034.17
542.63	57247.16
542.80	57174.61
542.97	57591.22
543.14	57567.82
543.31	57462.49
543.48	57322.06
543.64	57813.57
543.81	57921.24
543.98	57715.27
544.15	57593.56
544.32	57797.19
544.48	57771.44
544.65	57638.03
544.82	57743.36
544.99	57581.86
545.16	57780.81
545.32	57815.91
545.49	57818.25
545.66	57928.26
545.83	57862.72
546.00	57928.26
546.16	57851.02
546.33	57844.00
546.50	57818.25
546.67	57991.45
546.83	57591.22
547.00	57939.96
547.17	58113.16
547.34	58157.63
547.50	58262.96
547.67	58321.47
547.84	58323.81
548.00	58293.38
548.17	58646.80
548.34	58321.47
548.51	58489.99
548.67	58525.10
548.84	58534.46
549.01	58302.74
549.18	58539.14
549.34	58632.76
549.51	58527.44
549.68	58408.07
549.84	58688.93
550.01	58541.48
550.18	58440.84
550.34	58899.58
550.51	58667.87
550.68	58635.10
550.84	58454.88
551.01	59054.06
551.18	58770.85
551.34	58880.86
551.51	58710.00
551.68	58934.69
551.84	58747.45
552.01	58834.05
552.18	59054.06
552.34	58808.30
552.51	59014.27
552.68	58922.99
552.84	58843.41
553.01	59171.08
553.18	59229.60
553.34	59032.99
553.51	59112.57
553.67	59264.70
553.84	59002.56
554.01	59451.95
554.17	59213.21
554.34	59323.22
554.51	59299.81
554.67	59241.30
554.84	59281.09
555.00	59627.49
555.17	59304.49
555.33	59250.66
555.50	59299.81
555.67	59182.79
555.83	59517.48
556.00	59285.77
556.16	59702.38
556.33	59592.38
556.50	59491.74
556.66	59444.93
556.83	59641.53
556.99	59746.86
557.16	59910.69
557.32	59737.49
557.49	59889.63
557.65	59552.59
557.82	59648.55
557.98	59772.60
558.15	59639.19
558.32	59667.28
558.48	59618.13
558.65	59807.71
558.81	59760.90
558.98	59608.76
559.14	59884.95
559.31	59854.52
559.47	59861.54
559.64	60116.66
559.80	60001.97
559.97	60158.79
560.13	59833.46
560.30	60083.89
560.46	60053.47
560.63	60020.70
560.79	60214.96
560.96	60177.51
561.12	60240.71
561.29	60086.23
561.45	60126.02
561.61	60296.88
561.78	60023.04
561.94	60119.00
562.11	60058.15
562.27	60245.39
562.44	60224.32
562.60	60299.22
562.77	60168.15
562.93	60046.44
563.10	60301.56
563.26	60142.41
563.42	60388.16
563.59	60350.71
563.75	60119.00
563.92	60334.33
564.08	60254.75
564.24	60425.61
564.41	60198.58
564.57	60109.64
564.74	60416.25
564.90	60210.28
565.07	60179.85
565.23	60374.12
565.39	60381.14
565.56	60413.91
565.72	60392.84
565.88	60498.17
566.05	60355.39
566.21	60247.73
566.38	60374.12
566.54	60449.02
566.70	60552.00
566.87	60807.12
567.03	60355.39
567.19	60816.48
567.36	60542.64
567.52	60605.83
567.68	60699.45
567.85	60690.09
568.01	60636.26
568.17	60617.53
568.34	60781.37
568.50	60484.12
568.66	60449.02
568.83	60664.35
568.99	60788.39
569.15	60701.79
569.32	60633.92
569.48	60472.42
569.64	60622.22
569.81	60678.39
569.97	60640.94
570.13	60898.40
570.30	60755.63
570.46	60657.32
570.62	60896.06
570.78	60720.52
570.95	60694.77
571.11	60722.86
571.27	60767.33
571.43	60790.73
571.60	60893.72
571.76	60683.07
571.92	60708.82
572.09	60748.60
572.25	60985.00
572.41	60846.91
572.57	60846.91
572.74	61102.03
572.90	60725.20
573.06	60814.14
573.22	60743.92
573.38	60994.36
573.55	60966.27
573.71	61165.22
573.87	60938.19
574.03	60734.56
574.20	60903.08
574.36	60884.36
574.52	60905.42
574.68	60985.00
574.84	61001.38
575.01	61043.51
575.17	60945.21
575.33	60952.23
575.49	60718.18
575.65	61207.35
575.82	61095.00
575.98	61247.14
576.14	61268.20
576.30	60999.04
576.46	60926.49
576.62	60903.08
576.79	61127.77
576.95	60907.76
577.11	61256.50
577.27	60886.70
577.43	61104.37
577.59	60949.89
577.75	60970.96
577.92	60992.02
578.08	61095.00
578.24	61099.68
578.40	61104.37
578.56	60985.00
578.72	61123.09
578.88	61319.70
579.04	61097.34
579.21	60975.64
579.37	61102.03
579.53	61153.52
579.69	61003.72
579.85	61186.28
580.01	61158.20
580.17	61155.86
580.33	61102.03
580.49	61073.94
580.65	61174.58
580.82	60999.04
580.98	61162.88
581.14	61020.11
581.30	61207.35
581.46	61169.90
581.62	61209.69
581.78	61148.84
581.94	61488.21
582.10	60961.59
582.26	61212.03
582.42	61083.30
582.58	61303.31
582.74	61052.87
582.90	61087.98
583.06	61216.71
583.22	61183.94
583.38	61188.63
583.54	61350.12
583.70	61385.23
583.86	61127.77
584.02	61092.66
584.18	61516.30
584.34	61368.85
584.50	61439.06
584.66	61097.34
584.82	61207.35
584.98	61240.12
585.14	61207.35
585.30	61181.60
585.46	61418.00
585.62	61240.12
585.78	61282.25
585.94	61305.65
586.10	61460.13
586.26	61197.99
586.42	61483.53
586.58	61352.46
586.74	61244.80
586.90	61272.88
587.06	61160.54
587.22	61436.72
587.38	61303.31
587.54	61593.54
587.70	61628.65
587.86	61396.93
588.02	61481.19
588.18	61495.24
588.34	61008.40
588.49	61307.99
