SpectraSuite Data File
++++++++++++++++++++++++++++++++++++
Date: Fri Oct 25 11:26:14 EDT 2013
User: price-jones
Dark Spectrum Present: No
Reference Spectrum Present: No
Number of Sampled Component Spectra: 1
Spectrometers: USB2+H05261
Integration Time (usec): 100000 (USB2+H05261)
Spectra Averaged: 1 (USB2+H05261)
Boxcar Smoothing: 0 (USB2+H05261)
Correct for Electrical Dark: No (USB2+H05261)
Strobe/Lamp Enabled: No (USB2+H05261)
Correct for Detector Non-linearity: No (USB2+H05261)
Correct for Stray Light: No (USB2+H05261)
Number of Pixels in Processed Spectrum: 2048
>>>>>Begin Processed Spectral Data<<<<<
365.73	217.67
365.92	217.67
366.12	217.67
366.32	194.26
366.52	170.86
366.72	163.84
366.91	91.28
367.11	112.35
367.31	161.50
367.51	102.98
367.70	168.52
367.90	236.39
368.10	147.45
368.30	147.45
368.49	194.26
368.69	210.65
368.89	182.56
369.09	105.32
369.28	175.54
369.48	154.48
369.68	175.54
369.87	205.97
370.07	269.16
370.27	269.16
370.47	318.31
370.66	655.35
370.86	660.03
371.06	629.60
371.25	720.88
371.45	741.95
371.65	723.23
371.84	655.35
372.04	641.31
372.24	772.38
372.44	720.88
372.63	732.59
372.83	718.54
373.03	798.12
373.22	760.67
373.42	814.51
373.62	774.72
373.81	816.85
374.01	833.23
374.21	791.10
374.40	828.55
374.60	870.68
374.79	819.19
374.99	777.06
375.19	858.98
375.38	884.72
375.58	875.36
375.78	877.70
375.97	819.19
376.17	894.08
376.37	945.58
376.56	840.25
376.76	894.08
376.95	880.04
377.15	910.47
377.35	940.90
377.54	901.11
377.74	891.74
377.93	950.26
378.13	816.85
378.33	924.51
378.52	1018.13
378.72	957.28
378.91	945.58
379.11	959.62
379.31	971.32
379.50	961.96
379.70	1018.13
379.89	938.55
380.09	983.02
380.28	898.77
380.48	954.94
380.68	990.05
380.87	940.90
381.07	964.30
381.26	994.73
381.46	1048.56
381.65	1062.60
381.85	987.71
382.04	1006.43
382.24	1095.37
382.43	973.66
382.63	1032.18
382.83	1078.99
383.02	1128.14
383.22	1139.84
383.41	1043.88
383.61	1240.48
383.80	1146.86
384.00	1083.67
384.19	1188.99
384.39	1170.27
384.58	1205.38
384.78	1142.18
384.97	1132.82
385.17	1118.78
385.36	1132.82
385.56	1212.40
385.75	1210.06
385.95	1172.61
386.14	1224.10
386.34	1093.03
386.53	1277.93
386.72	1181.97
386.92	1219.42
387.11	1299.00
387.31	1259.21
387.50	1217.08
387.70	1338.79
387.89	1245.16
388.09	1217.08
388.28	1268.57
388.48	1273.25
388.67	1313.04
388.86	1352.83
389.06	1247.51
389.25	1404.32
389.45	1364.53
389.64	1409.00
389.84	1441.77
390.03	1355.17
390.22	1301.34
390.42	1338.79
390.61	1373.89
390.81	1327.08
391.00	1465.18
391.19	1441.77
391.39	1547.09
391.58	1474.54
391.78	1453.47
391.97	1446.45
392.16	1439.43
392.36	1509.65
392.55	1444.11
392.75	1535.39
392.94	1497.94
393.13	1467.52
393.33	1453.47
393.52	1502.62
393.71	1549.43
393.91	1547.09
394.10	1556.46
394.29	1558.80
394.49	1554.12
394.68	1589.22
394.88	1724.97
395.07	1619.65
395.26	1694.55
395.46	1607.95
395.65	1795.19
395.84	1624.33
396.04	1846.68
396.23	1736.68
396.42	1645.40
396.62	1811.57
396.81	1834.98
397.00	1755.40
397.19	1708.59
397.39	1727.32
397.58	1790.51
397.77	1849.02
397.97	1788.17
398.16	1820.94
398.35	1919.24
398.55	1837.32
398.74	1923.92
398.93	1863.07
399.12	1905.20
399.32	1856.04
399.51	1937.96
399.70	1907.54
399.90	2062.01
400.09	2036.27
400.28	2033.93
400.47	2120.53
400.67	2134.57
400.86	2012.86
401.05	2052.65
401.24	2026.90
401.44	2172.02
401.63	2071.37
401.82	2202.44
402.01	2153.29
402.21	2172.02
402.40	2162.66
402.59	2134.57
402.78	2078.40
402.97	2307.77
403.17	2286.70
403.36	2326.49
403.55	2293.72
403.74	2380.32
403.93	2399.05
404.13	2370.96
404.32	2373.30
404.51	2401.39
404.70	2385.01
404.89	2354.58
405.09	2466.92
405.28	2534.80
405.47	2422.45
405.66	2523.10
405.85	2562.89
406.05	2567.57
406.24	2466.92
406.43	2466.92
406.62	2562.89
406.81	2476.29
407.00	2485.65
407.20	2572.25
407.39	2609.70
407.58	2609.70
407.77	2626.08
407.96	2743.11
408.15	2743.11
408.34	2740.77
408.54	2682.25
408.73	2822.69
408.92	2743.11
409.11	2810.98
409.30	2892.90
409.49	3030.99
409.68	2782.90
409.87	2867.16
410.07	2977.16
410.26	2979.50
410.45	2920.99
410.64	3187.81
410.83	3080.14
411.02	3105.89
411.21	3178.45
411.40	3061.42
411.59	3059.08
411.78	3199.51
411.98	3155.04
412.17	3351.65
412.36	3239.30
412.55	3356.33
412.74	3314.20
412.93	3447.61
413.12	3314.20
413.31	3541.23
413.50	3492.08
413.69	3487.40
413.88	3613.79
414.07	3585.70
414.26	3599.74
414.45	3632.51
414.64	3698.05
414.83	3794.01
415.02	3922.74
415.22	3777.62
415.41	3803.37
415.60	3794.01
415.79	3939.12
415.98	3885.29
416.17	3990.61
416.36	4042.11
416.55	3934.44
416.74	3974.23
416.93	4049.13
417.12	4166.15
417.31	4117.00
417.50	4138.07
417.69	4159.13
417.88	4337.01
418.07	4325.31
418.26	4276.16
418.45	4353.40
418.64	4444.68
418.83	4367.44
419.02	4376.80
419.21	4421.27
419.39	4484.47
419.58	4559.36
419.77	4465.74
419.96	4578.09
420.15	4645.96
420.34	4568.73
420.53	4622.56
420.72	4655.33
420.91	4706.82
421.10	4692.77
421.29	4695.11
421.48	4568.73
421.67	4746.61
421.86	4762.99
422.05	4751.29
422.24	4847.25
422.43	4800.44
422.61	4889.38
422.80	4957.25
422.99	4915.12
423.18	4915.12
423.37	4912.78
423.56	4931.51
423.75	4947.89
423.94	4645.96
424.13	4545.32
424.32	4685.75
424.50	5004.07
424.69	4954.91
424.88	5060.24
425.07	4798.10
425.26	4837.89
425.45	4959.60
425.64	4835.55
425.83	4851.93
426.01	5062.58
426.20	4992.36
426.39	5046.20
426.58	4887.04
426.77	4968.96
426.96	5188.97
427.15	5067.26
427.33	5210.03
427.52	5174.92
427.71	5191.31
427.90	5184.29
428.09	5334.08
428.28	5441.75
428.46	5366.85
428.65	5404.30
428.84	5582.18
429.03	5345.78
429.22	5387.91
429.40	5614.95
429.59	5469.83
429.78	5371.53
429.97	5207.69
430.16	5467.49
430.34	5495.58
430.53	5640.69
430.72	5516.64
430.91	5685.16
431.10	5603.24
431.28	5729.63
431.47	5764.74
431.66	5893.47
431.85	5645.37
432.03	5818.57
432.22	5844.32
432.41	6031.56
432.60	5926.24
432.79	5832.62
432.97	6005.81
433.16	5982.41
433.35	5881.77
433.54	6031.56
433.72	6122.84
433.91	6134.54
434.10	6263.27
434.28	6188.38
434.47	6209.44
434.66	6190.72
434.85	6047.94
435.03	6338.17
435.22	6270.30
435.41	6539.46
435.59	6429.45
435.78	6422.43
435.97	6349.87
436.16	6272.64
436.34	6253.91
436.53	6492.65
436.72	6602.65
436.90	6422.43
437.09	6649.46
437.28	6452.86
437.46	6443.49
437.65	6502.01
437.84	6724.36
438.02	6752.45
438.21	6764.15
438.40	6871.81
438.58	6946.71
438.77	7052.03
438.96	6780.53
439.14	7218.21
439.33	7063.74
439.52	7145.66
439.70	7108.21
439.89	7140.97
440.08	7246.30
440.26	7316.51
440.45	7370.35
440.63	7466.31
440.82	7478.01
441.01	7452.27
441.19	7419.50
441.38	7744.83
441.57	7826.75
441.75	7758.88
441.94	7838.45
442.12	7775.26
442.31	8021.02
442.50	7871.22
442.68	8044.42
442.87	8072.51
443.05	8058.46
443.24	8098.25
443.43	8081.87
443.61	7913.35
443.80	8458.70
443.98	7922.71
444.17	7901.65
444.35	8070.17
444.54	8549.98
444.73	8322.94
444.91	8339.33
445.10	8311.24
445.28	8379.12
445.47	8173.15
445.65	8313.58
445.84	8435.29
446.02	8252.73
446.21	8344.01
446.39	8306.56
446.58	8568.70
446.77	8594.45
446.95	8100.59
447.14	8402.52
447.32	8688.07
447.51	8472.74
447.69	8432.95
447.88	8463.38
448.06	8465.72
448.25	8437.63
448.43	8514.87
448.62	8507.85
448.80	8624.87
448.99	8760.63
449.17	8774.67
449.36	8671.68
449.54	8898.72
449.73	9027.45
449.91	9029.79
450.10	9032.13
450.28	9055.53
450.46	8971.27
450.65	8992.34
450.83	9137.45
451.02	8966.59
451.20	8990.00
451.39	9055.53
451.57	9123.41
451.76	9074.26
451.94	9247.46
452.13	9207.67
452.31	9465.13
452.49	8990.00
452.68	9270.86
452.86	9320.01
453.05	9378.53
453.23	9434.70
453.42	9408.95
453.60	9317.67
453.78	9441.72
453.97	9423.00
454.15	9483.85
454.34	9315.33
454.52	9788.12
454.70	9558.75
454.89	9785.78
455.07	9949.62
455.26	9654.71
455.44	10057.28
455.62	9886.42
455.81	9804.50
455.99	9741.31
456.17	9912.17
456.36	10281.97
456.54	10214.10
456.73	10394.32
456.91	10459.85
457.09	10354.53
457.28	10186.01
457.46	10221.12
457.64	10492.62
457.83	10246.87
458.01	10597.95
458.19	10787.53
458.38	10443.47
458.56	10586.24
458.74	10487.94
458.93	10782.85
459.11	10714.97
459.29	10808.59
459.48	10827.32
459.66	10745.40
459.84	10656.46
460.03	11087.12
460.21	10897.53
460.39	10991.16
460.57	10787.53
460.76	11033.29
460.94	11267.34
461.12	11089.46
461.31	11103.50
461.49	11262.66
461.67	11136.27
461.85	11379.68
462.04	11328.19
462.22	11791.62
462.40	11683.95
462.59	11489.69
462.77	11531.82
462.95	11461.60
463.13	11335.21
463.32	11578.63
463.50	11564.59
463.68	11768.21
463.86	11686.29
464.05	11585.65
464.23	11634.80
464.41	11817.36
464.59	11819.71
464.78	12241.00
464.96	11976.52
465.14	11845.45
465.32	11889.92
465.50	12013.97
465.69	12138.02
465.87	12070.14
466.05	12175.47
466.23	11887.58
466.41	12201.21
466.60	12358.03
466.78	12229.30
466.96	12102.91
467.14	12114.61
467.32	12294.83
467.51	12437.61
467.69	12194.19
467.87	12386.12
468.05	12650.60
468.23	12257.39
468.41	12201.21
468.60	12503.14
468.78	12484.42
468.96	12458.67
469.14	12676.34
469.32	12894.01
469.50	12465.69
469.69	12901.03
469.87	12805.07
470.05	13207.64
470.23	12926.78
470.41	13181.90
470.59	12964.23
470.77	12896.35
470.95	13081.25
471.14	13556.38
471.32	13167.85
471.50	13544.68
471.68	13451.06
471.86	13565.74
472.04	13610.22
472.22	13879.38
472.40	13544.68
472.58	13734.26
472.77	14003.43
472.95	14178.97
473.13	14370.89
473.31	14078.32
473.49	14185.99
473.67	13947.25
473.85	14272.59
474.03	14525.36
474.21	14284.29
474.39	14623.67
474.57	14679.84
474.75	14831.97
474.93	14979.43
475.12	15098.80
475.30	14953.68
475.48	14867.08
475.66	14925.60
475.84	14822.61
476.02	15190.08
476.20	15192.42
476.38	15578.61
476.56	15798.62
476.74	15873.51
476.92	15859.47
477.10	15948.41
477.28	15964.79
477.46	16142.67
477.64	16123.95
477.82	16456.31
478.00	17025.06
478.18	16690.36
478.36	16940.80
478.54	17041.44
478.72	16947.82
478.90	17144.42
479.08	17350.39
479.26	17657.00
479.44	17504.87
479.62	17802.11
479.80	17802.11
479.98	18228.09
480.16	18658.75
480.34	18251.50
480.52	18494.91
480.70	18569.81
480.88	18017.44
481.06	18726.63
481.24	18668.11
481.41	18932.59
481.59	19089.41
481.77	19536.45
481.95	19328.14
482.13	19829.02
482.31	19482.62
482.49	19962.43
482.67	20077.12
482.85	20229.25
483.03	20601.40
483.21	20575.65
483.39	20952.48
483.57	20678.63
483.74	21034.39
483.92	21458.03
484.10	21109.29
484.28	21584.42
484.46	22134.45
484.64	22300.62
484.82	21495.48
485.00	22031.46
485.18	22480.85
485.35	23012.15
485.53	22656.39
485.71	22899.80
485.89	23239.18
486.07	22970.02
486.25	23080.02
486.43	23639.41
486.61	23908.57
486.78	23754.10
486.96	23957.72
487.14	24444.56
487.32	24453.92
487.50	24641.16
487.68	24512.43
487.85	24982.88
488.03	25294.17
488.21	25666.31
488.39	25673.34
488.57	25886.32
488.75	25804.41
488.92	26436.35
489.10	26249.11
489.28	26740.62
489.46	26810.84
489.64	27154.90
489.81	27669.81
489.99	27346.82
490.17	28025.57
490.35	27796.20
490.53	27840.67
490.70	28184.73
490.88	27962.38
491.06	28872.85
491.24	28809.65
491.41	28730.08
491.59	29165.42
491.77	29427.56
491.95	29497.77
492.13	29589.05
492.30	30115.67
492.48	29888.64
492.66	29727.14
492.84	30349.73
493.01	30328.66
493.19	30284.19
493.37	30927.84
493.54	31044.87
493.72	31676.81
493.90	31566.81
494.08	31309.35
494.25	31634.68
494.43	31690.85
494.61	32163.64
494.79	32446.85
494.96	32407.06
495.14	32596.64
495.32	33301.14
495.49	32861.12
495.67	32964.10
495.85	33219.22
496.02	33879.25
496.20	33890.96
496.38	33582.01
496.55	34270.12
496.73	34497.16
496.91	34398.85
497.09	34653.97
497.26	35075.27
497.44	34424.60
497.62	35037.82
497.79	35438.05
497.97	35290.60
498.14	35534.01
498.32	36238.51
498.50	36226.81
498.67	36264.26
498.85	36013.82
499.03	36292.35
499.20	36282.98
499.38	36552.15
499.56	36453.84
499.73	36854.08
499.91	37177.07
500.08	37242.60
500.26	37284.73
500.44	37315.16
500.61	37694.33
500.79	37518.79
500.97	38312.23
501.14	38672.67
501.32	38047.75
501.49	38160.09
501.67	38188.18
501.84	38438.62
502.02	38548.62
502.20	38740.55
502.37	39208.65
502.55	39126.74
502.72	38892.68
502.90	39325.68
503.07	39288.23
503.25	39264.83
503.43	39262.49
503.60	39798.47
503.78	39885.07
503.95	39995.07
504.13	40683.19
504.30	40477.22
504.48	40048.91
504.65	40575.53
504.83	40638.72
505.01	41202.79
505.18	41125.55
505.36	41265.99
505.53	41048.32
505.71	41361.95
505.88	41507.06
506.06	41312.80
506.23	41989.21
506.41	41305.77
506.58	41930.70
506.76	41827.71
506.93	42483.06
507.11	42120.28
507.28	42199.86
507.46	42663.28
507.63	42595.41
507.81	43079.90
507.98	42443.27
508.16	42988.62
508.33	42597.75
508.50	43391.19
508.68	43931.86
508.85	43494.18
509.03	43814.83
509.20	43746.95
509.38	44144.84
509.55	44261.87
509.73	43950.58
509.90	44385.92
510.08	44516.99
510.25	44397.62
510.42	44800.19
510.60	44612.95
510.77	45003.82
510.95	45081.06
511.12	45017.86
511.30	45097.44
511.47	45436.82
511.64	45083.40
511.82	45170.00
511.99	45488.31
512.17	45490.65
512.34	46082.81
512.51	45991.53
512.69	46284.09
512.86	46054.72
513.04	46328.56
513.21	46330.90
513.38	46377.72
513.56	46611.77
513.73	46625.81
513.90	47000.30
514.08	46775.61
514.25	47152.43
514.43	47196.90
514.60	47374.78
514.77	47365.42
514.95	47288.18
515.12	47051.79
515.29	46864.55
515.47	47702.46
515.64	47653.31
515.81	47213.29
515.99	47936.51
516.16	48140.14
516.33	47917.79
516.51	48470.15
516.68	48100.35
516.85	47945.87
517.03	48346.11
517.20	48685.48
517.37	48715.91
517.54	48783.79
517.72	48545.05
517.89	48720.59
518.06	49003.80
518.24	48790.81
518.41	49298.70
518.58	49263.60
518.75	49155.93
518.93	49270.62
519.10	49162.95
519.27	49591.27
519.45	49619.36
519.62	49736.38
519.79	49846.39
519.96	50054.70
520.14	50047.68
520.31	49991.50
520.48	50358.97
520.65	50223.22
520.83	50459.61
521.00	50349.60
521.17	50314.50
521.34	50410.46
521.52	50686.64
521.69	50424.50
521.86	50892.61
522.03	50717.07
522.20	51016.66
522.38	51323.27
522.55	51210.92
522.72	51175.81
522.89	50946.44
523.07	51288.16
523.24	51435.61
523.41	51423.91
523.58	51220.28
523.75	51906.06
523.92	51379.44
524.10	52058.20
524.27	51695.41
524.44	51931.81
524.61	52097.98
524.78	52074.58
524.96	52053.51
525.13	51980.96
525.30	51943.51
525.47	52334.38
525.64	52191.61
525.81	52444.38
525.98	52428.00
526.16	52418.64
526.33	52598.86
526.50	52650.35
526.67	52671.42
526.84	52486.51
527.01	52617.58
527.18	52615.24
527.36	52942.92
527.53	52605.88
527.70	53298.68
527.87	53464.86
528.04	52949.94
528.21	52956.96
528.38	52996.75
528.55	53261.23
528.72	53326.77
528.89	53254.21
529.07	53055.26
529.24	53167.61
529.41	53471.88
529.58	53366.55
529.75	53624.01
529.92	53652.10
530.09	53464.86
530.26	53963.39
530.43	54089.78
530.60	53375.92
530.77	53666.14
530.94	53947.01
531.11	53935.30
531.28	53867.43
531.46	54113.19
531.63	54085.10
531.80	54117.87
531.97	54248.94
532.14	54295.75
532.31	54113.19
532.48	54246.60
532.65	54436.18
532.82	54557.89
532.99	54419.80
533.16	54440.86
533.33	54820.03
533.50	54873.86
533.67	54712.36
533.84	54600.02
534.01	54798.96
534.18	54913.65
534.35	55143.02
534.52	54798.96
534.69	55138.34
534.86	55154.72
535.03	54813.01
535.20	55173.45
535.37	55154.72
535.54	55435.59
535.71	55128.98
535.88	55358.35
536.05	55393.46
536.22	55707.09
536.38	55428.57
536.55	55299.84
536.72	55421.55
536.89	55433.25
537.06	55388.78
537.23	55447.29
537.40	55552.62
537.57	55547.93
537.74	55700.07
537.91	55861.57
538.08	55557.30
538.25	55409.84
538.42	55955.19
538.59	56039.45
538.75	55571.34
538.92	55800.71
539.09	55870.93
539.26	56072.21
539.43	56158.81
539.60	56086.26
539.77	56142.43
539.94	56193.92
540.11	56217.33
540.28	56214.99
540.44	56149.45
540.61	56186.90
540.78	56243.07
540.95	56200.94
541.12	56238.39
541.29	56392.87
541.46	56516.92
541.62	56507.55
541.79	56381.16
541.96	56332.01
542.13	56385.85
542.30	56474.79
542.47	56788.42
542.63	56846.93
542.80	56685.43
542.97	56863.32
543.14	56900.76
543.31	56844.59
543.48	57251.84
543.64	57317.38
543.81	57183.97
543.98	57045.88
544.15	56980.34
544.32	57247.16
544.48	57235.46
544.65	57169.93
544.82	57308.02
544.99	57226.10
545.16	57284.61
545.32	57329.08
545.49	57506.96
545.66	57542.07
545.83	57350.15
546.00	57462.49
546.16	57691.86
546.33	57609.95
546.50	57284.61
546.67	57638.03
546.83	57338.44
547.00	57350.15
547.17	57504.62
547.34	57556.11
547.50	57792.51
547.67	57979.75
547.84	57811.23
548.00	57961.03
548.17	57890.81
548.34	57993.79
548.51	58108.48
548.67	57991.45
548.84	57993.79
549.01	58052.31
549.18	57932.94
549.34	58056.99
549.51	58150.61
549.68	58199.76
549.84	58241.89
550.01	58265.30
550.18	58071.03
550.34	58356.58
550.51	58223.17
550.68	58398.71
550.84	58272.32
551.01	58136.57
551.18	58209.12
551.34	58255.93
551.51	58489.99
551.68	58663.19
551.84	58471.26
552.01	58351.90
552.18	58546.16
552.34	58260.62
552.51	58710.00
552.68	58372.96
552.84	58646.80
553.01	58960.44
553.18	58728.72
553.34	58791.92
553.51	58349.56
553.67	58642.12
553.84	58803.62
554.01	58908.94
554.17	58986.18
554.34	58787.24
554.51	58794.26
554.67	58852.77
554.84	58894.90
555.00	58707.66
555.17	58728.72
555.33	58770.85
555.50	58759.15
555.67	58944.05
555.83	58698.30
556.00	58941.71
556.16	59260.02
556.33	59217.89
556.50	59002.56
556.66	59185.13
556.83	58880.86
556.99	59173.42
557.16	59355.99
557.32	59363.01
557.49	59592.38
557.65	59110.23
557.82	59292.79
557.98	59288.11
558.15	59187.47
558.32	59316.20
558.48	59278.75
558.65	59554.93
558.81	59199.17
558.98	59400.46
559.14	59505.78
559.31	59440.24
559.47	59568.97
559.64	59557.27
559.80	59458.97
559.97	59711.75
560.13	59622.81
560.30	59688.34
560.46	59625.15
560.63	59760.90
560.79	59674.30
560.96	59697.70
561.12	59702.38
561.29	59627.49
561.45	59788.98
561.61	59788.98
561.78	59657.91
561.94	59669.62
562.11	59805.37
562.27	59812.39
562.44	59859.20
562.60	60116.66
562.77	59779.62
562.93	59835.80
563.10	60065.17
563.26	59840.48
563.42	60083.89
563.59	59751.54
563.75	59980.91
563.92	59955.16
564.08	59788.98
564.24	60016.02
564.41	59898.99
564.57	59824.09
564.74	60069.85
564.90	60011.34
565.07	59863.88
565.23	59943.46
565.39	59901.33
565.56	59927.08
565.72	59962.18
565.88	59861.54
566.05	59997.29
566.21	60165.81
566.38	59938.78
566.54	60069.85
566.70	60336.67
566.87	60367.10
567.03	59957.50
567.19	60327.31
567.36	60320.29
567.52	60109.64
567.68	60341.35
567.85	60175.17
568.01	60303.90
568.17	60224.32
568.34	60381.14
568.50	60317.95
568.66	60287.52
568.83	60193.90
568.99	60341.35
569.15	60367.10
569.32	60271.14
569.48	60261.77
569.64	60467.74
569.81	60355.39
569.97	60210.28
570.13	60182.19
570.30	60247.73
570.46	60214.96
570.62	60257.09
570.78	60301.56
570.95	60259.43
571.11	60519.23
571.27	60416.25
571.43	60519.23
571.60	60353.05
571.76	60388.16
571.92	60385.82
572.09	60336.67
572.25	60346.03
572.41	60481.78
572.57	60423.27
572.74	60533.28
572.90	60390.50
573.06	60481.78
573.22	60423.27
573.38	60521.57
573.55	60399.86
573.71	60594.13
573.87	60568.38
574.03	60507.53
574.20	60591.79
574.36	60519.23
574.52	60704.13
574.68	60430.29
574.84	60519.23
575.01	60842.23
575.17	60540.30
575.33	60708.82
575.49	60420.93
575.65	60561.36
575.82	60886.70
575.98	60542.64
576.14	60879.67
576.30	60736.90
576.46	60610.51
576.62	60472.42
576.79	60671.37
576.95	60418.59
577.11	60612.85
577.27	60687.75
577.43	60629.24
577.59	60617.53
577.75	60776.69
577.92	60563.70
578.08	60612.85
578.24	60638.60
578.40	60725.20
578.56	60793.07
578.72	60903.08
578.88	60809.46
579.04	60933.51
579.21	60856.27
579.37	60830.52
579.53	60837.54
579.69	60512.21
579.85	60509.87
580.01	60776.69
580.17	60577.75
580.33	60711.16
580.49	60631.58
580.65	60692.43
580.82	60741.58
580.98	60580.09
581.14	60769.67
581.30	60968.61
581.46	60725.20
581.62	60959.25
581.78	60750.94
581.94	60774.35
582.10	60699.45
582.26	60615.19
582.42	60547.32
582.58	60860.95
582.74	60718.18
582.90	60575.40
583.06	60772.01
583.22	60748.60
583.38	60814.14
583.54	60849.25
583.70	60800.10
583.86	60940.53
584.02	60680.73
584.18	60807.12
584.34	60877.33
584.50	60704.13
584.66	60748.60
584.82	60898.40
584.98	61052.87
585.14	60830.52
585.30	60858.61
585.46	60849.25
585.62	60865.63
585.78	60954.57
585.94	60657.32
586.10	60760.31
586.26	60938.19
586.42	60947.55
586.58	61104.37
586.74	61015.43
586.90	60985.00
587.06	60720.52
587.22	61087.98
587.38	60867.97
587.54	61008.40
587.70	61151.18
587.86	60762.65
588.02	60961.59
588.18	60985.00
588.34	60762.65
588.49	60949.89
