SpectraSuite Data File
++++++++++++++++++++++++++++++++++++
Date: Fri Oct 25 11:34:25 EDT 2013
User: price-jones
Dark Spectrum Present: No
Reference Spectrum Present: No
Number of Sampled Component Spectra: 1
Spectrometers: USB2+H05261
Integration Time (usec): 100000 (USB2+H05261)
Spectra Averaged: 1 (USB2+H05261)
Boxcar Smoothing: 0 (USB2+H05261)
Correct for Electrical Dark: No (USB2+H05261)
Strobe/Lamp Enabled: No (USB2+H05261)
Correct for Detector Non-linearity: No (USB2+H05261)
Correct for Stray Light: No (USB2+H05261)
Number of Pixels in Processed Spectrum: 2048
>>>>>Begin Processed Spectral Data<<<<<
365.73	243.42
365.92	243.42
366.12	243.42
366.32	220.01
366.52	166.18
366.72	215.33
366.91	194.26
367.11	187.24
367.31	205.97
367.51	149.79
367.70	145.11
367.90	259.80
368.10	196.60
368.30	182.56
368.49	140.43
368.69	194.26
368.89	156.82
369.09	194.26
369.28	177.88
369.48	184.90
369.68	245.76
369.87	177.88
370.07	304.27
370.27	287.89
370.47	271.50
370.66	430.66
370.86	519.60
371.06	486.83
371.25	578.11
371.45	528.96
371.65	540.66
371.84	552.37
372.04	552.37
372.24	578.11
372.44	550.03
372.63	608.54
372.83	554.71
373.03	622.58
373.22	610.88
373.42	667.05
373.62	627.26
373.81	681.10
374.01	601.52
374.21	634.29
374.40	709.18
374.60	657.69
374.79	622.58
374.99	669.39
375.19	653.01
375.38	648.33
375.58	669.39
375.78	697.48
375.97	671.73
376.17	692.80
376.37	648.33
376.56	662.37
376.76	648.33
376.95	704.50
377.15	688.12
377.35	688.12
377.54	706.84
377.74	713.86
377.93	737.27
378.13	690.46
378.33	753.65
378.52	695.14
378.72	734.93
378.91	688.12
379.11	660.03
379.31	674.07
379.50	741.95
379.70	730.25
379.89	702.16
380.09	767.70
380.28	748.97
380.48	730.25
380.68	669.39
380.87	746.63
381.07	765.36
381.26	667.05
381.46	833.23
381.65	807.48
381.85	725.57
382.04	734.93
382.24	732.59
382.43	788.76
382.63	730.25
382.83	702.16
383.02	732.59
383.22	784.08
383.41	788.76
383.61	737.27
383.80	723.23
384.00	760.67
384.19	823.87
384.39	795.78
384.58	816.85
384.78	748.97
384.97	884.72
385.17	866.00
385.36	854.30
385.56	809.83
385.75	847.27
385.95	788.76
386.14	854.30
386.34	943.24
386.53	753.65
386.72	835.57
386.92	875.36
387.11	828.55
387.31	940.90
387.50	830.89
387.70	917.49
387.89	917.49
388.09	866.00
388.28	894.08
388.48	926.85
388.67	903.45
388.86	770.04
389.06	905.79
389.25	765.36
389.45	929.19
389.64	926.85
389.84	980.68
390.03	1004.09
390.22	1041.54
390.42	987.71
390.61	959.62
390.81	938.55
391.00	1064.94
391.19	971.32
391.39	875.36
391.58	997.07
391.78	917.49
391.97	950.26
392.16	952.60
392.36	1048.56
392.55	1034.52
392.75	1032.18
392.94	889.40
393.13	1008.77
393.33	1029.84
393.52	1050.90
393.71	1062.60
393.91	999.41
394.10	1036.86
394.29	1043.88
394.49	1008.77
394.68	1142.18
394.88	1093.03
395.07	1153.88
395.26	1107.07
395.46	1060.26
395.65	1205.38
395.84	1118.78
396.04	1186.65
396.23	1228.78
396.42	1200.69
396.62	1100.05
396.81	1193.67
397.00	1214.74
397.19	1083.67
397.39	1299.00
397.58	1263.89
397.77	1284.95
397.97	1217.08
398.16	1174.95
398.35	1165.59
398.55	1280.27
398.74	1191.33
398.93	1289.64
399.12	1207.72
399.32	1268.57
399.51	1165.59
399.70	1296.66
399.90	1217.08
400.09	1327.08
400.28	1266.23
400.47	1376.24
400.67	1331.76
400.86	1296.66
401.05	1366.87
401.24	1345.81
401.44	1397.30
401.63	1383.26
401.82	1348.15
402.01	1350.49
402.21	1441.77
402.40	1441.77
402.59	1469.86
402.78	1411.34
402.97	1490.92
403.17	1589.22
403.36	1481.56
403.55	1451.13
403.74	1519.01
403.93	1462.83
404.13	1577.52
404.32	1509.65
404.51	1540.07
404.70	1650.08
404.89	1638.38
405.09	1586.88
405.28	1596.25
405.47	1652.42
405.66	1659.44
405.85	1643.06
406.05	1586.88
406.24	1715.61
406.43	1746.04
406.62	1776.47
406.81	1785.83
407.00	1739.02
407.20	1692.21
407.39	1636.03
407.58	1856.04
407.77	1799.87
407.96	1799.87
408.15	1844.34
408.34	1867.75
408.54	1804.55
408.73	1809.23
408.92	1797.53
409.11	1827.96
409.30	1914.56
409.49	1961.37
409.68	1893.49
409.87	1888.81
410.07	1963.71
410.26	1994.14
410.45	1975.41
410.64	1961.37
410.83	2069.03
411.02	2045.63
411.21	2176.70
411.40	2050.31
411.59	2195.42
411.78	2066.69
411.98	2120.53
412.17	2214.15
412.36	2104.14
412.55	2129.89
412.74	2331.17
412.93	2251.60
413.12	2251.60
413.31	2373.30
413.50	2321.81
413.69	2380.32
413.88	2424.80
414.07	2312.45
414.26	2368.62
414.45	2415.43
414.64	2368.62
414.83	2457.56
415.02	2569.91
415.22	2516.08
415.41	2630.76
415.60	2553.52
415.79	2511.39
415.98	2588.63
416.17	2619.06
416.36	2551.18
416.55	2693.96
416.74	2684.59
416.93	2717.36
417.12	2796.94
417.31	2799.28
417.50	2822.69
417.69	2918.65
417.88	2862.48
418.07	2818.00
418.26	2848.43
418.45	2904.60
418.64	2818.00
418.83	2890.56
419.02	2913.97
419.21	3080.14
419.39	2986.52
419.58	2916.31
419.77	2918.65
419.96	3094.19
420.15	3150.36
420.34	3098.87
420.53	3075.46
420.72	3066.10
420.91	3080.14
421.10	3045.04
421.29	3187.81
421.48	3141.00
421.67	3133.98
421.86	3129.30
422.05	3201.85
422.24	3138.66
422.43	3286.11
422.61	3215.90
422.80	3283.77
422.99	3227.60
423.18	3232.28
423.37	3342.28
423.56	3290.79
423.75	3169.09
423.94	3192.49
424.13	3126.96
424.32	3124.62
424.50	3365.69
424.69	3396.12
424.88	3279.09
425.07	3229.94
425.26	3375.05
425.45	3220.58
425.64	3234.62
425.83	3232.28
426.01	3396.12
426.20	3262.71
426.39	3368.03
426.58	3466.33
426.77	3330.58
426.96	3391.44
427.15	3485.06
427.33	3520.17
427.52	3330.58
427.71	3503.78
427.90	3492.08
428.09	3543.57
428.28	3632.51
428.46	3590.38
428.65	3613.79
428.84	3618.47
429.03	3719.11
429.22	3585.70
429.40	3684.00
429.59	3735.50
429.78	3501.44
429.97	3398.46
430.16	3559.95
430.34	3749.54
430.53	3761.24
430.72	3803.37
430.91	3665.28
431.10	3602.08
431.28	3824.44
431.47	3864.22
431.66	3969.55
431.85	3852.52
432.03	3997.64
432.22	4109.98
432.41	3950.82
432.60	3971.89
432.79	3808.05
432.97	3969.55
433.16	4018.70
433.35	3843.16
433.54	3990.61
433.72	4105.30
433.91	4147.43
434.10	4074.87
434.28	4002.32
434.47	4114.66
434.66	4248.07
434.85	4215.30
435.03	4170.83
435.22	4152.11
435.41	4180.20
435.59	4210.62
435.78	4241.05
435.97	4269.14
436.16	4278.50
436.34	4159.13
436.53	4173.18
436.72	4346.37
436.90	4248.07
437.09	4273.82
437.28	4259.78
437.46	4276.16
437.65	4514.89
437.84	4418.93
438.02	4472.76
438.21	4374.46
438.40	4318.29
438.58	4671.71
438.77	4669.37
438.96	4725.54
439.14	4638.94
439.33	4657.67
439.52	4709.16
439.70	4664.69
439.89	4802.78
440.08	4823.84
440.26	4898.74
440.45	4709.16
440.63	4990.02
440.82	4987.68
441.01	4844.91
441.19	5013.43
441.38	5025.13
441.57	5029.81
441.75	5151.52
441.94	5118.75
442.12	5256.84
442.31	5282.59
442.50	5420.68
442.68	5158.54
442.87	5139.82
443.05	5277.91
443.24	5371.53
443.43	5210.03
443.61	5308.34
443.80	5577.50
443.98	5296.63
444.17	5006.41
444.35	5619.63
444.54	5526.00
444.73	5263.86
444.91	5434.72
445.10	5490.90
445.28	5420.68
445.47	5313.02
445.65	5586.86
445.84	5369.19
446.02	5633.67
446.21	5542.39
446.39	5348.12
446.58	5631.33
446.77	5565.79
446.95	5444.09
447.14	5556.43
447.32	5631.33
447.51	5542.39
447.69	5455.79
447.88	5586.86
448.06	5483.88
448.25	5516.64
448.43	5486.22
448.62	5647.71
448.80	5483.88
448.99	5628.99
449.17	5762.40
449.36	5607.92
449.54	5834.96
449.73	5844.32
449.91	5881.77
450.10	5694.52
450.28	5877.09
450.46	5914.53
450.65	5902.83
450.83	5928.58
451.02	5818.57
451.20	5942.62
451.39	5834.96
451.57	6022.20
451.76	5839.64
451.94	6045.60
452.13	6073.69
452.31	6059.65
452.49	5893.47
452.68	6146.25
452.86	6010.50
453.05	6249.23
453.23	6005.81
453.42	6099.44
453.60	6174.33
453.78	6221.14
453.97	6179.01
454.15	6120.50
454.34	6223.48
454.52	6204.76
454.70	6305.40
454.89	6256.25
455.07	6387.32
455.26	6389.66
455.44	6509.03
455.62	6471.58
455.81	6445.84
455.99	6377.96
456.17	6431.79
456.36	6555.84
456.54	6717.34
456.73	6581.59
456.91	6813.30
457.09	6684.57
457.28	6780.53
457.46	6775.85
457.64	6853.09
457.83	6869.47
458.01	6677.55
458.19	6967.77
458.38	6885.86
458.56	6874.15
458.74	7084.80
458.93	6801.60
459.11	6930.33
459.29	6991.18
459.48	6935.01
459.66	6977.14
459.84	6923.30
460.03	7403.11
460.21	7314.17
460.39	7045.01
460.57	7162.04
460.76	7035.65
460.94	7183.10
461.12	7073.10
461.31	7138.63
461.49	7454.61
461.67	7187.79
461.85	7180.76
462.04	7073.10
462.22	7953.14
462.40	7286.09
462.59	7386.73
462.77	7527.16
462.95	7527.16
463.13	7393.75
463.32	7487.37
463.50	7405.46
463.68	7545.89
463.86	7573.97
464.05	7662.91
464.23	7541.21
464.41	7524.82
464.59	7494.40
464.78	7751.85
464.96	7761.22
465.14	7815.05
465.32	7784.62
465.50	7573.97
465.69	8011.65
465.87	7864.20
466.05	7847.82
466.23	7892.29
466.41	7866.54
466.60	7983.57
466.78	7815.05
466.96	7754.19
467.14	7829.09
467.32	8250.39
467.51	8004.63
467.69	7707.38
467.87	8109.96
468.05	8201.24
468.23	8074.85
468.41	8100.59
468.60	7885.26
468.78	8348.69
468.96	8060.80
469.14	8152.09
469.32	8365.07
469.50	8039.74
469.69	8332.31
469.87	8648.28
470.05	8388.48
470.23	8479.76
470.41	8564.02
470.59	8409.54
470.77	8578.06
470.95	8615.51
471.14	8549.98
471.32	8510.19
471.50	8858.93
471.68	8659.98
471.86	8760.63
472.04	8601.47
472.22	8877.65
472.40	8828.50
472.58	8959.57
472.77	8877.65
472.95	9132.77
473.13	9324.69
473.31	9100.00
473.49	9057.87
473.67	8910.42
473.85	9160.86
474.03	9385.55
474.21	9366.82
474.39	9446.40
474.57	9327.03
474.75	9657.05
474.93	9682.80
475.12	9556.41
475.30	9853.66
475.48	9603.22
475.66	9797.48
475.84	9640.67
476.02	9853.66
476.20	9823.23
476.38	9743.65
476.56	10099.41
476.74	9966.00
476.92	10050.26
477.10	9935.57
477.28	10120.48
477.46	10434.11
477.64	10506.66
477.82	10525.39
478.00	10892.85
478.18	10623.69
478.36	10656.46
478.54	10881.15
478.72	10698.59
478.90	10920.94
479.08	11190.10
479.26	11344.58
479.44	11077.76
479.62	11421.81
479.80	11255.64
479.98	11426.50
480.16	11784.60
480.34	11817.36
480.52	11936.73
480.70	11728.42
480.88	11618.42
481.06	11562.25
481.24	11864.18
481.41	12243.34
481.59	12320.58
481.77	12133.34
481.95	12170.79
482.13	12709.11
482.31	12617.83
482.49	12779.32
482.67	12788.69
482.85	12699.75
483.03	13092.96
483.21	13004.02
483.39	13097.64
483.57	13289.56
483.74	13338.71
483.92	13415.95
484.10	13617.24
484.28	13778.73
484.46	13841.93
484.64	14181.31
484.82	13799.80
485.00	14015.13
485.18	14345.14
485.35	14354.51
485.53	14427.06
485.71	14553.45
485.89	14682.18
486.07	14740.69
486.25	14979.43
486.43	14864.74
486.61	15122.20
486.78	15049.64
486.96	15054.33
487.14	15447.54
487.32	15281.36
487.50	15655.84
487.68	15644.14
487.85	16049.05
488.03	16020.97
488.21	16180.12
488.39	16142.67
488.57	16463.33
488.75	16421.20
488.92	16917.39
489.10	16685.68
489.28	16657.59
489.46	17298.90
489.64	17085.91
489.81	17118.68
489.99	17106.98
490.17	17380.82
490.35	17748.28
490.53	17942.55
490.70	17928.50
490.88	17373.80
491.06	17942.55
491.24	17977.65
491.41	18480.87
491.59	18391.93
491.77	18244.48
491.95	18485.55
492.13	18424.70
492.30	18810.89
492.48	18754.71
492.66	19082.39
492.84	19171.33
493.01	19555.18
493.19	19590.28
493.37	19461.55
493.54	19487.30
493.72	19662.84
493.90	19817.32
494.08	19903.92
494.25	20257.34
494.43	19770.51
494.61	20369.68
494.79	20503.09
494.96	20269.04
495.14	20622.46
495.32	21078.86
495.49	20905.66
495.67	21167.80
495.85	21041.42
496.02	21425.26
496.20	21249.72
496.38	21238.02
496.55	21310.58
496.73	21968.27
496.91	21722.51
497.09	21961.25
497.26	21799.75
497.44	22019.76
497.62	22424.67
497.79	22382.54
497.97	22338.07
498.14	22656.39
498.32	22476.16
498.50	22728.94
498.67	22703.20
498.85	22696.17
499.03	22904.48
499.20	23101.09
499.38	23393.65
499.56	23218.11
499.73	23501.32
499.91	23550.47
500.08	23484.94
500.26	23571.54
500.44	23733.03
500.61	23669.84
500.79	23768.14
500.97	24095.82
501.14	24140.29
501.32	23964.75
501.49	24121.56
501.67	24540.52
501.84	24498.39
502.02	24580.31
502.20	24278.38
502.37	24517.11
502.55	24526.47
502.72	24826.06
502.90	24933.73
503.07	24849.47
503.25	24996.92
503.43	24800.32
503.60	25516.52
503.78	25603.12
503.95	25275.45
504.13	25221.61
504.30	25919.09
504.48	25556.31
504.65	26043.14
504.83	25642.91
505.01	26157.83
505.18	26017.40
505.36	26270.17
505.53	26253.79
505.71	25951.86
505.88	25900.37
506.06	26387.20
506.23	26333.37
506.41	26096.97
506.58	26794.45
506.76	26855.31
506.93	26754.66
507.11	26885.73
507.28	26885.73
507.46	27335.12
507.63	27037.87
507.81	27442.78
507.98	27110.43
508.16	27445.12
508.33	27587.89
508.50	27562.15
508.68	27625.34
508.85	27948.34
509.03	27543.42
509.20	27557.47
509.38	28465.60
509.55	28163.67
509.73	28158.99
509.90	28100.47
510.08	28194.09
510.25	28100.47
510.42	28222.18
510.60	28751.14
510.77	28648.16
510.95	28849.44
511.12	28430.49
511.30	28840.08
511.47	28662.20
511.64	28840.08
511.82	29205.20
511.99	28811.99
512.17	29132.65
512.34	29429.90
512.51	28989.88
512.69	29301.17
512.86	29886.30
513.04	29504.79
513.21	30047.80
513.38	29614.80
513.56	29546.92
513.73	30094.61
513.90	29951.84
514.08	29921.41
514.25	30148.44
514.43	30064.18
514.60	30110.99
514.77	30192.91
514.95	30225.68
515.12	30340.36
515.29	30206.95
515.47	30616.55
515.64	30939.54
515.81	30464.41
515.99	30995.71
516.16	31234.45
516.33	31079.97
516.51	31077.63
516.68	30794.43
516.85	31218.07
517.03	31393.61
517.20	31323.39
517.37	31388.92
517.54	31655.75
517.72	31346.79
517.89	31346.79
518.06	31391.26
518.24	31447.44
518.41	31487.23
518.58	31555.10
518.75	31374.88
518.93	31756.39
519.10	31962.36
519.27	32137.90
519.45	32320.46
519.62	32210.45
519.79	32423.44
519.96	32182.37
520.14	32587.28
520.31	32119.17
520.48	32685.58
520.65	32622.39
520.83	33153.69
521.00	33216.88
521.17	33123.26
521.34	33156.03
521.52	32994.53
521.69	32884.53
521.86	33221.56
522.03	33354.97
522.20	33535.20
522.38	33497.75
522.55	33656.90
522.72	33539.88
522.89	33434.55
523.07	34036.07
523.24	33603.07
523.41	33750.52
523.58	33944.79
523.75	34169.48
523.92	33776.27
524.10	33811.38
524.27	33909.68
524.44	34143.74
524.61	34389.49
524.78	33921.38
524.96	34352.04
525.13	35000.37
525.30	34426.94
525.47	34759.30
525.64	34885.68
525.81	34785.04
525.98	34735.89
526.16	34693.76
526.33	34890.37
526.50	35311.66
526.67	34370.77
526.84	35077.61
527.01	35096.33
527.18	35033.14
527.36	35278.89
527.53	35040.16
527.70	35517.63
527.87	35470.82
528.04	35606.57
528.21	35452.09
528.38	35510.61
528.55	35838.28
528.72	35531.67
528.89	35765.73
529.07	35409.96
529.24	35674.45
529.41	36261.92
529.58	35751.68
529.75	35744.66
529.92	35463.80
530.09	36044.25
530.26	36629.38
530.43	36093.40
530.60	35931.90
530.77	36079.36
530.94	36126.17
531.11	35992.76
531.28	36341.50
531.46	36690.24
531.63	36580.23
531.80	36407.03
531.97	36964.08
532.14	36416.40
532.31	36470.23
532.48	36856.42
532.65	36884.50
532.82	36811.95
532.99	36968.76
533.16	36865.78
533.33	37221.54
533.50	36629.38
533.67	37338.57
533.84	36928.97
534.01	37399.42
534.18	37144.30
534.35	37722.41
534.52	37450.91
534.69	38043.07
534.86	37766.88
535.03	37670.92
535.20	38101.58
535.37	37727.10
535.54	37991.58
535.71	37876.89
535.88	38321.59
536.05	37649.86
536.22	38052.43
536.38	38059.45
536.55	38157.75
536.72	37806.67
536.89	38003.28
537.06	37909.66
537.23	38249.03
537.40	38195.20
537.57	37860.51
537.74	38321.59
537.91	38288.82
538.08	38642.24
538.25	38227.97
538.42	38728.84
538.59	39208.65
538.75	38244.35
538.92	38972.26
539.09	39213.34
539.26	38518.20
539.43	38560.33
539.60	38838.85
539.77	39091.63
539.94	39480.16
540.11	38813.10
540.28	38902.04
540.44	39005.03
540.61	39012.05
540.78	38958.22
540.95	39255.46
541.12	39208.65
541.29	39356.11
541.46	39377.17
541.62	39522.29
541.79	39828.90
541.96	38820.13
542.13	39906.13
542.30	39655.70
542.47	39580.80
542.63	39503.56
542.80	40016.14
542.97	40091.04
543.14	40430.41
543.31	39718.89
543.48	40076.99
543.64	40285.30
543.81	40154.23
543.98	40261.90
544.15	40322.75
544.32	40538.08
544.48	40507.65
544.65	40561.48
544.82	40346.15
544.99	40275.94
545.16	40502.97
545.32	40563.82
545.49	41069.38
545.66	41120.87
545.83	41163.00
546.00	41125.55
546.16	40807.24
546.33	41060.02
546.50	40521.69
546.67	40629.36
546.83	40809.58
547.00	40598.93
547.17	41111.51
547.34	40966.40
547.50	41530.47
547.67	41277.69
547.84	41015.55
548.00	41296.41
548.17	41516.42
548.34	41652.17
548.51	41226.20
548.67	41560.89
548.84	41202.79
549.01	41146.62
549.18	41127.89
549.34	41544.51
549.51	42017.30
549.68	41837.08
549.84	41750.48
550.01	41614.72
550.18	41638.13
550.34	41883.89
550.51	41961.12
550.68	42010.28
550.84	40978.10
551.01	42061.77
551.18	41596.00
551.34	42082.83
551.51	41944.74
551.68	42061.77
551.84	42000.91
552.01	42197.52
552.18	42153.05
552.34	42361.36
552.51	42209.22
552.68	42555.62
552.84	42274.76
553.01	42663.28
553.18	42246.67
553.34	42354.33
553.51	42316.89
553.67	42185.82
553.84	42691.37
554.01	43068.20
554.17	42506.47
554.34	42890.32
554.51	42852.87
554.67	42775.63
554.84	42667.97
555.00	42625.84
555.17	42380.08
555.33	42768.61
555.50	42796.70
555.67	42630.52
555.83	42604.77
556.00	43042.45
556.16	43159.48
556.33	43276.51
556.50	42796.70
556.66	43330.34
556.83	42660.94
556.99	43405.23
557.16	43536.30
557.32	43049.47
557.49	43550.35
557.65	43077.56
557.82	43232.04
557.98	43665.03
558.15	43257.78
558.32	43290.55
558.48	43302.25
558.65	43470.77
558.81	43576.09
558.98	43772.70
559.14	43515.24
559.31	43309.27
559.47	43360.76
559.64	43688.44
559.80	43388.85
559.97	43377.15
560.13	43552.69
560.30	43662.69
560.46	43622.90
560.63	43597.16
560.79	43702.48
560.96	44100.37
561.12	43915.47
561.29	43901.43
561.45	43791.42
561.61	44086.33
561.78	44161.23
561.94	43653.33
562.11	43814.83
562.27	44123.78
562.44	43908.45
562.60	43992.71
562.77	44194.00
562.93	43686.10
563.10	44247.83
563.26	44217.40
563.42	44699.55
563.59	43679.08
563.75	43892.07
563.92	44493.58
564.08	44222.08
564.24	44439.75
564.41	44406.98
564.57	44210.38
564.74	44439.75
564.90	44470.18
565.07	44233.78
565.23	44058.24
565.39	43887.39
565.56	44568.48
565.72	44243.15
565.88	44584.86
566.05	44275.91
566.21	44430.39
566.38	44041.86
566.54	44729.98
566.70	44816.58
566.87	44528.69
567.03	44069.95
567.19	45123.19
567.36	44603.59
567.52	44692.53
567.68	44650.40
567.85	44870.41
568.01	44559.12
568.17	44629.34
568.34	44477.20
568.50	44645.72
568.66	44079.31
568.83	44697.21
568.99	44645.72
569.15	44699.55
569.32	44966.37
569.48	44790.83
569.64	45172.34
569.81	44484.22
569.97	44797.85
570.13	44978.07
570.30	44591.89
570.46	44589.55
570.62	44992.12
570.78	45008.50
570.95	44734.66
571.11	45125.53
571.27	44662.10
571.43	44713.59
571.60	45333.84
571.76	44215.06
571.92	44542.74
572.09	44966.37
572.25	44708.91
572.41	44844.66
572.57	45006.16
572.74	45385.33
572.90	45048.29
573.06	45017.86
573.22	45181.70
573.38	45195.74
573.55	45017.86
573.71	45469.59
573.87	44839.98
574.03	44744.02
574.20	45432.14
574.36	45146.59
574.52	45331.50
574.68	45251.92
574.84	45141.91
575.01	45081.06
575.17	45752.79
575.33	45497.67
575.49	45305.75
575.65	45322.13
575.82	45258.94
575.98	45244.90
576.14	45663.85
576.30	45319.79
576.46	45450.86
576.62	45455.54
576.79	45015.52
576.95	44832.96
577.11	45191.06
577.27	45160.64
577.43	45123.19
577.59	45521.08
577.75	45235.53
577.92	45191.06
578.08	45158.30
578.24	45310.43
578.40	45624.06
578.56	45474.27
578.72	46005.57
578.88	45422.78
579.04	45275.32
579.21	45375.97
579.37	45270.64
579.53	45420.44
579.69	45153.62
579.85	44877.43
580.01	45553.85
580.17	45308.09
580.33	45626.40
580.49	45298.73
580.65	45422.78
580.82	45329.16
580.98	45511.72
581.14	45155.96
581.30	45205.11
581.46	45371.28
581.62	45256.60
581.78	44753.38
581.94	45471.93
582.10	45050.63
582.26	45783.22
582.42	45268.30
582.58	45495.33
582.74	45350.22
582.90	45478.95
583.06	45261.28
583.22	45439.16
583.38	45603.00
583.54	45467.25
583.70	45745.77
583.86	45670.87
584.02	45476.61
584.18	45535.12
584.34	45698.96
584.50	45853.44
584.66	45617.04
584.82	45347.88
584.98	46019.61
585.14	45738.75
585.30	45490.65
585.46	45364.26
585.62	45228.51
585.78	45940.04
585.94	45422.78
586.10	45464.91
586.26	45546.82
586.42	45336.18
586.58	45490.65
586.74	45422.78
586.90	45556.19
587.06	45684.92
587.22	46036.00
587.38	45483.63
587.54	45851.09
587.70	45970.46
587.86	45715.34
588.02	45507.04
588.18	45546.82
588.34	45696.62
588.49	45184.04
588.65	45195.74
588.81	45811.31
588.97	45839.39
589.13	45724.71
589.29	45635.77
589.45	45862.80
589.61	45687.26
589.77	46284.09
589.93	45773.86
590.08	46003.23
