SpectraSuite Data File
++++++++++++++++++++++++++++++++++++
Date: Fri Oct 25 11:25:06 EDT 2013
User: price-jones
Dark Spectrum Present: No
Reference Spectrum Present: No
Number of Sampled Component Spectra: 1
Spectrometers: USB2+H05261
Integration Time (usec): 100000 (USB2+H05261)
Spectra Averaged: 1 (USB2+H05261)
Boxcar Smoothing: 0 (USB2+H05261)
Correct for Electrical Dark: No (USB2+H05261)
Strobe/Lamp Enabled: No (USB2+H05261)
Correct for Detector Non-linearity: No (USB2+H05261)
Correct for Stray Light: No (USB2+H05261)
Number of Pixels in Processed Spectrum: 2048
>>>>>Begin Processed Spectral Data<<<<<
365.73	210.65
365.92	210.65
366.12	210.65
366.32	112.35
366.52	102.98
366.72	105.32
366.91	163.84
367.11	91.28
367.31	114.69
367.51	198.95
367.70	154.48
367.90	159.16
368.10	65.54
368.30	152.13
368.49	100.64
368.69	175.54
368.89	77.24
369.09	145.11
369.28	149.79
369.48	205.97
369.68	170.86
369.87	161.50
370.07	259.80
370.27	236.39
370.47	355.76
370.66	631.94
370.86	643.65
371.06	683.44
371.25	688.12
371.45	645.99
371.65	660.03
371.84	692.80
372.04	755.99
372.24	720.88
372.44	744.29
372.63	748.97
372.83	727.91
373.03	758.33
373.22	763.01
373.42	767.70
373.62	702.16
373.81	697.48
374.01	751.31
374.21	795.78
374.40	751.31
374.60	842.59
374.79	781.74
374.99	880.04
375.19	741.95
375.38	894.08
375.58	823.87
375.78	849.61
375.97	777.06
376.17	898.77
376.37	863.66
376.56	866.00
376.76	833.23
376.95	844.93
377.15	819.19
377.35	908.13
377.54	877.70
377.74	908.13
377.93	830.89
378.13	873.02
378.33	940.90
378.52	915.15
378.72	910.47
378.91	954.94
379.11	922.17
379.31	940.90
379.50	992.39
379.70	966.64
379.89	1001.75
380.09	922.17
380.28	898.77
380.48	966.64
380.68	978.34
380.87	926.85
381.07	1006.43
381.26	1029.84
381.46	997.07
381.65	1025.15
381.85	1022.81
382.04	1015.79
382.24	1032.18
382.43	1090.69
382.63	1060.26
382.83	1151.54
383.02	1125.80
383.22	1090.69
383.41	1107.07
383.61	1170.27
383.80	1116.44
384.00	1090.69
384.19	1181.97
384.39	1196.01
384.58	1130.48
384.78	1200.69
384.97	1188.99
385.17	1104.73
385.36	1200.69
385.56	1153.88
385.75	1196.01
385.95	1107.07
386.14	1156.22
386.34	1118.78
386.53	1186.65
386.72	1137.50
386.92	1238.14
387.11	1177.29
387.31	1205.38
387.50	1203.04
387.70	1184.31
387.89	1247.51
388.09	1247.51
388.28	1261.55
388.48	1184.31
388.67	1256.87
388.86	1336.45
389.06	1280.27
389.25	1315.38
389.45	1210.06
389.64	1380.92
389.84	1294.32
390.03	1397.30
390.22	1423.05
390.42	1299.00
390.61	1343.47
390.81	1387.94
391.00	1427.73
391.19	1476.88
391.39	1380.92
391.58	1416.02
391.78	1427.73
391.97	1483.90
392.16	1306.02
392.36	1554.12
392.55	1446.45
392.75	1500.28
392.94	1521.35
393.13	1488.58
393.33	1490.92
393.52	1584.54
393.71	1556.46
393.91	1497.94
394.10	1544.75
394.29	1612.63
394.49	1598.59
394.68	1724.97
394.88	1715.61
395.07	1582.20
395.26	1650.08
395.46	1736.68
395.65	1605.61
395.84	1746.04
396.04	1797.53
396.23	1739.02
396.42	1706.25
396.62	1696.89
396.81	1668.80
397.00	1724.97
397.19	1685.19
397.39	1781.15
397.58	1860.73
397.77	1830.30
397.97	1851.36
398.16	1849.02
398.35	1888.81
398.55	1874.77
398.74	1795.19
398.93	1879.45
399.12	1928.60
399.32	1926.26
399.51	1933.28
399.70	2022.22
399.90	1949.67
400.09	1942.64
400.28	2183.72
400.47	2172.02
400.67	2097.12
400.86	2139.25
401.05	2031.58
401.24	2113.50
401.44	2083.08
401.63	2115.84
401.82	2085.42
402.01	2150.95
402.21	2174.36
402.40	2347.56
402.59	2211.81
402.78	2169.68
402.97	2200.10
403.17	2244.57
403.36	2310.11
403.55	2312.45
403.74	2282.02
403.93	2284.36
404.13	2438.84
404.32	2356.92
404.51	2377.98
404.70	2396.71
404.89	2377.98
405.09	2560.55
405.28	2445.86
405.47	2445.86
405.66	2593.31
405.85	2422.45
406.05	2626.08
406.24	2621.40
406.43	2565.23
406.62	2579.27
406.81	2602.68
407.00	2466.92
407.20	2633.10
407.39	2572.25
407.58	2595.65
407.77	2803.96
407.96	2642.46
408.15	2708.00
408.34	2766.51
408.54	2754.81
408.73	2722.04
408.92	2813.32
409.11	2862.48
409.30	2885.88
409.49	2949.08
409.68	2897.58
409.87	2841.41
410.07	3038.02
410.26	2916.31
410.45	2963.12
410.64	3035.67
410.83	3131.64
411.02	3119.93
411.21	3162.06
411.40	3162.06
411.59	3267.39
411.78	3166.74
411.98	3145.68
412.17	3180.79
412.36	3293.13
412.55	3293.13
412.74	3351.65
412.93	3379.73
413.12	3241.64
413.31	3482.72
413.50	3370.37
413.69	3368.03
413.88	3737.84
414.07	3527.19
414.26	3768.26
414.45	3777.62
414.64	3597.40
414.83	3763.58
415.02	3777.62
415.22	3875.93
415.41	3761.24
415.60	3875.93
415.79	3969.55
415.98	3960.19
416.17	3899.33
416.36	3854.86
416.55	3978.91
416.74	4086.58
416.93	3992.95
417.12	4098.28
417.31	4170.83
417.50	4180.20
417.69	4365.10
417.88	4088.92
418.07	4170.83
418.26	4138.07
418.45	4381.48
418.64	4416.59
418.83	4402.55
419.02	4313.61
419.21	4475.10
419.39	4404.89
419.58	4369.78
419.77	4423.61
419.96	4573.41
420.15	4741.93
420.34	4489.15
420.53	4545.32
420.72	4594.47
420.91	4634.26
421.10	4681.07
421.29	4753.63
421.48	4624.90
421.67	4671.71
421.86	4587.45
422.05	4877.68
422.24	4849.59
422.43	4758.31
422.61	4674.05
422.80	4800.44
422.99	4959.60
423.18	5048.54
423.37	5018.11
423.56	4713.84
423.75	4954.91
423.94	4835.55
424.13	4538.30
424.32	4641.28
424.50	4999.38
424.69	4999.38
424.88	5060.24
425.07	4990.02
425.26	4922.15
425.45	4858.95
425.64	4734.90
425.83	5041.51
426.01	5118.75
426.20	5018.11
426.39	5184.29
426.58	4959.60
426.77	5039.17
426.96	5104.71
427.15	4994.70
427.33	5111.73
427.52	5191.31
427.71	5247.48
427.90	5095.35
428.09	5284.93
428.28	5210.03
428.46	5413.66
428.65	5327.06
428.84	5516.64
429.03	5378.55
429.22	5334.08
429.40	5397.28
429.59	5467.49
429.78	5324.72
429.97	5366.85
430.16	5547.07
430.34	5472.17
430.53	5600.90
430.72	5504.94
430.91	5654.73
431.10	5617.29
431.28	5748.36
431.47	5664.10
431.66	5757.72
431.85	5577.50
432.03	5870.06
432.22	5998.79
432.41	5790.49
432.60	5865.38
432.79	5916.87
432.97	5968.37
433.16	6073.69
433.35	5783.46
433.54	6050.28
433.72	5940.28
433.91	5996.45
434.10	6153.27
434.28	6204.76
434.47	6190.72
434.66	6307.74
434.85	6399.02
435.03	6277.32
435.22	6246.89
435.41	6321.79
435.59	6452.86
435.78	6361.58
435.97	6511.37
436.16	6366.26
436.34	6450.52
436.53	6558.18
436.72	6604.99
436.90	6548.82
437.09	6476.26
437.28	6361.58
437.46	6576.91
437.65	6509.03
437.84	6630.74
438.02	6672.87
438.21	6651.80
438.40	6633.08
438.58	6864.79
438.77	7131.61
438.96	6855.43
439.14	7239.28
439.33	7265.02
439.52	7220.55
439.70	7117.57
439.89	7389.07
440.08	7555.25
440.26	7269.70
440.45	7206.51
440.63	7468.65
440.82	7681.64
441.01	7332.90
441.19	7562.27
441.38	7808.03
441.57	7782.28
441.75	7861.86
441.94	7929.74
442.12	7859.52
442.31	8116.98
442.50	7913.35
442.68	7894.63
442.87	8121.66
443.05	7892.29
443.24	8021.02
443.43	8205.92
443.61	8004.63
443.80	8416.57
443.98	8077.19
444.17	7590.36
444.35	8049.10
444.54	8112.30
444.73	8311.24
444.91	8248.05
445.10	8119.32
445.28	8287.84
445.47	8161.45
445.65	8379.12
445.84	8409.54
446.02	8376.78
446.21	8407.20
446.39	8161.45
446.58	8428.27
446.77	8505.51
446.95	8308.90
447.14	8442.31
447.32	8645.94
447.51	8299.54
447.69	8292.52
447.88	8531.25
448.06	8535.93
448.25	8446.99
448.43	8608.49
448.62	8479.76
448.80	8367.42
448.99	8592.11
449.17	8751.26
449.36	8524.23
449.54	8781.69
449.73	8943.19
449.91	8863.61
450.10	8929.14
450.28	9034.47
450.46	8919.78
450.65	9006.38
450.83	8863.61
451.02	8912.76
451.20	9235.75
451.39	9118.73
451.57	9160.86
451.76	9116.39
451.94	9242.78
452.13	9214.69
452.31	9186.60
452.49	9015.74
452.68	9231.07
452.86	9214.69
453.05	9329.38
453.23	9551.73
453.42	9455.76
453.60	9312.99
453.78	9437.04
453.97	9411.29
454.15	9406.61
454.34	9364.48
454.52	9865.36
454.70	9668.75
454.89	9572.79
455.07	9411.29
455.26	9811.53
455.44	9827.91
455.62	9954.30
455.81	9935.57
455.99	9963.66
456.17	9916.85
456.36	9900.47
456.54	10113.45
456.73	10076.01
456.91	10307.72
457.09	10239.84
457.28	10459.85
457.46	10260.91
457.64	10284.31
457.83	10284.31
458.01	10424.75
458.19	10534.75
458.38	10572.20
458.56	10539.43
458.74	10750.08
458.93	10576.88
459.11	10780.51
459.29	10665.82
459.48	10843.70
459.66	10630.71
459.84	11040.31
460.03	11180.74
460.21	10949.03
460.39	10925.62
460.57	10920.94
460.76	11012.22
460.94	11206.48
461.12	11229.89
461.31	11040.31
461.49	10963.07
461.67	10972.43
461.85	11637.14
462.04	11375.00
462.22	11758.85
462.40	11545.86
462.59	11492.03
462.77	11300.11
462.95	11714.38
463.13	11566.93
463.32	11587.99
463.50	11716.72
463.68	11754.17
463.86	11721.40
464.05	11777.58
464.23	11609.06
464.41	11468.62
464.59	11754.17
464.78	11939.07
464.96	11627.78
465.14	11634.80
465.32	11906.31
465.50	11896.94
465.69	12119.29
465.87	11887.58
466.05	12025.67
466.23	12116.95
466.41	11995.25
466.60	12358.03
466.78	12175.47
466.96	11981.20
467.14	12351.01
467.32	12421.22
467.51	12589.74
467.69	12248.02
467.87	12482.08
468.05	12512.50
468.23	12222.28
468.41	12439.95
468.60	12664.64
468.78	12587.40
468.96	12343.99
469.14	12610.81
469.32	13088.28
469.50	12620.17
469.69	12641.23
469.87	13181.90
470.05	13114.02
470.23	12947.84
470.41	12973.59
470.59	13373.82
470.77	13146.79
470.95	13149.13
471.14	13659.37
471.32	13352.76
471.50	13542.34
471.68	13444.04
471.86	13944.91
472.04	13472.12
472.22	13678.09
472.40	13593.83
472.58	13752.99
472.77	13977.68
472.95	14078.32
473.13	14417.70
473.31	13860.65
473.49	14068.96
473.67	14265.57
473.85	14539.41
474.03	14516.00
474.21	14544.09
474.39	14410.68
474.57	14391.95
474.75	14658.78
474.93	14829.63
475.12	14820.27
475.30	14839.00
475.48	15232.21
475.66	15445.20
475.84	15059.01
476.02	14991.13
476.20	15412.43
476.38	15789.25
476.56	15978.84
476.74	16032.67
476.92	15882.88
477.10	15770.53
477.28	15964.79
477.46	16184.80
477.64	16180.12
477.82	16491.41
478.00	17034.42
478.18	16666.95
478.36	17205.28
478.54	16868.24
478.72	16992.29
478.90	17284.86
479.08	17380.82
479.26	17593.81
479.44	17689.77
479.62	17633.60
479.80	17930.84
479.98	17984.68
480.16	18401.29
480.34	18061.91
480.52	18501.93
480.70	18417.68
480.88	18361.50
481.06	18665.77
481.24	18780.46
481.41	18974.72
481.59	19325.80
481.77	19426.45
481.95	19407.72
482.13	19613.69
482.31	19639.44
482.49	20180.10
482.67	19903.92
482.85	20107.54
483.03	20533.52
483.21	20819.07
483.39	20790.98
483.57	20273.72
483.74	21282.49
483.92	21132.70
484.10	20910.35
484.28	21415.90
484.46	21912.10
484.64	22033.80
484.82	21872.31
485.00	21804.43
485.18	22609.58
485.35	22696.17
485.53	22487.87
485.71	22630.64
485.89	23297.69
486.07	23274.29
486.25	23168.96
486.43	23620.69
486.61	23648.77
486.78	23812.61
486.96	23831.33
487.14	24320.51
487.32	24409.45
487.50	24772.23
487.68	24922.02
487.85	25071.82
488.03	25099.90
488.21	25474.39
488.39	25685.04
488.57	25965.90
488.75	26356.77
488.92	26235.06
489.10	26703.17
489.28	26600.19
489.46	26815.52
489.64	26815.52
489.81	27435.76
489.99	27239.15
490.17	27297.67
490.35	28060.68
490.53	28072.39
490.70	28435.17
490.88	28245.58
491.06	28507.72
491.24	28247.93
491.41	28730.08
491.59	29188.82
491.77	29305.85
491.95	29380.74
492.13	30113.33
492.30	29989.28
492.48	29685.01
492.66	30300.58
492.84	30202.27
493.01	30368.45
493.19	30307.60
493.37	30871.67
493.54	31108.06
493.72	30876.35
493.90	30939.54
494.08	31615.96
494.25	31924.91
494.43	31971.72
494.61	32299.39
494.79	32151.94
494.96	32231.52
495.14	32828.35
495.32	32924.32
495.49	33027.30
495.67	32936.02
495.85	33029.64
496.02	33579.67
496.20	34078.20
496.38	33785.63
496.55	33881.60
496.73	34330.98
496.91	34288.85
497.09	34267.78
497.26	34771.00
497.44	34672.70
497.62	34951.22
497.79	35412.31
497.97	35091.65
498.14	35449.75
498.32	35913.18
498.50	36133.19
498.67	36055.95
498.85	36517.04
499.03	36620.02
499.20	36154.26
499.38	36720.66
499.56	36505.34
499.73	36634.06
499.91	36704.28
500.08	37502.40
500.26	37212.18
500.44	37275.37
500.61	37448.57
500.79	37904.98
500.97	37972.85
501.14	38667.99
501.32	38293.50
501.49	38326.27
501.67	38190.52
501.84	38658.63
502.02	38408.19
502.20	38649.27
502.37	39290.57
502.55	39096.31
502.72	39388.88
502.90	39529.31
503.07	39391.22
503.25	39985.71
503.43	39679.10
503.60	39688.46
503.78	39662.72
503.95	39449.73
504.13	40311.05
504.30	40392.97
504.48	40418.71
504.65	40624.68
504.83	40610.64
505.01	41249.60
505.18	41067.04
505.36	41095.13
505.53	41170.02
505.71	41787.92
505.88	41371.31
506.06	41095.13
506.23	41219.17
506.41	41338.54
506.58	42183.48
506.76	41928.36
506.93	42466.68
507.11	42288.80
507.28	42120.28
507.46	42761.59
507.63	42749.88
507.81	42827.12
507.98	42693.71
508.16	43129.05
508.33	43051.81
508.50	43548.01
508.68	43267.14
508.85	43739.93
509.03	43428.64
509.20	43407.58
509.38	44023.14
509.55	44318.04
509.73	43859.30
509.90	44098.03
510.08	44378.90
510.25	44470.18
510.42	44678.49
510.60	44910.20
510.77	45289.37
510.95	45202.77
511.12	44603.59
511.30	44966.37
511.47	45071.70
511.64	45418.10
511.82	45399.37
511.99	45319.79
512.17	45476.61
512.34	45652.15
512.51	46429.21
512.69	46075.79
512.86	46263.03
513.04	46368.35
513.21	46473.68
513.38	46857.52
513.56	46866.89
513.73	46478.36
513.90	46562.62
514.08	46876.25
514.25	47224.99
514.43	47040.09
514.60	47274.14
514.77	47166.48
514.95	47566.71
515.12	47430.96
515.29	47496.49
515.47	47583.09
515.64	48009.07
515.81	47526.92
515.99	47847.57
516.16	48601.22
516.33	48268.87
516.51	48006.73
516.68	48212.70
516.85	48200.99
517.03	48594.20
517.20	48641.01
517.37	48542.71
517.54	48765.06
517.72	48509.94
517.89	48823.58
518.06	48797.83
518.24	49113.80
518.41	48898.47
518.58	49071.67
518.75	49420.41
518.93	49272.96
519.10	49109.12
519.27	49240.19
519.45	49670.85
519.62	49450.84
519.79	49958.73
519.96	49982.14
520.14	50368.33
520.31	49897.88
520.48	50365.99
520.65	50071.08
520.83	50344.92
521.00	50302.79
521.17	50394.07
521.34	50646.85
521.52	50822.39
521.69	50461.95
521.86	50693.66
522.03	50707.71
522.20	51161.77
522.38	51384.12
522.55	50897.29
522.72	50913.67
522.89	50904.31
523.07	51295.18
523.24	51236.67
523.41	51576.04
523.58	51461.36
523.75	51470.72
523.92	51679.03
524.10	51718.82
524.27	52203.31
524.44	51856.91
524.61	51550.30
524.78	52006.70
524.96	52259.48
525.13	52259.48
525.30	52140.11
525.47	52229.05
525.64	52200.97
525.81	52392.89
525.98	52374.17
526.16	52334.38
526.33	52369.49
526.50	52844.62
526.67	52729.93
526.84	52842.27
527.01	52781.42
527.18	52722.91
527.36	52648.01
527.53	53031.86
527.70	53237.83
527.87	53366.55
528.04	53226.12
528.21	53301.02
528.38	53024.84
528.55	53198.04
528.72	53069.31
528.89	53167.61
529.07	53116.12
529.24	53476.56
529.41	53609.97
529.58	53404.00
529.75	53748.06
529.92	53553.80
530.09	53757.42
530.26	53574.86
530.43	53944.67
530.60	53474.22
530.77	53785.51
530.94	53806.58
531.11	53909.56
531.28	53944.67
531.46	54270.00
531.63	53900.20
531.80	54136.59
531.97	54136.59
532.14	54347.24
532.31	54237.23
532.48	54171.70
532.65	54403.41
532.82	54358.94
532.99	54492.35
533.16	54389.37
533.33	54436.18
533.50	54724.07
533.67	54761.51
533.84	54618.74
534.01	54763.85
534.18	54740.45
534.35	55016.63
534.52	54745.13
534.69	54981.52
534.86	55213.24
535.03	54953.44
535.20	54953.44
535.37	54990.89
535.54	55121.96
535.71	55269.41
535.88	55344.31
536.05	55351.33
536.22	55580.70
536.38	55501.12
536.55	55470.70
536.72	55243.66
536.89	55407.50
537.06	55442.61
537.23	55416.86
537.40	55257.71
537.57	55566.66
537.74	55559.64
537.91	55789.01
538.08	55700.07
538.25	55494.10
538.42	55756.24
538.59	55927.10
538.75	55735.18
538.92	55959.87
539.09	56123.71
539.26	55826.46
539.43	55999.66
539.60	56161.15
539.77	56165.84
539.94	56210.31
540.11	56247.75
540.28	56301.59
540.44	56324.99
540.61	56123.71
540.78	56128.39
540.95	56088.60
541.12	56067.53
541.29	56254.78
541.46	56432.66
541.62	56655.01
541.79	56530.96
541.96	56301.59
542.13	56413.93
542.30	56521.60
542.47	56842.25
542.63	56713.52
542.80	56655.01
542.97	56783.74
543.14	56999.07
543.31	57055.24
543.48	56970.98
543.64	57364.19
543.81	57308.02
543.98	57069.28
544.15	57221.42
544.32	57340.78
544.48	57476.54
544.65	57219.08
544.82	57144.18
544.99	57179.29
545.16	57326.74
545.32	57352.49
545.49	57586.54
545.66	57464.83
545.83	57422.70
546.00	57560.79
546.16	57488.24
546.33	57572.50
546.50	57354.83
546.67	57506.96
546.83	57151.20
547.00	57621.65
547.17	57577.18
547.34	57619.31
547.50	57808.89
547.67	57886.13
547.84	58005.50
548.00	58117.84
548.17	58054.65
548.34	58024.22
548.51	58099.12
548.67	58190.40
548.84	57787.83
549.01	58082.73
549.18	58045.29
549.34	58162.31
549.51	58272.32
549.68	58333.17
549.84	58204.44
550.01	58216.14
550.18	58218.49
550.34	58284.02
550.51	58284.02
550.68	58211.46
550.84	58113.16
551.01	58298.06
551.18	58492.33
551.34	58379.98
551.51	58557.86
551.68	58461.90
551.84	58590.63
552.01	58471.26
552.18	58403.39
552.34	58244.23
552.51	58553.18
552.68	58312.11
552.84	58522.76
553.01	58677.23
553.18	58564.88
553.34	58679.57
553.51	58635.10
553.67	58656.17
553.84	58670.21
554.01	59042.35
554.17	58796.60
554.34	59004.91
554.51	58805.96
554.67	58885.54
554.84	58974.48
555.00	58749.79
555.17	58880.86
555.33	58852.77
555.50	58951.07
555.67	58794.26
555.83	58836.39
556.00	58990.86
556.16	59421.52
556.33	59028.31
556.50	58951.07
556.66	59311.52
556.83	58726.38
556.99	59257.68
557.16	59290.45
557.32	59276.41
557.49	59491.74
557.65	59337.26
557.82	59365.35
557.98	59283.43
558.15	59264.70
558.32	59337.26
558.48	59168.74
558.65	59311.52
558.81	59377.05
558.98	59288.11
559.14	59381.73
559.31	59505.78
559.47	59433.22
559.64	59568.97
559.80	59608.76
559.97	59618.13
560.13	59508.12
560.30	59454.29
560.46	59629.83
560.63	59793.67
560.79	59749.20
560.96	59756.22
561.12	59655.57
561.29	59578.34
561.45	59756.22
561.61	59550.25
561.78	59660.26
561.94	59737.49
562.11	59578.34
562.27	59641.53
562.44	60062.83
562.60	59777.28
562.77	59826.43
562.93	59580.68
563.10	59882.61
563.26	59777.28
563.42	60041.76
563.59	59742.17
563.75	59767.92
563.92	59901.33
564.08	59924.74
564.24	60018.36
564.41	59887.29
564.57	59861.54
564.74	59969.21
564.90	59966.87
565.07	59910.69
565.23	59863.88
565.39	60025.38
565.56	60001.97
565.72	59980.91
565.88	59927.08
566.05	59929.42
566.21	60034.74
566.38	59990.27
566.54	60027.72
566.70	60189.22
566.87	60427.95
567.03	60060.49
567.19	60280.50
567.36	60254.75
567.52	60219.64
567.68	60137.72
567.85	60229.01
568.01	60210.28
568.17	60161.13
568.34	60245.39
568.50	60299.22
568.66	60385.82
568.83	60252.41
568.99	60086.23
569.15	60144.75
569.32	60079.21
569.48	59980.91
569.64	60329.65
569.81	60280.50
569.97	60236.03
570.13	60353.05
570.30	60381.14
570.46	60247.73
570.62	60205.60
570.78	60409.23
570.95	60193.90
571.11	60540.30
571.27	60402.21
571.43	60470.08
571.60	60540.30
571.76	60549.66
571.92	60399.86
572.09	60364.76
572.25	60516.89
572.41	60530.93
572.57	60432.63
572.74	60654.98
572.90	60420.93
573.06	60523.91
573.22	60479.44
573.38	60535.62
573.55	60629.24
573.71	60741.58
573.87	60694.77
574.03	60463.06
574.20	60591.79
574.36	60612.85
574.52	60633.92
574.68	60694.77
574.84	60650.30
575.01	60603.49
575.17	60420.93
575.33	60500.51
575.49	60575.40
575.65	60669.03
575.82	60769.67
575.98	60573.06
576.14	60608.17
576.30	60570.72
576.46	60425.61
576.62	60514.55
576.79	60650.30
576.95	60413.91
577.11	60739.24
577.27	60603.49
577.43	60720.52
577.59	60673.71
577.75	60617.53
577.92	60549.66
578.08	60612.85
578.24	60559.02
578.40	60985.00
578.56	60966.27
578.72	60718.18
578.88	60879.67
579.04	60928.83
579.21	60839.89
579.37	60713.50
579.53	60844.57
579.69	60720.52
579.85	60500.51
580.01	60764.99
580.17	60715.84
580.33	60830.52
580.49	60774.35
580.65	60839.89
580.82	60659.66
580.98	60713.50
581.14	60678.39
581.30	60886.70
581.46	60650.30
581.62	60835.20
581.78	60697.11
581.94	60846.91
582.10	60678.39
582.26	60722.86
582.42	60720.52
582.58	60680.73
582.74	60542.64
582.90	60666.69
583.06	60743.92
583.22	60629.24
583.38	60818.82
583.54	60757.97
583.70	60860.95
583.86	60851.59
584.02	60797.76
584.18	60903.08
584.34	60884.36
584.50	60966.27
584.66	60673.71
584.82	60739.24
584.98	60851.59
585.14	60832.86
585.30	60666.69
585.46	60945.21
585.62	60797.76
585.78	60999.04
585.94	60772.01
586.10	60942.87
586.26	60970.96
586.42	60914.78
586.58	60776.69
586.74	61027.13
586.90	60912.44
587.06	60795.42
587.22	61015.43
587.38	60669.03
587.54	61043.51
587.70	61045.85
587.86	60818.82
588.02	60835.20
588.18	61083.30
588.34	61013.08
588.49	60952.23
