SpectraSuite Data File
++++++++++++++++++++++++++++++++++++
Date: Fri Oct 25 11:25:41 EDT 2013
User: price-jones
Dark Spectrum Present: No
Reference Spectrum Present: No
Number of Sampled Component Spectra: 1
Spectrometers: USB2+H05261
Integration Time (usec): 100000 (USB2+H05261)
Spectra Averaged: 1 (USB2+H05261)
Boxcar Smoothing: 0 (USB2+H05261)
Correct for Electrical Dark: No (USB2+H05261)
Strobe/Lamp Enabled: No (USB2+H05261)
Correct for Detector Non-linearity: No (USB2+H05261)
Correct for Stray Light: No (USB2+H05261)
Number of Pixels in Processed Spectrum: 2048
>>>>>Begin Processed Spectral Data<<<<<
365.73	255.12
365.92	255.12
366.12	255.12
366.32	142.77
366.52	70.22
366.72	203.63
366.91	77.24
367.11	110.01
367.31	128.73
367.51	133.41
367.70	163.84
367.90	121.71
368.10	102.98
368.30	229.37
368.49	163.84
368.69	191.92
368.89	147.45
369.09	126.39
369.28	114.69
369.48	217.67
369.68	98.30
369.87	208.31
370.07	159.16
370.27	234.05
370.47	374.49
370.66	615.56
370.86	704.50
371.06	622.58
371.25	617.90
371.45	671.73
371.65	730.25
371.84	629.60
372.04	671.73
372.24	643.65
372.44	692.80
372.63	699.82
372.83	748.97
373.03	706.84
373.22	760.67
373.42	793.44
373.62	844.93
373.81	772.38
374.01	809.83
374.21	830.89
374.40	828.55
374.60	863.66
374.79	755.99
374.99	901.11
375.19	833.23
375.38	847.27
375.58	837.91
375.78	842.59
375.97	905.79
376.17	887.06
376.37	901.11
376.56	833.23
376.76	915.15
376.95	884.72
377.15	959.62
377.35	868.34
377.54	877.70
377.74	940.90
377.93	903.45
378.13	863.66
378.33	950.26
378.52	1001.75
378.72	945.58
378.91	938.55
379.11	943.24
379.31	896.43
379.50	915.15
379.70	957.28
379.89	994.73
380.09	936.21
380.28	999.41
380.48	973.66
380.68	952.60
380.87	1018.13
381.07	1053.24
381.26	1107.07
381.46	985.37
381.65	1015.79
381.85	985.37
382.04	1018.13
382.24	980.68
382.43	1078.99
382.63	1043.88
382.83	1109.41
383.02	1137.50
383.22	1109.41
383.41	1071.97
383.61	1100.05
383.80	1100.05
384.00	1146.86
384.19	1114.10
384.39	1121.12
384.58	1177.29
384.78	1196.01
384.97	1242.82
385.17	1160.91
385.36	1153.88
385.56	1090.69
385.75	1188.99
385.95	1240.48
386.14	1207.72
386.34	1226.44
386.53	1146.86
386.72	1196.01
386.92	1207.72
387.11	1226.44
387.31	1233.46
387.50	1277.93
387.70	1238.14
387.89	1207.72
388.09	1268.57
388.28	1263.89
388.48	1266.23
388.67	1306.02
388.86	1317.72
389.06	1284.95
389.25	1282.61
389.45	1341.13
389.64	1282.61
389.84	1343.47
390.03	1364.53
390.22	1359.85
390.42	1479.22
390.61	1336.45
390.81	1416.02
391.00	1423.05
391.19	1420.71
391.39	1406.66
391.58	1504.96
391.78	1418.36
391.97	1458.15
392.16	1465.18
392.36	1521.35
392.55	1455.81
392.75	1549.43
392.94	1589.22
393.13	1547.09
393.33	1558.80
393.52	1556.46
393.71	1523.69
393.91	1612.63
394.10	1579.86
394.29	1586.88
394.49	1647.74
394.68	1659.44
394.88	1542.41
395.07	1631.35
395.26	1603.27
395.46	1633.69
395.65	1685.19
395.84	1739.02
396.04	1736.68
396.23	1785.83
396.42	1717.95
396.62	1771.79
396.81	1729.66
397.00	1823.28
397.19	1774.13
397.39	1867.75
397.58	1760.08
397.77	1820.94
397.97	1865.41
398.16	1870.09
398.35	1849.02
398.55	1907.54
398.74	1809.23
398.93	1912.22
399.12	1898.17
399.32	1881.79
399.51	1804.55
399.70	2022.22
399.90	1842.00
400.09	2031.58
400.28	1998.82
400.47	1942.64
400.67	2139.25
400.86	2071.37
401.05	2150.95
401.24	2057.33
401.44	2141.59
401.63	2076.06
401.82	2043.29
402.01	2113.50
402.21	2157.97
402.40	2174.36
402.59	2277.34
402.78	2251.60
402.97	2174.36
403.17	2305.43
403.36	2258.62
403.55	2104.14
403.74	2289.04
403.93	2221.17
404.13	2373.30
404.32	2279.68
404.51	2335.85
404.70	2394.37
404.89	2420.11
405.09	2511.39
405.28	2480.97
405.47	2455.22
405.66	2462.24
405.85	2450.54
406.05	2492.67
406.24	2504.37
406.43	2555.86
406.62	2590.97
406.81	2715.02
407.00	2597.99
407.20	2485.65
407.39	2672.89
407.58	2651.83
407.77	2691.62
407.96	2682.25
408.15	2902.26
408.34	2754.81
408.54	2736.09
408.73	2698.64
408.92	2785.24
409.11	2892.90
409.30	2923.33
409.49	2853.11
409.68	2930.35
409.87	2939.71
410.07	2963.12
410.26	2937.37
410.45	2932.69
410.64	3110.57
410.83	3108.23
411.02	3040.36
411.21	3148.02
411.40	3171.43
411.59	3150.36
411.78	3241.64
411.98	3155.04
412.17	3318.88
412.36	3323.56
412.55	3361.01
412.74	3379.73
412.93	3382.07
413.12	3389.10
413.31	3520.17
413.50	3555.27
413.69	3372.71
413.88	3536.55
414.07	3529.53
414.26	3684.00
414.45	3674.64
414.64	3634.85
414.83	3782.31
415.02	3796.35
415.22	3826.78
415.41	3899.33
415.60	3948.48
415.79	3904.01
415.98	3992.95
416.17	4088.92
416.36	3861.88
416.55	3772.94
416.74	4126.36
416.93	3971.89
417.12	4154.45
417.31	4140.41
417.50	4028.06
417.69	4257.43
417.88	4278.50
418.07	4248.07
418.26	4243.39
418.45	4287.86
418.64	4414.25
418.83	4369.78
419.02	4339.35
419.21	4594.47
419.39	4531.28
419.58	4503.19
419.77	4435.32
419.96	4573.41
420.15	4428.29
420.34	4566.39
420.53	4601.49
420.72	4678.73
420.91	4585.11
421.10	4692.77
421.29	4795.76
421.48	4734.90
421.67	4704.48
421.86	4744.27
422.05	4800.44
422.24	4779.37
422.43	4887.04
422.61	4940.87
422.80	5093.01
422.99	4968.96
423.18	4971.30
423.37	5114.07
423.56	4940.87
423.75	5011.09
423.94	4753.63
424.13	4657.67
424.32	4624.90
424.50	5015.77
424.69	4992.36
424.88	5139.82
425.07	4954.91
425.26	4971.30
425.45	4947.89
425.64	4980.66
425.83	4978.32
426.01	5181.95
426.20	4945.55
426.39	5062.58
426.58	5053.22
426.77	5093.01
426.96	5083.64
427.15	5064.92
427.33	5130.45
427.52	5071.94
427.71	5310.68
427.90	5163.22
428.09	5226.42
428.28	5254.50
428.46	5160.88
428.65	5350.46
428.84	5418.34
429.03	5416.00
429.22	5411.32
429.40	5486.22
429.59	5467.49
429.78	5327.06
429.97	5373.87
430.16	5411.32
430.34	5371.53
430.53	5533.03
430.72	5474.51
430.91	5528.35
431.10	5540.05
431.28	5612.60
431.47	5673.46
431.66	5795.17
431.85	5856.02
432.03	5825.59
432.22	5930.92
432.41	5853.68
432.60	5956.66
432.79	5804.53
432.97	6069.01
433.16	5933.26
433.35	5944.96
433.54	6193.06
433.72	6097.10
433.91	6101.78
434.10	6171.99
434.28	6024.54
434.47	6209.44
434.66	6164.97
434.85	6253.91
435.03	6272.64
435.22	6296.04
435.41	6356.90
435.59	6431.79
435.78	6551.16
435.97	6354.55
436.16	6513.71
436.34	6373.28
436.53	6424.77
436.72	6537.12
436.90	6373.28
437.09	6548.82
437.28	6502.01
437.46	6558.18
437.65	6668.19
437.84	6775.85
438.02	6555.84
438.21	6792.23
438.40	6710.32
438.58	6986.50
438.77	6937.35
438.96	6876.49
439.14	7091.82
439.33	7129.27
439.52	7091.82
439.70	7023.95
439.89	7297.79
440.08	7225.23
440.26	7545.89
440.45	7239.28
440.63	7379.71
440.82	7456.95
441.01	7531.84
441.19	7379.71
441.38	7803.35
441.57	7712.07
441.75	7756.54
441.94	7840.79
442.12	7831.43
442.31	7969.52
442.50	8107.62
442.68	7946.12
442.87	7885.26
443.05	7999.95
443.24	8152.09
443.43	8063.15
443.61	8198.90
443.80	8446.99
443.98	8088.89
444.17	7709.72
444.35	8203.58
444.54	8238.69
444.73	8402.52
444.91	8093.57
445.10	8208.26
445.28	8182.51
445.47	8149.75
445.65	8386.14
445.84	8344.01
446.02	8376.78
446.21	8547.64
446.39	8395.50
446.58	8336.99
446.77	8238.69
446.95	8170.81
447.14	8397.84
447.32	8652.96
447.51	8353.37
447.69	8692.75
447.88	8636.58
448.06	8358.05
448.25	8533.59
448.43	8493.80
448.62	8566.36
448.80	8510.19
448.99	8390.82
449.17	8678.71
449.36	8578.06
449.54	8994.68
449.73	9067.24
449.91	8858.93
450.10	8947.87
450.28	9069.58
450.46	9022.77
450.65	9055.53
450.83	8908.08
451.02	9076.60
451.20	8931.48
451.39	9259.16
451.57	8966.59
451.76	9198.31
451.94	9053.19
452.13	9172.56
452.31	9249.80
452.49	9034.47
452.68	9177.24
452.86	9287.25
453.05	9474.49
453.23	9322.35
453.42	9284.91
453.60	9202.99
453.78	9551.73
453.97	9121.07
454.15	9439.38
454.34	9408.95
454.52	9760.03
454.70	9514.28
454.89	9626.62
455.07	9687.48
455.26	9839.61
455.44	9975.36
455.62	9729.61
455.81	9874.72
455.99	9984.73
456.17	9994.09
456.36	9935.57
456.54	10340.49
456.73	10181.33
456.91	10391.98
457.09	10099.41
457.28	10628.37
457.46	10340.49
457.64	10443.47
457.83	10373.25
458.01	10354.53
458.19	10869.45
458.38	10516.03
458.56	10604.97
458.74	10628.37
458.93	10609.65
459.11	10539.43
459.29	10642.42
459.48	10862.43
459.66	10672.84
459.84	10855.40
460.03	10960.73
460.21	10729.02
460.39	11007.54
460.57	10890.51
460.76	10974.77
460.94	11052.01
461.12	11276.70
461.31	10988.82
461.49	11145.63
461.67	11164.36
461.85	11197.12
462.04	11243.93
462.22	11758.85
462.40	11613.74
462.59	11384.37
462.77	11449.90
462.95	11683.95
463.13	11389.05
463.32	11424.15
463.50	11765.87
463.68	11634.80
463.86	11674.59
464.05	11602.04
464.23	11782.26
464.41	11810.34
464.59	11487.35
464.78	12145.04
464.96	12100.57
465.14	11789.28
465.32	12166.10
465.50	12166.10
465.69	12152.06
465.87	11960.14
466.05	11967.16
466.23	12236.32
466.41	12180.15
466.60	12334.62
466.78	12046.74
466.96	12051.42
467.14	12313.56
467.32	12568.68
467.51	12119.29
467.69	12116.95
467.87	12468.03
468.05	12610.81
468.23	12465.69
468.41	12519.53
468.60	12475.06
468.78	12915.08
468.96	12449.31
469.14	12718.47
469.32	13071.89
469.50	12594.42
469.69	12802.73
469.87	12961.89
470.05	12982.95
470.23	13174.88
470.41	13193.60
470.59	13263.82
470.77	13006.36
470.95	13369.14
471.14	13720.22
471.32	12856.56
471.50	13282.54
471.68	13460.42
471.86	13547.02
472.04	13542.34
472.22	14022.15
472.40	13729.58
472.58	13818.52
472.77	13626.60
472.95	13980.02
473.13	14478.55
473.31	14026.83
473.49	14298.33
473.67	14054.92
473.85	14129.81
474.03	14544.09
474.21	14377.91
474.39	14420.04
474.57	14707.93
474.75	14857.72
474.93	14927.94
475.12	14906.87
475.30	14892.83
475.48	14782.82
475.66	15089.43
475.84	15180.71
476.02	15293.06
476.20	15264.97
476.38	15634.78
476.56	15974.16
476.74	16020.97
476.92	15693.29
477.10	15616.05
477.28	15868.83
477.46	16079.48
477.64	16105.23
477.82	16477.37
478.00	16840.15
478.18	16578.01
478.36	16947.82
478.54	16924.41
478.72	16744.19
478.90	17095.27
479.08	17312.94
479.26	17680.41
479.44	17474.44
479.62	17757.64
479.80	17984.68
479.98	18148.51
480.16	18616.62
480.34	18204.69
480.52	18635.35
480.70	18328.74
480.88	18476.19
481.06	18672.79
481.24	18466.83
481.41	19019.19
481.59	19227.50
481.77	19117.50
481.95	19220.48
482.13	19634.75
482.31	19508.37
482.49	19976.47
482.67	20152.01
482.85	20147.33
483.03	20423.51
483.21	20849.49
483.39	20680.97
483.57	20961.84
483.74	20823.75
483.92	21102.27
484.10	20868.22
484.28	21673.36
484.46	21649.96
484.64	21977.63
484.82	21778.68
485.00	22178.92
485.18	22560.42
485.35	23143.22
485.53	22317.01
485.71	22431.69
485.89	23733.03
486.07	23290.67
486.25	23218.11
486.43	23590.26
486.61	23555.15
486.78	24065.39
486.96	24245.61
487.14	24013.90
487.32	24187.10
487.50	24603.71
487.68	24980.54
487.85	24943.09
488.03	25469.71
488.21	25511.84
488.39	25680.36
488.57	25853.56
488.75	26103.99
488.92	26190.59
489.10	26197.62
489.28	26995.74
489.46	26991.06
489.64	26988.72
489.81	27377.25
489.99	27505.98
490.17	27943.66
490.35	28046.64
490.53	28018.55
490.70	28613.05
490.88	28329.84
491.06	28704.33
491.24	28701.99
491.41	28933.70
491.59	28938.38
491.77	29167.76
491.95	29230.95
492.13	29504.79
492.30	29741.19
492.48	29710.76
492.66	30057.16
492.84	30089.93
493.01	30279.51
493.19	30387.18
493.37	30764.00
493.54	30937.20
493.72	31342.11
493.90	31180.62
494.08	31519.99
494.25	31576.17
494.43	32194.07
494.61	32371.95
494.79	32002.14
494.96	32435.14
495.14	32191.73
495.32	33436.89
495.49	32989.85
495.67	33415.83
495.85	33558.60
496.02	33717.76
496.20	33792.65
496.38	33907.34
496.55	33895.64
496.73	34558.01
496.91	34354.38
497.09	34672.70
497.26	34813.13
497.44	34782.70
497.62	35000.37
497.79	35653.38
497.97	35819.56
498.14	35732.96
498.32	35999.78
498.50	35718.92
498.67	36203.41
498.85	36264.26
499.03	36617.68
499.20	36177.66
499.38	36739.39
499.56	36657.47
499.73	37029.62
499.91	37015.57
500.08	37336.23
500.26	37301.12
500.44	37387.72
500.61	37708.37
500.79	37457.93
500.97	37830.08
501.14	38565.01
501.32	38679.69
501.49	38354.36
501.67	38204.56
501.84	38525.22
502.02	38204.56
502.20	38775.66
502.37	38995.67
502.55	39323.34
502.72	39166.52
502.90	39021.41
503.07	39030.77
503.25	39440.37
503.43	39477.82
503.60	40011.46
503.78	40048.91
503.95	40009.12
504.13	40458.50
504.30	40458.50
504.48	39995.07
504.65	40327.43
504.83	40863.41
505.01	40823.62
505.18	41350.24
505.36	41284.71
505.53	40767.45
505.71	41603.02
505.88	41209.81
506.06	41418.12
506.23	41900.27
506.41	41521.10
506.58	41776.22
506.76	42258.37
506.93	42501.79
507.11	42146.03
507.28	42506.47
507.46	42230.29
507.63	43133.73
507.81	42859.89
507.98	42670.31
508.16	42667.97
508.33	43117.35
508.50	43129.05
508.68	43318.64
508.85	43765.68
509.03	43519.92
509.20	44027.82
509.38	43948.24
509.55	44112.08
509.73	44481.88
509.90	44507.63
510.08	44360.17
510.25	44374.22
510.42	44732.32
510.60	44559.12
510.77	45258.94
510.95	45111.49
511.12	45125.53
511.30	45214.47
511.47	45228.51
511.64	45394.69
511.82	45354.90
511.99	45177.02
512.17	46026.63
512.34	45282.34
512.51	46106.21
512.69	46047.70
512.86	45787.90
513.04	46295.80
513.21	46560.28
513.38	46525.17
513.56	46710.07
513.73	46560.28
513.90	46611.77
514.08	46604.75
514.25	46887.95
514.43	47187.54
514.60	47154.77
514.77	47131.37
514.95	47674.37
515.12	47402.87
515.29	47400.53
515.47	47800.76
515.64	47943.53
515.81	47878.00
515.99	47803.10
516.16	48037.16
516.33	48041.84
516.51	48645.69
516.68	48549.73
516.85	48261.85
517.03	48580.16
517.20	48626.97
517.37	48404.62
517.54	48692.50
517.72	48648.03
517.89	48835.28
518.06	48622.29
518.24	49368.92
518.41	49151.25
518.58	49366.58
518.75	48968.69
518.93	49392.33
519.10	49188.70
519.27	49284.66
519.45	49549.14
519.62	49907.24
519.79	49982.14
519.96	49378.28
520.14	49879.16
520.31	49684.89
520.48	50195.13
520.65	50012.57
520.83	50696.00
521.00	50380.03
521.17	50129.59
521.34	50663.24
521.52	50866.86
521.69	50628.13
521.86	51042.40
522.03	50841.12
522.20	51161.77
522.38	51231.99
522.55	51231.99
522.72	51114.96
522.89	51187.52
523.07	51430.93
523.24	51243.69
523.41	51653.28
523.58	51402.85
523.75	51576.04
523.92	51571.36
524.10	51758.61
524.27	51725.84
524.44	51484.76
524.61	51927.13
524.78	51941.17
524.96	51980.96
525.13	51976.28
525.30	52570.77
525.47	52500.56
525.64	52149.48
525.81	52484.17
525.98	52568.43
526.16	52729.93
526.33	52385.87
526.50	52439.70
526.67	52355.44
526.84	53139.52
527.01	52633.97
527.18	52603.54
527.36	52743.97
527.53	52753.33
527.70	53343.15
527.87	53062.29
528.04	52952.28
528.21	52928.87
528.38	53029.52
528.55	53689.55
528.72	53436.77
528.89	53169.95
529.07	53254.21
529.24	53553.80
529.41	53687.21
529.58	53645.08
529.75	53553.80
529.92	53755.08
530.09	53572.52
530.26	53755.08
530.43	53834.66
530.60	53537.41
530.77	53565.50
530.94	53932.96
531.11	53881.47
531.28	54026.59
531.46	54246.60
531.63	54195.10
531.80	54106.16
531.97	53998.50
532.14	54358.94
532.31	54150.63
532.48	54178.72
532.65	54553.21
532.82	54298.09
532.99	54787.26
533.16	54623.42
533.33	54576.61
533.50	54787.26
533.67	54813.01
533.84	54543.84
534.01	54651.51
534.18	54623.42
534.35	55028.34
534.52	54822.37
534.69	55255.37
534.86	55075.15
535.03	55061.10
535.20	54869.18
535.37	55147.70
535.54	55140.68
535.71	55086.85
535.88	55391.12
536.05	55161.75
536.22	55482.40
536.38	55370.05
536.55	55341.97
536.72	55519.85
536.89	55454.31
537.06	55559.64
537.23	55657.94
537.40	55489.42
537.57	55573.68
537.74	55618.15
537.91	55863.91
538.08	55702.41
538.25	55760.92
538.42	55884.97
538.59	55798.37
538.75	55735.18
538.92	55992.64
539.09	55992.64
539.26	55973.91
539.43	55742.20
539.60	56156.47
539.77	56023.06
539.94	56399.89
540.11	56357.76
540.28	56406.91
540.44	56371.80
540.61	56320.31
540.78	56289.88
540.95	56334.35
541.12	56264.14
541.29	56392.87
541.46	56411.59
541.62	56348.40
541.79	56381.16
541.96	56205.62
542.13	56385.85
542.30	56566.07
542.47	56706.50
542.63	56860.97
542.80	56580.11
542.97	57059.92
543.14	56982.68
543.31	57090.35
543.48	57286.95
543.64	57256.53
543.81	57183.97
543.98	57167.58
544.15	57183.97
544.32	57525.69
544.48	57497.60
544.65	57284.61
544.82	57282.27
544.99	57298.65
545.16	57244.82
545.32	57284.61
545.49	57591.22
545.66	57565.48
545.83	57319.72
546.00	57666.12
546.16	57471.85
546.33	57263.55
546.50	57291.63
546.67	57495.26
546.83	57354.83
547.00	57378.23
547.17	57336.10
547.34	57682.50
547.50	57858.04
547.67	57762.08
547.84	57710.59
548.00	57834.64
548.17	58003.16
548.34	58014.86
548.51	58237.21
548.67	58056.99
548.84	57834.64
549.01	57977.41
549.18	57844.00
549.34	58007.84
549.51	58319.13
549.68	58120.18
549.84	58145.93
550.01	58141.25
550.18	58073.37
550.34	58300.40
550.51	58375.30
550.68	58124.86
550.84	58190.40
551.01	58459.56
551.18	58258.27
551.34	58199.76
551.51	58632.76
551.68	58445.52
551.84	58560.20
552.01	58267.64
552.18	58534.46
552.34	58286.36
552.51	58695.95
552.68	58286.36
552.84	58473.60
553.01	58777.87
553.18	58681.91
553.34	58752.13
553.51	58461.90
553.67	58841.07
553.84	58941.71
554.01	58887.88
554.17	58967.46
554.34	58852.77
554.51	58925.33
554.67	59159.38
554.84	58742.77
555.00	58906.60
555.17	58958.09
555.33	58995.54
555.50	58609.35
555.67	59023.63
555.83	58700.64
556.00	59002.56
556.16	59348.96
556.33	58981.50
556.50	59119.59
556.66	59269.39
556.83	58871.49
556.99	59262.36
557.16	59250.66
557.32	59311.52
557.49	59646.21
557.65	59194.49
557.82	59126.61
557.98	59316.20
558.15	59395.77
558.32	59363.01
558.48	59320.88
558.65	59391.09
558.81	59470.67
558.98	59327.90
559.14	59348.96
559.31	59379.39
559.47	59456.63
559.64	59370.03
559.80	59641.53
559.97	59643.87
560.13	59473.01
560.30	59461.31
560.46	59700.04
560.63	59742.17
560.79	59660.26
560.96	59650.89
561.12	59697.70
561.29	59693.02
561.45	59704.73
561.61	59772.60
561.78	59709.41
561.94	59585.36
562.11	59681.32
562.27	59728.13
562.44	59657.91
562.60	60001.97
562.77	59784.30
562.93	59667.28
563.10	59777.28
563.26	59674.30
563.42	60102.62
563.59	59688.34
563.75	59835.80
563.92	60020.70
564.08	59891.97
564.24	59847.50
564.41	60032.40
564.57	60175.17
564.74	59859.20
564.90	60144.75
565.07	59955.16
565.23	59959.84
565.39	60009.00
565.56	60055.81
565.72	60025.38
565.88	60097.94
566.05	60151.77
566.21	60037.08
566.38	60156.45
566.54	60044.10
566.70	60259.43
566.87	60200.92
567.03	59994.95
567.19	60149.43
567.36	59971.55
567.52	60191.56
567.68	60364.76
567.85	60289.86
568.01	60306.24
568.17	60264.11
568.34	60261.77
568.50	60184.54
568.66	60217.30
568.83	60273.48
568.99	60287.52
569.15	60514.55
569.32	60168.15
569.48	60207.94
569.64	60423.27
569.81	60282.84
569.97	60210.28
570.13	60362.42
570.30	60074.53
570.46	60336.67
570.62	60287.52
570.78	60360.08
570.95	60334.33
571.11	60556.68
571.27	60282.84
571.43	60243.05
571.60	60376.46
571.76	60268.79
571.92	60509.87
572.09	60540.30
572.25	60371.78
572.41	60404.55
572.57	60205.60
572.74	60587.11
572.90	60364.76
573.06	60577.75
573.22	60549.66
573.38	60589.45
573.55	60486.46
573.71	60540.30
573.87	60561.36
574.03	60357.74
574.20	60556.68
574.36	60385.82
574.52	60727.54
574.68	60465.40
574.84	60601.15
575.01	60767.33
575.17	60509.87
575.33	60465.40
575.49	60425.61
575.65	60605.83
575.82	60872.65
575.98	60757.97
576.14	60790.73
576.30	60598.81
576.46	60619.88
576.62	60486.46
576.79	60559.02
576.95	60463.06
577.11	60664.35
577.27	60797.76
577.43	60835.20
577.59	60624.56
577.75	60559.02
577.92	60589.45
578.08	60692.43
578.24	60755.63
578.40	60725.20
578.56	60762.65
578.72	60619.88
578.88	60940.53
579.04	60973.30
579.21	60729.88
579.37	60907.76
579.53	60919.46
579.69	60526.25
579.85	60608.17
580.01	60402.21
580.17	60544.98
580.33	60807.12
580.49	60846.91
580.65	60631.58
580.82	60692.43
580.98	60832.86
581.14	60781.37
581.30	60872.65
581.46	60622.22
581.62	60729.88
581.78	60795.42
581.94	60764.99
582.10	60640.94
582.26	60830.52
582.42	60783.71
582.58	60846.91
582.74	60626.90
582.90	60736.90
583.06	60856.27
583.22	60654.98
583.38	60772.01
583.54	60814.14
583.70	60949.89
583.86	60856.27
584.02	60846.91
584.18	60907.76
584.34	60772.01
584.50	60809.46
584.66	60739.24
584.82	60753.29
584.98	61095.00
585.14	61116.07
585.30	60825.84
585.46	60757.97
585.62	60750.94
585.78	61099.68
585.94	60926.49
586.10	60823.50
586.26	60947.55
586.42	61071.60
586.58	61024.79
586.74	60853.93
586.90	60928.83
587.06	60839.89
587.22	60898.40
587.38	60891.38
587.54	61076.28
587.70	61155.86
587.86	60977.98
588.02	60853.93
588.18	61092.66
588.34	60999.04
588.49	60980.32
