SpectraSuite Data File
++++++++++++++++++++++++++++++++++++
Date: Fri Oct 25 11:33:48 EDT 2013
User: price-jones
Dark Spectrum Present: No
Reference Spectrum Present: No
Number of Sampled Component Spectra: 1
Spectrometers: USB2+H05261
Integration Time (usec): 100000 (USB2+H05261)
Spectra Averaged: 1 (USB2+H05261)
Boxcar Smoothing: 0 (USB2+H05261)
Correct for Electrical Dark: No (USB2+H05261)
Strobe/Lamp Enabled: No (USB2+H05261)
Correct for Detector Non-linearity: No (USB2+H05261)
Correct for Stray Light: No (USB2+H05261)
Number of Pixels in Processed Spectrum: 2048
>>>>>Begin Processed Spectral Data<<<<<
365.73	337.04
365.92	337.04
366.12	337.04
366.32	245.76
366.52	175.54
366.72	189.58
366.91	128.73
367.11	163.84
367.31	175.54
367.51	142.77
367.70	175.54
367.90	212.99
368.10	222.35
368.30	217.67
368.49	208.31
368.69	208.31
368.89	262.14
369.09	182.56
369.28	159.16
369.48	224.69
369.68	241.08
369.87	236.39
370.07	238.73
370.27	234.05
370.47	397.89
370.66	482.15
370.86	468.11
371.06	587.47
371.25	498.53
371.45	538.32
371.65	587.47
371.84	543.00
372.04	655.35
372.24	550.03
372.44	535.98
372.63	634.29
372.83	638.97
373.03	606.20
373.22	587.47
373.42	561.73
373.62	667.05
373.81	667.05
374.01	718.54
374.21	620.24
374.40	594.50
374.60	690.46
374.79	624.92
374.99	631.94
375.19	697.48
375.38	660.03
375.58	662.37
375.78	685.78
375.97	662.37
376.17	744.29
376.37	638.97
376.56	662.37
376.76	638.97
376.95	681.10
377.15	692.80
377.35	653.01
377.54	739.61
377.74	685.78
377.93	713.86
378.13	699.82
378.33	674.07
378.52	674.07
378.72	788.76
378.91	737.27
379.11	702.16
379.31	734.93
379.50	748.97
379.70	793.44
379.89	830.89
380.09	723.23
380.28	755.99
380.48	580.45
380.68	648.33
380.87	716.20
381.07	842.59
381.26	805.14
381.46	734.93
381.65	748.97
381.85	723.23
382.04	791.10
382.24	791.10
382.43	720.88
382.63	777.06
382.83	758.33
383.02	791.10
383.22	826.21
383.41	814.51
383.61	826.21
383.80	784.08
384.00	795.78
384.19	807.48
384.39	800.46
384.58	805.14
384.78	863.66
384.97	908.13
385.17	858.98
385.36	802.80
385.56	861.32
385.75	851.96
385.95	917.49
386.14	887.06
386.34	814.51
386.53	880.04
386.72	840.25
386.92	917.49
387.11	870.68
387.31	915.15
387.50	868.34
387.70	854.30
387.89	870.68
388.09	912.81
388.28	922.17
388.48	945.58
388.67	905.79
388.86	1018.13
389.06	947.92
389.25	877.70
389.45	936.21
389.64	1022.81
389.84	933.87
390.03	959.62
390.22	891.74
390.42	968.98
390.61	980.68
390.81	945.58
391.00	973.66
391.19	1053.24
391.39	973.66
391.58	978.34
391.78	1011.11
391.97	1055.58
392.16	1041.54
392.36	1032.18
392.55	1071.97
392.75	1067.28
392.94	1055.58
393.13	1039.20
393.33	1015.79
393.52	1146.86
393.71	1142.18
393.91	1078.99
394.10	1100.05
394.29	1083.67
394.49	1109.41
394.68	1116.44
394.88	1139.84
395.07	1240.48
395.26	1093.03
395.46	1167.93
395.65	1207.72
395.84	1233.46
396.04	1240.48
396.23	1228.78
396.42	1245.16
396.62	1273.25
396.81	1299.00
397.00	1266.23
397.19	1217.08
397.39	1256.87
397.58	1338.79
397.77	1231.12
397.97	1306.02
398.16	1249.85
398.35	1259.21
398.55	1238.14
398.74	1322.40
398.93	1315.38
399.12	1261.55
399.32	1350.49
399.51	1355.17
399.70	1401.98
399.90	1284.95
400.09	1416.02
400.28	1378.58
400.47	1359.85
400.67	1409.00
400.86	1306.02
401.05	1409.00
401.24	1448.79
401.44	1563.48
401.63	1455.81
401.82	1451.13
402.01	1469.86
402.21	1427.73
402.40	1504.96
402.59	1437.09
402.78	1472.20
402.97	1586.88
403.17	1509.65
403.36	1556.46
403.55	1540.07
403.74	1558.80
403.93	1551.78
404.13	1629.01
404.32	1540.07
404.51	1614.97
404.70	1598.59
404.89	1638.38
405.09	1743.70
405.28	1750.72
405.47	1640.72
405.66	1689.87
405.85	1757.74
406.05	1713.27
406.24	1701.57
406.43	1741.36
406.62	1825.62
406.81	1788.17
407.00	1790.51
407.20	1778.81
407.39	1783.49
407.58	1823.28
407.77	1832.64
407.96	1813.92
408.15	1900.52
408.34	1872.43
408.54	1783.49
408.73	1954.35
408.92	1898.17
409.11	2010.52
409.30	1954.35
409.49	1944.99
409.68	1982.43
409.87	1975.41
410.07	2073.71
410.26	2150.95
410.45	2003.50
410.64	2015.20
410.83	2134.57
411.02	2045.63
411.21	2090.10
411.40	2092.44
411.59	2108.82
411.78	2207.13
411.98	2080.74
412.17	2181.38
412.36	2214.15
412.55	2331.17
412.74	2326.49
412.93	2427.14
413.12	2193.08
413.31	2352.24
413.50	2310.11
413.69	2282.02
413.88	2380.32
414.07	2403.73
414.26	2452.88
414.45	2506.71
414.64	2513.74
414.83	2635.44
415.02	2562.89
415.22	2532.46
415.41	2551.18
415.60	2670.55
415.79	2747.79
415.98	2754.81
416.17	2715.02
416.36	2808.64
416.55	2799.28
416.74	2771.19
416.93	2813.32
417.12	2778.22
417.31	2834.39
417.50	2864.82
417.69	2942.05
417.88	2930.35
418.07	2911.63
418.26	2958.44
418.45	2949.08
418.64	3061.42
418.83	3110.57
419.02	3101.21
419.21	3117.59
419.39	3054.40
419.58	3087.17
419.77	3000.57
419.96	3028.65
420.15	2984.18
420.34	3225.26
420.53	3077.80
420.72	3126.96
420.91	3110.57
421.10	3178.45
421.29	3276.75
421.48	3159.72
421.67	3393.78
421.86	3239.30
422.05	3262.71
422.24	3274.41
422.43	3370.37
422.61	3311.86
422.80	3400.80
422.99	3487.40
423.18	3414.84
423.37	3522.51
423.56	3463.99
423.75	3428.88
423.94	3459.31
424.13	3169.09
424.32	3342.28
424.50	3424.20
424.69	3489.74
424.88	3611.45
425.07	3332.92
425.26	3279.09
425.45	3480.38
425.64	3410.16
425.83	3475.70
426.01	3524.85
426.20	3517.83
426.39	3606.77
426.58	3515.48
426.77	3468.67
426.96	3529.53
427.15	3510.80
427.33	3588.04
427.52	3510.80
427.71	3749.54
427.90	3702.73
428.09	3613.79
428.28	3613.79
428.46	3758.90
428.65	3709.75
428.84	3836.14
429.03	3765.92
429.22	3740.18
429.40	3770.60
429.59	3801.03
429.78	3688.68
429.97	3538.89
430.16	3822.09
430.34	3815.07
430.53	3840.82
430.72	3920.40
430.91	3875.93
431.10	3836.14
431.28	3906.35
431.47	3911.04
431.66	4049.13
431.85	3941.46
432.03	3946.14
432.22	4187.22
432.41	4016.36
432.60	4086.58
432.79	4060.83
432.97	4208.28
433.16	4051.47
433.35	4128.70
433.54	4184.88
433.72	4109.98
433.91	4294.88
434.10	4107.64
434.28	4163.81
434.47	4205.94
434.66	4243.39
434.85	4156.79
435.03	4313.61
435.22	4421.27
435.41	4461.06
435.59	4294.88
435.78	4418.93
435.97	4573.41
436.16	4215.30
436.34	4376.80
436.53	4372.12
436.72	4564.04
436.90	4421.27
437.09	4568.73
437.28	4535.96
437.46	4615.54
437.65	4369.78
437.84	4774.69
438.02	4437.66
438.21	4585.11
438.40	4550.00
438.58	4772.35
438.77	4877.68
438.96	4720.86
439.14	4882.36
439.33	4861.29
439.52	4987.68
439.70	4889.38
439.89	4980.66
440.08	4987.68
440.26	4961.94
440.45	4964.28
440.63	5170.24
440.82	5167.90
441.01	5139.82
441.19	5018.11
441.38	5221.74
441.57	5270.89
441.75	5179.61
441.94	5383.23
442.12	5364.51
442.31	5427.70
442.50	5378.55
442.68	5338.76
442.87	5439.40
443.05	5638.35
443.24	5600.90
443.43	5577.50
443.61	5455.79
443.80	5755.38
443.98	5472.17
444.17	5238.12
444.35	5621.97
444.54	5727.29
444.73	5551.75
444.91	5521.32
445.10	5650.05
445.28	5593.88
445.47	5540.05
445.65	5659.42
445.84	5682.82
446.02	5687.50
446.21	5788.14
446.39	5586.86
446.58	5893.47
446.77	5638.35
446.95	5561.11
447.14	5724.95
447.32	5837.30
447.51	5657.07
447.69	5584.52
447.88	5724.95
448.06	5757.72
448.25	5783.46
448.43	5806.87
448.62	5682.82
448.80	5841.98
448.99	5790.49
449.17	5724.95
449.36	5863.04
449.54	5860.70
449.73	6101.78
449.91	6001.13
450.10	6085.39
450.28	6076.03
450.46	6036.24
450.65	5954.32
450.83	5968.37
451.02	6033.90
451.20	6291.36
451.39	6363.92
451.57	6143.91
451.76	6267.95
451.94	6211.78
452.13	6279.66
452.31	6429.45
452.49	6209.44
452.68	6296.04
452.86	6216.46
453.05	6476.26
453.23	6377.96
453.42	6319.45
453.60	6340.51
453.78	6457.54
453.97	6324.13
454.15	6296.04
454.34	6352.21
454.52	6586.27
454.70	6403.71
454.89	6586.27
455.07	6565.20
455.26	6726.70
455.44	6602.65
455.62	6626.06
455.81	6661.16
455.99	6731.38
456.17	6839.05
456.36	6815.64
456.54	6705.63
456.73	6878.83
456.91	7063.74
457.09	6998.20
457.28	7035.65
457.46	6857.77
457.64	7129.27
457.83	7122.25
458.01	7000.54
458.19	7173.74
458.38	6979.48
458.56	7133.95
458.74	7045.01
458.93	7262.68
459.11	7222.89
459.29	7215.87
459.48	7239.28
459.66	7260.34
459.84	7194.81
460.03	7508.44
460.21	7428.86
460.39	7339.92
460.57	7325.88
460.76	7492.05
460.94	7442.90
461.12	7709.72
461.31	7651.21
461.49	7522.48
461.67	7611.42
461.85	7625.47
462.04	7576.31
462.22	8077.19
462.40	7903.99
462.59	7578.65
462.77	7805.69
462.95	7845.48
463.13	7819.73
463.32	7962.50
463.50	7925.05
463.68	7908.67
463.86	7964.84
464.05	7793.98
464.23	8037.40
464.41	8002.29
464.59	7803.35
464.78	8112.30
464.96	8154.43
465.14	7957.82
465.32	7995.27
465.50	8074.85
465.69	8299.54
465.87	7967.18
466.05	7983.57
466.23	8147.40
466.41	8339.33
466.60	8273.79
466.78	8315.92
466.96	8105.28
467.14	8362.73
467.32	8276.13
467.51	8280.82
467.69	8084.21
467.87	8306.56
468.05	8449.33
468.23	8449.33
468.41	8477.42
468.60	8294.86
468.78	8851.91
468.96	8524.23
469.14	8678.71
469.32	8606.15
469.50	8360.39
469.69	8596.79
469.87	8697.43
470.05	8788.71
470.23	8947.87
470.41	8725.52
470.59	8840.20
470.77	8882.33
470.95	8915.10
471.14	8943.19
471.32	8692.75
471.50	8847.22
471.68	8905.74
471.86	9050.85
472.04	9151.49
472.22	9252.14
472.40	8929.14
472.58	9336.40
472.77	9341.08
472.95	9460.45
473.13	9568.11
473.31	9320.01
473.49	9327.03
473.67	9638.33
473.85	9385.55
474.03	9785.78
474.21	9762.37
474.39	9790.46
474.57	9802.16
474.75	9727.27
474.93	9884.08
475.12	9781.10
475.30	10010.47
475.48	9954.30
475.66	10113.45
475.84	9980.04
476.02	10267.93
476.20	10235.16
476.38	10307.72
476.56	10714.97
476.74	10485.60
476.92	10658.80
477.10	10469.22
477.28	10747.74
477.46	10771.15
477.64	10775.83
477.82	10965.41
478.00	11213.51
478.18	11164.36
478.36	11162.01
478.54	11353.94
478.72	11234.57
478.90	11220.53
479.08	11798.64
479.26	11749.49
479.44	11934.39
479.62	11901.62
479.80	11812.68
479.98	12009.29
480.16	12343.99
480.34	11971.84
480.52	12299.52
480.70	12154.40
480.88	12149.72
481.06	12278.45
481.24	12428.24
481.41	12676.34
481.59	12849.54
481.77	12725.49
481.95	12842.52
482.13	13331.69
482.31	12844.86
482.49	13270.84
482.67	13123.38
482.85	13254.45
483.03	13631.28
483.21	13579.79
483.39	14003.43
483.57	13795.12
483.74	13991.72
483.92	13921.51
484.10	14038.53
484.28	14216.41
484.46	14410.68
484.64	14817.93
484.82	14539.41
485.00	14567.49
485.18	15040.28
485.35	15192.42
485.53	14834.32
485.71	15016.88
485.89	15124.54
486.07	15084.75
486.25	15304.76
486.43	15473.28
486.61	15690.95
486.78	15840.75
486.96	15866.49
487.14	15981.18
487.32	16098.20
487.50	16224.59
487.68	16486.73
487.85	16711.42
488.03	16336.94
488.21	16901.01
488.39	16947.82
488.57	17170.17
488.75	17319.96
488.92	17390.18
489.10	17544.66
489.28	17617.21
489.46	17633.60
489.64	17846.58
489.81	18029.15
489.99	18094.68
490.17	18202.35
490.35	18494.91
490.53	18420.02
490.70	18717.26
490.88	18649.39
491.06	18775.78
491.24	19105.79
491.41	19234.52
491.59	19152.60
491.77	19009.83
491.95	19372.61
492.13	19627.73
492.30	19625.39
492.48	19616.03
492.66	19590.28
492.84	19796.25
493.01	19892.21
493.19	19936.68
493.37	20320.53
493.54	20173.08
493.72	20388.41
493.90	20556.93
494.08	20723.10
494.25	20973.54
494.43	20938.43
494.61	20964.18
494.79	21462.71
494.96	21233.34
495.14	21212.28
495.32	21788.05
495.49	21774.00
495.67	22033.80
495.85	21788.05
496.02	22026.78
496.20	21979.97
496.38	22354.46
496.55	22532.34
496.73	22799.16
496.91	23103.43
497.09	23129.17
497.26	22864.69
497.44	22834.27
497.62	23171.30
497.79	23506.00
497.97	22993.42
498.14	23323.44
498.32	23875.80
498.50	23889.85
498.67	24004.53
498.85	23847.72
499.03	24236.25
499.20	24336.89
499.38	24177.73
499.56	24449.24
499.73	24231.57
499.91	24514.77
500.08	24687.97
500.26	24573.28
500.44	24807.34
500.61	24879.89
500.79	25055.43
500.97	25078.84
501.14	25390.13
501.32	25406.52
501.49	25355.02
501.67	25525.88
501.84	25575.03
502.02	25420.56
502.20	25713.13
502.37	25736.53
502.55	25961.22
502.72	25977.61
502.90	26064.21
503.07	25942.50
503.25	26216.34
503.43	26101.65
503.60	26396.56
503.78	26504.23
503.95	26291.24
504.13	26181.23
504.30	26473.80
504.48	26321.66
504.65	26923.18
504.83	27171.28
505.01	27194.68
505.18	27030.85
505.36	27557.47
505.53	27012.12
505.71	27276.60
505.88	27311.71
506.06	27295.33
506.23	27510.66
506.41	27503.64
506.58	27634.71
506.76	27887.48
506.93	28020.89
507.11	27667.47
507.28	27946.00
507.46	28149.62
507.63	28126.22
507.81	28514.75
507.98	28130.90
508.16	28533.47
508.33	28538.15
508.50	28622.41
508.68	28496.02
508.85	29078.82
509.03	28676.24
509.20	28933.70
509.38	29530.54
509.55	29165.42
509.73	29369.04
509.90	29710.76
510.08	29476.71
510.25	29479.05
510.42	29556.28
510.60	29631.18
510.77	29727.14
510.95	30008.01
511.12	30050.14
511.30	29436.92
511.47	30153.12
511.64	29872.26
511.82	30384.83
511.99	30272.49
512.17	30384.83
512.34	30417.60
512.51	30869.33
512.69	30899.75
512.86	30817.83
513.04	30953.58
513.21	30955.93
513.38	31105.72
513.56	30981.67
513.73	30967.63
513.90	31213.38
514.08	30976.99
514.25	31124.44
514.43	31754.05
514.60	31718.94
514.77	32091.09
514.95	31997.46
515.12	31934.27
515.29	31529.36
515.47	31779.79
515.64	32240.88
515.81	32194.07
515.99	31847.67
516.16	32409.40
516.33	32257.26
516.51	32488.98
516.68	32486.64
516.85	32238.54
517.03	32357.91
517.20	32631.75
517.37	32882.19
517.54	32542.81
517.72	32849.42
517.89	32783.88
518.06	33209.86
518.24	32992.19
518.41	33090.49
518.58	32952.40
518.75	33277.74
518.93	33357.32
519.10	33394.76
519.27	33266.03
519.45	33177.09
519.62	33544.56
519.79	34000.96
519.96	33755.21
520.14	34071.18
520.31	33713.08
520.48	33923.72
520.65	34000.96
520.83	34183.52
521.00	34436.30
521.17	34134.37
521.34	34478.43
521.52	34520.56
521.69	34330.98
521.86	34862.28
522.03	34808.45
522.20	34572.05
522.38	35119.74
522.55	35159.53
522.72	34773.34
522.89	34731.21
523.07	35201.66
523.24	35391.24
523.41	35531.67
523.58	35091.65
523.75	35583.16
523.92	35838.28
524.10	35281.24
524.27	35622.95
524.44	35885.09
524.61	35938.93
524.78	35936.59
524.96	36053.61
525.13	36079.36
525.30	35957.65
525.47	36376.61
525.64	36102.76
525.81	36311.07
525.98	35864.03
526.16	36126.17
526.33	35887.43
526.50	35910.84
526.67	36081.70
526.84	36500.65
527.01	36273.62
527.18	36402.35
527.36	36779.18
527.53	36825.99
527.70	37443.89
527.87	37249.63
528.04	37076.43
528.21	36811.95
528.38	37078.77
528.55	37158.34
528.72	37209.84
528.89	37298.78
529.07	37425.17
529.24	37074.09
529.41	37509.43
529.58	37333.89
529.75	37205.16
529.92	37691.99
530.09	37481.34
530.26	37680.28
530.43	37890.93
530.60	37717.73
530.77	37680.28
530.94	37818.38
531.11	37579.64
531.28	38117.96
531.46	38340.32
531.63	38075.84
531.80	38202.22
531.97	38192.86
532.14	38693.74
532.31	38433.94
532.48	39065.88
532.65	38927.79
532.82	38398.83
532.99	38417.55
533.16	38050.09
533.33	39016.73
533.50	38976.94
533.67	38670.33
533.84	38513.52
534.01	38480.75
534.18	38368.40
534.35	39461.43
534.52	39168.87
534.69	39433.35
534.86	39374.83
535.03	39257.81
535.20	39192.27
535.37	39180.57
535.54	39402.92
535.71	39810.17
535.88	39405.26
536.05	39463.77
536.22	39665.06
536.38	39910.82
536.55	39550.37
536.72	39501.22
536.89	39868.69
537.06	39590.16
537.23	40524.04
537.40	40084.01
537.57	39611.23
537.74	40133.17
537.91	40149.55
538.08	39981.03
538.25	39887.41
538.42	40212.74
538.59	40140.19
538.75	40020.82
538.92	40715.96
539.09	40587.23
539.26	40327.43
539.43	40502.97
539.60	40390.62
539.77	40507.65
539.94	40971.08
540.11	40708.94
540.28	41071.72
540.44	40404.67
540.61	40533.40
540.78	40840.01
540.95	40708.94
541.12	40678.51
541.29	40868.09
541.46	40804.90
541.62	41523.44
541.79	41549.19
541.96	40755.75
542.13	41064.70
542.30	41244.92
542.47	41247.26
542.63	41345.56
542.80	41638.13
542.97	41930.70
543.14	41443.87
543.31	41867.50
543.48	41785.58
543.64	41970.49
543.81	42244.33
543.98	41951.76
544.15	41827.71
544.32	42478.38
544.48	42225.60
544.65	42101.56
544.82	42185.82
544.99	41773.88
545.16	42220.92
545.32	42356.67
545.49	42672.65
545.66	42684.35
545.83	42476.04
546.00	42677.33
546.16	42555.62
546.33	42504.13
546.50	42543.92
546.67	42562.64
546.83	42183.48
547.00	42183.48
547.17	42602.43
547.34	42745.20
547.50	42738.18
547.67	43384.17
547.84	43115.01
548.00	43452.05
548.17	43054.15
548.34	42827.12
548.51	43276.51
548.67	43395.87
548.84	42930.11
549.01	43288.21
549.18	43381.83
549.34	43185.22
549.51	43297.57
549.68	43459.07
549.84	43466.09
550.01	43496.52
550.18	43634.61
550.34	43732.91
550.51	44285.28
550.68	43917.81
550.84	43442.68
551.01	43613.54
551.18	43618.22
551.34	43316.29
551.51	44179.95
551.68	43878.02
551.84	43700.14
552.01	43660.35
552.18	43941.22
552.34	43552.69
552.51	43999.73
552.68	43957.60
552.84	44287.62
553.01	44069.95
553.18	43688.44
553.34	44271.23
553.51	43889.73
553.67	44311.02
553.84	44416.35
554.01	44425.71
554.17	44577.84
554.34	44449.11
554.51	44341.45
554.67	44720.62
554.84	44538.05
555.00	44767.43
555.17	44378.90
555.33	44514.65
555.50	44610.61
555.67	44439.75
555.83	44711.25
556.00	44877.43
556.16	45202.77
556.33	44945.31
556.50	44868.07
556.66	44889.13
556.83	44634.02
556.99	45326.81
557.16	45155.96
557.32	44910.20
557.49	45116.17
557.65	44844.66
557.82	44980.42
557.98	45191.06
558.15	45069.36
558.32	45059.99
558.48	44685.51
558.65	45258.94
558.81	45160.64
558.98	44797.85
559.14	45291.71
559.31	44903.18
559.47	45242.56
559.64	45457.88
559.80	45544.48
559.97	45659.17
560.13	44746.36
560.30	45317.45
560.46	45375.97
560.63	45881.52
560.79	45694.28
560.96	45738.75
561.12	45577.25
561.29	45331.50
561.45	45457.88
561.61	45453.20
561.78	45652.15
561.94	45539.80
562.11	45855.78
562.27	45670.87
562.44	45715.34
562.60	45841.73
562.77	46052.38
562.93	45691.94
563.10	46061.74
563.26	45902.59
563.42	45928.33
563.59	45844.07
563.75	46174.09
563.92	45694.28
564.08	46113.23
564.24	46183.45
564.41	45911.95
564.57	46134.30
564.74	45996.21
564.90	45865.14
565.07	45680.24
565.23	45860.46
565.39	46050.04
565.56	46012.59
565.72	46054.72
565.88	46478.36
566.05	46199.83
566.21	46108.55
566.38	46284.09
566.54	46256.01
566.70	46588.36
566.87	46000.89
567.03	46438.57
567.19	46616.45
567.36	46265.37
567.52	46344.95
567.68	46492.40
567.85	46333.24
568.01	46487.72
568.17	46251.33
568.34	46487.72
568.50	46075.79
568.66	46206.86
568.83	46440.91
568.99	46267.71
569.15	46525.17
569.32	46396.44
569.48	46576.66
569.64	46923.06
569.81	46312.18
569.97	46681.98
570.13	46836.46
570.30	46799.01
570.46	46656.24
570.62	46649.22
570.78	46579.00
570.95	46464.32
571.11	47194.56
571.27	46344.95
571.43	46674.96
571.60	46679.64
571.76	46286.43
571.92	46403.46
572.09	46478.36
572.25	46492.40
572.41	46810.71
572.57	46597.73
572.74	46515.81
572.90	46527.51
573.06	46817.74
573.22	47098.60
573.38	47330.31
573.55	46782.63
573.71	47166.48
573.87	46946.47
574.03	46829.44
574.20	46993.28
574.36	46937.10
574.52	47349.04
574.68	47105.62
574.84	47107.96
575.01	47004.98
575.17	46880.93
575.33	47007.32
575.49	46906.68
575.65	47229.67
575.82	47189.88
575.98	46906.68
576.14	47133.71
576.30	47126.69
576.46	46930.08
576.62	47178.18
576.79	46883.27
576.95	46625.81
577.11	46649.22
577.27	47021.36
577.43	47124.35
577.59	47068.17
577.75	46845.82
577.92	46885.61
578.08	46962.85
578.24	46733.48
578.40	47065.83
578.56	47203.92
578.72	47346.70
578.88	47498.83
579.04	47114.98
579.21	46932.42
579.37	47206.26
579.53	47360.74
579.69	46885.61
579.85	46501.76
580.01	47035.41
580.17	47224.99
580.33	46969.87
580.49	46923.06
580.65	47196.90
580.82	47065.83
580.98	47171.16
581.14	46916.04
581.30	47667.35
581.46	46997.96
581.62	47014.34
581.78	47089.24
581.94	47604.16
582.10	46941.78
582.26	47377.12
582.42	47423.93
582.58	47079.88
582.74	47217.97
582.90	47250.74
583.06	47639.26
583.22	47227.33
583.38	47641.60
583.54	47473.09
583.70	47058.81
583.86	47222.65
584.02	47122.01
584.18	47416.91
584.34	47704.80
584.50	47587.77
584.66	47676.71
584.82	47255.42
584.98	47606.50
585.14	47800.76
585.30	47445.00
585.46	47730.54
585.62	47079.88
585.78	47730.54
585.94	47061.15
586.10	47416.91
586.26	46976.89
586.42	47592.45
586.58	47250.74
586.74	47051.79
586.90	47278.82
587.06	47475.43
587.22	47880.34
587.38	47213.29
587.54	47606.50
587.70	47524.58
587.86	47564.37
588.02	46855.18
588.18	47110.30
588.34	47519.90
588.49	47491.81
588.65	47351.38
588.81	47264.78
588.97	47367.76
589.13	47552.66
589.29	47400.53
589.45	47278.82
589.61	47770.33
589.77	47540.96
589.93	47342.02
590.08	47833.53
