SpectraSuite Data File
++++++++++++++++++++++++++++++++++++
Date: Fri Oct 25 10:44:49 EDT 2013
User: price-jones
Dark Spectrum Present: No
Reference Spectrum Present: No
Number of Sampled Component Spectra: 1
Spectrometers: USB2+H05261
Integration Time (usec): 100000 (USB2+H05261)
Spectra Averaged: 1 (USB2+H05261)
Boxcar Smoothing: 0 (USB2+H05261)
Correct for Electrical Dark: No (USB2+H05261)
Strobe/Lamp Enabled: No (USB2+H05261)
Correct for Detector Non-linearity: No (USB2+H05261)
Correct for Stray Light: No (USB2+H05261)
Number of Pixels in Processed Spectrum: 2048
>>>>>Begin Processed Spectral Data<<<<<
365.73	133.41
365.92	133.41
366.12	133.41
366.32	2.34
366.52	0.00
366.72	37.45
366.91	28.09
367.11	0.00
367.31	16.38
367.51	0.00
367.70	77.24
367.90	58.51
368.10	53.83
368.30	4.68
368.49	39.79
368.69	21.06
368.89	39.79
369.09	81.92
369.28	49.15
369.48	51.49
369.68	100.64
369.87	79.58
370.07	84.26
370.27	138.09
370.47	201.29
370.66	358.10
370.86	386.19
371.06	491.51
371.25	503.22
371.45	400.23
371.65	475.13
371.84	428.32
372.04	451.72
372.24	456.40
372.44	367.46
372.63	505.56
372.83	519.60
373.03	430.66
373.22	571.09
373.42	503.22
373.62	433.00
373.81	543.00
374.01	507.90
374.21	561.73
374.40	550.03
374.60	594.50
374.79	650.67
374.99	503.22
375.19	601.52
375.38	519.60
375.58	580.45
375.78	512.58
375.97	559.39
376.17	617.90
376.37	592.16
376.56	543.00
376.76	489.17
376.95	486.83
377.15	596.84
377.35	596.84
377.54	622.58
377.74	521.94
377.93	592.16
378.13	617.90
378.33	585.13
378.52	585.13
378.72	620.24
378.91	645.99
379.11	554.71
379.31	636.63
379.50	648.33
379.70	713.86
379.89	631.94
380.09	580.45
380.28	643.65
380.48	631.94
380.68	650.67
380.87	641.31
381.07	638.97
381.26	674.07
381.46	636.63
381.65	667.05
381.85	592.16
382.04	692.80
382.24	631.94
382.43	667.05
382.63	674.07
382.83	674.07
383.02	650.67
383.22	695.14
383.41	699.82
383.61	636.63
383.80	765.36
384.00	765.36
384.19	774.72
384.39	688.12
384.58	681.10
384.78	737.27
384.97	683.44
385.17	777.06
385.36	727.91
385.56	734.93
385.75	807.48
385.95	816.85
386.14	786.42
386.34	765.36
386.53	908.13
386.72	779.40
386.92	788.76
387.11	798.12
387.31	802.80
387.50	765.36
387.70	770.04
387.89	753.65
388.09	823.87
388.28	842.59
388.48	798.12
388.67	894.08
388.86	765.36
389.06	880.04
389.25	924.51
389.45	964.30
389.64	947.92
389.84	910.47
390.03	875.36
390.22	919.83
390.42	889.40
390.61	936.21
390.81	997.07
391.00	966.64
391.19	1032.18
391.39	912.81
391.58	875.36
391.78	1041.54
391.97	973.66
392.16	936.21
392.36	1004.09
392.55	1046.22
392.75	875.36
392.94	875.36
393.13	917.49
393.33	875.36
393.52	987.71
393.71	976.00
393.91	1093.03
394.10	933.87
394.29	1039.20
394.49	978.34
394.68	1151.54
394.88	1060.26
395.07	1224.10
395.26	1097.71
395.46	1041.54
395.65	1174.95
395.84	1130.48
396.04	1144.52
396.23	1121.12
396.42	1165.59
396.62	1156.22
396.81	1088.35
397.00	1153.88
397.19	1151.54
397.39	1149.20
397.58	1242.82
397.77	1221.76
397.97	1235.80
398.16	1301.34
398.35	1315.38
398.55	1280.27
398.74	1465.18
398.93	1420.71
399.12	1383.26
399.32	1338.79
399.51	1324.74
399.70	1425.39
399.90	1359.85
400.09	1345.81
400.28	1364.53
400.47	1387.94
400.67	1500.28
400.86	1416.02
401.05	1516.67
401.24	1439.43
401.44	1460.49
401.63	1502.62
401.82	1493.26
402.01	1598.59
402.21	1551.78
402.40	1549.43
402.59	1551.78
402.78	1483.90
402.97	1535.39
403.17	1497.94
403.36	1511.99
403.55	1596.25
403.74	1675.82
403.93	1664.12
404.13	1640.72
404.32	1687.53
404.51	1645.40
404.70	1657.10
404.89	1732.00
405.09	1741.36
405.28	1722.63
405.47	1750.72
405.66	1727.32
405.85	1647.74
406.05	1750.72
406.24	1699.23
406.43	1818.60
406.62	1792.85
406.81	1834.98
407.00	1851.36
407.20	1853.70
407.39	1832.64
407.58	1926.26
407.77	1944.99
407.96	2064.35
408.15	1966.05
408.34	1963.71
408.54	2012.86
408.73	1900.52
408.92	2033.93
409.11	2036.27
409.30	2008.18
409.49	2080.74
409.68	2038.61
409.87	1923.92
410.07	2108.82
410.26	2092.44
410.45	2040.95
410.64	2134.57
410.83	2209.47
411.02	2190.74
411.21	2352.24
411.40	2251.60
411.59	2349.90
411.78	2277.34
411.98	2258.62
412.17	2305.43
412.36	2413.09
412.55	2448.20
412.74	2377.98
412.93	2342.88
413.12	2410.75
413.31	2480.97
413.50	2450.54
413.69	2523.10
413.88	2637.78
414.07	2410.75
414.26	2644.81
414.45	2654.17
414.64	2628.42
414.83	2663.53
415.02	2700.98
415.22	2670.55
415.41	2649.49
415.60	2862.48
415.79	2841.41
415.98	2888.22
416.17	2825.03
416.36	2888.22
416.55	3014.61
416.74	2902.26
416.93	3012.27
417.12	2860.13
417.31	2930.35
417.50	2963.12
417.69	3232.28
417.88	3052.06
418.07	3098.87
418.26	3138.66
418.45	3119.93
418.64	3295.47
418.83	3148.02
419.02	3124.62
419.21	3349.31
419.39	3192.49
419.58	3159.72
419.77	3098.87
419.96	3204.19
420.15	3243.98
420.34	3342.28
420.53	3236.96
420.72	3288.45
420.91	3332.92
421.10	3328.24
421.29	3417.18
421.48	3351.65
421.67	3433.57
421.86	3311.86
422.05	3433.57
422.24	3375.05
422.43	3375.05
422.61	3459.31
422.80	3496.76
422.99	3597.40
423.18	3513.14
423.37	3597.40
423.56	3562.30
423.75	3653.58
423.94	3494.42
424.13	3236.96
424.32	3478.04
424.50	3412.50
424.69	3576.34
424.88	3529.53
425.07	3405.48
425.26	3585.70
425.45	3452.29
425.64	3555.27
425.83	3527.19
426.01	3559.95
426.20	3574.00
426.39	3705.07
426.58	3559.95
426.77	3545.91
426.96	3644.21
427.15	3637.19
427.33	3581.02
427.52	3756.56
427.71	3695.71
427.90	3784.65
428.09	3695.71
428.28	3777.62
428.46	3803.37
428.65	3826.78
428.84	3737.84
429.03	3878.27
429.22	3758.90
429.40	3861.88
429.59	3859.54
429.78	3510.80
429.97	3662.94
430.16	3707.41
430.34	3866.56
430.53	3983.59
430.72	3854.86
430.91	3854.86
431.10	3915.72
431.28	4140.41
431.47	4128.70
431.66	4135.73
431.85	4065.51
432.03	4081.89
432.22	4245.73
432.41	4262.12
432.60	4271.48
432.79	4273.82
432.97	4322.97
433.16	4205.94
433.35	4231.69
433.54	4243.39
433.72	4156.79
433.91	4212.96
434.10	4337.01
434.28	4182.54
434.47	4320.63
434.66	4390.84
434.85	4423.61
435.03	4430.63
435.22	4402.55
435.41	4470.42
435.59	4589.79
435.78	4629.58
435.97	4540.64
436.16	4592.13
436.34	4681.07
436.53	4725.54
436.72	4727.88
436.90	4744.27
437.09	4762.99
437.28	4470.42
437.46	4765.33
437.65	4643.62
437.84	4744.27
438.02	4720.86
438.21	4690.43
438.40	4774.69
438.58	4840.23
438.77	4868.31
438.96	4910.44
439.14	5167.90
439.33	5025.13
439.52	4975.98
439.70	5097.69
439.89	5163.22
440.08	5107.05
440.26	5160.88
440.45	5345.78
440.63	5263.86
440.82	5310.68
441.01	5252.16
441.19	5352.81
441.38	5502.60
441.57	5493.24
441.75	5694.52
441.94	5640.69
442.12	5568.13
442.31	5853.68
442.50	5640.69
442.68	5621.97
442.87	5738.99
443.05	5671.12
443.24	5837.30
443.43	5877.09
443.61	5771.76
443.80	5933.26
443.98	5694.52
444.17	5673.46
444.35	5928.58
444.54	5909.85
444.73	5841.98
444.91	5778.78
445.10	5760.06
445.28	5823.25
445.47	5858.36
445.65	5785.80
445.84	5877.09
446.02	5872.40
446.21	6001.13
446.39	5900.49
446.58	5944.96
446.77	6050.28
446.95	5834.96
447.14	5792.83
447.32	6078.37
447.51	5944.96
447.69	5956.66
447.88	6003.47
448.06	5977.73
448.25	6031.56
448.43	5973.05
448.62	5989.43
448.80	6029.22
448.99	6080.71
449.17	6120.50
449.36	6059.65
449.54	6223.48
449.73	6225.82
449.91	6403.71
450.10	6459.88
450.28	6356.90
450.46	6375.62
450.65	6342.85
450.83	6572.22
451.02	6511.37
451.20	6473.92
451.39	6654.14
451.57	6415.41
451.76	6272.64
451.94	6469.24
452.13	6504.35
452.31	6401.37
452.49	6396.68
452.68	6612.01
452.86	6544.14
453.05	6546.48
453.23	6698.61
453.42	6588.61
453.60	6773.51
453.78	6782.87
453.97	6469.24
454.15	6504.35
454.34	6604.99
454.52	6946.71
454.70	6789.89
454.89	6778.19
455.07	6799.26
455.26	6977.14
455.44	6949.05
455.62	6979.48
455.81	7098.84
455.99	6956.07
456.17	7094.16
456.36	7131.61
456.54	7026.29
456.73	7047.35
456.91	7267.36
457.09	7300.13
457.28	7475.67
457.46	7309.49
457.64	7379.71
457.83	7389.07
458.01	7426.52
458.19	7543.55
458.38	7475.67
458.56	7616.10
458.74	7356.30
458.93	7480.35
459.11	7513.12
459.29	7335.24
459.48	7438.22
459.66	7353.96
459.84	7632.49
460.03	7644.19
460.21	7698.02
460.39	7674.62
460.57	7927.39
460.76	7524.82
460.94	7723.77
461.12	7744.83
461.31	7793.98
461.49	7903.99
461.67	7693.34
461.85	7962.50
462.04	7943.78
462.22	8168.47
462.40	7878.24
462.59	8070.17
462.77	7964.84
462.95	8060.80
463.13	7817.39
463.32	8013.99
463.50	8086.55
463.68	8313.58
463.86	8109.96
464.05	8196.56
464.23	8081.87
464.41	8021.02
464.59	8098.25
464.78	8348.69
464.96	8138.04
465.14	8205.92
465.32	8400.18
465.50	8252.73
465.69	8446.99
465.87	8194.22
466.05	8547.64
466.23	8423.59
466.41	8334.65
466.60	8482.10
466.78	8390.82
466.96	8489.12
467.14	8362.73
467.32	8575.72
467.51	8603.81
467.69	8257.41
467.87	8519.55
468.05	8631.90
468.23	8699.77
468.41	8540.61
468.60	8627.21
468.78	8760.63
468.96	8545.30
469.14	8805.10
469.32	9064.89
469.50	8716.16
469.69	8947.87
469.87	8842.54
470.05	9139.79
470.23	8812.12
470.41	8901.06
470.59	8947.87
470.77	9114.05
470.95	9039.15
471.14	9284.91
471.32	8964.25
471.50	9275.54
471.68	9317.67
471.86	9577.47
472.04	9483.85
472.22	9734.29
472.40	9280.22
472.58	9385.55
472.77	9329.38
472.95	9617.26
473.13	9774.08
473.31	9638.33
473.49	9425.34
473.67	9607.90
473.85	9694.50
474.03	10094.73
474.21	9870.04
474.39	10076.01
474.57	10223.46
474.75	10448.15
474.93	10354.53
475.12	10036.22
475.30	10136.86
475.48	10244.52
475.66	10377.94
475.84	10099.41
476.02	10649.44
476.20	10441.13
476.38	10335.81
476.56	10729.02
476.74	10810.93
476.92	10682.20
477.10	10789.87
477.28	10960.73
477.46	11007.54
477.64	11023.92
477.82	11265.00
478.00	11276.70
478.18	11616.08
478.36	11398.41
478.54	11599.70
478.72	11442.88
478.90	11641.82
479.08	11939.07
479.26	11878.22
479.44	12102.91
479.62	12079.50
479.80	12184.83
479.98	12266.75
480.16	12538.25
480.34	12468.03
480.52	12348.67
480.70	12599.10
480.88	12334.62
481.06	12540.59
481.24	12723.15
481.41	12947.84
481.59	12938.48
481.77	13221.69
481.95	13083.59
482.13	13256.79
482.31	13160.83
482.49	13635.96
482.67	13310.63
482.85	13713.20
483.03	14061.94
483.21	13921.51
483.39	14087.68
483.57	14052.58
483.74	14225.78
483.92	14333.44
484.10	14312.38
484.28	14394.29
484.46	14939.64
484.64	14803.89
484.82	14647.07
485.00	14813.25
485.18	15054.33
485.35	15279.02
485.53	15108.16
485.71	15129.22
485.89	15176.03
486.07	15112.84
486.25	15461.58
486.43	15316.47
486.61	15913.30
486.78	15948.41
486.96	16107.57
487.14	16098.20
487.32	16439.92
487.50	16404.81
487.68	16769.94
487.85	16786.32
488.03	17207.62
488.21	17249.75
488.39	17151.45
488.57	17369.12
488.75	17687.43
488.92	17378.48
489.10	17877.01
489.28	17891.06
489.46	18164.90
489.64	17818.50
489.81	18562.79
489.99	18380.23
490.17	18665.77
490.35	18860.04
490.53	18462.15
490.70	18677.48
490.88	18857.70
491.06	19463.90
491.24	19194.73
491.41	19225.16
491.59	19241.54
491.77	19403.04
491.95	19674.54
492.13	19824.34
492.30	19882.85
492.48	20002.22
492.66	20093.50
492.84	20056.05
493.01	20105.20
493.19	20058.39
493.37	20601.40
493.54	20514.80
493.72	20615.44
493.90	20615.44
494.08	20915.03
494.25	21287.17
494.43	21074.18
494.61	21422.92
494.79	21647.61
494.96	21642.93
495.14	21495.48
495.32	21685.06
495.49	21755.28
495.67	21891.03
495.85	22328.71
496.02	22265.52
496.20	22530.00
496.38	22548.72
496.55	22881.08
496.73	23140.88
496.91	22714.90
497.09	23068.32
497.26	22848.31
497.44	22904.48
497.62	23115.13
497.79	23447.49
497.97	23328.12
498.14	23651.11
498.32	23772.82
498.50	23498.98
498.67	24332.21
498.85	23831.33
499.03	24243.27
499.20	24339.23
499.38	24304.12
499.56	24198.80
499.73	24601.37
499.91	24496.05
500.08	24898.62
500.26	24423.49
500.44	24606.05
500.61	24886.92
500.79	24556.90
500.97	24929.05
501.14	25326.94
501.32	25027.35
501.49	25025.01
501.67	25284.81
501.84	25404.17
502.02	25425.24
502.20	25619.50
502.37	25930.80
502.55	25862.92
502.72	26033.78
502.90	25891.01
503.07	25741.21
503.25	26188.25
503.43	25949.52
503.60	26132.08
503.78	26476.14
503.95	25972.92
504.13	26426.99
504.30	26242.09
504.48	26525.29
504.65	26628.27
504.83	27239.15
505.01	26984.04
505.18	26850.63
505.36	27763.43
505.53	27257.88
505.71	27608.96
505.88	27421.72
506.06	27136.17
506.23	27735.35
506.41	27665.13
506.58	27906.21
506.76	27566.83
506.93	28233.88
507.11	28046.64
507.28	28006.85
507.46	28243.24
507.63	27751.73
507.81	28105.15
507.98	28154.30
508.16	28425.81
508.33	28531.13
508.50	28374.31
508.68	28718.37
508.85	28891.57
509.03	28687.95
509.20	28936.04
509.38	29460.32
509.55	29326.91
509.73	29366.70
509.90	29268.40
510.08	29357.34
510.25	29181.80
510.42	29355.00
510.60	29605.44
510.77	29766.93
510.95	29874.60
511.12	29956.52
511.30	30022.05
511.47	29982.26
511.64	29984.60
511.82	30237.38
511.99	30134.40
512.17	30356.75
512.34	30153.12
512.51	30459.73
512.69	30291.21
512.86	30719.53
513.04	30883.37
513.21	31189.98
513.38	30380.15
513.56	30579.10
513.73	30616.55
513.90	30918.48
514.08	31026.14
514.25	30925.50
514.43	30625.91
514.60	31157.21
514.77	31012.10
514.95	31576.17
515.12	31342.11
515.29	31435.74
515.47	31768.09
515.64	31646.38
515.81	31679.15
515.99	31363.18
516.16	32060.66
516.33	31887.46
516.51	31761.07
516.68	31655.75
516.85	31711.92
517.03	31512.97
517.20	31983.42
517.37	32329.82
517.54	32208.11
517.72	32182.37
517.89	31964.70
518.06	31824.26
518.24	32081.72
518.41	31964.70
518.58	32142.58
518.75	32589.62
518.93	32774.52
519.10	32496.00
519.27	32603.66
519.45	32760.48
519.62	32730.05
519.79	33160.71
519.96	33509.45
520.14	33579.67
520.31	33479.02
520.48	33673.29
520.65	33574.98
520.83	33537.54
521.00	33743.50
521.17	33570.30
521.34	34127.35
521.52	33715.42
521.69	33874.57
521.86	34265.44
522.03	34227.99
522.20	34431.62
522.38	33905.00
522.55	34195.23
522.72	34553.33
522.89	34305.23
523.07	34422.26
523.24	34338.00
523.41	34639.93
523.58	34574.39
523.75	35026.12
523.92	34469.07
524.10	34923.13
524.27	35414.65
524.44	35047.18
524.61	35016.75
524.78	35192.30
524.96	35168.89
525.13	35374.86
525.30	35459.12
525.47	35536.35
525.64	35335.07
525.81	35196.98
525.98	35519.97
526.16	35709.55
526.33	35201.66
526.50	35929.56
526.67	35079.95
526.84	35484.86
527.01	35573.80
527.18	35517.63
527.36	35618.27
527.53	35765.73
527.70	36208.09
527.87	35859.35
528.04	36301.71
528.21	36189.36
528.38	36086.38
528.55	36446.82
528.72	36617.68
528.89	36397.67
529.07	36634.06
529.24	36371.92
529.41	36233.83
529.58	36671.51
529.75	36395.33
529.92	36701.94
530.09	36816.63
530.26	36767.48
530.43	36823.65
530.60	36928.97
530.77	37186.43
530.94	37200.47
531.11	36882.16
531.28	37083.45
531.46	37350.27
531.63	37558.58
531.80	37333.89
531.97	37319.84
532.14	37488.36
532.31	37008.55
532.48	37413.46
532.65	37769.22
532.82	37464.96
532.99	37830.08
533.16	37670.92
533.33	37560.92
533.50	38010.30
533.67	37862.85
533.84	37935.40
534.01	37888.59
534.18	38103.92
534.35	38209.25
534.52	38141.37
534.69	38424.57
534.86	38548.62
535.03	37949.45
535.20	38330.95
535.37	38546.28
535.54	38548.62
535.71	38787.36
535.88	38787.36
536.05	38721.82
536.22	38576.71
536.38	38370.74
536.55	38665.65
536.72	38642.24
536.89	38342.66
537.06	38689.06
537.23	38616.50
537.40	39005.03
537.57	38780.34
537.74	38787.36
537.91	39143.12
538.08	38752.25
538.25	38639.90
538.42	38548.62
538.59	38953.54
538.75	38883.32
538.92	39154.82
539.09	39084.61
539.26	38878.64
539.43	39232.06
539.60	39533.99
539.77	39367.81
539.94	39543.35
540.11	39306.96
540.28	39243.76
540.44	39456.75
540.61	39288.23
540.78	39288.23
540.95	39304.62
541.12	39325.68
541.29	39433.35
541.46	39463.77
541.62	39929.54
541.79	40275.94
541.96	39763.36
542.13	40062.95
542.30	39831.24
542.47	39952.94
542.63	40151.89
542.80	39784.43
542.97	40706.60
543.14	40715.96
543.31	40388.28
543.48	40652.76
543.64	40399.99
543.81	40435.10
543.98	40856.39
544.15	40395.31
544.32	40893.84
544.48	40961.72
544.65	40715.96
544.82	40746.39
544.99	40479.57
545.16	40879.80
545.32	40608.29
545.49	41069.38
545.66	41137.26
545.83	41418.12
546.00	41277.69
546.16	40720.64
546.33	40854.05
546.50	40811.92
546.67	41404.08
546.83	41226.20
547.00	40952.35
547.17	41188.75
547.34	41151.30
547.50	41350.24
547.67	41525.78
547.84	41317.48
548.00	41813.67
548.17	41322.16
548.34	41383.01
548.51	41963.46
548.67	41603.02
548.84	41432.16
549.01	41727.07
549.18	42040.70
549.34	41404.08
549.51	41874.52
549.68	41860.48
549.84	41961.12
550.01	42169.43
550.18	41755.16
550.34	41865.16
550.51	41956.44
550.68	42181.13
550.84	41596.00
551.01	42160.07
551.18	41801.97
551.34	42101.56
551.51	42267.73
551.68	41989.21
551.84	42478.38
552.01	42618.81
552.18	42288.80
552.34	42363.70
552.51	42176.45
552.68	42185.82
552.84	42440.93
553.01	42574.34
553.18	42260.71
553.34	42344.97
553.51	42061.77
553.67	42220.92
553.84	42703.07
554.01	42780.31
554.17	42749.88
554.34	42813.08
554.51	43100.97
554.67	42979.26
554.84	42492.43
555.00	42429.23
555.17	42557.96
555.33	43150.12
555.50	42412.85
555.67	42679.67
555.83	42932.45
556.00	42892.66
556.16	43545.67
556.33	43063.52
556.50	42513.49
556.66	43381.83
556.83	42794.36
556.99	43239.06
557.16	43475.45
557.32	42897.34
557.49	43100.97
557.65	43012.02
557.82	43468.43
557.98	43091.60
558.15	42852.87
558.32	43428.64
558.48	43271.82
558.65	43548.01
558.81	43168.84
558.98	43065.86
559.14	43466.09
559.31	43269.48
559.47	43166.50
559.64	43597.16
559.80	43643.97
559.97	43683.76
560.13	43328.00
560.30	43241.40
560.46	43643.97
560.63	43810.15
560.79	43571.41
560.96	43480.13
561.12	43775.04
561.29	43470.77
561.45	43391.19
561.61	43426.30
561.78	43353.74
561.94	43110.33
562.11	43824.19
562.27	43342.04
562.44	43442.68
562.60	43430.98
562.77	43866.32
562.93	43625.25
563.10	43742.27
563.26	43264.80
563.42	43819.51
563.59	43662.69
563.75	43667.37
563.92	43613.54
564.08	44076.97
564.24	44109.74
564.41	44116.76
564.57	43484.81
564.74	44278.25
564.90	43796.10
565.07	43878.02
565.23	43571.41
565.39	43941.22
565.56	44130.80
565.72	43772.70
565.88	44201.02
566.05	44341.45
566.21	43927.17
566.38	43957.60
566.54	44044.20
566.70	44362.51
566.87	44378.90
567.03	44327.41
567.19	44404.64
567.36	44491.24
567.52	43618.22
567.68	43981.01
567.85	44163.57
568.01	44236.12
568.17	44065.27
568.34	43985.69
568.50	43971.64
568.66	44114.42
568.83	44098.03
568.99	43761.00
569.15	43793.76
569.32	43807.81
569.48	43768.02
569.64	44388.26
569.81	44332.09
569.97	43842.92
570.13	44179.95
570.30	43999.73
570.46	43756.32
570.62	43683.76
570.78	44257.19
570.95	44294.64
571.11	44081.65
571.27	43915.47
571.43	44034.84
571.60	43892.07
571.76	44006.75
571.92	44282.94
572.09	44039.52
572.25	44348.47
572.41	44409.32
572.57	44437.41
572.74	44603.59
572.90	44463.16
573.06	44095.69
573.22	44224.42
573.38	44306.34
573.55	44177.61
573.71	44165.91
573.87	44512.31
574.03	44069.95
574.20	44388.26
574.36	44615.29
574.52	44203.36
574.68	44364.85
574.84	44406.98
575.01	44589.55
575.17	44554.44
575.33	43966.96
575.49	44313.36
575.65	43988.03
575.82	44795.51
575.98	44435.07
576.14	44739.34
576.30	44582.52
576.46	44107.40
576.62	44203.36
576.79	44495.92
576.95	43875.68
577.11	43943.56
577.27	44521.67
577.43	44552.10
577.59	44083.99
577.75	44577.84
577.92	43847.60
578.08	44271.23
578.24	44023.14
578.40	44378.90
578.56	44189.31
578.72	44273.57
578.88	44809.56
579.04	44734.66
579.21	44502.95
579.37	44762.75
579.53	44758.06
579.69	44201.02
579.85	44463.16
580.01	44573.16
580.17	44322.72
580.33	44514.65
580.49	44299.32
580.65	44678.49
580.82	44790.83
580.98	44683.17
581.14	44383.58
581.30	44636.36
581.46	44526.35
581.62	45006.16
581.78	44428.05
581.94	44875.09
582.10	44341.45
582.26	44809.56
582.42	44673.81
582.58	44278.25
582.74	44275.91
582.90	44449.11
583.06	44898.50
583.22	44439.75
583.38	44734.66
583.54	44542.74
583.70	44931.26
583.86	44194.00
584.02	44233.78
584.18	44772.11
584.34	44282.94
584.50	44634.02
584.66	44547.42
584.82	44184.63
584.98	44765.09
585.14	44933.60
585.30	44229.10
585.46	44566.14
585.62	44156.55
585.78	44739.34
585.94	44397.62
586.10	44463.16
586.26	44205.70
586.42	44664.44
586.58	44591.89
586.74	45085.74
586.90	44594.23
587.06	44385.92
587.22	44861.05
587.38	44467.84
587.54	44376.56
587.70	44856.37
587.86	44428.05
588.02	44601.25
588.18	45008.50
588.34	44474.86
588.49	44304.00
588.65	44238.47
588.81	44278.25
588.97	44776.79
589.13	44322.72
589.29	44694.87
589.45	45006.16
589.61	44261.87
589.77	44729.98
589.93	44875.09
590.08	44811.90
590.24	44816.58
