SpectraSuite Data File
++++++++++++++++++++++++++++++++++++
Date: Fri Oct 25 11:22:37 EDT 2013
User: price-jones
Dark Spectrum Present: No
Reference Spectrum Present: No
Number of Sampled Component Spectra: 1
Spectrometers: USB2+H05261
Integration Time (usec): 100000 (USB2+H05261)
Spectra Averaged: 1 (USB2+H05261)
Boxcar Smoothing: 0 (USB2+H05261)
Correct for Electrical Dark: No (USB2+H05261)
Strobe/Lamp Enabled: No (USB2+H05261)
Correct for Detector Non-linearity: No (USB2+H05261)
Correct for Stray Light: No (USB2+H05261)
Number of Pixels in Processed Spectrum: 2048
>>>>>Begin Processed Spectral Data<<<<<
365.73	191.92
365.92	191.92
366.12	191.92
366.32	140.43
366.52	154.48
366.72	105.32
366.91	77.24
367.11	196.60
367.31	93.62
367.51	105.32
367.70	145.11
367.90	140.43
368.10	86.60
368.30	135.75
368.49	117.03
368.69	112.35
368.89	74.90
369.09	196.60
369.28	156.82
369.48	212.99
369.68	198.95
369.87	220.01
370.07	203.63
370.27	194.26
370.47	332.36
370.66	552.37
370.86	690.46
371.06	624.92
371.25	671.73
371.45	706.84
371.65	622.58
371.84	748.97
372.04	706.84
372.24	716.20
372.44	606.20
372.63	695.14
372.83	638.97
373.03	791.10
373.22	779.40
373.42	807.48
373.62	732.59
373.81	856.64
374.01	823.87
374.21	786.42
374.40	770.04
374.60	922.17
374.79	882.38
374.99	753.65
375.19	875.36
375.38	851.96
375.58	873.02
375.78	842.59
375.97	908.13
376.17	858.98
376.37	910.47
376.56	851.96
376.76	924.51
376.95	884.72
377.15	926.85
377.35	866.00
377.54	910.47
377.74	922.17
377.93	905.79
378.13	901.11
378.33	971.32
378.52	919.83
378.72	866.00
378.91	915.15
379.11	880.04
379.31	978.34
379.50	884.72
379.70	1048.56
379.89	1015.79
380.09	933.87
380.28	1006.43
380.48	978.34
380.68	919.83
380.87	966.64
381.07	1067.28
381.26	924.51
381.46	1043.88
381.65	1060.26
381.85	1062.60
382.04	1027.50
382.24	1008.77
382.43	1102.39
382.63	1121.12
382.83	1097.71
383.02	1055.58
383.22	1165.59
383.41	1116.44
383.61	1125.80
383.80	1170.27
384.00	1111.75
384.19	1062.60
384.39	1067.28
384.58	1055.58
384.78	1179.63
384.97	1256.87
385.17	1097.71
385.36	1116.44
385.56	1221.76
385.75	1233.46
385.95	1184.31
386.14	1210.06
386.34	1235.80
386.53	1259.21
386.72	1144.52
386.92	1233.46
387.11	1203.04
387.31	1261.55
387.50	1322.40
387.70	1252.19
387.89	1280.27
388.09	1275.59
388.28	1287.29
388.48	1334.11
388.67	1345.81
388.86	1259.21
389.06	1294.32
389.25	1329.42
389.45	1263.89
389.64	1376.24
389.84	1348.15
390.03	1387.94
390.22	1465.18
390.42	1397.30
390.61	1394.96
390.81	1472.20
391.00	1439.43
391.19	1483.90
391.39	1425.39
391.58	1413.68
391.78	1451.13
391.97	1437.09
392.16	1455.81
392.36	1544.75
392.55	1439.43
392.75	1483.90
392.94	1568.16
393.13	1596.25
393.33	1521.35
393.52	1607.95
393.71	1577.52
393.91	1631.35
394.10	1556.46
394.29	1582.20
394.49	1617.31
394.68	1554.12
394.88	1584.54
395.07	1645.40
395.26	1746.04
395.46	1668.80
395.65	1640.72
395.84	1694.55
396.04	1722.63
396.23	1706.25
396.42	1771.79
396.62	1834.98
396.81	1724.97
397.00	1823.28
397.19	1930.94
397.39	1846.68
397.58	1818.60
397.77	1825.62
397.97	1888.81
398.16	1891.15
398.35	1923.92
398.55	1884.13
398.74	1914.56
398.93	1914.56
399.12	1877.11
399.32	1973.07
399.51	1956.69
399.70	2036.27
399.90	1982.43
400.09	1987.11
400.28	2073.71
400.47	2120.53
400.67	2108.82
400.86	2085.42
401.05	2045.63
401.24	2120.53
401.44	2172.02
401.63	2111.16
401.82	2150.95
402.01	2097.12
402.21	2165.00
402.40	2174.36
402.59	2162.66
402.78	2179.04
402.97	2328.83
403.17	2291.38
403.36	2267.98
403.55	2303.09
403.74	2328.83
403.93	2333.51
404.13	2389.69
404.32	2347.56
404.51	2326.49
404.70	2382.67
404.89	2483.31
405.09	2495.01
405.28	2445.86
405.47	2466.92
405.66	2464.58
405.85	2495.01
406.05	2504.37
406.24	2583.95
406.43	2595.65
406.62	2661.19
406.81	2658.85
407.00	2590.97
407.20	2609.70
407.39	2675.23
407.58	2750.13
407.77	2839.07
407.96	2761.83
408.15	2729.06
408.34	2794.60
408.54	2794.60
408.73	2902.26
408.92	2881.20
409.11	2878.86
409.30	2916.31
409.49	2937.37
409.68	2839.07
409.87	2942.05
410.07	2920.99
410.26	2995.89
410.45	3119.93
410.64	3061.42
410.83	3164.40
411.02	3096.53
411.21	3201.85
411.40	3176.11
411.59	3295.47
411.78	3248.66
411.98	3251.00
412.17	3456.97
412.36	3311.86
412.55	3349.31
412.74	3639.53
412.93	3356.33
413.12	3412.50
413.31	3595.06
413.50	3552.93
413.69	3545.91
413.88	3569.32
414.07	3513.14
414.26	3674.64
414.45	3630.17
414.64	3627.83
414.83	3749.54
415.02	3798.69
415.22	3997.64
415.41	3894.65
415.60	3929.76
415.79	3878.27
415.98	3894.65
416.17	4056.15
416.36	4053.81
416.55	4159.13
416.74	4154.45
416.93	3875.93
417.12	4058.49
417.31	4269.14
417.50	4283.18
417.69	4372.12
417.88	4390.84
418.07	4252.75
418.26	4236.37
418.45	4222.33
418.64	4526.60
418.83	4353.40
419.02	4339.35
419.21	4376.80
419.39	4519.57
419.58	4582.77
419.77	4564.04
419.96	4482.13
420.15	4610.86
420.34	4580.43
420.53	4624.90
420.72	4690.43
420.91	4903.42
421.10	4669.37
421.29	4788.74
421.48	4772.35
421.67	4837.89
421.86	4840.23
422.05	4992.36
422.24	4868.31
422.43	4980.66
422.61	4901.08
422.80	4894.06
422.99	4938.53
423.18	5006.41
423.37	4980.66
423.56	4889.38
423.75	4858.95
423.94	4868.31
424.13	4713.84
424.32	4709.16
424.50	4966.62
424.69	5130.45
424.88	5088.32
425.07	4889.38
425.26	5057.90
425.45	5057.90
425.64	4894.06
425.83	5085.98
426.01	4933.85
426.20	5207.69
426.39	5062.58
426.58	5020.45
426.77	5022.79
426.96	5160.88
427.15	5032.15
427.33	5270.89
427.52	5163.22
427.71	5296.63
427.90	5387.91
428.09	5338.76
428.28	5465.15
428.46	5486.22
428.65	5474.51
428.84	5514.30
429.03	5490.90
429.22	5551.75
429.40	5504.94
429.59	5511.96
429.78	5446.43
429.97	5408.98
430.16	5526.00
430.34	5558.77
430.53	5666.44
430.72	5659.42
430.91	5563.45
431.10	5764.74
431.28	5741.33
431.47	5916.87
431.66	5900.49
431.85	5783.46
432.03	5923.90
432.22	6083.05
432.41	5956.66
432.60	6022.20
432.79	6031.56
432.97	6050.28
433.16	6003.47
433.35	5956.66
433.54	5977.73
433.72	6157.95
433.91	6153.27
434.10	6146.25
434.28	6127.52
434.47	6359.24
434.66	6307.74
434.85	6223.48
435.03	6562.86
435.22	6354.55
435.41	6361.58
435.59	6597.97
435.78	6649.46
435.97	6441.15
436.16	6506.69
436.34	6478.60
436.53	6588.61
436.72	6747.76
436.90	6483.28
437.09	6551.16
437.28	6443.49
437.46	6750.10
437.65	6726.70
437.84	6768.83
438.02	6644.78
438.21	6672.87
438.40	6743.08
438.58	7070.76
438.77	7054.37
438.96	6848.41
439.14	7222.89
439.33	7157.36
439.52	7321.20
439.70	7199.49
439.89	7323.54
440.08	7440.56
440.26	7382.05
440.45	7606.74
440.63	7618.44
440.82	7630.15
441.01	7503.76
441.19	7719.09
441.38	7707.38
441.57	7714.41
441.75	7772.92
441.94	8081.87
442.12	7836.11
442.31	8163.79
442.50	8114.64
442.68	8313.58
442.87	8116.98
443.05	8252.73
443.24	8308.90
443.43	8257.41
443.61	8313.58
443.80	8594.45
443.98	8138.04
444.17	7929.74
444.35	8322.94
444.54	8461.04
444.73	8119.32
444.91	8372.10
445.10	8559.34
445.28	8564.02
445.47	8402.52
445.65	8383.80
445.84	8561.68
446.02	8643.60
446.21	8753.60
446.39	8458.70
446.58	8589.77
446.77	8697.43
446.95	8397.84
447.14	8594.45
447.32	8498.49
447.51	8526.57
447.69	8418.91
447.88	8468.06
448.06	8507.85
448.25	8547.64
448.43	8695.09
448.62	8676.37
448.80	8587.43
448.99	8805.10
449.17	8858.93
449.36	8791.05
449.54	8842.54
449.73	9053.19
449.91	8908.08
450.10	8926.80
450.28	9207.67
450.46	9057.87
450.65	9135.11
450.83	9111.71
451.02	9107.02
451.20	9291.93
451.39	9317.67
451.57	9205.33
451.76	9163.20
451.94	9324.69
452.13	9441.72
452.31	9376.19
452.49	9137.45
452.68	9427.68
452.86	9394.91
453.05	9523.64
453.23	9715.56
453.42	9514.28
453.60	9500.23
453.78	9635.99
453.97	9514.28
454.15	9748.33
454.34	9521.30
454.52	9879.40
454.70	9863.02
454.89	9790.46
455.07	9785.78
455.26	9977.70
455.44	10118.14
455.62	10083.03
455.81	10113.45
455.99	10216.44
456.17	10181.33
456.36	10148.56
456.54	10181.33
456.73	10324.10
456.91	10501.98
457.09	10562.84
457.28	10633.05
457.46	10459.85
457.64	10581.56
457.83	10410.70
458.01	10579.22
458.19	10785.19
458.38	10740.72
458.56	10881.15
458.74	10857.75
458.93	10895.19
459.11	10775.83
459.29	10806.25
459.48	10855.40
459.66	10956.05
459.84	11143.29
460.03	11129.25
460.21	11075.42
460.39	11066.05
460.57	10902.22
460.76	11351.60
460.94	11339.90
461.12	11440.54
461.31	11405.43
461.49	11403.09
461.67	11506.07
461.85	11592.67
462.04	11585.65
462.22	11857.15
462.40	11550.54
462.59	11679.27
462.77	11562.25
462.95	11705.02
463.13	11609.06
463.32	11829.07
463.50	11651.19
463.68	11955.46
463.86	11922.69
464.05	11910.99
464.23	11950.78
464.41	11845.45
464.59	11768.21
464.78	12383.77
464.96	12250.36
465.14	11826.73
465.32	12088.87
465.50	12060.78
465.69	12325.26
465.87	12046.74
466.05	12559.31
466.23	12325.26
466.41	12271.43
466.60	12542.93
466.78	12329.94
466.96	12528.89
467.14	12407.18
467.32	12453.99
467.51	12643.57
467.69	12175.47
467.87	12580.38
468.05	12739.54
468.23	12666.98
468.41	12828.48
468.60	12629.53
468.78	13158.49
468.96	12774.64
469.14	13004.02
469.32	13149.13
469.50	12713.79
469.69	13128.06
469.87	13172.54
470.05	13399.57
470.23	13249.77
470.41	13245.09
470.59	13364.46
470.77	13158.49
470.95	13296.58
471.14	13973.00
471.32	13172.54
471.50	13837.25
471.68	13640.64
471.86	13727.24
472.04	13811.50
472.22	14059.60
472.40	13610.22
472.58	13832.57
472.77	13834.91
472.95	14017.47
473.13	15026.24
473.31	14251.52
473.49	14298.33
473.67	14373.23
473.85	14593.24
474.03	14925.60
474.21	14731.33
474.39	14829.63
474.57	15101.14
474.75	14902.19
474.93	15330.51
475.12	14970.07
475.30	15164.33
475.48	15213.48
475.66	15473.28
475.84	15276.68
476.02	15707.34
476.20	15625.42
476.38	15775.21
476.56	16039.69
476.74	16114.59
476.92	16058.42
477.10	15887.56
477.28	16201.19
477.46	16343.96
477.64	16449.28
477.82	16791.00
478.00	17216.98
478.18	16786.32
478.36	17102.29
478.54	17191.23
478.72	17277.83
478.90	17649.98
479.08	17741.26
479.26	18078.30
479.44	17956.59
479.62	17975.31
479.80	17837.22
479.98	18331.08
480.16	18958.34
480.34	18588.53
480.52	18707.90
480.70	18967.70
480.88	18665.77
481.06	18951.32
481.24	18855.36
481.41	19456.87
481.59	19571.56
481.77	19695.61
481.95	19807.95
482.13	20065.41
482.31	19791.57
482.49	20102.86
482.67	20285.42
482.85	20849.49
483.03	20957.16
483.21	21132.70
483.39	21055.46
483.57	21493.14
483.74	21184.19
483.92	21572.72
484.10	21448.67
484.28	21813.79
484.46	22136.79
484.64	22593.19
484.82	22476.16
485.00	22473.82
485.18	23035.55
485.35	22977.04
485.53	22981.72
485.71	23227.48
485.89	23828.99
486.07	23487.28
486.25	23681.54
486.43	23843.04
486.61	24032.62
486.78	24208.16
486.96	24240.93
487.14	24760.53
487.32	24769.89
487.50	25118.63
487.68	25060.12
487.85	25685.04
488.03	25720.15
488.21	26061.87
488.39	26092.29
488.57	26813.18
488.75	26214.00
488.92	26244.43
489.10	27159.58
489.28	27140.85
489.46	27438.10
489.64	27300.01
489.81	27889.82
489.99	27885.14
490.17	27960.04
490.35	28575.60
490.53	28573.26
490.70	28643.48
490.88	28521.77
491.06	29120.95
491.24	28978.17
491.41	29174.78
491.59	29591.39
491.77	29745.87
491.95	29851.19
492.13	30064.18
492.30	30391.86
492.48	30106.31
492.66	30433.99
492.84	30583.78
493.01	30705.49
493.19	30876.35
493.37	31164.23
493.54	31611.28
493.72	32065.34
493.90	31709.58
494.08	31882.78
494.25	32013.85
494.43	32074.70
494.61	32868.14
494.79	32680.90
494.96	32746.44
495.14	33268.37
495.32	33289.44
495.49	33439.23
495.67	33383.06
495.85	33422.85
496.02	34464.39
496.20	34462.05
496.38	34501.84
496.55	34583.76
496.73	35037.82
496.91	34735.89
497.09	35075.27
497.26	35683.81
497.44	35115.06
497.62	35459.12
497.79	36165.96
497.97	35414.65
498.14	36376.61
498.32	36184.68
498.50	36524.06
498.67	36865.78
498.85	36816.63
499.03	37418.14
499.20	37113.87
499.38	37434.53
499.56	37305.80
499.73	37542.19
499.91	37696.67
500.08	37832.42
500.26	37467.30
500.44	37998.60
500.61	38618.84
500.79	38078.18
500.97	38712.46
501.14	38998.01
501.32	39145.46
501.49	38902.04
501.67	39363.13
501.84	39524.63
502.02	39431.01
502.20	39412.28
502.37	39660.38
502.55	39636.97
502.72	40046.57
502.90	39669.74
503.07	40051.25
503.25	39957.63
503.43	40245.51
503.60	40278.28
503.78	40500.63
503.95	40542.76
504.13	40718.30
504.30	41057.68
504.48	40978.10
504.65	40912.56
504.83	41200.45
505.01	41839.42
505.18	41675.58
505.36	41858.14
505.53	41439.18
505.71	42026.66
505.88	42141.35
506.06	41886.23
506.23	42094.53
506.41	42637.54
506.58	42309.86
506.76	42576.69
506.93	42773.29
507.11	42897.34
507.28	42698.39
507.46	43182.88
507.63	43325.66
507.81	43555.03
507.98	43203.95
508.16	43519.92
508.33	43395.87
508.50	44488.90
508.68	44411.67
508.85	44196.34
509.03	44006.75
509.20	44184.63
509.38	44605.93
509.55	44957.01
509.73	45249.58
509.90	45045.95
510.08	44816.58
510.25	45090.42
510.42	45282.34
510.60	45249.58
510.77	45638.11
510.95	45815.99
511.12	45762.15
511.30	45713.00
511.47	46103.87
511.64	46024.29
511.82	46040.68
511.99	45963.44
512.17	46340.27
512.34	46080.47
512.51	46838.80
512.69	46958.17
512.86	46553.26
513.04	47107.96
513.21	47021.36
513.38	47318.61
513.56	47262.44
513.73	47175.84
513.90	47461.38
514.08	46990.94
514.25	47805.44
514.43	47936.51
514.60	47920.13
514.77	47980.98
514.95	48200.99
515.12	47894.38
515.29	48275.89
515.47	48341.42
515.64	48142.48
515.81	48528.67
515.99	48823.58
516.16	48971.03
516.33	48839.96
516.51	49237.85
516.68	48889.11
516.85	49071.67
517.03	49008.48
517.20	49111.46
517.37	49223.81
517.54	49219.13
517.72	49099.76
517.89	49586.59
518.06	49422.75
518.24	49511.69
518.41	49771.49
518.58	49998.52
518.75	49490.63
518.93	50099.17
519.10	50078.10
519.27	49975.12
519.45	50270.03
519.62	50354.29
519.79	50433.86
519.96	50403.44
520.14	50780.26
520.31	50433.86
520.48	50726.43
520.65	50787.28
520.83	51021.34
521.00	51157.09
521.17	51182.84
521.34	50660.90
521.52	51119.64
521.69	50637.49
521.86	51377.10
522.03	51372.42
522.20	51672.01
522.38	51779.67
522.55	51870.95
522.72	51866.27
522.89	51522.21
523.07	51615.83
523.24	51739.88
523.41	52168.20
523.58	51590.09
523.75	52348.42
523.92	52219.69
524.10	52109.69
524.27	52287.57
524.44	52732.27
524.61	52186.92
524.78	52507.58
524.96	52664.39
525.13	52645.67
525.30	52793.12
525.47	53193.36
525.64	52713.55
525.81	53069.31
525.98	53158.25
526.16	52783.76
526.33	52636.31
526.50	53359.53
526.67	53146.54
526.84	52978.03
527.01	53322.08
527.18	53010.79
527.36	53188.67
527.53	53048.24
527.70	53546.78
527.87	53916.58
528.04	53633.38
528.21	53609.97
528.38	53427.41
528.55	53638.06
528.72	53581.88
528.89	53638.06
529.07	53439.11
529.24	53731.68
529.41	53956.37
529.58	53909.56
529.75	53904.88
529.92	54190.42
530.09	54284.04
530.26	54248.94
530.43	54272.34
530.60	53998.50
530.77	54302.77
530.94	54372.99
531.11	54162.34
531.28	54429.16
531.46	54384.69
531.63	54506.40
531.80	54635.13
531.97	54789.60
532.14	54808.32
532.31	54597.68
532.48	54866.84
532.65	54944.08
532.82	54763.85
532.99	55004.93
533.16	54988.55
533.33	54948.76
533.50	55215.58
533.67	55049.40
533.84	55047.06
534.01	55337.29
534.18	55021.31
534.35	55442.61
534.52	55421.55
534.69	55437.93
534.86	55484.74
535.03	55276.43
535.20	55604.11
535.37	55552.62
535.54	55732.84
535.71	55477.72
535.88	55723.47
536.05	55758.58
536.22	55840.50
536.38	55866.25
536.55	55681.34
536.72	56083.92
536.89	55884.97
537.06	55627.51
537.23	56236.05
537.40	56072.21
537.57	56018.38
537.74	56163.50
537.91	56303.93
538.08	56493.51
538.25	55957.53
538.42	56175.20
538.59	56301.59
538.75	56264.14
538.92	56327.33
539.09	56633.94
539.26	56486.49
539.43	56388.19
539.60	56495.85
539.77	56589.47
539.94	56750.97
540.11	56626.92
540.28	56622.24
540.44	56622.24
540.61	56594.15
540.78	56816.50
540.95	56601.18
541.12	56556.70
541.29	56662.03
541.46	56725.22
541.62	57020.13
541.79	57195.67
541.96	56884.38
542.13	57048.22
542.30	57078.64
542.47	57190.99
542.63	57265.89
542.80	57066.94
542.97	57258.87
543.14	57380.57
543.31	57277.59
543.48	57495.26
543.64	57516.32
543.81	57612.29
543.98	57602.92
544.15	57752.72
544.32	57588.88
544.48	57822.93
544.65	57733.99
544.82	57567.82
544.99	57595.90
545.16	57659.10
545.32	57680.16
545.49	57804.21
545.66	57879.11
545.83	57888.47
546.00	58129.54
546.16	58000.82
546.33	57785.49
546.50	57729.31
546.67	57982.09
546.83	57736.34
547.00	58185.72
547.17	58110.82
547.34	58026.56
547.50	58071.03
547.67	58328.49
547.84	57968.05
548.00	58164.65
548.17	58372.96
548.34	58351.90
548.51	58473.60
548.67	58286.36
548.84	58447.86
549.01	58305.09
549.18	58239.55
549.34	58546.16
549.51	58628.08
549.68	58731.06
549.84	58698.30
550.01	58529.78
550.18	58506.37
550.34	58827.02
550.51	58649.14
550.68	58604.67
550.84	58504.03
551.01	58944.05
551.18	58859.79
551.34	58611.70
551.51	58754.47
551.68	58658.51
551.84	58848.09
552.01	58756.81
552.18	59082.14
552.34	58796.60
552.51	58941.71
552.68	58775.53
552.84	59011.93
553.01	59201.51
553.18	59164.06
553.34	59049.38
553.51	59011.93
553.67	58927.67
553.84	59196.83
554.01	59243.64
554.17	59248.32
554.34	59065.76
554.51	59278.75
554.67	59241.30
554.84	59215.55
555.00	59419.18
555.17	59082.14
555.33	59297.47
555.50	59262.36
555.67	59117.25
555.83	59110.23
556.00	59215.55
556.16	59671.96
556.33	59732.81
556.50	59465.99
556.66	59405.14
556.83	59503.44
556.99	59531.53
557.16	59660.26
557.32	59882.61
557.49	60037.08
557.65	59573.66
557.82	59536.21
557.98	59519.82
558.15	59618.13
558.32	59690.68
558.48	59327.90
558.65	59676.64
558.81	59924.74
558.98	59884.95
559.14	59863.88
559.31	60156.45
559.47	60018.36
559.64	60140.07
559.80	59950.48
559.97	60018.36
560.13	59793.67
560.30	59920.05
560.46	59894.31
560.63	60001.97
560.79	60147.09
560.96	60280.50
561.12	59934.10
561.29	60161.13
561.45	60086.23
561.61	60037.08
561.78	60039.42
561.94	60133.04
562.11	60104.96
562.27	60144.75
562.44	60048.78
562.60	60219.64
562.77	60168.15
562.93	59866.22
563.10	60271.14
563.26	60385.82
563.42	60339.01
563.59	60140.07
563.75	60420.93
563.92	60301.56
564.08	60329.65
564.24	60519.23
564.41	60413.91
564.57	60329.65
564.74	60355.39
564.90	60336.67
565.07	60285.18
565.23	60486.46
565.39	60315.61
565.56	60367.10
565.72	60470.08
565.88	60481.78
566.05	60226.66
566.21	60420.93
566.38	60460.72
566.54	60559.02
566.70	60561.36
566.87	60495.83
567.03	60383.48
567.19	60626.90
567.36	60645.62
567.52	60577.75
567.68	60657.32
567.85	60484.12
568.01	60610.51
568.17	60425.61
568.34	60711.16
568.50	60626.90
568.66	60582.43
568.83	60732.22
568.99	60561.36
569.15	60706.47
569.32	60683.07
569.48	60678.39
569.64	60734.56
569.81	60825.84
569.97	60645.62
570.13	60748.60
570.30	60601.15
570.46	60685.41
570.62	60804.78
570.78	60858.61
570.95	60872.65
571.11	60963.93
571.27	60795.42
571.43	60650.30
571.60	61013.08
571.76	60832.86
571.92	60837.54
572.09	60750.94
572.25	60741.58
572.41	60872.65
572.57	60858.61
572.74	61001.38
572.90	60713.50
573.06	60860.95
573.22	60786.05
573.38	61027.13
573.55	60804.78
573.71	61120.75
573.87	60821.16
574.03	60589.45
574.20	61038.83
574.36	60769.67
574.52	60814.14
574.68	60970.96
574.84	61062.24
575.01	61132.45
575.17	61059.90
575.33	60828.18
575.49	60853.93
575.65	61024.79
575.82	60973.30
575.98	61029.47
576.14	61106.71
576.30	61045.85
576.46	60849.25
576.62	60835.20
576.79	60973.30
576.95	60879.67
577.11	61247.14
577.27	60933.51
577.43	61099.68
577.59	60893.72
577.75	60856.27
577.92	61120.75
578.08	60856.27
578.24	61123.09
578.40	61141.81
578.56	61230.75
578.72	60931.17
578.88	61167.56
579.04	61183.94
579.21	61087.98
579.37	61116.07
579.53	61490.55
579.69	60893.72
579.85	61230.75
580.01	61230.75
580.17	61095.00
580.33	61146.50
580.49	61186.28
580.65	61181.60
580.82	61120.75
580.98	60825.84
581.14	60903.08
581.30	61167.56
581.46	60973.30
581.62	61017.77
581.78	61268.20
581.94	61352.46
582.10	61148.84
582.26	61165.22
582.42	61329.06
582.58	61085.64
582.74	61329.06
582.90	61263.52
583.06	61296.29
583.22	60963.93
583.38	61190.97
583.54	61160.54
583.70	61242.46
583.86	61174.58
584.02	61001.38
584.18	61237.78
584.34	61179.26
584.50	61022.45
584.66	60912.44
584.82	61022.45
584.98	61338.42
585.14	61130.11
585.30	60970.96
585.46	61043.51
585.62	61158.20
585.78	61532.68
585.94	61172.24
586.10	61144.16
586.26	61087.98
586.42	61221.39
586.58	61432.04
586.74	61443.74
586.90	61392.25
587.06	61113.73
587.22	61268.20
587.38	61385.23
587.54	61427.36
587.70	61305.65
587.86	61364.17
588.02	61366.51
588.18	61418.00
588.34	61357.14
588.49	61350.12
