SpectraSuite Data File
++++++++++++++++++++++++++++++++++++
Date: Fri Oct 25 11:34:28 EDT 2013
User: price-jones
Dark Spectrum Present: No
Reference Spectrum Present: No
Number of Sampled Component Spectra: 1
Spectrometers: USB2+H05261
Integration Time (usec): 100000 (USB2+H05261)
Spectra Averaged: 1 (USB2+H05261)
Boxcar Smoothing: 0 (USB2+H05261)
Correct for Electrical Dark: No (USB2+H05261)
Strobe/Lamp Enabled: No (USB2+H05261)
Correct for Detector Non-linearity: No (USB2+H05261)
Correct for Stray Light: No (USB2+H05261)
Number of Pixels in Processed Spectrum: 2048
>>>>>Begin Processed Spectral Data<<<<<
365.73	276.18
365.92	276.18
366.12	276.18
366.32	166.18
366.52	175.54
366.72	194.26
366.91	170.86
367.11	133.41
367.31	142.77
367.51	166.18
367.70	166.18
367.90	252.78
368.10	128.73
368.30	152.13
368.49	194.26
368.69	220.01
368.89	161.50
369.09	191.92
369.28	170.86
369.48	280.86
369.68	227.03
369.87	252.78
370.07	236.39
370.27	290.23
370.47	313.63
370.66	411.93
370.86	465.77
371.06	582.79
371.25	500.87
371.45	517.26
371.65	601.52
371.84	540.66
372.04	545.34
372.24	535.98
372.44	638.97
372.63	580.45
372.83	564.07
373.03	559.39
373.22	585.13
373.42	538.32
373.62	622.58
373.81	620.24
374.01	622.58
374.21	638.97
374.40	578.11
374.60	667.05
374.79	657.69
374.99	657.69
375.19	681.10
375.38	711.52
375.58	690.46
375.78	636.63
375.97	631.94
376.17	631.94
376.37	727.91
376.56	770.04
376.76	671.73
376.95	671.73
377.15	664.71
377.35	669.39
377.54	664.71
377.74	655.35
377.93	734.93
378.13	636.63
378.33	760.67
378.52	681.10
378.72	657.69
378.91	645.99
379.11	671.73
379.31	730.25
379.50	695.14
379.70	664.71
379.89	709.18
380.09	779.40
380.28	676.41
380.48	697.48
380.68	730.25
380.87	732.59
381.07	741.95
381.26	765.36
381.46	730.25
381.65	844.93
381.85	720.88
382.04	763.01
382.24	835.57
382.43	798.12
382.63	725.57
382.83	837.91
383.02	795.78
383.22	849.61
383.41	788.76
383.61	723.23
383.80	784.08
384.00	732.59
384.19	802.80
384.39	800.46
384.58	727.91
384.78	795.78
384.97	791.10
385.17	779.40
385.36	814.51
385.56	830.89
385.75	774.72
385.95	833.23
386.14	840.25
386.34	828.55
386.53	800.46
386.72	856.64
386.92	835.57
387.11	905.79
387.31	837.91
387.50	891.74
387.70	837.91
387.89	837.91
388.09	896.43
388.28	828.55
388.48	896.43
388.67	868.34
388.86	931.53
389.06	889.40
389.25	990.05
389.45	901.11
389.64	936.21
389.84	952.60
390.03	901.11
390.22	894.08
390.42	919.83
390.61	985.37
390.81	896.43
391.00	940.90
391.19	968.98
391.39	999.41
391.58	1015.79
391.78	968.98
391.97	978.34
392.16	968.98
392.36	1095.37
392.55	1043.88
392.75	1053.24
392.94	1086.01
393.13	1057.92
393.33	947.92
393.52	1062.60
393.71	1069.62
393.91	1022.81
394.10	1001.75
394.29	1036.86
394.49	980.68
394.68	1118.78
394.88	1081.33
395.07	1130.48
395.26	1076.65
395.46	1146.86
395.65	1151.54
395.84	1125.80
396.04	1153.88
396.23	1121.12
396.42	1177.29
396.62	1247.51
396.81	1142.18
397.00	1291.98
397.19	1130.48
397.39	1228.78
397.58	1203.04
397.77	1219.42
397.97	1203.04
398.16	1212.40
398.35	1275.59
398.55	1207.72
398.74	1226.44
398.93	1268.57
399.12	1291.98
399.32	1284.95
399.51	1259.21
399.70	1287.29
399.90	1345.81
400.09	1334.11
400.28	1277.93
400.47	1369.21
400.67	1406.66
400.86	1401.98
401.05	1387.94
401.24	1411.34
401.44	1355.17
401.63	1488.58
401.82	1500.28
402.01	1380.92
402.21	1338.79
402.40	1469.86
402.59	1446.45
402.78	1423.05
402.97	1427.73
403.17	1413.68
403.36	1401.98
403.55	1446.45
403.74	1514.33
403.93	1528.37
404.13	1519.01
404.32	1507.30
404.51	1460.49
404.70	1657.10
404.89	1640.72
405.09	1671.14
405.28	1629.01
405.47	1652.42
405.66	1734.34
405.85	1614.97
406.05	1596.25
406.24	1687.53
406.43	1689.87
406.62	1673.48
406.81	1856.04
407.00	1687.53
407.20	1636.03
407.39	1689.87
407.58	1820.94
407.77	1806.89
407.96	1802.21
408.15	1902.86
408.34	1722.63
408.54	1834.98
408.73	1865.41
408.92	1839.66
409.11	1872.43
409.30	1940.30
409.49	1886.47
409.68	1834.98
409.87	1870.09
410.07	1937.96
410.26	1996.48
410.45	1959.03
410.64	1921.58
410.83	2038.61
411.02	1970.73
411.21	2087.76
411.40	1977.75
411.59	1991.80
411.78	2132.23
411.98	2181.38
412.17	2197.76
412.36	2108.82
412.55	2174.36
412.74	2340.54
412.93	2284.36
413.12	2169.68
413.31	2476.29
413.50	2310.11
413.69	2282.02
413.88	2377.98
414.07	2314.79
414.26	2445.86
414.45	2312.45
414.64	2469.27
414.83	2527.78
415.02	2462.24
415.22	2495.01
415.41	2438.84
415.60	2511.39
415.79	2668.21
415.98	2497.35
416.17	2597.99
416.36	2619.06
416.55	2495.01
416.74	2642.46
416.93	2672.89
417.12	2818.00
417.31	2768.85
417.50	2801.62
417.69	2766.51
417.88	2757.15
418.07	2724.38
418.26	2916.31
418.45	2834.39
418.64	2843.75
418.83	2942.05
419.02	3023.97
419.21	3000.57
419.39	3040.36
419.58	2979.50
419.77	2970.14
419.96	3091.85
420.15	2963.12
420.34	3002.91
420.53	2988.86
420.72	3049.72
420.91	3117.59
421.10	3255.69
421.29	3208.87
421.48	3089.51
421.67	3229.94
421.86	3171.43
422.05	3166.74
422.24	3220.58
422.43	3255.69
422.61	3225.26
422.80	3279.09
422.99	3180.79
423.18	3211.22
423.37	3274.41
423.56	3353.99
423.75	3262.71
423.94	3194.83
424.13	3105.89
424.32	3201.85
424.50	3288.45
424.69	3325.90
424.88	3421.86
425.07	3269.73
425.26	3166.74
425.45	3262.71
425.64	3323.56
425.83	3187.81
426.01	3344.63
426.20	3398.46
426.39	3274.41
426.58	3405.48
426.77	3440.59
426.96	3405.48
427.15	3342.28
427.33	3433.57
427.52	3471.01
427.71	3363.35
427.90	3527.19
428.09	3681.66
428.28	3534.21
428.46	3520.17
428.65	3534.21
428.84	3698.05
429.03	3702.73
429.22	3545.91
429.40	3634.85
429.59	3569.32
429.78	3557.61
429.97	3480.38
430.16	3646.55
430.34	3726.13
430.53	3660.60
430.72	3747.20
430.91	3768.26
431.10	3655.92
431.28	3754.22
431.47	3833.80
431.66	3812.73
431.85	3810.39
432.03	3779.97
432.22	3889.97
432.41	3957.85
432.60	3934.44
432.79	3861.88
432.97	3946.14
433.16	4049.13
433.35	3904.01
433.54	4032.74
433.72	4067.85
433.91	3922.74
434.10	3990.61
434.28	4067.85
434.47	4079.55
434.66	4163.81
434.85	4189.56
435.03	4278.50
435.22	4119.34
435.41	4140.41
435.59	4205.94
435.78	4201.26
435.97	4149.77
436.16	4262.12
436.34	4161.47
436.53	4285.52
436.72	4353.40
436.90	4290.20
437.09	4205.94
437.28	4320.63
437.46	4482.13
437.65	4257.43
437.84	4475.10
438.02	4472.76
438.21	4435.32
438.40	4348.72
438.58	4587.45
438.77	4514.89
438.96	4566.39
439.14	4685.75
439.33	4636.60
439.52	4741.93
439.70	4697.46
439.89	4851.93
440.08	4660.01
440.26	4964.28
440.45	4847.25
440.63	4954.91
440.82	4980.66
441.01	4961.94
441.19	5025.13
441.38	5055.56
441.57	5013.43
441.75	5100.03
441.94	5247.48
442.12	5249.82
442.31	5315.36
442.50	5275.57
442.68	5200.67
442.87	5284.93
443.05	5116.41
443.24	5444.09
443.43	5355.15
443.61	5437.06
443.80	5366.85
443.98	5259.18
444.17	5149.18
444.35	5387.91
444.54	5575.16
444.73	5502.60
444.91	5472.17
445.10	5476.85
445.28	5488.56
445.47	5486.22
445.65	5366.85
445.84	5467.49
446.02	5427.70
446.21	5453.45
446.39	5284.93
446.58	5507.28
446.77	5530.69
446.95	5364.51
447.14	5397.28
447.32	5394.93
447.51	5584.52
447.69	5416.00
447.88	5453.45
448.06	5453.45
448.25	5589.20
448.43	5802.19
448.62	5682.82
448.80	5729.63
448.99	5603.24
449.17	5792.83
449.36	5685.16
449.54	5750.70
449.73	5809.21
449.91	5877.09
450.10	5785.80
450.28	6118.16
450.46	5865.38
450.65	5830.27
450.83	5900.49
451.02	5863.04
451.20	6019.86
451.39	6031.56
451.57	5959.00
451.76	6010.50
451.94	5963.68
452.13	6010.50
452.31	5973.05
452.49	5849.00
452.68	6052.63
452.86	6066.67
453.05	6183.70
453.23	6258.59
453.42	6108.80
453.60	6181.35
453.78	6106.46
453.97	6239.87
454.15	6169.65
454.34	6134.54
454.52	6244.55
454.70	6193.06
454.89	6190.72
455.07	6251.57
455.26	6347.53
455.44	6403.71
455.62	6260.93
455.81	6289.02
455.99	6445.84
456.17	6462.22
456.36	6583.93
456.54	6541.80
456.73	6612.01
456.91	6857.77
457.09	6604.99
457.28	6782.87
457.46	6693.93
457.64	6682.23
457.83	6612.01
458.01	6729.04
458.19	6906.92
458.38	6684.57
458.56	7014.59
458.74	6977.14
458.93	6946.71
459.11	7019.27
459.29	6867.13
459.48	6916.28
459.66	6862.45
459.84	7126.93
460.03	7148.00
460.21	7035.65
460.39	7002.88
460.57	7136.29
460.76	7349.28
460.94	7030.97
461.12	7028.63
461.31	7129.27
461.49	7201.83
461.67	7150.34
461.85	7297.79
462.04	7393.75
462.22	7812.71
462.40	7482.69
462.59	7276.73
462.77	7431.20
462.95	7508.44
463.13	7499.08
463.32	7370.35
463.50	7627.81
463.68	7683.98
463.86	7700.36
464.05	7578.65
464.23	7475.67
464.41	7775.26
464.59	7555.25
464.78	7744.83
464.96	7716.75
465.14	7407.80
465.32	7716.75
465.50	7719.09
465.69	7726.11
465.87	7882.92
466.05	7768.24
466.23	7740.15
466.41	7983.57
466.60	8145.06
466.78	7861.86
466.96	7913.35
467.14	7843.14
467.32	7777.60
467.51	7866.54
467.69	7850.16
467.87	8009.31
468.05	8004.63
468.23	8009.31
468.41	7969.52
468.60	7974.21
468.78	8166.13
468.96	7985.91
469.14	8060.80
469.32	8304.22
469.50	8058.46
469.69	8318.26
469.87	8276.13
470.05	8255.07
470.23	8407.20
470.41	8444.65
470.59	8439.97
470.77	8566.36
470.95	8418.91
471.14	8683.39
471.32	8393.16
471.50	8671.68
471.68	8517.21
471.86	8629.56
472.04	8479.76
472.22	8861.27
472.40	8746.58
472.58	8814.46
472.77	8936.17
472.95	8959.57
473.13	9324.69
473.31	9069.58
473.49	9067.24
473.67	9125.75
473.85	9006.38
474.03	9359.80
474.21	9282.56
474.39	9366.82
474.57	9303.63
474.75	9432.36
474.93	9366.82
475.12	9404.27
475.30	9460.45
475.48	9572.79
475.66	9610.24
475.84	9727.27
476.02	9584.49
476.20	9877.06
476.38	9919.19
476.56	10083.03
476.74	10106.43
476.92	10183.67
477.10	10003.45
477.28	10169.63
477.46	10291.34
477.64	10476.24
477.82	10403.68
478.00	10773.49
478.18	10630.71
478.36	10883.49
478.54	10902.22
478.72	11014.56
478.90	11253.30
479.08	11070.73
479.26	11323.51
479.44	11199.46
479.62	11110.52
479.80	11257.98
479.98	11433.52
480.16	11744.81
480.34	11810.34
480.52	11756.51
480.70	11674.59
480.88	11634.80
481.06	11885.24
481.24	11742.47
481.41	12166.10
481.59	12126.32
481.77	12482.08
481.95	12353.35
482.13	12437.61
482.31	12351.01
482.49	12587.40
482.67	12826.14
482.85	12889.33
483.03	12898.69
483.21	12980.61
483.39	13252.11
483.57	12924.44
483.74	13500.21
483.92	13383.18
484.10	13437.02
484.28	13696.82
484.46	13956.61
484.64	14141.52
484.82	13848.95
485.00	13951.93
485.18	14420.04
485.35	14588.56
485.53	14260.88
485.71	14497.28
485.89	14710.27
486.07	14609.62
486.25	14672.82
486.43	14902.19
486.61	15145.61
486.78	15360.94
486.96	15000.49
487.14	15363.28
487.32	15330.51
487.50	15594.99
487.68	15494.35
487.85	15903.94
488.03	16074.80
488.21	16126.29
488.39	16126.29
488.57	16397.79
488.75	16451.63
488.92	16444.60
489.10	16875.26
489.28	16592.06
489.46	17048.46
489.64	17144.42
489.81	17451.03
489.99	17523.59
490.17	17144.42
490.35	18073.62
490.53	17860.63
490.70	17886.37
490.88	17752.96
491.06	18148.51
491.24	17982.34
491.41	18118.09
491.59	18328.74
491.77	18532.36
491.95	18640.03
492.13	18747.69
492.30	18918.55
492.48	18738.33
492.66	19070.68
492.84	19089.41
493.01	19185.37
493.19	19365.59
493.37	19297.72
493.54	19466.24
493.72	19676.88
493.90	19819.66
494.08	19922.64
494.25	20159.03
494.43	20013.92
494.61	20343.94
494.79	20039.67
494.96	20142.65
495.14	20460.96
495.32	20601.40
495.49	20657.57
495.67	20985.24
495.85	21135.04
496.02	21097.59
496.20	21439.31
496.38	21200.57
496.55	21221.64
496.73	21818.47
496.91	21497.82
497.09	21745.92
497.26	21727.19
497.44	21776.34
497.62	21935.50
497.79	22319.35
497.97	22082.95
498.14	22579.15
498.32	22586.17
498.50	23028.53
498.67	23014.49
498.85	22714.90
499.03	23061.30
499.20	22600.21
499.38	23199.39
499.56	23084.70
499.73	23630.05
499.91	23150.24
500.08	24016.24
500.26	23924.96
500.44	23709.63
500.61	23981.13
500.79	23721.33
500.97	23817.29
501.14	24037.30
501.32	24229.23
501.49	24414.13
501.67	24245.61
501.84	24797.98
502.02	24472.64
502.20	24301.78
502.37	24554.56
502.55	24287.74
502.72	24779.25
502.90	24765.21
503.07	24746.48
503.25	24872.87
503.43	25099.90
503.60	25151.40
503.78	25380.77
503.95	24912.66
504.13	25560.99
504.30	25830.15
504.48	25654.61
504.65	25612.48
504.83	25827.81
505.01	26075.91
505.18	25762.28
505.36	25895.69
505.53	25991.65
505.71	26370.82
505.88	26146.12
506.06	26202.30
506.23	26719.56
506.41	26162.51
506.58	26398.90
506.76	26450.39
506.93	26892.76
507.11	26689.13
507.28	26909.14
507.46	27070.64
507.63	26953.61
507.81	27388.95
507.98	27110.43
508.16	27026.17
508.33	27477.89
508.50	27885.14
508.68	27608.96
508.85	27740.03
509.03	27363.20
509.20	27843.01
509.38	28044.30
509.55	28301.76
509.73	27983.44
509.90	28154.30
510.08	28252.61
510.25	27988.13
510.42	28247.93
510.60	28346.23
510.77	28526.45
510.95	28634.11
511.12	28753.48
511.30	28975.83
511.47	28919.66
511.64	28580.28
511.82	28926.68
511.99	28971.15
512.17	28973.49
512.34	29120.95
512.51	29301.17
512.69	29621.82
512.86	29572.67
513.04	29535.22
513.21	29647.57
513.38	29483.73
513.56	29928.43
513.73	29687.36
513.90	29497.77
514.08	29553.94
514.25	30094.61
514.43	30139.08
514.60	30150.78
514.77	30019.71
514.95	30349.73
515.12	30506.54
515.29	30033.75
515.47	30492.50
515.64	30546.33
515.81	30600.16
515.99	30525.27
516.16	30892.73
516.33	30836.56
516.51	30534.63
516.68	30984.01
516.85	31005.08
517.03	31079.97
517.20	31175.94
517.37	31592.55
517.54	31630.00
517.72	31274.24
517.89	31178.28
518.06	31262.54
518.24	31608.93
518.41	31606.59
518.58	31344.45
518.75	31735.32
518.93	31899.16
519.10	31908.52
519.27	31971.72
519.45	31744.69
519.62	32285.35
519.79	32060.66
519.96	32109.81
520.14	32687.92
520.31	31971.72
520.48	32580.26
520.65	32428.12
520.83	33034.32
521.00	32797.93
521.17	32793.25
521.34	32884.53
521.52	32727.71
521.69	32638.77
521.86	33029.64
522.03	33362.00
522.20	33668.61
522.38	33586.69
522.55	33504.77
522.72	33034.32
522.89	33532.86
523.07	33427.53
523.24	33837.12
523.41	33727.12
523.58	33472.00
523.75	33834.78
523.92	33748.18
524.10	34190.55
524.27	33689.67
524.44	33804.36
524.61	34565.03
524.78	34251.40
524.96	34550.99
525.13	34246.72
525.30	34771.00
525.47	34665.67
525.64	34333.32
525.81	34913.77
525.98	35168.89
526.16	34817.81
526.33	34361.40
526.50	34829.51
526.67	34548.65
526.84	35061.22
527.01	35019.10
527.18	34934.84
527.36	35239.11
527.53	35264.85
527.70	35461.46
527.87	35604.23
528.04	35262.51
528.21	35391.24
528.38	35849.99
528.55	35718.92
528.72	35908.50
528.89	35618.27
529.07	35709.55
529.24	35065.91
529.41	36004.46
529.58	36074.68
529.75	35503.59
529.92	36205.75
530.09	35629.98
530.26	35990.42
530.43	36198.73
530.60	35866.37
530.77	35468.48
530.94	36287.67
531.11	36130.85
531.28	36409.37
531.46	36268.94
531.63	36568.53
531.80	36392.99
531.97	37055.36
532.14	36521.72
532.31	36428.10
532.48	36847.05
532.65	37156.00
532.82	36889.18
532.99	37095.15
533.16	36854.08
533.33	37464.96
533.50	36800.24
533.67	37202.82
533.84	36809.61
534.01	37120.90
534.18	37490.70
534.35	37553.90
534.52	37434.53
534.69	37490.70
534.86	37579.64
535.03	37373.67
535.20	37841.78
535.37	37972.85
535.54	37696.67
535.71	37659.22
535.88	37996.26
536.05	37626.45
536.22	38141.37
536.38	37986.89
536.55	38171.80
536.72	37687.31
536.89	37521.13
537.06	38181.16
537.23	38029.02
537.40	38160.09
537.57	38136.69
537.74	37921.36
537.91	38300.53
538.08	38852.89
538.25	38492.45
538.42	38691.40
538.59	38738.21
538.75	38389.47
538.92	38581.39
539.09	38824.81
539.26	38892.68
539.43	38459.68
539.60	38703.10
539.77	38962.90
539.94	38604.80
540.11	38756.93
540.28	39192.27
540.44	38689.06
540.61	39110.35
540.78	39061.20
540.95	38998.01
541.12	39007.37
541.29	39381.85
541.46	38937.15
541.62	38993.32
541.79	39847.62
541.96	39409.94
542.13	39262.49
542.30	39374.83
542.47	39180.57
542.63	40086.36
542.80	39775.06
542.97	39906.13
543.14	40135.51
543.31	39849.96
543.48	39859.32
543.64	40449.14
543.81	40168.27
543.98	40161.25
544.15	40109.76
544.32	40444.46
544.48	40526.38
544.65	40250.19
544.82	40556.80
544.99	40416.37
545.16	40334.45
545.32	40467.86
545.49	40786.18
545.66	40809.58
545.83	41148.96
546.00	40725.32
546.16	40474.88
546.33	40896.18
546.50	40563.82
546.67	40978.10
546.83	40350.84
547.00	40444.46
547.17	41055.34
547.34	41041.29
547.50	41078.74
547.67	41373.65
547.84	41097.47
548.00	41539.83
548.17	41839.42
548.34	41312.80
548.51	41289.39
548.67	41523.44
548.84	41373.65
549.01	41364.29
549.18	41418.12
549.34	41607.70
549.51	42216.24
549.68	41972.83
549.84	41518.76
550.01	41801.97
550.18	41799.63
550.34	41893.25
550.51	41682.60
550.68	41816.01
550.84	41708.35
551.01	42064.11
551.18	42087.51
551.34	41734.09
551.51	41881.55
551.68	41684.94
551.84	41532.81
552.01	41684.94
552.18	42281.78
552.34	41743.45
552.51	42291.14
552.68	41757.50
552.84	42291.14
553.01	42241.99
553.18	42181.13
553.34	42323.91
553.51	42195.18
553.67	42351.99
553.84	42628.18
554.01	42541.58
554.17	42436.25
554.34	42880.95
554.51	42487.74
554.67	43227.35
554.84	42651.58
555.00	42960.53
555.17	42574.34
555.33	42983.94
555.50	42370.72
555.67	42581.37
555.83	42792.01
556.00	43061.18
556.16	43489.49
556.33	43072.88
556.50	42930.11
556.66	42993.30
556.83	42834.14
556.99	42892.66
557.16	43065.86
557.32	43320.98
557.49	43360.76
557.65	42948.83
557.82	43065.86
557.98	43164.16
558.15	43159.48
558.32	42873.93
558.48	43250.76
558.65	43363.11
558.81	43674.40
558.98	43349.06
559.14	43225.01
559.31	43199.27
559.47	43611.20
559.64	43313.95
559.80	43463.75
559.97	43615.88
560.13	43246.08
560.30	43384.17
560.46	44039.52
560.63	43536.30
560.79	44088.67
560.96	43943.56
561.12	43695.46
561.29	43526.94
561.45	43964.62
561.61	43564.39
561.78	43800.79
561.94	43725.89
562.11	43583.12
562.27	43798.44
562.44	43665.03
562.60	44098.03
562.77	44086.33
562.93	43728.23
563.10	44065.27
563.26	43964.62
563.42	44612.95
563.59	44163.57
563.75	43896.75
563.92	43749.29
564.08	44079.31
564.24	44137.82
564.41	43728.23
564.57	44027.82
564.74	44383.58
564.90	44034.84
565.07	44051.22
565.23	44165.91
565.39	43971.64
565.56	44086.33
565.72	44069.95
565.88	43948.24
566.05	44264.21
566.21	44367.20
566.38	44610.61
566.54	44509.97
566.70	44196.34
566.87	44184.63
567.03	43927.17
567.19	44498.26
567.36	44194.00
567.52	44348.47
567.68	44477.20
567.85	44725.30
568.01	44650.40
568.17	44140.16
568.34	44706.57
568.50	44566.14
568.66	44229.10
568.83	44580.18
568.99	44495.92
569.15	44870.41
569.32	44308.68
569.48	44041.86
569.64	45043.61
569.81	44626.99
569.97	45116.17
570.13	45064.67
570.30	44189.31
570.46	44563.80
570.62	44725.30
570.78	44767.43
570.95	44603.59
571.11	45113.83
571.27	44549.76
571.43	44547.42
571.60	45008.50
571.76	44594.23
571.92	44779.13
572.09	44786.15
572.25	44509.97
572.41	44662.10
572.57	44577.84
572.74	45153.62
572.90	44512.31
573.06	44865.73
573.22	44882.11
573.38	45162.98
573.55	44980.42
573.71	45195.74
573.87	45347.88
574.03	44919.56
574.20	45214.47
574.36	45097.44
574.52	45219.15
574.68	45015.52
574.84	45162.98
575.01	45647.47
575.17	45368.94
575.33	45207.45
575.49	44961.69
575.65	44994.46
575.82	45062.33
575.98	45233.19
576.14	45406.39
576.30	45305.75
576.46	45558.53
576.62	45214.47
576.79	45228.51
576.95	44839.98
577.11	44839.98
577.27	45216.81
577.43	45373.63
577.59	45158.30
577.75	45088.08
577.92	44989.78
578.08	45099.78
578.24	44863.39
578.40	45289.37
578.56	45247.24
578.72	45312.77
578.88	45420.44
579.04	45219.15
579.21	44844.66
579.37	45368.94
579.53	45443.84
579.69	45244.90
579.85	45198.09
580.01	45432.14
580.17	45015.52
580.33	45961.10
580.49	45640.45
580.65	45507.04
580.82	45808.96
580.98	45083.40
581.14	45083.40
581.30	45024.89
581.46	45277.66
581.62	45518.74
581.78	45338.52
581.94	45813.65
582.10	45162.98
582.26	45357.24
582.42	45350.22
582.58	45326.81
582.74	45413.41
582.90	45261.28
583.06	45701.30
583.22	45354.90
583.38	45361.92
583.54	45481.29
583.70	45876.84
583.86	45673.21
584.02	45338.52
584.18	45780.88
584.34	45497.67
584.50	45347.88
584.66	45265.96
584.82	45495.33
584.98	45759.81
585.14	45469.59
585.30	45162.98
585.46	45631.08
585.62	45441.50
585.78	45361.92
585.94	45336.18
586.10	45406.39
586.26	45127.87
586.42	45237.87
586.58	45483.63
586.74	45471.93
586.90	45446.18
587.06	45605.34
587.22	45340.86
587.38	45652.15
587.54	45736.41
587.70	45965.78
587.86	45610.02
588.02	45268.30
588.18	45167.66
588.34	45579.59
588.49	45874.50
588.65	45312.77
588.81	45467.25
588.97	45539.80
589.13	45619.38
589.29	46286.43
589.45	45958.76
589.61	45502.35
589.77	45743.43
589.93	45724.71
590.08	45633.42
