SpectraSuite Data File
++++++++++++++++++++++++++++++++++++
Date: Fri Oct 25 10:44:41 EDT 2013
User: price-jones
Dark Spectrum Present: No
Reference Spectrum Present: No
Number of Sampled Component Spectra: 1
Spectrometers: USB2+H05261
Integration Time (usec): 100000 (USB2+H05261)
Spectra Averaged: 1 (USB2+H05261)
Boxcar Smoothing: 0 (USB2+H05261)
Correct for Electrical Dark: No (USB2+H05261)
Strobe/Lamp Enabled: No (USB2+H05261)
Correct for Detector Non-linearity: No (USB2+H05261)
Correct for Stray Light: No (USB2+H05261)
Number of Pixels in Processed Spectrum: 2048
>>>>>Begin Processed Spectral Data<<<<<
365.73	170.86
365.92	170.86
366.12	170.86
366.32	0.00
366.52	42.13
366.72	0.00
366.91	4.68
367.11	81.92
367.31	2.34
367.51	0.00
367.70	35.11
367.90	21.06
368.10	51.49
368.30	18.72
368.49	23.41
368.69	156.82
368.89	121.71
369.09	77.24
369.28	37.45
369.48	2.34
369.68	79.58
369.87	100.64
370.07	46.81
370.27	128.73
370.47	198.95
370.66	320.65
370.86	381.51
371.06	425.98
371.25	472.79
371.45	383.85
371.65	482.15
371.84	402.57
372.04	411.93
372.24	491.51
372.44	489.17
372.63	451.72
372.83	475.13
373.03	510.24
373.22	503.22
373.42	540.66
373.62	528.96
373.81	531.30
374.01	554.71
374.21	472.79
374.40	543.00
374.60	547.69
374.79	592.16
374.99	524.28
375.19	608.54
375.38	535.98
375.58	643.65
375.78	603.86
375.97	524.28
376.17	578.11
376.37	580.45
376.56	557.05
376.76	566.41
376.95	512.58
377.15	655.35
377.35	629.60
377.54	575.77
377.74	557.05
377.93	594.50
378.13	620.24
378.33	587.47
378.52	524.28
378.72	613.22
378.91	608.54
379.11	582.79
379.31	599.18
379.50	599.18
379.70	706.84
379.89	589.82
380.09	674.07
380.28	674.07
380.48	690.46
380.68	627.26
380.87	571.09
381.07	653.01
381.26	648.33
381.46	627.26
381.65	669.39
381.85	613.22
382.04	657.69
382.24	744.29
382.43	662.37
382.63	613.22
382.83	645.99
383.02	608.54
383.22	617.90
383.41	706.84
383.61	653.01
383.80	751.31
384.00	669.39
384.19	737.27
384.39	685.78
384.58	641.31
384.78	692.80
384.97	793.44
385.17	748.97
385.36	765.36
385.56	744.29
385.75	753.65
385.95	713.86
386.14	854.30
386.34	720.88
386.53	739.61
386.72	765.36
386.92	805.14
387.11	791.10
387.31	840.25
387.50	795.78
387.70	791.10
387.89	821.53
388.09	812.17
388.28	784.08
388.48	926.85
388.67	835.57
388.86	884.72
389.06	863.66
389.25	880.04
389.45	835.57
389.64	835.57
389.84	905.79
390.03	945.58
390.22	891.74
390.42	858.98
390.61	983.02
390.81	924.51
391.00	943.24
391.19	990.05
391.39	990.05
391.58	851.96
391.78	1039.20
391.97	910.47
392.16	929.19
392.36	966.64
392.55	1039.20
392.75	1001.75
392.94	952.60
393.13	980.68
393.33	898.77
393.52	990.05
393.71	1025.15
393.91	973.66
394.10	994.73
394.29	1034.52
394.49	1041.54
394.68	1086.01
394.88	1221.76
395.07	1144.52
395.26	1046.22
395.46	1093.03
395.65	1196.01
395.84	1097.71
396.04	1167.93
396.23	1076.65
396.42	999.41
396.62	1172.61
396.81	1205.38
397.00	1095.37
397.19	1224.10
397.39	1149.20
397.58	1263.89
397.77	1263.89
397.97	1210.06
398.16	1261.55
398.35	1214.74
398.55	1149.20
398.74	1252.19
398.93	1268.57
399.12	1235.80
399.32	1322.40
399.51	1369.21
399.70	1341.13
399.90	1434.75
400.09	1413.68
400.28	1401.98
400.47	1348.15
400.67	1476.88
400.86	1448.79
401.05	1397.30
401.24	1423.05
401.44	1486.24
401.63	1451.13
401.82	1434.75
402.01	1605.61
402.21	1488.58
402.40	1570.50
402.59	1511.99
402.78	1563.48
402.97	1563.48
403.17	1516.67
403.36	1511.99
403.55	1558.80
403.74	1589.22
403.93	1701.57
404.13	1612.63
404.32	1675.82
404.51	1605.61
404.70	1647.74
404.89	1720.29
405.09	1741.36
405.28	1813.92
405.47	1771.79
405.66	1762.42
405.85	1689.87
406.05	1680.50
406.24	1699.23
406.43	1809.23
406.62	1816.26
406.81	1872.43
407.00	1760.08
407.20	1790.51
407.39	1785.83
407.58	1909.88
407.77	1842.00
407.96	1996.48
408.15	1994.14
408.34	1881.79
408.54	2040.95
408.73	1984.77
408.92	1984.77
409.11	2010.52
409.30	2050.31
409.49	2029.24
409.68	2017.54
409.87	2064.35
410.07	2186.06
410.26	2038.61
410.45	2139.25
410.64	2216.49
410.83	2174.36
411.02	2237.55
411.21	2235.21
411.40	2267.98
411.59	2169.68
411.78	2275.00
411.98	2167.34
412.17	2345.22
412.36	2403.73
412.55	2267.98
412.74	2499.69
412.93	2326.49
413.12	2345.22
413.31	2595.65
413.50	2539.48
413.69	2457.56
413.88	2633.10
414.07	2609.70
414.26	2602.68
414.45	2588.63
414.64	2670.55
414.83	2635.44
415.02	2705.66
415.22	2773.53
415.41	2761.83
415.60	2843.75
415.79	2778.22
415.98	2820.35
416.17	2794.60
416.36	2808.64
416.55	2918.65
416.74	2911.63
416.93	2911.63
417.12	2850.77
417.31	3000.57
417.50	2958.44
417.69	3159.72
417.88	2986.52
418.07	3007.59
418.26	3033.33
418.45	3162.06
418.64	3197.17
418.83	3211.22
419.02	3169.09
419.21	3236.96
419.39	3307.18
419.58	3162.06
419.77	3220.58
419.96	3377.39
420.15	3328.24
420.34	3110.57
420.53	3330.58
420.72	3442.93
420.91	3384.41
421.10	3459.31
421.29	3396.12
421.48	3442.93
421.67	3353.99
421.86	3349.31
422.05	3295.47
422.24	3468.67
422.43	3417.18
422.61	3442.93
422.80	3501.44
422.99	3531.87
423.18	3503.78
423.37	3590.38
423.56	3557.61
423.75	3520.17
423.94	3461.65
424.13	3307.18
424.32	3459.31
424.50	3501.44
424.69	3536.55
424.88	3555.27
425.07	3412.50
425.26	3438.25
425.45	3466.33
425.64	3616.13
425.83	3456.97
426.01	3501.44
426.20	3534.21
426.39	3700.39
426.58	3487.40
426.77	3672.30
426.96	3693.37
427.15	3588.04
427.33	3616.13
427.52	3796.35
427.71	3606.77
427.90	3669.96
428.09	3702.73
428.28	3836.14
428.46	3667.62
428.65	3805.71
428.84	3859.54
429.03	3775.28
429.22	3730.81
429.40	3819.75
429.59	3915.72
429.78	3667.62
429.97	3749.54
430.16	3742.52
430.34	3845.50
430.53	3850.18
430.72	3822.09
430.91	3854.86
431.10	3985.93
431.28	4084.23
431.47	4236.37
431.66	4219.99
431.85	4084.23
432.03	4042.11
432.22	4114.66
432.41	4124.02
432.60	4124.02
432.79	4119.34
432.97	4184.88
433.16	4376.80
433.35	4229.35
433.54	4205.94
433.72	4212.96
433.91	4259.78
434.10	4292.54
434.28	4217.65
434.47	4386.16
434.66	4344.03
434.85	4491.49
435.03	4351.06
435.22	4533.62
435.41	4566.39
435.59	4531.28
435.78	4528.94
435.97	4594.47
436.16	4641.28
436.34	4540.64
436.53	4519.57
436.72	4678.73
436.90	4463.40
437.09	4676.39
437.28	4568.73
437.46	4643.62
437.65	4561.70
437.84	4561.70
438.02	4514.89
438.21	4770.01
438.40	4716.18
438.58	4961.94
438.77	4809.80
438.96	4940.87
439.14	5043.85
439.33	5123.43
439.52	5135.14
439.70	5095.35
439.89	5085.98
440.08	5146.84
440.26	4992.36
440.45	5195.99
440.63	5193.65
440.82	5308.34
441.01	5277.91
441.19	5343.44
441.38	5411.32
441.57	5397.28
441.75	5317.70
441.94	5460.47
442.12	5699.20
442.31	5628.99
442.50	5650.05
442.68	5671.12
442.87	5816.23
443.05	5776.44
443.24	5820.91
443.43	5757.72
443.61	5818.57
443.80	6001.13
443.98	5715.59
444.17	5593.88
444.35	5703.89
444.54	5947.30
444.73	5834.96
444.91	6024.54
445.10	5685.16
445.28	5734.31
445.47	5930.92
445.65	5769.42
445.84	5891.13
446.02	5923.90
446.21	5937.94
446.39	6015.18
446.58	5907.51
446.77	5996.45
446.95	5870.06
447.14	5935.60
447.32	6146.25
447.51	6022.20
447.69	5923.90
447.88	5984.75
448.06	6115.82
448.25	6106.46
448.43	5900.49
448.62	6148.59
448.80	6008.16
448.99	5998.79
449.17	6047.94
449.36	6038.58
449.54	6176.67
449.73	6352.21
449.91	6270.30
450.10	6338.17
450.28	6469.24
450.46	6387.32
450.65	6534.78
450.83	6347.53
451.02	6450.52
451.20	6480.94
451.39	6413.07
451.57	6429.45
451.76	6572.22
451.94	6314.77
452.13	6511.37
452.31	6445.84
452.49	6504.35
452.68	6567.54
452.86	6480.94
453.05	6445.84
453.23	6665.85
453.42	6506.69
453.60	6661.16
453.78	6647.12
453.97	6637.76
454.15	6738.40
454.34	6665.85
454.52	6668.19
454.70	6644.78
454.89	6871.81
455.07	6792.23
455.26	6785.21
455.44	6846.07
455.62	7239.28
455.81	6909.26
455.99	7087.14
456.17	6932.67
456.36	7059.06
456.54	7042.67
456.73	7269.70
456.91	7351.62
457.09	7316.51
457.28	7370.35
457.46	7330.56
457.64	7035.65
457.83	7382.05
458.01	7356.30
458.19	7400.77
458.38	7386.73
458.56	7566.95
458.74	7410.14
458.93	7440.56
459.11	7414.82
459.29	7510.78
459.48	7627.81
459.66	7475.67
459.84	7688.66
460.03	7700.36
460.21	7740.15
460.39	7648.87
460.57	7667.60
460.76	7616.10
460.94	7662.91
461.12	7592.70
461.31	7765.90
461.49	7737.81
461.67	7847.82
461.85	7868.88
462.04	7740.15
462.22	8021.02
462.40	8002.29
462.59	7798.66
462.77	7840.79
462.95	7990.59
463.13	7976.55
463.32	7960.16
463.50	8196.56
463.68	8168.47
463.86	8142.72
464.05	8056.12
464.23	8013.99
464.41	8161.45
464.59	8056.12
464.78	8304.22
464.96	8226.98
465.14	8292.52
465.32	8318.26
465.50	8367.42
465.69	8432.95
465.87	8264.43
466.05	8222.30
466.23	8276.13
466.41	8461.04
466.60	8472.74
466.78	8241.03
466.96	8470.40
467.14	8294.86
467.32	8250.39
467.51	8554.66
467.69	8358.05
467.87	8830.84
468.05	8631.90
468.23	8732.54
468.41	8571.04
468.60	8524.23
468.78	8802.75
468.96	8608.49
469.14	8950.21
469.32	8837.86
469.50	8489.12
469.69	8681.05
469.87	8798.07
470.05	8933.82
470.23	8837.86
470.41	8931.48
470.59	8961.91
470.77	9015.74
470.95	9188.94
471.14	9167.88
471.32	8795.73
471.50	9193.62
471.68	9165.54
471.86	9287.25
472.04	9226.39
472.22	9549.39
472.40	9371.50
472.58	9184.26
472.77	9458.10
472.95	9734.29
473.13	9947.28
473.31	9474.49
473.49	9568.11
473.67	9748.33
473.85	9722.59
474.03	9785.78
474.21	9818.55
474.39	9912.17
474.57	10129.84
474.75	10111.11
474.93	10101.75
475.12	10043.24
475.30	10157.92
475.48	10214.10
475.66	10097.07
475.84	10136.86
476.02	10342.83
476.20	10312.40
476.38	10434.11
476.56	10686.89
476.74	10689.23
476.92	10729.02
477.10	10675.18
477.28	10881.15
477.46	10740.72
477.64	11094.14
477.82	11047.33
478.00	11555.22
478.18	11272.02
478.36	11267.34
478.54	11587.99
478.72	11672.25
478.90	11674.59
479.08	11587.99
479.26	11925.03
479.44	11810.34
479.62	11735.45
479.80	12063.12
479.98	12257.39
480.16	12374.41
480.34	12215.26
480.52	12468.03
480.70	12470.37
480.88	12428.24
481.06	12688.04
481.24	12528.89
481.41	12847.20
481.59	13081.25
481.77	13018.06
481.95	12994.65
482.13	13200.62
482.31	13249.77
482.49	13448.72
482.67	13458.08
482.85	13635.96
483.03	13750.65
483.21	13724.90
483.39	14064.28
483.57	13942.57
483.74	14075.98
483.92	14249.18
484.10	14190.67
484.28	14537.07
484.46	14541.75
484.64	14916.23
484.82	14368.55
485.00	14607.28
485.18	15150.29
485.35	14979.43
485.53	14984.11
485.71	15192.42
485.89	15204.12
486.07	15154.97
486.25	15110.50
486.43	15550.52
486.61	15730.74
486.78	16020.97
486.96	15934.37
487.14	16175.44
487.32	16042.03
487.50	16332.26
487.68	16671.64
487.85	16741.85
488.03	16950.16
488.21	17050.80
488.39	17053.14
488.57	17305.92
488.75	17298.90
488.92	17532.95
489.10	17640.62
489.28	17621.89
489.46	17947.23
489.64	17872.33
489.81	18366.18
489.99	18305.33
490.17	18141.49
490.35	18258.52
490.53	18424.70
490.70	18717.26
490.88	18656.41
491.06	19063.66
491.24	19267.29
491.41	19211.12
491.59	18951.32
491.77	19204.10
491.95	19215.80
492.13	19503.68
492.30	19761.14
492.48	19784.55
492.66	20252.66
492.84	19779.87
493.01	20276.06
493.19	20189.46
493.37	20482.03
493.54	20346.28
493.72	20631.82
493.90	20706.72
494.08	20987.58
494.25	21104.61
494.43	21081.21
494.61	21359.73
494.79	21462.71
494.96	21296.53
495.14	21378.45
495.32	21642.93
495.49	21736.56
495.67	21666.34
495.85	22026.78
496.02	22204.66
496.20	22455.10
496.38	22412.97
496.55	22581.49
496.73	22827.24
496.91	22735.96
497.09	23044.91
497.26	23147.90
497.44	23089.38
497.62	22909.16
497.79	23564.51
497.97	23278.97
498.14	23482.59
498.32	23524.72
498.50	23407.70
498.67	23805.59
498.85	23948.36
499.03	23800.91
499.20	24044.32
499.38	24486.68
499.56	24039.64
499.73	24334.55
499.91	24301.78
500.08	24334.55
500.26	24238.59
500.44	24554.56
500.61	24826.06
500.79	24699.67
500.97	24816.70
501.14	25060.12
501.32	25092.88
501.49	24896.28
501.67	25069.48
501.84	25167.78
502.02	25174.80
502.20	25642.91
502.37	25874.62
502.55	25582.06
502.72	25781.00
502.90	25659.29
503.07	25874.62
503.25	25624.18
503.43	26103.99
503.60	26192.94
503.78	26120.38
503.95	26272.51
504.13	26260.81
504.30	26665.72
504.48	26597.85
504.65	26551.04
504.83	26466.78
505.01	26930.20
505.18	26965.31
505.36	27063.61
505.53	26829.56
505.71	27283.62
505.88	27065.96
506.06	27129.15
506.23	27346.82
506.41	27168.94
506.58	27440.44
506.76	27363.20
506.93	27695.56
507.11	27555.13
507.28	27496.61
507.46	27894.50
507.63	27543.42
507.81	27866.42
507.98	27646.41
508.16	28233.88
508.33	28362.61
508.50	28435.17
508.68	28746.46
508.85	28676.24
509.03	28884.55
509.20	28610.71
509.38	28940.72
509.55	29001.58
509.73	28936.04
509.90	29034.35
510.08	29111.58
510.25	29003.92
510.42	29422.87
510.60	29392.45
510.77	29277.76
510.95	29446.28
511.12	29582.03
511.30	29757.57
511.47	29982.26
511.64	29970.56
511.82	30085.25
511.99	29820.77
512.17	29780.98
512.34	29862.90
512.51	30377.81
512.69	30335.68
512.86	30185.89
513.04	30354.41
513.21	30422.28
513.38	30319.30
513.56	30272.49
513.73	30244.40
513.90	30625.91
514.08	30965.29
514.25	31271.90
514.43	30820.17
514.60	31063.59
514.77	31122.10
514.95	31398.29
515.12	31527.02
515.29	31494.25
515.47	31566.81
515.64	31700.22
515.81	31239.13
515.99	31384.24
516.16	31700.22
516.33	31412.33
516.51	31948.31
516.68	31323.39
516.85	31681.49
517.03	31267.22
517.20	31929.59
517.37	32002.14
517.54	32170.66
517.72	31917.89
517.89	31878.10
518.06	31955.33
518.24	31967.04
518.41	31934.27
518.58	32142.58
518.75	32556.85
518.93	32357.91
519.10	32252.58
519.27	32938.36
519.45	32493.66
519.62	32596.64
519.79	33149.01
519.96	32980.49
520.14	33469.66
520.31	33165.39
520.48	33453.28
520.65	33163.05
520.83	33537.54
521.00	33713.08
521.17	33450.94
521.34	34101.61
521.52	33645.20
521.69	33940.11
521.86	33881.60
522.03	34146.08
522.20	33766.91
522.38	34246.72
522.55	34223.31
522.72	34024.37
522.89	34038.41
523.07	33944.79
523.24	33867.55
523.41	34890.37
523.58	34155.44
523.75	34976.97
523.92	35033.14
524.10	35000.37
524.27	34918.45
524.44	35019.10
524.61	34962.92
524.78	34733.55
524.96	35133.78
525.13	35005.05
525.30	35166.55
525.47	35264.85
525.64	35342.09
525.81	35248.47
525.98	35728.28
526.16	35297.62
526.33	35302.30
526.50	35505.93
526.67	35180.59
526.84	35157.19
527.01	35604.23
527.18	35475.50
527.36	35969.35
527.53	35931.90
527.70	36240.86
527.87	36437.46
528.04	35892.12
528.21	36070.00
528.38	35772.75
528.55	36308.73
528.72	36383.63
528.89	36226.81
529.07	36229.15
529.24	36222.13
529.41	36374.27
529.58	35990.42
529.75	36774.50
529.92	36322.77
530.09	36643.43
530.26	36767.48
530.43	37104.51
530.60	36493.63
530.77	36189.36
530.94	37003.87
531.11	36952.38
531.28	37127.92
531.46	37273.03
531.63	37163.03
531.80	37237.92
531.97	36903.23
532.14	37270.69
532.31	36554.49
532.48	36882.16
532.65	37137.28
532.82	37263.67
532.99	37603.05
533.16	37406.44
533.33	37357.29
533.50	37598.37
533.67	37413.46
533.84	37614.75
534.01	38012.64
534.18	37521.13
534.35	38110.94
534.52	37614.75
534.69	38045.41
534.86	38272.44
535.03	38019.66
535.20	37933.06
535.37	38455.00
535.54	38225.63
535.71	38115.62
535.88	38066.47
536.05	38256.06
536.22	38394.15
536.38	38417.55
536.55	38059.45
536.72	38429.26
536.89	38192.86
537.06	38368.40
537.23	38534.58
537.40	38796.72
537.57	38520.54
537.74	38822.47
537.91	38817.78
538.08	38763.95
538.25	38565.01
538.42	38803.74
538.59	39044.82
538.75	38761.61
538.92	38944.17
539.09	39000.35
539.26	39007.37
539.43	39061.20
539.60	38815.44
539.77	39246.10
539.94	38902.04
540.11	38852.89
540.28	38990.98
540.44	39138.44
540.61	39290.57
540.78	39112.69
540.95	38827.15
541.12	39442.71
541.29	39255.46
541.46	39548.03
541.62	39690.80
541.79	39470.79
541.96	39285.89
542.13	39847.62
542.30	40163.59
542.47	39550.37
542.63	39679.10
542.80	39819.53
542.97	40271.26
543.14	40353.18
543.31	40268.92
543.48	39969.33
543.64	40435.10
543.81	40648.08
543.98	40910.22
544.15	40421.05
544.32	40371.90
544.48	40884.48
544.65	40346.15
544.82	40437.44
544.99	40652.76
545.16	40713.62
545.32	40191.68
545.49	41155.98
545.66	40825.96
545.83	41495.36
546.00	41003.85
546.16	40811.92
546.33	40699.58
546.50	40830.65
546.67	40889.16
546.83	40715.96
547.00	41249.60
547.17	41097.47
547.34	41109.17
547.50	41120.87
547.67	40980.44
547.84	41165.34
548.00	41287.05
548.17	41495.36
548.34	41230.88
548.51	41680.26
548.67	41759.84
548.84	41654.51
549.01	41518.76
549.18	41481.31
549.34	41443.87
549.51	41942.40
549.68	41619.41
549.84	41631.11
550.01	41612.38
550.18	41834.74
550.34	41804.31
550.51	41666.22
550.68	41764.52
550.84	41453.23
551.01	42204.54
551.18	42007.94
551.34	42103.90
551.51	42033.68
551.68	41649.83
551.84	42204.54
552.01	41853.46
552.18	41958.78
552.34	41670.90
552.51	41872.18
552.68	41879.21
552.84	42469.02
553.01	42623.50
553.18	42164.75
553.34	42227.95
553.51	41567.91
553.67	42452.64
553.84	42522.85
554.01	42454.98
554.17	42225.60
554.34	42583.71
554.51	42754.57
554.67	42171.77
554.84	42646.90
555.00	42279.44
555.17	42658.60
555.33	42541.58
555.50	42216.24
555.67	42127.30
555.83	42462.00
556.00	42883.30
556.16	42869.25
556.33	42761.59
556.50	42508.81
556.66	42904.36
556.83	42665.63
556.99	42988.62
557.16	43105.65
557.32	42871.59
557.49	43236.72
557.65	42958.19
557.82	43182.88
557.98	43182.88
558.15	43187.56
558.32	43145.44
558.48	43133.73
558.65	42394.12
558.81	42972.24
558.98	42576.69
559.14	42944.15
559.31	43105.65
559.47	43098.62
559.64	43540.99
559.80	43892.07
559.97	43281.19
560.13	42923.08
560.30	43096.28
560.46	43295.23
560.63	43143.09
560.79	43150.12
560.96	43901.43
561.12	43566.73
561.29	43597.16
561.45	43290.55
561.61	43447.36
561.78	43180.54
561.94	43498.86
562.11	43393.53
562.27	43269.48
562.44	43229.69
562.60	43744.61
562.77	43915.47
562.93	43072.88
563.10	43599.50
563.26	43339.70
563.42	43367.79
563.59	43758.66
563.75	43597.16
563.92	43573.75
564.08	43709.50
564.24	43899.09
564.41	43964.62
564.57	43648.65
564.74	43393.53
564.90	43992.71
565.07	43681.42
565.23	43522.26
565.39	43812.49
565.56	43732.91
565.72	43913.13
565.88	43559.71
566.05	43536.30
566.21	43569.07
566.38	43585.46
566.54	43531.62
566.70	43948.24
566.87	43959.94
567.03	43751.63
567.19	44662.10
567.36	43803.13
567.52	44006.75
567.68	43824.19
567.85	44194.00
568.01	43913.13
568.17	44095.69
568.34	44098.03
568.50	43878.02
568.66	43842.92
568.83	43782.06
568.99	43636.95
569.15	43819.51
569.32	44179.95
569.48	43655.67
569.64	44182.29
569.81	43807.81
569.97	44016.11
570.13	44004.41
570.30	44006.75
570.46	43489.49
570.62	43772.70
570.78	43854.62
570.95	43779.72
571.11	44299.32
571.27	43786.74
571.43	44076.97
571.60	44231.44
571.76	43646.31
571.92	44243.15
572.09	43826.53
572.25	44128.46
572.41	44322.72
572.57	44329.75
572.74	44383.58
572.90	44009.09
573.06	44198.68
573.22	44191.65
573.38	43959.94
573.55	43927.17
573.71	44479.54
573.87	44250.17
574.03	44009.09
574.20	44100.37
574.36	43955.26
574.52	44009.09
574.68	44556.78
574.84	44470.18
575.01	44072.29
575.17	43964.62
575.33	43856.96
575.49	44023.14
575.65	44069.95
575.82	44252.51
575.98	44151.87
576.14	44243.15
576.30	44545.08
576.46	44414.01
576.62	44133.14
576.79	44217.40
576.95	43723.55
577.11	44390.60
577.27	44779.13
577.43	44521.67
577.59	44566.14
577.75	44076.97
577.92	44144.84
578.08	44112.08
578.24	44123.78
578.40	44168.25
578.56	43985.69
578.72	44264.21
578.88	45031.91
579.04	44224.42
579.21	44430.39
579.37	44446.77
579.53	44102.71
579.69	43910.79
579.85	44069.95
580.01	44205.70
580.17	44435.07
580.33	44416.35
580.49	44102.71
580.65	44259.53
580.82	44301.66
580.98	43950.58
581.14	44161.23
581.30	44863.39
581.46	44362.51
581.62	44584.86
581.78	44287.62
581.94	44746.36
582.10	44285.28
582.26	44568.48
582.42	44453.79
582.58	44744.02
582.74	44671.46
582.90	44786.15
583.06	44371.88
583.22	44414.01
583.38	44648.06
583.54	44732.32
583.70	44318.04
583.86	44409.32
584.02	43672.06
584.18	44664.44
584.34	44432.73
584.50	44610.61
584.66	44388.26
584.82	44629.34
584.98	44706.57
585.14	44514.65
585.30	44264.21
585.46	44318.04
585.62	44336.77
585.78	44563.80
585.94	44044.20
586.10	44098.03
586.26	44577.84
586.42	44669.12
586.58	44762.75
586.74	44371.88
586.90	44172.93
587.06	43966.96
587.22	44376.56
587.38	44390.60
587.54	44296.98
587.70	44720.62
587.86	44575.50
588.02	44893.82
588.18	44701.89
588.34	44296.98
588.49	44011.43
588.65	43807.81
588.81	44360.17
588.97	44346.13
589.13	44055.90
589.29	44301.66
589.45	44172.93
589.61	44573.16
589.77	44516.99
589.93	44783.81
590.08	44769.77
590.24	44774.45
