SpectraSuite Data File
++++++++++++++++++++++++++++++++++++
Date: Fri Oct 25 11:34:39 EDT 2013
User: price-jones
Dark Spectrum Present: No
Reference Spectrum Present: No
Number of Sampled Component Spectra: 1
Spectrometers: USB2+H05261
Integration Time (usec): 100000 (USB2+H05261)
Spectra Averaged: 1 (USB2+H05261)
Boxcar Smoothing: 0 (USB2+H05261)
Correct for Electrical Dark: No (USB2+H05261)
Strobe/Lamp Enabled: No (USB2+H05261)
Correct for Detector Non-linearity: No (USB2+H05261)
Correct for Stray Light: No (USB2+H05261)
Number of Pixels in Processed Spectrum: 2048
>>>>>Begin Processed Spectral Data<<<<<
365.73	236.39
365.92	236.39
366.12	236.39
366.32	250.44
366.52	149.79
366.72	191.92
366.91	205.97
367.11	250.44
367.31	194.26
367.51	220.01
367.70	156.82
367.90	154.48
368.10	131.07
368.30	220.01
368.49	203.63
368.69	220.01
368.89	149.79
369.09	189.58
369.28	168.52
369.48	203.63
369.68	220.01
369.87	229.37
370.07	227.03
370.27	294.91
370.47	325.33
370.66	510.24
370.86	470.45
371.06	496.19
371.25	578.11
371.45	535.98
371.65	613.22
371.84	533.64
372.04	568.75
372.24	552.37
372.44	564.07
372.63	594.50
372.83	610.88
373.03	608.54
373.22	547.69
373.42	575.77
373.62	615.56
373.81	648.33
374.01	678.76
374.21	624.92
374.40	589.82
374.60	730.25
374.79	678.76
374.99	660.03
375.19	629.60
375.38	627.26
375.58	631.94
375.78	678.76
375.97	613.22
376.17	725.57
376.37	664.71
376.56	678.76
376.76	636.63
376.95	674.07
377.15	629.60
377.35	620.24
377.54	741.95
377.74	697.48
377.93	674.07
378.13	826.21
378.33	638.97
378.52	664.71
378.72	779.40
378.91	690.46
379.11	650.67
379.31	688.12
379.50	695.14
379.70	763.01
379.89	723.23
380.09	727.91
380.28	702.16
380.48	676.41
380.68	709.18
380.87	690.46
381.07	741.95
381.26	746.63
381.46	744.29
381.65	645.99
381.85	807.48
382.04	697.48
382.24	786.42
382.43	772.38
382.63	732.59
382.83	734.93
383.02	805.14
383.22	746.63
383.41	685.78
383.61	777.06
383.80	779.40
384.00	737.27
384.19	723.23
384.39	774.72
384.58	800.46
384.78	734.93
384.97	816.85
385.17	774.72
385.36	739.61
385.56	835.57
385.75	880.04
385.95	833.23
386.14	828.55
386.34	821.53
386.53	842.59
386.72	798.12
386.92	889.40
387.11	760.67
387.31	830.89
387.50	800.46
387.70	849.61
387.89	856.64
388.09	861.32
388.28	884.72
388.48	840.25
388.67	924.51
388.86	936.21
389.06	877.70
389.25	957.28
389.45	812.17
389.64	837.91
389.84	870.68
390.03	1029.84
390.22	905.79
390.42	940.90
390.61	924.51
390.81	908.13
391.00	940.90
391.19	1043.88
391.39	908.13
391.58	938.55
391.78	959.62
391.97	901.11
392.16	968.98
392.36	992.39
392.55	992.39
392.75	1025.15
392.94	1027.50
393.13	1100.05
393.33	1008.77
393.52	1039.20
393.71	1022.81
393.91	1027.50
394.10	1015.79
394.29	1015.79
394.49	1046.22
394.68	1090.69
394.88	1146.86
395.07	1118.78
395.26	1170.27
395.46	1107.07
395.65	1088.35
395.84	1114.10
396.04	1177.29
396.23	1235.80
396.42	1071.97
396.62	1198.35
396.81	1174.95
397.00	1186.65
397.19	1160.91
397.39	1196.01
397.58	1259.21
397.77	1196.01
397.97	1158.57
398.16	1249.85
398.35	1193.67
398.55	1172.61
398.74	1284.95
398.93	1355.17
399.12	1217.08
399.32	1186.65
399.51	1299.00
399.70	1247.51
399.90	1245.16
400.09	1320.06
400.28	1416.02
400.47	1254.53
400.67	1371.55
400.86	1282.61
401.05	1355.17
401.24	1315.38
401.44	1317.72
401.63	1418.36
401.82	1313.04
402.01	1373.89
402.21	1390.28
402.40	1394.96
402.59	1490.92
402.78	1366.87
402.97	1432.41
403.17	1511.99
403.36	1373.89
403.55	1448.79
403.74	1451.13
403.93	1500.28
404.13	1540.07
404.32	1568.16
404.51	1586.88
404.70	1600.93
404.89	1645.40
405.09	1629.01
405.28	1624.33
405.47	1577.52
405.66	1673.48
405.85	1561.14
406.05	1654.76
406.24	1650.08
406.43	1558.80
406.62	1631.35
406.81	1746.04
407.00	1703.91
407.20	1675.82
407.39	1652.42
407.58	1804.55
407.77	1732.00
407.96	1799.87
408.15	1884.13
408.34	1834.98
408.54	1785.83
408.73	1795.19
408.92	1811.57
409.11	1757.74
409.30	1823.28
409.49	1949.67
409.68	1989.46
409.87	1884.13
410.07	1877.11
410.26	1905.20
410.45	1926.26
410.64	2019.88
410.83	2012.86
411.02	1952.01
411.21	2085.42
411.40	2127.55
411.59	2106.48
411.78	2031.58
411.98	1987.11
412.17	2143.93
412.36	2218.83
412.55	2267.98
412.74	2207.13
412.93	2335.85
413.12	2129.89
413.31	2291.38
413.50	2349.90
413.69	2286.70
413.88	2305.43
414.07	2408.41
414.26	2394.37
414.45	2408.41
414.64	2417.77
414.83	2406.07
415.02	2504.37
415.22	2504.37
415.41	2628.42
415.60	2520.76
415.79	2499.69
415.98	2616.72
416.17	2642.46
416.36	2497.35
416.55	2628.42
416.74	2712.68
416.93	2647.15
417.12	2637.78
417.31	2773.53
417.50	2675.23
417.69	2693.96
417.88	2752.47
418.07	2729.06
418.26	2757.15
418.45	2862.48
418.64	2916.31
418.83	2827.37
419.02	2883.54
419.21	2946.73
419.39	2909.29
419.58	2995.89
419.77	3035.67
419.96	2892.90
420.15	3049.72
420.34	3054.40
420.53	3124.62
420.72	3070.78
420.91	3066.10
421.10	3136.32
421.29	2937.37
421.48	3014.61
421.67	3136.32
421.86	3136.32
422.05	3136.32
422.24	3164.40
422.43	3283.77
422.61	3220.58
422.80	3274.41
422.99	3248.66
423.18	3276.75
423.37	3318.88
423.56	3318.88
423.75	3234.62
423.94	3166.74
424.13	3103.55
424.32	3166.74
424.50	3234.62
424.69	3382.07
424.88	3314.20
425.07	3133.98
425.26	3229.94
425.45	3344.63
425.64	3227.60
425.83	3314.20
426.01	3253.34
426.20	3358.67
426.39	3365.69
426.58	3201.85
426.77	3255.69
426.96	3428.88
427.15	3400.80
427.33	3281.43
427.52	3403.14
427.71	3552.93
427.90	3550.59
428.09	3503.78
428.28	3389.10
428.46	3433.57
428.65	3468.67
428.84	3674.64
429.03	3562.30
429.22	3524.85
429.40	3590.38
429.59	3669.96
429.78	3588.04
429.97	3520.17
430.16	3707.41
430.34	3602.08
430.53	3723.79
430.72	3740.18
430.91	3723.79
431.10	3681.66
431.28	3889.97
431.47	3655.92
431.66	3894.65
431.85	3850.18
432.03	3758.90
432.22	3728.47
432.41	3866.56
432.60	3957.85
432.79	3838.48
432.97	3953.16
433.16	3857.20
433.35	3885.29
433.54	3911.04
433.72	4007.00
433.91	4002.32
434.10	4018.70
434.28	4007.00
434.47	4098.28
434.66	4095.94
434.85	4046.79
435.03	4196.58
435.22	4149.77
435.41	4121.68
435.59	4081.89
435.78	4053.81
435.97	4152.11
436.16	4070.19
436.34	4191.90
436.53	4184.88
436.72	4234.03
436.90	4212.96
437.09	4180.20
437.28	4280.84
437.46	4194.24
437.65	4266.80
437.84	4299.56
438.02	4425.95
438.21	4360.42
438.40	4456.38
438.58	4507.87
438.77	4559.36
438.96	4524.26
439.14	4477.44
439.33	4664.69
439.52	4585.11
439.70	4631.92
439.89	4678.73
440.08	4837.89
440.26	4798.10
440.45	4732.56
440.63	4690.43
440.82	4819.16
441.01	4865.97
441.19	4795.76
441.38	4887.04
441.57	4931.51
441.75	5022.79
441.94	5118.75
442.12	5057.90
442.31	5172.58
442.50	5158.54
442.68	5137.48
442.87	5121.09
443.05	5195.99
443.24	5207.69
443.43	5294.29
443.61	5298.97
443.80	5554.09
443.98	5266.21
444.17	4978.32
444.35	5320.04
444.54	5528.35
444.73	5362.17
444.91	5366.85
445.10	5441.75
445.28	5263.86
445.47	5167.90
445.65	5247.48
445.84	5453.45
446.02	5542.39
446.21	5413.66
446.39	5504.94
446.58	5589.20
446.77	5327.06
446.95	5259.18
447.14	5551.75
447.32	5458.13
447.51	5572.82
447.69	5486.22
447.88	5380.89
448.06	5530.69
448.25	5441.75
448.43	5666.44
448.62	5493.24
448.80	5432.38
448.99	5603.24
449.17	5631.33
449.36	5453.45
449.54	5659.42
449.73	5692.18
449.91	5856.02
450.10	5621.97
450.28	5743.67
450.46	5863.04
450.65	5724.95
450.83	5790.49
451.02	5722.61
451.20	5937.94
451.39	5933.26
451.57	5888.79
451.76	5799.85
451.94	5912.19
452.13	5823.25
452.31	6010.50
452.49	5804.53
452.68	6033.90
452.86	5921.56
453.05	6061.99
453.23	6204.76
453.42	5811.55
453.60	5832.62
453.78	6120.50
453.97	6118.16
454.15	6061.99
454.34	5949.64
454.52	6235.19
454.70	6216.46
454.89	6303.06
455.07	6223.48
455.26	6258.59
455.44	6380.30
455.62	6396.68
455.81	6417.75
455.99	6258.59
456.17	6403.71
456.36	6436.47
456.54	6427.11
456.73	6513.71
456.91	6621.38
457.09	6775.85
457.28	6799.26
457.46	6621.38
457.64	6623.72
457.83	6443.49
458.01	6656.48
458.19	6731.38
458.38	6780.53
458.56	6839.05
458.74	6960.75
458.93	6738.40
459.11	6827.34
459.29	6855.43
459.48	7026.29
459.66	6850.75
459.84	6984.16
460.03	7014.59
460.21	6876.49
460.39	6935.01
460.57	7045.01
460.76	7173.74
460.94	7180.76
461.12	7028.63
461.31	6956.07
461.49	7012.24
461.67	6953.73
461.85	7187.79
462.04	7155.02
462.22	7616.10
462.40	7400.77
462.59	7346.94
462.77	7117.57
462.95	7485.03
463.13	7286.09
463.32	7405.46
463.50	7466.31
463.68	7501.42
463.86	7733.13
464.05	7534.18
464.23	7463.97
464.41	7496.74
464.59	7438.22
464.78	7630.15
464.96	7630.15
465.14	7468.65
465.32	7576.31
465.50	7817.39
465.69	7726.11
465.87	7714.41
466.05	7686.32
466.23	7709.72
466.41	7758.88
466.60	8046.76
466.78	7698.02
466.96	7861.86
467.14	7784.62
467.32	7845.48
467.51	7918.03
467.69	7779.94
467.87	7899.31
468.05	7901.65
468.23	7840.79
468.41	7957.82
468.60	8018.68
468.78	8187.19
468.96	7981.23
469.14	8149.75
469.32	8098.25
469.50	8032.72
469.69	8304.22
469.87	8355.71
470.05	8241.03
470.23	8187.19
470.41	8423.59
470.59	8526.57
470.77	8344.01
470.95	8507.85
471.14	8402.52
471.32	8369.76
471.50	8594.45
471.68	8769.99
471.86	8557.00
472.04	8566.36
472.22	8655.30
472.40	8573.38
472.58	8603.81
472.77	8922.12
472.95	8805.10
473.13	9100.00
473.31	8828.50
473.49	9015.74
473.67	8994.68
473.85	9069.58
474.03	9097.66
474.21	9078.94
474.39	9085.96
474.57	9214.69
474.75	9472.15
474.93	9624.28
475.12	9266.18
475.30	9467.47
475.48	9444.06
475.66	9621.94
475.84	9263.84
476.02	9493.21
476.20	9614.92
476.38	9790.46
476.56	10054.94
476.74	10087.71
476.92	9984.73
477.10	9994.09
477.28	10108.77
477.46	9933.23
477.64	10305.38
477.82	10225.80
478.00	10342.83
478.18	10328.78
478.36	10394.32
478.54	10759.44
478.72	10684.55
478.90	10942.00
479.08	11183.08
479.26	10993.50
479.44	11042.65
479.62	11030.94
479.80	11049.67
479.98	11440.54
480.16	11557.57
480.34	11487.35
480.52	11747.15
480.70	11676.93
480.88	11595.01
481.06	11669.91
481.24	11756.51
481.41	12072.48
481.59	11878.22
481.77	12086.53
481.95	12177.81
482.13	12383.77
482.31	12379.09
482.49	12800.39
482.67	12549.95
482.85	12585.06
483.03	12957.21
483.21	12854.22
483.39	13074.23
483.57	13074.23
483.74	13205.30
483.92	13425.31
484.10	13102.32
484.28	13521.27
484.46	13490.85
484.64	13778.73
484.82	13722.56
485.00	13884.06
485.18	14087.68
485.35	14319.40
485.53	14260.88
485.71	14361.53
485.89	14651.75
486.07	14623.67
486.25	14675.16
486.43	14466.85
486.61	14782.82
486.78	14869.42
486.96	14869.42
487.14	15180.71
487.32	15384.34
487.50	15246.25
487.68	15613.71
487.85	15719.04
488.03	15824.36
488.21	16152.04
488.39	16156.72
488.57	16086.50
488.75	16243.32
488.92	16566.31
489.10	16655.25
489.28	16641.21
489.46	16610.78
489.64	16781.64
489.81	17003.99
489.99	17130.38
490.17	17326.99
490.35	17563.38
490.53	17544.66
490.70	17675.73
490.88	17465.08
491.06	17886.37
491.24	17797.43
491.41	17937.87
491.59	18221.07
491.77	17888.71
491.95	18300.65
492.13	18808.54
492.30	18541.72
492.48	18780.46
492.66	18766.42
492.84	18853.02
493.01	19365.59
493.19	19068.34
493.37	19403.04
493.54	19328.14
493.72	19346.87
493.90	19323.46
494.08	19545.81
494.25	19943.70
494.43	19861.79
494.61	19744.76
494.79	20034.99
494.96	20205.84
495.14	20327.55
495.32	20329.89
495.49	20669.27
495.67	20620.12
495.85	20940.77
496.02	20964.18
496.20	21216.96
496.38	21146.74
496.55	21039.08
496.73	21678.04
496.91	21303.56
497.09	21429.94
497.26	21799.75
497.44	21493.14
497.62	21579.74
497.79	21795.07
497.97	22115.72
498.14	22464.46
498.32	22228.07
498.50	22302.96
498.67	22670.43
498.85	22611.92
499.03	22600.21
499.20	22658.73
499.38	22782.77
499.56	22850.65
499.73	23002.78
499.91	23147.90
500.08	23550.47
500.26	23501.32
500.44	23314.08
500.61	23236.84
500.79	23410.04
500.97	23435.78
501.14	23775.16
501.32	23641.75
501.49	23864.10
501.67	24011.56
501.84	24425.83
502.02	24240.93
502.20	23962.40
502.37	24098.16
502.55	24215.18
502.72	24493.71
502.90	24269.01
503.07	24687.97
503.25	24732.44
503.43	24566.26
503.60	25240.34
503.78	24877.55
503.95	24748.82
504.13	25460.35
504.30	25296.51
504.48	25432.26
504.65	25156.08
504.83	25696.74
505.01	25937.82
505.18	25502.48
505.36	25699.08
505.53	25371.41
505.71	25795.04
505.88	26270.17
506.06	25694.40
506.23	26244.43
506.41	26141.44
506.58	25851.22
506.76	25825.47
506.93	26199.96
507.11	26361.45
507.28	26555.72
507.46	26679.77
507.63	26586.15
507.81	26944.25
507.98	26663.38
508.16	26806.16
508.33	27063.61
508.50	27428.74
508.68	26981.70
508.85	27264.90
509.03	27435.76
509.20	27648.75
509.38	27737.69
509.55	27608.96
509.73	27733.01
509.90	27721.30
510.08	28063.02
510.25	28133.24
510.42	27522.36
510.60	28081.75
510.77	28308.78
510.95	28294.74
511.12	28533.47
511.30	28158.99
511.47	28376.66
511.64	28346.23
511.82	28690.29
511.99	28786.25
512.17	28479.64
512.34	28924.34
512.51	28886.89
512.69	29287.12
512.86	29099.88
513.04	29221.59
513.21	29376.06
513.38	29275.42
513.56	29085.84
513.73	29069.45
513.90	29560.97
514.08	29762.25
514.25	29832.47
514.43	29872.26
514.60	29717.78
514.77	29362.02
514.95	30061.84
515.12	29771.61
515.29	30047.80
515.47	30066.52
515.64	30244.40
515.81	29804.38
515.99	30588.46
516.16	30749.96
516.33	30347.39
516.51	30691.44
516.68	30417.60
516.85	30733.57
517.03	30995.71
517.20	31058.91
517.37	30981.67
517.54	31014.44
517.72	30948.90
517.89	30991.03
518.06	30803.79
518.24	31407.65
518.41	30888.05
518.58	31157.21
518.75	31236.79
518.93	31101.04
519.10	31241.47
519.27	31550.42
519.45	31367.86
519.62	31688.51
519.79	31833.63
519.96	31751.71
520.14	32294.71
520.31	31517.65
520.48	32100.45
520.65	31964.70
520.83	32091.09
521.00	32357.91
521.17	32332.16
521.34	32554.51
521.52	32463.23
521.69	32500.68
521.86	32460.89
522.03	32837.72
522.20	32706.65
522.38	32910.27
522.55	32856.44
522.72	33085.81
522.89	32907.93
523.07	33378.38
523.24	33097.52
523.41	33362.00
523.58	33198.16
523.75	32968.79
523.92	33397.10
524.10	33369.02
524.27	33858.19
524.44	33619.46
524.61	33766.91
524.78	33680.31
524.96	33642.86
525.13	34101.61
525.30	33951.81
525.47	34073.52
525.64	33963.51
525.81	34321.62
525.98	34625.89
526.16	34096.92
526.33	34455.03
526.50	35012.07
526.67	34075.86
526.84	34637.59
527.01	34466.73
527.18	34614.18
527.36	34604.82
527.53	34895.05
527.70	34927.81
527.87	35512.95
528.04	34663.33
528.21	34951.22
528.38	35115.06
528.55	35332.73
528.72	35086.97
528.89	35456.78
529.07	35040.16
529.24	35068.25
529.41	35695.51
529.58	35269.53
529.75	35526.99
529.92	35852.33
530.09	35391.24
530.26	35931.90
530.43	35899.14
530.60	35276.55
530.77	35592.53
530.94	35618.27
531.11	35377.20
531.28	35758.70
531.46	36161.28
531.63	36070.00
531.80	36119.15
531.97	35758.70
532.14	36257.24
532.31	36058.29
532.48	36304.05
532.65	36460.87
532.82	36088.72
532.99	36180.00
533.16	36343.84
533.33	36652.79
533.50	36261.92
533.67	36648.11
533.84	36718.32
534.01	36765.14
534.18	36603.64
534.35	36673.85
534.52	37062.38
534.69	37378.36
534.86	37088.13
535.03	37120.90
535.20	37303.46
535.37	37053.02
535.54	37408.78
535.71	37181.75
535.88	37392.40
536.05	37450.91
536.22	37642.84
536.38	37530.49
536.55	37462.61
536.72	37317.50
536.89	37546.87
537.06	37670.92
537.23	37731.78
537.40	37434.53
537.57	37474.32
537.74	37528.15
537.91	38366.06
538.08	38120.31
538.25	37649.86
538.42	37904.98
538.59	37921.36
538.75	37991.58
538.92	38267.76
539.09	38064.13
539.26	38113.28
539.43	38431.60
539.60	38508.83
539.77	38108.60
539.94	38354.36
540.11	38532.24
540.28	38871.62
540.44	38359.04
540.61	38487.77
540.78	38567.35
540.95	38340.32
541.12	38293.50
541.29	38307.55
541.46	38555.64
541.62	38581.39
541.79	38925.45
541.96	38485.43
542.13	38845.87
542.30	38597.77
542.47	39138.44
542.63	39323.34
542.80	39351.43
542.97	39423.98
543.14	39440.37
543.31	39578.46
543.48	39660.38
543.64	39838.26
543.81	40154.23
543.98	39700.17
544.15	39585.48
544.32	40151.89
544.48	40142.53
544.65	40112.10
544.82	39817.19
544.99	39665.06
545.16	39889.75
545.32	39889.75
545.49	40278.28
545.66	40208.06
545.83	39859.32
546.00	40261.90
546.16	40418.71
546.33	40105.08
546.50	39950.60
546.67	40594.25
546.83	40219.77
547.00	40315.73
547.17	40212.74
547.34	40615.32
547.50	40519.35
547.67	40797.88
547.84	40540.42
548.00	40966.40
548.17	40961.72
548.34	40795.54
548.51	40879.80
548.67	40659.79
548.84	40762.77
549.01	40912.56
549.18	40849.37
549.34	40769.79
549.51	41022.57
549.68	40989.80
549.84	41174.70
550.01	41591.32
550.18	40858.73
550.34	40790.86
550.51	41109.17
550.68	41565.57
550.84	40961.72
551.01	41717.71
551.18	41053.00
551.34	41141.94
551.51	41638.13
551.68	41235.56
551.84	41551.53
552.01	41441.53
552.18	41249.60
552.34	41474.29
552.51	41488.34
552.68	41469.61
552.84	41724.73
553.01	41888.57
553.18	41525.78
553.34	41766.86
553.51	42146.03
553.67	41535.15
553.84	42007.94
554.01	41830.05
554.17	42167.09
554.34	42164.75
554.51	42412.85
554.67	42265.39
554.84	42174.11
555.00	42302.84
555.17	42337.95
555.33	42185.82
555.50	42237.31
555.67	41902.61
555.83	42302.84
556.00	42887.98
556.16	42983.94
556.33	42490.09
556.50	42363.70
556.66	42204.54
556.83	42773.29
556.99	42487.74
557.16	42567.32
557.32	42803.72
557.49	42864.57
557.65	42738.18
557.82	42714.78
557.98	42375.40
558.15	42852.87
558.32	42679.67
558.48	42464.34
558.65	42831.80
558.81	42457.32
558.98	42920.74
559.14	42892.66
559.31	42726.48
559.47	42939.47
559.64	43159.48
559.80	43187.56
559.97	43452.05
560.13	42836.48
560.30	42918.40
560.46	43503.54
560.63	43220.33
560.79	43192.25
560.96	43012.02
561.12	43262.46
561.29	43484.81
561.45	43178.20
561.61	43349.06
561.78	43232.04
561.94	43037.77
562.11	43421.62
562.27	43093.94
562.44	43136.07
562.60	43227.35
562.77	43489.49
562.93	43386.51
563.10	43370.13
563.26	43531.62
563.42	43936.54
563.59	43290.55
563.75	43129.05
563.92	43447.36
564.08	43402.89
564.24	43658.01
564.41	43374.81
564.57	43583.12
564.74	43810.15
564.90	43643.97
565.07	43700.14
565.23	43615.88
565.39	43599.50
565.56	43487.15
565.72	43433.32
565.88	43751.63
566.05	43732.91
566.21	43854.62
566.38	43384.17
566.54	43761.00
566.70	43782.06
566.87	43501.20
567.03	43583.12
567.19	43955.26
567.36	43716.53
567.52	43943.56
567.68	44009.09
567.85	43536.30
568.01	44076.97
568.17	43606.52
568.34	43892.07
568.50	44009.09
568.66	44158.89
568.83	44011.43
568.99	44362.51
569.15	43978.67
569.32	43807.81
569.48	44172.93
569.64	44121.44
569.81	44292.30
569.97	44196.34
570.13	44278.25
570.30	44119.10
570.46	44612.95
570.62	44135.48
570.78	44353.15
570.95	44114.42
571.11	44264.21
571.27	44505.29
571.43	43819.51
571.60	44069.95
571.76	44212.72
571.92	44294.64
572.09	44509.97
572.25	44327.41
572.41	44346.13
572.57	44203.36
572.74	44362.51
572.90	44046.54
573.06	44601.25
573.22	44009.09
573.38	44596.57
573.55	44624.65
573.71	44790.83
573.87	44531.03
574.03	44837.64
574.20	44825.94
574.36	44561.46
574.52	44683.17
574.68	44432.73
574.84	44554.44
575.01	44563.80
575.17	44847.00
575.33	44514.65
575.49	44233.78
575.65	44919.56
575.82	44493.58
575.98	44444.43
576.14	44722.96
576.30	44849.35
576.46	44921.90
576.62	44528.69
576.79	44437.41
576.95	44140.16
577.11	44711.25
577.27	44058.24
577.43	44411.67
577.59	44275.91
577.75	44519.33
577.92	44233.78
578.08	44481.88
578.24	44619.97
578.40	44858.71
578.56	44533.37
578.72	44776.79
578.88	44957.01
579.04	44802.53
579.21	44657.42
579.37	44985.10
579.53	45158.30
579.69	44561.46
579.85	44666.78
580.01	44657.42
580.17	44348.47
580.33	44605.93
580.49	44519.33
580.65	44643.38
580.82	44425.71
580.98	44509.97
581.14	44399.96
581.30	44556.78
581.46	44704.23
581.62	45059.99
581.78	44406.98
581.94	44828.28
582.10	44818.92
582.26	44823.60
582.42	44919.56
582.58	44767.43
582.74	45057.65
582.90	44610.61
583.06	44383.58
583.22	44699.55
583.38	45125.53
583.54	44889.13
583.70	45202.77
583.86	45015.52
584.02	44568.48
584.18	44758.06
584.34	45020.20
584.50	44598.91
584.66	45027.23
584.82	44797.85
584.98	45207.45
585.14	45003.82
585.30	44737.00
585.46	44863.39
585.62	44818.92
585.78	44783.81
585.94	44580.18
586.10	44495.92
586.26	44495.92
586.42	44657.42
586.58	44933.60
586.74	44772.11
586.90	44985.10
587.06	44776.79
587.22	44854.03
587.38	45111.49
587.54	44910.20
587.70	45418.10
587.86	44762.75
588.02	45008.50
588.18	45022.54
588.34	44844.66
588.49	44900.84
588.65	45006.16
588.81	44751.04
588.97	45177.02
589.13	44732.32
589.29	44905.52
589.45	45020.20
589.61	44952.33
589.77	45310.43
589.93	44952.33
590.08	45659.17
