SpectraSuite Data File
++++++++++++++++++++++++++++++++++++
Date: Fri Oct 25 11:34:33 EDT 2013
User: price-jones
Dark Spectrum Present: No
Reference Spectrum Present: No
Number of Sampled Component Spectra: 1
Spectrometers: USB2+H05261
Integration Time (usec): 100000 (USB2+H05261)
Spectra Averaged: 1 (USB2+H05261)
Boxcar Smoothing: 0 (USB2+H05261)
Correct for Electrical Dark: No (USB2+H05261)
Strobe/Lamp Enabled: No (USB2+H05261)
Correct for Detector Non-linearity: No (USB2+H05261)
Correct for Stray Light: No (USB2+H05261)
Number of Pixels in Processed Spectrum: 2048
>>>>>Begin Processed Spectral Data<<<<<
365.73	276.18
365.92	276.18
366.12	276.18
366.32	238.73
366.52	203.63
366.72	191.92
366.91	170.86
367.11	234.05
367.31	140.43
367.51	273.84
367.70	175.54
367.90	229.37
368.10	140.43
368.30	212.99
368.49	126.39
368.69	212.99
368.89	163.84
369.09	217.67
369.28	161.50
369.48	187.24
369.68	180.22
369.87	241.08
370.07	259.80
370.27	327.68
370.47	395.55
370.66	533.64
370.86	496.19
371.06	505.56
371.25	543.00
371.45	528.96
371.65	552.37
371.84	484.49
372.04	540.66
372.24	512.58
372.44	561.73
372.63	561.73
372.83	622.58
373.03	608.54
373.22	648.33
373.42	589.82
373.62	608.54
373.81	610.88
374.01	622.58
374.21	716.20
374.40	592.16
374.60	643.65
374.79	603.86
374.99	599.18
375.19	617.90
375.38	678.76
375.58	629.60
375.78	732.59
375.97	643.65
376.17	671.73
376.37	624.92
376.56	641.31
376.76	674.07
376.95	648.33
377.15	704.50
377.35	594.50
377.54	732.59
377.74	603.86
377.93	657.69
378.13	650.67
378.33	681.10
378.52	692.80
378.72	713.86
378.91	713.86
379.11	711.52
379.31	730.25
379.50	674.07
379.70	662.37
379.89	713.86
380.09	706.84
380.28	840.25
380.48	744.29
380.68	723.23
380.87	688.12
381.07	809.83
381.26	791.10
381.46	737.27
381.65	758.33
381.85	760.67
382.04	753.65
382.24	753.65
382.43	711.52
382.63	809.83
382.83	725.57
383.02	823.87
383.22	758.33
383.41	744.29
383.61	770.04
383.80	830.89
384.00	833.23
384.19	791.10
384.39	779.40
384.58	924.51
384.78	819.19
384.97	851.96
385.17	816.85
385.36	795.78
385.56	851.96
385.75	805.14
385.95	910.47
386.14	765.36
386.34	807.48
386.53	802.80
386.72	767.70
386.92	788.76
387.11	861.32
387.31	835.57
387.50	891.74
387.70	884.72
387.89	875.36
388.09	849.61
388.28	837.91
388.48	905.79
388.67	800.46
388.86	898.77
389.06	922.17
389.25	863.66
389.45	908.13
389.64	873.02
389.84	891.74
390.03	917.49
390.22	926.85
390.42	854.30
390.61	950.26
390.81	919.83
391.00	952.60
391.19	983.02
391.39	980.68
391.58	936.21
391.78	978.34
391.97	1001.75
392.16	1039.20
392.36	987.71
392.55	1011.11
392.75	926.85
392.94	1008.77
393.13	997.07
393.33	1013.45
393.52	994.73
393.71	1057.92
393.91	1062.60
394.10	1022.81
394.29	1022.81
394.49	936.21
394.68	1057.92
394.88	1083.67
395.07	1165.59
395.26	1088.35
395.46	1078.99
395.65	1062.60
395.84	1118.78
396.04	1221.76
396.23	1139.84
396.42	1179.63
396.62	1167.93
396.81	1181.97
397.00	1153.88
397.19	1156.22
397.39	1142.18
397.58	1193.67
397.77	1158.57
397.97	1200.69
398.16	1249.85
398.35	1291.98
398.55	1214.74
398.74	1235.80
398.93	1287.29
399.12	1296.66
399.32	1291.98
399.51	1231.12
399.70	1331.76
399.90	1322.40
400.09	1439.43
400.28	1338.79
400.47	1268.57
400.67	1334.11
400.86	1345.81
401.05	1376.24
401.24	1392.62
401.44	1334.11
401.63	1357.51
401.82	1509.65
402.01	1385.60
402.21	1416.02
402.40	1385.60
402.59	1448.79
402.78	1392.62
402.97	1448.79
403.17	1451.13
403.36	1507.30
403.55	1547.09
403.74	1537.73
403.93	1444.11
404.13	1577.52
404.32	1584.54
404.51	1490.92
404.70	1570.50
404.89	1593.90
405.09	1643.06
405.28	1607.95
405.47	1680.50
405.66	1689.87
405.85	1671.14
406.05	1504.96
406.24	1671.14
406.43	1591.56
406.62	1783.49
406.81	1827.96
407.00	1668.80
407.20	1715.61
407.39	1776.47
407.58	1879.45
407.77	1959.03
407.96	1912.22
408.15	1837.32
408.34	1851.36
408.54	1846.68
408.73	1865.41
408.92	1886.47
409.11	1907.54
409.30	1881.79
409.49	1998.82
409.68	1959.03
409.87	1895.83
410.07	2122.87
410.26	1944.99
410.45	1952.01
410.64	2012.86
410.83	2047.97
411.02	1998.82
411.21	2186.06
411.40	2132.23
411.59	2045.63
411.78	2108.82
411.98	2054.99
412.17	2167.34
412.36	2188.40
412.55	2303.09
412.74	2214.15
412.93	2237.55
413.12	2190.74
413.31	2270.32
413.50	2237.55
413.69	2324.15
413.88	2431.82
414.07	2298.41
414.26	2394.37
414.45	2544.16
414.64	2370.96
414.83	2555.86
415.02	2520.76
415.22	2581.61
415.41	2462.24
415.60	2626.08
415.79	2567.57
415.98	2656.51
416.17	2717.36
416.36	2689.28
416.55	2621.40
416.74	2785.24
416.93	2700.98
417.12	2764.17
417.31	2747.79
417.50	2717.36
417.69	2876.52
417.88	2810.98
418.07	2935.03
418.26	2736.09
418.45	2813.32
418.64	2902.26
418.83	2827.37
419.02	2949.08
419.21	3038.02
419.39	2874.18
419.58	2890.56
419.77	2768.85
419.96	3042.70
420.15	3023.97
420.34	2991.20
420.53	3122.27
420.72	3126.96
420.91	3143.34
421.10	3122.27
421.29	3213.56
421.48	3042.70
421.67	2993.55
421.86	3141.00
422.05	3239.30
422.24	3248.66
422.43	3243.98
422.61	3143.34
422.80	3318.88
422.99	3222.92
423.18	3166.74
423.37	3239.30
423.56	3197.17
423.75	3295.47
423.94	3361.01
424.13	3000.57
424.32	3241.64
424.50	3386.76
424.69	3309.52
424.88	3389.10
425.07	3440.59
425.26	3274.41
425.45	3295.47
425.64	3248.66
425.83	3225.26
426.01	3351.65
426.20	3316.54
426.39	3421.86
426.58	3356.33
426.77	3332.92
426.96	3353.99
427.15	3419.52
427.33	3372.71
427.52	3426.54
427.71	3379.73
427.90	3384.41
428.09	3452.29
428.28	3508.46
428.46	3412.50
428.65	3468.67
428.84	3723.79
429.03	3618.47
429.22	3583.36
429.40	3531.87
429.59	3782.31
429.78	3485.06
429.97	3471.01
430.16	3705.07
430.34	3655.92
430.53	3730.81
430.72	3815.07
430.91	3707.41
431.10	3695.71
431.28	3810.39
431.47	3808.05
431.66	3808.05
431.85	3815.07
432.03	3796.35
432.22	3868.91
432.41	3929.76
432.60	3815.07
432.79	3829.12
432.97	3908.69
433.16	4037.42
433.35	3822.09
433.54	3894.65
433.72	4037.42
433.91	4042.11
434.10	4112.32
434.28	4117.00
434.47	4007.00
434.66	4217.65
434.85	4166.15
435.03	4208.28
435.22	4042.11
435.41	4257.43
435.59	4329.99
435.78	4187.22
435.97	4107.64
436.16	4243.39
436.34	4175.52
436.53	4238.71
436.72	4285.52
436.90	4329.99
437.09	4447.02
437.28	4128.70
437.46	4353.40
437.65	4301.90
437.84	4409.57
438.02	4362.76
438.21	4344.03
438.40	4311.27
438.58	4458.72
438.77	4526.60
438.96	4585.11
439.14	4542.98
439.33	4723.20
439.52	4676.39
439.70	4678.73
439.89	4772.35
440.08	4828.53
440.26	4861.29
440.45	4826.18
440.63	4767.67
440.82	4884.70
441.01	4858.95
441.19	4964.28
441.38	4966.62
441.57	5020.45
441.75	5060.24
441.94	5266.21
442.12	5191.31
442.31	5163.22
442.50	5245.14
442.68	5130.45
442.87	5167.90
443.05	5268.55
443.24	5387.91
443.43	5095.35
443.61	5383.23
443.80	5479.19
443.98	5282.59
444.17	5097.69
444.35	5359.83
444.54	5497.92
444.73	5259.18
444.91	5352.81
445.10	5390.25
445.28	5399.62
445.47	5371.53
445.65	5327.06
445.84	5439.40
446.02	5479.19
446.21	5521.32
446.39	5432.38
446.58	5528.35
446.77	5523.66
446.95	5259.18
447.14	5387.91
447.32	5392.59
447.51	5401.96
447.69	5420.68
447.88	5451.11
448.06	5528.35
448.25	5387.91
448.43	5493.24
448.62	5593.88
448.80	5544.73
448.99	5717.93
449.17	5846.66
449.36	5598.56
449.54	5867.72
449.73	5961.34
449.91	5703.89
450.10	5811.55
450.28	5823.25
450.46	5975.39
450.65	5849.00
450.83	5891.13
451.02	5687.50
451.20	5893.47
451.39	6015.18
451.57	5853.68
451.76	5846.66
451.94	6064.33
452.13	6059.65
452.31	6012.84
452.49	5980.07
452.68	6033.90
452.86	5888.79
453.05	6113.48
453.23	6010.50
453.42	6038.58
453.60	5881.77
453.78	6094.76
453.97	6136.88
454.15	6010.50
454.34	6214.12
454.52	6274.98
454.70	6218.80
454.89	6321.79
455.07	6155.61
455.26	6392.00
455.44	6307.74
455.62	6382.64
455.81	6408.39
455.99	6349.87
456.17	6436.47
456.36	6590.95
456.54	6583.93
456.73	6654.14
456.91	6759.47
457.09	6679.89
457.28	6834.36
457.46	6637.76
457.64	6635.42
457.83	6839.05
458.01	6548.82
458.19	6750.10
458.38	6773.51
458.56	6801.60
458.74	6944.37
458.93	6871.81
459.11	7007.56
459.29	6876.49
459.48	7016.93
459.66	6764.15
459.84	6939.69
460.03	7307.15
460.21	7124.59
460.39	7052.03
460.57	7197.15
460.76	7178.42
460.94	7166.72
461.12	7075.44
461.31	7159.70
461.49	7096.50
461.67	7145.66
461.85	7239.28
462.04	7344.60
462.22	7693.34
462.40	7370.35
462.59	7412.48
462.77	7288.43
462.95	7445.24
463.13	7447.58
463.32	7377.37
463.50	7529.50
463.68	7590.36
463.86	7648.87
464.05	7485.03
464.23	7501.42
464.41	7719.09
464.59	7485.03
464.78	7651.21
464.96	7733.13
465.14	7499.08
465.32	7662.91
465.50	7683.98
465.69	7892.29
465.87	7744.83
466.05	7700.36
466.23	7775.26
466.41	7845.48
466.60	7899.31
466.78	7812.71
466.96	8021.02
467.14	7817.39
467.32	7679.30
467.51	8002.29
467.69	7716.75
467.87	7918.03
468.05	7971.86
468.23	7943.78
468.41	8037.40
468.60	8088.89
468.78	8124.00
468.96	8074.85
469.14	8168.47
469.32	8208.26
469.50	8121.66
469.69	8304.22
469.87	8219.96
470.05	8297.20
470.23	8266.77
470.41	8145.06
470.59	8458.70
470.77	8493.80
470.95	8505.51
471.14	8894.04
471.32	8397.84
471.50	8559.34
471.68	8638.92
471.86	8777.01
472.04	8667.00
472.22	8821.48
472.40	8784.03
472.58	8758.28
472.77	9004.04
472.95	9125.75
473.13	9142.13
473.31	8844.88
473.49	9006.38
473.67	8814.46
473.85	8961.91
474.03	9343.42
474.21	9294.27
474.39	9263.84
474.57	9153.84
474.75	9530.66
474.93	9479.17
475.12	9563.43
475.30	9329.38
475.48	9535.34
475.66	9661.73
475.84	9481.51
476.02	9811.53
476.20	9558.75
476.38	9685.14
476.56	10085.37
476.74	10164.95
476.92	10078.35
477.10	10061.96
477.28	10143.88
477.46	10148.56
477.64	10265.59
477.82	10441.13
478.00	10862.43
478.18	10511.35
478.36	10740.72
478.54	10611.99
478.72	10841.36
478.90	10932.64
479.08	11243.93
479.26	11136.27
479.44	11211.17
479.62	11241.59
479.80	11403.09
479.98	11501.39
480.16	11648.85
480.34	11702.68
480.52	11892.26
480.70	11606.72
480.88	11630.12
481.06	11798.64
481.24	11857.15
481.41	11948.43
481.59	12290.15
481.77	12231.64
481.95	12512.50
482.13	12468.03
482.31	12351.01
482.49	12734.85
482.67	12549.95
482.85	12774.64
483.03	13097.64
483.21	12795.71
483.39	13160.83
483.57	12978.27
483.74	13511.91
483.92	13532.98
484.10	13315.31
484.28	13647.66
484.46	13577.45
484.64	14118.11
484.82	13687.45
485.00	14209.39
485.18	14160.24
485.35	14473.87
485.53	14511.32
485.71	14441.11
485.89	14672.82
486.07	14766.44
486.25	14558.13
486.43	14782.82
486.61	14949.00
486.78	14995.81
486.96	14871.76
487.14	15494.35
487.32	15389.02
487.50	15559.88
487.68	15744.78
487.85	15885.22
488.03	15714.36
488.21	15983.52
488.39	16100.55
488.57	16252.68
488.75	16414.18
488.92	16547.59
489.10	16486.73
489.28	16713.77
489.46	16933.78
489.64	16926.75
489.81	17242.73
489.99	17294.22
490.17	17289.54
490.35	17331.67
490.53	17799.77
490.70	17729.56
490.88	17535.29
491.06	17905.10
491.24	17914.46
491.41	18785.14
491.59	18380.23
491.77	18253.84
491.95	18878.76
492.13	18534.70
492.30	18923.23
492.48	18707.90
492.66	19063.66
492.84	19026.21
493.01	19103.45
493.19	19068.34
493.37	19335.17
493.54	19398.36
493.72	19580.92
493.90	19726.04
494.08	19758.80
494.25	20109.88
494.43	19833.70
494.61	20056.05
494.79	20524.16
494.96	20163.72
495.14	20027.96
495.32	20706.72
495.49	20758.21
495.67	20732.47
495.85	21109.29
496.02	21113.97
496.20	21343.35
496.38	21509.52
496.55	21223.98
496.73	22127.42
496.91	21645.27
497.09	21802.09
497.26	21638.25
497.44	21710.81
497.62	22169.55
497.79	22508.93
497.97	22256.15
498.14	22469.14
498.32	22443.40
498.50	22965.34
498.67	22663.41
498.85	22581.49
499.03	22803.84
499.20	22815.54
499.38	23063.64
499.56	22965.34
499.73	23566.85
499.91	23431.10
500.08	23709.63
500.26	23339.82
500.44	23686.22
500.61	23559.83
500.79	23548.13
500.97	23836.02
501.14	24187.10
501.32	23887.51
501.49	23978.79
501.67	24346.25
501.84	24332.21
502.02	24463.28
502.20	24498.39
502.37	24655.20
502.55	24690.31
502.72	24339.23
502.90	24510.09
503.07	24350.93
503.25	24938.41
503.43	24744.14
503.60	25081.18
503.78	25490.77
503.95	25149.06
504.13	25277.79
504.30	25207.57
504.48	25340.98
504.65	25685.04
504.83	25717.81
505.01	26080.59
505.18	25776.32
505.36	25979.95
505.53	25919.09
505.71	26078.25
505.88	25832.49
506.06	26087.61
506.23	26017.40
506.41	26396.56
506.58	26368.48
506.76	26415.29
506.93	26859.99
507.11	26658.70
507.28	26789.77
507.46	26595.51
507.63	26937.23
507.81	26995.74
507.98	27082.34
508.16	27271.92
508.33	27058.93
508.50	27328.10
508.68	27281.28
508.85	27454.48
509.03	27583.21
509.20	27880.46
509.38	27843.01
509.55	27974.08
509.73	27723.65
509.90	28112.17
510.08	27913.23
510.25	28053.66
510.42	27852.38
510.60	28156.64
510.77	28416.44
510.95	28374.31
511.12	28465.60
511.30	28449.21
511.47	28489.00
511.64	28673.90
511.82	28669.22
511.99	28950.09
512.17	29106.90
512.34	29039.03
512.51	29364.36
512.69	28926.68
512.86	29511.81
513.04	29099.88
513.21	29277.76
513.38	29633.52
513.56	29743.53
513.73	29539.90
513.90	29677.99
514.08	29530.54
514.25	29752.89
514.43	30204.61
514.60	30162.48
514.77	30089.93
514.95	30321.64
515.12	30068.86
515.29	30335.68
515.47	30139.08
515.64	30443.35
515.81	30359.09
515.99	30588.46
516.16	30890.39
516.33	30782.73
516.51	30724.21
516.68	30771.02
516.85	30759.32
517.03	30813.15
517.20	31372.54
517.37	31026.14
517.54	31215.72
517.72	31253.17
517.89	31211.04
518.06	31323.39
518.24	31512.97
518.41	31185.30
518.58	31227.43
518.75	31597.23
518.93	32191.73
519.10	31557.44
519.27	31847.67
519.45	32142.58
519.62	32013.85
519.79	32285.35
519.96	32105.13
520.14	32336.84
520.31	31772.77
520.48	32414.08
520.65	32051.30
520.83	32762.82
521.00	32584.94
521.17	32545.15
521.34	32858.78
521.52	32886.87
521.69	32769.84
521.86	33380.72
522.03	33034.32
522.20	32950.06
522.38	33448.60
522.55	33556.26
522.72	33270.72
522.89	33446.26
523.07	33916.70
523.24	33354.97
523.41	33799.68
523.58	33759.89
523.75	33614.77
523.92	33404.13
524.10	33734.14
524.27	34293.53
524.44	34237.36
524.61	34029.05
524.78	34047.77
524.96	34274.80
525.13	34305.23
525.30	34644.61
525.47	34555.67
525.64	34167.14
525.81	35030.80
525.98	34782.70
526.16	34967.60
526.33	34555.67
526.50	35246.13
526.67	34359.06
526.84	34869.30
527.01	34834.19
527.18	34995.69
527.36	34717.17
527.53	35086.97
527.70	35201.66
527.87	35625.29
528.04	35119.74
528.21	35222.72
528.38	35447.41
528.55	35475.50
528.72	35515.29
528.89	35606.57
529.07	35475.50
529.24	35370.18
529.41	35447.41
529.58	35732.96
529.75	35592.53
529.92	36034.89
530.09	35981.06
530.26	35901.48
530.43	36187.02
530.60	35749.34
530.77	35800.83
530.94	35798.49
531.11	35915.52
531.28	36203.41
531.46	36261.92
531.63	36128.51
531.80	36343.84
531.97	36453.84
532.14	36587.25
532.31	36407.03
532.48	36381.29
532.65	37191.11
532.82	36844.71
532.99	36605.98
533.16	36772.16
533.33	36442.14
533.50	36921.95
533.67	36535.76
533.84	36840.03
534.01	37163.03
534.18	36889.18
534.35	37565.60
534.52	37614.75
534.69	37638.15
534.86	37352.61
535.03	37542.19
535.20	37593.68
535.37	37912.00
535.54	37628.79
535.71	37322.18
535.88	37546.87
536.05	37694.33
536.22	37909.66
536.38	38162.43
536.55	37574.96
536.72	37446.23
536.89	37724.75
537.06	38040.73
537.23	38356.70
537.40	38150.73
537.57	37787.95
537.74	37848.80
537.91	38307.55
538.08	38181.16
538.25	38139.03
538.42	38354.36
538.59	38312.23
538.75	38335.63
538.92	38850.55
539.09	38466.70
539.26	38459.68
539.43	38597.77
539.60	38380.10
539.77	38396.49
539.94	38534.58
540.11	39299.94
540.28	38742.89
540.44	38951.20
540.61	38649.27
540.78	38988.64
540.95	38773.31
541.12	39023.75
541.29	38925.45
541.46	39009.71
541.62	39005.03
541.79	39283.55
541.96	39112.69
542.13	39292.91
542.30	39026.09
542.47	39192.27
542.63	39330.36
542.80	39620.59
542.97	39835.92
543.14	39756.34
543.31	39508.24
543.48	40030.18
543.64	40009.12
543.81	39892.09
543.98	40137.85
544.15	40280.62
544.32	40121.46
544.48	40842.35
544.65	39974.01
544.82	40275.94
544.99	39775.06
545.16	39856.98
545.32	40156.57
545.49	40364.88
545.66	40797.88
545.83	40772.13
546.00	40720.64
546.16	40971.08
546.33	40444.46
546.50	40381.26
546.67	41289.39
546.83	40278.28
547.00	40781.49
547.17	40622.34
547.34	40753.41
547.50	40645.74
547.67	41144.28
547.84	40659.79
548.00	40521.69
548.17	41483.66
548.34	41226.20
548.51	41577.28
548.67	40818.94
548.84	41193.43
549.01	41483.66
549.18	41434.50
549.34	41298.75
549.51	41696.64
549.68	41371.31
549.84	41291.73
550.01	41130.23
550.18	41123.21
550.34	41591.32
550.51	41457.91
550.68	41909.63
550.84	41174.70
551.01	42038.36
551.18	41706.01
551.34	41621.75
551.51	41706.01
551.68	41539.83
551.84	41902.61
552.01	41614.72
552.18	41588.98
552.34	41799.63
552.51	42181.13
552.68	41516.42
552.84	41708.35
553.01	42267.73
553.18	42211.56
553.34	42188.16
553.51	41689.62
553.67	41975.17
553.84	42429.23
554.01	42124.96
554.17	42197.52
554.34	42843.51
554.51	42562.64
554.67	42466.68
554.84	42230.29
555.00	42607.11
555.17	42270.08
555.33	42520.51
555.50	43044.79
555.67	42719.46
555.83	42564.98
556.00	42707.76
556.16	43662.69
556.33	43030.75
556.50	42429.23
556.66	42815.42
556.83	42815.42
556.99	43026.07
557.16	42981.60
557.32	43196.93
557.49	42866.91
557.65	42782.65
557.82	42916.06
557.98	42714.78
558.15	43445.02
558.32	42979.26
558.48	43232.04
558.65	43171.18
558.81	43707.16
558.98	42988.62
559.14	43302.25
559.31	43346.72
559.47	43217.99
559.64	43075.22
559.80	43328.00
559.97	43243.74
560.13	43012.02
560.30	43175.86
560.46	43384.17
560.63	43590.14
560.79	43772.70
560.96	43718.87
561.12	43342.04
561.29	43634.61
561.45	43803.13
561.61	43225.01
561.78	43374.81
561.94	43466.09
562.11	43674.40
562.27	43901.43
562.44	43454.39
562.60	43744.61
562.77	43831.21
562.93	43714.19
563.10	43922.49
563.26	43517.58
563.42	44514.65
563.59	43604.18
563.75	43636.95
563.92	43976.33
564.08	43452.05
564.24	43856.96
564.41	44257.19
564.57	43791.42
564.74	43641.63
564.90	43756.32
565.07	43943.56
565.23	44072.29
565.39	43819.51
565.56	44388.26
565.72	43831.21
565.88	43718.87
566.05	44243.15
566.21	43988.03
566.38	43777.38
566.54	44662.10
566.70	44488.90
566.87	44516.99
567.03	44081.65
567.19	44278.25
567.36	43761.00
567.52	44233.78
567.68	44226.76
567.85	44296.98
568.01	44570.82
568.17	43957.60
568.34	44505.29
568.50	43681.42
568.66	44296.98
568.83	44112.08
568.99	44013.77
569.15	44474.86
569.32	44374.22
569.48	44236.12
569.64	44631.68
569.81	44327.41
569.97	44493.58
570.13	44463.16
570.30	44465.50
570.46	44463.16
570.62	44659.76
570.78	44306.34
570.95	44336.77
571.11	44746.36
571.27	44446.77
571.43	44519.33
571.60	44371.88
571.76	44374.22
571.92	44722.96
572.09	44697.21
572.25	44776.79
572.41	44091.01
572.57	44502.95
572.74	45406.39
572.90	44821.26
573.06	44587.21
573.22	44676.15
573.38	45315.11
573.55	44861.05
573.71	45071.70
573.87	44898.50
574.03	44729.98
574.20	44959.35
574.36	44650.40
574.52	44488.90
574.68	44935.95
574.84	45038.93
575.01	45099.78
575.17	45052.97
575.33	45017.86
575.49	44701.89
575.65	45284.68
575.82	44985.10
575.98	44828.28
576.14	45038.93
576.30	44865.73
576.46	44619.97
576.62	44968.71
576.79	44987.44
576.95	44472.52
577.11	44898.50
577.27	44800.19
577.43	44903.18
577.59	44594.23
577.75	44685.51
577.92	44645.72
578.08	44851.69
578.24	44861.05
578.40	45130.21
578.56	45202.77
578.72	45172.34
578.88	45160.64
579.04	44968.71
579.21	44854.03
579.37	44804.88
579.53	45219.15
579.69	44776.79
579.85	45251.92
580.01	45212.13
580.17	45116.17
580.33	45272.98
580.49	45244.90
580.65	45008.50
580.82	44624.65
580.98	44975.73
581.14	44559.12
581.30	45457.88
581.46	45226.17
581.62	45282.34
581.78	44933.60
581.94	45296.39
582.10	45242.56
582.26	45202.77
582.42	45177.02
582.58	45158.30
582.74	45179.36
582.90	45338.52
583.06	45071.70
583.22	44687.85
583.38	45338.52
583.54	45394.69
583.70	45291.71
583.86	45219.15
584.02	44863.39
584.18	45404.05
584.34	45167.66
584.50	45385.33
584.66	45308.09
584.82	45329.16
584.98	45399.37
585.14	45364.26
585.30	45074.04
585.46	44790.83
585.62	45043.61
585.78	45120.85
585.94	45013.18
586.10	45322.13
586.26	44816.58
586.42	45205.11
586.58	45734.07
586.74	45532.78
586.90	45104.46
587.06	45102.12
587.22	45574.91
587.38	44825.94
587.54	45301.07
587.70	45539.80
587.86	45193.40
588.02	45347.88
588.18	45354.90
588.34	45113.83
588.49	45436.82
588.65	45380.65
588.81	45492.99
588.97	45081.06
589.13	45478.95
589.29	45408.73
589.45	45752.79
589.61	45310.43
589.77	45291.71
589.93	45720.02
590.08	45502.35
