SpectraSuite Data File
++++++++++++++++++++++++++++++++++++
Date: Fri Oct 25 11:23:50 EDT 2013
User: price-jones
Dark Spectrum Present: No
Reference Spectrum Present: No
Number of Sampled Component Spectra: 1
Spectrometers: USB2+H05261
Integration Time (usec): 100000 (USB2+H05261)
Spectra Averaged: 1 (USB2+H05261)
Boxcar Smoothing: 0 (USB2+H05261)
Correct for Electrical Dark: No (USB2+H05261)
Strobe/Lamp Enabled: No (USB2+H05261)
Correct for Detector Non-linearity: No (USB2+H05261)
Correct for Stray Light: No (USB2+H05261)
Number of Pixels in Processed Spectrum: 2048
>>>>>Begin Processed Spectral Data<<<<<
365.73	229.37
365.92	229.37
366.12	229.37
366.32	168.52
366.52	124.05
366.72	145.11
366.91	161.50
367.11	107.66
367.31	91.28
367.51	191.92
367.70	163.84
367.90	161.50
368.10	138.09
368.30	166.18
368.49	154.48
368.69	184.90
368.89	102.98
369.09	177.88
369.28	161.50
369.48	166.18
369.68	133.41
369.87	215.33
370.07	241.08
370.27	156.82
370.47	297.25
370.66	575.77
370.86	645.99
371.06	552.37
371.25	610.88
371.45	585.13
371.65	678.76
371.84	599.18
372.04	695.14
372.24	732.59
372.44	723.23
372.63	765.36
372.83	741.95
373.03	777.06
373.22	685.78
373.42	784.08
373.62	807.48
373.81	826.21
374.01	770.04
374.21	814.51
374.40	863.66
374.60	812.17
374.79	795.78
374.99	816.85
375.19	873.02
375.38	891.74
375.58	798.12
375.78	870.68
375.97	777.06
376.17	936.21
376.37	763.01
376.56	851.96
376.76	915.15
376.95	856.64
377.15	903.45
377.35	905.79
377.54	971.32
377.74	873.02
377.93	945.58
378.13	947.92
378.33	898.77
378.52	936.21
378.72	971.32
378.91	936.21
379.11	863.66
379.31	952.60
379.50	950.26
379.70	976.00
379.89	985.37
380.09	999.41
380.28	905.79
380.48	1029.84
380.68	980.68
380.87	987.71
381.07	1039.20
381.26	1001.75
381.46	1018.13
381.65	985.37
381.85	1022.81
382.04	1022.81
382.24	1090.69
382.43	1109.41
382.63	1055.58
382.83	1029.84
383.02	1109.41
383.22	1071.97
383.41	1135.16
383.61	1074.31
383.80	1165.59
384.00	1123.46
384.19	1111.75
384.39	1076.65
384.58	1174.95
384.78	1114.10
384.97	1224.10
385.17	1226.44
385.36	1151.54
385.56	1275.59
385.75	1179.63
385.95	1160.91
386.14	1214.74
386.34	1163.25
386.53	1219.42
386.72	1153.88
386.92	1249.85
387.11	1224.10
387.31	1177.29
387.50	1198.35
387.70	1170.27
387.89	1296.66
388.09	1315.38
388.28	1212.40
388.48	1306.02
388.67	1364.53
388.86	1266.23
389.06	1252.19
389.25	1315.38
389.45	1299.00
389.64	1301.34
389.84	1404.32
390.03	1465.18
390.22	1275.59
390.42	1322.40
390.61	1350.49
390.81	1444.11
391.00	1479.22
391.19	1472.20
391.39	1308.36
391.58	1455.81
391.78	1416.02
391.97	1444.11
392.16	1537.73
392.36	1558.80
392.55	1462.83
392.75	1514.33
392.94	1500.28
393.13	1572.84
393.33	1549.43
393.52	1626.67
393.71	1568.16
393.91	1671.14
394.10	1584.54
394.29	1542.41
394.49	1600.93
394.68	1607.95
394.88	1692.21
395.07	1685.19
395.26	1699.23
395.46	1689.87
395.65	1827.96
395.84	1760.08
396.04	1832.64
396.23	1736.68
396.42	1682.85
396.62	1783.49
396.81	1839.66
397.00	1750.72
397.19	1874.77
397.39	1760.08
397.58	1797.53
397.77	1891.15
397.97	1870.09
398.16	1802.21
398.35	1837.32
398.55	1823.28
398.74	1940.30
398.93	2047.97
399.12	1928.60
399.32	1923.92
399.51	1935.62
399.70	1994.14
399.90	1891.15
400.09	2092.44
400.28	2022.22
400.47	1987.11
400.67	2122.87
400.86	2026.90
401.05	2139.25
401.24	2099.46
401.44	2174.36
401.63	2087.76
401.82	2146.27
402.01	2076.06
402.21	2251.60
402.40	2279.68
402.59	2221.17
402.78	2277.34
402.97	2169.68
403.17	2263.30
403.36	2340.54
403.55	2307.77
403.74	2305.43
403.93	2361.60
404.13	2429.48
404.32	2326.49
404.51	2466.92
404.70	2473.95
404.89	2359.26
405.09	2462.24
405.28	2399.05
405.47	2471.61
405.66	2574.59
405.85	2553.52
406.05	2459.90
406.24	2630.76
406.43	2459.90
406.62	2661.19
406.81	2588.63
407.00	2644.81
407.20	2567.57
407.39	2558.21
407.58	2743.11
407.77	2726.72
407.96	2750.13
408.15	2860.13
408.34	2829.71
408.54	2820.35
408.73	2771.19
408.92	2782.90
409.11	2979.50
409.30	2874.18
409.49	2906.95
409.68	2993.55
409.87	3038.02
410.07	3000.57
410.26	3023.97
410.45	3073.12
410.64	2986.52
410.83	3087.17
411.02	3049.72
411.21	3220.58
411.40	3101.21
411.59	3262.71
411.78	3183.13
411.98	3344.63
412.17	3325.90
412.36	3265.05
412.55	3405.48
412.74	3337.60
412.93	3421.86
413.12	3337.60
413.31	3581.02
413.50	3531.87
413.69	3531.87
413.88	3529.53
414.07	3485.06
414.26	3679.32
414.45	3618.47
414.64	3686.34
414.83	3698.05
415.02	3772.94
415.22	3934.44
415.41	3934.44
415.60	3751.88
415.79	3843.16
415.98	4135.73
416.17	4007.00
416.36	3969.55
416.55	4145.09
416.74	4156.79
416.93	4053.81
417.12	4007.00
417.31	4210.62
417.50	4189.56
417.69	4306.59
417.88	4355.74
418.07	4269.14
418.26	4262.12
418.45	4320.63
418.64	4383.82
418.83	4477.44
419.02	4507.87
419.21	4528.94
419.39	4444.68
419.58	4641.28
419.77	4582.77
419.96	4566.39
420.15	4615.54
420.34	4615.54
420.53	4676.39
420.72	4685.75
420.91	4758.31
421.10	4809.80
421.29	4840.23
421.48	4629.58
421.67	4856.61
421.86	4730.22
422.05	4837.89
422.24	4819.16
422.43	4840.23
422.61	4877.68
422.80	4985.34
422.99	4961.94
423.18	5060.24
423.37	4884.70
423.56	4966.62
423.75	4873.00
423.94	4898.74
424.13	4568.73
424.32	4842.57
424.50	5020.45
424.69	5163.22
424.88	5181.95
425.07	4957.25
425.26	4910.44
425.45	4912.78
425.64	4978.32
425.83	5020.45
426.01	5100.03
426.20	5109.39
426.39	5055.56
426.58	5039.17
426.77	5055.56
426.96	5263.86
427.15	5268.55
427.33	5069.60
427.52	5149.18
427.71	5231.10
427.90	5214.71
428.09	5362.17
428.28	5500.26
428.46	5425.36
428.65	5181.95
428.84	5511.96
429.03	5500.26
429.22	5380.89
429.40	5563.45
429.59	5483.88
429.78	5263.86
429.97	5298.97
430.16	5575.16
430.34	5687.50
430.53	5762.40
430.72	5659.42
430.91	5610.26
431.10	5535.37
431.28	5771.76
431.47	5888.79
431.66	5781.12
431.85	5750.70
432.03	5994.11
432.22	6008.16
432.41	5856.02
432.60	5963.68
432.79	5982.41
432.97	5909.85
433.16	5991.77
433.35	5916.87
433.54	6061.99
433.72	6106.46
433.91	6104.12
434.10	6179.01
434.28	6052.63
434.47	6141.57
434.66	6293.70
434.85	6345.19
435.03	6401.37
435.22	6349.87
435.41	6462.22
435.59	6335.83
435.78	6644.78
435.97	6502.01
436.16	6609.67
436.34	6558.18
436.53	6420.09
436.72	6785.21
436.90	6565.20
437.09	6623.72
437.28	6516.05
437.46	6593.29
437.65	6958.41
437.84	6764.15
438.02	6738.40
438.21	6913.94
438.40	6712.66
438.58	7070.76
438.77	7066.08
438.96	7042.67
439.14	7199.49
439.33	7250.98
439.52	7302.47
439.70	7213.53
439.89	7330.56
440.08	7393.75
440.26	7461.63
440.45	7339.92
440.63	7428.86
440.82	7522.48
441.01	7583.34
441.19	7625.47
441.38	7735.47
441.57	7793.98
441.75	7892.29
441.94	7964.84
442.12	8044.42
442.31	8032.72
442.50	8128.68
442.68	7932.08
442.87	7936.76
443.05	8124.00
443.24	8049.10
443.43	8409.54
443.61	8212.94
443.80	8224.64
443.98	8142.72
444.17	8037.40
444.35	8273.79
444.54	8376.78
444.73	8336.99
444.91	8276.13
445.10	8512.53
445.28	8414.23
445.47	8107.62
445.65	8217.62
445.84	8601.47
446.02	8528.91
446.21	8411.89
446.39	8477.42
446.58	8461.04
446.77	8376.78
446.95	8367.42
447.14	8468.06
447.32	8547.64
447.51	8489.12
447.69	8542.96
447.88	8500.83
448.06	8730.20
448.25	8465.72
448.43	8760.63
448.62	8599.13
448.80	8798.07
448.99	8526.57
449.17	8868.29
449.36	8699.77
449.54	8734.88
449.73	9153.84
449.91	8954.89
450.10	9050.85
450.28	9067.24
450.46	9207.67
450.65	8896.38
450.83	9137.45
451.02	8997.02
451.20	9315.33
451.39	9376.19
451.57	9280.22
451.76	9048.51
451.94	9121.07
452.13	9329.38
452.31	9387.89
452.49	9142.13
452.68	9249.80
452.86	9160.86
453.05	9558.75
453.23	9591.52
453.42	9462.79
453.60	9408.95
453.78	9612.58
453.97	9645.35
454.15	9472.15
454.34	9191.28
454.52	9661.73
454.70	9820.89
454.89	9720.24
455.07	9750.67
455.26	9834.93
455.44	10068.98
455.62	10054.94
455.81	10057.28
455.99	10052.60
456.17	10136.86
456.36	10171.97
456.54	10111.11
456.73	10146.22
456.91	10457.51
457.09	10494.96
457.28	10574.54
457.46	10401.34
457.64	10555.82
457.83	10581.56
458.01	10499.64
458.19	10815.62
458.38	10637.73
458.56	10822.64
458.74	10586.24
458.93	10401.34
459.11	10661.14
459.29	10649.44
459.48	10787.53
459.66	10724.33
459.84	11164.36
460.03	11180.74
460.21	10984.13
460.39	10892.85
460.57	11253.30
460.76	10963.07
460.94	11152.65
461.12	11246.27
461.31	10974.77
461.49	11508.41
461.67	11208.83
461.85	11576.29
462.04	11365.64
462.22	11688.64
462.40	11428.84
462.59	11534.16
462.77	11555.22
462.95	11889.92
463.13	11712.04
463.32	12086.53
463.50	11744.81
463.68	12168.45
463.86	12142.70
464.05	11611.40
464.23	11859.49
464.41	11873.54
464.59	11861.84
464.78	12297.17
464.96	12161.42
465.14	11878.22
465.32	12149.72
465.50	12301.86
465.69	12365.05
465.87	12018.65
466.05	12091.21
466.23	12180.15
466.41	12198.87
466.60	12482.08
466.78	12229.30
466.96	12325.26
467.14	12149.72
467.32	12512.50
467.51	12737.20
467.69	12212.92
467.87	12411.86
468.05	12613.15
468.23	12615.49
468.41	12512.50
468.60	12564.00
468.78	12739.54
468.96	12980.61
469.14	12996.99
469.32	13041.46
469.50	12793.37
469.69	12952.52
469.87	13177.22
470.05	13280.20
470.23	13493.19
470.41	13071.89
470.59	13142.11
470.77	13366.80
470.95	13083.59
471.14	13633.62
471.32	13268.50
471.50	13750.65
471.68	13441.70
471.86	13851.29
472.04	13874.70
472.22	14237.48
472.40	13738.94
472.58	13982.36
472.77	13809.16
472.95	14188.33
473.13	14801.55
473.31	14068.96
473.49	14281.95
473.67	14136.84
473.85	14263.22
474.03	14590.90
474.21	14733.67
474.39	15173.69
474.57	14686.86
474.75	14827.29
474.93	15201.78
475.12	15101.14
475.30	15431.15
475.48	14974.75
475.66	15187.74
475.84	14918.57
476.02	15391.36
476.20	15616.05
476.38	15882.88
476.56	16250.34
476.74	16018.63
476.92	15936.71
477.10	15887.56
477.28	16262.04
477.46	16439.92
477.64	16545.25
477.82	16856.54
478.00	17020.38
478.18	17092.93
478.36	16910.37
478.54	17205.28
478.72	17465.08
478.90	17345.71
479.08	17652.32
479.26	17743.60
479.44	17626.57
479.62	18052.55
479.80	18169.58
479.98	18045.53
480.16	18382.57
480.34	18625.98
480.52	18831.95
480.70	18450.44
480.88	18345.12
481.06	18696.20
481.24	19000.47
481.41	19419.42
481.59	19360.91
481.77	19667.52
481.95	19580.92
482.13	19875.83
482.31	19538.79
482.49	20386.07
482.67	20496.07
482.85	20416.49
483.03	21036.74
483.21	20893.96
483.39	21259.09
483.57	21149.08
483.74	21287.17
483.92	21745.92
484.10	21568.04
484.28	21811.45
484.46	21727.19
484.64	22567.45
484.82	22057.21
485.00	22356.80
485.18	22782.77
485.35	23101.09
485.53	22827.24
485.71	23089.38
485.89	23740.05
486.07	23566.85
486.25	23697.92
486.43	23735.37
486.61	24023.26
486.78	24388.38
486.96	24369.66
487.14	24727.76
487.32	25074.16
487.50	24758.19
487.68	25233.32
487.85	25671.00
488.03	25450.99
488.21	26012.71
488.39	25914.41
488.57	26359.11
488.75	26408.26
488.92	26647.00
489.10	26822.54
489.28	26852.97
489.46	27033.19
489.64	27253.20
489.81	27927.27
489.99	28020.89
490.17	27934.29
490.35	28177.71
490.53	28664.54
490.70	28528.79
490.88	28332.18
491.06	28919.66
491.24	29181.80
491.41	28877.53
491.59	29394.79
491.77	29355.00
491.95	29738.85
492.13	29979.92
492.30	29902.68
492.48	30279.51
492.66	30536.97
492.84	30209.29
493.01	30836.56
493.19	30567.40
493.37	31124.44
493.54	31527.02
493.72	31651.06
493.90	31709.58
494.08	31676.81
494.25	32133.21
494.43	31878.10
494.61	32346.20
494.79	32833.04
494.96	32989.85
495.14	32631.75
495.32	33064.75
495.49	33516.47
495.67	33443.91
495.85	33795.00
496.02	34134.37
496.20	33769.25
496.38	34682.06
496.55	34361.40
496.73	35428.69
496.91	34616.52
497.09	34991.01
497.26	35194.64
497.44	35363.15
497.62	35297.62
497.79	35974.03
497.97	36084.04
498.14	36404.69
498.32	36507.68
498.50	36254.90
498.67	36772.16
498.85	36830.67
499.03	36954.72
499.20	36795.56
499.38	36954.72
499.56	37273.03
499.73	37266.01
499.91	37392.40
500.08	37867.53
500.26	37717.73
500.44	37806.67
500.61	38169.46
500.79	37851.14
500.97	38869.28
501.14	38817.78
501.32	39054.18
501.49	38644.59
501.67	38464.36
501.84	39161.84
502.02	39438.03
502.20	39313.98
502.37	39433.35
502.55	39192.27
502.72	39463.77
502.90	39786.77
503.07	39594.84
503.25	40273.60
503.43	39796.13
503.60	40704.26
503.78	40430.41
503.95	40318.07
504.13	40655.11
504.30	41078.74
504.48	40737.02
504.65	41280.03
504.83	41656.85
505.01	41425.14
505.18	41516.42
505.36	41848.78
505.53	41677.92
505.71	41858.14
505.88	42024.32
506.06	41855.80
506.23	42419.87
506.41	42213.90
506.58	42263.05
506.76	42417.53
506.93	43051.81
507.11	42368.38
507.28	42490.09
507.46	42962.87
507.63	43217.99
507.81	43306.93
507.98	42913.72
508.16	43683.76
508.33	43821.85
508.50	43833.55
508.68	43564.39
508.85	44208.04
509.03	44175.27
509.20	44201.02
509.38	44629.34
509.55	44858.71
509.73	44577.84
509.90	45038.93
510.08	44966.37
510.25	45170.00
510.42	45104.46
510.60	45146.59
510.77	45504.70
510.95	45518.74
511.12	45184.04
511.30	45123.19
511.47	45865.14
511.64	45951.74
511.82	46260.69
511.99	45769.18
512.17	46239.62
512.34	46274.73
512.51	46614.11
512.69	46291.12
512.86	46073.45
513.04	47007.32
513.21	46384.74
513.38	47009.66
513.56	47327.97
513.73	47152.43
513.90	47466.06
514.08	47178.18
514.25	47571.39
514.43	47543.30
514.60	47730.54
514.77	47384.15
514.95	48088.65
515.12	47751.61
515.29	47896.72
515.47	48519.31
515.64	48577.82
515.81	48339.08
515.99	48706.55
516.16	48673.78
516.33	48435.05
516.51	48657.40
516.68	49013.16
516.85	48685.48
517.03	49055.29
517.20	48533.35
517.37	49116.14
517.54	49174.66
517.72	48966.35
517.89	49343.17
518.06	49687.23
518.24	49457.86
518.41	49485.95
518.58	49169.97
518.75	49827.66
518.93	49610.00
519.10	49879.16
519.27	50106.19
519.45	50138.96
519.62	49675.53
519.79	50216.19
519.96	50637.49
520.14	50204.49
520.31	50363.65
520.48	50504.08
520.65	50719.41
520.83	50679.62
521.00	51089.21
521.17	50588.34
521.34	50740.47
521.52	50976.87
521.69	50773.24
521.86	51124.32
522.03	51208.58
522.20	51664.99
522.38	51880.31
522.55	51557.32
522.72	51285.82
522.89	51517.53
523.07	51622.86
523.24	51831.16
523.41	52083.94
523.58	51636.90
523.75	52163.52
523.92	51845.21
524.10	52107.35
524.27	52095.64
524.44	52329.70
524.61	52250.12
524.78	52598.86
524.96	52250.12
525.13	52507.58
525.30	52818.87
525.47	52678.44
525.64	52547.37
525.81	52701.84
525.98	53013.13
526.16	52926.53
526.33	52846.96
526.50	53088.03
526.67	52846.96
526.84	53289.32
527.01	52711.20
527.18	53085.69
527.36	52945.26
527.53	53324.43
527.70	53628.69
527.87	53535.07
528.04	53336.13
528.21	53638.06
528.38	53567.84
528.55	53645.08
528.72	53478.90
528.89	54131.91
529.07	53565.50
529.24	53427.41
529.41	53979.78
529.58	53890.83
529.75	53806.58
529.92	53771.47
530.09	53841.68
530.26	54005.52
530.43	54230.21
530.60	53921.26
530.77	54143.61
530.94	54085.10
531.11	54178.72
531.28	54513.42
531.46	54644.49
531.63	54328.52
531.80	54262.98
531.97	54443.20
532.14	54651.51
532.31	54724.07
532.48	54698.32
532.65	54567.25
532.82	54562.57
532.99	55056.42
533.16	54787.26
533.33	54901.95
533.50	54990.89
533.67	54918.33
533.84	54770.88
534.01	54857.48
534.18	55042.38
534.35	55440.27
534.52	55114.94
534.69	55463.67
534.86	55398.14
535.03	55540.91
535.20	55475.38
535.37	55599.43
535.54	55557.30
535.71	55615.81
535.88	55393.46
536.05	55451.97
536.22	55789.01
536.38	55718.79
536.55	55758.58
536.72	55800.71
536.89	55707.09
537.06	55789.01
537.23	56062.85
537.40	55557.30
537.57	55810.07
537.74	55821.78
537.91	56186.90
538.08	56329.67
538.25	55870.93
538.42	56030.08
538.59	56488.83
538.75	56004.34
538.92	56402.23
539.09	56140.09
539.26	56247.75
539.43	56083.92
539.60	56481.81
539.77	56552.02
539.94	56633.94
540.11	56451.38
540.28	56662.03
540.44	56573.09
540.61	56765.01
540.78	56236.05
540.95	56575.43
541.12	56669.05
541.29	56577.77
541.46	56647.99
541.62	56839.91
541.79	56830.55
541.96	56467.76
542.13	56786.08
542.30	56933.53
542.47	56807.14
542.63	56968.64
542.80	57048.22
542.97	57235.46
543.14	57401.64
543.31	57326.74
543.48	57432.07
543.64	57621.65
543.81	57626.33
543.98	57535.05
544.15	57338.44
544.32	57492.92
544.48	57813.57
544.65	57544.41
544.82	57497.60
544.99	57467.17
545.16	57890.81
545.32	57464.83
545.49	57698.89
545.66	57822.93
545.83	57712.93
546.00	57820.59
546.16	57813.57
546.33	57764.42
546.50	57684.84
546.67	57935.28
546.83	57687.18
547.00	57813.57
547.17	58014.86
547.34	58040.60
547.50	58326.15
547.67	58328.49
547.84	58131.89
548.00	58260.62
548.17	58403.39
548.34	58333.17
548.51	58632.76
548.67	58279.34
548.84	58377.64
549.01	58162.31
549.18	58597.65
549.34	58450.20
549.51	58592.97
549.68	58506.37
549.84	58431.47
550.01	58482.97
550.18	58485.31
550.34	58548.50
550.51	58705.32
550.68	58422.11
550.84	58581.27
551.01	58791.92
551.18	58686.59
551.34	58834.05
551.51	58780.21
551.68	58695.95
551.84	58731.06
552.01	58450.20
552.18	58749.79
552.34	58637.44
552.51	58983.84
552.68	58707.66
552.84	58543.82
553.01	58958.09
553.18	59105.55
553.34	58946.39
553.51	58843.41
553.67	58988.52
553.84	58934.69
554.01	58836.39
554.17	59377.05
554.34	59257.68
554.51	59231.94
554.67	59222.58
554.84	59049.38
555.00	59143.00
555.17	59096.19
555.33	59056.40
555.50	59143.00
555.67	59257.68
555.83	59084.48
556.00	59309.18
556.16	59480.03
556.33	59559.61
556.50	59126.61
556.66	59517.48
556.83	59341.94
556.99	59550.25
557.16	59739.83
557.32	59494.08
557.49	59831.11
557.65	59641.53
557.82	59341.94
557.98	59573.66
558.15	59568.97
558.32	59538.55
558.48	59559.61
558.65	59606.42
558.81	59587.70
558.98	59681.32
559.14	59714.09
559.31	59831.11
559.47	59952.82
559.64	59870.90
559.80	59749.20
559.97	59955.16
560.13	59700.04
560.30	59709.41
560.46	59793.67
560.63	60048.78
560.79	59931.76
560.96	59957.50
561.12	59831.11
561.29	59976.23
561.45	60072.19
561.61	59882.61
561.78	59943.46
561.94	59962.18
562.11	60083.89
562.27	60076.87
562.44	60088.57
562.60	60210.28
562.77	60292.20
562.93	59861.54
563.10	60158.79
563.26	60102.62
563.42	60292.20
563.59	60126.02
563.75	60135.38
563.92	60193.90
564.08	60104.96
564.24	60207.94
564.41	60271.14
564.57	60203.26
564.74	60409.23
564.90	60292.20
565.07	60205.60
565.23	60247.73
565.39	60339.01
565.56	60530.93
565.72	60350.71
565.88	60320.29
566.05	60245.39
566.21	60264.11
566.38	60381.14
566.54	60362.42
566.70	60303.90
566.87	60523.91
567.03	60357.74
567.19	60505.19
567.36	60603.49
567.52	60331.99
567.68	60608.17
567.85	60273.48
568.01	60706.47
568.17	60626.90
568.34	60722.86
568.50	60509.87
568.66	60355.39
568.83	60589.45
568.99	60463.06
569.15	60292.20
569.32	60367.10
569.48	60451.36
569.64	60713.50
569.81	60610.51
569.97	60456.04
570.13	60619.88
570.30	60568.38
570.46	60816.48
570.62	60849.25
570.78	60872.65
570.95	60654.98
571.11	60589.45
571.27	60624.56
571.43	60753.29
571.60	60975.64
571.76	60776.69
571.92	60809.46
572.09	60582.43
572.25	60865.63
572.41	60629.24
572.57	60673.71
572.74	61069.26
572.90	60685.41
573.06	60823.50
573.22	60842.23
573.38	60725.20
573.55	60772.01
573.71	61001.38
573.87	60889.04
574.03	60802.44
574.20	60959.25
574.36	61001.38
574.52	60882.02
574.68	60825.84
574.84	61001.38
575.01	60727.54
575.17	60811.80
575.33	60779.03
575.49	60708.82
575.65	60896.06
575.82	60893.72
575.98	61097.34
576.14	61134.79
576.30	60980.32
576.46	60830.52
576.62	60786.05
576.79	60797.76
576.95	61022.45
577.11	60736.90
577.27	60903.08
577.43	61006.06
577.59	60860.95
577.75	60867.97
577.92	61015.43
578.08	60994.36
578.24	60999.04
578.40	60935.85
578.56	60921.80
578.72	61095.00
578.88	61062.24
579.04	61104.37
579.21	61041.17
579.37	61003.72
579.53	61027.13
579.69	60900.74
579.85	61038.83
580.01	60898.40
580.17	60947.55
580.33	61209.69
580.49	61146.50
580.65	61062.24
580.82	61090.32
580.98	60931.17
581.14	60844.57
581.30	61216.71
581.46	60900.74
581.62	61130.11
581.78	61071.60
581.94	61146.50
582.10	61172.24
582.26	61209.69
582.42	60851.59
582.58	61057.56
582.74	61106.71
582.90	60856.27
583.06	61130.11
583.22	61020.11
583.38	61022.45
583.54	60926.49
583.70	61085.64
583.86	60931.17
584.02	61064.58
584.18	61165.22
584.34	60968.61
584.50	61221.39
584.66	61125.43
584.82	60788.39
584.98	61265.86
585.14	61153.52
585.30	61146.50
585.46	61130.11
585.62	61207.35
585.78	61476.51
585.94	61097.34
586.10	61221.39
586.26	61375.87
586.42	61244.80
586.58	61109.05
586.74	61008.40
586.90	61095.00
587.06	61102.03
587.22	61261.18
587.38	61237.78
587.54	61235.44
587.70	61286.93
587.86	61230.75
588.02	61228.41
588.18	61275.22
588.34	61008.40
