SpectraSuite Data File
++++++++++++++++++++++++++++++++++++
Date: Fri Oct 25 11:25:54 EDT 2013
User: price-jones
Dark Spectrum Present: No
Reference Spectrum Present: No
Number of Sampled Component Spectra: 1
Spectrometers: USB2+H05261
Integration Time (usec): 100000 (USB2+H05261)
Spectra Averaged: 1 (USB2+H05261)
Boxcar Smoothing: 0 (USB2+H05261)
Correct for Electrical Dark: No (USB2+H05261)
Strobe/Lamp Enabled: No (USB2+H05261)
Correct for Detector Non-linearity: No (USB2+H05261)
Correct for Stray Light: No (USB2+H05261)
Number of Pixels in Processed Spectrum: 2048
>>>>>Begin Processed Spectral Data<<<<<
365.73	196.60
365.92	196.60
366.12	196.60
366.32	187.24
366.52	35.11
366.72	154.48
366.91	72.56
367.11	135.75
367.31	112.35
367.51	128.73
367.70	191.92
367.90	154.48
368.10	74.90
368.30	154.48
368.49	161.50
368.69	196.60
368.89	173.20
369.09	100.64
369.28	217.67
369.48	196.60
369.68	170.86
369.87	273.84
370.07	138.09
370.27	166.18
370.47	292.57
370.66	566.41
370.86	585.13
371.06	718.54
371.25	648.33
371.45	634.29
371.65	662.37
371.84	706.84
372.04	704.50
372.24	779.40
372.44	674.07
372.63	660.03
372.83	725.57
373.03	774.72
373.22	746.63
373.42	699.82
373.62	816.85
373.81	802.80
374.01	732.59
374.21	765.36
374.40	800.46
374.60	873.02
374.79	856.64
374.99	807.48
375.19	901.11
375.38	849.61
375.58	837.91
375.78	819.19
375.97	786.42
376.17	835.57
376.37	929.19
376.56	868.34
376.76	931.53
376.95	898.77
377.15	851.96
377.35	933.87
377.54	896.43
377.74	884.72
377.93	917.49
378.13	910.47
378.33	952.60
378.52	987.71
378.72	908.13
378.91	924.51
379.11	971.32
379.31	1020.47
379.50	910.47
379.70	1004.09
379.89	1053.24
380.09	905.79
380.28	1053.24
380.48	1006.43
380.68	990.05
380.87	1046.22
381.07	1015.79
381.26	1088.35
381.46	968.98
381.65	1011.11
381.85	1015.79
382.04	1006.43
382.24	1130.48
382.43	1043.88
382.63	1041.54
382.83	1057.92
383.02	1046.22
383.22	1149.20
383.41	1156.22
383.61	1078.99
383.80	1170.27
384.00	1128.14
384.19	1137.50
384.39	1100.05
384.58	1130.48
384.78	1130.48
384.97	1114.10
385.17	1205.38
385.36	1088.35
385.56	1196.01
385.75	1090.69
385.95	1160.91
386.14	1231.12
386.34	1263.89
386.53	1282.61
386.72	1163.25
386.92	1144.52
387.11	1275.59
387.31	1233.46
387.50	1203.04
387.70	1289.64
387.89	1228.78
388.09	1331.76
388.28	1245.16
388.48	1210.06
388.67	1444.11
388.86	1341.13
389.06	1350.49
389.25	1345.81
389.45	1273.25
389.64	1296.66
389.84	1392.62
390.03	1390.28
390.22	1376.24
390.42	1291.98
390.61	1369.21
390.81	1366.87
391.00	1483.90
391.19	1502.62
391.39	1465.18
391.58	1507.30
391.78	1350.49
391.97	1542.41
392.16	1495.60
392.36	1446.45
392.55	1444.11
392.75	1544.75
392.94	1401.98
393.13	1614.97
393.33	1507.30
393.52	1535.39
393.71	1556.46
393.91	1427.73
394.10	1645.40
394.29	1549.43
394.49	1582.20
394.68	1678.16
394.88	1617.31
395.07	1575.18
395.26	1619.65
395.46	1722.63
395.65	1685.19
395.84	1636.03
396.04	1746.04
396.23	1778.81
396.42	1825.62
396.62	1720.29
396.81	1767.10
397.00	1638.38
397.19	1741.36
397.39	1860.73
397.58	1809.23
397.77	1926.26
397.97	1874.77
398.16	1776.47
398.35	1849.02
398.55	1928.60
398.74	1818.60
398.93	1898.17
399.12	1907.54
399.32	1947.33
399.51	1970.73
399.70	2003.50
399.90	1942.64
400.09	2010.52
400.28	2146.27
400.47	2019.88
400.67	2076.06
400.86	2080.74
401.05	2040.95
401.24	2097.12
401.44	2120.53
401.63	2050.31
401.82	2202.44
402.01	2139.25
402.21	2270.32
402.40	2190.74
402.59	2216.49
402.78	2183.72
402.97	2270.32
403.17	2305.43
403.36	2235.21
403.55	2279.68
403.74	2307.77
403.93	2277.34
404.13	2387.35
404.32	2401.39
404.51	2314.79
404.70	2448.20
404.89	2480.97
405.09	2417.77
405.28	2553.52
405.47	2527.78
405.66	2429.48
405.85	2572.25
406.05	2466.92
406.24	2490.33
406.43	2539.48
406.62	2530.12
406.81	2586.29
407.00	2670.55
407.20	2612.04
407.39	2581.61
407.58	2738.43
407.77	2740.77
407.96	2729.06
408.15	2778.22
408.34	2736.09
408.54	2738.43
408.73	2752.47
408.92	2827.37
409.11	2782.90
409.30	2892.90
409.49	2888.22
409.68	2888.22
409.87	2958.44
410.07	2888.22
410.26	2981.84
410.45	3103.55
410.64	2942.05
410.83	3023.97
411.02	3143.34
411.21	3133.98
411.40	3232.28
411.59	3206.53
411.78	3183.13
411.98	3192.49
412.17	3309.52
412.36	3229.94
412.55	3356.33
412.74	3461.65
412.93	3389.10
413.12	3236.96
413.31	3538.89
413.50	3403.14
413.69	3515.48
413.88	3452.29
414.07	3555.27
414.26	3623.15
414.45	3772.94
414.64	3768.26
414.83	3693.37
415.02	3726.13
415.22	3768.26
415.41	3882.95
415.60	3817.41
415.79	3871.25
415.98	4016.36
416.17	4163.81
416.36	3971.89
416.55	4004.66
416.74	4102.96
416.93	4093.60
417.12	4109.98
417.31	4077.21
417.50	4304.25
417.69	4257.43
417.88	4273.82
418.07	4243.39
418.26	4290.20
418.45	4257.43
418.64	4512.55
418.83	4407.23
419.02	4407.23
419.21	4519.57
419.39	4552.34
419.58	4395.53
419.77	4440.00
419.96	4573.41
420.15	4594.47
420.34	4620.22
420.53	4514.89
420.72	4713.84
420.91	4713.84
421.10	4744.27
421.29	4732.56
421.48	4779.37
421.67	4905.76
421.86	4748.95
422.05	4765.33
422.24	4814.48
422.43	4877.68
422.61	4924.49
422.80	4997.04
422.99	5034.49
423.18	4950.23
423.37	5039.17
423.56	4910.44
423.75	4894.06
423.94	4861.29
424.13	4662.35
424.32	4655.33
424.50	5114.07
424.69	5081.30
424.88	4980.66
425.07	4858.95
425.26	4931.51
425.45	4849.59
425.64	5006.41
425.83	4917.47
426.01	5011.09
426.20	5146.84
426.39	5041.51
426.58	5039.17
426.77	5163.22
426.96	5322.38
427.15	4990.02
427.33	5217.05
427.52	5076.62
427.71	5313.02
427.90	5177.26
428.09	5254.50
428.28	5343.44
428.46	5329.40
428.65	5343.44
428.84	5483.88
429.03	5589.20
429.22	5392.59
429.40	5399.62
429.59	5549.41
429.78	5341.10
429.97	5364.51
430.16	5570.48
430.34	5710.91
430.53	5530.69
430.72	5664.10
430.91	5685.16
431.10	5596.22
431.28	5795.17
431.47	5792.83
431.66	5895.81
431.85	5825.59
432.03	5879.43
432.22	5919.21
432.41	5795.17
432.60	5809.21
432.79	5963.68
432.97	6036.24
433.16	5970.71
433.35	5949.64
433.54	6033.90
433.72	6193.06
433.91	6085.39
434.10	6207.10
434.28	6038.58
434.47	6270.30
434.66	6298.38
434.85	6436.47
435.03	6354.55
435.22	6300.72
435.41	6558.18
435.59	6312.42
435.78	6502.01
435.97	6581.59
436.16	6354.55
436.34	6434.13
436.53	6609.67
436.72	6717.34
436.90	6523.07
437.09	6736.06
437.28	6427.11
437.46	6698.61
437.65	6586.27
437.84	6745.42
438.02	6656.48
438.21	6743.08
438.40	6691.59
438.58	6988.84
438.77	6899.90
438.96	6909.26
439.14	7119.91
439.33	7091.82
439.52	7321.20
439.70	7119.91
439.89	7260.34
440.08	7157.36
440.26	7454.61
440.45	7197.15
440.63	7470.99
440.82	7613.76
441.01	7307.15
441.19	7784.62
441.38	7590.36
441.57	7838.45
441.75	7873.56
441.94	7957.82
442.12	7808.03
442.31	7969.52
442.50	7932.08
442.68	8105.28
442.87	8011.65
443.05	8149.75
443.24	8283.16
443.43	8149.75
443.61	8203.58
443.80	8273.79
443.98	8107.62
444.17	7829.09
444.35	8348.69
444.54	8182.51
444.73	8278.47
444.91	8379.12
445.10	8250.39
445.28	8355.71
445.47	8304.22
445.65	8226.98
445.84	8367.42
446.02	8423.59
446.21	8505.51
446.39	8383.80
446.58	8400.18
446.77	8561.68
446.95	8397.84
447.14	8294.86
447.32	8540.61
447.51	8510.19
447.69	8472.74
447.88	8547.64
448.06	8498.49
448.25	8617.85
448.43	8585.08
448.62	8638.92
448.80	8678.71
448.99	8664.66
449.17	8751.26
449.36	8648.28
449.54	8882.33
449.73	8964.25
449.91	9109.36
450.10	8896.38
450.28	8990.00
450.46	8987.66
450.65	9092.98
450.83	8954.89
451.02	9060.21
451.20	9287.25
451.39	8968.93
451.57	9245.12
451.76	9221.71
451.94	9231.07
452.13	9371.50
452.31	9343.42
452.49	9224.05
452.68	9434.70
452.86	9355.12
453.05	9495.55
453.23	9556.41
453.42	9308.31
453.60	9327.03
453.78	9430.02
453.97	9565.77
454.15	9701.52
454.34	9406.61
454.52	9535.34
454.70	9591.52
454.89	9703.86
455.07	9895.78
455.26	9790.46
455.44	9488.53
455.62	9958.98
455.81	9928.55
455.99	10029.20
456.17	10083.03
456.36	10150.90
456.54	10171.97
456.73	10366.23
456.91	10516.03
457.09	10677.52
457.28	10422.41
457.46	10462.19
457.64	10541.77
457.83	10630.71
458.01	10394.32
458.19	10654.12
458.38	10651.78
458.56	10815.62
458.74	10960.73
458.93	10832.00
459.11	10712.63
459.29	10796.89
459.48	10740.72
459.66	10780.51
459.84	10846.04
460.03	10998.18
460.21	10977.11
460.39	10794.55
460.57	10806.25
460.76	11063.71
460.94	11164.36
461.12	11414.79
461.31	11227.55
461.49	11318.83
461.67	11105.84
461.85	11342.24
462.04	11248.61
462.22	11723.74
462.40	11630.12
462.59	11449.90
462.77	11417.13
462.95	11456.92
463.13	11524.80
463.32	11761.19
463.50	11690.98
463.68	11889.92
463.86	11592.67
464.05	11609.06
464.23	11566.93
464.41	11880.56
464.59	11695.66
464.78	12063.12
464.96	11920.35
465.14	11749.49
465.32	11932.05
465.50	12208.23
465.69	12091.21
465.87	12257.39
466.05	12264.41
466.23	11974.18
466.41	12006.95
466.60	12556.97
466.78	12266.75
466.96	12035.03
467.14	12177.81
467.32	12472.71
467.51	12280.79
467.69	12044.40
467.87	12292.49
468.05	12688.04
468.23	12624.85
468.41	12564.00
468.60	12519.53
468.78	12755.92
468.96	12564.00
469.14	12755.92
469.32	12837.84
469.50	12580.38
469.69	13029.76
469.87	13226.37
470.05	13083.59
470.23	13167.85
470.41	13032.10
470.59	13359.78
470.77	13123.38
470.95	13387.86
471.14	13483.83
471.32	13224.03
471.50	13334.03
471.68	13727.24
471.86	13724.90
472.04	13877.04
472.22	13888.74
472.40	13635.96
472.58	13893.42
472.77	13874.70
472.95	14106.41
473.13	14635.37
473.31	14073.64
473.49	14083.00
473.67	14235.14
473.85	14211.73
474.03	14843.68
474.21	14698.56
474.39	14569.83
474.57	14527.71
474.75	15084.75
474.93	14829.63
475.12	14864.74
475.30	15164.33
475.48	15009.86
475.66	15051.99
475.84	15112.84
476.02	15166.67
476.20	15328.17
476.38	15557.54
476.56	15955.43
476.74	15936.71
476.92	15896.92
477.10	15775.21
477.28	15836.06
477.46	16383.75
477.64	16535.88
477.82	16781.64
478.00	16929.09
478.18	16578.01
478.36	16828.45
478.54	17055.48
478.72	17312.94
478.90	17090.59
479.08	17664.02
479.26	17635.94
479.44	17612.53
479.62	17741.26
479.80	17809.14
479.98	18326.39
480.16	18321.71
480.34	18176.60
480.52	18588.53
480.70	18597.90
480.88	18176.60
481.06	18597.90
481.24	18757.05
481.41	19185.37
481.59	19253.25
481.77	19154.94
481.95	19559.86
482.13	19644.12
482.31	19721.35
482.49	20053.71
482.67	19967.11
482.85	20393.09
483.03	20386.07
483.21	20898.64
483.39	20971.20
483.57	21139.72
483.74	21333.98
483.92	21273.13
484.10	21226.32
484.28	21575.06
484.46	22078.27
484.64	22373.18
484.82	21827.84
485.00	22199.98
485.18	22548.72
485.35	22998.10
485.53	22967.68
485.71	23051.94
485.89	23360.89
486.07	23019.17
486.25	23314.08
486.43	23672.18
486.61	23695.58
486.78	23765.80
486.96	24313.48
487.14	24699.67
487.32	24678.61
487.50	24945.43
487.68	24926.71
487.85	25113.95
488.03	25610.14
488.21	25659.29
488.39	25607.80
488.57	26511.25
488.75	26279.54
488.92	26141.44
489.10	26696.15
489.28	26686.79
489.46	26918.50
489.64	26906.80
489.81	27459.16
489.99	27683.86
490.17	27349.16
490.35	28208.14
490.53	28175.37
490.70	28500.70
490.88	28128.56
491.06	28788.59
491.24	28645.82
491.41	28975.83
491.59	28982.85
491.77	29127.97
491.95	29523.52
492.13	29743.53
492.30	29954.18
492.48	29715.44
492.66	30206.95
492.84	30359.09
493.01	30623.57
493.19	30656.34
493.37	30698.47
493.54	31068.27
493.72	31634.68
493.90	31847.67
494.08	31892.14
494.25	31896.82
494.43	32140.24
494.61	32170.66
494.79	32769.84
494.96	32802.61
495.14	32758.14
495.32	33200.50
495.49	33048.36
495.67	33254.33
495.85	33376.04
496.02	33757.55
496.20	33965.85
496.38	33867.55
496.55	34316.93
496.73	35150.17
496.91	34387.15
497.09	34824.83
497.26	35049.52
497.44	34902.07
497.62	35433.37
497.79	35651.04
497.97	35337.41
498.14	35817.22
498.32	35908.50
498.50	35964.67
498.67	36378.95
498.85	36505.34
499.03	36582.57
499.20	36596.62
499.38	36746.41
499.56	37064.72
499.73	37181.75
499.91	36744.07
500.08	37670.92
500.26	37406.44
500.44	37654.54
500.61	37684.97
500.79	37963.49
500.97	37558.58
501.14	38625.86
501.32	38321.59
501.49	38326.27
501.67	38504.15
501.84	38923.11
502.02	38749.91
502.20	38829.49
502.37	39512.92
502.55	39002.69
502.72	39749.32
502.90	39669.74
503.07	39203.97
503.25	39622.93
503.43	39494.20
503.60	39744.64
503.78	39948.26
503.95	40002.10
504.13	40570.85
504.30	40950.01
504.48	40280.62
504.65	40818.94
504.83	41064.70
505.01	41324.50
505.18	41291.73
505.36	41268.33
505.53	41280.03
505.71	41647.49
505.88	41975.17
506.06	41497.70
506.23	41918.99
506.41	41584.30
506.58	41755.16
506.76	41614.72
506.93	42220.92
507.11	42211.56
507.28	42618.81
507.46	42628.18
507.63	42976.92
507.81	43412.26
507.98	42892.66
508.16	43220.33
508.33	43484.81
508.50	43292.89
508.68	43681.42
508.85	43742.27
509.03	43576.09
509.20	44112.08
509.38	44320.38
509.55	44252.51
509.73	44519.33
509.90	44519.33
510.08	44655.08
510.25	44847.00
510.42	44357.83
510.60	44872.75
510.77	45212.13
510.95	45565.55
511.12	45254.26
511.30	44919.56
511.47	45535.12
511.64	45336.18
511.82	45883.86
511.99	45724.71
512.17	45975.14
512.34	45865.14
512.51	46195.15
512.69	46131.96
512.86	46312.18
513.04	46813.05
513.21	46600.07
513.38	46902.00
513.56	46719.43
513.73	46689.01
513.90	47150.09
514.08	46960.51
514.25	47360.74
514.43	47325.63
514.60	47316.27
514.77	47358.40
514.95	47391.17
515.12	47927.15
515.29	47414.57
515.47	47814.80
515.64	47950.56
515.81	47756.29
515.99	48404.62
516.16	48315.68
516.33	48296.95
516.51	48311.00
516.68	48577.82
516.85	48584.84
517.03	49102.10
517.20	48945.28
517.37	48638.67
517.54	48917.20
517.72	48671.44
517.89	48662.08
518.06	49214.44
518.24	49074.01
518.41	49038.90
518.58	49504.67
518.75	49284.66
518.93	49301.04
519.10	49497.65
519.27	50005.55
519.45	50129.59
519.62	49858.09
519.79	50059.38
519.96	49668.51
520.14	50253.64
520.31	50251.30
520.48	50150.66
520.65	50092.15
520.83	50471.31
521.00	50576.64
521.17	50520.46
521.34	50658.56
521.52	50621.11
521.69	50611.74
521.86	50712.39
522.03	51107.94
522.20	51145.39
522.38	51426.25
522.55	51341.99
522.72	51580.73
522.89	51206.24
523.07	51585.41
523.24	51311.56
523.41	51723.50
523.58	51573.70
523.75	51847.55
523.92	51962.23
524.10	52039.47
524.27	52102.67
524.44	51760.95
524.61	52121.39
524.78	52282.89
524.96	52025.43
525.13	52299.27
525.30	52388.21
525.47	52633.97
525.64	52505.24
525.81	52711.20
525.98	52704.18
526.16	52561.41
526.33	52519.28
526.50	52907.81
526.67	52388.21
526.84	52914.83
527.01	52631.63
527.18	52814.19
527.36	52774.40
527.53	53118.46
527.70	53331.45
527.87	53223.78
528.04	53277.61
528.21	53249.53
528.38	53265.91
528.55	53347.83
528.72	53446.13
528.89	53558.48
529.07	53226.12
529.24	53256.55
529.41	53701.25
529.58	53694.23
529.75	53560.82
529.92	53621.67
530.09	53755.08
530.26	53787.85
530.43	54417.46
530.60	53780.83
530.77	53741.04
530.94	53918.92
531.11	54279.36
531.28	54101.48
531.46	54110.85
531.63	54094.46
531.80	54087.44
531.97	54286.39
532.14	54356.60
532.31	54443.20
532.48	54555.55
532.65	54440.86
532.82	54543.84
532.99	54714.70
533.16	54419.80
533.33	54742.79
533.50	55000.25
533.67	54845.77
533.84	54499.37
534.01	54829.39
534.18	55033.02
534.35	55051.74
534.52	54953.44
534.69	55173.45
534.86	55103.23
535.03	55248.35
535.20	55173.45
535.37	55414.52
535.54	55192.17
535.71	55456.65
535.88	55351.33
536.05	55356.01
536.22	55662.62
536.38	55660.28
536.55	55728.16
536.72	55526.87
536.89	55538.57
537.06	55491.76
537.23	55566.66
537.40	55683.69
537.57	55543.25
537.74	55643.90
537.91	55777.31
538.08	55917.74
538.25	55407.50
538.42	56023.06
538.59	55908.38
538.75	55707.09
538.92	55943.48
539.09	56051.15
539.26	55817.10
539.43	56088.60
539.60	56362.44
539.77	56217.33
539.94	56048.81
540.11	56374.14
540.28	56369.46
540.44	56463.08
540.61	56418.61
540.78	56411.59
540.95	56530.96
541.12	56444.36
541.29	56458.40
541.46	56481.81
541.62	56711.18
541.79	56816.50
541.96	56545.00
542.13	56884.38
542.30	56495.85
542.47	56711.18
542.63	56762.67
542.80	56743.95
542.97	57106.73
543.14	57275.25
543.31	57179.29
543.48	57244.82
543.64	57401.64
543.81	57368.87
543.98	57347.81
544.15	57228.44
544.32	57605.26
544.48	57614.63
544.65	57429.72
544.82	57441.43
544.99	56968.64
545.16	57504.62
545.32	57319.72
545.49	57635.69
545.66	57724.63
545.83	57441.43
546.00	57776.12
546.16	57544.41
546.33	57289.29
546.50	57460.15
546.67	57762.08
546.83	57420.36
547.00	57719.95
547.17	57689.52
547.34	57581.86
547.50	57890.81
547.67	58096.78
547.84	57979.75
548.00	57900.17
548.17	58073.37
548.34	58031.24
548.51	58211.46
548.67	58028.90
548.84	58120.18
549.01	57930.60
549.18	57993.79
549.34	58305.09
549.51	58277.00
549.68	58286.36
549.84	58337.85
550.01	58557.86
550.18	58178.70
550.34	58286.36
550.51	58520.41
550.68	58356.58
550.84	58115.50
551.01	58487.65
551.18	58286.36
551.34	58726.38
551.51	58534.46
551.68	58714.68
551.84	58578.93
552.01	58492.33
552.18	58646.80
552.34	58459.56
552.51	58805.96
552.68	58412.75
552.84	58726.38
553.01	58946.39
553.18	58628.08
553.34	58749.79
553.51	58747.45
553.67	58869.15
553.84	58934.69
554.01	58948.73
554.17	59110.23
554.34	59004.91
554.51	58953.41
554.67	58951.07
554.84	59135.98
555.00	59152.36
555.17	59072.78
555.33	58904.26
555.50	58773.19
555.67	58965.12
555.83	59173.42
556.00	59334.92
556.16	59304.49
556.33	59220.23
556.50	59161.72
556.66	59437.90
556.83	59119.59
556.99	59470.67
557.16	59529.19
557.32	59611.10
557.49	59590.04
557.65	59213.21
557.82	59423.86
557.98	59161.72
558.15	59381.73
558.32	59423.86
558.48	59185.13
558.65	59318.54
558.81	59721.11
558.98	59482.37
559.14	59531.53
559.31	59526.84
559.47	59571.32
559.64	59613.44
559.80	59821.75
559.97	59828.77
560.13	59613.44
560.30	59889.63
560.46	59781.96
560.63	59896.65
560.79	59746.86
560.96	59866.22
561.12	59873.24
561.29	59777.28
561.45	59774.94
561.61	59725.79
561.78	59723.45
561.94	59674.30
562.11	59838.14
562.27	59817.07
562.44	60018.36
562.60	59997.29
562.77	60062.83
562.93	59753.88
563.10	59983.25
563.26	60076.87
563.42	59929.42
563.59	59931.76
563.75	60048.78
563.92	59910.69
564.08	60053.47
564.24	60210.28
564.41	60114.32
564.57	60039.42
564.74	59898.99
564.90	60182.19
565.07	59868.56
565.23	60072.19
565.39	60111.98
565.56	60280.50
565.72	60224.32
565.88	60083.89
566.05	60062.83
566.21	59955.16
566.38	60200.92
566.54	60245.39
566.70	60364.76
566.87	60353.05
567.03	60259.43
567.19	60427.95
567.36	60397.52
567.52	60233.69
567.68	60474.76
567.85	60530.93
568.01	60416.25
568.17	60217.30
568.34	60357.74
568.50	60369.44
568.66	60430.29
568.83	60409.23
568.99	60317.95
569.15	60612.85
569.32	60463.06
569.48	60371.78
569.64	60437.31
569.81	60479.44
569.97	60355.39
570.13	60575.40
570.30	60245.39
570.46	60306.24
570.62	60521.57
570.78	60350.71
570.95	60491.15
571.11	60818.82
571.27	60495.83
571.43	60540.30
571.60	60591.79
571.76	60399.86
571.92	60406.89
572.09	60575.40
572.25	60474.76
572.41	60640.94
572.57	60626.90
572.74	60622.22
572.90	60615.19
573.06	60570.72
573.22	60561.36
573.38	60544.98
573.55	60439.65
573.71	60657.32
573.87	60647.96
574.03	60472.42
574.20	60631.58
574.36	60554.34
574.52	60610.51
574.68	60643.28
574.84	60837.54
575.01	60874.99
575.17	60458.38
575.33	60722.86
575.49	60594.13
575.65	60720.52
575.82	60898.40
575.98	60807.12
576.14	60830.52
576.30	60725.20
576.46	60736.90
576.62	60566.04
576.79	60554.34
576.95	60746.26
577.11	60617.53
577.27	60619.88
577.43	60762.65
577.59	60615.19
577.75	60708.82
577.92	60889.04
578.08	60802.44
578.24	60800.10
578.40	60769.67
578.56	61193.31
578.72	60954.57
578.88	60870.31
579.04	61034.15
579.21	60879.67
579.37	61076.28
579.53	60867.97
579.69	60718.18
579.85	60858.61
580.01	60767.33
580.17	60685.41
580.33	60650.30
580.49	60933.51
580.65	60825.84
580.82	60816.48
580.98	60774.35
581.14	60720.52
581.30	60893.72
581.46	60741.58
581.62	60856.27
581.78	60636.26
581.94	60882.02
582.10	60933.51
582.26	60774.35
582.42	60748.60
582.58	60762.65
582.74	60853.93
582.90	60786.05
583.06	60942.87
583.22	60601.15
583.38	60896.06
583.54	60893.72
583.70	60980.32
583.86	61244.80
584.02	60954.57
584.18	60945.21
584.34	60952.23
584.50	60910.10
584.66	60860.95
584.82	60753.29
584.98	60968.61
585.14	61104.37
585.30	60987.34
585.46	61137.13
585.62	60935.85
585.78	61078.62
585.94	60828.18
586.10	60870.31
586.26	60992.02
586.42	61174.58
586.58	60959.25
586.74	61104.37
586.90	60975.64
587.06	60961.59
587.22	61162.88
587.38	61059.90
587.54	60999.04
587.70	61216.71
587.86	60867.97
588.02	61062.24
588.18	61106.71
588.34	61048.19
