SpectraSuite Data File
++++++++++++++++++++++++++++++++++++
Date: Fri Oct 25 11:22:31 EDT 2013
User: price-jones
Dark Spectrum Present: No
Reference Spectrum Present: No
Number of Sampled Component Spectra: 1
Spectrometers: USB2+H05261
Integration Time (usec): 100000 (USB2+H05261)
Spectra Averaged: 1 (USB2+H05261)
Boxcar Smoothing: 0 (USB2+H05261)
Correct for Electrical Dark: No (USB2+H05261)
Strobe/Lamp Enabled: No (USB2+H05261)
Correct for Detector Non-linearity: No (USB2+H05261)
Correct for Stray Light: No (USB2+H05261)
Number of Pixels in Processed Spectrum: 2048
>>>>>Begin Processed Spectral Data<<<<<
365.73	149.79
365.92	149.79
366.12	149.79
366.32	152.13
366.52	95.96
366.72	131.07
366.91	93.62
367.11	126.39
367.31	168.52
367.51	138.09
367.70	135.75
367.90	135.75
368.10	149.79
368.30	124.05
368.49	67.88
368.69	91.28
368.89	159.16
369.09	131.07
369.28	187.24
369.48	177.88
369.68	238.73
369.87	189.58
370.07	159.16
370.27	184.90
370.47	273.84
370.66	587.47
370.86	676.41
371.06	753.65
371.25	683.44
371.45	746.63
371.65	620.24
371.84	664.71
372.04	596.84
372.24	720.88
372.44	741.95
372.63	720.88
372.83	716.20
373.03	683.44
373.22	751.31
373.42	695.14
373.62	798.12
373.81	779.40
374.01	821.53
374.21	837.91
374.40	812.17
374.60	847.27
374.79	812.17
374.99	753.65
375.19	826.21
375.38	854.30
375.58	877.70
375.78	856.64
375.97	814.51
376.17	875.36
376.37	826.21
376.56	873.02
376.76	856.64
376.95	968.98
377.15	805.14
377.35	898.77
377.54	901.11
377.74	858.98
377.93	903.45
378.13	812.17
378.33	973.66
378.52	840.25
378.72	919.83
378.91	959.62
379.11	959.62
379.31	980.68
379.50	924.51
379.70	1013.45
379.89	964.30
380.09	861.32
380.28	1015.79
380.48	992.39
380.68	903.45
380.87	971.32
381.07	964.30
381.26	976.00
381.46	985.37
381.65	1039.20
381.85	931.53
382.04	978.34
382.24	1060.26
382.43	1008.77
382.63	1137.50
382.83	1015.79
383.02	1064.94
383.22	1142.18
383.41	1071.97
383.61	1125.80
383.80	1196.01
384.00	1200.69
384.19	1118.78
384.39	1116.44
384.58	1188.99
384.78	1196.01
384.97	1184.31
385.17	1118.78
385.36	1156.22
385.56	1203.04
385.75	1139.84
385.95	1153.88
386.14	1217.08
386.34	1118.78
386.53	1245.16
386.72	1252.19
386.92	1308.36
387.11	1273.25
387.31	1284.95
387.50	1214.74
387.70	1177.29
387.89	1282.61
388.09	1366.87
388.28	1287.29
388.48	1369.21
388.67	1364.53
388.86	1350.49
389.06	1364.53
389.25	1275.59
389.45	1334.11
389.64	1303.68
389.84	1416.02
390.03	1458.15
390.22	1401.98
390.42	1334.11
390.61	1373.89
390.81	1383.26
391.00	1406.66
391.19	1451.13
391.39	1472.20
391.58	1465.18
391.78	1502.62
391.97	1444.11
392.16	1465.18
392.36	1502.62
392.55	1528.37
392.75	1568.16
392.94	1511.99
393.13	1519.01
393.33	1528.37
393.52	1600.93
393.71	1607.95
393.91	1626.67
394.10	1577.52
394.29	1589.22
394.49	1624.33
394.68	1659.44
394.88	1699.23
395.07	1612.63
395.26	1689.87
395.46	1701.57
395.65	1757.74
395.84	1685.19
396.04	1755.40
396.23	1760.08
396.42	1682.85
396.62	1785.83
396.81	1795.19
397.00	1832.64
397.19	1837.32
397.39	1849.02
397.58	1858.39
397.77	1825.62
397.97	1865.41
398.16	1905.20
398.35	1893.49
398.55	1877.11
398.74	1959.03
398.93	1994.14
399.12	1907.54
399.32	1895.83
399.51	1921.58
399.70	2071.37
399.90	1933.28
400.09	1987.11
400.28	2069.03
400.47	2022.22
400.67	2019.88
400.86	2143.93
401.05	2071.37
401.24	2169.68
401.44	2148.61
401.63	2047.97
401.82	2045.63
402.01	2143.93
402.21	2172.02
402.40	2139.25
402.59	2317.13
402.78	2200.10
402.97	2193.08
403.17	2289.04
403.36	2235.21
403.55	2228.19
403.74	2410.75
403.93	2326.49
404.13	2368.62
404.32	2298.41
404.51	2368.62
404.70	2459.90
404.89	2373.30
405.09	2539.48
405.28	2518.42
405.47	2546.50
405.66	2546.50
405.85	2551.18
406.05	2518.42
406.24	2722.04
406.43	2562.89
406.62	2621.40
406.81	2605.02
407.00	2679.91
407.20	2644.81
407.39	2647.15
407.58	2698.64
407.77	2799.28
407.96	2773.53
408.15	2813.32
408.34	2750.13
408.54	2888.22
408.73	2752.47
408.92	2892.90
409.11	2993.55
409.30	2935.03
409.49	2864.82
409.68	2965.46
409.87	3047.38
410.07	3000.57
410.26	3040.36
410.45	3019.29
410.64	2942.05
410.83	3133.98
411.02	3243.98
411.21	3169.09
411.40	3227.60
411.59	3281.43
411.78	3185.47
411.98	3304.84
412.17	3274.41
412.36	3325.90
412.55	3361.01
412.74	3452.29
412.93	3424.20
413.12	3307.18
413.31	3506.12
413.50	3548.25
413.69	3634.85
413.88	3588.04
414.07	3520.17
414.26	3779.97
414.45	3646.55
414.64	3728.47
414.83	3822.09
415.02	3733.15
415.22	3761.24
415.41	3859.54
415.60	3960.19
415.79	3934.44
415.98	3999.98
416.17	3983.59
416.36	4168.49
416.55	4049.13
416.74	4149.77
416.93	4229.35
417.12	4175.52
417.31	4170.83
417.50	4149.77
417.69	4329.99
417.88	4388.50
418.07	4236.37
418.26	4252.75
418.45	4290.20
418.64	4430.63
418.83	4571.07
419.02	4397.87
419.21	4592.13
419.39	4772.35
419.58	4631.92
419.77	4540.64
419.96	4748.95
420.15	4622.56
420.34	4585.11
420.53	4739.58
420.72	4758.31
420.91	4723.20
421.10	4772.35
421.29	4793.42
421.48	4744.27
421.67	4926.83
421.86	4751.29
422.05	4957.25
422.24	4891.72
422.43	4889.38
422.61	4837.89
422.80	4889.38
422.99	4983.00
423.18	4863.63
423.37	4849.59
423.56	4959.60
423.75	5076.62
423.94	4744.27
424.13	4746.61
424.32	4786.40
424.50	5039.17
424.69	5203.01
424.88	5186.63
425.07	4929.17
425.26	5008.75
425.45	5198.33
425.64	5057.90
425.83	5053.22
426.01	5034.49
426.20	5167.90
426.39	5121.09
426.58	5240.46
426.77	5076.62
426.96	5212.37
427.15	5076.62
427.33	5179.61
427.52	5259.18
427.71	5240.46
427.90	5291.95
428.09	5352.81
428.28	5495.58
428.46	5448.77
428.65	5441.75
428.84	5549.41
429.03	5598.56
429.22	5376.21
429.40	5586.86
429.59	5757.72
429.78	5453.45
429.97	5135.14
430.16	5666.44
430.34	5671.12
430.53	5771.76
430.72	5614.95
430.91	5628.99
431.10	5717.93
431.28	5825.59
431.47	5778.78
431.66	6031.56
431.85	5893.47
432.03	6078.37
432.22	5959.00
432.41	5909.85
432.60	5884.11
432.79	5928.58
432.97	6132.20
433.16	5912.19
433.35	6024.54
433.54	6085.39
433.72	6167.31
433.91	6043.26
434.10	6230.51
434.28	6267.95
434.47	6305.40
434.66	6417.75
434.85	6303.06
435.03	6375.62
435.22	6333.49
435.41	6525.41
435.59	6443.49
435.78	6689.25
435.97	6562.86
436.16	6459.88
436.34	6410.73
436.53	6569.88
436.72	6796.92
436.90	6745.42
437.09	6881.18
437.28	6558.18
437.46	6888.20
437.65	6747.76
437.84	6817.98
438.02	6967.77
438.21	6841.39
438.40	6825.00
438.58	7101.19
438.77	7052.03
438.96	6930.33
439.14	7222.89
439.33	7096.50
439.52	7417.16
439.70	7295.45
439.89	7419.50
440.08	7548.23
440.26	7351.62
440.45	7363.33
440.63	7496.74
440.82	7707.38
441.01	7599.72
441.19	7672.28
441.38	7644.19
441.57	7775.26
441.75	7875.90
441.94	8056.12
442.12	8060.80
442.31	7985.91
442.50	8021.02
442.68	8149.75
442.87	8191.88
443.05	8159.11
443.24	8407.20
443.43	8168.47
443.61	8250.39
443.80	8444.65
443.98	7978.89
444.17	7887.61
444.35	8145.06
444.54	8297.20
444.73	8414.23
444.91	8346.35
445.10	8262.09
445.28	8456.36
445.47	8416.57
445.65	8278.47
445.84	8676.37
446.02	8482.10
446.21	8669.34
446.39	8557.00
446.58	8788.71
446.77	8641.26
446.95	8304.22
447.14	8486.78
447.32	8725.52
447.51	8578.06
447.69	8648.28
447.88	8624.87
448.06	8629.56
448.25	8596.79
448.43	8741.90
448.62	8533.59
448.80	8713.81
448.99	8615.51
449.17	8793.39
449.36	8650.62
449.54	9104.68
449.73	9186.60
449.91	9205.33
450.10	8889.35
450.28	9020.42
450.46	9149.15
450.65	9050.85
450.83	9029.79
451.02	9085.96
451.20	9317.67
451.39	9081.28
451.57	9315.33
451.76	9156.18
451.94	9514.28
452.13	9369.16
452.31	9289.59
452.49	9301.29
452.68	9500.23
452.86	9479.17
453.05	9701.52
453.23	9401.93
453.42	9371.50
453.60	9584.49
453.78	9825.57
453.97	9537.68
454.15	9626.62
454.34	9823.23
454.52	9811.53
454.70	9905.15
454.89	9921.53
455.07	9731.95
455.26	9881.74
455.44	10068.98
455.62	9909.83
455.81	9778.76
455.99	10155.58
456.17	10059.62
456.36	10059.62
456.54	10342.83
456.73	10277.29
456.91	10490.28
457.09	10478.58
457.28	10623.69
457.46	10483.26
457.64	10511.35
457.83	10565.18
458.01	10581.56
458.19	10789.87
458.38	10609.65
458.56	10906.90
458.74	10691.57
458.93	10930.30
459.11	10731.36
459.29	10829.66
459.48	11070.73
459.66	10757.10
459.84	11061.37
460.03	11269.68
460.21	11178.40
460.39	10885.83
460.57	11044.99
460.76	11180.74
460.94	11461.60
461.12	11248.61
461.31	11227.55
461.49	11272.02
461.67	11335.21
461.85	11534.16
462.04	11496.71
462.22	12114.61
462.40	11555.22
462.59	11623.10
462.77	11721.40
462.95	11686.29
463.13	11707.36
463.32	11770.55
463.50	11913.33
463.68	12028.01
463.86	12011.63
464.05	11651.19
464.23	11983.54
464.41	12140.36
464.59	11868.86
464.78	12292.49
464.96	12063.12
465.14	11934.39
465.32	12285.47
465.50	11999.93
465.69	12243.34
465.87	12245.68
466.05	12437.61
466.23	12358.03
466.41	12451.65
466.60	12772.30
466.78	12353.35
466.96	12208.23
467.14	12404.84
467.32	12732.51
467.51	12903.37
467.69	12343.99
467.87	12683.36
468.05	12561.66
468.23	12849.54
468.41	12496.12
468.60	12699.75
468.78	12982.95
468.96	12512.50
469.14	13034.44
469.32	13137.43
469.50	12769.96
469.69	13198.28
469.87	13387.86
470.05	13289.56
470.23	13177.22
470.41	13270.84
470.59	13188.92
470.77	13235.73
470.95	13310.63
471.14	13397.23
471.32	13537.66
471.50	13575.11
471.68	13774.05
471.86	13832.57
472.04	13713.20
472.22	14314.72
472.40	13975.34
472.58	13900.44
472.77	14068.96
472.95	14345.14
473.13	14574.52
473.31	14104.07
473.49	14111.09
473.67	14586.22
473.85	14684.52
474.03	14654.09
474.21	14600.26
474.39	14824.95
474.57	14637.71
474.75	15166.67
474.93	14848.36
475.12	14923.26
475.30	15295.40
475.48	15178.37
475.66	15482.64
475.84	15356.25
476.02	15648.82
476.20	15412.43
476.38	15899.26
476.56	16128.63
476.74	16315.87
476.92	15964.79
477.10	16238.64
477.28	16205.87
477.46	16446.94
477.64	16840.15
477.82	16662.27
478.00	16968.88
478.18	16877.60
478.36	16886.97
478.54	17322.30
478.72	17448.69
478.90	17390.18
479.08	17837.22
479.26	18160.22
479.44	18001.06
479.62	18092.34
479.80	18326.39
479.98	18132.13
480.16	18780.46
480.34	18586.19
480.52	18850.67
480.70	18656.41
480.88	18478.53
481.06	18916.21
481.24	19171.33
481.41	19227.50
481.59	19475.60
481.77	19618.37
481.95	19866.47
482.13	20027.96
482.31	19915.62
482.49	20477.35
482.67	20449.26
482.85	20755.87
483.03	21022.69
483.21	21020.35
483.39	21170.15
483.57	21067.16
483.74	21441.65
483.92	21628.89
484.10	21446.33
484.28	22064.23
484.46	22256.15
484.64	22668.09
484.82	22342.75
485.00	22263.18
485.18	22937.25
485.35	23496.64
485.53	22930.23
485.71	23541.11
485.89	23779.84
486.07	23620.69
486.25	24039.64
486.43	23903.89
486.61	24098.16
486.78	24662.22
486.96	24533.50
487.14	25025.01
487.32	24734.78
487.50	25090.54
487.68	25214.59
487.85	25757.60
488.03	25975.27
488.21	26335.71
488.39	26008.03
488.57	26668.06
488.75	26810.84
488.92	26703.17
489.10	27236.81
489.28	27292.99
489.46	27744.71
489.64	27239.15
489.81	28219.84
489.99	27740.03
490.17	27943.66
490.35	28446.87
490.53	28847.10
490.70	28699.65
490.88	28638.80
491.06	29275.42
491.24	29153.71
491.41	29319.89
491.59	29645.23
491.77	29741.19
491.95	29832.47
492.13	30309.94
492.30	30518.25
492.48	30508.88
492.66	30218.66
492.84	30403.56
493.01	30939.54
493.19	31189.98
493.37	31180.62
493.54	31126.78
493.72	31938.95
493.90	31529.36
494.08	32142.58
494.25	32512.38
494.43	32376.63
494.61	32669.20
494.79	32730.05
494.96	33406.47
495.14	33083.47
495.32	33769.25
495.49	33467.32
495.67	33780.95
495.85	34024.37
496.02	34007.98
496.20	34483.11
496.38	34417.58
496.55	34658.65
496.73	35180.59
496.91	34838.87
497.09	35026.12
497.26	35283.58
497.44	35281.24
497.62	35739.98
497.79	36374.27
497.97	35828.92
498.14	36495.97
498.32	36463.21
498.50	36891.52
498.67	37476.66
498.85	36613.00
499.03	37099.83
499.20	36924.29
499.38	37261.33
499.56	37792.63
499.73	37649.86
499.91	37902.64
500.08	38066.47
500.26	37848.80
500.44	38239.67
500.61	38700.76
500.79	38501.81
500.97	38443.30
501.14	39065.88
501.32	39122.05
501.49	38684.37
501.67	39012.05
501.84	39578.46
502.02	39587.82
502.20	39529.31
502.37	39489.52
502.55	39683.78
502.72	39929.54
502.90	40032.52
503.07	40116.78
503.25	40481.91
503.43	40151.89
503.60	40587.23
503.78	40886.82
503.95	40748.73
504.13	40818.94
504.30	41031.93
504.48	41223.86
504.65	41247.26
504.83	41308.11
505.01	41717.71
505.18	41748.14
505.36	42251.35
505.53	41755.16
505.71	42707.76
505.88	42522.85
506.06	41963.46
506.23	42628.18
506.41	42511.15
506.58	42459.66
506.76	42672.65
506.93	42782.65
507.11	42801.38
507.28	43262.46
507.46	43260.12
507.63	43594.82
507.81	44144.84
507.98	43463.75
508.16	43796.10
508.33	43578.43
508.50	43761.00
508.68	44091.01
508.85	44392.94
509.03	44271.23
509.20	44648.06
509.38	44676.15
509.55	44851.69
509.73	44690.19
509.90	45097.44
510.08	45385.33
510.25	44905.52
510.42	45404.05
510.60	45485.97
510.77	45160.64
510.95	45961.10
511.12	45776.20
511.30	45485.97
511.47	45961.10
511.64	46026.63
511.82	46431.55
511.99	45991.53
512.17	46639.86
512.34	46155.36
512.51	46941.78
512.69	47107.96
512.86	46885.61
513.04	46831.78
513.21	47178.18
513.38	47304.57
513.56	47391.17
513.73	47049.45
513.90	47597.13
514.08	47112.64
514.25	47625.22
514.43	47767.99
514.60	47859.27
514.77	48123.75
514.95	48350.79
515.12	48011.41
515.29	48065.24
515.47	48233.76
515.64	48956.99
515.81	48568.46
515.99	48538.03
516.16	48891.45
516.33	48921.88
516.51	49045.93
516.68	49158.27
516.85	49081.03
517.03	49261.26
517.20	49364.24
517.37	49291.68
517.54	49081.03
517.72	49619.36
517.89	49766.81
518.06	49708.30
518.24	49539.78
518.41	49673.19
518.58	49593.61
518.75	49720.00
518.93	49715.32
519.10	49937.67
519.27	50328.54
519.45	50087.46
519.62	50314.50
519.79	50384.71
519.96	50361.31
520.14	50548.55
520.31	50684.30
520.48	50719.41
520.65	50520.46
520.83	51295.18
521.00	51126.66
521.17	50770.90
521.34	51044.74
521.52	51288.16
521.69	51459.02
521.86	51351.35
522.03	51592.43
522.20	51735.20
522.38	51742.22
522.55	51767.97
522.72	51707.12
522.89	51793.71
523.07	52306.29
523.24	51791.37
523.41	52126.07
523.58	52032.45
523.75	52486.51
523.92	51875.63
524.10	52439.70
524.27	52402.25
524.44	52374.17
524.61	52612.90
524.78	52062.88
524.96	52535.66
525.13	52580.13
525.30	52767.38
525.47	52863.34
525.64	52685.46
525.81	53003.77
525.98	53207.40
526.16	53146.54
526.33	53125.48
526.50	53535.07
526.67	53179.31
526.84	53216.76
527.01	53270.59
527.18	53345.49
527.36	53429.75
527.53	53411.02
527.70	53467.20
527.87	53544.44
528.04	53612.31
528.21	53778.49
528.38	53703.59
528.55	53757.42
528.72	53446.13
528.89	54096.80
529.07	53680.19
529.24	53727.00
529.41	54178.72
529.58	53942.33
529.75	54164.68
529.92	54490.01
530.09	54120.21
530.26	53961.05
530.43	54520.44
530.60	53956.37
530.77	54148.29
530.94	54536.82
531.11	54323.83
531.28	54646.83
531.46	54415.11
531.63	54632.78
531.80	54915.99
531.97	54958.12
532.14	54813.01
532.31	54536.82
532.48	54927.69
532.65	54925.35
532.82	54754.49
532.99	55248.35
533.16	54955.78
533.33	55248.35
533.50	55269.41
533.67	55348.99
533.84	55262.39
534.01	55009.61
534.18	55217.92
534.35	55526.87
534.52	55405.16
534.69	55419.20
534.86	55620.49
535.03	55346.65
535.20	55669.64
535.37	55884.97
535.54	55791.35
535.71	55529.21
535.88	55948.17
536.05	55606.45
536.22	55882.63
536.38	56076.90
536.55	55620.49
536.72	55959.87
536.89	55847.52
537.06	56083.92
537.23	56231.37
537.40	55955.19
537.57	55927.10
537.74	55985.61
537.91	56170.52
538.08	56500.53
538.25	56039.45
538.42	56065.19
538.59	56353.08
538.75	56212.65
538.92	56430.32
539.09	56362.44
539.26	56357.76
539.43	56526.28
539.60	56697.14
539.77	56502.87
539.94	56666.71
540.11	56676.07
540.28	56554.36
540.44	56669.05
540.61	56685.43
540.78	56678.41
540.95	56662.03
541.12	56598.83
541.29	56559.05
541.46	57038.86
541.62	57045.88
541.79	56757.99
541.96	56807.14
542.13	56893.74
542.30	57097.37
542.47	57268.23
542.63	57057.58
542.80	57279.93
542.97	57251.84
543.14	57251.84
543.31	57616.97
543.48	57380.57
543.64	57609.95
543.81	57801.87
543.98	57661.44
544.15	57621.65
544.32	57572.50
544.48	58049.97
544.65	57729.31
544.82	57598.24
544.99	57530.37
545.16	57836.98
545.32	57769.10
545.49	58103.80
545.66	58164.65
545.83	57834.64
546.00	57841.66
546.16	57853.36
546.33	57623.99
546.50	57663.78
546.67	57893.15
546.83	57621.65
547.00	58071.03
547.17	57853.36
547.34	57982.09
547.50	58267.64
547.67	58403.39
547.84	58174.02
548.00	58468.92
548.17	58464.24
548.34	58298.06
548.51	58499.35
548.67	58468.92
548.84	58672.55
549.01	58459.56
549.18	58515.73
549.34	58438.50
549.51	58473.60
549.68	58693.61
549.84	58548.50
550.01	58834.05
550.18	58534.46
550.34	58637.44
550.51	58960.44
550.68	58749.79
550.84	58461.90
551.01	58859.79
551.18	58686.59
551.34	58604.67
551.51	59035.33
551.68	58829.37
551.84	58922.99
552.01	58611.70
552.18	59035.33
552.34	58911.28
552.51	58796.60
552.68	58967.46
552.84	58918.31
553.01	59234.28
553.18	58925.33
553.34	59337.26
553.51	59016.61
553.67	59075.12
553.84	59243.64
554.01	59337.26
554.17	59463.65
554.34	59138.32
554.51	59264.70
554.67	59290.45
554.84	59093.85
555.00	59103.21
555.17	59341.94
555.33	59274.07
555.50	59154.70
555.67	59103.21
555.83	59365.35
556.00	59283.43
556.16	59765.58
556.33	59470.67
556.50	59522.16
556.66	59512.80
556.83	59241.30
556.99	59501.10
557.16	59817.07
557.32	59749.20
557.49	59856.86
557.65	59735.15
557.82	59587.70
557.98	59634.51
558.15	59770.26
558.32	59779.62
558.48	59615.79
558.65	59657.91
558.81	59840.48
558.98	59910.69
559.14	59807.71
559.31	59805.37
559.47	59894.31
559.64	60018.36
559.80	60046.44
559.97	60016.02
560.13	59987.93
560.30	60161.13
560.46	59938.78
560.63	60058.15
560.79	60114.32
560.96	60163.47
561.12	60177.51
561.29	60039.42
561.45	60062.83
561.61	60163.47
561.78	60200.92
561.94	60217.30
562.11	60205.60
562.27	60245.39
562.44	60186.88
562.60	60221.98
562.77	60191.56
562.93	60144.75
563.10	60357.74
563.26	60165.81
563.42	60369.44
563.59	60280.50
563.75	60348.37
563.92	60322.63
564.08	60336.67
564.24	60378.80
564.41	60324.97
564.57	60507.53
564.74	60491.15
564.90	60456.04
565.07	60465.40
565.23	60364.76
565.39	60266.45
565.56	60640.94
565.72	60378.80
565.88	60460.72
566.05	60369.44
566.21	60491.15
566.38	60456.04
566.54	60673.71
566.70	60704.13
566.87	60781.37
567.03	60458.38
567.19	60577.75
567.36	60493.49
567.52	60523.91
567.68	60769.67
567.85	60788.39
568.01	60605.83
568.17	60598.81
568.34	60779.03
568.50	60561.36
568.66	60512.21
568.83	60772.01
568.99	60474.76
569.15	60720.52
569.32	60596.47
569.48	60741.58
569.64	60818.82
569.81	60729.88
569.97	60767.33
570.13	60715.84
570.30	60502.85
570.46	60889.04
570.62	60872.65
570.78	60776.69
570.95	60863.29
571.11	61015.43
571.27	60788.39
571.43	60921.80
571.60	61024.79
571.76	60774.35
571.92	60874.99
572.09	60760.31
572.25	60980.32
572.41	60959.25
572.57	60907.76
572.74	61109.05
572.90	60781.37
573.06	61134.79
573.22	60877.33
573.38	61123.09
573.55	60872.65
573.71	60994.36
573.87	60999.04
574.03	60748.60
574.20	60945.21
574.36	60928.83
574.52	61095.00
574.68	61202.67
574.84	61165.22
575.01	61158.20
575.17	60982.66
575.33	61017.77
575.49	61043.51
575.65	60919.46
575.82	61043.51
575.98	61003.72
576.14	60985.00
576.30	61286.93
576.46	61052.87
576.62	60994.36
576.79	60949.89
576.95	60947.55
577.11	61336.08
577.27	61113.73
577.43	61029.47
577.59	60898.40
577.75	60975.64
577.92	61087.98
578.08	60900.74
578.24	61155.86
578.40	61139.47
578.56	61188.63
578.72	61226.07
578.88	61169.90
579.04	61235.44
579.21	61272.88
579.37	61296.29
579.53	61338.42
579.69	60999.04
579.85	61256.50
580.01	61151.18
580.17	61172.24
580.33	61322.04
580.49	61268.20
580.65	61071.60
580.82	61099.68
580.98	61006.06
581.14	61010.74
581.30	61205.01
581.46	61190.97
581.62	61230.75
581.78	61226.07
581.94	61179.26
582.10	61205.01
582.26	61216.71
582.42	61212.03
582.58	61127.77
582.74	61169.90
582.90	61223.73
583.06	61190.97
583.22	61020.11
583.38	61471.83
583.54	61272.88
583.70	61284.59
583.86	61343.10
584.02	61172.24
584.18	61226.07
584.34	61251.82
584.50	61064.58
584.66	61197.99
584.82	61071.60
584.98	61464.81
585.14	61345.44
585.30	61343.10
585.46	61329.06
585.62	61188.63
585.78	61455.45
585.94	61071.60
586.10	61403.95
586.26	61277.57
586.42	61347.78
586.58	61371.19
586.74	61345.44
586.90	61345.44
587.06	61420.34
587.22	61389.91
587.38	61382.89
587.54	61310.33
587.70	61544.39
587.86	61125.43
588.02	61305.65
588.18	61673.12
588.34	61317.35
588.49	61174.58
