SpectraSuite Data File
++++++++++++++++++++++++++++++++++++
Date: Fri Oct 25 10:44:55 EDT 2013
User: price-jones
Dark Spectrum Present: No
Reference Spectrum Present: No
Number of Sampled Component Spectra: 1
Spectrometers: USB2+H05261
Integration Time (usec): 100000 (USB2+H05261)
Spectra Averaged: 1 (USB2+H05261)
Boxcar Smoothing: 0 (USB2+H05261)
Correct for Electrical Dark: No (USB2+H05261)
Strobe/Lamp Enabled: No (USB2+H05261)
Correct for Detector Non-linearity: No (USB2+H05261)
Correct for Stray Light: No (USB2+H05261)
Number of Pixels in Processed Spectrum: 2048
>>>>>Begin Processed Spectral Data<<<<<
365.73	180.22
365.92	180.22
366.12	180.22
366.32	28.09
366.52	16.38
366.72	65.54
366.91	0.00
367.11	88.94
367.31	0.00
367.51	2.34
367.70	0.00
367.90	11.70
368.10	11.70
368.30	60.85
368.49	53.83
368.69	107.66
368.89	86.60
369.09	49.15
369.28	25.75
369.48	51.49
369.68	35.11
369.87	74.90
370.07	102.98
370.27	154.48
370.47	229.37
370.66	376.83
370.86	416.62
371.06	470.45
371.25	493.85
371.45	393.21
371.65	484.49
371.84	472.79
372.04	435.34
372.24	435.34
372.44	493.85
372.63	484.49
372.83	503.22
373.03	503.22
373.22	461.09
373.42	470.45
373.62	475.13
373.81	514.92
374.01	559.39
374.21	540.66
374.40	545.34
374.60	571.09
374.79	526.62
374.99	535.98
375.19	517.26
375.38	566.41
375.58	559.39
375.78	594.50
375.97	517.26
376.17	641.31
376.37	610.88
376.56	587.47
376.76	571.09
376.95	573.43
377.15	603.86
377.35	603.86
377.54	601.52
377.74	592.16
377.93	613.22
378.13	578.11
378.33	636.63
378.52	547.69
378.72	568.75
378.91	631.94
379.11	610.88
379.31	634.29
379.50	533.64
379.70	676.41
379.89	638.97
380.09	662.37
380.28	645.99
380.48	594.50
380.68	631.94
380.87	648.33
381.07	720.88
381.26	699.82
381.46	692.80
381.65	643.65
381.85	706.84
382.04	634.29
382.24	678.76
382.43	730.25
382.63	643.65
382.83	706.84
383.02	716.20
383.22	660.03
383.41	699.82
383.61	674.07
383.80	709.18
384.00	692.80
384.19	716.20
384.39	716.20
384.58	767.70
384.78	683.44
384.97	744.29
385.17	746.63
385.36	734.93
385.56	770.04
385.75	620.24
385.95	758.33
386.14	723.23
386.34	798.12
386.53	767.70
386.72	695.14
386.92	805.14
387.11	720.88
387.31	704.50
387.50	793.44
387.70	739.61
387.89	753.65
388.09	842.59
388.28	814.51
388.48	835.57
388.67	830.89
388.86	826.21
389.06	823.87
389.25	866.00
389.45	903.45
389.64	814.51
389.84	887.06
390.03	830.89
390.22	903.45
390.42	933.87
390.61	873.02
390.81	957.28
391.00	915.15
391.19	1020.47
391.39	1036.86
391.58	929.19
391.78	1032.18
391.97	863.66
392.16	936.21
392.36	999.41
392.55	961.96
392.75	863.66
392.94	957.28
393.13	828.55
393.33	856.64
393.52	915.15
393.71	926.85
393.91	985.37
394.10	1055.58
394.29	1095.37
394.49	1055.58
394.68	1107.07
394.88	1104.73
395.07	1013.45
395.26	1151.54
395.46	1039.20
395.65	1057.92
395.84	1123.46
396.04	1179.63
396.23	1048.56
396.42	1086.01
396.62	1088.35
396.81	1067.28
397.00	1235.80
397.19	1118.78
397.39	1277.93
397.58	1273.25
397.77	1240.48
397.97	1308.36
398.16	1289.64
398.35	1357.51
398.55	1317.72
398.74	1320.06
398.93	1364.53
399.12	1268.57
399.32	1352.83
399.51	1322.40
399.70	1345.81
399.90	1287.29
400.09	1362.19
400.28	1434.75
400.47	1399.64
400.67	1366.87
400.86	1432.41
401.05	1416.02
401.24	1469.86
401.44	1500.28
401.63	1542.41
401.82	1474.54
402.01	1500.28
402.21	1523.69
402.40	1607.95
402.59	1472.20
402.78	1568.16
402.97	1535.39
403.17	1568.16
403.36	1516.67
403.55	1575.18
403.74	1612.63
403.93	1633.69
404.13	1629.01
404.32	1671.14
404.51	1650.08
404.70	1650.08
404.89	1668.80
405.09	1694.55
405.28	1680.50
405.47	1685.19
405.66	1788.17
405.85	1699.23
406.05	1638.38
406.24	1696.89
406.43	1846.68
406.62	1947.33
406.81	1842.00
407.00	1809.23
407.20	1884.13
407.39	1919.24
407.58	1879.45
407.77	1837.32
407.96	1975.41
408.15	1933.28
408.34	1944.99
408.54	1902.86
408.73	2062.01
408.92	2017.54
409.11	2083.08
409.30	2129.89
409.49	2045.63
409.68	2066.69
409.87	1991.80
410.07	2167.34
410.26	2005.84
410.45	2165.00
410.64	2125.21
410.83	2223.51
411.02	2193.08
411.21	2218.83
411.40	2239.89
411.59	2279.68
411.78	2293.72
411.98	2293.72
412.17	2230.53
412.36	2317.13
412.55	2319.47
412.74	2408.41
412.93	2387.35
413.12	2303.09
413.31	2483.31
413.50	2490.33
413.69	2480.97
413.88	2558.21
414.07	2588.63
414.26	2525.44
414.45	2614.38
414.64	2574.59
414.83	2670.55
415.02	2717.36
415.22	2614.38
415.41	2708.00
415.60	2661.19
415.79	2747.79
415.98	2906.95
416.17	2925.67
416.36	2820.35
416.55	2806.30
416.74	2787.58
416.93	2937.37
417.12	2883.54
417.31	2928.01
417.50	2815.66
417.69	3035.67
417.88	3030.99
418.07	3108.23
418.26	3056.74
418.45	3087.17
418.64	3063.76
418.83	3103.55
419.02	3098.87
419.21	3377.39
419.39	3178.45
419.58	3197.17
419.77	3169.09
419.96	3330.58
420.15	3222.92
420.34	3258.03
420.53	3344.63
420.72	3552.93
420.91	3295.47
421.10	3442.93
421.29	3393.78
421.48	3396.12
421.67	3527.19
421.86	3442.93
422.05	3440.59
422.24	3459.31
422.43	3478.04
422.61	3550.59
422.80	3452.29
422.99	3513.14
423.18	3485.06
423.37	3487.40
423.56	3412.50
423.75	3412.50
423.94	3323.56
424.13	3253.34
424.32	3349.31
424.50	3529.53
424.69	3541.23
424.88	3623.15
425.07	3412.50
425.26	3536.55
425.45	3503.78
425.64	3487.40
425.83	3538.89
426.01	3632.51
426.20	3679.32
426.39	3583.36
426.58	3412.50
426.77	3655.92
426.96	3688.68
427.15	3632.51
427.33	3618.47
427.52	3698.05
427.71	3627.83
427.90	3824.44
428.09	3639.53
428.28	3641.87
428.46	3922.74
428.65	3719.11
428.84	3829.12
429.03	3941.46
429.22	3784.65
429.40	3789.33
429.59	3765.92
429.78	3618.47
429.97	3536.55
430.16	3719.11
430.34	3840.82
430.53	3857.20
430.72	3786.99
430.91	3831.46
431.10	3810.39
431.28	4126.36
431.47	4126.36
431.66	4191.90
431.85	4021.04
432.03	4189.56
432.22	4269.14
432.41	4145.09
432.60	4131.05
432.79	4180.20
432.97	4311.27
433.16	4250.41
433.35	4124.02
433.54	4131.05
433.72	4231.69
433.91	4257.43
434.10	4346.37
434.28	4383.82
434.47	4341.69
434.66	4547.66
434.85	4486.81
435.03	4580.43
435.22	4283.18
435.41	4526.60
435.59	4615.54
435.78	4571.07
435.97	4713.84
436.16	4580.43
436.34	4671.71
436.53	4667.03
436.72	4880.02
436.90	4592.13
437.09	4620.22
437.28	4505.53
437.46	4610.86
437.65	4629.58
437.84	4608.51
438.02	4746.61
438.21	4681.07
438.40	4798.10
438.58	4741.93
438.77	4912.78
438.96	5015.77
439.14	4968.96
439.33	5039.17
439.52	5142.16
439.70	4999.38
439.89	5158.54
440.08	5027.47
440.26	5135.14
440.45	5163.22
440.63	5261.52
440.82	5376.21
441.01	5488.56
441.19	5392.59
441.38	5427.70
441.57	5329.40
441.75	5511.96
441.94	5612.60
442.12	5605.58
442.31	5657.07
442.50	5540.05
442.68	5521.32
442.87	5612.60
443.05	5891.13
443.24	5746.02
443.43	5760.06
443.61	5849.00
443.80	5750.70
443.98	5706.23
444.17	5699.20
444.35	5902.83
444.54	5900.49
444.73	5687.50
444.91	5837.30
445.10	5727.29
445.28	5987.09
445.47	5696.86
445.65	5809.21
445.84	5865.38
446.02	5839.64
446.21	5951.98
446.39	5741.33
446.58	5923.90
446.77	5921.56
446.95	5832.62
447.14	5940.28
447.32	5942.62
447.51	5846.66
447.69	5959.00
447.88	6024.54
448.06	5998.79
448.25	5914.53
448.43	6090.07
448.62	5926.24
448.80	6036.24
448.99	6129.86
449.17	6115.82
449.36	6064.33
449.54	6186.04
449.73	6361.58
449.91	6207.10
450.10	6298.38
450.28	6429.45
450.46	6429.45
450.65	6223.48
450.83	6530.09
451.02	6375.62
451.20	6333.49
451.39	6321.79
451.57	6476.26
451.76	6443.49
451.94	6527.75
452.13	6464.56
452.31	6555.84
452.49	6209.44
452.68	6363.92
452.86	6480.94
453.05	6403.71
453.23	6668.19
453.42	6555.84
453.60	6541.80
453.78	6604.99
453.97	6389.66
454.15	6551.16
454.34	6525.41
454.52	6808.62
454.70	6782.87
454.89	6794.58
455.07	6745.42
455.26	6759.47
455.44	6974.80
455.62	6867.13
455.81	6916.28
455.99	6951.39
456.17	6881.18
456.36	6897.56
456.54	7094.16
456.73	7056.72
456.91	7045.01
457.09	7084.80
457.28	7396.09
457.46	7077.78
457.64	7463.97
457.83	7258.00
458.01	7080.12
458.19	7335.24
458.38	7314.17
458.56	7452.27
458.74	7323.54
458.93	7157.36
459.11	7433.54
459.29	7485.03
459.48	7419.50
459.66	7316.51
459.84	7262.68
460.03	7716.75
460.21	7768.24
460.39	7442.90
460.57	7581.00
460.76	7726.11
460.94	7702.70
461.12	7707.38
461.31	7775.26
461.49	7576.31
461.67	7676.96
461.85	8009.31
462.04	7658.23
462.22	8016.33
462.40	7962.50
462.59	7976.55
462.77	7934.42
462.95	7882.92
463.13	7889.95
463.32	8049.10
463.50	8037.40
463.68	8128.68
463.86	8056.12
464.05	8131.02
464.23	8142.72
464.41	8131.02
464.59	8182.51
464.78	8327.63
464.96	8166.13
465.14	8072.51
465.32	8163.79
465.50	8154.43
465.69	8294.86
465.87	8390.82
466.05	8250.39
466.23	8161.45
466.41	8121.66
466.60	8339.33
466.78	8346.35
466.96	8325.29
467.14	8248.05
467.32	8470.40
467.51	8596.79
467.69	8205.92
467.87	8425.93
468.05	8678.71
468.23	8435.29
468.41	8575.72
468.60	8718.50
468.78	8592.11
468.96	8652.96
469.14	8837.86
469.32	8631.90
469.50	8580.40
469.69	8805.10
469.87	8872.97
470.05	8805.10
470.23	8784.03
470.41	8877.65
470.59	8952.55
470.77	8903.40
470.95	9245.12
471.14	9128.09
471.32	8795.73
471.50	9081.28
471.68	9193.62
471.86	9467.47
472.04	9245.12
472.22	9401.93
472.40	9413.63
472.58	9324.69
472.77	9366.82
472.95	9401.93
473.13	9867.70
473.31	9572.79
473.49	9425.34
473.67	9666.41
473.85	9645.35
474.03	9966.00
474.21	9900.47
474.39	9879.40
474.57	10026.86
474.75	10106.43
474.93	10209.42
475.12	10239.84
475.30	10420.06
475.48	10312.40
475.66	10289.00
475.84	9902.81
476.02	10387.30
476.20	10305.38
476.38	10480.92
476.56	10895.19
476.74	10743.06
476.92	10771.15
477.10	10771.15
477.28	10899.87
477.46	10949.03
477.64	11084.78
477.82	11288.40
478.00	11496.71
478.18	11253.30
478.36	11391.39
478.54	11454.58
478.72	11651.19
478.90	11592.67
479.08	11721.40
479.26	11822.05
479.44	11992.90
479.62	11800.98
479.80	11981.20
479.98	12123.98
480.16	12154.40
480.34	12063.12
480.52	12367.39
480.70	12311.22
480.88	12327.60
481.06	12533.57
481.24	12486.76
481.41	12475.06
481.59	13027.42
481.77	12980.61
481.95	12865.92
482.13	13224.03
482.31	13123.38
482.49	13345.73
482.67	13465.10
482.85	13764.69
483.03	13764.69
483.21	13720.22
483.39	14024.49
483.57	13963.64
483.74	14064.28
483.92	13886.40
484.10	14204.71
484.28	14534.73
484.46	14794.53
484.64	14979.43
484.82	14462.17
485.00	14719.63
485.18	14946.66
485.35	14841.34
485.53	14658.78
485.71	14899.85
485.89	15599.67
486.07	15522.43
486.25	15365.62
486.43	15463.92
486.61	15873.51
486.78	15679.25
486.96	15917.98
487.14	16049.05
487.32	16189.49
487.50	16421.20
487.68	16521.84
487.85	16870.58
488.03	16863.56
488.21	16802.71
488.39	16938.46
488.57	17172.51
488.75	17254.43
488.92	17525.93
489.10	17755.30
489.28	17642.96
489.46	17642.96
489.64	17841.90
489.81	18328.74
489.99	18464.49
490.17	18321.71
490.35	18506.62
490.53	18490.23
490.70	18443.42
490.88	18518.32
491.06	19147.92
491.24	19091.75
491.41	18944.30
491.59	19040.26
491.77	19033.24
491.95	19311.76
492.13	19590.28
492.30	19836.04
492.48	19653.48
492.66	19845.40
492.84	20142.65
493.01	19990.52
493.19	20114.56
493.37	20210.53
493.54	20467.98
493.72	20823.75
493.90	20807.36
494.08	20769.91
494.25	21193.55
494.43	21006.31
494.61	21443.99
494.79	21221.64
494.96	21238.02
495.14	21263.77
495.32	21539.95
495.49	21797.41
495.67	21766.98
495.85	21994.01
496.02	22167.21
496.20	22019.76
496.38	22263.18
496.55	22314.67
496.73	22925.55
496.91	22567.45
497.09	22675.11
497.26	23119.81
497.44	22466.80
497.62	23484.94
497.79	23562.17
497.97	23213.43
498.14	23665.16
498.32	23239.18
498.50	23276.63
498.67	24182.42
498.85	24004.53
499.03	23992.83
499.20	24325.19
499.38	24182.42
499.56	24184.76
499.73	24016.24
499.91	24254.97
500.08	24538.18
500.26	24109.86
500.44	24624.78
500.61	24629.46
500.79	24453.92
500.97	24678.61
501.14	24718.40
501.32	25022.67
501.49	24868.19
501.67	24952.45
501.84	25441.62
502.02	25383.11
502.20	25511.84
502.37	25832.49
502.55	25825.47
502.72	25722.49
502.90	25544.61
503.07	25525.88
503.25	25724.83
503.43	25731.85
503.60	25804.41
503.78	25989.31
503.95	26291.24
504.13	26008.03
504.30	26562.74
504.48	26281.88
504.65	26754.66
504.83	26679.77
505.01	26972.33
505.18	26410.60
505.36	27147.87
505.53	27161.92
505.71	27417.04
505.88	27414.69
506.06	27445.12
506.23	27105.74
506.41	27089.36
506.58	27330.44
506.76	27534.06
506.93	27805.56
507.11	27782.16
507.28	27779.82
507.46	27761.09
507.63	27775.14
507.81	28023.23
507.98	27852.38
508.16	28037.28
508.33	28259.63
508.50	28416.44
508.68	28580.28
508.85	28828.38
509.03	28753.48
509.20	28739.44
509.38	28683.27
509.55	29116.26
509.73	28652.84
509.90	28989.88
510.08	29312.87
510.25	29179.46
510.42	29043.71
510.60	29385.43
510.77	29596.07
510.95	29879.28
511.12	29626.50
511.30	29528.20
511.47	29848.85
511.64	29809.06
511.82	29970.56
511.99	29937.79
512.17	29834.81
512.34	29855.87
512.51	30150.78
512.69	30272.49
512.86	30679.74
513.04	30609.53
513.21	30738.26
513.38	30291.21
513.56	30572.08
513.73	30190.57
513.90	30656.34
514.08	30909.11
514.25	30953.58
514.43	30719.53
514.60	30965.29
514.77	31058.91
514.95	31248.49
515.12	31363.18
515.29	31379.56
515.47	31901.50
515.64	31674.47
515.81	31515.31
515.99	31803.20
516.16	31632.34
516.33	31349.14
516.51	31824.26
516.68	31309.35
516.85	31559.78
517.03	31950.65
517.20	31466.16
517.37	31784.48
517.54	32065.34
517.72	32077.04
517.89	31960.02
518.06	32163.64
518.24	32119.17
518.41	32025.55
518.58	32395.35
518.75	32151.94
518.93	32285.35
519.10	32060.66
519.27	32662.18
519.45	32823.67
519.62	32755.80
519.79	32882.19
519.96	32999.21
520.14	33249.65
520.31	32971.13
520.48	33324.55
520.65	33024.96
520.83	33614.77
521.00	33336.25
521.17	33661.58
521.34	33530.51
521.52	33741.16
521.69	33610.09
521.86	33579.67
522.03	33645.20
522.20	33912.02
522.38	34075.86
522.55	34284.17
522.72	33883.94
522.89	34195.23
523.07	34417.58
523.24	34089.90
523.41	34656.31
523.58	34366.09
523.75	34550.99
523.92	34787.38
524.10	34897.39
524.27	34890.37
524.44	34726.53
524.61	34967.60
524.78	35192.30
524.96	34778.02
525.13	35098.67
525.30	35206.34
525.47	35484.86
525.64	35716.58
525.81	35054.20
525.98	35178.25
526.16	35204.00
526.33	35089.31
526.50	35103.35
526.67	35030.80
526.84	35297.62
527.01	35049.52
527.18	35754.02
527.36	35145.48
527.53	35578.48
527.70	36336.82
527.87	35959.99
528.04	35782.11
528.21	35974.03
528.38	36168.30
528.55	36364.90
528.72	36259.58
528.89	36154.26
529.07	36357.88
529.24	36273.62
529.41	36329.80
529.58	36233.83
529.75	36423.42
529.92	36615.34
530.09	36442.14
530.26	36648.11
530.43	36982.80
530.60	36425.76
530.77	36655.13
530.94	36617.68
531.11	36723.01
531.28	37322.18
531.46	37085.79
531.63	37354.95
531.80	36985.15
531.97	37029.62
532.14	37050.68
532.31	36795.56
532.48	37003.87
532.65	37457.93
532.82	37158.34
532.99	37340.91
533.16	37205.16
533.33	37282.39
533.50	37912.00
533.67	37860.51
533.84	37741.14
534.01	37661.56
534.18	37511.77
534.35	37766.88
534.52	38401.17
534.69	38000.94
534.86	37844.12
535.03	37853.48
535.20	38113.28
535.37	38113.28
535.54	37975.19
535.71	38026.68
535.88	38075.84
536.05	38211.59
536.22	38565.01
536.38	38330.95
536.55	38333.29
536.72	37947.11
536.89	38134.35
537.06	38249.03
537.23	38440.96
537.40	38213.93
537.57	38607.14
537.74	38368.40
537.91	38948.85
538.08	38775.66
538.25	38333.29
538.42	38752.25
538.59	39131.42
538.75	38398.83
538.92	38871.62
539.09	38834.17
539.26	39091.63
539.43	38979.28
539.60	39044.82
539.77	38651.61
539.94	39164.18
540.11	38918.43
540.28	38895.02
540.44	39555.05
540.61	39372.49
540.78	38785.02
540.95	39414.62
541.12	39562.08
541.29	39171.21
541.46	39395.90
541.62	39625.27
541.79	39655.70
541.96	39194.61
542.13	39786.77
542.30	39707.19
542.47	39835.92
542.63	39405.26
542.80	39770.38
542.97	40247.85
543.14	40495.95
543.31	40580.21
543.48	40191.68
543.64	40631.70
543.81	40495.95
543.98	40540.42
544.15	40264.24
544.32	40568.51
544.48	40999.16
544.65	40856.39
544.82	40662.13
544.99	40657.45
545.16	40844.69
545.32	40598.93
545.49	40739.36
545.66	41401.74
545.83	40968.74
546.00	40961.72
546.16	40816.60
546.33	40730.00
546.50	40594.25
546.67	41202.79
546.83	40587.23
547.00	40849.37
547.17	40744.05
547.34	40765.11
547.50	41125.55
547.67	41413.44
547.84	41357.27
548.00	41153.64
548.17	41567.91
548.34	41273.01
548.51	41837.08
548.67	41280.03
548.84	41958.78
549.01	40840.01
549.18	41319.82
549.34	41432.16
549.51	41991.55
549.68	41794.95
549.84	41621.75
550.01	41635.79
550.18	41415.78
550.34	41617.07
550.51	41635.79
550.68	42227.95
550.84	41425.14
551.01	41834.74
551.18	41752.82
551.34	41853.46
551.51	41741.11
551.68	41785.58
551.84	42286.46
552.01	41888.57
552.18	42202.20
552.34	41982.19
552.51	42127.30
552.68	42251.35
552.84	42150.71
553.01	42263.05
553.18	42375.40
553.34	42108.58
553.51	41839.42
553.67	41998.57
553.84	42326.25
554.01	42199.86
554.17	42422.21
554.34	42621.16
554.51	42817.76
554.67	42780.31
554.84	42637.54
555.00	42241.99
555.17	42277.10
555.33	42401.14
555.50	42382.42
555.67	42693.71
555.83	42564.98
556.00	42616.47
556.16	43063.52
556.33	42525.19
556.50	42525.19
556.66	42602.43
556.83	42916.06
556.99	42965.21
557.16	42887.98
557.32	43070.54
557.49	43475.45
557.65	42780.31
557.82	42871.59
557.98	42824.78
558.15	43187.56
558.32	43496.52
558.48	43423.96
558.65	42759.25
558.81	42848.19
558.98	43091.60
559.14	42890.32
559.31	43131.39
559.47	43208.63
559.64	43452.05
559.80	43704.82
559.97	43049.47
560.13	42564.98
560.30	42887.98
560.46	43107.99
560.63	43208.63
560.79	43955.26
560.96	43548.01
561.12	43442.68
561.29	43098.62
561.45	43082.24
561.61	43461.41
561.78	43414.60
561.94	43227.35
562.11	43098.62
562.27	43517.58
562.44	43594.82
562.60	43470.77
562.77	43524.60
562.93	43529.28
563.10	43569.07
563.26	43131.39
563.42	43152.46
563.59	43517.58
563.75	43445.02
563.92	43639.29
564.08	43800.79
564.24	43517.58
564.41	43552.69
564.57	43643.97
564.74	43646.31
564.90	43552.69
565.07	43281.19
565.23	43583.12
565.39	43737.59
565.56	43590.14
565.72	43454.39
565.88	43786.74
566.05	43337.36
566.21	43503.54
566.38	43718.87
566.54	43796.10
566.70	43847.60
566.87	43957.60
567.03	43826.53
567.19	44308.68
567.36	44282.94
567.52	43473.11
567.68	43672.06
567.85	43571.41
568.01	43981.01
568.17	43878.02
568.34	43899.09
568.50	43887.39
568.66	44051.22
568.83	43615.88
568.99	43892.07
569.15	43789.08
569.32	43468.43
569.48	43562.05
569.64	44013.77
569.81	43845.26
569.97	44006.75
570.13	43952.92
570.30	43796.10
570.46	43510.56
570.62	44039.52
570.78	43653.33
570.95	43824.19
571.11	43889.73
571.27	44100.37
571.43	44039.52
571.60	44179.95
571.76	43988.03
571.92	44114.42
572.09	44048.88
572.25	44037.18
572.41	43976.33
572.57	44336.77
572.74	44797.85
572.90	43868.66
573.06	44245.49
573.22	44222.08
573.38	44346.13
573.55	43875.68
573.71	44519.33
573.87	44102.71
574.03	44039.52
574.20	43995.05
574.36	43999.73
574.52	44055.90
574.68	43835.89
574.84	44292.30
575.01	44458.48
575.17	44327.41
575.33	43826.53
575.49	43847.60
575.65	44156.55
575.82	44360.17
575.98	43880.36
576.14	44524.01
576.30	44378.90
576.46	44320.38
576.62	43969.30
576.79	44425.71
576.95	43910.79
577.11	44083.99
577.27	44086.33
577.43	44535.71
577.59	43824.19
577.75	44229.10
577.92	43761.00
578.08	43875.68
578.24	43812.49
578.40	43899.09
578.56	44058.24
578.72	44416.35
578.88	43981.01
579.04	44701.89
579.21	44573.16
579.37	44231.44
579.53	44346.13
579.69	44336.77
579.85	44119.10
580.01	43920.15
580.17	44519.33
580.33	44486.56
580.49	44392.94
580.65	44694.87
580.82	44126.12
580.98	44364.85
581.14	44203.36
581.30	44275.91
581.46	44390.60
581.62	43997.39
581.78	44381.24
581.94	44385.92
582.10	44163.57
582.26	44467.84
582.42	44346.13
582.58	44304.00
582.74	43959.94
582.90	44135.48
583.06	44809.56
583.22	44526.35
583.38	44369.54
583.54	44470.18
583.70	44648.06
583.86	44615.29
584.02	44037.18
584.18	44315.70
584.34	44507.63
584.50	44587.21
584.66	43920.15
584.82	44252.51
584.98	44392.94
585.14	44847.00
585.30	44198.68
585.46	44556.78
585.62	44545.08
585.78	44406.98
585.94	44252.51
586.10	44177.61
586.26	44360.17
586.42	44449.11
586.58	45041.27
586.74	44505.29
586.90	44023.14
587.06	44194.00
587.22	44215.06
587.38	43973.98
587.54	44313.36
587.70	44744.02
587.86	44189.31
588.02	44172.93
588.18	44690.19
588.34	44622.31
588.49	44240.81
588.65	43732.91
588.81	43690.78
588.97	44130.80
589.13	44224.42
589.29	44271.23
589.45	44619.97
589.61	44254.85
589.77	44713.59
589.93	44722.96
590.08	44886.79
590.24	44694.87
