SpectraSuite Data File
++++++++++++++++++++++++++++++++++++
Date: Fri Oct 25 10:43:34 EDT 2013
User: price-jones
Dark Spectrum Present: No
Reference Spectrum Present: No
Number of Sampled Component Spectra: 1
Spectrometers: USB2+H05261
Integration Time (usec): 100000 (USB2+H05261)
Spectra Averaged: 1 (USB2+H05261)
Boxcar Smoothing: 0 (USB2+H05261)
Correct for Electrical Dark: No (USB2+H05261)
Strobe/Lamp Enabled: No (USB2+H05261)
Correct for Detector Non-linearity: No (USB2+H05261)
Correct for Stray Light: No (USB2+H05261)
Number of Pixels in Processed Spectrum: 2048
>>>>>Begin Processed Spectral Data<<<<<
365.73	180.22
365.92	180.22
366.12	180.22
366.32	67.88
366.52	98.30
366.72	124.05
366.91	42.13
367.11	39.79
367.31	0.00
367.51	56.17
367.70	0.00
367.90	21.06
368.10	0.00
368.30	72.56
368.49	0.00
368.69	25.75
368.89	86.60
369.09	0.00
369.28	100.64
369.48	95.96
369.68	56.17
369.87	117.03
370.07	117.03
370.27	77.24
370.47	212.99
370.66	381.51
370.86	390.87
371.06	425.98
371.25	465.77
371.45	482.15
371.65	456.40
371.84	503.22
372.04	409.59
372.24	428.32
372.44	449.38
372.63	472.79
372.83	543.00
373.03	510.24
373.22	528.96
373.42	526.62
373.62	489.17
373.81	512.58
374.01	545.34
374.21	629.60
374.40	517.26
374.60	566.41
374.79	606.20
374.99	582.79
375.19	585.13
375.38	507.90
375.58	587.47
375.78	610.88
375.97	629.60
376.17	667.05
376.37	660.03
376.56	559.39
376.76	629.60
376.95	575.77
377.15	610.88
377.35	629.60
377.54	641.31
377.74	568.75
377.93	699.82
378.13	699.82
378.33	767.70
378.52	587.47
378.72	643.65
378.91	704.50
379.11	636.63
379.31	695.14
379.50	683.44
379.70	739.61
379.89	662.37
380.09	683.44
380.28	667.05
380.48	779.40
380.68	732.59
380.87	763.01
381.07	702.16
381.26	638.97
381.46	784.08
381.65	727.91
381.85	777.06
382.04	753.65
382.24	685.78
382.43	692.80
382.63	692.80
382.83	784.08
383.02	807.48
383.22	704.50
383.41	648.33
383.61	746.63
383.80	819.19
384.00	695.14
384.19	713.86
384.39	844.93
384.58	833.23
384.78	847.27
384.97	870.68
385.17	828.55
385.36	823.87
385.56	866.00
385.75	765.36
385.95	823.87
386.14	826.21
386.34	837.91
386.53	791.10
386.72	858.98
386.92	802.80
387.11	894.08
387.31	828.55
387.50	798.12
387.70	947.92
387.89	884.72
388.09	933.87
388.28	858.98
388.48	901.11
388.67	954.94
388.86	947.92
389.06	952.60
389.25	987.71
389.45	933.87
389.64	1015.79
389.84	994.73
390.03	992.39
390.22	1015.79
390.42	1043.88
390.61	1050.90
390.81	1043.88
391.00	1055.58
391.19	1034.52
391.39	1123.46
391.58	1118.78
391.78	1128.14
391.97	1095.37
392.16	945.58
392.36	1022.81
392.55	1008.77
392.75	990.05
392.94	933.87
393.13	1036.86
393.33	994.73
393.52	1088.35
393.71	1064.94
393.91	1142.18
394.10	1142.18
394.29	1128.14
394.49	1252.19
394.68	1165.59
394.88	1277.93
395.07	1219.42
395.26	1268.57
395.46	1291.98
395.65	1214.74
395.84	1207.72
396.04	1287.29
396.23	1071.97
396.42	1139.84
396.62	1231.12
396.81	1200.69
397.00	1259.21
397.19	1383.26
397.39	1254.53
397.58	1376.24
397.77	1345.81
397.97	1350.49
398.16	1444.11
398.35	1511.99
398.55	1418.36
398.74	1575.18
398.93	1547.09
399.12	1614.97
399.32	1530.71
399.51	1481.56
399.70	1600.93
399.90	1528.37
400.09	1584.54
400.28	1736.68
400.47	1659.44
400.67	1724.97
400.86	1591.56
401.05	1689.87
401.24	1680.50
401.44	1842.00
401.63	1834.98
401.82	1706.25
402.01	1734.34
402.21	1830.30
402.40	1823.28
402.59	1863.07
402.78	1809.23
402.97	1783.49
403.17	1900.52
403.36	1809.23
403.55	1825.62
403.74	1881.79
403.93	1825.62
404.13	1842.00
404.32	1884.13
404.51	1874.77
404.70	2001.16
404.89	1947.33
405.09	1982.43
405.28	1959.03
405.47	1996.48
405.66	2073.71
405.85	2101.80
406.05	1919.24
406.24	2015.20
406.43	2111.16
406.62	2150.95
406.81	2111.16
407.00	2047.97
407.20	2097.12
407.39	2087.76
407.58	2176.70
407.77	2242.23
407.96	2211.81
408.15	2331.17
408.34	2284.36
408.54	2359.26
408.73	2277.34
408.92	2300.75
409.11	2335.85
409.30	2429.48
409.49	2359.26
409.68	2253.94
409.87	2382.67
410.07	2352.24
410.26	2452.88
410.45	2485.65
410.64	2537.14
410.83	2506.71
411.02	2677.57
411.21	2553.52
411.40	2724.38
411.59	2644.81
411.78	2757.15
411.98	2715.02
412.17	2729.06
412.36	2829.71
412.55	2768.85
412.74	2759.49
412.93	2813.32
413.12	2761.83
413.31	2860.13
413.50	2822.69
413.69	2825.03
413.88	2829.71
414.07	3014.61
414.26	2932.69
414.45	3042.70
414.64	3028.65
414.83	3075.46
415.02	3115.25
415.22	3152.70
415.41	3199.51
415.60	3145.68
415.79	3192.49
415.98	3269.73
416.17	3330.58
416.36	3232.28
416.55	3368.03
416.74	3379.73
416.93	3309.52
417.12	3243.98
417.31	3262.71
417.50	3379.73
417.69	3478.04
417.88	3496.76
418.07	3431.23
418.26	3501.44
418.45	3545.91
418.64	3672.30
418.83	3667.62
419.02	3559.95
419.21	3728.47
419.39	3719.11
419.58	3667.62
419.77	3634.85
419.96	3684.00
420.15	3705.07
420.34	3831.46
420.53	3695.71
420.72	3854.86
420.91	3904.01
421.10	3833.80
421.29	3838.48
421.48	3932.10
421.67	4037.42
421.86	3875.93
422.05	3873.59
422.24	3786.99
422.43	3786.99
422.61	3932.10
422.80	3981.25
422.99	4018.70
423.18	3983.59
423.37	3999.98
423.56	4093.60
423.75	4039.76
423.94	3861.88
424.13	3740.18
424.32	3857.20
424.50	3892.31
424.69	3983.59
424.88	4091.26
425.07	3981.25
425.26	3978.91
425.45	3939.12
425.64	3904.01
425.83	3957.85
426.01	4072.53
426.20	4046.79
426.39	4011.68
426.58	4081.89
426.77	4037.42
426.96	3990.61
427.15	4077.21
427.33	4210.62
427.52	4044.45
427.71	4128.70
427.90	4166.15
428.09	4215.30
428.28	4219.99
428.46	4079.55
428.65	4355.74
428.84	4351.06
429.03	4229.35
429.22	4250.41
429.40	4149.77
429.59	4175.52
429.78	3955.51
429.97	4088.92
430.16	4091.26
430.34	4145.09
430.53	4215.30
430.72	4297.22
430.91	4367.44
431.10	4440.00
431.28	4582.77
431.47	4753.63
431.66	4674.05
431.85	4622.56
432.03	4777.03
432.22	4849.59
432.41	4739.58
432.60	4798.10
432.79	4861.29
432.97	4835.55
433.16	4896.40
433.35	4652.98
433.54	4711.50
433.72	4793.42
433.91	4816.82
434.10	4781.71
434.28	4844.91
434.47	4865.97
434.66	5067.26
434.85	5053.22
435.03	5111.73
435.22	5001.72
435.41	5174.92
435.59	5170.24
435.78	5247.48
435.97	5125.77
436.16	5160.88
436.34	5100.03
436.53	5259.18
436.72	5366.85
436.90	5226.42
437.09	5179.61
437.28	5268.55
437.46	5284.93
437.65	5275.57
437.84	5315.36
438.02	5114.07
438.21	5177.26
438.40	5167.90
438.58	5528.35
438.77	5451.11
438.96	5554.09
439.14	5650.05
439.33	5591.54
439.52	5809.21
439.70	5731.97
439.89	5750.70
440.08	5727.29
440.26	5717.93
440.45	5863.04
440.63	6092.41
440.82	5884.11
441.01	5996.45
441.19	6069.01
441.38	6148.59
441.57	6384.98
441.75	6195.40
441.94	6565.20
442.12	6359.24
442.31	6413.07
442.50	6448.18
442.68	6457.54
442.87	6370.94
443.05	6310.08
443.24	6546.48
443.43	6469.24
443.61	6394.34
443.80	6813.30
443.98	6548.82
444.17	6265.61
444.35	6525.41
444.54	6745.42
444.73	6719.68
444.91	6635.42
445.10	6719.68
445.28	6490.31
445.47	6394.34
445.65	6492.65
445.84	6663.51
446.02	6825.00
446.21	6619.04
446.39	6494.99
446.58	6717.34
446.77	6703.29
446.95	6888.20
447.14	6890.54
447.32	6979.48
447.51	6736.06
447.69	6808.62
447.88	6729.04
448.06	6906.92
448.25	6747.76
448.43	6740.74
448.62	6740.74
448.80	6703.29
448.99	7035.65
449.17	7035.65
449.36	6935.01
449.54	7112.89
449.73	7084.80
449.91	7157.36
450.10	7389.07
450.28	7265.02
450.46	7351.62
450.65	7475.67
450.83	7241.62
451.02	7382.05
451.20	7274.38
451.39	7253.32
451.57	7304.81
451.76	7218.21
451.94	7258.00
452.13	7344.60
452.31	7155.02
452.49	7110.55
452.68	7389.07
452.86	7438.22
453.05	7363.33
453.23	7524.82
453.42	7494.40
453.60	7576.31
453.78	7688.66
453.97	7538.87
454.15	7454.61
454.34	7562.27
454.52	7552.91
454.70	7702.70
454.89	7681.64
455.07	7506.10
455.26	7609.08
455.44	7913.35
455.62	7810.37
455.81	7791.64
455.99	7880.58
456.17	7735.47
456.36	7885.26
456.54	8028.04
456.73	7948.46
456.91	8187.19
457.09	8210.60
457.28	8341.67
457.46	8187.19
457.64	8252.73
457.83	8095.91
458.01	8173.15
458.19	8294.86
458.38	8313.58
458.56	8252.73
458.74	8475.08
458.93	8257.41
459.11	8367.42
459.29	8400.18
459.48	8603.81
459.66	8358.05
459.84	8676.37
460.03	8781.69
460.21	8486.78
460.39	8786.37
460.57	8545.30
460.76	8578.06
460.94	8652.96
461.12	8739.56
461.31	8702.11
461.49	8746.58
461.67	8699.77
461.85	9013.40
462.04	8786.37
462.22	9434.70
462.40	9128.09
462.59	9090.64
462.77	8863.61
462.95	9137.45
463.13	8980.64
463.32	9029.79
463.50	9130.43
463.68	9165.54
463.86	9235.75
464.05	8929.14
464.23	8898.72
464.41	9151.49
464.59	8952.55
464.78	9235.75
464.96	9165.54
465.14	9097.66
465.32	9425.34
465.50	9432.36
465.69	9324.69
465.87	9298.95
466.05	9263.84
466.23	9301.29
466.41	9448.74
466.60	9451.08
466.78	9298.95
466.96	9500.23
467.14	9441.72
467.32	9420.66
467.51	9654.71
467.69	9341.08
467.87	9474.49
468.05	9738.97
468.23	9390.23
468.41	9425.34
468.60	9598.54
468.78	9729.61
468.96	9776.42
469.14	9851.31
469.32	9891.10
469.50	9525.98
469.69	9830.25
469.87	10036.22
470.05	10061.96
470.23	9834.93
470.41	9958.98
470.59	10146.22
470.77	10113.45
470.95	10111.11
471.14	10083.03
471.32	9949.62
471.50	10487.94
471.68	10361.55
471.86	10305.38
472.04	10448.15
472.22	10745.40
472.40	10232.82
472.58	10588.58
472.77	10864.77
472.95	10558.16
473.13	10792.21
473.31	10642.42
473.49	10607.31
473.67	10850.72
473.85	10820.30
474.03	11091.80
474.21	11028.60
474.39	11461.60
474.57	11218.19
474.75	11379.68
474.93	11410.11
475.12	11136.27
475.30	11253.30
475.48	11101.16
475.66	11073.07
475.84	11503.73
476.02	11644.17
476.20	11501.39
476.38	11611.40
476.56	11992.90
476.74	11955.46
476.92	11887.58
477.10	11976.52
477.28	12180.15
477.46	12135.68
477.64	12343.99
477.82	12596.76
478.00	12568.68
478.18	12578.04
478.36	13067.21
478.54	12901.03
478.72	12578.04
478.90	13025.08
479.08	12987.63
479.26	13146.79
479.44	13298.92
479.62	13373.82
479.80	13448.72
479.98	13556.38
480.16	13891.08
480.34	13626.60
480.52	14059.60
480.70	13877.04
480.88	13853.63
481.06	14057.26
481.24	14293.65
481.41	14541.75
481.59	14368.55
481.77	14427.06
481.95	14319.40
482.13	14883.47
482.31	14537.07
482.49	15047.30
482.67	15061.35
482.85	15089.43
483.03	15447.54
483.21	15440.51
483.39	15527.11
483.57	15585.63
483.74	15641.80
483.92	15550.52
484.10	15594.99
484.28	16074.80
484.46	16025.65
484.64	16477.37
484.82	16269.06
485.00	16271.40
485.18	16716.11
485.35	16507.80
485.53	16334.60
485.71	16334.60
485.89	16468.01
486.07	16510.14
486.25	16723.13
486.43	16957.18
486.61	17338.69
486.78	17458.06
486.96	17532.95
487.14	17860.63
487.32	17874.67
487.50	18073.62
487.68	18434.06
487.85	18539.38
488.03	18731.31
488.21	18937.27
488.39	18691.52
488.57	18906.85
488.75	18813.23
488.92	19396.02
489.10	19590.28
489.28	19379.64
489.46	19662.84
489.64	19887.53
489.81	20116.90
489.99	20320.53
490.17	20327.55
490.35	20411.81
490.53	20568.63
490.70	20695.02
490.88	20577.99
491.06	21003.97
491.24	20690.34
491.41	20882.26
491.59	20933.75
491.77	21193.55
491.95	21137.38
492.13	21483.78
492.30	21682.72
492.48	22015.08
492.66	21972.95
492.84	21926.14
493.01	22204.66
493.19	22118.06
493.37	22515.95
493.54	22328.71
493.72	22705.54
493.90	22993.42
494.08	22719.58
494.25	23204.07
494.43	23501.32
494.61	23777.50
494.79	23686.22
494.96	23344.50
495.14	23571.54
495.32	23737.71
495.49	23889.85
495.67	24095.82
495.85	24254.97
496.02	24439.87
496.20	24683.29
496.38	24439.87
496.55	24884.58
496.73	25282.47
496.91	25085.86
497.09	25434.60
497.26	25366.73
497.44	25195.87
497.62	25230.98
497.79	25460.35
497.97	25479.07
498.14	25605.46
498.32	25656.95
498.50	25776.32
498.67	26291.24
498.85	26326.35
499.03	26368.48
499.20	26417.63
499.38	26518.27
499.56	27033.19
499.73	26754.66
499.91	26824.88
500.08	26913.82
500.26	26916.16
500.44	26780.41
500.61	27037.87
500.79	26815.52
500.97	27054.25
501.14	27276.60
501.32	27311.71
501.49	27564.49
501.67	27590.24
501.84	27946.00
502.02	27714.28
502.20	27744.71
502.37	28187.07
502.55	28318.14
502.72	28144.94
502.90	28037.28
503.07	28123.88
503.25	28407.08
503.43	28542.83
503.60	28114.52
503.78	28299.42
503.95	28760.50
504.13	28847.10
504.30	28884.55
504.48	28694.97
504.65	28828.38
504.83	29408.83
505.01	29270.74
505.18	29223.93
505.36	29647.57
505.53	29687.36
505.71	29912.05
505.88	29790.34
506.06	29750.55
506.23	29830.13
506.41	29607.78
506.58	29883.96
506.76	30061.84
506.93	30649.32
507.11	29979.92
507.28	30654.00
507.46	29858.21
507.63	30071.20
507.81	30450.37
507.98	30508.88
508.16	30536.97
508.33	30642.29
508.50	30696.13
508.68	30848.26
508.85	31395.95
509.03	31119.76
509.20	31187.64
509.38	31531.70
509.55	31342.11
509.73	31527.02
509.90	31651.06
510.08	31665.11
510.25	31505.95
510.42	31838.31
510.60	31791.50
510.77	31990.44
510.95	32161.30
511.12	32163.64
511.30	32102.79
511.47	32765.16
511.64	32776.86
511.82	32863.46
511.99	32456.21
512.17	32430.46
512.34	32877.51
512.51	32723.03
512.69	33074.11
512.86	32929.00
513.04	33319.87
513.21	32999.21
513.38	33436.89
513.56	33340.93
513.73	33050.70
513.90	33406.47
514.08	33240.29
514.25	33132.62
514.43	33886.28
514.60	33647.54
514.77	33567.96
514.95	33455.62
515.12	33715.42
515.29	33827.76
515.47	33860.53
515.64	34312.25
515.81	33582.01
515.99	34171.82
516.16	33490.73
516.33	33736.48
516.51	33734.14
516.68	33443.91
516.85	33443.91
517.03	33539.88
517.20	34361.40
517.37	34796.74
517.54	34656.31
517.72	34150.76
517.89	34426.94
518.06	34323.96
518.24	34176.50
518.41	34462.05
518.58	34881.00
518.75	34726.53
518.93	35222.72
519.10	34988.67
519.27	35007.39
519.45	35618.27
519.62	35634.66
519.79	35667.42
519.96	35459.12
520.14	35835.94
520.31	35665.08
520.48	35524.65
520.65	35800.83
520.83	35959.99
521.00	35917.86
521.17	36109.78
521.34	36362.56
521.52	36643.43
521.69	36236.17
521.86	36495.97
522.03	36624.70
522.20	36835.35
522.38	36648.11
522.55	36828.33
522.72	36257.24
522.89	36554.49
523.07	37172.39
523.24	36886.84
523.41	36727.69
523.58	37020.25
523.75	37612.41
523.92	37785.61
524.10	37448.57
524.27	37497.72
524.44	37202.82
524.61	37273.03
524.78	37392.40
524.96	37825.40
525.13	37539.85
525.30	37900.29
525.47	37942.42
525.64	37666.24
525.81	37518.79
525.98	37914.34
526.16	37855.82
526.33	37413.46
526.50	37607.73
526.67	37326.86
526.84	38014.98
527.01	37350.27
527.18	37844.12
527.36	38256.06
527.53	38368.40
527.70	38995.67
527.87	38607.14
528.04	38265.42
528.21	39129.08
528.38	38656.29
528.55	39473.13
528.72	38829.49
528.89	39098.65
529.07	38747.57
529.24	38658.63
529.41	39042.48
529.58	38574.37
529.75	39084.61
529.92	39330.36
530.09	39580.80
530.26	39503.56
530.43	39489.52
530.60	39246.10
530.77	39920.18
530.94	39812.51
531.11	39557.39
531.28	39618.25
531.46	39800.81
531.63	40151.89
531.80	39447.39
531.97	39866.34
532.14	39250.78
532.31	39756.34
532.48	39676.76
532.65	39779.74
532.82	39810.17
532.99	39791.45
533.16	40126.14
533.33	40037.20
533.50	40472.54
533.67	39737.62
533.84	39714.21
534.01	40648.08
534.18	40783.83
534.35	40493.61
534.52	40453.82
534.69	40603.61
534.86	40886.82
535.03	40268.92
535.20	41010.87
535.37	41155.98
535.54	41596.00
535.71	40872.78
535.88	41057.68
536.05	40821.28
536.22	41237.90
536.38	40769.79
536.55	40788.52
536.72	41027.25
536.89	40865.75
537.06	40727.66
537.23	41153.64
537.40	41258.96
537.57	41537.49
537.74	41574.94
537.91	41591.32
538.08	41837.08
538.25	41067.04
538.42	41448.55
538.59	41476.63
538.75	41256.62
538.92	41607.70
539.09	41427.48
539.26	41684.94
539.43	41659.20
539.60	41975.17
539.77	41523.44
539.94	41509.40
540.11	41673.24
540.28	41455.57
540.44	41757.50
540.61	42202.20
540.78	41818.35
540.95	41478.97
541.12	41769.20
541.29	41654.51
541.46	42305.18
541.62	41881.55
541.79	42274.76
541.96	42021.98
542.13	42068.79
542.30	42323.91
542.47	42199.86
542.63	42150.71
542.80	42499.45
542.97	42359.02
543.14	42887.98
543.31	42705.41
543.48	42930.11
543.64	42930.11
543.81	43044.79
543.98	42656.26
544.15	42747.54
544.32	43072.88
544.48	43459.07
544.65	43161.82
544.82	43248.42
544.99	42773.29
545.16	43072.88
545.32	43005.00
545.49	43587.80
545.66	43494.18
545.83	43267.14
546.00	43585.46
546.16	43182.88
546.33	43091.60
546.50	43213.31
546.67	43655.67
546.83	43021.39
547.00	43892.07
547.17	43342.04
547.34	43487.15
547.50	43395.87
547.67	43770.36
547.84	43217.99
548.00	44030.16
548.17	43658.01
548.34	43758.66
548.51	43950.58
548.67	44329.75
548.84	44233.78
549.01	43540.99
549.18	43847.60
549.34	43868.66
549.51	43901.43
549.68	44133.14
549.84	44245.49
550.01	44348.47
550.18	44048.88
550.34	43948.24
550.51	44179.95
550.68	43999.73
550.84	43339.70
551.01	44100.37
551.18	44126.12
551.34	44406.98
551.51	44109.74
551.68	44421.03
551.84	44449.11
552.01	44245.49
552.18	44189.31
552.34	44100.37
552.51	44196.34
552.68	43992.71
552.84	44486.56
553.01	45045.95
553.18	44357.83
553.34	44390.60
553.51	44329.75
553.67	44561.46
553.84	45310.43
554.01	44933.60
554.17	44952.33
554.34	44797.85
554.51	44336.77
554.67	45048.29
554.84	45052.97
555.00	44914.88
555.17	45045.95
555.33	45373.63
555.50	45099.78
555.67	45020.20
555.83	45085.74
556.00	45294.05
556.16	45581.93
556.33	44839.98
556.50	44931.26
556.66	45228.51
556.83	44589.55
556.99	45081.06
557.16	44942.97
557.32	45240.21
557.49	45624.06
557.65	45013.18
557.82	45127.87
557.98	45392.35
558.15	45331.50
558.32	45249.58
558.48	44797.85
558.65	44999.14
558.81	45036.59
558.98	44835.30
559.14	45219.15
559.31	45408.73
559.47	45490.65
559.64	45483.63
559.80	45235.53
559.97	45401.71
560.13	45308.09
560.30	45146.59
560.46	45422.78
560.63	45680.24
560.79	45874.50
560.96	45401.71
561.12	45813.65
561.29	45478.95
561.45	45287.03
561.61	45258.94
561.78	45368.94
561.94	45441.50
562.11	44886.79
562.27	45432.14
562.44	45586.61
562.60	45691.94
562.77	45696.62
562.93	45329.16
563.10	45888.54
563.26	45284.68
563.42	45888.54
563.59	45773.86
563.75	45713.00
563.92	45947.06
564.08	45736.41
564.24	45633.42
564.41	45982.16
564.57	45862.80
564.74	45757.47
564.90	45696.62
565.07	46028.98
565.23	45925.99
565.39	45296.39
565.56	45617.04
565.72	45326.81
565.88	45914.29
566.05	45317.45
566.21	45783.22
566.38	45689.60
566.54	45500.01
566.70	46134.30
566.87	46082.81
567.03	46068.76
567.19	46447.93
567.36	46101.53
567.52	45984.51
567.68	45727.05
567.85	45631.08
568.01	45937.69
568.17	45652.15
568.34	46134.30
568.50	45972.80
568.66	45933.01
568.83	45989.19
568.99	45778.54
569.15	45900.25
569.32	45865.14
569.48	45902.59
569.64	45827.69
569.81	45806.62
569.97	45741.09
570.13	46073.45
570.30	45682.58
570.46	45668.53
570.62	45727.05
570.78	45558.53
570.95	45750.45
571.11	45848.75
571.27	45521.08
571.43	45823.01
571.60	46078.13
571.76	46066.42
571.92	46340.27
572.09	45860.46
572.25	46071.10
572.41	46300.48
572.57	45979.82
572.74	46466.66
572.90	46136.64
573.06	46494.74
573.22	46787.31
573.38	46028.98
573.55	46003.23
573.71	46274.73
573.87	46515.81
574.03	45748.11
574.20	46099.19
574.36	46014.93
574.52	46057.06
574.68	46052.38
574.84	46316.86
575.01	46052.38
575.17	45715.34
575.33	45799.60
575.49	46167.07
575.65	46167.07
575.82	46438.57
575.98	45944.72
576.14	46078.13
576.30	45918.97
576.46	46089.83
576.62	46176.43
576.79	46026.63
576.95	46117.92
577.11	46209.20
577.27	46103.87
577.43	45867.48
577.59	46052.38
577.75	46082.81
577.92	45708.32
578.08	45516.40
578.24	46223.24
578.40	45930.67
578.56	45773.86
578.72	46384.74
578.88	46218.56
579.04	46094.51
579.21	45872.16
579.37	46258.35
579.53	45848.75
579.69	46036.00
579.85	45745.77
580.01	46279.41
580.17	46019.61
580.33	46426.87
580.49	46293.46
580.65	46176.43
580.82	45942.38
580.98	46270.05
581.14	45900.25
581.30	46443.25
581.46	45879.18
581.62	46078.13
581.78	46335.59
581.94	46536.87
582.10	46380.06
582.26	46396.44
582.42	46293.46
582.58	46279.41
582.74	46160.05
582.90	46017.27
583.06	46337.93
583.22	46703.05
583.38	46611.77
583.54	46162.39
583.70	46094.51
583.86	46036.00
584.02	46309.84
584.18	46492.40
584.34	46206.86
584.50	46183.45
584.66	46136.64
584.82	46108.55
584.98	46171.75
585.14	46281.75
585.30	45811.31
585.46	46113.23
585.62	45731.73
585.78	46148.34
585.94	46052.38
586.10	46248.99
586.26	46204.52
586.42	46401.12
586.58	46892.63
586.74	46087.49
586.90	45752.79
587.06	46588.36
587.22	46506.44
587.38	45851.09
587.54	46487.72
587.70	46457.29
587.86	46211.54
588.02	45937.69
588.18	46494.74
588.34	45918.97
588.49	45450.86
588.65	45432.14
588.81	46012.59
588.97	46223.24
589.13	45317.45
589.29	45593.64
589.45	46057.06
589.61	46131.96
589.77	46284.09
589.93	46220.90
