SpectraSuite Data File
++++++++++++++++++++++++++++++++++++
Date: Fri Oct 25 10:46:57 EDT 2013
User: price-jones
Dark Spectrum Present: No
Reference Spectrum Present: No
Number of Sampled Component Spectra: 1
Spectrometers: USB2+H05261
Integration Time (usec): 100000 (USB2+H05261)
Spectra Averaged: 1 (USB2+H05261)
Boxcar Smoothing: 0 (USB2+H05261)
Correct for Electrical Dark: No (USB2+H05261)
Strobe/Lamp Enabled: No (USB2+H05261)
Correct for Detector Non-linearity: No (USB2+H05261)
Correct for Stray Light: No (USB2+H05261)
Number of Pixels in Processed Spectrum: 2048
>>>>>Begin Processed Spectral Data<<<<<
365.73	159.16
365.92	159.16
366.12	159.16
366.32	58.51
366.52	117.03
366.72	53.83
366.91	14.04
367.11	49.15
367.31	0.00
367.51	0.00
367.70	32.77
367.90	49.15
368.10	67.88
368.30	0.00
368.49	11.70
368.69	93.62
368.89	44.47
369.09	42.13
369.28	117.03
369.48	117.03
369.68	84.26
369.87	110.01
370.07	65.54
370.27	88.94
370.47	215.33
370.66	390.87
370.86	400.23
371.06	383.85
371.25	437.68
371.45	489.17
371.65	533.64
371.84	531.30
372.04	472.79
372.24	491.51
372.44	491.51
372.63	468.11
372.83	468.11
373.03	578.11
373.22	498.53
373.42	507.90
373.62	552.37
373.81	589.82
374.01	578.11
374.21	521.94
374.40	580.45
374.60	559.39
374.79	533.64
374.99	704.50
375.19	683.44
375.38	617.90
375.58	594.50
375.78	627.26
375.97	613.22
376.17	653.01
376.37	578.11
376.56	615.56
376.76	615.56
376.95	697.48
377.15	671.73
377.35	645.99
377.54	655.35
377.74	582.79
377.93	657.69
378.13	624.92
378.33	725.57
378.52	599.18
378.72	613.22
378.91	610.88
379.11	706.84
379.31	643.65
379.50	641.31
379.70	695.14
379.89	692.80
380.09	699.82
380.28	748.97
380.48	699.82
380.68	671.73
380.87	692.80
381.07	711.52
381.26	746.63
381.46	713.86
381.65	685.78
381.85	706.84
382.04	669.39
382.24	737.27
382.43	685.78
382.63	681.10
382.83	748.97
383.02	779.40
383.22	833.23
383.41	746.63
383.61	681.10
383.80	840.25
384.00	805.14
384.19	819.19
384.39	873.02
384.58	784.08
384.78	809.83
384.97	833.23
385.17	875.36
385.36	807.48
385.56	861.32
385.75	868.34
385.95	763.01
386.14	861.32
386.34	844.93
386.53	858.98
386.72	844.93
386.92	840.25
387.11	889.40
387.31	873.02
387.50	870.68
387.70	990.05
387.89	875.36
388.09	837.91
388.28	882.38
388.48	898.77
388.67	863.66
388.86	908.13
389.06	1034.52
389.25	938.55
389.45	952.60
389.64	964.30
389.84	1015.79
390.03	1018.13
390.22	985.37
390.42	1055.58
390.61	1088.35
390.81	1004.09
391.00	1100.05
391.19	1046.22
391.39	1020.47
391.58	1001.75
391.78	1053.24
391.97	1081.33
392.16	1032.18
392.36	1102.39
392.55	1074.31
392.75	1011.11
392.94	1050.90
393.13	1034.52
393.33	957.28
393.52	1071.97
393.71	1055.58
393.91	1102.39
394.10	1104.73
394.29	1205.38
394.49	1179.63
394.68	1198.35
394.88	1135.16
395.07	1207.72
395.26	1291.98
395.46	1334.11
395.65	1245.16
395.84	1249.85
396.04	1261.55
396.23	1156.22
396.42	1102.39
396.62	1242.82
396.81	1284.95
397.00	1226.44
397.19	1270.91
397.39	1277.93
397.58	1341.13
397.77	1369.21
397.97	1404.32
398.16	1465.18
398.35	1327.08
398.55	1397.30
398.74	1537.73
398.93	1434.75
399.12	1460.49
399.32	1430.07
399.51	1483.90
399.70	1441.77
399.90	1519.01
400.09	1563.48
400.28	1586.88
400.47	1701.57
400.67	1563.48
400.86	1640.72
401.05	1713.27
401.24	1650.08
401.44	1640.72
401.63	1748.38
401.82	1717.95
402.01	1680.50
402.21	1736.68
402.40	1633.69
402.59	1659.44
402.78	1598.59
402.97	1699.23
403.17	1783.49
403.36	1783.49
403.55	1881.79
403.74	1858.39
403.93	1825.62
404.13	1884.13
404.32	1813.92
404.51	1762.42
404.70	1916.90
404.89	1778.81
405.09	1933.28
405.28	1949.67
405.47	1919.24
405.66	1863.07
405.85	1926.26
406.05	2003.50
406.24	1928.60
406.43	2090.10
406.62	2036.27
406.81	1994.14
407.00	2047.97
407.20	1935.62
407.39	2129.89
407.58	2160.31
407.77	2005.84
407.96	2225.85
408.15	2228.19
408.34	2214.15
408.54	2221.17
408.73	2239.89
408.92	2293.72
409.11	2399.05
409.30	2265.64
409.49	2291.38
409.68	2221.17
409.87	2225.85
410.07	2305.43
410.26	2333.51
410.45	2434.16
410.64	2335.85
410.83	2490.33
411.02	2490.33
411.21	2576.93
411.40	2576.93
411.59	2548.84
411.78	2642.46
411.98	2445.86
412.17	2546.50
412.36	2670.55
412.55	2633.10
412.74	2677.57
412.93	2705.66
413.12	2654.17
413.31	2736.09
413.50	2738.43
413.69	2708.00
413.88	2850.77
414.07	2862.48
414.26	2970.14
414.45	2899.92
414.64	2897.58
414.83	2923.33
415.02	2883.54
415.22	3068.44
415.41	3084.83
415.60	3087.17
415.79	3136.32
415.98	3201.85
416.17	3112.91
416.36	3241.64
416.55	3150.36
416.74	3229.94
416.93	3192.49
417.12	3206.53
417.31	3248.66
417.50	3194.83
417.69	3461.65
417.88	3372.71
418.07	3258.03
418.26	3300.16
418.45	3337.60
418.64	3503.78
418.83	3496.76
419.02	3492.08
419.21	3513.14
419.39	3648.90
419.58	3552.93
419.77	3461.65
419.96	3653.58
420.15	3569.32
420.34	3545.91
420.53	3644.21
420.72	3737.84
420.91	3709.75
421.10	3822.09
421.29	3878.27
421.48	3728.47
421.67	3691.02
421.86	3777.62
422.05	3756.56
422.24	3627.83
422.43	3723.79
422.61	3777.62
422.80	3794.01
422.99	3817.41
423.18	3854.86
423.37	3775.28
423.56	3967.21
423.75	3957.85
423.94	3810.39
424.13	3618.47
424.32	3803.37
424.50	3754.22
424.69	3969.55
424.88	4002.32
425.07	3770.60
425.26	3751.88
425.45	3840.82
425.64	3894.65
425.83	3885.29
426.01	3995.29
426.20	3988.27
426.39	3948.48
426.58	3880.61
426.77	3906.35
426.96	3901.67
427.15	3920.40
427.33	4105.30
427.52	4039.76
427.71	3997.64
427.90	4025.72
428.09	4011.68
428.28	4117.00
428.46	4142.75
428.65	4119.34
428.84	4187.22
429.03	4205.94
429.22	3918.06
429.40	4243.39
429.59	3899.33
429.78	3894.65
429.97	3777.62
430.16	4079.55
430.34	4128.70
430.53	4234.03
430.72	4255.09
430.91	4124.02
431.10	4297.22
431.28	4447.02
431.47	4470.42
431.66	4337.01
431.85	4428.29
432.03	4564.04
432.22	4531.28
432.41	4479.79
432.60	4629.58
432.79	4542.98
432.97	4779.37
433.16	4678.73
433.35	4519.57
433.54	4496.17
433.72	4620.22
433.91	4802.78
434.10	4468.08
434.28	4781.71
434.47	4709.16
434.66	4683.41
434.85	4891.72
435.03	4760.65
435.22	4758.31
435.41	4891.72
435.59	4901.08
435.78	4978.32
435.97	5074.28
436.16	4945.55
436.34	5081.30
436.53	5076.62
436.72	5139.82
436.90	4983.00
437.09	5123.43
437.28	5050.88
437.46	5069.60
437.65	5188.97
437.84	5025.13
438.02	4980.66
438.21	5144.50
438.40	5214.71
438.58	5235.78
438.77	5341.10
438.96	5254.50
439.14	5338.76
439.33	5401.96
439.52	5390.25
439.70	5413.66
439.89	5530.69
440.08	5509.62
440.26	5612.60
440.45	5661.76
440.63	5621.97
440.82	5851.34
441.01	5710.91
441.19	5895.81
441.38	5940.28
441.57	5935.60
441.75	6113.48
441.94	6115.82
442.12	6141.57
442.31	6087.73
442.50	6097.10
442.68	6129.86
442.87	6216.46
443.05	6356.90
443.24	6427.11
443.43	6251.57
443.61	6228.17
443.80	6377.96
443.98	6143.91
444.17	5991.77
444.35	6469.24
444.54	6466.90
444.73	6347.53
444.91	6267.95
445.10	6349.87
445.28	6321.79
445.47	6427.11
445.65	6225.82
445.84	6375.62
446.02	6483.28
446.21	6553.50
446.39	6436.47
446.58	6504.35
446.77	6499.67
446.95	6483.28
447.14	6502.01
447.32	6537.12
447.51	6530.09
447.69	6558.18
447.88	6485.62
448.06	6616.69
448.25	6532.44
448.43	6635.42
448.62	6469.24
448.80	6609.67
448.99	6604.99
449.17	6609.67
449.36	6736.06
449.54	6677.55
449.73	6883.52
449.91	6939.69
450.10	7159.70
450.28	6920.96
450.46	6967.77
450.65	7047.35
450.83	7009.90
451.02	6935.01
451.20	7094.16
451.39	7185.44
451.57	7187.79
451.76	7005.22
451.94	7012.24
452.13	7033.31
452.31	7035.65
452.49	6747.76
452.68	7033.31
452.86	6965.43
453.05	7363.33
453.23	7393.75
453.42	7229.91
453.60	7115.23
453.78	7250.98
453.97	7279.07
454.15	7435.88
454.34	7227.57
454.52	7328.22
454.70	7215.87
454.89	7272.04
455.07	7391.41
455.26	7372.69
455.44	7550.57
455.62	7543.55
455.81	7520.14
455.99	7716.75
456.17	7538.87
456.36	7889.95
456.54	7672.28
456.73	7648.87
456.91	7896.97
457.09	7929.74
457.28	8107.62
457.46	7676.96
457.64	7875.90
457.83	8081.87
458.01	7918.03
458.19	8074.85
458.38	8004.63
458.56	8173.15
458.74	8126.34
458.93	7995.27
459.11	8135.70
459.29	8208.26
459.48	8273.79
459.66	8100.59
459.84	8135.70
460.03	8306.56
460.21	8229.32
460.39	8381.46
460.57	8332.31
460.76	8252.73
460.94	8383.80
461.12	8322.94
461.31	8402.52
461.49	8451.67
461.67	8475.08
461.85	8528.91
462.04	8479.76
462.22	9032.13
462.40	8774.67
462.59	8821.48
462.77	8468.06
462.95	8709.13
463.13	8826.16
463.32	8769.99
463.50	8769.99
463.68	8791.05
463.86	8781.69
464.05	8737.22
464.23	8784.03
464.41	8772.33
464.59	8545.30
464.78	9235.75
464.96	8938.51
465.14	8894.04
465.32	9195.96
465.50	9179.58
465.69	9177.24
465.87	9034.47
466.05	8901.06
466.23	9032.13
466.41	9048.51
466.60	9490.87
466.78	9123.41
466.96	9294.27
467.14	9076.60
467.32	9102.34
467.51	9329.38
467.69	8982.98
467.87	9259.16
468.05	9282.56
468.23	9167.88
468.41	9310.65
468.60	9315.33
468.78	9312.99
468.96	9341.08
469.14	9619.60
469.32	9451.08
469.50	9301.29
469.69	9659.39
469.87	9577.47
470.05	9589.17
470.23	9570.45
470.41	9734.29
470.59	9799.82
470.77	9750.67
470.95	9994.09
471.14	9912.17
471.32	9774.08
471.50	10122.82
471.68	10153.24
471.86	10031.54
472.04	10181.33
472.22	10387.30
472.40	10019.83
472.58	10253.89
472.77	10319.42
472.95	10497.30
473.13	10773.49
473.31	10546.45
473.49	10406.02
473.67	10420.06
473.85	10417.72
474.03	10796.89
474.21	10864.77
474.39	10906.90
474.57	10895.19
474.75	11089.46
474.93	10995.84
475.12	10841.36
475.30	11052.01
475.48	11253.30
475.66	11129.25
475.84	11248.61
476.02	11225.21
476.20	11283.72
476.38	11295.43
476.56	11515.44
476.74	11510.75
476.92	11665.23
477.10	11742.47
477.28	11868.86
477.46	11990.56
477.64	11955.46
477.82	12198.87
478.00	12603.78
478.18	12320.58
478.36	12388.46
478.54	12451.65
478.72	12376.75
478.90	12671.66
479.08	12840.18
479.26	12847.20
479.44	12812.09
479.62	12994.65
479.80	13085.94
479.98	13235.73
480.16	13336.37
480.34	13369.14
480.52	13692.13
480.70	13352.76
480.88	13579.79
481.06	13607.87
481.24	13834.91
481.41	14071.30
481.59	13970.66
481.77	14230.46
481.95	14160.24
482.13	14288.97
482.31	14263.22
482.49	14478.55
482.67	14518.34
482.85	14827.29
483.03	14665.80
483.21	14822.61
483.39	15005.17
483.57	15035.60
483.74	15297.74
483.92	15377.32
484.10	15358.60
484.28	15763.51
484.46	16105.23
484.64	16145.02
484.82	15854.79
485.00	15824.36
485.18	15868.83
485.35	16027.99
485.53	15761.17
485.71	16163.74
485.89	16439.92
486.07	16168.42
486.25	16489.07
486.43	16519.50
486.61	16812.07
486.78	17036.76
486.96	17001.65
487.14	17390.18
487.32	17542.32
487.50	17547.00
487.68	17940.21
487.85	17933.18
488.03	18139.15
488.21	18441.08
488.39	18157.88
488.57	18368.52
488.75	18485.55
488.92	18813.23
489.10	19105.79
489.28	19178.35
489.46	19330.48
489.64	19587.94
489.81	19901.58
489.99	19763.48
490.17	20107.54
490.35	20016.26
490.53	20042.01
490.70	20430.54
490.88	20037.33
491.06	20442.24
491.24	20835.45
491.41	20678.63
491.59	20709.06
491.77	20425.86
491.95	20753.53
492.13	20959.50
492.30	21343.35
492.48	21420.58
492.66	21434.63
492.84	21495.48
493.01	21680.38
493.19	21558.67
493.37	21837.20
493.54	21986.99
493.72	22080.61
493.90	22225.73
494.08	22499.57
494.25	22864.69
494.43	22951.29
494.61	23166.62
494.79	22927.89
494.96	23138.54
495.14	23332.80
495.32	23585.58
495.49	23384.29
495.67	23398.34
495.85	23850.06
496.02	23625.37
496.20	23962.40
496.38	24201.14
496.55	24484.34
496.73	24676.27
496.91	24163.69
497.09	24547.54
497.26	24772.23
497.44	24741.80
497.62	24542.86
497.79	24826.06
497.97	25095.22
498.14	25340.98
498.32	25350.34
498.50	25252.04
498.67	25750.57
498.85	25413.54
499.03	25893.35
499.20	26022.08
499.38	25956.54
499.56	26113.36
499.73	26195.28
499.91	26492.52
500.08	26237.41
500.26	25881.64
500.44	26637.64
500.61	26412.95
500.79	26396.56
500.97	26316.98
501.14	26852.97
501.32	26658.70
501.49	26864.67
501.67	27016.80
501.84	27178.30
502.02	26991.06
502.20	27391.29
502.37	27473.21
502.55	27117.45
502.72	27857.06
502.90	27793.86
503.07	27637.05
503.25	27798.54
503.43	27838.33
503.60	27864.08
503.78	28095.79
503.95	28056.00
504.13	28243.24
504.30	28180.05
504.48	28334.53
504.65	28797.95
504.83	29029.66
505.01	28802.63
505.18	28781.57
505.36	29219.25
505.53	29020.30
505.71	29429.90
505.88	29605.44
506.06	29326.91
506.23	29448.62
506.41	29287.12
506.58	29310.53
506.76	29053.07
506.93	29675.65
507.11	29764.59
507.28	29736.51
507.46	29621.82
507.63	29916.73
507.81	30164.82
507.98	29762.25
508.16	29928.43
508.33	30331.00
508.50	30410.58
508.68	30539.31
508.85	30958.27
509.03	30394.20
509.20	31061.25
509.38	30953.58
509.55	30773.36
509.73	30829.54
509.90	30764.00
510.08	30881.03
510.25	31302.32
510.42	31466.16
510.60	31578.51
510.77	31414.67
510.95	31611.28
511.12	31566.81
511.30	32109.81
511.47	31791.50
511.64	32004.49
511.82	32109.81
511.99	31899.16
512.17	32004.49
512.34	31915.54
512.51	32313.44
512.69	32465.57
512.86	32517.06
513.04	32451.53
513.21	32613.02
513.38	32273.65
513.56	33034.32
513.73	32060.66
513.90	32900.91
514.08	32800.27
514.25	32938.36
514.43	32936.02
514.60	33092.83
514.77	32959.42
514.95	33460.30
515.12	33111.56
515.29	33614.77
515.47	33991.60
515.64	33724.78
515.81	33795.00
515.99	33483.70
516.16	33495.41
516.33	33031.98
516.51	33149.01
516.68	33399.44
516.85	33310.50
517.03	33202.84
517.20	33780.95
517.37	33926.07
517.54	34174.16
517.72	33961.17
517.89	33596.05
518.06	33979.90
518.24	33893.30
518.41	34176.50
518.58	34323.96
518.75	34330.98
518.93	34436.30
519.10	34490.13
519.27	35253.15
519.45	34981.65
519.62	35079.95
519.79	34888.03
519.96	35484.86
520.14	35721.26
520.31	35105.70
520.48	35204.00
520.65	35154.85
520.83	35330.39
521.00	35377.20
521.17	35784.45
521.34	36018.50
521.52	35957.65
521.69	35651.04
521.86	36107.44
522.03	36121.49
522.20	35861.69
522.38	35840.62
522.55	36517.04
522.72	36538.10
522.89	35924.88
523.07	36275.96
523.24	36428.10
523.41	36723.01
523.58	36715.98
523.75	36837.69
523.92	37008.55
524.10	36814.29
524.27	37156.00
524.44	37130.26
524.61	37076.43
524.78	36816.63
524.96	36811.95
525.13	37322.18
525.30	37666.24
525.47	37326.86
525.64	37462.61
525.81	37560.92
525.98	37207.50
526.16	37235.58
526.33	37570.28
526.50	37347.93
526.67	36879.82
526.84	37500.06
527.01	37102.17
527.18	37778.59
527.36	37937.74
527.53	37944.76
527.70	38394.15
527.87	38211.59
528.04	37855.82
528.21	38270.10
528.38	38120.31
528.55	38391.81
528.72	38845.87
528.89	38600.12
529.07	38752.25
529.24	38447.98
529.41	38677.35
529.58	38780.34
529.75	38600.12
529.92	38511.17
530.09	39042.48
530.26	39040.14
530.43	38733.53
530.60	38714.80
530.77	38667.99
530.94	39218.02
531.11	38902.04
531.28	39000.35
531.46	39297.59
531.63	39377.17
531.80	39068.22
531.97	39524.63
532.14	39253.12
532.31	39042.48
532.48	39047.16
532.65	39428.66
532.82	39470.79
532.99	39510.58
533.16	39526.97
533.33	39714.21
533.50	39828.90
533.67	39585.48
533.84	39791.45
534.01	39777.40
534.18	39765.70
534.35	40163.59
534.52	40121.46
534.69	39985.71
534.86	40381.26
535.03	39920.18
535.20	40807.24
535.37	40612.98
535.54	40734.68
535.71	40652.76
535.88	40512.33
536.05	40507.65
536.22	40645.74
536.38	40762.77
536.55	40297.00
536.72	40348.50
536.89	40332.11
537.06	40509.99
537.23	40779.15
537.40	40442.12
537.57	40566.16
537.74	40807.24
537.91	41148.96
538.08	41172.36
538.25	41006.19
538.42	41060.02
538.59	41551.53
538.75	40755.75
538.92	41088.10
539.09	41177.04
539.26	41116.19
539.43	41251.94
539.60	41198.11
539.77	40610.64
539.94	41610.04
540.11	41240.24
540.28	41347.90
540.44	41167.68
540.61	41315.14
540.78	41380.67
540.95	41329.18
541.12	41343.22
541.29	41193.43
541.46	41474.29
541.62	41722.39
541.79	41727.07
541.96	41780.90
542.13	41783.24
542.30	41832.39
542.47	41883.89
542.63	42305.18
542.80	42085.17
542.97	42258.37
543.14	42703.07
543.31	42773.29
543.48	42347.31
543.64	43016.71
543.81	42560.30
543.98	42387.10
544.15	42623.50
544.32	42946.49
544.48	42824.78
544.65	42726.48
544.82	42773.29
544.99	42305.18
545.16	42616.47
545.32	42705.41
545.49	43611.20
545.66	43199.27
545.83	43264.80
546.00	43049.47
546.16	42897.34
546.33	42831.80
546.50	43084.58
546.67	43014.37
546.83	42789.67
547.00	43206.29
547.17	42981.60
547.34	43175.86
547.50	43021.39
547.67	43484.81
547.84	43356.08
548.00	43922.49
548.17	43835.89
548.34	43494.18
548.51	43842.92
548.67	43910.79
548.84	43543.33
549.01	43512.90
549.18	43524.60
549.34	43690.78
549.51	43807.81
549.68	44025.48
549.84	43641.63
550.01	44172.93
550.18	43807.81
550.34	43805.47
550.51	43899.09
550.68	43943.56
550.84	43487.15
551.01	44100.37
551.18	43945.90
551.34	44261.87
551.51	44009.09
551.68	44018.46
551.84	44299.32
552.01	43707.16
552.18	44006.75
552.34	43688.44
552.51	44236.12
552.68	44116.76
552.84	44505.29
553.01	44430.39
553.18	44184.63
553.34	44601.25
553.51	44301.66
553.67	44404.64
553.84	44851.69
554.01	44399.96
554.17	44905.52
554.34	44924.24
554.51	44886.79
554.67	44608.27
554.84	44257.19
555.00	44486.56
555.17	44411.67
555.33	44931.26
555.50	44818.92
555.67	44762.75
555.83	45146.59
556.00	44814.24
556.16	45024.89
556.33	45017.86
556.50	44987.44
556.66	44959.35
556.83	44868.07
556.99	44933.60
557.16	44879.77
557.32	45258.94
557.49	44921.90
557.65	45106.80
557.82	45139.57
557.98	44968.71
558.15	44959.35
558.32	45125.53
558.48	45048.29
558.65	45490.65
558.81	45088.08
558.98	44882.11
559.14	45069.36
559.31	45647.47
559.47	44992.12
559.64	45343.20
559.80	45738.75
559.97	45638.11
560.13	45036.59
560.30	45729.39
560.46	45041.27
560.63	45230.85
560.79	45886.20
560.96	45701.30
561.12	45144.25
561.29	45326.81
561.45	45867.48
561.61	45436.82
561.78	45881.52
561.94	45495.33
562.11	44985.10
562.27	45333.84
562.44	45324.47
562.60	45647.47
562.77	45888.54
562.93	45846.41
563.10	45762.15
563.26	45048.29
563.42	46036.00
563.59	45382.99
563.75	45329.16
563.92	45914.29
564.08	45397.03
564.24	45680.24
564.41	45766.84
564.57	45495.33
564.74	45813.65
564.90	45834.71
565.07	45879.18
565.23	45605.34
565.39	45453.20
565.56	45645.13
565.72	45504.70
565.88	45581.93
566.05	45954.08
566.21	45518.74
566.38	45876.84
566.54	45703.64
566.70	45984.51
566.87	46117.92
567.03	45703.64
567.19	46520.49
567.36	45827.69
567.52	45853.44
567.68	46239.62
567.85	45680.24
568.01	45598.32
568.17	45544.48
568.34	45956.42
568.50	45680.24
568.66	45759.81
568.83	46153.02
568.99	45343.20
569.15	45886.20
569.32	45443.84
569.48	45577.25
569.64	45904.93
569.81	45780.88
569.97	45951.74
570.13	45860.46
570.30	46045.36
570.46	45785.56
570.62	45656.83
570.78	45815.99
570.95	45612.36
571.11	45720.02
571.27	45921.31
571.43	45684.92
571.60	46089.83
571.76	45785.56
571.92	46225.58
572.09	45830.03
572.25	45954.08
572.41	46017.27
572.57	45977.48
572.74	46621.13
572.90	46398.78
573.06	46330.90
573.22	46265.37
573.38	45815.99
573.55	45963.44
573.71	46082.81
573.87	46506.44
574.03	45689.60
574.20	46141.32
574.36	46099.19
574.52	46361.33
574.68	45799.60
574.84	45844.07
575.01	46157.70
575.17	46490.06
575.33	45996.21
575.49	46045.36
575.65	46110.89
575.82	46387.08
575.98	45813.65
576.14	46560.28
576.30	46286.43
576.46	45907.27
576.62	45668.53
576.79	46017.27
576.95	45998.55
577.11	46174.09
577.27	46124.94
577.43	46366.01
577.59	46195.15
577.75	46110.89
577.92	46071.10
578.08	46052.38
578.24	46464.32
578.40	46211.54
578.56	45698.96
578.72	46160.05
578.88	46431.55
579.04	46525.17
579.21	45937.69
579.37	46014.93
579.53	46068.76
579.69	46066.42
579.85	46354.31
580.01	46422.19
580.17	45923.65
580.33	46183.45
580.49	46534.53
580.65	46445.59
580.82	46541.55
580.98	46136.64
581.14	45893.22
581.30	46499.42
581.46	46019.61
581.62	46127.28
581.78	46101.53
581.94	46600.07
582.10	46461.97
582.26	46469.00
582.42	46171.75
582.58	46323.88
582.74	46183.45
582.90	46333.24
583.06	46553.26
583.22	46234.94
583.38	46330.90
583.54	46745.18
583.70	46581.34
583.86	46330.90
584.02	45869.82
584.18	45979.82
584.34	46260.69
584.50	46197.49
584.66	46380.06
584.82	46361.33
584.98	46674.96
585.14	46546.23
585.30	45893.22
585.46	46337.93
585.62	46061.74
585.78	46330.90
585.94	45975.14
586.10	46185.79
586.26	46497.08
586.42	46471.34
586.58	46155.36
586.74	46473.68
586.90	46241.96
587.06	46579.00
587.22	46667.94
587.38	46440.91
587.54	46167.07
587.70	46642.20
587.86	46440.91
588.02	46295.80
588.18	46581.34
588.34	46361.33
588.49	45834.71
588.65	45928.33
588.81	46188.13
588.97	46092.17
589.13	45937.69
589.29	46480.70
589.45	46347.29
589.61	46553.26
589.77	46801.35
589.93	46103.87
