SpectraSuite Data File
++++++++++++++++++++++++++++++++++++
Date: Fri Oct 25 10:48:16 EDT 2013
User: price-jones
Dark Spectrum Present: No
Reference Spectrum Present: No
Number of Sampled Component Spectra: 1
Spectrometers: USB2+H05261
Integration Time (usec): 100000 (USB2+H05261)
Spectra Averaged: 1 (USB2+H05261)
Boxcar Smoothing: 0 (USB2+H05261)
Correct for Electrical Dark: No (USB2+H05261)
Strobe/Lamp Enabled: No (USB2+H05261)
Correct for Detector Non-linearity: No (USB2+H05261)
Correct for Stray Light: No (USB2+H05261)
Number of Pixels in Processed Spectrum: 2048
>>>>>Begin Processed Spectral Data<<<<<
365.73	107.66
365.92	107.66
366.12	107.66
366.32	81.92
366.52	51.49
366.72	145.11
366.91	79.58
367.11	7.02
367.31	42.13
367.51	0.00
367.70	121.71
367.90	93.62
368.10	39.79
368.30	70.22
368.49	67.88
368.69	28.09
368.89	121.71
369.09	46.81
369.28	30.43
369.48	16.38
369.68	105.32
369.87	58.51
370.07	112.35
370.27	112.35
370.47	238.73
370.66	379.17
370.86	451.72
371.06	477.47
371.25	470.45
371.45	414.27
371.65	482.15
371.84	498.53
372.04	493.85
372.24	482.15
372.44	468.11
372.63	538.32
372.83	533.64
373.03	491.51
373.22	592.16
373.42	528.96
373.62	603.86
373.81	451.72
374.01	660.03
374.21	564.07
374.40	526.62
374.60	620.24
374.79	550.03
374.99	592.16
375.19	678.76
375.38	603.86
375.58	540.66
375.78	641.31
375.97	603.86
376.17	648.33
376.37	561.73
376.56	695.14
376.76	564.07
376.95	631.94
377.15	636.63
377.35	641.31
377.54	641.31
377.74	613.22
377.93	643.65
378.13	688.12
378.33	711.52
378.52	655.35
378.72	645.99
378.91	620.24
379.11	664.71
379.31	585.13
379.50	627.26
379.70	746.63
379.89	727.91
380.09	671.73
380.28	608.54
380.48	683.44
380.68	699.82
380.87	657.69
381.07	770.04
381.26	748.97
381.46	692.80
381.65	657.69
381.85	683.44
382.04	681.10
382.24	746.63
382.43	739.61
382.63	713.86
382.83	798.12
383.02	732.59
383.22	704.50
383.41	739.61
383.61	763.01
383.80	802.80
384.00	711.52
384.19	823.87
384.39	814.51
384.58	713.86
384.78	847.27
384.97	692.80
385.17	791.10
385.36	856.64
385.56	877.70
385.75	798.12
385.95	826.21
386.14	891.74
386.34	889.40
386.53	866.00
386.72	821.53
386.92	901.11
387.11	882.38
387.31	936.21
387.50	952.60
387.70	861.32
387.89	837.91
388.09	873.02
388.28	896.43
388.48	856.64
388.67	903.45
388.86	976.00
389.06	987.71
389.25	971.32
389.45	966.64
389.64	959.62
389.84	985.37
390.03	1011.11
390.22	1027.50
390.42	1013.45
390.61	1057.92
390.81	968.98
391.00	1015.79
391.19	1093.03
391.39	1036.86
391.58	1022.81
391.78	1046.22
391.97	1043.88
392.16	1011.11
392.36	1095.37
392.55	1022.81
392.75	1025.15
392.94	966.64
393.13	1041.54
393.33	964.30
393.52	1144.52
393.71	1142.18
393.91	1100.05
394.10	1174.95
394.29	1048.56
394.49	1102.39
394.68	1210.06
394.88	1193.67
395.07	1324.74
395.26	1214.74
395.46	1228.78
395.65	1240.48
395.84	1172.61
396.04	1240.48
396.23	1174.95
396.42	1233.46
396.62	1163.25
396.81	1263.89
397.00	1125.80
397.19	1263.89
397.39	1324.74
397.58	1329.42
397.77	1355.17
397.97	1387.94
398.16	1291.98
398.35	1418.36
398.55	1394.96
398.74	1488.58
398.93	1523.69
399.12	1490.92
399.32	1409.00
399.51	1437.09
399.70	1509.65
399.90	1544.75
400.09	1451.13
400.28	1507.30
400.47	1629.01
400.67	1533.05
400.86	1551.78
401.05	1607.95
401.24	1696.89
401.44	1596.25
401.63	1619.65
401.82	1575.18
402.01	1614.97
402.21	1666.46
402.40	1699.23
402.59	1657.10
402.78	1584.54
402.97	1647.74
403.17	1781.15
403.36	1823.28
403.55	1753.06
403.74	1743.70
403.93	1736.68
404.13	1802.21
404.32	1888.81
404.51	1905.20
404.70	1837.32
404.89	1872.43
405.09	1947.33
405.28	1870.09
405.47	1884.13
405.66	1954.35
405.85	1914.56
406.05	1872.43
406.24	1863.07
406.43	1982.43
406.62	1947.33
406.81	2057.33
407.00	1998.82
407.20	1912.22
407.39	1912.22
407.58	2101.80
407.77	2038.61
407.96	2188.40
408.15	2120.53
408.34	2136.91
408.54	2153.29
408.73	2174.36
408.92	2073.71
409.11	2263.30
409.30	2169.68
409.49	2157.97
409.68	2214.15
409.87	2246.91
410.07	2319.47
410.26	2361.60
410.45	2359.26
410.64	2420.11
410.83	2382.67
411.02	2401.39
411.21	2483.31
411.40	2441.18
411.59	2600.34
411.78	2506.71
411.98	2656.51
412.17	2630.76
412.36	2663.53
412.55	2710.34
412.74	2670.55
412.93	2738.43
413.12	2621.40
413.31	2878.86
413.50	2700.98
413.69	2764.17
413.88	2722.04
414.07	2726.72
414.26	2848.43
414.45	2766.51
414.64	2775.88
414.83	2906.95
415.02	2925.67
415.22	3005.25
415.41	3084.83
415.60	2895.24
415.79	2993.55
415.98	3180.79
416.17	3213.56
416.36	3239.30
416.55	3236.96
416.74	3225.26
416.93	3185.47
417.12	3239.30
417.31	3143.34
417.50	3300.16
417.69	3311.86
417.88	3398.46
418.07	3290.79
418.26	3122.27
418.45	3342.28
418.64	3478.04
418.83	3421.86
419.02	3459.31
419.21	3475.70
419.39	3534.21
419.58	3400.80
419.77	3501.44
419.96	3536.55
420.15	3588.04
420.34	3681.66
420.53	3705.07
420.72	3693.37
420.91	3679.32
421.10	3801.03
421.29	3716.77
421.48	3564.64
421.67	3712.09
421.86	3721.45
422.05	3613.79
422.24	3651.24
422.43	3658.26
422.61	3782.31
422.80	3812.73
422.99	3943.80
423.18	3922.74
423.37	3843.16
423.56	3850.18
423.75	3798.69
423.94	3857.20
424.13	3609.11
424.32	3684.00
424.50	3810.39
424.69	3920.40
424.88	3854.86
425.07	3838.48
425.26	3826.78
425.45	3772.94
425.64	3721.45
425.83	3812.73
426.01	3974.23
426.20	3936.78
426.39	3742.52
426.58	3817.41
426.77	3817.41
426.96	3899.33
427.15	3791.67
427.33	3829.12
427.52	3990.61
427.71	4067.85
427.90	4025.72
428.09	4098.28
428.28	4124.02
428.46	4056.15
428.65	4067.85
428.84	4264.46
429.03	4301.90
429.22	3962.53
429.40	4100.62
429.59	4112.32
429.78	3922.74
429.97	3880.61
430.16	3985.93
430.34	3936.78
430.53	4032.74
430.72	4058.49
430.91	4234.03
431.10	4294.88
431.28	4442.34
431.47	4524.26
431.66	4557.02
431.85	4365.10
432.03	4547.66
432.22	4535.96
432.41	4468.08
432.60	4528.94
432.79	4449.36
432.97	4582.77
433.16	4538.30
433.35	4706.82
433.54	4503.19
433.72	4685.75
433.91	4547.66
434.10	4587.45
434.28	4540.64
434.47	4580.43
434.66	4812.14
434.85	4770.01
435.03	4772.35
435.22	4819.16
435.41	4826.18
435.59	4865.97
435.78	4924.49
435.97	4947.89
436.16	4929.17
436.34	4978.32
436.53	4873.00
436.72	5167.90
436.90	4964.28
437.09	4858.95
437.28	4905.76
437.46	4964.28
437.65	4837.89
437.84	4992.36
438.02	5008.75
438.21	5032.15
438.40	5011.09
438.58	5109.39
438.77	5266.21
438.96	5284.93
439.14	5425.36
439.33	5439.40
439.52	5378.55
439.70	5610.26
439.89	5493.24
440.08	5488.56
440.26	5633.67
440.45	5607.92
440.63	5680.48
440.82	5666.44
441.01	5694.52
441.19	5729.63
441.38	5987.09
441.57	5930.92
441.75	5827.93
441.94	6029.22
442.12	6031.56
442.31	6195.40
442.50	6132.20
442.68	6092.41
442.87	6136.88
443.05	6298.38
443.24	6361.58
443.43	6207.10
443.61	6312.42
443.80	6504.35
443.98	6214.12
444.17	6197.74
444.35	6153.27
444.54	6483.28
444.73	6155.61
444.91	6188.38
445.10	6258.59
445.28	6239.87
445.47	6153.27
445.65	6300.72
445.84	6354.55
446.02	6441.15
446.21	6265.61
446.39	6380.30
446.58	6394.34
446.77	6408.39
446.95	6408.39
447.14	6396.68
447.32	6593.29
447.51	6494.99
447.69	6399.02
447.88	6490.31
448.06	6471.58
448.25	6483.28
448.43	6630.74
448.62	6394.34
448.80	6445.84
448.99	6565.20
449.17	6731.38
449.36	6476.26
449.54	6759.47
449.73	6808.62
449.91	6960.75
450.10	6918.62
450.28	6888.20
450.46	6946.71
450.65	6946.71
450.83	6935.01
451.02	6881.18
451.20	7157.36
451.39	7272.04
451.57	6970.12
451.76	6878.83
451.94	6995.86
452.13	7056.72
452.31	6916.28
452.49	6892.88
452.68	7037.99
452.86	7035.65
453.05	7133.95
453.23	7166.72
453.42	7222.89
453.60	7077.78
453.78	7293.11
453.97	7094.16
454.15	7138.63
454.34	7162.04
454.52	7215.87
454.70	7222.89
454.89	7169.06
455.07	7318.86
455.26	7581.00
455.44	7475.67
455.62	7478.01
455.81	7552.91
455.99	7648.87
456.17	7529.50
456.36	7618.44
456.54	7611.42
456.73	7915.69
456.91	7882.92
457.09	7892.29
457.28	7948.46
457.46	7749.51
457.64	7950.80
457.83	7808.03
458.01	7714.41
458.19	8102.93
458.38	7812.71
458.56	8032.72
458.74	7850.16
458.93	8011.65
459.11	8114.64
459.29	8217.62
459.48	8004.63
459.66	8018.68
459.84	7932.08
460.03	8353.37
460.21	8173.15
460.39	7950.80
460.57	8407.20
460.76	8383.80
460.94	8444.65
461.12	8528.91
461.31	8482.10
461.49	8292.52
461.67	8407.20
461.85	8521.89
462.04	8538.27
462.22	9067.24
462.40	8734.88
462.59	8613.17
462.77	8589.77
462.95	8641.26
463.13	8702.11
463.32	8800.41
463.50	8676.37
463.68	8678.71
463.86	8678.71
464.05	8594.45
464.23	8720.84
464.41	8945.53
464.59	8573.38
464.78	8781.69
464.96	8730.20
465.14	8765.31
465.32	9069.58
465.50	8987.66
465.69	9050.85
465.87	8795.73
466.05	9071.92
466.23	8772.33
466.41	8905.74
466.60	9315.33
466.78	9022.77
466.96	9050.85
467.14	9004.04
467.32	9249.80
467.51	9142.13
467.69	9174.90
467.87	9088.30
468.05	9259.16
468.23	9156.18
468.41	9287.25
468.60	9205.33
468.78	9453.42
468.96	9411.29
469.14	9287.25
469.32	9544.70
469.50	9247.46
469.69	9542.36
469.87	9563.43
470.05	9621.94
470.23	9724.93
470.41	9628.96
470.59	9741.31
470.77	9680.46
470.95	9687.48
471.14	9813.87
471.32	9767.06
471.50	10031.54
471.68	10200.05
471.86	10043.24
472.04	10204.74
472.22	10270.27
472.40	9921.53
472.58	10001.11
472.77	10106.43
472.95	10267.93
473.13	10523.05
473.31	10200.05
473.49	10181.33
473.67	10272.61
473.85	10249.21
474.03	10747.74
474.21	10644.76
474.39	10534.75
474.57	10647.10
474.75	10974.77
474.93	10876.47
475.12	11138.61
475.30	10963.07
475.48	10822.64
475.66	11112.86
475.84	10960.73
476.02	10839.02
476.20	11152.65
476.38	11279.04
476.56	11482.67
476.74	11592.67
476.92	11613.74
477.10	11342.24
477.28	11880.56
477.46	11749.49
477.64	12074.82
477.82	11936.73
478.00	12077.16
478.18	12126.32
478.36	12098.23
478.54	12250.36
478.72	12524.21
478.90	12699.75
479.08	12781.67
479.26	13011.04
479.44	12903.37
479.62	12961.89
479.80	13121.04
479.98	13027.42
480.16	13245.09
480.34	13221.69
480.52	13591.49
480.70	13268.50
480.88	13277.86
481.06	13415.95
481.24	13338.71
481.41	13921.51
481.59	13923.85
481.77	13973.00
481.95	14146.20
482.13	14331.10
482.31	13996.40
482.49	14572.18
482.67	14525.36
482.85	14574.52
483.03	14597.92
483.21	14785.16
483.39	14918.57
483.57	14801.55
483.74	15047.30
483.92	15059.01
484.10	15150.29
484.28	15417.11
484.46	15665.21
484.64	16049.05
484.82	15730.74
485.00	15683.93
485.18	16102.89
485.35	15981.18
485.53	15786.91
485.71	15896.92
485.89	16154.38
486.07	15943.73
486.25	16072.46
486.43	16278.43
486.61	16549.93
486.78	16659.93
486.96	17099.95
487.14	17303.58
487.32	17448.69
487.50	17282.52
487.68	17593.81
487.85	18071.28
488.03	18003.40
488.21	18015.10
488.39	18054.89
488.57	18099.36
488.75	18504.28
488.92	18504.28
489.10	18623.64
489.28	18911.53
489.46	19283.67
489.64	19016.85
489.81	19646.46
489.99	19510.71
490.17	19590.28
490.35	20095.84
490.53	19571.56
490.70	20100.52
490.88	20475.01
491.06	20437.56
491.24	20189.46
491.41	20343.94
491.59	20533.52
491.77	20400.11
491.95	20577.99
492.13	20891.62
492.30	21010.99
492.48	21221.64
492.66	21570.38
492.84	21507.18
493.01	21757.62
493.19	21633.57
493.37	21837.20
493.54	21951.88
493.72	21912.10
493.90	22331.05
494.08	22560.42
494.25	22848.31
494.43	22450.42
494.61	22963.00
494.79	22820.22
494.96	22871.72
495.14	22829.59
495.32	23131.51
495.49	22965.34
495.67	23152.58
495.85	23566.85
496.02	23662.82
496.20	23828.99
496.38	23627.71
496.55	23880.49
496.73	24610.73
496.91	23616.01
497.09	24521.79
497.26	24851.81
497.44	24109.86
497.62	24620.10
497.79	24903.30
497.97	24603.71
498.14	25111.61
498.32	25020.33
498.50	25116.29
498.67	25214.59
498.85	25481.41
499.03	25876.96
499.20	25685.04
499.38	25600.78
499.56	25979.95
499.73	26115.70
499.91	26125.06
500.08	25834.83
500.26	25886.32
500.44	26192.94
500.61	26352.09
500.79	26359.11
500.97	26405.92
501.14	26569.76
501.32	26801.47
501.49	26513.59
501.67	26918.50
501.84	26881.05
502.02	27283.62
502.20	27197.02
502.37	26986.38
502.55	27386.61
502.72	27658.11
502.90	27419.38
503.07	27328.10
503.25	27381.93
503.43	27477.89
503.60	27819.61
503.78	27756.41
503.95	27709.60
504.13	28126.22
504.30	28128.56
504.48	27854.72
504.65	28301.76
504.83	28479.64
505.01	28580.28
505.18	28371.97
505.36	28704.33
505.53	28957.11
505.71	29177.12
505.88	28816.68
506.06	28959.45
506.23	29151.37
506.41	28856.46
506.58	29249.67
506.76	29345.64
506.93	29404.15
507.11	29472.03
507.28	29706.08
507.46	29488.41
507.63	29649.91
507.81	29900.34
507.98	29560.97
508.16	29628.84
508.33	30122.69
508.50	30195.25
508.68	30190.57
508.85	30560.37
509.03	30319.30
509.20	30391.86
509.38	30242.06
509.55	30888.05
509.73	30719.53
509.90	30920.82
510.08	30806.13
510.25	31103.38
510.42	30782.73
510.60	31112.74
510.77	31491.91
510.95	31484.89
511.12	31384.24
511.30	31358.50
511.47	31850.01
511.64	32275.99
511.82	32318.12
511.99	31152.53
512.17	31796.18
512.34	31667.45
512.51	32016.19
512.69	31999.80
512.86	32072.36
513.04	31981.08
513.21	32666.86
513.38	32676.22
513.56	32400.04
513.73	32112.15
513.90	32439.82
514.08	32732.39
514.25	32879.85
514.43	32423.44
514.60	32521.74
514.77	32952.40
514.95	33106.88
515.12	33036.66
515.29	33394.76
515.47	33469.66
515.64	33347.95
515.81	33308.16
515.99	33467.32
516.16	33429.87
516.33	33233.27
516.51	32950.06
516.68	33010.92
516.85	33212.20
517.03	33406.47
517.20	33521.15
517.37	33825.42
517.54	33970.54
517.72	33926.07
517.89	33727.12
518.06	33846.49
518.24	34125.01
518.41	33677.97
518.58	34155.44
518.75	33991.60
518.93	34354.38
519.10	34328.64
519.27	34455.03
519.45	34436.30
519.62	34773.34
519.79	35096.33
519.96	34775.68
520.14	34672.70
520.31	34946.54
520.48	34735.89
520.65	35021.44
520.83	35569.12
521.00	35433.37
521.17	35388.90
521.34	35541.03
521.52	35328.05
521.69	35749.34
521.86	35967.01
522.03	36053.61
522.20	35747.00
522.38	36006.80
522.55	35772.75
522.72	35803.17
522.89	36114.47
523.07	36168.30
523.24	36013.82
523.41	36561.51
523.58	36591.94
523.75	36414.05
523.92	36739.39
524.10	36699.60
524.27	36748.75
524.44	36891.52
524.61	36935.99
524.78	36725.35
524.96	36961.74
525.13	37134.94
525.30	37233.24
525.47	37383.04
525.64	37457.93
525.81	36774.50
525.98	37088.13
526.16	36676.19
526.33	36966.42
526.50	37673.26
526.67	37188.77
526.84	37207.50
527.01	37069.40
527.18	37256.65
527.36	37631.13
527.53	37858.17
527.70	38043.07
527.87	38354.36
528.04	37811.35
528.21	37640.50
528.38	37497.72
528.55	38471.39
528.72	38590.75
528.89	38349.68
529.07	38618.84
529.24	38433.94
529.41	38541.60
529.58	38520.54
529.75	38139.03
529.92	38178.82
530.09	38405.85
530.26	38513.52
530.43	38845.87
530.60	38873.96
530.77	38396.49
530.94	38904.38
531.11	38967.58
531.28	38618.84
531.46	39166.52
531.63	39264.83
531.80	38710.12
531.97	38754.59
532.14	39292.91
532.31	38822.47
532.48	39007.37
532.65	39395.90
532.82	39164.18
532.99	39260.15
533.16	39136.10
533.33	39756.34
533.50	39749.32
533.67	39592.50
533.84	39150.14
534.01	40086.36
534.18	39311.64
534.35	39620.59
534.52	39817.19
534.69	39531.65
534.86	39962.31
535.03	40114.44
535.20	40184.66
535.37	40690.21
535.54	40509.99
535.71	40191.68
535.88	40079.33
536.05	40123.80
536.22	39964.65
536.38	40458.50
536.55	40411.69
536.72	40184.66
536.89	39910.82
537.06	40509.99
537.23	40315.73
537.40	40315.73
537.57	40620.00
537.74	40556.80
537.91	40875.12
538.08	40950.01
538.25	40278.28
538.42	40952.35
538.59	40978.10
538.75	40769.79
538.92	40713.62
539.09	41256.62
539.26	41144.28
539.43	40858.73
539.60	40919.59
539.77	40940.65
539.94	40804.90
540.11	41106.83
540.28	40603.61
540.44	41038.95
540.61	40863.41
540.78	41083.42
540.95	41223.86
541.12	41109.17
541.29	41111.51
541.46	41490.68
541.62	41645.15
541.79	41528.13
541.96	41481.31
542.13	41432.16
542.30	41305.77
542.47	42031.34
542.63	41787.92
542.80	42337.95
542.97	42157.73
543.14	42373.06
543.31	42288.80
543.48	41839.42
543.64	42691.37
543.81	42227.95
543.98	42415.19
544.15	42052.41
544.32	42712.44
544.48	42775.63
544.65	42391.78
544.82	42731.16
544.99	42209.22
545.16	42415.19
545.32	42274.76
545.49	42459.66
545.66	42822.44
545.83	42864.57
546.00	42876.27
546.16	42838.83
546.33	42815.42
546.50	42391.78
546.67	43023.73
546.83	42220.92
547.00	42768.61
547.17	42925.42
547.34	42747.54
547.50	43463.75
547.67	43428.64
547.84	43178.20
548.00	43454.39
548.17	43194.59
548.34	43157.14
548.51	43599.50
548.67	43508.22
548.84	43477.79
549.01	43295.23
549.18	42979.26
549.34	43540.99
549.51	43372.47
549.68	43585.46
549.84	43480.13
550.01	43613.54
550.18	43168.84
550.34	43454.39
550.51	43283.53
550.68	43658.01
550.84	43805.47
551.01	43889.73
551.18	43260.12
551.34	43367.79
551.51	43955.26
551.68	44048.88
551.84	43878.02
552.01	43498.86
552.18	43566.73
552.34	43599.50
552.51	44350.81
552.68	43995.05
552.84	44095.69
553.01	44680.83
553.18	43999.73
553.34	44067.61
553.51	43873.34
553.67	44076.97
553.84	44315.70
554.01	44421.03
554.17	44292.30
554.34	44556.78
554.51	44851.69
554.67	44507.63
554.84	44399.96
555.00	44416.35
555.17	44449.11
555.33	44898.50
555.50	44533.37
555.67	44416.35
555.83	44612.95
556.00	44355.49
556.16	44676.15
556.33	44589.55
556.50	44664.44
556.66	44439.75
556.83	44877.43
556.99	44954.67
557.16	44526.35
557.32	44847.00
557.49	44783.81
557.65	44612.95
557.82	44891.48
557.98	44603.59
558.15	44638.70
558.32	44811.90
558.48	44673.81
558.65	44605.93
558.81	44842.32
558.98	44751.04
559.14	44807.22
559.31	44954.67
559.47	45067.02
559.64	45329.16
559.80	45209.79
559.97	44940.63
560.13	45123.19
560.30	44753.38
560.46	44994.46
560.63	45052.97
560.79	45474.27
560.96	45153.62
561.12	45074.04
561.29	45074.04
561.45	45258.94
561.61	45289.37
561.78	45212.13
561.94	44666.78
562.11	45020.20
562.27	45071.70
562.44	45104.46
562.60	45666.19
562.77	45612.36
562.93	45312.77
563.10	45757.47
563.26	45336.18
563.42	44994.46
563.59	45235.53
563.75	45394.69
563.92	45670.87
564.08	45221.49
564.24	45698.96
564.41	45179.36
564.57	45528.10
564.74	45500.01
564.90	45638.11
565.07	45474.27
565.23	45483.63
565.39	45249.58
565.56	45790.24
565.72	45460.23
565.88	45478.95
566.05	45422.78
566.21	45713.00
566.38	45212.13
566.54	45750.45
566.70	46005.57
566.87	46050.04
567.03	45797.26
567.19	45923.65
567.36	45600.66
567.52	45933.01
567.68	45397.03
567.85	45603.00
568.01	45876.84
568.17	45141.91
568.34	45502.35
568.50	45507.04
568.66	45638.11
568.83	45909.61
568.99	45621.72
569.15	45528.10
569.32	45628.74
569.48	45614.70
569.64	45808.96
569.81	45553.85
569.97	45432.14
570.13	45743.43
570.30	45537.46
570.46	45467.25
570.62	45607.68
570.78	45567.89
570.95	45162.98
571.11	45918.97
571.27	45511.72
571.43	45317.45
571.60	45839.39
571.76	45731.73
571.92	45886.20
572.09	45638.11
572.25	46045.36
572.41	46073.45
572.57	45916.63
572.74	46487.72
572.90	46082.81
573.06	46005.57
573.22	46153.02
573.38	46150.68
573.55	45731.73
573.71	45633.42
573.87	45930.67
574.03	45869.82
574.20	46141.32
574.36	45668.53
574.52	45811.31
574.68	45897.91
574.84	46155.36
575.01	45771.52
575.17	45886.20
575.33	45925.99
575.49	45916.63
575.65	45977.48
575.82	46120.26
575.98	46253.67
576.14	46328.56
576.30	45998.55
576.46	46066.42
576.62	45663.85
576.79	45340.86
576.95	45631.08
577.11	45670.87
577.27	45846.41
577.43	45818.33
577.59	45963.44
577.75	45797.26
577.92	45902.59
578.08	45647.47
578.24	45471.93
578.40	45666.19
578.56	45748.11
578.72	45902.59
578.88	45745.77
579.04	46307.50
579.21	46134.30
579.37	45907.27
579.53	46101.53
579.69	45647.47
579.85	46045.36
580.01	46167.07
580.17	46188.13
580.33	46110.89
580.49	46185.79
580.65	46117.92
580.82	46375.37
580.98	46099.19
581.14	45621.72
581.30	46019.61
581.46	46141.32
581.62	46307.50
581.78	46005.57
581.94	46375.37
582.10	45890.88
582.26	46415.16
582.42	45888.54
582.58	45944.72
582.74	45954.08
582.90	45940.04
583.06	46108.55
583.22	46019.61
583.38	46230.26
583.54	46237.28
583.70	46014.93
583.86	46330.90
584.02	46080.47
584.18	46452.61
584.34	46073.45
584.50	45902.59
584.66	45865.14
584.82	45855.78
584.98	46265.37
585.14	46288.77
585.30	45996.21
585.46	46153.02
585.62	45904.93
585.78	45860.46
585.94	45916.63
586.10	45914.29
586.26	45811.31
586.42	46148.34
586.58	46103.87
586.74	46010.25
586.90	46167.07
587.06	45935.35
587.22	46326.22
587.38	45773.86
587.54	46113.23
587.70	45883.86
587.86	45958.76
588.02	46089.83
588.18	46244.30
588.34	46078.13
588.49	45715.34
588.65	45214.47
588.81	45755.13
588.97	45755.13
589.13	45497.67
589.29	45933.01
589.45	45965.78
589.61	46190.47
589.77	46373.03
589.93	46288.77
