SpectraSuite Data File
++++++++++++++++++++++++++++++++++++
Date: Fri Oct 25 11:23:37 EDT 2013
User: price-jones
Dark Spectrum Present: No
Reference Spectrum Present: No
Number of Sampled Component Spectra: 1
Spectrometers: USB2+H05261
Integration Time (usec): 100000 (USB2+H05261)
Spectra Averaged: 1 (USB2+H05261)
Boxcar Smoothing: 0 (USB2+H05261)
Correct for Electrical Dark: No (USB2+H05261)
Strobe/Lamp Enabled: No (USB2+H05261)
Correct for Detector Non-linearity: No (USB2+H05261)
Correct for Stray Light: No (USB2+H05261)
Number of Pixels in Processed Spectrum: 2048
>>>>>Begin Processed Spectral Data<<<<<
365.73	203.63
365.92	203.63
366.12	203.63
366.32	131.07
366.52	161.50
366.72	117.03
366.91	107.66
367.11	159.16
367.31	159.16
367.51	91.28
367.70	152.13
367.90	133.41
368.10	81.92
368.30	84.26
368.49	72.56
368.69	147.45
368.89	119.37
369.09	110.01
369.28	163.84
369.48	266.82
369.68	182.56
369.87	236.39
370.07	194.26
370.27	231.71
370.47	294.91
370.66	543.00
370.86	587.47
371.06	772.38
371.25	704.50
371.45	660.03
371.65	706.84
371.84	627.26
372.04	599.18
372.24	753.65
372.44	716.20
372.63	730.25
372.83	774.72
373.03	741.95
373.22	671.73
373.42	711.52
373.62	777.06
373.81	784.08
374.01	816.85
374.21	856.64
374.40	828.55
374.60	819.19
374.79	835.57
374.99	847.27
375.19	786.42
375.38	851.96
375.58	767.70
375.78	809.83
375.97	798.12
376.17	812.17
376.37	858.98
376.56	814.51
376.76	816.85
376.95	915.15
377.15	987.71
377.35	866.00
377.54	978.34
377.74	866.00
377.93	821.53
378.13	837.91
378.33	943.24
378.52	931.53
378.72	910.47
378.91	1015.79
379.11	968.98
379.31	961.96
379.50	985.37
379.70	1004.09
379.89	922.17
380.09	959.62
380.28	908.13
380.48	983.02
380.68	976.00
380.87	950.26
381.07	1043.88
381.26	1011.11
381.46	1034.52
381.65	1107.07
381.85	1057.92
382.04	1064.94
382.24	1036.86
382.43	1069.62
382.63	1083.67
382.83	1062.60
383.02	1167.93
383.22	1146.86
383.41	1156.22
383.61	1121.12
383.80	1088.35
384.00	1027.50
384.19	1025.15
384.39	1170.27
384.58	1142.18
384.78	1203.04
384.97	1196.01
385.17	1205.38
385.36	1151.54
385.56	1193.67
385.75	1114.10
385.95	1252.19
386.14	1254.53
386.34	1149.20
386.53	1287.29
386.72	1212.40
386.92	1212.40
387.11	1238.14
387.31	1249.85
387.50	1238.14
387.70	1256.87
387.89	1303.68
388.09	1259.21
388.28	1268.57
388.48	1259.21
388.67	1240.48
388.86	1350.49
389.06	1268.57
389.25	1348.15
389.45	1331.76
389.64	1434.75
389.84	1409.00
390.03	1434.75
390.22	1404.32
390.42	1320.06
390.61	1413.68
390.81	1387.94
391.00	1397.30
391.19	1451.13
391.39	1373.89
391.58	1467.52
391.78	1467.52
391.97	1425.39
392.16	1486.24
392.36	1467.52
392.55	1565.82
392.75	1472.20
392.94	1561.14
393.13	1598.59
393.33	1486.24
393.52	1497.94
393.71	1626.67
393.91	1563.48
394.10	1589.22
394.29	1710.93
394.49	1652.42
394.68	1624.33
394.88	1645.40
395.07	1659.44
395.26	1633.69
395.46	1722.63
395.65	1638.38
395.84	1678.16
396.04	1762.42
396.23	1792.85
396.42	1727.32
396.62	1755.40
396.81	1771.79
397.00	1792.85
397.19	1870.09
397.39	1732.00
397.58	1743.70
397.77	1783.49
397.97	1856.04
398.16	1905.20
398.35	2005.84
398.55	1816.26
398.74	1827.96
398.93	2036.27
399.12	1900.52
399.32	1877.11
399.51	1987.11
399.70	1991.80
399.90	1909.88
400.09	1982.43
400.28	2083.08
400.47	1996.48
400.67	2047.97
400.86	2062.01
401.05	2054.99
401.24	2155.63
401.44	2146.27
401.63	2033.93
401.82	2214.15
402.01	2062.01
402.21	2221.17
402.40	2225.85
402.59	2275.00
402.78	2307.77
402.97	2172.02
403.17	2256.28
403.36	2228.19
403.55	2319.47
403.74	2335.85
403.93	2370.96
404.13	2342.88
404.32	2368.62
404.51	2279.68
404.70	2417.77
404.89	2403.73
405.09	2424.80
405.28	2485.65
405.47	2595.65
405.66	2506.71
405.85	2590.97
406.05	2389.69
406.24	2546.50
406.43	2523.10
406.62	2663.53
406.81	2558.21
407.00	2567.57
407.20	2530.12
407.39	2684.59
407.58	2626.08
407.77	2782.90
407.96	2768.85
408.15	2698.64
408.34	2719.70
408.54	2738.43
408.73	2841.41
408.92	2815.66
409.11	2881.20
409.30	2892.90
409.49	2881.20
409.68	2853.11
409.87	2960.78
410.07	2963.12
410.26	3012.27
410.45	3042.70
410.64	2946.73
410.83	3183.13
411.02	3040.36
411.21	3194.83
411.40	3166.74
411.59	3225.26
411.78	3269.73
411.98	3243.98
412.17	3255.69
412.36	3262.71
412.55	3220.58
412.74	3337.60
412.93	3403.14
413.12	3461.65
413.31	3634.85
413.50	3372.71
413.69	3634.85
413.88	3604.42
414.07	3606.77
414.26	3590.38
414.45	3740.18
414.64	3590.38
414.83	3681.66
415.02	3782.31
415.22	3676.98
415.41	3969.55
415.60	3672.30
415.79	3873.59
415.98	4058.49
416.17	3915.72
416.36	3988.27
416.55	4025.72
416.74	4011.68
416.93	4219.99
417.12	4109.98
417.31	4297.22
417.50	4105.30
417.69	4180.20
417.88	4341.69
418.07	4339.35
418.26	4294.88
418.45	4425.95
418.64	4472.76
418.83	4346.37
419.02	4449.36
419.21	4491.49
419.39	4559.36
419.58	4437.66
419.77	4421.27
419.96	4685.75
420.15	4683.41
420.34	4650.64
420.53	4636.60
420.72	4784.06
420.91	4603.83
421.10	4669.37
421.29	4877.68
421.48	4638.94
421.67	4755.97
421.86	4793.42
422.05	4835.55
422.24	4793.42
422.43	4898.74
422.61	4938.53
422.80	4966.62
422.99	4910.44
423.18	5027.47
423.37	5018.11
423.56	4894.06
423.75	4882.36
423.94	4856.61
424.13	4692.77
424.32	4901.08
424.50	5015.77
424.69	5043.85
424.88	5029.81
425.07	4992.36
425.26	4863.63
425.45	4966.62
425.64	4863.63
425.83	5011.09
426.01	4945.55
426.20	4957.25
426.39	5151.52
426.58	5032.15
426.77	4959.60
426.96	5263.86
427.15	5116.41
427.33	5188.97
427.52	5078.96
427.71	5067.26
427.90	5137.48
428.09	5303.65
428.28	5474.51
428.46	5270.89
428.65	5483.88
428.84	5509.62
429.03	5626.65
429.22	5437.06
429.40	5390.25
429.59	5577.50
429.78	5376.21
429.97	5177.26
430.16	5406.64
430.34	5746.02
430.53	5720.27
430.72	5591.54
430.91	5514.30
431.10	5575.16
431.28	5717.93
431.47	5966.03
431.66	5863.04
431.85	5778.78
432.03	5870.06
432.22	5823.25
432.41	5977.73
432.60	5872.40
432.79	5937.94
432.97	6003.47
433.16	6073.69
433.35	5724.95
433.54	6197.74
433.72	6223.48
433.91	6029.22
434.10	6069.01
434.28	6143.91
434.47	6169.65
434.66	6277.32
434.85	6141.57
435.03	6441.15
435.22	6232.85
435.41	6490.31
435.59	6303.06
435.78	6558.18
435.97	6392.00
436.16	6354.55
436.34	6539.46
436.53	6541.80
436.72	6595.63
436.90	6572.22
437.09	6750.10
437.28	6389.66
437.46	6586.27
437.65	6544.14
437.84	6789.89
438.02	6675.21
438.21	6604.99
438.40	6595.63
438.58	6993.52
438.77	6974.80
438.96	7070.76
439.14	7056.72
439.33	7323.54
439.52	7119.91
439.70	7309.49
439.89	7208.85
440.08	7323.54
440.26	7337.58
440.45	7117.57
440.63	7538.87
440.82	7578.65
441.01	7655.89
441.19	7712.07
441.38	7492.05
441.57	7588.02
441.75	7796.32
441.94	7976.55
442.12	7777.60
442.31	7946.12
442.50	8219.96
442.68	7990.59
442.87	8013.99
443.05	8257.41
443.24	8131.02
443.43	8182.51
443.61	8105.28
443.80	8521.89
443.98	7992.93
444.17	7829.09
444.35	8091.23
444.54	8489.12
444.73	8439.97
444.91	8229.32
445.10	8400.18
445.28	8332.31
445.47	8315.92
445.65	8290.18
445.84	8365.07
446.02	8463.38
446.21	8400.18
446.39	8292.52
446.58	8491.46
446.77	8564.02
446.95	8461.04
447.14	8435.29
447.32	8547.64
447.51	8308.90
447.69	8479.76
447.88	8667.00
448.06	8622.53
448.25	8538.27
448.43	8706.79
448.62	8348.69
448.80	8374.44
448.99	8683.39
449.17	8835.52
449.36	8720.84
449.54	8788.71
449.73	8910.42
449.91	8879.99
450.10	8858.93
450.28	8997.02
450.46	9092.98
450.65	9043.83
450.83	9158.52
451.02	9095.32
451.20	9221.71
451.39	9385.55
451.57	9144.47
451.76	9090.64
451.94	8959.57
452.13	9327.03
452.31	9383.21
452.49	9107.02
452.68	9366.82
452.86	9322.35
453.05	9387.89
453.23	9554.07
453.42	9453.42
453.60	9364.48
453.78	9692.16
453.97	9207.67
454.15	9565.77
454.34	9509.60
454.52	9778.76
454.70	9722.59
454.89	9713.22
455.07	9863.02
455.26	9912.17
455.44	9823.23
455.62	9916.85
455.81	10012.81
455.99	10052.60
456.17	10087.71
456.36	10256.23
456.54	10244.52
456.73	10345.17
456.91	10389.64
457.09	10382.62
457.28	10384.96
457.46	10265.59
457.64	10693.91
457.83	10354.53
458.01	10422.41
458.19	10658.80
458.38	10567.52
458.56	10839.02
458.74	10743.06
458.93	10724.33
459.11	10890.51
459.29	10658.80
459.48	10841.36
459.66	10932.64
459.84	10937.32
460.03	11061.37
460.21	11103.50
460.39	10895.19
460.57	11052.01
460.76	11091.80
460.94	11126.91
461.12	11328.19
461.31	11314.15
461.49	11274.36
461.67	11103.50
461.85	11508.41
462.04	11325.85
462.22	11559.91
462.40	11641.82
462.59	11555.22
462.77	11618.42
462.95	11506.07
463.13	11363.30
463.32	11676.93
463.50	11740.13
463.68	11679.27
463.86	11955.46
464.05	11756.51
464.23	11751.83
464.41	11871.20
464.59	11566.93
464.78	12025.67
464.96	12088.87
465.14	11906.31
465.32	12009.29
465.50	12208.23
465.69	12205.89
465.87	12336.96
466.05	12154.40
466.23	12294.83
466.41	12123.98
466.60	12449.31
466.78	12105.25
466.96	12189.51
467.14	12528.89
467.32	12329.94
467.51	12489.10
467.69	12238.66
467.87	12666.98
468.05	12791.03
468.23	12322.92
468.41	12418.88
468.60	12784.01
468.78	12830.82
468.96	12730.17
469.14	12910.40
469.32	12769.96
469.50	12666.98
469.69	12870.61
469.87	13001.68
470.05	13179.56
470.23	13177.22
470.41	12980.61
470.59	13144.45
470.77	13322.33
470.95	13198.28
471.14	13425.31
471.32	13191.26
471.50	13413.61
471.68	13696.82
471.86	13331.69
472.04	13717.88
472.22	14185.99
472.40	13776.39
472.58	13877.04
472.77	13963.64
472.95	14155.56
473.13	14663.46
473.31	14209.39
473.49	14223.44
473.67	14087.68
473.85	14546.43
474.03	14876.44
474.21	14459.83
474.39	14841.34
474.57	14658.78
474.75	14792.19
474.93	15154.97
475.12	15119.86
475.30	15159.65
475.48	15194.76
475.66	15183.06
475.84	15351.57
476.02	15227.53
476.20	15363.28
476.38	15824.36
476.56	15971.82
476.74	16039.69
476.92	15786.91
477.10	15807.98
477.28	16166.08
477.46	16318.22
477.64	16348.64
477.82	16606.10
478.00	16987.61
478.18	16521.84
478.36	16568.65
478.54	17256.77
478.72	17294.22
478.90	17535.29
479.08	17537.63
479.26	17549.34
479.44	17724.88
479.62	17820.84
479.80	18176.60
479.98	18122.77
480.16	18436.40
480.34	18293.63
480.52	18579.17
480.70	18705.56
480.88	18209.37
481.06	18895.14
481.24	19222.82
481.41	19084.73
481.59	19058.98
481.77	19452.19
481.95	19571.56
482.13	19761.14
482.31	19861.79
482.49	20060.73
482.67	20222.23
482.85	20552.24
483.03	20610.76
483.21	20926.73
483.39	21036.74
483.57	21062.48
483.74	21188.87
483.92	21465.05
484.10	21221.64
484.28	21654.64
484.46	22242.11
484.64	22370.84
484.82	21804.43
485.00	22340.41
485.18	22651.70
485.35	22948.95
485.53	22829.59
485.71	22930.23
485.89	23529.41
486.07	23297.69
486.25	23538.77
486.43	23344.50
486.61	23845.38
486.78	24049.00
486.96	24285.40
487.14	24517.11
487.32	24685.63
487.50	24947.77
487.68	24943.09
487.85	25303.53
488.03	25130.33
488.21	25420.56
488.39	25642.91
488.57	26319.32
488.75	26338.05
488.92	26218.68
489.10	26820.20
489.28	27049.57
489.46	27491.93
489.64	27061.27
489.81	27709.60
489.99	27953.02
490.17	27803.22
490.35	28002.17
490.53	28648.16
490.70	28580.28
490.88	28390.70
491.06	28701.99
491.24	29142.01
491.41	29259.04
491.59	29219.25
491.77	29282.44
491.95	29605.44
492.13	29806.72
492.30	29958.86
492.48	30251.42
492.66	30373.13
492.84	30551.01
493.01	30614.21
493.19	30602.50
493.37	31105.72
493.54	31370.20
493.72	31728.30
493.90	31484.89
494.08	31676.81
494.25	31646.38
494.43	31929.59
494.61	32397.70
494.79	32973.47
494.96	32374.29
495.14	32814.31
495.32	32954.74
495.49	33626.48
495.67	33376.04
495.85	33713.08
496.02	33680.31
496.20	34155.44
496.38	34017.35
496.55	34335.66
496.73	34799.08
496.91	34656.31
497.09	35098.67
497.26	34911.43
497.44	34705.46
497.62	35358.47
497.79	35786.79
497.97	35552.74
498.14	36009.14
498.32	36126.17
498.50	36446.82
498.67	36561.51
498.85	36385.97
499.03	37015.57
499.20	36580.23
499.38	36924.29
499.56	36945.36
499.73	37123.24
499.91	37209.84
500.08	37862.85
500.26	37455.59
500.44	37483.68
500.61	37766.88
500.79	37832.42
500.97	38600.12
501.14	38555.64
501.32	38597.77
501.49	38642.24
501.67	39138.44
501.84	38916.09
502.02	38810.76
502.20	39468.45
502.37	39552.71
502.55	39332.70
502.72	39281.21
502.90	39501.22
503.07	39805.49
503.25	40081.67
503.43	39997.41
503.60	40095.72
503.78	40030.18
503.95	40704.26
504.13	40699.58
504.30	40573.19
504.48	40430.41
504.65	40645.74
504.83	40893.84
505.01	41411.10
505.18	40945.33
505.36	41343.22
505.53	41493.02
505.71	41535.15
505.88	41598.34
506.06	41713.03
506.23	42043.04
506.41	42014.96
506.58	42220.92
506.76	42258.37
506.93	42225.60
507.11	42597.75
507.28	42682.01
507.46	42609.45
507.63	42841.17
507.81	43145.44
507.98	42775.63
508.16	42918.40
508.33	43388.85
508.50	43557.37
508.68	43866.32
508.85	44329.75
509.03	43428.64
509.20	44002.07
509.38	44456.14
509.55	44470.18
509.73	44842.32
509.90	44531.03
510.08	44966.37
510.25	44442.09
510.42	44928.92
510.60	45123.19
510.77	45411.07
510.95	45455.54
511.12	45406.39
511.30	45029.57
511.47	45504.70
511.64	45738.75
511.82	45750.45
511.99	45773.86
512.17	45738.75
512.34	46031.32
512.51	46312.18
512.69	46263.03
512.86	46433.89
513.04	46721.77
513.21	46529.85
513.38	46777.95
513.56	46801.35
513.73	46583.68
513.90	47016.68
514.08	47122.01
514.25	47264.78
514.43	47547.98
514.60	47608.84
514.77	47470.75
514.95	47686.07
515.12	47627.56
515.29	47299.89
515.47	47849.91
515.64	48362.49
515.81	48341.42
515.99	48385.89
516.16	48259.51
516.33	48786.13
516.51	48949.96
516.68	48488.88
516.85	48502.92
517.03	48690.16
517.20	49038.90
517.37	48790.81
517.54	49031.88
517.72	48959.33
517.89	48739.32
518.06	48767.40
518.24	49125.50
518.41	49195.72
518.58	49265.94
518.75	49502.33
518.93	49483.61
519.10	49694.25
519.27	49614.68
519.45	49633.40
519.62	50263.00
519.79	50321.52
519.96	50195.13
520.14	50199.81
520.31	50108.53
520.48	50445.57
520.65	50445.57
520.83	50827.07
521.00	50717.07
521.17	50424.50
521.34	50461.95
521.52	50738.13
521.69	50976.87
521.86	51210.92
522.03	51227.31
522.20	51327.95
522.38	51510.51
522.55	51475.40
522.72	51454.34
522.89	51583.07
523.07	51599.45
523.24	51529.23
523.41	51948.19
523.58	51370.08
523.75	51889.68
523.92	51622.86
524.10	52144.80
524.27	52165.86
524.44	52004.36
524.61	52109.69
524.78	52317.99
524.96	52437.36
525.13	52193.95
525.30	52505.24
525.47	52465.45
525.64	52512.26
525.81	52683.12
525.98	52748.65
526.16	52650.35
526.33	52664.39
526.50	53200.38
526.67	52687.80
526.84	53125.48
527.01	52846.96
527.18	53148.88
527.36	53043.56
527.53	52893.77
527.70	53359.53
527.87	53556.14
528.04	53024.84
528.21	53415.71
528.38	53099.73
528.55	53436.77
528.72	53492.94
528.89	53474.22
529.07	53340.81
529.24	53591.25
529.41	53750.40
529.58	53420.39
529.75	53631.04
529.92	53858.07
530.09	53937.65
530.26	53942.33
530.43	54291.07
530.60	53874.45
530.77	53820.62
530.94	54106.16
531.11	53942.33
531.28	54274.68
531.46	54508.74
531.63	54443.20
531.80	54525.12
531.97	54600.02
532.14	54897.27
532.31	54377.67
532.48	54508.74
532.65	54703.00
532.82	54445.54
532.99	54880.88
533.16	54447.88
533.33	54969.82
533.50	55089.19
533.67	54930.03
533.84	54827.05
534.01	54939.39
534.18	54976.84
534.35	55297.50
534.52	55274.09
534.69	55276.43
534.86	55381.76
535.03	55112.59
535.20	55255.37
535.37	55538.57
535.54	55463.67
535.71	55274.09
535.88	55208.56
536.05	55639.22
536.22	55430.91
536.38	55711.77
536.55	55601.77
536.72	55777.31
536.89	55585.38
537.06	55739.86
537.23	55936.46
537.40	55405.16
537.57	55852.20
537.74	55941.14
537.91	55957.53
538.08	55688.37
538.25	55931.78
538.42	55943.48
538.59	56184.56
538.75	55934.12
538.92	56317.97
539.09	56306.27
539.26	56130.73
539.43	55976.25
539.60	56467.76
539.77	56023.06
539.94	56528.62
540.11	56411.59
540.28	56699.48
540.44	56491.17
540.61	56402.23
540.78	56413.93
540.95	56612.88
541.12	56329.67
541.29	56640.96
541.46	56669.05
541.62	56659.69
541.79	56996.73
541.96	56308.61
542.13	56549.68
542.30	56619.90
542.47	56898.42
542.63	56786.08
542.80	57078.64
542.97	57106.73
543.14	57172.27
543.31	57329.08
543.48	57373.55
543.64	57605.26
543.81	57209.71
543.98	57413.34
544.15	57483.56
544.32	57551.43
544.48	57673.14
544.65	57528.03
544.82	57422.70
544.99	57176.95
545.16	57513.98
545.32	57511.64
545.49	57518.67
545.66	57794.85
545.83	57946.98
546.00	58028.90
546.16	57656.76
546.33	57516.32
546.50	57551.43
546.67	57588.88
546.83	57478.88
547.00	57851.02
547.17	57827.62
547.34	57787.83
547.50	58045.29
547.67	58230.19
547.84	58141.25
548.00	58216.14
548.17	58218.49
548.34	58120.18
548.51	58347.21
548.67	58260.62
548.84	58262.96
549.01	58162.31
549.18	58138.91
549.34	58143.59
549.51	58326.15
549.68	58351.90
549.84	58398.71
550.01	58513.39
550.18	58244.23
550.34	58487.65
550.51	58466.58
550.68	58464.24
550.84	58344.87
551.01	58422.11
551.18	58698.30
551.34	58754.47
551.51	58560.20
551.68	58691.27
551.84	58520.41
552.01	58590.63
552.18	58894.90
552.34	58489.99
552.51	58625.74
552.68	58567.23
552.84	58827.02
553.01	58944.05
553.18	59119.59
553.34	58829.37
553.51	58904.26
553.67	58976.82
553.84	59030.65
554.01	58906.60
554.17	59028.31
554.34	59213.21
554.51	58892.56
554.67	59316.20
554.84	58899.58
555.00	59007.25
555.17	58962.78
555.33	59264.70
555.50	58983.84
555.67	59143.00
555.83	59032.99
556.00	59047.04
556.16	59552.59
556.33	59402.80
556.50	59110.23
556.66	59241.30
556.83	59040.01
556.99	59554.93
557.16	59599.40
557.32	59433.22
557.49	59695.36
557.65	59381.73
557.82	59634.51
557.98	59470.67
558.15	59355.99
558.32	59543.23
558.48	59250.66
558.65	59634.51
558.81	59456.63
558.98	59702.38
559.14	59627.49
559.31	59590.04
559.47	59814.73
559.64	59884.95
559.80	59856.86
559.97	59838.14
560.13	59573.66
560.30	59503.44
560.46	59800.69
560.63	59543.23
560.79	59774.94
560.96	60020.70
561.12	59767.92
561.29	59695.36
561.45	59913.03
561.61	59938.78
561.78	59774.94
561.94	59898.99
562.11	59880.27
562.27	59901.33
562.44	60212.62
562.60	60184.54
562.77	59915.37
562.93	59920.05
563.10	59941.12
563.26	59854.52
563.42	60392.84
563.59	60046.44
563.75	59941.12
563.92	60060.49
564.08	59929.42
564.24	60280.50
564.41	60114.32
564.57	60135.38
564.74	60058.15
564.90	60306.24
565.07	60095.60
565.23	60119.00
565.39	60292.20
565.56	60224.32
565.72	60456.04
565.88	60140.07
566.05	60224.32
566.21	60151.77
566.38	60236.03
566.54	60458.38
566.70	60479.44
566.87	60640.94
567.03	60247.73
567.19	60722.86
567.36	60303.90
567.52	60261.77
567.68	60647.96
567.85	60261.77
568.01	60460.72
568.17	60247.73
568.34	60519.23
568.50	60317.95
568.66	60198.58
568.83	60418.59
568.99	60388.16
569.15	60605.83
569.32	60451.36
569.48	60399.86
569.64	60631.58
569.81	60350.71
569.97	60353.05
570.13	60676.05
570.30	60552.00
570.46	60470.08
570.62	60720.52
570.78	60573.06
570.95	60603.49
571.11	60636.26
571.27	60439.65
571.43	60577.75
571.60	60772.01
571.76	60720.52
571.92	60631.58
572.09	60477.10
572.25	60512.21
572.41	60418.59
572.57	60699.45
572.74	60830.52
572.90	60463.06
573.06	60617.53
573.22	60786.05
573.38	60654.98
573.55	60584.77
573.71	60933.51
573.87	60788.39
574.03	60570.72
574.20	60772.01
574.36	60882.02
574.52	60856.27
574.68	60980.32
574.84	60910.10
575.01	60844.57
575.17	60874.99
575.33	60633.92
575.49	60626.90
575.65	60809.46
575.82	60935.85
575.98	60830.52
576.14	60910.10
576.30	60846.91
576.46	60886.70
576.62	60790.73
576.79	60844.57
576.95	60692.43
577.11	60884.36
577.27	60949.89
577.43	60729.88
577.59	60739.24
577.75	60729.88
577.92	60830.52
578.08	60706.47
578.24	60945.21
578.40	61104.37
578.56	61008.40
578.72	60954.57
578.88	60940.53
579.04	60985.00
579.21	60992.02
579.37	61041.17
579.53	61006.06
579.69	60800.10
579.85	60879.67
580.01	60849.25
580.17	60760.31
580.33	61113.73
580.49	60968.61
580.65	60985.00
580.82	60701.79
580.98	60874.99
581.14	60903.08
581.30	60947.55
581.46	61132.45
581.62	60985.00
581.78	60877.33
581.94	60912.44
582.10	60940.53
582.26	60795.42
582.42	60973.30
582.58	61034.15
582.74	60926.49
582.90	60781.37
583.06	61015.43
583.22	60912.44
583.38	61006.06
583.54	61113.73
583.70	61076.28
583.86	60940.53
584.02	60772.01
584.18	61064.58
584.34	60903.08
584.50	61024.79
584.66	60673.71
584.82	60800.10
584.98	61144.16
585.14	61024.79
585.30	60891.38
585.46	61008.40
585.62	61158.20
585.78	61120.75
585.94	60804.78
586.10	61013.08
586.26	61162.88
586.42	61216.71
586.58	61148.84
586.74	60938.19
586.90	61092.66
587.06	61109.05
587.22	61059.90
587.38	61158.20
587.54	61209.69
587.70	61338.42
587.86	61073.94
588.02	61113.73
588.18	61293.95
588.34	61109.05
588.49	61179.26
