SpectraSuite Data File
++++++++++++++++++++++++++++++++++++
Date: Fri Oct 25 11:23:28 EDT 2013
User: price-jones
Dark Spectrum Present: No
Reference Spectrum Present: No
Number of Sampled Component Spectra: 1
Spectrometers: USB2+H05261
Integration Time (usec): 100000 (USB2+H05261)
Spectra Averaged: 1 (USB2+H05261)
Boxcar Smoothing: 0 (USB2+H05261)
Correct for Electrical Dark: No (USB2+H05261)
Strobe/Lamp Enabled: No (USB2+H05261)
Correct for Detector Non-linearity: No (USB2+H05261)
Correct for Stray Light: No (USB2+H05261)
Number of Pixels in Processed Spectrum: 2048
>>>>>Begin Processed Spectral Data<<<<<
365.73	234.05
365.92	234.05
366.12	234.05
366.32	105.32
366.52	180.22
366.72	236.39
366.91	84.26
367.11	124.05
367.31	102.98
367.51	142.77
367.70	126.39
367.90	126.39
368.10	46.81
368.30	126.39
368.49	184.90
368.69	112.35
368.89	163.84
369.09	177.88
369.28	210.65
369.48	121.71
369.68	189.58
369.87	152.13
370.07	177.88
370.27	255.12
370.47	245.76
370.66	575.77
370.86	592.16
371.06	676.41
371.25	678.76
371.45	657.69
371.65	681.10
371.84	655.35
372.04	734.93
372.24	727.91
372.44	683.44
372.63	692.80
372.83	713.86
373.03	727.91
373.22	704.50
373.42	816.85
373.62	732.59
373.81	800.46
374.01	788.76
374.21	856.64
374.40	795.78
374.60	798.12
374.79	809.83
374.99	854.30
375.19	866.00
375.38	863.66
375.58	931.53
375.78	849.61
375.97	882.38
376.17	924.51
376.37	877.70
376.56	868.34
376.76	786.42
376.95	842.59
377.15	915.15
377.35	905.79
377.54	922.17
377.74	896.43
377.93	931.53
378.13	882.38
378.33	903.45
378.52	973.66
378.72	950.26
378.91	861.32
379.11	924.51
379.31	997.07
379.50	940.90
379.70	1015.79
379.89	903.45
380.09	992.39
380.28	976.00
380.48	978.34
380.68	1006.43
380.87	976.00
381.07	978.34
381.26	1118.78
381.46	1032.18
381.65	1064.94
381.85	1100.05
382.04	1081.33
382.24	1046.22
382.43	994.73
382.63	1036.86
382.83	1036.86
383.02	1158.57
383.22	1004.09
383.41	978.34
383.61	1130.48
383.80	1107.07
384.00	1081.33
384.19	1067.28
384.39	1163.25
384.58	1137.50
384.78	1238.14
384.97	1165.59
385.17	1167.93
385.36	1118.78
385.56	1114.10
385.75	1217.08
385.95	1186.65
386.14	1177.29
386.34	1144.52
386.53	1270.91
386.72	1198.35
386.92	1221.76
387.11	1252.19
387.31	1277.93
387.50	1247.51
387.70	1294.32
387.89	1275.59
388.09	1242.82
388.28	1289.64
388.48	1284.95
388.67	1259.21
388.86	1275.59
389.06	1383.26
389.25	1397.30
389.45	1214.74
389.64	1359.85
389.84	1397.30
390.03	1317.72
390.22	1373.89
390.42	1390.28
390.61	1348.15
390.81	1357.51
391.00	1352.83
391.19	1504.96
391.39	1392.62
391.58	1479.22
391.78	1493.26
391.97	1549.43
392.16	1427.73
392.36	1561.14
392.55	1511.99
392.75	1598.59
392.94	1617.31
393.13	1488.58
393.33	1511.99
393.52	1612.63
393.71	1549.43
393.91	1577.52
394.10	1516.67
394.29	1680.50
394.49	1568.16
394.68	1654.76
394.88	1607.95
395.07	1654.76
395.26	1558.80
395.46	1701.57
395.65	1710.93
395.84	1729.66
396.04	1802.21
396.23	1778.81
396.42	1748.38
396.62	1673.48
396.81	1708.59
397.00	1785.83
397.19	1832.64
397.39	1757.74
397.58	1853.70
397.77	1902.86
397.97	1818.60
398.16	1832.64
398.35	1930.94
398.55	1919.24
398.74	1902.86
398.93	1935.62
399.12	1832.64
399.32	1839.66
399.51	1940.30
399.70	1989.46
399.90	2022.22
400.09	2017.54
400.28	2099.46
400.47	1991.80
400.67	2118.18
400.86	2017.54
401.05	2122.87
401.24	2099.46
401.44	2069.03
401.63	2174.36
401.82	2148.61
402.01	2190.74
402.21	2183.72
402.40	2169.68
402.59	2267.98
402.78	2200.10
402.97	2284.36
403.17	2235.21
403.36	2160.31
403.55	2284.36
403.74	2354.58
403.93	2380.32
404.13	2363.94
404.32	2267.98
404.51	2502.03
404.70	2490.33
404.89	2417.77
405.09	2495.01
405.28	2448.20
405.47	2574.59
405.66	2462.24
405.85	2551.18
406.05	2504.37
406.24	2492.67
406.43	2605.02
406.62	2703.32
406.81	2682.25
407.00	2562.89
407.20	2614.38
407.39	2534.80
407.58	2607.36
407.77	2661.19
407.96	2696.30
408.15	2778.22
408.34	2789.92
408.54	2916.31
408.73	2808.64
408.92	2778.22
409.11	2836.73
409.30	2909.29
409.49	2970.14
409.68	3016.95
409.87	2909.29
410.07	2920.99
410.26	3066.10
410.45	3094.19
410.64	3054.40
410.83	2937.37
411.02	3014.61
411.21	3279.09
411.40	3054.40
411.59	3258.03
411.78	3084.83
411.98	3220.58
412.17	3187.81
412.36	3267.39
412.55	3349.31
412.74	3412.50
412.93	3375.05
413.12	3447.61
413.31	3520.17
413.50	3398.46
413.69	3349.31
413.88	3569.32
414.07	3641.87
414.26	3648.90
414.45	3719.11
414.64	3524.85
414.83	3726.13
415.02	3768.26
415.22	3822.09
415.41	3857.20
415.60	3789.33
415.79	3852.52
415.98	4028.06
416.17	4053.81
416.36	4009.34
416.55	3997.64
416.74	4009.34
416.93	4131.05
417.12	4086.58
417.31	4107.64
417.50	4299.56
417.69	4194.24
417.88	4325.31
418.07	4217.65
418.26	4259.78
418.45	4409.57
418.64	4587.45
418.83	4259.78
419.02	4521.92
419.21	4512.55
419.39	4449.36
419.58	4512.55
419.77	4393.19
419.96	4550.00
420.15	4568.73
420.34	4519.57
420.53	4594.47
420.72	4692.77
420.91	4753.63
421.10	4685.75
421.29	4884.70
421.48	4594.47
421.67	4697.46
421.86	4856.61
422.05	4758.31
422.24	4816.82
422.43	5011.09
422.61	4933.85
422.80	4994.70
422.99	4968.96
423.18	4957.25
423.37	5025.13
423.56	4971.30
423.75	4997.04
423.94	4994.70
424.13	4688.09
424.32	4861.29
424.50	5006.41
424.69	5149.18
424.88	5011.09
425.07	4851.93
425.26	4851.93
425.45	4926.83
425.64	5006.41
425.83	5025.13
426.01	5067.26
426.20	5076.62
426.39	5043.85
426.58	5043.85
426.77	5029.81
426.96	5163.22
427.15	5144.50
427.33	5338.76
427.52	5060.24
427.71	5238.12
427.90	5172.58
428.09	5397.28
428.28	5383.23
428.46	5263.86
428.65	5451.11
428.84	5357.49
429.03	5504.94
429.22	5334.08
429.40	5509.62
429.59	5493.24
429.78	5313.02
429.97	5177.26
430.16	5500.26
430.34	5535.37
430.53	5621.97
430.72	5659.42
430.91	5706.23
431.10	5631.33
431.28	5937.94
431.47	5788.14
431.66	5916.87
431.85	5755.38
432.03	5959.00
432.22	5849.00
432.41	5959.00
432.60	5968.37
432.79	5841.98
432.97	6127.52
433.16	6066.67
433.35	5980.07
433.54	5961.34
433.72	6188.38
433.91	6040.92
434.10	6125.18
434.28	5984.75
434.47	6239.87
434.66	6314.77
434.85	6179.01
435.03	6249.23
435.22	6235.19
435.41	6516.05
435.59	6319.45
435.78	6518.39
435.97	6392.00
436.16	6459.88
436.34	6368.60
436.53	6452.86
436.72	6637.76
436.90	6476.26
437.09	6593.29
437.28	6422.43
437.46	6651.80
437.65	6551.16
437.84	6775.85
438.02	6745.42
438.21	6813.30
438.40	6583.93
438.58	6918.62
438.77	7068.42
438.96	6862.45
439.14	7215.87
439.33	7133.95
439.52	7082.46
439.70	7332.90
439.89	7258.00
440.08	7426.52
440.26	7225.23
440.45	7459.29
440.63	7524.82
440.82	7695.68
441.01	7529.50
441.19	7520.14
441.38	7578.65
441.57	7889.95
441.75	7833.77
441.94	8016.33
442.12	7941.44
442.31	8079.53
442.50	8138.04
442.68	8163.79
442.87	8140.38
443.05	8016.33
443.24	8163.79
443.43	8212.94
443.61	8203.58
443.80	8369.76
443.98	8032.72
444.17	7653.55
444.35	8250.39
444.54	8231.66
444.73	8194.22
444.91	8301.88
445.10	8432.95
445.28	8393.16
445.47	8313.58
445.65	8243.37
445.84	8304.22
446.02	8503.17
446.21	8533.59
446.39	8416.57
446.58	8662.32
446.77	8430.61
446.95	8245.71
447.14	8456.36
447.32	8692.75
447.51	8360.39
447.69	8533.59
447.88	8601.47
448.06	8662.32
448.25	8594.45
448.43	8575.72
448.62	8603.81
448.80	8624.87
448.99	8629.56
449.17	8671.68
449.36	8702.11
449.54	8947.87
449.73	8952.55
449.91	9100.00
450.10	8961.91
450.28	8964.25
450.46	8964.25
450.65	9125.75
450.83	9029.79
451.02	9025.11
451.20	9104.68
451.39	9177.24
451.57	9207.67
451.76	8985.32
451.94	9139.79
452.13	9149.15
452.31	9362.14
452.49	9083.62
452.68	9376.19
452.86	9357.46
453.05	9343.42
453.23	9614.92
453.42	9298.95
453.60	9514.28
453.78	9551.73
453.97	9460.45
454.15	9404.27
454.34	9540.02
454.52	9874.72
454.70	9860.68
454.89	9764.72
455.07	9764.72
455.26	9858.34
455.44	9980.04
455.62	9856.00
455.81	9783.44
455.99	9921.53
456.17	10181.33
456.36	10054.94
456.54	10462.19
456.73	10424.75
456.91	10443.47
457.09	10216.44
457.28	10611.99
457.46	10289.00
457.64	10656.46
457.83	10541.77
458.01	10394.32
458.19	10829.66
458.38	10729.02
458.56	10696.25
458.74	10593.26
458.93	10745.40
459.11	10675.18
459.29	10824.98
459.48	10820.30
459.66	10911.58
459.84	10960.73
460.03	11279.04
460.21	11075.42
460.39	10934.98
460.57	10897.53
460.76	11042.65
460.94	11225.21
461.12	11208.83
461.31	11166.70
461.49	11206.48
461.67	11370.32
461.85	11449.90
462.04	11417.13
462.22	11889.92
462.40	11637.14
462.59	11517.78
462.77	11445.22
462.95	11662.89
463.13	11580.97
463.32	11716.72
463.50	11510.75
463.68	11719.06
463.86	11805.66
464.05	11705.02
464.23	11646.51
464.41	12121.63
464.59	11922.69
464.78	12336.96
464.96	12011.63
465.14	11983.54
465.32	12215.26
465.50	12182.49
465.69	12088.87
465.87	12189.51
466.05	12287.81
466.23	12126.32
466.41	12238.66
466.60	12372.07
466.78	12030.35
466.96	12241.00
467.14	12435.27
467.32	12444.63
467.51	12828.48
467.69	12393.14
467.87	12428.24
468.05	12725.49
468.23	12542.93
468.41	12496.12
468.60	12800.39
468.78	12779.32
468.96	12582.72
469.14	12800.39
469.32	13095.30
469.50	12772.30
469.69	13132.75
469.87	13207.64
470.05	13099.98
470.23	13118.70
470.41	13245.09
470.59	13418.29
470.77	13319.99
470.95	13275.52
471.14	13465.10
471.32	13275.52
471.50	13708.52
471.68	13774.05
471.86	13748.31
472.04	13970.66
472.22	13991.72
472.40	13799.80
472.58	13755.33
472.77	13991.72
472.95	14134.50
473.13	14623.67
473.31	13900.44
473.49	14349.82
473.67	14193.01
473.85	14307.69
474.03	14796.87
474.21	14506.64
474.39	14850.70
474.57	14651.75
474.75	15133.90
474.93	15314.13
475.12	14984.11
475.30	15063.69
475.48	15218.16
475.66	15393.70
475.84	15152.63
476.02	15225.18
476.20	15332.85
476.38	15798.62
476.56	16135.65
476.74	16273.74
476.92	15964.79
477.10	15857.13
477.28	15957.77
477.46	16283.11
477.64	16278.43
477.82	16713.77
478.00	17099.95
478.18	16922.07
478.36	16868.24
478.54	17202.94
478.72	17326.99
478.90	17654.66
479.08	17741.26
479.26	17666.36
479.44	17991.70
479.62	17958.93
479.80	18094.68
479.98	18291.29
480.16	18876.42
480.34	18450.44
480.52	18965.36
480.70	18916.21
480.88	18338.10
481.06	18647.05
481.24	18740.67
481.41	19073.03
481.59	19445.17
481.77	19454.53
481.95	19580.92
482.13	20088.82
482.31	19627.73
482.49	20449.26
482.67	20229.25
482.85	20306.49
483.03	20802.68
483.21	20823.75
483.39	20896.30
483.57	21198.23
483.74	21102.27
483.92	21397.18
484.10	21394.84
484.28	21710.81
484.46	22017.42
484.64	22640.00
484.82	22143.81
485.00	22572.13
485.18	22923.21
485.35	23192.37
485.53	22986.40
485.71	23063.64
485.89	23803.25
486.07	23356.21
486.25	23414.72
486.43	23843.04
486.61	23641.75
486.78	24458.60
486.96	23964.75
487.14	24847.13
487.32	24369.66
487.50	24877.55
487.68	25188.85
487.85	25486.09
488.03	25528.22
488.21	25921.43
488.39	26099.31
488.57	26214.00
488.75	26487.84
488.92	26719.56
489.10	27133.83
489.28	27028.51
489.46	27192.34
489.64	27108.08
489.81	27744.71
489.99	27620.66
490.17	27728.33
490.35	28039.62
490.53	28208.14
490.70	28645.82
490.88	28498.36
491.06	29116.26
491.24	28664.54
491.41	29317.55
491.59	29682.67
491.77	29546.92
491.95	29790.34
492.13	29741.19
492.30	30157.80
492.48	30026.73
492.66	30141.42
492.84	30483.14
493.01	30916.14
493.19	31115.08
493.37	31180.62
493.54	31072.95
493.72	31786.82
493.90	31566.81
494.08	32135.56
494.25	32280.67
494.43	32275.99
494.61	32053.64
494.79	32524.08
494.96	32760.48
495.14	32720.69
495.32	33479.02
495.49	33312.84
495.67	33509.45
495.85	33507.11
496.02	34015.01
496.20	34415.24
496.38	34555.67
496.55	33876.91
496.73	35271.87
496.91	34405.88
497.09	35117.40
497.26	35264.85
497.44	35452.09
497.62	34983.99
497.79	35660.40
497.97	35747.00
498.14	36378.95
498.32	35927.22
498.50	36280.64
498.67	36655.13
498.85	36545.12
499.03	36893.86
499.20	36765.14
499.38	36914.93
499.56	36943.02
499.73	37371.33
499.91	37710.71
500.08	37338.57
500.26	37366.65
500.44	37806.67
500.61	37741.14
500.79	37755.18
500.97	38305.21
501.14	38302.87
501.32	38347.34
501.49	38136.69
501.67	38880.98
501.84	39192.27
502.02	38976.94
502.20	39147.80
502.37	39510.58
502.55	39716.55
502.72	39475.48
502.90	39725.91
503.07	39824.22
503.25	39812.51
503.43	40004.44
503.60	40325.09
503.78	40151.89
503.95	40652.76
504.13	40830.65
504.30	40395.31
504.48	40734.68
504.65	41045.97
504.83	41722.39
505.01	41523.44
505.18	41408.76
505.36	41869.84
505.53	41467.27
505.71	41490.68
505.88	42368.38
506.06	41193.43
506.23	42174.11
506.41	42211.56
506.58	42398.80
506.76	42700.73
506.93	42731.16
507.11	42621.16
507.28	42906.70
507.46	42799.04
507.63	43302.25
507.81	43529.28
507.98	43021.39
508.16	43342.04
508.33	43606.52
508.50	43440.34
508.68	43749.29
508.85	44453.79
509.03	43985.69
509.20	44306.34
509.38	44179.95
509.55	44744.02
509.73	44832.96
509.90	44477.20
510.08	44931.26
510.25	45029.57
510.42	44790.83
510.60	44980.42
510.77	45230.85
510.95	45762.15
511.12	45319.79
511.30	45214.47
511.47	45986.85
511.64	45574.91
511.82	45956.42
511.99	45771.52
512.17	46279.41
512.34	45904.93
512.51	46796.67
512.69	46916.04
512.86	46621.13
513.04	46827.10
513.21	46899.65
513.38	46759.22
513.56	46513.47
513.73	46752.20
513.90	47042.43
514.08	46897.31
514.25	47604.16
514.43	47402.87
514.60	47470.75
514.77	47196.90
514.95	47917.79
515.12	47756.29
515.29	47957.58
515.47	48095.67
515.64	48636.33
515.81	48549.73
515.99	48364.83
516.16	48467.81
516.33	48540.37
516.51	48900.81
516.68	48575.48
516.85	48758.04
517.03	48982.73
517.20	48907.83
517.37	49130.19
517.54	48863.36
517.72	49034.22
517.89	49193.38
518.06	49244.87
518.24	49268.28
518.41	49478.92
518.58	49492.97
518.75	49467.22
518.93	49947.03
519.10	49525.74
519.27	49722.34
519.45	49923.63
519.62	50265.34
519.79	50272.37
519.96	50351.94
520.14	50405.78
520.31	50223.22
520.48	50609.40
520.65	50380.03
520.83	50618.77
521.00	50508.76
521.17	50749.84
521.34	50988.57
521.52	50885.59
521.69	50817.71
521.86	51072.83
522.03	51487.10
522.20	51517.53
522.38	51660.30
522.55	51889.68
522.72	51562.00
522.89	51374.76
523.07	51655.62
523.24	51613.49
523.41	51784.35
523.58	51590.09
523.75	51906.06
523.92	51824.14
524.10	52395.23
524.27	52191.61
524.44	52243.10
524.61	52149.48
524.78	52467.79
524.96	52530.98
525.13	52474.81
525.30	52477.15
525.47	52690.14
525.64	52477.15
525.81	52587.16
525.98	53088.03
526.16	52556.73
526.33	53038.88
526.50	52905.47
526.67	52996.75
526.84	53064.63
527.01	52954.62
527.18	53064.63
527.36	52959.30
527.53	53221.44
527.70	53506.99
527.87	53336.13
528.04	53158.25
528.21	53600.61
528.38	53312.72
528.55	53701.25
528.72	53556.14
528.89	53368.90
529.07	53448.47
529.24	53389.96
529.41	53968.07
529.58	53666.14
529.75	53708.27
529.92	53649.76
530.09	54150.63
530.26	53947.01
530.43	53944.67
530.60	53750.40
530.77	54010.20
530.94	54115.53
531.11	54094.46
531.28	54541.50
531.46	54340.22
531.63	54436.18
531.80	54412.77
531.97	54679.60
532.14	54607.04
532.31	54597.68
532.48	54555.55
532.65	54784.92
532.82	54475.97
532.99	54639.81
533.16	54803.64
533.33	54962.80
533.50	55021.31
533.67	54894.92
533.84	54979.18
534.01	55302.18
534.18	55157.06
534.35	55367.71
534.52	54990.89
534.69	55178.13
534.86	55229.62
535.03	55194.51
535.20	55262.39
535.37	55421.55
535.54	55332.60
535.71	55098.55
535.88	55367.71
536.05	55463.67
536.22	55597.09
536.38	55466.02
536.55	55643.90
536.72	55730.50
536.89	55508.14
537.06	55667.30
537.23	55985.61
537.40	55821.78
537.57	55781.99
537.74	55934.12
537.91	55920.08
538.08	56062.85
538.25	55910.72
538.42	56088.60
538.59	56219.67
538.75	56025.40
538.92	56168.18
539.09	56430.32
539.26	56210.31
539.43	56081.58
539.60	56453.72
539.77	56418.61
539.94	56603.52
540.11	56329.67
540.28	56755.65
540.44	56626.92
540.61	56360.10
540.78	56514.58
540.95	56498.19
541.12	56453.72
541.29	56762.67
541.46	56711.18
541.62	56713.52
541.79	56521.60
541.96	56832.89
542.13	56736.93
542.30	56832.89
542.47	56987.36
542.63	56877.36
542.80	56931.19
542.97	57195.67
543.14	57574.84
543.31	57120.77
543.48	57167.58
543.64	57649.74
543.81	57441.43
543.98	57549.09
544.15	57488.24
544.32	57418.02
544.48	57614.63
544.65	57389.94
544.82	57682.50
544.99	57338.44
545.16	57579.52
545.32	57563.14
545.49	57832.30
545.66	57738.68
545.83	57888.47
546.00	57785.49
546.16	57719.95
546.33	57804.21
546.50	57645.05
546.67	57808.89
546.83	57495.26
547.00	57867.40
547.17	57907.19
547.34	57846.34
547.50	58197.42
547.67	58031.24
547.84	58192.74
548.00	58230.19
548.17	58293.38
548.34	58218.49
548.51	58326.15
548.67	58368.28
548.84	58417.43
549.01	58295.72
549.18	58188.06
549.34	58269.98
549.51	58468.92
549.68	58426.79
549.84	58267.64
550.01	58468.92
550.18	58368.28
550.34	58590.63
550.51	58621.06
550.68	58639.78
550.84	58286.36
551.01	58752.13
551.18	58443.18
551.34	58829.37
551.51	58497.01
551.68	58562.54
551.84	58649.14
552.01	58597.65
552.18	58820.00
552.34	58681.91
552.51	58728.72
552.68	58504.03
552.84	58679.57
553.01	58834.05
553.18	59110.23
553.34	59077.46
553.51	58920.65
553.67	58871.49
553.84	59154.70
554.01	59243.64
554.17	58972.14
554.34	59274.07
554.51	59121.93
554.67	59334.92
554.84	59021.29
555.00	59110.23
555.17	59096.19
555.33	59164.06
555.50	59058.74
555.67	59192.15
555.83	59063.42
556.00	59011.93
556.16	59580.68
556.33	59470.67
556.50	59253.00
556.66	59409.82
556.83	59152.36
556.99	59491.74
557.16	59568.97
557.32	59409.82
557.49	59655.57
557.65	59519.82
557.82	59473.01
557.98	59302.15
558.15	59515.14
558.32	59749.20
558.48	59571.32
558.65	59578.34
558.81	59292.79
558.98	59597.06
559.14	59898.99
559.31	59952.82
559.47	59681.32
559.64	59798.35
559.80	59667.28
559.97	59910.69
560.13	59849.84
560.30	59992.61
560.46	59945.80
560.63	59962.18
560.79	59695.36
560.96	60034.74
561.12	60163.47
561.29	60004.31
561.45	59896.65
561.61	60053.47
561.78	60011.34
561.94	59962.18
562.11	59987.93
562.27	59971.55
562.44	60114.32
562.60	60006.65
562.77	60203.26
562.93	59903.67
563.10	60086.23
563.26	59896.65
563.42	60294.54
563.59	60214.96
563.75	60051.12
563.92	60018.36
564.08	60055.81
564.24	60320.29
564.41	59945.80
564.57	60163.47
564.74	60303.90
564.90	60322.63
565.07	60217.30
565.23	60196.24
565.39	60285.18
565.56	60329.65
565.72	60266.45
565.88	60434.97
566.05	60303.90
566.21	60217.30
566.38	60261.77
566.54	60315.61
566.70	60463.06
566.87	60425.61
567.03	60252.41
567.19	60470.08
567.36	60570.72
567.52	60556.68
567.68	60463.06
567.85	60413.91
568.01	60498.17
568.17	60229.01
568.34	60650.30
568.50	60451.36
568.66	60374.12
568.83	60654.98
568.99	60413.91
569.15	60493.49
569.32	60395.18
569.48	60355.39
569.64	60491.15
569.81	60626.90
569.97	60371.78
570.13	60605.83
570.30	60404.55
570.46	60479.44
570.62	60589.45
570.78	60610.51
570.95	60481.78
571.11	60830.52
571.27	60591.79
571.43	60570.72
571.60	60746.26
571.76	60662.00
571.92	60591.79
572.09	60636.26
572.25	60687.75
572.41	60739.24
572.57	60568.38
572.74	60816.48
572.90	60685.41
573.06	60959.25
573.22	60573.06
573.38	60671.37
573.55	60608.17
573.71	61099.68
573.87	60746.26
574.03	60554.34
574.20	60809.46
574.36	60757.97
574.52	60839.89
574.68	60839.89
574.84	60903.08
575.01	60907.76
575.17	60924.14
575.33	60996.70
575.49	60725.20
575.65	60985.00
575.82	60879.67
575.98	60917.12
576.14	61226.07
576.30	60910.10
576.46	60701.79
576.62	60701.79
576.79	60856.27
576.95	60615.19
577.11	60891.38
577.27	60762.65
577.43	60872.65
577.59	60818.82
577.75	61027.13
577.92	60760.31
578.08	60842.23
578.24	60912.44
578.40	61207.35
578.56	61090.32
578.72	61080.96
578.88	60980.32
579.04	60919.46
579.21	61031.81
579.37	61104.37
579.53	61017.77
579.69	60748.60
579.85	60844.57
580.01	60907.76
580.17	60973.30
580.33	61036.49
580.49	60987.34
580.65	61015.43
580.82	60863.29
580.98	61087.98
581.14	60961.59
581.30	61024.79
581.46	60928.83
581.62	61034.15
581.78	61029.47
581.94	61038.83
582.10	61001.38
582.26	61069.26
582.42	60879.67
582.58	61055.21
582.74	60851.59
582.90	61022.45
583.06	61125.43
583.22	60945.21
583.38	61125.43
583.54	61141.81
583.70	60994.36
583.86	60910.10
584.02	60849.25
584.18	61226.07
584.34	61116.07
584.50	61132.45
584.66	61020.11
584.82	60851.59
584.98	61083.30
585.14	61162.88
585.30	60832.86
585.46	61326.72
585.62	61146.50
585.78	61127.77
585.94	60893.72
586.10	61249.48
586.26	61041.17
586.42	61176.92
586.58	61071.60
586.74	61216.71
586.90	61020.11
587.06	60982.66
587.22	61186.28
587.38	61109.05
587.54	61263.52
587.70	61270.54
587.86	61188.63
588.02	61165.22
588.18	61322.04
588.34	61186.28
588.49	61055.21
