SpectraSuite Data File
++++++++++++++++++++++++++++++++++++
Date: Fri Oct 25 11:26:01 EDT 2013
User: price-jones
Dark Spectrum Present: No
Reference Spectrum Present: No
Number of Sampled Component Spectra: 1
Spectrometers: USB2+H05261
Integration Time (usec): 100000 (USB2+H05261)
Spectra Averaged: 1 (USB2+H05261)
Boxcar Smoothing: 0 (USB2+H05261)
Correct for Electrical Dark: No (USB2+H05261)
Strobe/Lamp Enabled: No (USB2+H05261)
Correct for Detector Non-linearity: No (USB2+H05261)
Correct for Stray Light: No (USB2+H05261)
Number of Pixels in Processed Spectrum: 2048
>>>>>Begin Processed Spectral Data<<<<<
365.73	142.77
365.92	142.77
366.12	142.77
366.32	119.37
366.52	126.39
366.72	201.29
366.91	154.48
367.11	102.98
367.31	142.77
367.51	56.17
367.70	124.05
367.90	187.24
368.10	105.32
368.30	88.94
368.49	163.84
368.69	138.09
368.89	220.01
369.09	145.11
369.28	147.45
369.48	177.88
369.68	187.24
369.87	147.45
370.07	203.63
370.27	271.50
370.47	348.74
370.66	601.52
370.86	678.76
371.06	641.31
371.25	685.78
371.45	641.31
371.65	760.67
371.84	667.05
372.04	755.99
372.24	711.52
372.44	653.01
372.63	702.16
372.83	648.33
373.03	741.95
373.22	685.78
373.42	758.33
373.62	730.25
373.81	753.65
374.01	814.51
374.21	793.44
374.40	770.04
374.60	880.04
374.79	863.66
374.99	770.04
375.19	795.78
375.38	767.70
375.58	870.68
375.78	833.23
375.97	933.87
376.17	945.58
376.37	861.32
376.56	903.45
376.76	873.02
376.95	840.25
377.15	1004.09
377.35	887.06
377.54	915.15
377.74	940.90
377.93	901.11
378.13	964.30
378.33	957.28
378.52	947.92
378.72	990.05
378.91	952.60
379.11	943.24
379.31	891.74
379.50	1013.45
379.70	978.34
379.89	929.19
380.09	997.07
380.28	992.39
380.48	957.28
380.68	915.15
380.87	1008.77
381.07	1022.81
381.26	985.37
381.46	936.21
381.65	912.81
381.85	983.02
382.04	1034.52
382.24	1041.54
382.43	1083.67
382.63	1076.65
382.83	1048.56
383.02	1053.24
383.22	1146.86
383.41	1102.39
383.61	1081.33
383.80	1212.40
384.00	1196.01
384.19	1102.39
384.39	1107.07
384.58	1111.75
384.78	1048.56
384.97	1116.44
385.17	1191.33
385.36	1188.99
385.56	1268.57
385.75	1144.52
385.95	1249.85
386.14	1167.93
386.34	1193.67
386.53	1221.76
386.72	1109.41
386.92	1280.27
387.11	1263.89
387.31	1299.00
387.50	1224.10
387.70	1217.08
387.89	1373.89
388.09	1268.57
388.28	1324.74
388.48	1280.27
388.67	1327.08
388.86	1282.61
389.06	1357.51
389.25	1366.87
389.45	1336.45
389.64	1329.42
389.84	1469.86
390.03	1352.83
390.22	1495.60
390.42	1401.98
390.61	1399.64
390.81	1390.28
391.00	1488.58
391.19	1406.66
391.39	1423.05
391.58	1469.86
391.78	1500.28
391.97	1502.62
392.16	1420.71
392.36	1462.83
392.55	1579.86
392.75	1584.54
392.94	1465.18
393.13	1549.43
393.33	1451.13
393.52	1584.54
393.71	1619.65
393.91	1643.06
394.10	1568.16
394.29	1493.26
394.49	1593.90
394.68	1633.69
394.88	1554.12
395.07	1692.21
395.26	1689.87
395.46	1605.61
395.65	1769.44
395.84	1696.89
396.04	1717.95
396.23	1795.19
396.42	1739.02
396.62	1727.32
396.81	1823.28
397.00	1741.36
397.19	1781.15
397.39	1790.51
397.58	1846.68
397.77	1781.15
397.97	1881.79
398.16	1849.02
398.35	1942.64
398.55	1842.00
398.74	1881.79
398.93	1935.62
399.12	1982.43
399.32	1902.86
399.51	2038.61
399.70	1984.77
399.90	2059.67
400.09	1994.14
400.28	2087.76
400.47	1970.73
400.67	2033.93
400.86	1994.14
401.05	2050.31
401.24	2066.69
401.44	2148.61
401.63	2181.38
401.82	2167.34
402.01	2099.46
402.21	2230.53
402.40	2143.93
402.59	2141.59
402.78	2143.93
402.97	2258.62
403.17	2251.60
403.36	2282.02
403.55	2342.88
403.74	2349.90
403.93	2291.38
404.13	2448.20
404.32	2319.47
404.51	2422.45
404.70	2499.69
404.89	2354.58
405.09	2392.03
405.28	2495.01
405.47	2448.20
405.66	2513.74
405.85	2464.58
406.05	2537.14
406.24	2548.84
406.43	2605.02
406.62	2600.34
406.81	2605.02
407.00	2677.57
407.20	2654.17
407.39	2621.40
407.58	2647.15
407.77	2712.68
407.96	2768.85
408.15	2619.06
408.34	2796.94
408.54	2738.43
408.73	2850.77
408.92	2911.63
409.11	2806.30
409.30	2885.88
409.49	2946.73
409.68	2949.08
409.87	2839.07
410.07	2906.95
410.26	2972.48
410.45	3101.21
410.64	3152.70
410.83	2981.84
411.02	3059.08
411.21	3166.74
411.40	3225.26
411.59	3279.09
411.78	3218.24
411.98	3173.77
412.17	3241.64
412.36	3335.26
412.55	3300.16
412.74	3510.80
412.93	3384.41
413.12	3342.28
413.31	3606.77
413.50	3494.42
413.69	3478.04
413.88	3468.67
414.07	3618.47
414.26	3634.85
414.45	3695.71
414.64	3599.74
414.83	3688.68
415.02	3730.81
415.22	3873.59
415.41	3950.82
415.60	4023.38
415.79	3831.46
415.98	3974.23
416.17	3922.74
416.36	4004.66
416.55	4018.70
416.74	4025.72
416.93	4170.83
417.12	4138.07
417.31	4234.03
417.50	4177.86
417.69	4292.54
417.88	4138.07
418.07	4311.27
418.26	4194.24
418.45	4133.39
418.64	4409.57
418.83	4369.78
419.02	4390.84
419.21	4491.49
419.39	4484.47
419.58	4365.10
419.77	4283.18
419.96	4566.39
420.15	4493.83
420.34	4484.47
420.53	4615.54
420.72	4503.19
420.91	4739.58
421.10	4690.43
421.29	4837.89
421.48	4685.75
421.67	4805.12
421.86	4788.74
422.05	4849.59
422.24	4777.03
422.43	4901.08
422.61	4896.40
422.80	5015.77
422.99	5008.75
423.18	5036.83
423.37	5064.92
423.56	4994.70
423.75	4812.14
423.94	4812.14
424.13	4636.60
424.32	4697.46
424.50	5029.81
424.69	5111.73
424.88	5036.83
425.07	4931.51
425.26	4863.63
425.45	4896.40
425.64	4884.70
425.83	5006.41
426.01	5004.07
426.20	5039.17
426.39	5130.45
426.58	5111.73
426.77	4992.36
426.96	5174.92
427.15	5184.29
427.33	5387.91
427.52	5165.56
427.71	5212.37
427.90	5240.46
428.09	5369.19
428.28	5390.25
428.46	5345.78
428.65	5350.46
428.84	5628.99
429.03	5469.83
429.22	5313.02
429.40	5444.09
429.59	5488.56
429.78	5320.04
429.97	5249.82
430.16	5427.70
430.34	5661.76
430.53	5692.18
430.72	5577.50
430.91	5495.58
431.10	5621.97
431.28	5724.95
431.47	5792.83
431.66	5881.77
431.85	5729.63
432.03	6019.86
432.22	5905.17
432.41	5799.85
432.60	5874.74
432.79	5827.93
432.97	6040.92
433.16	6012.84
433.35	5994.11
433.54	6104.12
433.72	6251.57
433.91	6057.31
434.10	6059.65
434.28	5996.45
434.47	6211.78
434.66	6239.87
434.85	6244.55
435.03	6328.81
435.22	6174.33
435.41	6420.09
435.59	6431.79
435.78	6284.34
435.97	6263.27
436.16	6506.69
436.34	6408.39
436.53	6635.42
436.72	6684.57
436.90	6324.13
437.09	6752.45
437.28	6399.02
437.46	6539.46
437.65	6602.65
437.84	6773.51
438.02	6836.70
438.21	6853.09
438.40	6761.81
438.58	6911.60
438.77	7012.24
438.96	6820.32
439.14	6993.52
439.33	7173.74
439.52	7138.63
439.70	7171.40
439.89	7372.69
440.08	7295.45
440.26	7293.11
440.45	7335.24
440.63	7379.71
440.82	7557.59
441.01	7412.48
441.19	7674.62
441.38	7889.95
441.57	7765.90
441.75	7768.24
441.94	7852.50
442.12	7988.25
442.31	8074.85
442.50	7943.78
442.68	8098.25
442.87	8051.44
443.05	8131.02
443.24	8098.25
443.43	8166.13
443.61	8159.11
443.80	8514.87
443.98	7943.78
444.17	7864.20
444.35	8189.53
444.54	8234.00
444.73	8299.54
444.91	8395.50
445.10	8341.67
445.28	8383.80
445.47	8238.69
445.65	8374.44
445.84	8315.92
446.02	8463.38
446.21	8400.18
446.39	8613.17
446.58	8388.48
446.77	8627.21
446.95	8292.52
447.14	8390.82
447.32	8554.66
447.51	8458.70
447.69	8503.17
447.88	8344.01
448.06	8463.38
448.25	8629.56
448.43	8608.49
448.62	8681.05
448.80	8566.36
448.99	8578.06
449.17	8755.94
449.36	8446.99
449.54	8727.86
449.73	9123.41
449.91	8990.00
450.10	8964.25
450.28	9095.32
450.46	9020.42
450.65	8945.53
450.83	9210.01
451.02	9043.83
451.20	9067.24
451.39	9170.22
451.57	9109.36
451.76	9135.11
451.94	9036.81
452.13	9259.16
452.31	9011.06
452.49	9046.17
452.68	9214.69
452.86	9242.78
453.05	9467.47
453.23	9486.19
453.42	9172.56
453.60	9245.12
453.78	9488.53
453.97	9460.45
454.15	9483.85
454.34	9568.11
454.52	9685.14
454.70	9640.67
454.89	9598.54
455.07	9806.84
455.26	9860.68
455.44	9865.36
455.62	9980.04
455.81	9790.46
455.99	10122.82
456.17	10127.50
456.36	10085.37
456.54	10340.49
456.73	10403.68
456.91	10497.30
457.09	10408.36
457.28	10420.06
457.46	10216.44
457.64	10532.41
457.83	10494.96
458.01	10530.07
458.19	10670.50
458.38	10478.58
458.56	10630.71
458.74	10871.79
458.93	10597.95
459.11	10733.70
459.29	10726.68
459.48	10817.96
459.66	10829.66
459.84	10843.70
460.03	10972.43
460.21	10904.56
460.39	10913.92
460.57	10963.07
460.76	11094.14
460.94	11126.91
461.12	11082.44
461.31	11190.10
461.49	11194.78
461.67	10944.34
461.85	11499.05
462.04	11307.13
462.22	11875.88
462.40	11719.06
462.59	11496.71
462.77	11580.97
462.95	11616.08
463.13	11676.93
463.32	11641.82
463.50	11461.60
463.68	11779.92
463.86	11819.71
464.05	11637.14
464.23	11520.12
464.41	11765.87
464.59	11777.58
464.78	12051.42
464.96	12020.99
465.14	11737.79
465.32	12138.02
465.50	11969.50
465.69	12095.89
465.87	12248.02
466.05	12187.17
466.23	12145.04
466.41	12243.34
466.60	12449.31
466.78	12086.53
466.96	12325.26
467.14	12278.45
467.32	12341.64
467.51	12734.85
467.69	12187.17
467.87	12444.63
468.05	12737.20
468.23	12397.82
468.41	12507.82
468.60	12697.41
468.78	12709.11
468.96	12645.91
469.14	12791.03
469.32	12947.84
469.50	12636.55
469.69	13118.70
469.87	12950.18
470.05	13167.85
470.23	13219.35
470.41	13195.94
470.59	13415.95
470.77	12938.48
470.95	13170.19
471.14	13610.22
471.32	13308.29
471.50	13617.24
471.68	13619.58
471.86	13584.47
472.04	13710.86
472.22	14024.49
472.40	13647.66
472.58	13598.51
472.77	14005.77
472.95	14120.45
473.13	14562.81
473.31	14038.53
473.49	14380.25
473.67	14157.90
473.85	14335.78
474.03	14504.30
474.21	14558.13
474.39	14822.61
474.57	14614.30
474.75	14778.14
474.93	15030.92
475.12	14841.34
475.30	15349.23
475.48	14923.26
475.66	15304.76
475.84	15094.11
476.02	15349.23
476.20	15250.93
476.38	15791.59
476.56	15672.23
476.74	15988.20
476.92	15751.81
477.10	15910.96
477.28	16240.98
477.46	16168.42
477.64	16201.19
477.82	16524.18
478.00	16837.81
478.18	16807.39
478.36	16575.67
478.54	17170.17
478.72	16851.86
478.90	17282.52
479.08	17682.75
479.26	17451.03
479.44	17547.00
479.62	17860.63
479.80	18071.28
479.98	18085.32
480.16	18600.24
480.34	18333.42
480.52	18801.52
480.70	18764.07
480.88	18525.34
481.06	18658.75
481.24	18579.17
481.41	18932.59
481.59	19346.87
481.77	19585.60
481.95	19393.68
482.13	19594.96
482.31	19609.01
482.49	20051.37
482.67	20102.86
482.85	20102.86
483.03	20718.42
483.21	20648.21
483.39	20641.18
483.57	20950.14
483.74	21116.31
483.92	21516.54
484.10	21350.37
484.28	21631.23
484.46	21869.97
484.64	22382.54
484.82	22094.66
485.00	22160.19
485.18	22522.98
485.35	23218.11
485.53	23016.83
485.71	23070.66
485.89	23377.27
486.07	23349.18
486.25	23365.57
486.43	23627.71
486.61	23960.06
486.78	23988.15
486.96	24147.31
487.14	24395.40
487.32	24322.85
487.50	24744.14
487.68	24805.00
487.85	25369.07
488.03	25570.35
488.21	26003.35
488.39	25825.47
488.57	25652.27
488.75	25963.56
488.92	26536.99
489.10	26857.65
489.28	26654.02
489.46	26742.96
489.64	26838.92
489.81	27711.94
489.99	27648.75
490.17	27749.39
490.35	27962.38
490.53	28135.58
490.70	28425.81
490.88	28009.19
491.06	28865.83
491.24	28622.41
491.41	28966.47
491.59	29301.17
491.77	29425.22
491.95	29640.54
492.13	29689.70
492.30	29979.92
492.48	29956.52
492.66	30323.98
492.84	30314.62
493.01	31087.00
493.19	30551.01
493.37	31072.95
493.54	30881.03
493.72	31262.54
493.90	31419.35
494.08	32011.51
494.25	31981.08
494.43	32081.72
494.61	32376.63
494.79	32091.09
494.96	32318.12
495.14	32381.31
495.32	33137.30
495.49	32907.93
495.67	32877.51
495.85	33415.83
496.02	33532.86
496.20	33961.17
496.38	34005.64
496.55	34057.14
496.73	34700.78
496.91	34565.03
497.09	34572.05
497.26	34972.28
497.44	34756.96
497.62	35143.14
497.79	35957.65
497.97	35358.47
498.14	35693.17
498.32	36182.34
498.50	35557.42
498.67	36460.87
498.85	36477.25
499.03	36620.02
499.20	36500.65
499.38	37013.23
499.56	36996.85
499.73	37457.93
499.91	37399.42
500.08	37797.31
500.26	37209.84
500.44	37691.99
500.61	37518.79
500.79	37471.98
500.97	37766.88
501.14	38838.85
501.32	37984.55
501.49	38139.03
501.67	38581.39
501.84	38848.21
502.02	38878.64
502.20	38813.10
502.37	39049.50
502.55	39201.63
502.72	39311.64
502.90	40156.57
503.07	39119.71
503.25	39662.72
503.43	39615.91
503.60	40034.86
503.78	40219.77
503.95	39924.86
504.13	40643.40
504.30	40713.62
504.48	40596.59
504.65	40966.40
504.83	41043.63
505.01	41359.61
505.18	41212.15
505.36	41481.31
505.53	41284.71
505.71	41621.75
505.88	41804.31
506.06	41628.77
506.23	41509.40
506.41	41867.50
506.58	41776.22
506.76	42190.50
506.93	42490.09
507.11	42635.20
507.28	42473.70
507.46	42604.77
507.63	42768.61
507.81	43110.33
507.98	42370.72
508.16	43107.99
508.33	43374.81
508.50	42932.45
508.68	43636.95
508.85	44212.72
509.03	44135.48
509.20	43697.80
509.38	44226.76
509.55	44109.74
509.73	44547.42
509.90	44711.25
510.08	44605.93
510.25	44591.89
510.42	44863.39
510.60	45230.85
510.77	45359.58
510.95	45289.37
511.12	44788.49
511.30	45397.03
511.47	44961.69
511.64	45813.65
511.82	45617.04
511.99	45553.85
512.17	45951.74
512.34	45979.82
512.51	46471.34
512.69	46078.13
512.86	46658.58
513.04	46611.77
513.21	46611.77
513.38	46803.69
513.56	46780.29
513.73	46724.11
513.90	47145.41
514.08	46609.43
514.25	46777.95
514.43	47346.70
514.60	47178.18
514.77	47313.93
514.95	47686.07
515.12	47295.21
515.29	47784.38
515.47	47805.44
515.64	48048.86
515.81	47744.59
515.99	48060.56
516.16	48313.34
516.33	48364.83
516.51	48610.59
516.68	48631.65
516.85	48596.54
517.03	48706.55
517.20	48999.12
517.37	48549.73
517.54	49041.24
517.72	49069.33
517.89	49045.93
518.06	48968.69
518.24	49125.50
518.41	49102.10
518.58	49083.37
518.75	49233.17
518.93	49354.88
519.10	49464.88
519.27	49612.34
519.45	49617.02
519.62	49940.01
519.79	49916.61
519.96	49914.26
520.14	49984.48
520.31	50153.00
520.48	50218.53
520.65	50134.28
520.83	50394.07
521.00	50602.38
521.17	50864.52
521.34	50230.24
521.52	50492.38
521.69	50672.60
521.86	50735.79
522.03	51002.61
522.20	51007.29
522.38	51337.31
522.55	51402.85
522.72	51215.60
522.89	51363.06
523.07	51435.61
523.24	51098.58
523.41	51494.13
523.58	51341.99
523.75	51835.84
523.92	51522.21
524.10	51756.27
524.27	51718.82
524.44	51969.26
524.61	51971.60
524.78	51980.96
524.96	52156.50
525.13	52210.33
525.30	52280.55
525.47	52428.00
525.64	52474.81
525.81	52460.77
525.98	52783.76
526.16	52460.77
526.33	52519.28
526.50	52868.02
526.67	52746.31
526.84	52999.09
527.01	52783.76
527.18	52596.52
527.36	52603.54
527.53	52884.40
527.70	53420.39
527.87	53179.31
528.04	52741.63
528.21	53542.10
528.38	53418.05
528.55	53294.00
528.72	53338.47
528.89	53200.38
529.07	53394.64
529.24	53305.70
529.41	53565.50
529.58	53460.18
529.75	53469.54
529.92	53389.96
530.09	53780.83
530.26	53839.34
530.43	53951.69
530.60	53717.64
530.77	53677.85
530.94	54089.78
531.11	54155.32
531.28	53982.12
531.46	54082.76
531.63	54445.54
531.80	54152.97
531.97	54223.19
532.14	54246.60
532.31	54401.07
532.48	54377.67
532.65	54541.50
532.82	54534.48
532.99	54644.49
533.16	54248.94
533.33	54738.11
533.50	55023.65
533.67	54714.70
533.84	54536.82
534.01	54602.36
534.18	54869.18
534.35	55070.46
534.52	54969.82
534.69	55449.63
534.86	55316.22
535.03	55000.25
535.20	55412.18
535.37	55257.71
535.54	55178.13
535.71	55255.37
535.88	55260.05
536.05	55559.64
536.22	55274.09
536.38	55704.75
536.55	55426.23
536.72	55707.09
536.89	55454.31
537.06	55657.94
537.23	55735.18
537.40	55501.12
537.57	55728.16
537.74	55695.39
537.91	56048.81
538.08	55627.51
538.25	55606.45
538.42	55866.25
538.59	55929.44
538.75	56065.19
538.92	56018.38
539.09	56072.21
539.26	55917.74
539.43	56062.85
539.60	55992.64
539.77	56329.67
539.94	56486.49
540.11	56435.00
540.28	56442.02
540.44	56296.91
540.61	56320.31
540.78	56135.41
540.95	56357.76
541.12	56161.15
541.29	56200.94
541.46	56575.43
541.62	56362.44
541.79	56647.99
541.96	56411.59
542.13	56460.74
542.30	56566.07
542.47	56830.55
542.63	56814.16
542.80	56865.66
542.97	57160.56
543.14	57102.05
543.31	56889.06
543.48	57286.95
543.64	57460.15
543.81	57537.39
543.98	57317.38
544.15	57317.38
544.32	57378.23
544.48	57460.15
544.65	57336.10
544.82	57427.38
544.99	57249.50
545.16	57506.96
545.32	57336.10
545.49	57474.20
545.66	57392.28
545.83	57521.01
546.00	57694.21
546.16	57649.74
546.33	57607.61
546.50	57429.72
546.67	57523.35
546.83	57354.83
547.00	57682.50
547.17	57649.74
547.34	57621.65
547.50	57958.69
547.67	58094.44
547.84	57769.10
548.00	58054.65
548.17	58033.58
548.34	58185.72
548.51	58211.46
548.67	58068.69
548.84	58056.99
549.01	58089.76
549.18	58148.27
549.34	58087.42
549.51	58274.66
549.68	58141.25
549.84	58246.57
550.01	58363.60
550.18	58176.36
550.34	58361.26
550.51	58258.27
550.68	58347.21
550.84	58239.55
551.01	58424.45
551.18	58576.59
551.34	58412.75
551.51	58623.40
551.68	58614.04
551.84	58529.78
552.01	58335.51
552.18	58574.25
552.34	58424.45
552.51	58920.65
552.68	58440.84
552.84	58808.30
553.01	58831.71
553.18	58749.79
553.34	58798.94
553.51	58464.24
553.67	58789.58
553.84	58894.90
554.01	58810.64
554.17	59021.29
554.34	58930.01
554.51	59110.23
554.67	59171.08
554.84	58990.86
555.00	58983.84
555.17	59140.66
555.33	59058.74
555.50	58958.09
555.67	58731.06
555.83	58930.01
556.00	58965.12
556.16	59271.73
556.33	58972.14
556.50	59185.13
556.66	59189.81
556.83	59084.48
556.99	59077.46
557.16	59337.26
557.32	59510.46
557.49	59580.68
557.65	59501.10
557.82	59234.28
557.98	59337.26
558.15	59346.62
558.32	59297.47
558.48	59135.98
558.65	59283.43
558.81	59311.52
558.98	59379.39
559.14	59568.97
559.31	59526.84
559.47	59451.95
559.64	59744.51
559.80	59716.43
559.97	59547.91
560.13	59395.77
560.30	59606.42
560.46	59849.84
560.63	59779.62
560.79	59681.32
560.96	59739.83
561.12	59749.20
561.29	59718.77
561.45	59779.62
561.61	59817.07
561.78	59763.24
561.94	59573.66
562.11	59903.67
562.27	59880.27
562.44	59957.50
562.60	59997.29
562.77	60009.00
562.93	59599.40
563.10	60027.72
563.26	59803.03
563.42	60149.43
563.59	60013.68
563.75	60041.76
563.92	60111.98
564.08	59971.55
564.24	60137.72
564.41	60114.32
564.57	60048.78
564.74	60097.94
564.90	60051.12
565.07	60205.60
565.23	60151.77
565.39	60147.09
565.56	60198.58
565.72	60093.25
565.88	60271.14
566.05	60158.79
566.21	60081.55
566.38	60109.64
566.54	60186.88
566.70	60236.03
566.87	60460.72
567.03	60025.38
567.19	60420.93
567.36	60331.99
567.52	60271.14
567.68	60226.66
567.85	60406.89
568.01	60596.47
568.17	60308.58
568.34	60509.87
568.50	60331.99
568.66	60264.11
568.83	60385.82
568.99	60374.12
569.15	60516.89
569.32	60221.98
569.48	60264.11
569.64	60666.69
569.81	60444.33
569.97	60402.21
570.13	60615.19
570.30	60437.31
570.46	60261.77
570.62	60317.95
570.78	60453.70
570.95	60416.25
571.11	60718.18
571.27	60523.91
571.43	60446.68
571.60	60601.15
571.76	60547.32
571.92	60441.99
572.09	60439.65
572.25	60654.98
572.41	60458.38
572.57	60526.25
572.74	60846.91
572.90	60324.97
573.06	60814.14
573.22	60568.38
573.38	60664.35
573.55	60243.05
573.71	60774.35
573.87	60568.38
574.03	60650.30
574.20	60552.00
574.36	60573.06
574.52	60603.49
574.68	60769.67
574.84	60865.63
575.01	60643.28
575.17	60823.50
575.33	60652.64
575.49	60542.64
575.65	60729.88
575.82	60741.58
575.98	60746.26
576.14	60954.57
576.30	60757.97
576.46	60654.98
576.62	60790.73
576.79	60619.88
576.95	60449.02
577.11	60753.29
577.27	60828.18
577.43	60968.61
577.59	60650.30
577.75	60598.81
577.92	60645.62
578.08	60512.21
578.24	60839.89
578.40	60863.29
578.56	60823.50
578.72	60851.59
578.88	61055.21
579.04	60924.14
579.21	60839.89
579.37	61066.92
579.53	60870.31
579.69	60554.34
579.85	60662.00
580.01	60662.00
580.17	60636.26
580.33	60954.57
580.49	60921.80
580.65	60973.30
580.82	60774.35
580.98	60858.61
581.14	60818.82
581.30	61102.03
581.46	60720.52
581.62	60860.95
581.78	60874.99
581.94	61010.74
582.10	60720.52
582.26	60914.78
582.42	60786.05
582.58	60968.61
582.74	60860.95
582.90	60893.72
583.06	60835.20
583.22	60748.60
583.38	60914.78
583.54	60828.18
583.70	61031.81
583.86	61200.33
584.02	60959.25
584.18	61034.15
584.34	60924.14
584.50	60858.61
584.66	60912.44
584.82	60807.12
584.98	61099.68
585.14	61059.90
585.30	60926.49
585.46	60755.63
585.62	60935.85
585.78	61137.13
585.94	60755.63
586.10	61069.26
586.26	60870.31
586.42	61036.49
586.58	60891.38
586.74	60959.25
586.90	61020.11
587.06	60975.64
587.22	61010.74
587.38	61020.11
587.54	61235.44
587.70	61174.58
587.86	60987.34
588.02	61027.13
588.18	61186.28
588.34	60987.34
588.49	60989.68
