SpectraSuite Data File
++++++++++++++++++++++++++++++++++++
Date: Fri Oct 25 10:43:14 EDT 2013
User: price-jones
Dark Spectrum Present: No
Reference Spectrum Present: No
Number of Sampled Component Spectra: 1
Spectrometers: USB2+H05261
Integration Time (usec): 100000 (USB2+H05261)
Spectra Averaged: 1 (USB2+H05261)
Boxcar Smoothing: 0 (USB2+H05261)
Correct for Electrical Dark: No (USB2+H05261)
Strobe/Lamp Enabled: No (USB2+H05261)
Correct for Detector Non-linearity: No (USB2+H05261)
Correct for Stray Light: No (USB2+H05261)
Number of Pixels in Processed Spectrum: 2048
>>>>>Begin Processed Spectral Data<<<<<
365.73	121.71
365.92	121.71
366.12	121.71
366.32	37.45
366.52	0.00
366.72	46.81
366.91	0.00
367.11	18.72
367.31	0.00
367.51	7.02
367.70	0.00
367.90	44.47
368.10	0.00
368.30	14.04
368.49	77.24
368.69	112.35
368.89	0.00
369.09	63.19
369.28	58.51
369.48	98.30
369.68	37.45
369.87	23.41
370.07	102.98
370.27	168.52
370.47	142.77
370.66	313.63
370.86	386.19
371.06	447.04
371.25	463.43
371.45	503.22
371.65	433.00
371.84	442.36
372.04	491.51
372.24	543.00
372.44	411.93
372.63	449.38
372.83	447.04
373.03	526.62
373.22	491.51
373.42	587.47
373.62	503.22
373.81	580.45
374.01	512.58
374.21	550.03
374.40	531.30
374.60	636.63
374.79	564.07
374.99	552.37
375.19	571.09
375.38	514.92
375.58	629.60
375.78	601.52
375.97	683.44
376.17	671.73
376.37	617.90
376.56	540.66
376.76	531.30
376.95	624.92
377.15	662.37
377.35	636.63
377.54	702.16
377.74	688.12
377.93	617.90
378.13	699.82
378.33	681.10
378.52	606.20
378.72	662.37
378.91	676.41
379.11	615.56
379.31	674.07
379.50	681.10
379.70	636.63
379.89	653.01
380.09	690.46
380.28	730.25
380.48	692.80
380.68	641.31
380.87	704.50
381.07	713.86
381.26	777.06
381.46	699.82
381.65	760.67
381.85	709.18
382.04	734.93
382.24	664.71
382.43	697.48
382.63	718.54
382.83	648.33
383.02	744.29
383.22	744.29
383.41	716.20
383.61	779.40
383.80	753.65
384.00	744.29
384.19	772.38
384.39	732.59
384.58	805.14
384.78	758.33
384.97	781.74
385.17	842.59
385.36	741.95
385.56	814.51
385.75	746.63
385.95	765.36
386.14	861.32
386.34	758.33
386.53	919.83
386.72	844.93
386.92	877.70
387.11	873.02
387.31	863.66
387.50	819.19
387.70	840.25
387.89	880.04
388.09	844.93
388.28	931.53
388.48	830.89
388.67	959.62
388.86	959.62
389.06	973.66
389.25	976.00
389.45	929.19
389.64	973.66
389.84	1055.58
390.03	987.71
390.22	943.24
390.42	1001.75
390.61	1022.81
390.81	1064.94
391.00	1069.62
391.19	1041.54
391.39	997.07
391.58	1015.79
391.78	997.07
391.97	950.26
392.16	1041.54
392.36	1055.58
392.55	1062.60
392.75	940.90
392.94	1053.24
393.13	1022.81
393.33	1029.84
393.52	1088.35
393.71	1146.86
393.91	1102.39
394.10	1179.63
394.29	1146.86
394.49	1100.05
394.68	1081.33
394.88	1135.16
395.07	1280.27
395.26	1268.57
395.46	1238.14
395.65	1341.13
395.84	1196.01
396.04	1240.48
396.23	1186.65
396.42	1086.01
396.62	1177.29
396.81	1107.07
397.00	1193.67
397.19	1191.33
397.39	1390.28
397.58	1373.89
397.77	1413.68
397.97	1373.89
398.16	1373.89
398.35	1418.36
398.55	1462.83
398.74	1490.92
398.93	1537.73
399.12	1462.83
399.32	1540.07
399.51	1399.64
399.70	1509.65
399.90	1598.59
400.09	1570.50
400.28	1570.50
400.47	1547.09
400.67	1584.54
400.86	1558.80
401.05	1715.61
401.24	1589.22
401.44	1720.29
401.63	1682.85
401.82	1790.51
402.01	1685.19
402.21	1689.87
402.40	1722.63
402.59	1722.63
402.78	1727.32
402.97	1736.68
403.17	1797.53
403.36	1769.44
403.55	1870.09
403.74	1907.54
403.93	1895.83
404.13	1877.11
404.32	1912.22
404.51	1867.75
404.70	1746.04
404.89	1816.26
405.09	1998.82
405.28	2057.33
405.47	1886.47
405.66	2022.22
405.85	1886.47
406.05	1886.47
406.24	2010.52
406.43	2040.95
406.62	1989.46
406.81	2022.22
407.00	2064.35
407.20	2085.42
407.39	2036.27
407.58	2071.37
407.77	2160.31
407.96	2188.40
408.15	2188.40
408.34	2218.83
408.54	2193.08
408.73	2242.23
408.92	2363.94
409.11	2380.32
409.30	2321.81
409.49	2260.96
409.68	2176.70
409.87	2293.72
410.07	2277.34
410.26	2434.16
410.45	2410.75
410.64	2392.03
410.83	2466.92
411.02	2497.35
411.21	2558.21
411.40	2626.08
411.59	2644.81
411.78	2541.82
411.98	2616.72
412.17	2679.91
412.36	2698.64
412.55	2729.06
412.74	2806.30
412.93	2609.70
413.12	2614.38
413.31	2806.30
413.50	2815.66
413.69	2855.45
413.88	2956.10
414.07	2878.86
414.26	3068.44
414.45	3002.91
414.64	2904.60
414.83	3000.57
415.02	3094.19
415.22	3077.80
415.41	3045.04
415.60	3052.06
415.79	3251.00
415.98	3318.88
416.17	3197.17
416.36	3274.41
416.55	3171.43
416.74	3337.60
416.93	3157.38
417.12	3260.37
417.31	3248.66
417.50	3370.37
417.69	3417.18
417.88	3536.55
418.07	3372.71
418.26	3288.45
418.45	3531.87
418.64	3585.70
418.83	3482.72
419.02	3463.99
419.21	3599.74
419.39	3566.98
419.58	3550.59
419.77	3585.70
419.96	3623.15
420.15	3765.92
420.34	3726.13
420.53	3691.02
420.72	3789.33
420.91	3913.38
421.10	3805.71
421.29	3712.09
421.48	3782.31
421.67	3772.94
421.86	3730.81
422.05	3756.56
422.24	3709.75
422.43	3932.10
422.61	3812.73
422.80	3920.40
422.99	3889.97
423.18	3955.51
423.37	4182.54
423.56	4032.74
423.75	3953.16
423.94	3932.10
424.13	3583.36
424.32	3714.43
424.50	3999.98
424.69	4079.55
424.88	4102.96
425.07	3850.18
425.26	4007.00
425.45	3852.52
425.64	3838.48
425.83	3918.06
426.01	3847.84
426.20	3960.19
426.39	4007.00
426.58	3899.33
426.77	3815.07
426.96	3974.23
427.15	4065.51
427.33	3943.80
427.52	4086.58
427.71	4187.22
427.90	4077.21
428.09	4100.62
428.28	4067.85
428.46	4100.62
428.65	4145.09
428.84	4215.30
429.03	4400.21
429.22	4098.28
429.40	4156.79
429.59	4102.96
429.78	3775.28
429.97	3866.56
430.16	3967.21
430.34	4124.02
430.53	4095.94
430.72	4196.58
430.91	4210.62
431.10	4290.20
431.28	4608.51
431.47	4772.35
431.66	4603.83
431.85	4535.96
432.03	4627.24
432.22	4585.11
432.41	4456.38
432.60	4585.11
432.79	4723.20
432.97	4758.31
433.16	4737.24
433.35	4622.56
433.54	4587.45
433.72	4547.66
433.91	4760.65
434.10	4709.16
434.28	4777.03
434.47	4716.18
434.66	4873.00
434.85	4844.91
435.03	4929.17
435.22	5015.77
435.41	4975.98
435.59	5013.43
435.78	5114.07
435.97	5210.03
436.16	5025.13
436.34	5053.22
436.53	5055.56
436.72	5139.82
436.90	5116.41
437.09	5130.45
437.28	5128.11
437.46	5210.03
437.65	5195.99
437.84	5195.99
438.02	5135.14
438.21	5186.63
438.40	5015.77
438.58	5336.42
438.77	5355.15
438.96	5554.09
439.14	5530.69
439.33	5631.33
439.52	5671.12
439.70	5486.22
439.89	5614.95
440.08	5612.60
440.26	5853.68
440.45	5804.53
440.63	5671.12
440.82	5982.41
441.01	5886.45
441.19	5888.79
441.38	6141.57
441.57	5902.83
441.75	6214.12
441.94	6204.76
442.12	6387.32
442.31	6448.18
442.50	6410.73
442.68	6286.68
442.87	6392.00
443.05	6296.04
443.24	6368.60
443.43	6352.21
443.61	6370.94
443.80	6579.25
443.98	6239.87
444.17	6258.59
444.35	6492.65
444.54	6600.31
444.73	6424.77
444.91	6431.79
445.10	6569.88
445.28	6422.43
445.47	6518.39
445.65	6569.88
445.84	6417.75
446.02	6567.54
446.21	6616.69
446.39	6324.13
446.58	6644.78
446.77	6572.22
446.95	6614.35
447.14	6633.08
447.32	6820.32
447.51	6602.65
447.69	6686.91
447.88	6609.67
448.06	6616.69
448.25	6621.38
448.43	6759.47
448.62	6621.38
448.80	6675.21
448.99	6801.60
449.17	6801.60
449.36	6820.32
449.54	7054.37
449.73	7030.97
449.91	7073.10
450.10	7089.48
450.28	7248.64
450.46	7166.72
450.65	7052.03
450.83	7077.78
451.02	7087.14
451.20	7353.96
451.39	7173.74
451.57	7204.17
451.76	7328.22
451.94	7253.32
452.13	7227.57
452.31	7180.76
452.49	7075.44
452.68	7143.32
452.86	7344.60
453.05	7225.23
453.23	7272.04
453.42	7410.14
453.60	7295.45
453.78	7283.75
453.97	7176.08
454.15	7314.17
454.34	7321.20
454.52	7323.54
454.70	7295.45
454.89	7566.95
455.07	7279.07
455.26	7665.25
455.44	7777.60
455.62	7712.07
455.81	7789.30
455.99	7831.43
456.17	7602.06
456.36	7911.01
456.54	7819.73
456.73	7953.14
456.91	8166.13
457.09	8124.00
457.28	8161.45
457.46	7978.89
457.64	8072.51
457.83	8051.44
458.01	7964.84
458.19	8271.45
458.38	8063.15
458.56	8243.37
458.74	8205.92
458.93	8067.83
459.11	8203.58
459.29	8205.92
459.48	8308.90
459.66	8100.59
459.84	8163.79
460.03	8388.48
460.21	8369.76
460.39	8636.58
460.57	8334.65
460.76	8741.90
460.94	8652.96
461.12	8498.49
461.31	8627.21
461.49	8711.47
461.67	8662.32
461.85	8777.01
462.04	8557.00
462.22	9146.81
462.40	8842.54
462.59	8844.88
462.77	8910.42
462.95	8973.61
463.13	8950.21
463.32	8777.01
463.50	9149.15
463.68	9025.11
463.86	9043.83
464.05	8779.35
464.23	8898.72
464.41	8865.95
464.59	8879.99
464.78	9036.81
464.96	9050.85
465.14	8971.27
465.32	9076.60
465.50	9186.60
465.69	9137.45
465.87	8968.93
466.05	9111.71
466.23	9039.15
466.41	9018.08
466.60	9303.63
466.78	9107.02
466.96	9135.11
467.14	9217.03
467.32	9401.93
467.51	9350.44
467.69	9158.52
467.87	9373.85
468.05	9420.66
468.23	9439.38
468.41	9373.85
468.60	9444.06
468.78	9675.77
468.96	9497.89
469.14	9591.52
469.32	9666.41
469.50	9280.22
469.69	9572.79
469.87	9750.67
470.05	9764.72
470.23	9799.82
470.41	9710.88
470.59	10073.67
470.77	9724.93
470.95	9834.93
471.14	10010.47
471.32	9825.57
471.50	10272.61
471.68	10190.69
471.86	10324.10
472.04	10186.01
472.22	10574.54
472.40	10218.78
472.58	10574.54
472.77	10485.60
472.95	10572.20
473.13	10864.77
473.31	10520.71
473.49	10415.38
473.67	10640.08
473.85	10623.69
474.03	10801.57
474.21	10789.87
474.39	10899.87
474.57	11096.48
474.75	10967.75
474.93	11124.57
475.12	11037.97
475.30	11077.76
475.48	11044.99
475.66	11180.74
475.84	11049.67
476.02	11241.59
476.20	11372.66
476.38	11316.49
476.56	11789.28
476.74	11850.13
476.92	11616.08
477.10	11702.68
477.28	12072.48
477.46	11840.77
477.64	12123.98
477.82	12346.33
478.00	12657.62
478.18	12493.78
478.36	12393.14
478.54	12585.06
478.72	12685.70
478.90	13195.94
479.08	13179.56
479.26	13006.36
479.44	12886.99
479.62	13184.24
479.80	13188.92
479.98	13359.78
480.16	13607.87
480.34	13465.10
480.52	13717.88
480.70	13783.41
480.88	13549.36
481.06	13692.13
481.24	13900.44
481.41	14024.49
481.59	14324.08
481.77	14146.20
481.95	14380.25
482.13	14579.20
482.31	14424.72
482.49	14920.92
482.67	14682.18
482.85	14778.14
483.03	15077.73
483.21	15178.37
483.39	15400.72
483.57	15260.29
483.74	15499.03
483.92	15756.49
484.10	15424.13
484.28	15917.98
484.46	16222.25
484.64	16102.89
484.82	16102.89
485.00	16086.50
485.18	16304.17
485.35	16306.51
485.53	16198.85
485.71	15723.72
485.89	16383.75
486.07	16152.04
486.25	16856.54
486.43	16671.64
486.61	17013.35
486.78	16999.31
486.96	17144.42
487.14	17724.88
487.32	17589.13
487.50	18101.70
487.68	18263.20
487.85	18155.54
488.03	18342.78
488.21	18464.49
488.39	18274.90
488.57	18354.48
488.75	18787.48
488.92	19056.64
489.10	19164.31
489.28	19211.12
489.46	19740.08
489.64	19398.36
489.81	20121.59
489.99	20191.80
490.17	20156.69
490.35	20205.84
490.53	20095.84
490.70	20077.12
490.88	20072.43
491.06	20453.94
491.24	20559.27
491.41	20592.03
491.59	20428.20
491.77	20833.11
491.95	21202.91
492.13	21181.85
492.30	21415.90
492.48	21649.96
492.66	21783.37
492.84	21647.61
493.01	22059.55
493.19	21884.01
493.37	21921.46
493.54	22150.83
493.72	22288.92
493.90	22457.44
494.08	22567.45
494.25	22955.97
494.43	22897.46
494.61	23536.43
494.79	23253.22
494.96	23140.88
495.14	23616.01
495.32	23227.48
495.49	23728.35
495.67	23796.23
495.85	23983.47
496.02	24226.89
496.20	24212.84
496.38	24418.81
496.55	24446.90
496.73	25092.88
496.91	24531.15
497.09	24629.46
497.26	24830.74
497.44	24912.66
497.62	24882.24
497.79	25310.55
497.97	25088.20
498.14	25301.19
498.32	25713.13
498.50	25434.60
498.67	25790.36
498.85	26031.44
499.03	25905.05
499.20	26118.04
499.38	26244.43
499.56	26373.16
499.73	25891.01
499.91	25827.81
500.08	26354.43
500.26	26441.03
500.44	26436.35
500.61	26316.98
500.79	26403.58
500.97	26682.11
501.14	27314.05
501.32	26761.69
501.49	26902.12
501.67	26813.18
501.84	27028.51
502.02	27428.74
502.20	27641.73
502.37	27473.21
502.55	27735.35
502.72	27648.75
502.90	28072.39
503.07	27807.90
503.25	27920.25
503.43	27969.40
503.60	28144.94
503.78	27845.35
503.95	27964.72
504.13	28142.60
504.30	28404.74
504.48	28636.45
504.65	28746.46
504.83	29151.37
505.01	28900.94
505.18	28631.77
505.36	29453.30
505.53	29535.22
505.71	29647.57
505.88	29846.51
506.06	29418.19
506.23	29273.08
506.41	29209.89
506.58	29500.11
506.76	29963.54
506.93	29502.45
507.11	29509.47
507.28	29872.26
507.46	29469.69
507.63	29759.91
507.81	30129.72
507.98	29862.90
508.16	30246.74
508.33	30391.86
508.50	30555.69
508.68	30745.28
508.85	30541.65
509.03	30824.86
509.20	30866.98
509.38	31047.21
509.55	30955.93
509.73	31274.24
509.90	31042.53
510.08	31077.63
510.25	31267.22
510.42	31536.38
510.60	31622.98
510.77	31812.56
510.95	31962.36
511.12	31555.10
511.30	31700.22
511.47	32313.44
511.64	32130.87
511.82	32240.88
511.99	31957.67
512.17	32498.34
512.34	32116.83
512.51	32528.77
512.69	32896.23
512.86	32561.53
513.04	32645.79
513.21	32409.40
513.38	32620.05
513.56	32451.53
513.73	32772.18
513.90	32957.08
514.08	32559.19
514.25	32994.53
514.43	32882.19
514.60	33366.68
514.77	33104.54
514.95	33268.37
515.12	33392.42
515.29	33301.14
515.47	33851.17
515.64	33804.36
515.81	33670.95
515.99	33827.76
516.16	33914.36
516.33	33684.99
516.51	33605.41
516.68	32975.81
516.85	33050.70
517.03	33338.59
517.20	33975.22
517.37	34391.83
517.54	34272.46
517.72	33886.28
517.89	33631.16
518.06	33940.11
518.24	33954.15
518.41	34075.86
518.58	34054.79
518.75	34312.25
518.93	34944.20
519.10	34398.85
519.27	34890.37
519.45	34953.56
519.62	35332.73
519.79	34899.73
519.96	35143.14
520.14	35290.60
520.31	35306.98
520.48	35101.01
520.65	35372.52
520.83	35728.28
521.00	35859.35
521.17	35557.42
521.34	35676.79
521.52	36032.55
521.69	36135.53
521.86	36032.55
522.03	35754.02
522.20	35793.81
522.38	35988.08
522.55	36219.79
522.72	36053.61
522.89	36168.30
523.07	36315.75
523.24	36449.16
523.41	36872.80
523.58	36788.54
523.75	36797.90
523.92	36996.85
524.10	36769.82
524.27	37099.83
524.44	37277.71
524.61	37233.24
524.78	36837.69
524.96	37570.28
525.13	37340.91
525.30	37670.92
525.47	37684.97
525.64	37661.56
525.81	37509.43
525.98	37179.41
526.16	37074.09
526.33	36898.55
526.50	37331.54
526.67	37179.41
526.84	37060.04
527.01	36935.99
527.18	37333.89
527.36	37935.40
527.53	37930.72
527.70	38440.96
527.87	38082.86
528.04	37577.30
528.21	38347.34
528.38	38178.82
528.55	38450.32
528.72	38635.22
528.89	38698.42
529.07	38298.19
529.24	38560.33
529.41	38007.96
529.58	38745.23
529.75	38677.35
529.92	38670.33
530.09	38721.82
530.26	38986.30
530.43	38892.68
530.60	38787.36
530.77	39381.85
530.94	38995.67
531.11	39065.88
531.28	38855.23
531.46	39143.12
531.63	39269.51
531.80	39379.51
531.97	39260.15
532.14	39117.37
532.31	38455.00
532.48	39061.20
532.65	39576.12
532.82	39042.48
532.99	39452.07
533.16	39536.33
533.33	39896.77
533.50	39985.71
533.67	39655.70
533.84	39768.04
534.01	39889.75
534.18	39931.88
534.35	40495.95
534.52	39622.93
534.69	40694.89
534.86	40299.34
535.03	40163.59
535.20	40624.68
535.37	40645.74
535.54	40582.55
535.71	40414.03
535.88	40301.68
536.05	40634.04
536.22	40802.56
536.38	40678.51
536.55	40191.68
536.72	40327.43
536.89	40498.29
537.06	40580.21
537.23	40938.31
537.40	40912.56
537.57	41060.02
537.74	40872.78
537.91	40882.14
538.08	41053.00
538.25	40767.45
538.42	40830.65
538.59	40978.10
538.75	40517.01
538.92	41331.52
539.09	41163.00
539.26	41186.41
539.43	41088.10
539.60	40914.90
539.77	41111.51
539.94	40898.52
540.11	40863.41
540.28	40954.69
540.44	41380.67
540.61	40844.69
540.78	41036.61
540.95	41359.61
541.12	41387.69
541.29	41392.37
541.46	41680.26
541.62	41521.10
541.79	42000.91
541.96	41584.30
542.13	41635.79
542.30	41336.20
542.47	41532.81
542.63	41560.89
542.80	42043.04
542.97	42162.41
543.14	42508.81
543.31	42190.50
543.48	42562.64
543.64	42616.47
543.81	42721.80
543.98	42529.87
544.15	42445.62
544.32	43051.81
544.48	43201.61
544.65	42241.99
544.82	42422.21
544.99	42106.24
545.16	42410.51
545.32	42700.73
545.49	43260.12
545.66	43386.51
545.83	43203.95
546.00	42780.31
546.16	42883.30
546.33	42763.93
546.50	42349.65
546.67	42876.27
546.83	42387.10
547.00	43033.09
547.17	43014.37
547.34	42609.45
547.50	42969.90
547.67	43505.88
547.84	43250.76
548.00	43346.72
548.17	43538.65
548.34	43475.45
548.51	43711.84
548.67	43622.90
548.84	43629.93
549.01	43356.08
549.18	43634.61
549.34	43660.35
549.51	43835.89
549.68	43379.49
549.84	43416.94
550.01	43817.17
550.18	43391.19
550.34	44030.16
550.51	43763.34
550.68	43419.28
550.84	43498.86
551.01	43854.62
551.18	43746.95
551.34	43948.24
551.51	43885.04
551.68	43711.84
551.84	44041.86
552.01	43922.49
552.18	44018.46
552.34	43587.80
552.51	44388.26
552.68	43873.34
552.84	44116.76
553.01	44601.25
553.18	44252.51
553.34	44147.18
553.51	44205.70
553.67	44399.96
553.84	44526.35
554.01	44238.47
554.17	44648.06
554.34	44727.64
554.51	44296.98
554.67	44505.29
554.84	44900.84
555.00	44306.34
555.17	44170.59
555.33	44346.13
555.50	44474.86
555.67	44437.41
555.83	44198.68
556.00	44130.80
556.16	44842.32
556.33	44313.36
556.50	44308.68
556.66	44605.93
556.83	44350.81
556.99	44390.60
557.16	44575.50
557.32	44825.94
557.49	44673.81
557.65	44629.34
557.82	44828.28
557.98	44612.95
558.15	44912.54
558.32	44769.77
558.48	44383.58
558.65	45074.04
558.81	44751.04
558.98	44432.73
559.14	44690.19
559.31	45024.89
559.47	44521.67
559.64	45048.29
559.80	44755.72
559.97	44942.97
560.13	44659.76
560.30	44666.78
560.46	44575.50
560.63	44797.85
560.79	45165.32
560.96	45539.80
561.12	45095.10
561.29	45165.32
561.45	45155.96
561.61	44891.48
561.78	44818.92
561.94	44774.45
562.11	45017.86
562.27	44938.29
562.44	45153.62
562.60	45462.57
562.77	45214.47
562.93	45343.20
563.10	45530.44
563.26	44713.59
563.42	45390.01
563.59	45090.42
563.75	45469.59
563.92	45308.09
564.08	45333.84
564.24	45223.83
564.41	45677.90
564.57	44800.19
564.74	45158.30
564.90	45633.42
565.07	45439.16
565.23	45535.12
565.39	45177.02
565.56	45043.61
565.72	45315.11
565.88	45048.29
566.05	45125.53
566.21	45118.51
566.38	45284.68
566.54	45567.89
566.70	45647.47
566.87	45773.86
567.03	45261.28
567.19	46038.34
567.36	45240.21
567.52	45209.79
567.68	45619.38
567.85	45404.05
568.01	45528.10
568.17	45535.12
568.34	45720.02
568.50	45450.86
568.66	45556.19
568.83	45322.13
568.99	45242.56
569.15	45823.01
569.32	45230.85
569.48	45085.74
569.64	45820.67
569.81	45750.45
569.97	45474.27
570.13	45427.46
570.30	45382.99
570.46	45277.66
570.62	44994.46
570.78	45247.24
570.95	45067.02
571.11	45387.67
571.27	45366.60
571.43	45411.07
571.60	45588.95
571.76	45778.54
571.92	45956.42
572.09	46146.00
572.25	45645.13
572.41	45928.33
572.57	45996.21
572.74	45811.31
572.90	45673.21
573.06	45977.48
573.22	45778.54
573.38	45930.67
573.55	45312.77
573.71	46007.91
573.87	45933.01
574.03	45551.51
574.20	45624.06
574.36	45530.44
574.52	46024.29
574.68	45394.69
574.84	45181.70
575.01	45593.64
575.17	45509.38
575.33	45563.21
575.49	45455.54
575.65	45635.77
575.82	45820.67
575.98	45689.60
576.14	45886.20
576.30	45799.60
576.46	45628.74
576.62	45530.44
576.79	45762.15
576.95	45471.93
577.11	45532.78
577.27	45799.60
577.43	45654.49
577.59	45834.71
577.75	45675.55
577.92	45425.12
578.08	45251.92
578.24	45471.93
578.40	45677.90
578.56	45509.38
578.72	45813.65
578.88	45806.62
579.04	46087.49
579.21	45464.91
579.37	45471.93
579.53	46005.57
579.69	45670.87
579.85	45666.19
580.01	45364.26
580.17	45560.87
580.33	45666.19
580.49	45628.74
580.65	45914.29
580.82	46199.83
580.98	45698.96
581.14	45741.09
581.30	45673.21
581.46	45785.56
581.62	45965.78
581.78	45825.35
581.94	45897.91
582.10	45748.11
582.26	45729.39
582.42	45841.73
582.58	45560.87
582.74	45668.53
582.90	45743.43
583.06	45572.57
583.22	45808.96
583.38	46038.34
583.54	45958.76
583.70	45787.90
583.86	46003.23
584.02	45841.73
584.18	45717.68
584.34	46021.95
584.50	45661.51
584.66	46232.60
584.82	45834.71
584.98	46061.74
585.14	46050.04
585.30	45666.19
585.46	45624.06
585.62	45663.85
585.78	45673.21
585.94	45607.68
586.10	45682.58
586.26	45586.61
586.42	45509.38
586.58	45879.18
586.74	46036.00
586.90	45801.94
587.06	45848.75
587.22	45900.25
587.38	45612.36
587.54	45993.87
587.70	46246.65
587.86	45944.72
588.02	45982.16
588.18	46148.34
588.34	45364.26
588.49	45595.98
588.65	44835.30
588.81	45462.57
588.97	45684.92
589.13	45038.93
589.29	45450.86
589.45	45469.59
589.61	45713.00
589.77	45914.29
589.93	45862.80
590.08	45975.14
