SpectraSuite Data File
++++++++++++++++++++++++++++++++++++
Date: Fri Oct 25 11:33:52 EDT 2013
User: price-jones
Dark Spectrum Present: No
Reference Spectrum Present: No
Number of Sampled Component Spectra: 1
Spectrometers: USB2+H05261
Integration Time (usec): 100000 (USB2+H05261)
Spectra Averaged: 1 (USB2+H05261)
Boxcar Smoothing: 0 (USB2+H05261)
Correct for Electrical Dark: No (USB2+H05261)
Strobe/Lamp Enabled: No (USB2+H05261)
Correct for Detector Non-linearity: No (USB2+H05261)
Correct for Stray Light: No (USB2+H05261)
Number of Pixels in Processed Spectrum: 2048
>>>>>Begin Processed Spectral Data<<<<<
365.73	308.95
365.92	308.95
366.12	308.95
366.32	184.90
366.52	229.37
366.72	245.76
366.91	142.77
367.11	145.11
367.31	95.96
367.51	215.33
367.70	138.09
367.90	170.86
368.10	177.88
368.30	177.88
368.49	163.84
368.69	224.69
368.89	194.26
369.09	156.82
369.28	175.54
369.48	229.37
369.68	266.82
369.87	276.18
370.07	208.31
370.27	337.04
370.47	308.95
370.66	435.34
370.86	489.17
371.06	503.22
371.25	641.31
371.45	566.41
371.65	514.92
371.84	554.71
372.04	578.11
372.24	578.11
372.44	538.32
372.63	552.37
372.83	601.52
373.03	587.47
373.22	596.84
373.42	599.18
373.62	648.33
373.81	566.41
374.01	641.31
374.21	711.52
374.40	627.26
374.60	695.14
374.79	617.90
374.99	671.73
375.19	622.58
375.38	674.07
375.58	596.84
375.78	648.33
375.97	669.39
376.17	709.18
376.37	702.16
376.56	641.31
376.76	678.76
376.95	638.97
377.15	702.16
377.35	620.24
377.54	697.48
377.74	737.27
377.93	685.78
378.13	650.67
378.33	706.84
378.52	746.63
378.72	784.08
378.91	753.65
379.11	727.91
379.31	763.01
379.50	767.70
379.70	704.50
379.89	730.25
380.09	760.67
380.28	765.36
380.48	791.10
380.68	669.39
380.87	725.57
381.07	807.48
381.26	755.99
381.46	767.70
381.65	788.76
381.85	842.59
382.04	709.18
382.24	826.21
382.43	826.21
382.63	784.08
382.83	777.06
383.02	823.87
383.22	858.98
383.41	718.54
383.61	786.42
383.80	856.64
384.00	851.96
384.19	805.14
384.39	809.83
384.58	826.21
384.78	851.96
384.97	837.91
385.17	847.27
385.36	854.30
385.56	875.36
385.75	840.25
385.95	877.70
386.14	800.46
386.34	784.08
386.53	870.68
386.72	851.96
386.92	976.00
387.11	905.79
387.31	889.40
387.50	828.55
387.70	833.23
387.89	950.26
388.09	952.60
388.28	945.58
388.48	959.62
388.67	844.93
388.86	961.96
389.06	952.60
389.25	1020.47
389.45	915.15
389.64	929.19
389.84	987.71
390.03	922.17
390.22	931.53
390.42	987.71
390.61	929.19
390.81	931.53
391.00	1006.43
391.19	978.34
391.39	952.60
391.58	1043.88
391.78	999.41
391.97	1055.58
392.16	1055.58
392.36	1078.99
392.55	1071.97
392.75	1078.99
392.94	1076.65
393.13	1041.54
393.33	1048.56
393.52	1048.56
393.71	1100.05
393.91	1001.75
394.10	1053.24
394.29	1050.90
394.49	1064.94
394.68	1107.07
394.88	1156.22
395.07	1111.75
395.26	1184.31
395.46	1062.60
395.65	1200.69
395.84	1125.80
396.04	1170.27
396.23	1200.69
396.42	1203.04
396.62	1188.99
396.81	1294.32
397.00	1193.67
397.19	1240.48
397.39	1200.69
397.58	1275.59
397.77	1277.93
397.97	1294.32
398.16	1268.57
398.35	1362.19
398.55	1284.95
398.74	1270.91
398.93	1273.25
399.12	1268.57
399.32	1263.89
399.51	1252.19
399.70	1334.11
399.90	1348.15
400.09	1345.81
400.28	1397.30
400.47	1373.89
400.67	1355.17
400.86	1486.24
401.05	1462.83
401.24	1329.42
401.44	1458.15
401.63	1392.62
401.82	1376.24
402.01	1432.41
402.21	1406.66
402.40	1383.26
402.59	1458.15
402.78	1427.73
402.97	1572.84
403.17	1528.37
403.36	1516.67
403.55	1535.39
403.74	1661.78
403.93	1537.73
404.13	1624.33
404.32	1565.82
404.51	1633.69
404.70	1612.63
404.89	1530.71
405.09	1760.08
405.28	1706.25
405.47	1724.97
405.66	1750.72
405.85	1750.72
406.05	1797.53
406.24	1767.10
406.43	1673.48
406.62	1743.70
406.81	1755.40
407.00	1884.13
407.20	1699.23
407.39	1816.26
407.58	1863.07
407.77	1860.73
407.96	1844.34
408.15	1783.49
408.34	1923.92
408.54	1898.17
408.73	1867.75
408.92	1912.22
409.11	1923.92
409.30	1984.77
409.49	2017.54
409.68	2017.54
409.87	1900.52
410.07	2104.14
410.26	2122.87
410.45	2066.69
410.64	2029.24
410.83	2218.83
411.02	2111.16
411.21	2162.66
411.40	2155.63
411.59	2228.19
411.78	2237.55
411.98	2136.91
412.17	2129.89
412.36	2314.79
412.55	2195.42
412.74	2368.62
412.93	2399.05
413.12	2317.13
413.31	2396.71
413.50	2375.64
413.69	2385.01
413.88	2478.63
414.07	2506.71
414.26	2492.67
414.45	2464.58
414.64	2459.90
414.83	2530.12
415.02	2581.61
415.22	2623.74
415.41	2644.81
415.60	2700.98
415.79	2640.12
415.98	2813.32
416.17	2686.94
416.36	2649.49
416.55	2710.34
416.74	2752.47
416.93	2846.09
417.12	2841.41
417.31	2715.02
417.50	2766.51
417.69	2913.97
417.88	2888.22
418.07	2778.22
418.26	2899.92
418.45	3061.42
418.64	3038.02
418.83	3014.61
419.02	2991.20
419.21	3054.40
419.39	3124.62
419.58	3070.78
419.77	3105.89
419.96	3143.34
420.15	3276.75
420.34	3110.57
420.53	3136.32
420.72	3129.30
420.91	3124.62
421.10	3241.64
421.29	3314.20
421.48	3234.62
421.67	3314.20
421.86	3162.06
422.05	3342.28
422.24	3353.99
422.43	3445.27
422.61	3337.60
422.80	3431.23
422.99	3337.60
423.18	3454.63
423.37	3463.99
423.56	3309.52
423.75	3325.90
423.94	3243.98
424.13	3133.98
424.32	3265.05
424.50	3510.80
424.69	3482.72
424.88	3344.63
425.07	3419.52
425.26	3370.37
425.45	3386.76
425.64	3466.33
425.83	3295.47
426.01	3501.44
426.20	3384.41
426.39	3459.31
426.58	3405.48
426.77	3461.65
426.96	3646.55
427.15	3480.38
427.33	3571.66
427.52	3433.57
427.71	3555.27
427.90	3559.95
428.09	3693.37
428.28	3674.64
428.46	3632.51
428.65	3737.84
428.84	3812.73
429.03	3815.07
429.22	3709.75
429.40	3719.11
429.59	3786.99
429.78	3646.55
429.97	3719.11
430.16	3693.37
430.34	3794.01
430.53	3754.22
430.72	3892.31
430.91	3847.84
431.10	3744.86
431.28	3962.53
431.47	3936.78
431.66	4070.19
431.85	3948.48
432.03	4053.81
432.22	4147.43
432.41	4077.21
432.60	3936.78
432.79	4049.13
432.97	4138.07
433.16	4147.43
433.35	3943.80
433.54	4133.39
433.72	4208.28
433.91	4227.01
434.10	4114.66
434.28	4124.02
434.47	4217.65
434.66	4269.14
434.85	4313.61
435.03	4432.97
435.22	4348.72
435.41	4400.21
435.59	4369.78
435.78	4489.15
435.97	4472.76
436.16	4416.59
436.34	4362.76
436.53	4470.42
436.72	4510.21
436.90	4383.82
437.09	4531.28
437.28	4425.95
437.46	4554.68
437.65	4596.81
437.84	4585.11
438.02	4547.66
438.21	4503.19
438.40	4664.69
438.58	4688.09
438.77	4830.87
438.96	4770.01
439.14	4912.78
439.33	4861.29
439.52	4816.82
439.70	4901.08
439.89	4966.62
440.08	4983.00
440.26	4973.64
440.45	5060.24
440.63	5001.72
440.82	5109.39
441.01	5118.75
441.19	5362.17
441.38	5172.58
441.57	5263.86
441.75	5259.18
441.94	5399.62
442.12	5462.81
442.31	5408.98
442.50	5554.09
442.68	5376.21
442.87	5373.87
443.05	5488.56
443.24	5762.40
443.43	5551.75
443.61	5476.85
443.80	5537.71
443.98	5364.51
444.17	5397.28
444.35	5547.07
444.54	5804.53
444.73	5612.60
444.91	5582.18
445.10	5624.31
445.28	5781.12
445.47	5577.50
445.65	5696.86
445.84	5591.54
446.02	5785.80
446.21	5638.35
446.39	5678.14
446.58	5715.59
446.77	5916.87
446.95	5631.33
447.14	5757.72
447.32	5781.12
447.51	5841.98
447.69	5685.16
447.88	5593.88
448.06	5715.59
448.25	5776.44
448.43	5729.63
448.62	5741.33
448.80	5858.36
448.99	5867.72
449.17	5970.71
449.36	5846.66
449.54	5966.03
449.73	5914.53
449.91	6094.76
450.10	6038.58
450.28	6073.69
450.46	6171.99
450.65	5963.68
450.83	6164.97
451.02	6069.01
451.20	6415.41
451.39	6155.61
451.57	6132.20
451.76	6246.89
451.94	6125.18
452.13	6221.14
452.31	6384.98
452.49	6099.44
452.68	6310.08
452.86	6232.85
453.05	6202.42
453.23	6399.02
453.42	6452.86
453.60	6143.91
453.78	6466.90
453.97	6291.36
454.15	6471.58
454.34	6244.55
454.52	6469.24
454.70	6399.02
454.89	6525.41
455.07	6525.41
455.26	6707.98
455.44	6731.38
455.62	6562.86
455.81	6583.93
455.99	6764.15
456.17	6494.99
456.36	6810.96
456.54	6647.12
456.73	7075.44
456.91	6958.41
457.09	7035.65
457.28	7061.40
457.46	6857.77
457.64	7030.97
457.83	6913.94
458.01	7075.44
458.19	7204.17
458.38	7122.25
458.56	7206.51
458.74	7140.97
458.93	7133.95
459.11	7080.12
459.29	6963.09
459.48	7290.77
459.66	7192.47
459.84	7344.60
460.03	7363.33
460.21	7304.81
460.39	7295.45
460.57	7468.65
460.76	7293.11
460.94	7501.42
461.12	7550.57
461.31	7482.69
461.49	7562.27
461.67	7625.47
461.85	7641.85
462.04	7585.68
462.22	8152.09
462.40	7749.51
462.59	7756.54
462.77	7557.59
462.95	7609.08
463.13	7676.96
463.32	7772.92
463.50	7719.09
463.68	7768.24
463.86	7941.44
464.05	7679.30
464.23	7737.81
464.41	7927.39
464.59	7557.59
464.78	8074.85
464.96	7887.61
465.14	8109.96
465.32	7999.95
465.50	8149.75
465.69	8180.17
465.87	8065.49
466.05	8138.04
466.23	8219.96
466.41	8168.47
466.60	8395.50
466.78	8269.11
466.96	8065.49
467.14	8297.20
467.32	8344.01
467.51	8404.86
467.69	8198.90
467.87	8374.44
468.05	8629.56
468.23	8205.92
468.41	8255.07
468.60	8421.25
468.78	8425.93
468.96	8524.23
469.14	8568.70
469.32	8580.40
469.50	8203.58
469.69	8587.43
469.87	8645.94
470.05	8781.69
470.23	8702.11
470.41	8798.07
470.59	8868.29
470.77	8772.33
470.95	8840.20
471.14	8903.40
471.32	8610.83
471.50	9060.21
471.68	9004.04
471.86	9198.31
472.04	9217.03
472.22	9151.49
472.40	9151.49
472.58	8961.91
472.77	9507.26
472.95	9184.26
473.13	9523.64
473.31	9390.23
473.49	9415.98
473.67	9315.33
473.85	9502.58
474.03	9589.17
474.21	9657.05
474.39	9710.88
474.57	9811.53
474.75	9851.31
474.93	9813.87
475.12	9886.42
475.30	9926.21
475.48	9858.34
475.66	9998.77
475.84	10031.54
476.02	10314.74
476.20	9937.91
476.38	10345.17
476.56	10560.50
476.74	10553.48
476.92	10668.16
477.10	10661.14
477.28	10700.93
477.46	10773.49
477.64	10892.85
477.82	10949.03
478.00	11302.45
478.18	11178.40
478.36	11108.18
478.54	11222.87
478.72	11391.39
478.90	11358.62
479.08	11557.57
479.26	11882.90
479.44	11609.06
479.62	11824.39
479.80	11899.28
479.98	12044.40
480.16	12203.55
480.34	12037.38
480.52	12231.64
480.70	12313.56
480.88	12149.72
481.06	12463.35
481.24	12465.69
481.41	12617.83
481.59	12517.18
481.77	12840.18
481.95	12791.03
482.13	12931.46
482.31	12875.29
482.49	13242.75
482.67	13179.56
482.85	13268.50
483.03	13584.47
483.21	13572.77
483.39	13652.34
483.57	13462.76
483.74	14005.77
483.92	13867.67
484.10	13654.69
484.28	14256.20
484.46	14167.26
484.64	14658.78
484.82	14324.08
485.00	14494.94
485.18	14998.15
485.35	14869.42
485.53	14881.13
485.71	15246.25
485.89	15524.77
486.07	15309.44
486.25	15187.74
486.43	15524.77
486.61	15243.91
486.78	15761.17
486.96	15665.21
487.14	15915.64
487.32	16231.62
487.50	16439.92
487.68	16435.24
487.85	16418.86
488.03	16367.37
488.21	16706.74
488.39	17165.49
488.57	17055.48
488.75	17151.45
488.92	17128.04
489.10	17509.55
489.28	17561.04
489.46	17914.46
489.64	17502.53
489.81	17797.43
489.99	18017.44
490.17	18031.49
490.35	18370.86
490.53	18555.77
490.70	18822.59
490.88	18310.01
491.06	18881.10
491.24	18953.66
491.41	19096.43
491.59	19061.32
491.77	19271.97
491.95	19499.00
492.13	19545.81
492.30	19573.90
492.48	19405.38
492.66	19857.10
492.84	19653.48
493.01	19990.52
493.19	20013.92
493.37	20212.87
493.54	20170.74
493.72	20641.18
493.90	20343.94
494.08	20863.54
494.25	21060.14
494.43	20683.31
494.61	20900.98
494.79	20971.20
494.96	21289.51
495.14	21376.11
495.32	21895.71
495.49	21565.70
495.67	21701.45
495.85	22024.44
496.02	21956.57
496.20	22017.42
496.38	22237.43
496.55	22295.94
496.73	22654.05
496.91	22534.68
497.09	23054.28
497.26	22693.83
497.44	23192.37
497.62	23180.67
497.79	23683.88
497.97	23260.24
498.14	23566.85
498.32	23477.91
498.50	23513.02
498.67	24133.26
498.85	23908.57
499.03	23737.71
499.20	24304.12
499.38	23941.34
499.56	24556.90
499.73	24444.56
499.91	24570.94
500.08	24482.00
500.26	24622.44
500.44	25053.09
500.61	24690.31
500.79	24673.93
500.97	24910.32
501.14	24781.59
501.32	24987.56
501.49	25078.84
501.67	25053.09
501.84	25465.03
502.02	25200.55
502.20	25635.89
502.37	25675.68
502.55	25549.29
502.72	25638.23
502.90	25738.87
503.07	25717.81
503.25	25816.11
503.43	26136.76
503.60	26293.58
503.78	26225.70
503.95	26316.98
504.13	26396.56
504.30	26487.84
504.48	26808.50
504.65	26581.46
504.83	27065.96
505.01	27295.33
505.18	27091.70
505.36	27466.19
505.53	27068.30
505.71	27239.15
505.88	27236.81
506.06	26972.33
506.23	27349.16
506.41	27473.21
506.58	27405.33
506.76	27931.95
506.93	28002.17
507.11	27969.40
507.28	27950.68
507.46	28156.64
507.63	28187.07
507.81	28133.24
507.98	28442.19
508.16	28353.25
508.33	28414.10
508.50	28643.48
508.68	28645.82
508.85	28863.49
509.03	28971.15
509.20	28952.43
509.38	29151.37
509.55	29268.40
509.73	29235.63
509.90	29139.67
510.08	29085.84
510.25	28898.59
510.42	29591.39
510.60	29596.07
510.77	29544.58
510.95	29942.47
511.12	29631.18
511.30	29809.06
511.47	29935.45
511.64	30368.45
511.82	30426.96
511.99	30108.65
512.17	30178.87
512.34	30845.92
512.51	30724.21
512.69	30632.93
512.86	30782.73
513.04	30857.62
513.21	30438.67
513.38	30932.52
513.56	31197.00
513.73	30984.01
513.90	31215.72
514.08	31047.21
514.25	31180.62
514.43	31283.60
514.60	31264.88
514.77	31412.33
514.95	31892.14
515.12	31625.32
515.29	31871.07
515.47	31405.31
515.64	32086.40
515.81	31763.41
515.99	32381.31
516.16	32147.26
516.33	32077.04
516.51	32334.50
516.68	31627.66
516.85	32156.62
517.03	32587.28
517.20	32711.33
517.37	32409.40
517.54	32519.40
517.72	32891.55
517.89	33170.07
518.06	32882.19
518.24	32933.68
518.41	32900.91
518.58	32861.12
518.75	33132.62
518.93	33469.66
519.10	33359.66
519.27	33270.72
519.45	33631.16
519.62	33635.84
519.79	33905.00
519.96	32940.70
520.14	33790.31
520.31	33394.76
520.48	33654.56
520.65	33743.50
520.83	34150.76
521.00	34078.20
521.17	34141.39
521.34	34361.40
521.52	34209.27
521.69	34440.98
521.86	34639.93
522.03	34803.77
522.20	34471.41
522.38	34817.81
522.55	35126.76
522.72	35133.78
522.89	34780.36
523.07	35189.95
523.24	34925.47
523.41	34885.68
523.58	35065.91
523.75	35585.50
523.92	35026.12
524.10	35491.88
524.27	35765.73
524.44	35751.68
524.61	35679.13
524.78	35494.22
524.96	35810.20
525.13	36182.34
525.30	35777.43
525.47	36187.02
525.64	36257.24
525.81	36421.08
525.98	36402.35
526.16	36655.13
526.33	36170.64
526.50	36217.45
526.67	36348.52
526.84	36563.85
527.01	36781.52
527.18	36367.24
527.36	36753.43
527.53	36774.50
527.70	37043.66
527.87	36699.60
528.04	36545.12
528.21	37102.17
528.38	36957.06
528.55	37141.96
528.72	36966.42
528.89	37230.90
529.07	37200.47
529.24	37371.33
529.41	37560.92
529.58	37713.05
529.75	37345.59
529.92	37532.83
530.09	37347.93
530.26	38101.58
530.43	37699.01
530.60	37607.73
530.77	37406.44
530.94	37188.77
531.11	37654.54
531.28	38211.59
531.46	37956.47
531.63	38422.23
531.80	38253.72
531.97	38052.43
532.14	38267.76
532.31	38249.03
532.48	38651.61
532.65	38534.58
532.82	38309.89
532.99	38445.64
533.16	38789.70
533.33	38597.77
533.50	38742.89
533.67	38539.26
533.84	38244.35
534.01	38630.54
534.18	39171.21
534.35	39473.13
534.52	38976.94
534.69	39215.68
534.86	39100.99
535.03	39063.54
535.20	39243.76
535.37	39517.60
535.54	39468.45
535.71	39222.70
535.88	39260.15
536.05	39145.46
536.22	39707.19
536.38	39606.55
536.55	39735.27
536.72	39629.95
536.89	39288.23
537.06	39730.59
537.23	39917.84
537.40	39754.00
537.57	39784.43
537.74	39718.89
537.91	39955.29
538.08	39927.20
538.25	39789.11
538.42	40079.33
538.59	40191.68
538.75	39885.07
538.92	40416.37
539.09	40755.75
539.26	40194.02
539.43	40158.91
539.60	40271.26
539.77	40245.51
539.94	40870.43
540.11	40966.40
540.28	40730.00
540.44	40926.61
540.61	40289.98
540.78	40858.73
540.95	40865.75
541.12	40711.28
541.29	40554.46
541.46	40737.02
541.62	40947.67
541.79	41050.66
541.96	40540.42
542.13	40641.06
542.30	40844.69
542.47	41432.16
542.63	41368.97
542.80	41504.72
542.97	41773.88
543.14	42096.88
543.31	41720.05
543.48	41366.63
543.64	42066.45
543.81	41813.67
543.98	41825.37
544.15	42113.26
544.32	41783.24
544.48	42110.92
544.65	41731.75
544.82	42422.21
544.99	42012.62
545.16	42368.38
545.32	41853.46
545.49	42424.55
545.66	42349.65
545.83	42705.41
546.00	42380.08
546.16	42305.18
546.33	42513.49
546.50	42438.59
546.67	42866.91
546.83	42197.52
547.00	41858.14
547.17	42543.92
547.34	42663.28
547.50	43173.52
547.67	43461.41
547.84	42609.45
548.00	42817.76
548.17	43182.88
548.34	42974.58
548.51	43171.18
548.67	43124.37
548.84	43346.72
549.01	43012.02
549.18	43250.76
549.34	43302.25
549.51	42990.96
549.68	43161.82
549.84	43145.44
550.01	43402.89
550.18	42864.57
550.34	43447.36
550.51	43351.40
550.68	43519.92
550.84	43124.37
551.01	43416.94
551.18	43562.05
551.34	43438.00
551.51	43358.42
551.68	43503.54
551.84	43866.32
552.01	43730.57
552.18	43770.36
552.34	43243.74
552.51	43931.86
552.68	43739.93
552.84	43962.28
553.01	43992.71
553.18	43896.75
553.34	44091.01
553.51	44140.16
553.67	43819.51
553.84	44088.67
554.01	44514.65
554.17	43892.07
554.34	44484.22
554.51	44418.69
554.67	44847.00
554.84	44839.98
555.00	44390.60
555.17	44102.71
555.33	44828.28
555.50	44107.40
555.67	44528.69
555.83	44500.61
556.00	44664.44
556.16	44891.48
556.33	44275.91
556.50	44479.54
556.66	44748.70
556.83	44765.09
556.99	45219.15
557.16	45055.31
557.32	45195.74
557.49	45097.44
557.65	44664.44
557.82	44776.79
557.98	45043.61
558.15	44734.66
558.32	45170.00
558.48	44697.21
558.65	45099.78
558.81	45008.50
558.98	44847.00
559.14	45031.91
559.31	45282.34
559.47	45074.04
559.64	45331.50
559.80	45113.83
559.97	45457.88
560.13	44945.31
560.30	45324.47
560.46	45429.80
560.63	45701.30
560.79	45401.71
560.96	45661.51
561.12	45638.11
561.29	45600.66
561.45	45745.77
561.61	45539.80
561.78	45359.58
561.94	45647.47
562.11	45427.46
562.27	45460.23
562.44	45333.84
562.60	45558.53
562.77	45593.64
562.93	45567.89
563.10	46389.42
563.26	45703.64
563.42	46071.10
563.59	45769.18
563.75	45815.99
563.92	45996.21
564.08	45703.64
564.24	46197.49
564.41	45743.43
564.57	45972.80
564.74	46082.81
564.90	45727.05
565.07	45778.54
565.23	45799.60
565.39	45993.87
565.56	46164.73
565.72	45656.83
565.88	46036.00
566.05	45738.75
566.21	46162.39
566.38	46274.73
566.54	45996.21
566.70	46103.87
566.87	46162.39
567.03	46153.02
567.19	46358.99
567.36	46248.99
567.52	45968.12
567.68	46972.21
567.85	46284.09
568.01	46494.74
568.17	46094.51
568.34	46513.47
568.50	46291.12
568.66	45965.78
568.83	46426.87
568.99	46340.27
569.15	46344.95
569.32	46382.40
569.48	46110.89
569.64	46476.02
569.81	46274.73
569.97	46370.69
570.13	46698.37
570.30	46199.83
570.46	46220.90
570.62	46377.72
570.78	46239.62
570.95	46534.53
571.11	46515.81
571.27	46291.12
571.43	46639.86
571.60	46375.37
571.76	46429.21
571.92	46202.18
572.09	46330.90
572.25	46380.06
572.41	46679.64
572.57	46576.66
572.74	46824.76
572.90	46241.96
573.06	46742.84
573.22	46827.10
573.38	46529.85
573.55	46597.73
573.71	47185.20
573.87	46993.28
574.03	46829.44
574.20	46899.65
574.36	46752.20
574.52	46684.33
574.68	46410.48
574.84	47049.45
575.01	46845.82
575.17	46651.56
575.33	46958.17
575.49	46841.14
575.65	47070.51
575.82	47201.58
575.98	47058.81
576.14	47117.32
576.30	47344.36
576.46	46965.19
576.62	46904.34
576.79	46777.95
576.95	46354.31
577.11	46485.38
577.27	46525.17
577.43	46799.01
577.59	46890.29
577.75	46742.84
577.92	46721.77
578.08	46539.21
578.24	47103.28
578.40	46873.91
578.56	46789.65
578.72	46941.78
578.88	47063.49
579.04	47126.69
579.21	47122.01
579.37	46930.08
579.53	47529.26
579.69	46880.93
579.85	46892.63
580.01	46885.61
580.17	47159.45
580.33	47089.24
580.49	47327.97
580.65	47154.77
580.82	46869.23
580.98	46728.80
581.14	46899.65
581.30	46773.27
581.46	47049.45
581.62	46651.56
581.78	46794.33
581.94	47063.49
582.10	46948.81
582.26	47150.09
582.42	46918.38
582.58	47110.30
582.74	47473.09
582.90	46831.78
583.06	47154.77
583.22	47047.11
583.38	47140.73
583.54	47028.38
583.70	47070.51
583.86	47077.54
584.02	46925.40
584.18	47367.76
584.34	47447.34
584.50	47519.90
584.66	47290.52
584.82	47344.36
584.98	47711.82
585.14	47428.62
585.30	47093.92
585.46	47318.61
585.62	47227.33
585.78	47365.42
585.94	46953.49
586.10	47295.21
586.26	47051.79
586.42	47049.45
586.58	47297.55
586.74	47004.98
586.90	46909.02
587.06	46770.93
587.22	47124.35
587.38	46981.57
587.54	47463.72
587.70	47463.72
587.86	47117.32
588.02	47201.58
588.18	47215.63
588.34	47283.50
588.49	46913.70
588.65	46948.81
588.81	47667.35
588.97	47325.63
589.13	47035.41
589.29	47318.61
589.45	47728.20
589.61	47622.88
589.77	47732.89
589.93	47552.66
590.08	47622.88
