SpectraSuite Data File
++++++++++++++++++++++++++++++++++++
Date: Fri Oct 25 10:44:23 EDT 2013
User: price-jones
Dark Spectrum Present: No
Reference Spectrum Present: No
Number of Sampled Component Spectra: 1
Spectrometers: USB2+H05261
Integration Time (usec): 100000 (USB2+H05261)
Spectra Averaged: 1 (USB2+H05261)
Boxcar Smoothing: 0 (USB2+H05261)
Correct for Electrical Dark: No (USB2+H05261)
Strobe/Lamp Enabled: No (USB2+H05261)
Correct for Detector Non-linearity: No (USB2+H05261)
Correct for Stray Light: No (USB2+H05261)
Number of Pixels in Processed Spectrum: 2048
>>>>>Begin Processed Spectral Data<<<<<
365.73	25.75
365.92	25.75
366.12	25.75
366.32	98.30
366.52	0.00
366.72	53.83
366.91	0.00
367.11	14.04
367.31	9.36
367.51	53.83
367.70	63.19
367.90	0.00
368.10	21.06
368.30	37.45
368.49	58.51
368.69	79.58
368.89	32.77
369.09	67.88
369.28	49.15
369.48	4.68
369.68	23.41
369.87	77.24
370.07	39.79
370.27	30.43
370.47	189.58
370.66	320.65
370.86	400.23
371.06	500.87
371.25	442.36
371.45	454.06
371.65	582.79
371.84	470.45
372.04	505.56
372.24	390.87
372.44	400.23
372.63	468.11
372.83	552.37
373.03	451.72
373.22	496.19
373.42	479.81
373.62	528.96
373.81	629.60
374.01	599.18
374.21	573.43
374.40	578.11
374.60	641.31
374.79	552.37
374.99	589.82
375.19	575.77
375.38	613.22
375.58	620.24
375.78	561.73
375.97	571.09
376.17	683.44
376.37	587.47
376.56	678.76
376.76	641.31
376.95	725.57
377.15	660.03
377.35	683.44
377.54	606.20
377.74	566.41
377.93	634.29
378.13	739.61
378.33	657.69
378.52	601.52
378.72	676.41
378.91	718.54
379.11	739.61
379.31	706.84
379.50	716.20
379.70	669.39
379.89	678.76
380.09	739.61
380.28	699.82
380.48	695.14
380.68	582.79
380.87	678.76
381.07	713.86
381.26	690.46
381.46	767.70
381.65	739.61
381.85	786.42
382.04	746.63
382.24	833.23
382.43	725.57
382.63	777.06
382.83	744.29
383.02	699.82
383.22	734.93
383.41	739.61
383.61	739.61
383.80	788.76
384.00	854.30
384.19	777.06
384.39	739.61
384.58	866.00
384.78	734.93
384.97	704.50
385.17	800.46
385.36	753.65
385.56	805.14
385.75	849.61
385.95	819.19
386.14	861.32
386.34	777.06
386.53	887.06
386.72	842.59
386.92	863.66
387.11	854.30
387.31	903.45
387.50	875.36
387.70	854.30
387.89	856.64
388.09	889.40
388.28	863.66
388.48	910.47
388.67	926.85
388.86	983.02
389.06	940.90
389.25	959.62
389.45	954.94
389.64	1004.09
389.84	971.32
390.03	952.60
390.22	1025.15
390.42	1055.58
390.61	1107.07
390.81	1022.81
391.00	1060.26
391.19	1060.26
391.39	985.37
391.58	1121.12
391.78	1060.26
391.97	1097.71
392.16	1081.33
392.36	1093.03
392.55	1011.11
392.75	1067.28
392.94	1057.92
393.13	1095.37
393.33	1027.50
393.52	1128.14
393.71	1144.52
393.91	1128.14
394.10	1149.20
394.29	1109.41
394.49	1273.25
394.68	1270.91
394.88	1331.76
395.07	1299.00
395.26	1203.04
395.46	1331.76
395.65	1310.70
395.84	1179.63
396.04	1210.06
396.23	1226.44
396.42	1179.63
396.62	1280.27
396.81	1245.16
397.00	1306.02
397.19	1299.00
397.39	1397.30
397.58	1376.24
397.77	1469.86
397.97	1502.62
398.16	1511.99
398.35	1511.99
398.55	1504.96
398.74	1460.49
398.93	1542.41
399.12	1584.54
399.32	1413.68
399.51	1502.62
399.70	1621.99
399.90	1629.01
400.09	1614.97
400.28	1652.42
400.47	1586.88
400.67	1619.65
400.86	1682.85
401.05	1760.08
401.24	1739.02
401.44	1795.19
401.63	1863.07
401.82	1837.32
402.01	1781.15
402.21	1778.81
402.40	1781.15
402.59	1827.96
402.78	1750.72
402.97	1753.06
403.17	1891.15
403.36	1842.00
403.55	1888.81
403.74	1930.94
403.93	1895.83
404.13	1982.43
404.32	1954.35
404.51	1930.94
404.70	1942.64
404.89	1914.56
405.09	2029.24
405.28	2113.50
405.47	2015.20
405.66	2005.84
405.85	1886.47
406.05	2001.16
406.24	2125.21
406.43	2183.72
406.62	2136.91
406.81	2249.25
407.00	2143.93
407.20	2033.93
407.39	2073.71
407.58	2071.37
407.77	2197.76
407.96	2256.28
408.15	2279.68
408.34	2361.60
408.54	2321.81
408.73	2448.20
408.92	2422.45
409.11	2408.41
409.30	2499.69
409.49	2289.04
409.68	2349.90
409.87	2506.71
410.07	2406.07
410.26	2534.80
410.45	2450.54
410.64	2487.99
410.83	2595.65
411.02	2586.29
411.21	2656.51
411.40	2658.85
411.59	2647.15
411.78	2658.85
411.98	2731.41
412.17	2717.36
412.36	2733.75
412.55	2761.83
412.74	2759.49
412.93	2888.22
413.12	2862.48
413.31	2998.23
413.50	2939.71
413.69	2953.76
413.88	2928.01
414.07	2876.52
414.26	3145.68
414.45	3056.74
414.64	3038.02
414.83	3152.70
415.02	3141.00
415.22	3117.59
415.41	3141.00
415.60	3258.03
415.79	3269.73
415.98	3431.23
416.17	3265.05
416.36	3337.60
416.55	3309.52
416.74	3321.22
416.93	3370.37
417.12	3405.48
417.31	3316.54
417.50	3407.82
417.69	3543.57
417.88	3473.36
418.07	3583.36
418.26	3440.59
418.45	3623.15
418.64	3662.94
418.83	3695.71
419.02	3665.28
419.21	3634.85
419.39	3684.00
419.58	3707.41
419.77	3651.24
419.96	3742.52
420.15	3873.59
420.34	3716.77
420.53	3796.35
420.72	3899.33
420.91	3946.14
421.10	3969.55
421.29	3985.93
421.48	3955.51
421.67	3906.35
421.86	3969.55
422.05	4007.00
422.24	3906.35
422.43	3957.85
422.61	4072.53
422.80	3990.61
422.99	4044.45
423.18	4088.92
423.37	4184.88
423.56	3988.27
423.75	3948.48
423.94	3992.95
424.13	3744.86
424.32	3850.18
424.50	4093.60
424.69	4131.05
424.88	4067.85
425.07	3964.87
425.26	4133.39
425.45	3999.98
425.64	4084.23
425.83	4039.76
426.01	4241.05
426.20	4079.55
426.39	4234.03
426.58	4147.43
426.77	4016.36
426.96	3971.89
427.15	4074.87
427.33	4278.50
427.52	4058.49
427.71	4224.67
427.90	4329.99
428.09	4372.12
428.28	4163.81
428.46	4285.52
428.65	4308.93
428.84	4372.12
429.03	4557.02
429.22	4311.27
429.40	4276.16
429.59	4400.21
429.78	4227.01
429.97	4011.68
430.16	4056.15
430.34	4135.73
430.53	4318.29
430.72	4355.74
430.91	4308.93
431.10	4482.13
431.28	4542.98
431.47	4713.84
431.66	4929.17
431.85	4833.21
432.03	4746.61
432.22	4737.24
432.41	4512.55
432.60	4889.38
432.79	4809.80
432.97	4865.97
433.16	4870.65
433.35	4767.67
433.54	4828.53
433.72	4793.42
433.91	4828.53
434.10	4786.40
434.28	4842.57
434.47	4971.30
434.66	5008.75
434.85	5205.35
435.03	5090.67
435.22	5055.56
435.41	5191.31
435.59	5235.78
435.78	5116.41
435.97	5315.36
436.16	5245.14
436.34	5137.48
436.53	5287.27
436.72	5210.03
436.90	5125.77
437.09	5245.14
437.28	5252.16
437.46	5448.77
437.65	5179.61
437.84	5320.04
438.02	5460.47
438.21	5320.04
438.40	5200.67
438.58	5490.90
438.77	5717.93
438.96	5640.69
439.14	5650.05
439.33	5774.10
439.52	5703.89
439.70	5774.10
439.89	5799.85
440.08	5870.06
440.26	5959.00
440.45	5961.34
440.63	6026.88
440.82	6069.01
441.01	6059.65
441.19	6099.44
441.38	6354.55
441.57	6392.00
441.75	6270.30
441.94	6462.22
442.12	6279.66
442.31	6413.07
442.50	6490.31
442.68	6553.50
442.87	6443.49
443.05	6590.95
443.24	6658.82
443.43	6576.91
443.61	6462.22
443.80	6799.26
443.98	6621.38
444.17	6457.54
444.35	6834.36
444.54	6808.62
444.73	6794.58
444.91	6717.34
445.10	6581.59
445.28	6707.98
445.47	6476.26
445.65	6555.84
445.84	6729.04
446.02	6963.09
446.21	6764.15
446.39	6909.26
446.58	6963.09
446.77	6857.77
446.95	6743.08
447.14	6949.05
447.32	6888.20
447.51	6895.22
447.69	6850.75
447.88	6731.38
448.06	6892.88
448.25	6766.49
448.43	7126.93
448.62	6974.80
448.80	6946.71
448.99	7063.74
449.17	7087.14
449.36	7045.01
449.54	7047.35
449.73	7239.28
449.91	7180.76
450.10	7325.88
450.28	7433.54
450.46	7323.54
450.65	7435.88
450.83	7433.54
451.02	7449.93
451.20	7506.10
451.39	7520.14
451.57	7424.18
451.76	7550.57
451.94	7538.87
452.13	7634.83
452.31	7473.33
452.49	7466.31
452.68	7466.31
452.86	7328.22
453.05	7555.25
453.23	7618.44
453.42	7562.27
453.60	7578.65
453.78	7644.19
453.97	7426.52
454.15	7566.95
454.34	7548.23
454.52	7683.98
454.70	7892.29
454.89	7763.56
455.07	7829.09
455.26	7859.52
455.44	7936.76
455.62	7969.52
455.81	7847.82
455.99	8006.97
456.17	8039.74
456.36	7953.14
456.54	8093.57
456.73	8315.92
456.91	8439.97
457.09	8458.70
457.28	8496.14
457.46	8180.17
457.64	8210.60
457.83	8446.99
458.01	8311.24
458.19	8493.80
458.38	8407.20
458.56	8540.61
458.74	8315.92
458.93	8561.68
459.11	8566.36
459.29	8568.70
459.48	8477.42
459.66	8552.32
459.84	8409.54
460.03	8599.13
460.21	8753.60
460.39	8833.18
460.57	8613.17
460.76	8784.03
460.94	8954.89
461.12	9050.85
461.31	8779.35
461.49	8905.74
461.67	8884.67
461.85	9074.26
462.04	9217.03
462.22	9202.99
462.40	9305.97
462.59	9156.18
462.77	9284.91
462.95	9294.27
463.13	9242.78
463.32	9338.74
463.50	9476.83
463.68	9411.29
463.86	9420.66
464.05	9322.35
464.23	9322.35
464.41	9277.88
464.59	8917.44
464.78	9369.16
464.96	9317.67
465.14	9280.22
465.32	9507.26
465.50	9481.51
465.69	9792.80
465.87	9490.87
466.05	9504.92
466.23	9404.27
466.41	9469.81
466.60	9563.43
466.78	9549.39
466.96	9425.34
467.14	9523.64
467.32	9652.37
467.51	9884.08
467.69	9280.22
467.87	9518.96
468.05	9771.74
468.23	9610.24
468.41	9785.78
468.60	9811.53
468.78	9792.80
468.96	9600.88
469.14	9818.55
469.32	9905.15
469.50	9792.80
469.69	9933.23
469.87	10064.30
470.05	10246.87
470.23	10228.14
470.41	10108.77
470.59	10043.24
470.77	9989.41
470.95	10120.48
471.14	10427.09
471.32	10090.05
471.50	10553.48
471.68	10523.05
471.86	10644.76
472.04	10436.45
472.22	11044.99
472.40	10403.68
472.58	10801.57
472.77	10789.87
472.95	10759.44
473.13	11157.33
473.31	10766.46
473.49	10731.36
473.67	10883.49
473.85	11124.57
474.03	11173.72
474.21	11400.75
474.39	11417.13
474.57	11201.80
474.75	11199.46
474.93	11587.99
475.12	11419.47
475.30	11417.13
475.48	11353.94
475.66	11566.93
475.84	11578.63
476.02	11726.08
476.20	11791.62
476.38	12044.40
476.56	12243.34
476.74	12358.03
476.92	12095.89
477.10	12166.10
477.28	12458.67
477.46	12484.42
477.64	12540.59
477.82	12564.00
478.00	13179.56
478.18	12521.87
478.36	12919.76
478.54	13050.83
478.72	13266.16
478.90	13109.34
479.08	13408.93
479.26	13418.29
479.44	13518.93
479.62	13631.28
479.80	13813.84
479.98	13783.41
480.16	14061.94
480.34	13916.83
480.52	13989.38
480.70	14193.01
480.88	14003.43
481.06	14380.25
481.24	14190.67
481.41	14661.12
481.59	14831.97
481.77	14920.92
481.95	14775.80
482.13	15026.24
482.31	14995.81
482.49	15105.82
482.67	15173.69
482.85	15482.64
483.03	15695.63
483.21	15763.51
483.39	15969.48
483.57	16205.87
483.74	15782.23
483.92	16051.39
484.10	15929.69
484.28	16348.64
484.46	16580.36
484.64	16879.94
484.82	16376.73
485.00	16683.34
485.18	16582.70
485.35	16898.67
485.53	16706.74
485.71	16587.38
485.89	16863.56
486.07	16624.83
486.25	17364.43
486.43	17268.47
486.61	17343.37
486.78	17476.78
486.96	17926.16
487.14	18164.90
487.32	18209.37
487.50	18586.19
487.68	18359.16
487.85	18963.02
488.03	18883.44
488.21	18932.59
488.39	19339.85
488.57	18998.13
488.75	19548.15
488.92	19555.18
489.10	20130.95
489.28	19988.18
489.46	20255.00
489.64	19889.87
489.81	20940.77
489.99	20790.98
490.17	20886.94
490.35	20783.96
490.53	21018.01
490.70	20730.12
490.88	20844.81
491.06	21369.09
491.24	21069.50
491.41	21085.89
491.59	21436.97
491.77	21451.01
491.95	21376.11
492.13	21961.25
492.30	21930.82
492.48	22384.88
492.66	22291.26
492.84	22717.24
493.01	22546.38
493.19	22663.41
493.37	22476.16
493.54	22967.68
493.72	23295.35
493.90	23061.30
494.08	23178.33
494.25	23693.24
494.43	23896.87
494.61	24081.77
494.79	24023.26
494.96	23840.70
495.14	24184.76
495.32	24449.24
495.49	24212.84
495.67	24187.10
495.85	24594.35
496.02	24702.01
496.20	24865.85
496.38	24994.58
496.55	25193.53
496.73	25937.82
496.91	25317.57
497.09	25666.31
497.26	25776.32
497.44	25741.21
497.62	25593.76
497.79	26136.76
497.97	25720.15
498.14	25891.01
498.32	26209.32
498.50	26099.31
498.67	27161.92
498.85	26635.30
499.03	26565.08
499.20	26991.06
499.38	27372.57
499.56	27070.64
499.73	27185.32
499.91	27087.02
500.08	27412.35
500.26	26969.99
500.44	27274.26
500.61	27328.10
500.79	27068.30
500.97	27906.21
501.14	27840.67
501.32	27845.35
501.49	27814.93
501.67	27974.08
501.84	27953.02
502.02	28528.79
502.20	28151.96
502.37	28329.84
502.55	28704.33
502.72	28559.22
502.90	28823.70
503.07	28671.56
503.25	29113.92
503.43	28453.89
503.60	28849.44
503.78	28755.82
503.95	28865.83
504.13	29097.54
504.30	29233.29
504.48	29214.57
504.65	29343.30
504.83	29736.51
505.01	29738.85
505.18	30092.27
505.36	30183.55
505.53	30426.96
505.71	30555.69
505.88	30228.02
506.06	29972.90
506.23	30148.44
506.41	29982.26
506.58	30749.96
506.76	30876.35
506.93	30766.34
507.11	31009.76
507.28	30937.20
507.46	30775.70
507.63	30651.66
507.81	30771.02
507.98	31002.74
508.16	30951.24
508.33	31353.82
508.50	31693.19
508.68	31477.86
508.85	31997.46
509.03	31653.40
509.20	31356.16
509.38	31850.01
509.55	32229.18
509.73	31864.05
509.90	32102.79
510.08	32144.92
510.25	32058.32
510.42	32481.95
510.60	32299.39
510.77	32488.98
510.95	32552.17
511.12	32678.56
511.30	33078.79
511.47	33123.26
511.64	33125.60
511.82	32968.79
511.99	33130.28
512.17	32921.98
512.34	33027.30
512.51	33350.29
512.69	33455.62
512.86	33472.00
513.04	33949.47
513.21	33420.51
513.38	33354.97
513.56	33626.48
513.73	32954.74
513.90	33703.71
514.08	33654.56
514.25	34085.22
514.43	33387.74
514.60	34061.82
514.77	34082.88
514.95	34419.92
515.12	34195.23
515.29	34740.57
515.47	34522.90
515.64	34951.22
515.81	34171.82
515.99	34581.42
516.16	34466.73
516.33	34235.02
516.51	34361.40
516.68	34574.39
516.85	33975.22
517.03	34382.47
517.20	34438.64
517.37	34763.98
517.54	35239.11
517.72	34689.08
517.89	34340.34
518.06	34841.21
518.24	34829.51
518.41	34698.44
518.58	35339.75
518.75	35276.55
518.93	35559.76
519.10	35208.68
519.27	35716.58
519.45	35875.73
519.62	36151.91
519.79	35938.93
519.96	35550.40
520.14	35908.50
520.31	36292.35
520.48	36273.62
520.65	36348.52
520.83	36385.97
521.00	36636.41
521.17	36645.77
521.34	36863.44
521.52	37214.52
521.69	36928.97
521.86	37254.31
522.03	37097.49
522.20	36975.78
522.38	37067.06
522.55	37291.76
522.72	37586.66
522.89	36861.10
523.07	37247.29
523.24	37701.35
523.41	37687.31
523.58	37600.71
523.75	37762.20
523.92	37769.22
524.10	37738.80
524.27	38347.34
524.44	38368.40
524.61	38391.81
524.78	38099.24
524.96	38284.14
525.13	38450.32
525.30	38583.73
525.47	38562.67
525.64	38848.21
525.81	38033.71
525.98	38073.49
526.16	38272.44
526.33	38132.01
526.50	38520.54
526.67	37752.84
526.84	38150.73
527.01	37928.38
527.18	38684.37
527.36	39009.71
527.53	38649.27
527.70	39192.27
527.87	39016.73
528.04	38998.01
528.21	39339.72
528.38	39508.24
528.55	39763.36
528.72	39494.20
528.89	39487.18
529.07	39983.37
529.24	39058.86
529.41	39281.21
529.58	39405.26
529.75	39793.79
529.92	40016.14
530.09	39849.96
530.26	39976.35
530.43	39992.73
530.60	39887.41
530.77	40264.24
530.94	40418.71
531.11	40144.87
531.28	40032.52
531.46	40318.07
531.63	40708.94
531.80	40381.26
531.97	39992.73
532.14	40289.98
532.31	39585.48
532.48	40004.44
532.65	40271.26
532.82	40612.98
532.99	40879.80
533.16	40669.15
533.33	40336.79
533.50	41144.28
533.67	41043.63
533.84	41003.85
534.01	40793.20
534.18	40350.84
534.35	41130.23
534.52	40793.20
534.69	41097.47
534.86	41783.24
535.03	41137.26
535.20	41883.89
535.37	41588.98
535.54	41666.22
535.71	41642.81
535.88	41397.06
536.05	41565.57
536.22	41691.96
536.38	41790.27
536.55	41914.31
536.72	41413.44
536.89	41020.23
537.06	41331.52
537.23	41881.55
537.40	41649.83
537.57	41717.71
537.74	41551.53
537.91	42279.44
538.08	42139.00
538.25	41612.38
538.42	42443.27
538.59	42253.69
538.75	41642.81
538.92	41759.84
539.09	42029.00
539.26	41958.78
539.43	41904.95
539.60	42066.45
539.77	41696.64
539.94	42263.05
540.11	42089.85
540.28	42192.84
540.44	42607.11
540.61	42176.45
540.78	42307.52
540.95	42031.34
541.12	42096.88
541.29	42429.23
541.46	42265.39
541.62	42618.81
541.79	43056.50
541.96	42370.72
542.13	42590.73
542.30	42579.03
542.47	42307.52
542.63	42845.85
542.80	43157.14
542.97	43419.28
543.14	43498.86
543.31	43672.06
543.48	43786.74
543.64	43896.75
543.81	43852.28
543.98	43220.33
544.15	43594.82
544.32	43789.08
544.48	43796.10
544.65	43648.65
544.82	43674.40
544.99	43402.89
545.16	43475.45
545.32	43622.90
545.49	44121.44
545.66	44322.72
545.83	43765.68
546.00	43943.56
546.16	44240.81
546.33	43796.10
546.50	44013.77
546.67	43973.98
546.83	43484.81
547.00	44123.78
547.17	44168.25
547.34	43824.19
547.50	44105.06
547.67	44175.27
547.84	44315.70
548.00	44634.02
548.17	44552.10
548.34	44519.33
548.51	44629.34
548.67	45057.65
548.84	44919.56
549.01	44666.78
549.18	44259.53
549.34	44687.85
549.51	45132.55
549.68	44821.26
549.84	44861.05
550.01	44933.60
550.18	44236.12
550.34	44666.78
550.51	45081.06
550.68	45198.09
550.84	44350.81
551.01	44877.43
551.18	44938.29
551.34	45092.76
551.51	45027.23
551.68	45305.75
551.84	45233.19
552.01	44568.48
552.18	45275.32
552.34	44610.61
552.51	45184.04
552.68	44905.52
552.84	45848.75
553.01	45422.78
553.18	45485.97
553.34	45160.64
553.51	45338.52
553.67	45268.30
553.84	45619.38
554.01	45361.92
554.17	45729.39
554.34	45872.16
554.51	45326.81
554.67	45902.59
554.84	45537.46
555.00	45556.19
555.17	45560.87
555.33	45446.18
555.50	45509.38
555.67	45268.30
555.83	45722.37
556.00	45574.91
556.16	45881.52
556.33	45380.65
556.50	45851.09
556.66	45736.41
556.83	44996.80
556.99	45521.08
557.16	45867.48
557.32	45785.56
557.49	45738.75
557.65	45577.25
557.82	45933.01
557.98	46117.92
558.15	45567.89
558.32	45624.06
558.48	45544.48
558.65	45605.34
558.81	45813.65
558.98	45682.58
559.14	45713.00
559.31	45806.62
559.47	46202.18
559.64	46220.90
559.80	46361.33
559.97	46157.70
560.13	45436.82
560.30	45806.62
560.46	46136.64
560.63	46461.97
560.79	45942.38
560.96	46492.40
561.12	45975.14
561.29	46178.77
561.45	46160.05
561.61	46499.42
561.78	46227.92
561.94	45984.51
562.11	46122.60
562.27	46089.83
562.44	45911.95
562.60	46520.49
562.77	46529.85
562.93	45968.12
563.10	46239.62
563.26	46450.27
563.42	46024.29
563.59	46040.68
563.75	46396.44
563.92	46560.28
564.08	46726.46
564.24	46382.40
564.41	46518.15
564.57	46490.06
564.74	46384.74
564.90	46766.24
565.07	46410.48
565.23	46422.19
565.39	46220.90
565.56	46087.49
565.72	45937.69
565.88	46499.42
566.05	46171.75
566.21	46232.60
566.38	46433.89
566.54	46003.23
566.70	46543.89
566.87	47061.15
567.03	46604.75
567.19	47084.56
567.36	46557.94
567.52	46770.93
567.68	46384.74
567.85	46543.89
568.01	46604.75
568.17	46520.49
568.34	46497.08
568.50	46569.64
568.66	46396.44
568.83	46452.61
568.99	46443.25
569.15	46454.95
569.32	46464.32
569.48	46061.74
569.64	46504.10
569.81	46436.23
569.97	46894.97
570.13	46270.05
570.30	46248.99
570.46	46375.37
570.62	46412.82
570.78	46136.64
570.95	46452.61
571.11	46611.77
571.27	46300.48
571.43	46316.86
571.60	46309.84
571.76	46677.30
571.92	46740.50
572.09	46377.72
572.25	46593.04
572.41	46782.63
572.57	46611.77
572.74	47344.36
572.90	46852.84
573.06	46787.31
573.22	46962.85
573.38	46670.28
573.55	46684.33
573.71	46855.18
573.87	46342.61
574.03	46848.16
574.20	46972.21
574.36	46707.73
574.52	46782.63
574.68	46852.84
574.84	46773.27
575.01	46852.84
575.17	46693.69
575.33	46202.18
575.49	46464.32
575.65	46934.76
575.82	47028.38
575.98	47023.70
576.14	46789.65
576.30	46969.87
576.46	46642.20
576.62	46878.59
576.79	46686.67
576.95	46663.26
577.11	46997.96
577.27	47026.04
577.43	46934.76
577.59	46490.06
577.75	46490.06
577.92	46134.30
578.08	46270.05
578.24	46677.30
578.40	46333.24
578.56	46869.23
578.72	46623.47
578.88	46967.53
579.04	46876.25
579.21	46461.97
579.37	46878.59
579.53	46866.89
579.69	46674.96
579.85	46866.89
580.01	46611.77
580.17	46698.37
580.33	46707.73
580.49	46941.78
580.65	47089.24
580.82	47178.18
580.98	47105.62
581.14	46522.83
581.30	47456.70
581.46	47035.41
581.62	46974.55
581.78	46754.54
581.94	47491.81
582.10	46897.31
582.26	46876.25
582.42	46759.22
582.58	46581.34
582.74	46902.00
582.90	47131.37
583.06	47468.40
583.22	46965.19
583.38	47126.69
583.54	46997.96
583.70	47107.96
583.86	47107.96
584.02	46937.10
584.18	47058.81
584.34	46988.60
584.50	47002.64
584.66	46773.27
584.82	46717.09
584.98	47292.86
585.14	46745.18
585.30	46906.68
585.46	46913.70
585.62	46836.46
585.78	47012.00
585.94	46410.48
586.10	46546.23
586.26	46543.89
586.42	46960.51
586.58	46625.81
586.74	46937.10
586.90	46876.25
587.06	46955.83
587.22	46693.69
587.38	46328.56
587.54	46787.31
587.70	46707.73
587.86	47051.79
588.02	46859.87
588.18	47103.28
588.34	46831.78
588.49	46347.29
588.65	46061.74
588.81	46237.28
588.97	46405.80
589.13	46066.42
589.29	46373.03
589.45	46492.40
589.61	46721.77
589.77	47035.41
589.93	47084.56
