SpectraSuite Data File
++++++++++++++++++++++++++++++++++++
Date: Fri Oct 25 10:48:13 EDT 2013
User: price-jones
Dark Spectrum Present: No
Reference Spectrum Present: No
Number of Sampled Component Spectra: 1
Spectrometers: USB2+H05261
Integration Time (usec): 100000 (USB2+H05261)
Spectra Averaged: 1 (USB2+H05261)
Boxcar Smoothing: 0 (USB2+H05261)
Correct for Electrical Dark: No (USB2+H05261)
Strobe/Lamp Enabled: No (USB2+H05261)
Correct for Detector Non-linearity: No (USB2+H05261)
Correct for Stray Light: No (USB2+H05261)
Number of Pixels in Processed Spectrum: 2048
>>>>>Begin Processed Spectral Data<<<<<
365.73	168.52
365.92	168.52
366.12	168.52
366.32	102.98
366.52	65.54
366.72	72.56
366.91	32.77
367.11	37.45
367.31	0.00
367.51	63.19
367.70	58.51
367.90	60.85
368.10	25.75
368.30	30.43
368.49	39.79
368.69	67.88
368.89	28.09
369.09	35.11
369.28	44.47
369.48	105.32
369.68	98.30
369.87	131.07
370.07	119.37
370.27	180.22
370.47	222.35
370.66	404.91
370.86	425.98
371.06	465.77
371.25	428.32
371.45	365.12
371.65	437.68
371.84	414.27
372.04	500.87
372.24	475.13
372.44	486.83
372.63	601.52
372.83	543.00
373.03	505.56
373.22	489.17
373.42	482.15
373.62	496.19
373.81	599.18
374.01	587.47
374.21	475.13
374.40	568.75
374.60	526.62
374.79	613.22
374.99	573.43
375.19	631.94
375.38	671.73
375.58	554.71
375.78	512.58
375.97	550.03
376.17	599.18
376.37	608.54
376.56	580.45
376.76	566.41
376.95	545.34
377.15	683.44
377.35	559.39
377.54	557.05
377.74	620.24
377.93	688.12
378.13	627.26
378.33	624.92
378.52	601.52
378.72	650.67
378.91	692.80
379.11	568.75
379.31	662.37
379.50	653.01
379.70	674.07
379.89	669.39
380.09	638.97
380.28	629.60
380.48	657.69
380.68	695.14
380.87	564.07
381.07	695.14
381.26	720.88
381.46	657.69
381.65	655.35
381.85	603.86
382.04	660.03
382.24	610.88
382.43	678.76
382.63	704.50
382.83	770.04
383.02	739.61
383.22	723.23
383.41	699.82
383.61	692.80
383.80	814.51
384.00	739.61
384.19	744.29
384.39	814.51
384.58	812.17
384.78	791.10
384.97	711.52
385.17	798.12
385.36	807.48
385.56	734.93
385.75	699.82
385.95	802.80
386.14	833.23
386.34	805.14
386.53	835.57
386.72	765.36
386.92	842.59
387.11	823.87
387.31	844.93
387.50	866.00
387.70	786.42
387.89	849.61
388.09	770.04
388.28	858.98
388.48	816.85
388.67	861.32
388.86	908.13
389.06	819.19
389.25	924.51
389.45	821.53
389.64	922.17
389.84	922.17
390.03	912.81
390.22	903.45
390.42	978.34
390.61	976.00
390.81	990.05
391.00	926.85
391.19	980.68
391.39	966.64
391.58	1102.39
391.78	933.87
391.97	976.00
392.16	968.98
392.36	999.41
392.55	945.58
392.75	922.17
392.94	1015.79
393.13	1025.15
393.33	957.28
393.52	1036.86
393.71	1008.77
393.91	1032.18
394.10	1086.01
394.29	973.66
394.49	1158.57
394.68	1097.71
394.88	1083.67
395.07	1109.41
395.26	1083.67
395.46	1093.03
395.65	1153.88
395.84	1100.05
396.04	1083.67
396.23	1104.73
396.42	1146.86
396.62	1088.35
396.81	1177.29
397.00	1104.73
397.19	1249.85
397.39	1259.21
397.58	1205.38
397.77	1214.74
397.97	1327.08
398.16	1181.97
398.35	1376.24
398.55	1273.25
398.74	1299.00
398.93	1387.94
399.12	1294.32
399.32	1303.68
399.51	1334.11
399.70	1474.54
399.90	1308.36
400.09	1317.72
400.28	1322.40
400.47	1423.05
400.67	1558.80
400.86	1425.39
401.05	1423.05
401.24	1469.86
401.44	1469.86
401.63	1420.71
401.82	1575.18
402.01	1533.05
402.21	1591.56
402.40	1575.18
402.59	1612.63
402.78	1610.29
402.97	1556.46
403.17	1664.12
403.36	1617.31
403.55	1701.57
403.74	1629.01
403.93	1666.46
404.13	1710.93
404.32	1626.67
404.51	1640.72
404.70	1722.63
404.89	1764.76
405.09	1771.79
405.28	1762.42
405.47	1750.72
405.66	1764.76
405.85	1778.81
406.05	1748.38
406.24	1790.51
406.43	1865.41
406.62	1820.94
406.81	2022.22
407.00	1820.94
407.20	1870.09
407.39	1750.72
407.58	1961.37
407.77	1914.56
407.96	1959.03
408.15	1954.35
408.34	1928.60
408.54	2078.40
408.73	2017.54
408.92	2026.90
409.11	2036.27
409.30	2033.93
409.49	2113.50
409.68	2003.50
409.87	2097.12
410.07	2092.44
410.26	2136.91
410.45	2221.17
410.64	2251.60
410.83	2216.49
411.02	2108.82
411.21	2296.07
411.40	2359.26
411.59	2338.20
411.78	2345.22
411.98	2286.70
412.17	2298.41
412.36	2438.84
412.55	2389.69
412.74	2504.37
412.93	2511.39
413.12	2436.50
413.31	2590.97
413.50	2483.31
413.69	2607.36
413.88	2623.74
414.07	2546.50
414.26	2626.08
414.45	2679.91
414.64	2684.59
414.83	2813.32
415.02	2691.62
415.22	2752.47
415.41	2794.60
415.60	2733.75
415.79	2848.43
415.98	2967.80
416.17	2825.03
416.36	2911.63
416.55	2883.54
416.74	2918.65
416.93	2942.05
417.12	2991.20
417.31	3115.25
417.50	3007.59
417.69	3155.04
417.88	3094.19
418.07	3077.80
418.26	3124.62
418.45	3227.60
418.64	3267.39
418.83	3136.32
419.02	3243.98
419.21	3316.54
419.39	3318.88
419.58	3262.71
419.77	3126.96
419.96	3372.71
420.15	3351.65
420.34	3281.43
420.53	3393.78
420.72	3468.67
420.91	3405.48
421.10	3471.01
421.29	3557.61
421.48	3421.86
421.67	3489.74
421.86	3506.12
422.05	3414.84
422.24	3473.36
422.43	3431.23
422.61	3449.95
422.80	3513.14
422.99	3592.72
423.18	3616.13
423.37	3564.64
423.56	3480.38
423.75	3667.62
423.94	3648.90
424.13	3480.38
424.32	3426.54
424.50	3662.94
424.69	3716.77
424.88	3644.21
425.07	3623.15
425.26	3566.98
425.45	3538.89
425.64	3651.24
425.83	3698.05
426.01	3620.81
426.20	3740.18
426.39	3737.84
426.58	3644.21
426.77	3686.34
426.96	3644.21
427.15	3623.15
427.33	3716.77
427.52	3796.35
427.71	3758.90
427.90	3868.91
428.09	3794.01
428.28	3833.80
428.46	3871.25
428.65	3913.38
428.84	3906.35
429.03	3939.12
429.22	3815.07
429.40	3864.22
429.59	3948.48
429.78	3796.35
429.97	3676.98
430.16	3676.98
430.34	3833.80
430.53	3943.80
430.72	3953.16
430.91	3880.61
431.10	4039.76
431.28	4119.34
431.47	4227.01
431.66	4194.24
431.85	4081.89
432.03	4208.28
432.22	4255.09
432.41	4348.72
432.60	4344.03
432.79	4273.82
432.97	4376.80
433.16	4299.56
433.35	4383.82
433.54	4187.22
433.72	4294.88
433.91	4250.41
434.10	4416.59
434.28	4374.46
434.47	4421.27
434.66	4360.42
434.85	4552.34
435.03	4547.66
435.22	4456.38
435.41	4638.94
435.59	4526.60
435.78	4589.79
435.97	4692.77
436.16	4683.41
436.34	4936.19
436.53	4589.79
436.72	4709.16
436.90	4507.87
437.09	4819.16
437.28	4739.58
437.46	4617.88
437.65	4706.82
437.84	4800.44
438.02	4695.11
438.21	4758.31
438.40	4643.62
438.58	4884.70
438.77	4992.36
438.96	4966.62
439.14	4985.34
439.33	5207.69
439.52	5053.22
439.70	5158.54
439.89	5282.59
440.08	5212.37
440.26	5240.46
440.45	5207.69
440.63	5352.81
440.82	5373.87
441.01	5289.61
441.19	5439.40
441.38	5558.77
441.57	5483.88
441.75	5600.90
441.94	5689.84
442.12	5584.52
442.31	5741.33
442.50	5916.87
442.68	5624.31
442.87	5734.31
443.05	5799.85
443.24	5825.59
443.43	5668.78
443.61	5926.24
443.80	6052.63
443.98	5799.85
444.17	5710.91
444.35	6052.63
444.54	6001.13
444.73	5867.72
444.91	5926.24
445.10	5790.49
445.28	5863.04
445.47	5750.70
445.65	5996.45
445.84	5900.49
446.02	5865.38
446.21	6045.60
446.39	5923.90
446.58	6050.28
446.77	6052.63
446.95	5959.00
447.14	5900.49
447.32	6260.93
447.51	6150.93
447.69	6033.90
447.88	6045.60
448.06	6211.78
448.25	6113.48
448.43	6097.10
448.62	6052.63
448.80	6076.03
448.99	6076.03
449.17	6181.35
449.36	6176.67
449.54	6272.64
449.73	6399.02
449.91	6368.60
450.10	6267.95
450.28	6450.52
450.46	6476.26
450.65	6476.26
450.83	6506.69
451.02	6431.79
451.20	6544.14
451.39	6459.88
451.57	6647.12
451.76	6583.93
451.94	6558.18
452.13	6604.99
452.31	6672.87
452.49	6593.29
452.68	6537.12
452.86	6590.95
453.05	6651.80
453.23	6817.98
453.42	6698.61
453.60	6492.65
453.78	6743.08
453.97	6679.89
454.15	6853.09
454.34	6626.06
454.52	6806.28
454.70	6731.38
454.89	6867.13
455.07	7014.59
455.26	7016.93
455.44	7110.55
455.62	7063.74
455.81	7157.36
455.99	7136.29
456.17	7066.08
456.36	7208.85
456.54	7129.27
456.73	7293.11
456.91	7286.09
457.09	7421.84
457.28	7585.68
457.46	7190.13
457.64	7171.40
457.83	7110.55
458.01	7239.28
458.19	7494.40
458.38	7541.21
458.56	7581.00
458.74	7552.91
458.93	7571.63
459.11	7613.76
459.29	7639.51
459.48	7693.34
459.66	7674.62
459.84	7655.89
460.03	7768.24
460.21	7922.71
460.39	7756.54
460.57	7618.44
460.76	7730.79
460.94	7871.22
461.12	7868.88
461.31	7943.78
461.49	7957.82
461.67	7854.84
461.85	8121.66
462.04	7953.14
462.22	8571.04
462.40	8145.06
462.59	8079.53
462.77	7901.65
462.95	8381.46
463.13	8175.49
463.32	8074.85
463.50	8173.15
463.68	8133.36
463.86	8358.05
464.05	8156.77
464.23	8180.17
464.41	8224.64
464.59	8152.09
464.78	8381.46
464.96	8379.12
465.14	8219.96
465.32	8278.47
465.50	8311.24
465.69	8458.70
465.87	8362.73
466.05	8545.30
466.23	8367.42
466.41	8510.19
466.60	8699.77
466.78	8425.93
466.96	8557.00
467.14	8489.12
467.32	8734.88
467.51	8695.09
467.69	8531.25
467.87	8748.92
468.05	8753.60
468.23	8573.38
468.41	8622.53
468.60	8669.34
468.78	8725.52
468.96	8697.43
469.14	8856.59
469.32	9053.19
469.50	8762.97
469.69	8966.59
469.87	9018.08
470.05	9156.18
470.23	9200.65
470.41	9181.92
470.59	9013.40
470.77	9067.24
470.95	8952.55
471.14	9263.84
471.32	9167.88
471.50	9434.70
471.68	9383.21
471.86	9439.38
472.04	9516.62
472.22	9830.25
472.40	9423.00
472.58	9437.04
472.77	9666.41
472.95	9912.17
473.13	10125.16
473.31	9565.77
473.49	9708.54
473.67	9710.88
473.85	9951.96
474.03	10141.54
474.21	10181.33
474.39	10237.50
474.57	10167.29
474.75	10223.46
474.93	10193.03
475.12	10197.71
475.30	10499.64
475.48	10239.84
475.66	10532.41
475.84	10331.12
476.02	10452.83
476.20	10576.88
476.38	10670.50
476.56	11087.12
476.74	10958.39
476.92	10820.30
477.10	10857.75
477.28	11044.99
477.46	11239.25
477.64	10977.11
477.82	11576.29
478.00	11353.94
478.18	11592.67
478.36	11840.77
478.54	11550.54
478.72	11723.74
478.90	11964.82
479.08	11885.24
479.26	12011.63
479.44	12020.99
479.62	12255.04
479.80	12212.92
479.98	12236.32
480.16	12510.16
480.34	12404.84
480.52	12453.99
480.70	12655.28
480.88	12315.90
481.06	12699.75
481.24	12882.31
481.41	13202.96
481.59	13242.75
481.77	13282.54
481.95	13296.58
482.13	13420.63
482.31	13542.34
482.49	13848.95
482.67	13582.13
482.85	13956.61
483.03	13921.51
483.21	14001.08
483.39	14054.92
483.57	13989.38
483.74	14438.76
483.92	14146.20
484.10	14363.87
484.28	14878.79
484.46	14925.60
484.64	15084.75
484.82	14693.88
485.00	15033.26
485.18	15300.08
485.35	15213.48
485.53	15164.33
485.71	15384.34
485.89	15517.75
486.07	15557.54
486.25	15396.04
486.43	15854.79
486.61	15887.56
486.78	16212.89
486.96	15770.53
487.14	16601.42
487.32	16460.99
487.50	16526.52
487.68	16800.37
487.85	16823.77
488.03	17205.28
488.21	17198.26
488.39	17481.46
488.57	17380.82
488.75	17444.01
488.92	17947.23
489.10	17575.08
489.28	18104.04
489.46	18026.81
489.64	18066.60
489.81	18590.88
489.99	18871.74
490.17	18841.31
490.35	18874.08
490.53	19035.58
490.70	19229.84
490.88	18960.68
491.06	19379.64
491.24	19110.47
491.41	19365.59
491.59	19522.41
491.77	19311.76
491.95	19740.08
492.13	19859.45
492.30	19939.02
492.48	20114.56
492.66	19995.20
492.84	20287.76
493.01	20603.74
493.19	20493.73
493.37	20816.72
493.54	20851.83
493.72	21064.82
493.90	21177.17
494.08	21191.21
494.25	21411.22
494.43	21577.40
494.61	21666.34
494.79	21525.91
494.96	21387.82
495.14	21406.54
495.32	22363.82
495.49	22139.13
495.67	22665.75
495.85	22335.73
496.02	22412.97
496.20	22398.93
496.38	22801.50
496.55	22735.96
496.73	23215.77
496.91	23164.28
497.09	23206.41
497.26	23356.21
497.44	23386.63
497.62	23122.15
497.79	23658.14
497.97	23576.22
498.14	24044.32
498.32	23885.17
498.50	23971.77
498.67	23885.17
498.85	24091.13
499.03	24554.56
499.20	24137.94
499.38	24437.53
499.56	24800.32
499.73	24568.60
499.91	24807.34
500.08	24596.69
500.26	24900.96
500.44	25132.67
500.61	25202.89
500.79	25200.55
500.97	24992.24
501.14	25469.71
501.32	25446.30
501.49	25448.64
501.67	25593.76
501.84	26223.36
502.02	25455.67
502.20	25778.66
502.37	26003.35
502.55	25785.68
502.72	26183.57
502.90	26017.40
503.07	26356.77
503.25	26354.43
503.43	26319.32
503.60	26464.44
503.78	26426.99
503.95	26359.11
504.13	26632.96
504.30	26892.76
504.48	26735.94
504.65	27288.31
504.83	26881.05
505.01	27522.36
505.18	26998.08
505.36	27494.27
505.53	27372.57
505.71	27662.79
505.88	27957.70
506.06	27435.76
506.23	27976.42
506.41	27634.71
506.58	28051.32
506.76	27915.57
506.93	28098.13
507.11	28044.30
507.28	28201.11
507.46	28437.51
507.63	28318.14
507.81	28058.34
507.98	28259.63
508.16	28664.54
508.33	28676.24
508.50	28772.21
508.68	29060.09
508.85	29158.39
509.03	29242.65
509.20	29572.67
509.38	29441.60
509.55	29399.47
509.73	29380.74
509.90	29406.49
510.08	29404.15
510.25	29624.16
510.42	29792.68
510.60	30040.78
510.77	30150.78
510.95	29855.87
511.12	29914.39
511.30	29958.86
511.47	30267.81
511.64	30852.94
511.82	30635.27
511.99	30649.32
512.17	30232.70
512.34	30466.75
512.51	30773.36
512.69	30478.46
512.86	30345.05
513.04	31335.09
513.21	31365.52
513.38	30604.84
513.56	30909.11
513.73	30862.30
513.90	31101.04
514.08	31234.45
514.25	31185.30
514.43	31299.98
514.60	31454.46
514.77	31524.68
514.95	31665.11
515.12	31683.83
515.29	31857.03
515.47	32004.49
515.64	32203.43
515.81	31875.76
515.99	32081.72
516.16	31756.39
516.33	31929.59
516.51	31924.91
516.68	31613.62
516.85	31859.37
517.03	31892.14
517.20	32121.51
517.37	32212.79
517.54	32353.23
517.72	32514.72
517.89	32458.55
518.06	32210.45
518.24	32414.08
518.41	32430.46
518.58	32512.38
518.75	32591.96
518.93	32952.40
519.10	32968.79
519.27	33280.08
519.45	33163.05
519.62	33675.63
519.79	33692.01
519.96	33347.95
520.14	33343.27
520.31	33399.44
520.48	33626.48
520.65	33706.05
520.83	33675.63
521.00	34256.08
521.17	34108.63
521.34	33930.75
521.52	34284.17
521.69	34242.04
521.86	34249.06
522.03	34141.39
522.20	34471.41
522.38	34686.74
522.55	34426.94
522.72	34471.41
522.89	34539.29
523.07	34471.41
523.24	34621.20
523.41	35007.39
523.58	34651.63
523.75	35222.72
523.92	35295.28
524.10	35367.84
524.27	35730.62
524.44	35524.65
524.61	35168.89
524.78	35817.22
524.96	35388.90
525.13	35931.90
525.30	36013.82
525.47	35695.51
525.64	35791.47
525.81	35739.98
525.98	35536.35
526.16	35938.93
526.33	35468.48
526.50	35611.25
526.67	35732.96
526.84	36004.46
527.01	35835.94
527.18	36112.13
527.36	36631.72
527.53	36018.50
527.70	36580.23
527.87	37038.98
528.04	36311.07
528.21	36627.04
528.38	36540.44
528.55	36861.10
528.72	36996.85
528.89	36992.17
529.07	36863.44
529.24	36814.29
529.41	36924.29
529.58	36631.72
529.75	36751.09
529.92	36971.10
530.09	37041.32
530.26	37258.99
530.43	37251.97
530.60	36940.68
530.77	37200.47
530.94	37418.14
531.11	37640.50
531.28	37191.11
531.46	37560.92
531.63	37701.35
531.80	37708.37
531.97	37387.72
532.14	37518.79
532.31	37600.71
532.48	37219.20
532.65	37949.45
532.82	37968.17
532.99	38284.14
533.16	38087.54
533.33	38349.68
533.50	38223.29
533.67	38370.74
533.84	38384.79
534.01	38183.50
534.18	38251.38
534.35	38597.77
534.52	38525.22
534.69	38328.61
534.86	38590.75
535.03	38202.22
535.20	39009.71
535.37	39030.77
535.54	38930.13
535.71	38607.14
535.88	38522.88
536.05	38792.04
536.22	38576.71
536.38	38789.70
536.55	38665.65
536.72	38852.89
536.89	38532.24
537.06	39257.81
537.23	39370.15
537.40	39278.87
537.57	39112.69
537.74	39239.08
537.91	39218.02
538.08	39536.33
538.25	39028.43
538.42	39246.10
538.59	39606.55
538.75	39370.15
538.92	39225.04
539.09	39253.12
539.26	39641.65
539.43	39665.06
539.60	39569.10
539.77	39941.24
539.94	40044.23
540.11	39779.74
540.28	39775.06
540.44	39847.62
540.61	39604.20
540.78	39679.10
540.95	39526.97
541.12	39739.96
541.29	39924.86
541.46	39847.62
541.62	40098.06
541.79	40306.37
541.96	40123.80
542.13	40301.68
542.30	40315.73
542.47	40538.08
542.63	40048.91
542.80	40325.09
542.97	41008.53
543.14	41141.94
543.31	40746.39
543.48	40685.53
543.64	41378.33
543.81	41167.68
543.98	41247.26
544.15	40875.12
544.32	41130.23
544.48	41488.34
544.65	41057.68
544.82	41350.24
544.99	40989.80
545.16	41244.92
545.32	41226.20
545.49	41514.08
545.66	41666.22
545.83	41687.28
546.00	41830.05
546.16	41380.67
546.33	41155.98
546.50	40898.52
546.67	41460.25
546.83	40893.84
547.00	41350.24
547.17	41453.23
547.34	41860.48
547.50	41619.41
547.67	41872.18
547.84	41698.98
548.00	41811.33
548.17	42071.13
548.34	41881.55
548.51	42218.58
548.67	42099.22
548.84	42134.32
549.01	41986.87
549.18	41823.03
549.34	41989.21
549.51	42241.99
549.68	42426.89
549.84	42057.09
550.01	42340.29
550.18	42438.59
550.34	41904.95
550.51	42218.58
550.68	42192.84
550.84	42136.66
551.01	42361.36
551.18	42593.07
551.34	42312.20
551.51	42583.71
551.68	42586.05
551.84	42740.52
552.01	42843.51
552.18	42651.58
552.34	42218.58
552.51	42738.18
552.68	42672.65
552.84	42770.95
553.01	42852.87
553.18	42780.31
553.34	42906.70
553.51	42600.09
553.67	43012.02
553.84	42953.51
554.01	43100.97
554.17	42981.60
554.34	43517.58
554.51	42902.02
554.67	42946.49
554.84	43297.57
555.00	42726.48
555.17	42511.15
555.33	43255.44
555.50	43061.18
555.67	43117.35
555.83	43351.40
556.00	43335.02
556.16	43936.54
556.33	43515.24
556.50	43611.20
556.66	43489.49
556.83	43337.36
556.99	43529.28
557.16	43604.18
557.32	43629.93
557.49	43456.73
557.65	43384.17
557.82	43665.03
557.98	44020.80
558.15	43498.86
558.32	43688.44
558.48	43634.61
558.65	43550.35
558.81	43529.28
558.98	43950.58
559.14	43428.64
559.31	43690.78
559.47	43592.48
559.64	43997.39
559.80	43714.19
559.97	44074.63
560.13	43519.92
560.30	43702.48
560.46	43384.17
560.63	43751.63
560.79	43934.20
560.96	44233.78
561.12	44390.60
561.29	43910.79
561.45	44182.29
561.61	44128.46
561.78	43730.57
561.94	43746.95
562.11	43704.82
562.27	43650.99
562.44	43775.04
562.60	44472.52
562.77	44355.49
562.93	43981.01
563.10	44465.50
563.26	44091.01
563.42	44168.25
563.59	44175.27
563.75	43859.30
563.92	44304.00
564.08	44439.75
564.24	44437.41
564.41	44315.70
564.57	44289.96
564.74	44486.56
564.90	44083.99
565.07	44285.28
565.23	44133.14
565.39	44533.37
565.56	44474.86
565.72	44165.91
565.88	44282.94
566.05	44163.57
566.21	44205.70
566.38	44238.47
566.54	44566.14
566.70	44315.70
566.87	44914.88
567.03	44509.97
567.19	44765.09
567.36	44509.97
567.52	44622.31
567.68	44655.08
567.85	44516.99
568.01	44428.05
568.17	44205.70
568.34	44533.37
568.50	44437.41
568.66	44765.09
568.83	44514.65
568.99	44414.01
569.15	44128.46
569.32	44502.95
569.48	44629.34
569.64	44535.71
569.81	44591.89
569.97	44545.08
570.13	44891.48
570.30	44589.55
570.46	44268.89
570.62	44484.22
570.78	44376.56
570.95	44355.49
571.11	44744.02
571.27	44449.11
571.43	44289.96
571.60	45167.66
571.76	44671.46
571.92	44423.37
572.09	44706.57
572.25	44580.18
572.41	43966.96
572.57	44816.58
572.74	44982.76
572.90	44687.85
573.06	44879.77
573.22	45401.71
573.38	44800.19
573.55	44914.88
573.71	44835.30
573.87	44091.01
574.03	44570.82
574.20	44694.87
574.36	44849.35
574.52	45083.40
574.68	44793.17
574.84	44650.40
575.01	44718.28
575.17	44851.69
575.33	44577.84
575.49	44884.45
575.65	44935.95
575.82	45298.73
575.98	44872.75
576.14	45205.11
576.30	45134.89
576.46	44692.53
576.62	44378.90
576.79	45170.00
576.95	44545.08
577.11	44849.35
577.27	45172.34
577.43	45296.39
577.59	44701.89
577.75	44872.75
577.92	44807.22
578.08	44509.97
578.24	44381.24
578.40	44369.54
578.56	44732.32
578.72	44643.38
578.88	45095.10
579.04	44772.11
579.21	44610.61
579.37	44751.04
579.53	44514.65
579.69	44369.54
579.85	44851.69
580.01	45038.93
580.17	45151.27
580.33	45319.79
580.49	45181.70
580.65	44992.12
580.82	44741.68
580.98	44524.01
581.14	44645.72
581.30	45088.08
581.46	44964.03
581.62	45062.33
581.78	45284.68
581.94	45329.16
582.10	44694.87
582.26	45071.70
582.42	44617.63
582.58	45305.75
582.74	45052.97
582.90	44760.40
583.06	45312.77
583.22	44774.45
583.38	45244.90
583.54	44809.56
583.70	44973.39
583.86	45378.31
584.02	44760.40
584.18	44910.20
584.34	45116.17
584.50	44865.73
584.66	44746.36
584.82	45083.40
584.98	45062.33
585.14	45420.44
585.30	44938.29
585.46	45460.23
585.62	45202.77
585.78	44720.62
585.94	44619.97
586.10	44886.79
586.26	44575.50
586.42	45275.32
586.58	45387.67
586.74	45057.65
586.90	44891.48
587.06	44903.18
587.22	44807.22
587.38	45153.62
587.54	45095.10
587.70	45399.37
587.86	45027.23
588.02	45036.59
588.18	45020.20
588.34	44786.15
588.49	44861.05
588.65	44882.11
588.81	44744.02
588.97	44896.16
589.13	44680.83
589.29	45095.10
589.45	44954.67
589.61	44828.28
589.77	45345.54
589.93	45387.67
590.08	45102.12
590.24	45221.49
