SpectraSuite Data File
++++++++++++++++++++++++++++++++++++
Date: Fri Oct 25 11:34:27 EDT 2013
User: price-jones
Dark Spectrum Present: No
Reference Spectrum Present: No
Number of Sampled Component Spectra: 1
Spectrometers: USB2+H05261
Integration Time (usec): 100000 (USB2+H05261)
Spectra Averaged: 1 (USB2+H05261)
Boxcar Smoothing: 0 (USB2+H05261)
Correct for Electrical Dark: No (USB2+H05261)
Strobe/Lamp Enabled: No (USB2+H05261)
Correct for Detector Non-linearity: No (USB2+H05261)
Correct for Stray Light: No (USB2+H05261)
Number of Pixels in Processed Spectrum: 2048
>>>>>Begin Processed Spectral Data<<<<<
365.73	294.91
365.92	294.91
366.12	294.91
366.32	227.03
366.52	273.84
366.72	236.39
366.91	243.42
367.11	142.77
367.31	131.07
367.51	189.58
367.70	184.90
367.90	259.80
368.10	163.84
368.30	180.22
368.49	154.48
368.69	227.03
368.89	140.43
369.09	208.31
369.28	236.39
369.48	210.65
369.68	236.39
369.87	231.71
370.07	220.01
370.27	212.99
370.47	337.04
370.66	472.79
370.86	550.03
371.06	528.96
371.25	484.49
371.45	559.39
371.65	594.50
371.84	552.37
372.04	521.94
372.24	620.24
372.44	557.05
372.63	624.92
372.83	601.52
373.03	662.37
373.22	685.78
373.42	641.31
373.62	631.94
373.81	592.16
374.01	634.29
374.21	676.41
374.40	552.37
374.60	617.90
374.79	662.37
374.99	622.58
375.19	695.14
375.38	634.29
375.58	667.05
375.78	650.67
375.97	711.52
376.17	683.44
376.37	655.35
376.56	664.71
376.76	596.84
376.95	697.48
377.15	692.80
377.35	662.37
377.54	671.73
377.74	685.78
377.93	671.73
378.13	653.01
378.33	695.14
378.52	678.76
378.72	702.16
378.91	718.54
379.11	671.73
379.31	688.12
379.50	657.69
379.70	713.86
379.89	781.74
380.09	688.12
380.28	697.48
380.48	706.84
380.68	650.67
380.87	751.31
381.07	662.37
381.26	791.10
381.46	791.10
381.65	657.69
381.85	791.10
382.04	755.99
382.24	751.31
382.43	741.95
382.63	734.93
382.83	833.23
383.02	809.83
383.22	772.38
383.41	779.40
383.61	770.04
383.80	732.59
384.00	814.51
384.19	809.83
384.39	835.57
384.58	732.59
384.78	770.04
384.97	840.25
385.17	711.52
385.36	837.91
385.56	840.25
385.75	863.66
385.95	854.30
386.14	849.61
386.34	819.19
386.53	814.51
386.72	812.17
386.92	882.38
387.11	812.17
387.31	823.87
387.50	870.68
387.70	866.00
387.89	835.57
388.09	854.30
388.28	908.13
388.48	844.93
388.67	966.64
388.86	938.55
389.06	863.66
389.25	905.79
389.45	938.55
389.64	901.11
389.84	999.41
390.03	898.77
390.22	957.28
390.42	940.90
390.61	924.51
390.81	945.58
391.00	992.39
391.19	1015.79
391.39	978.34
391.58	959.62
391.78	1018.13
391.97	968.98
392.16	1018.13
392.36	1100.05
392.55	971.32
392.75	1067.28
392.94	1095.37
393.13	1039.20
393.33	1102.39
393.52	1006.43
393.71	1076.65
393.91	1111.75
394.10	1083.67
394.29	1032.18
394.49	1011.11
394.68	1100.05
394.88	1130.48
395.07	1100.05
395.26	1029.84
395.46	1121.12
395.65	1163.25
395.84	1095.37
396.04	1123.46
396.23	1158.57
396.42	1156.22
396.62	1240.48
396.81	1184.31
397.00	1184.31
397.19	1104.73
397.39	1268.57
397.58	1217.08
397.77	1153.88
397.97	1205.38
398.16	1181.97
398.35	1287.29
398.55	1233.46
398.74	1193.67
398.93	1303.68
399.12	1193.67
399.32	1214.74
399.51	1193.67
399.70	1329.42
399.90	1268.57
400.09	1387.94
400.28	1376.24
400.47	1277.93
400.67	1327.08
400.86	1357.51
401.05	1380.92
401.24	1329.42
401.44	1427.73
401.63	1458.15
401.82	1397.30
402.01	1364.53
402.21	1453.47
402.40	1502.62
402.59	1483.90
402.78	1427.73
402.97	1460.49
403.17	1467.52
403.36	1472.20
403.55	1568.16
403.74	1521.35
403.93	1537.73
404.13	1556.46
404.32	1568.16
404.51	1549.43
404.70	1614.97
404.89	1619.65
405.09	1577.52
405.28	1631.35
405.47	1610.29
405.66	1732.00
405.85	1652.42
406.05	1636.03
406.24	1626.67
406.43	1673.48
406.62	1621.99
406.81	1717.95
407.00	1675.82
407.20	1760.08
407.39	1816.26
407.58	1816.26
407.77	1767.10
407.96	1893.49
408.15	1804.55
408.34	1809.23
408.54	1830.30
408.73	1844.34
408.92	1884.13
409.11	1909.88
409.30	1795.19
409.49	1886.47
409.68	1968.39
409.87	1940.30
410.07	1886.47
410.26	2059.67
410.45	1987.11
410.64	2008.18
410.83	1996.48
411.02	2003.50
411.21	2162.66
411.40	2146.27
411.59	2153.29
411.78	2080.74
411.98	2230.53
412.17	2099.46
412.36	2218.83
412.55	2214.15
412.74	2251.60
412.93	2321.81
413.12	2223.51
413.31	2349.90
413.50	2305.43
413.69	2284.36
413.88	2410.75
414.07	2354.58
414.26	2443.52
414.45	2286.70
414.64	2539.48
414.83	2539.48
415.02	2497.35
415.22	2448.20
415.41	2572.25
415.60	2490.33
415.79	2621.40
415.98	2670.55
416.17	2665.87
416.36	2668.21
416.55	2668.21
416.74	2764.17
416.93	2785.24
417.12	2780.56
417.31	2722.04
417.50	2668.21
417.69	2806.30
417.88	2862.48
418.07	2918.65
418.26	2911.63
418.45	2860.13
418.64	2897.58
418.83	2909.29
419.02	2897.58
419.21	2944.39
419.39	2988.86
419.58	2988.86
419.77	2972.48
419.96	2988.86
420.15	2946.73
420.34	3068.44
420.53	2942.05
420.72	3162.06
420.91	3192.49
421.10	3112.91
421.29	3129.30
421.48	2953.76
421.67	3192.49
421.86	3227.60
422.05	3171.43
422.24	3201.85
422.43	3133.98
422.61	3215.90
422.80	3206.53
422.99	3176.11
423.18	3332.92
423.37	3302.50
423.56	3353.99
423.75	3234.62
423.94	3197.17
424.13	3150.36
424.32	3148.02
424.50	3332.92
424.69	3492.08
424.88	3318.88
425.07	3297.81
425.26	3309.52
425.45	3335.26
425.64	3208.87
425.83	3400.80
426.01	3190.15
426.20	3386.76
426.39	3424.20
426.58	3358.67
426.77	3410.16
426.96	3318.88
427.15	3346.97
427.33	3375.05
427.52	3297.81
427.71	3529.53
427.90	3419.52
428.09	3543.57
428.28	3562.30
428.46	3669.96
428.65	3492.08
428.84	3630.17
429.03	3606.77
429.22	3566.98
429.40	3599.74
429.59	3471.01
429.78	3421.86
429.97	3625.49
430.16	3599.74
430.34	3698.05
430.53	3641.87
430.72	3758.90
430.91	3609.11
431.10	3590.38
431.28	3826.78
431.47	3772.94
431.66	3721.45
431.85	3871.25
432.03	3768.26
432.22	3943.80
432.41	3899.33
432.60	3929.76
432.79	3815.07
432.97	3920.40
433.16	3957.85
433.35	3976.57
433.54	3955.51
433.72	4009.34
433.91	4016.36
434.10	4112.32
434.28	4077.21
434.47	3978.91
434.66	4189.56
434.85	4252.75
435.03	4161.47
435.22	4114.66
435.41	4334.67
435.59	4133.39
435.78	4360.42
435.97	4156.79
436.16	4217.65
436.34	4273.82
436.53	4280.84
436.72	4365.10
436.90	4182.54
437.09	4365.10
437.28	4425.95
437.46	4404.89
437.65	4451.70
437.84	4423.61
438.02	4491.49
438.21	4514.89
438.40	4416.59
438.58	4592.13
438.77	4652.98
438.96	4535.96
439.14	4615.54
439.33	4702.14
439.52	4828.53
439.70	4601.49
439.89	4940.87
440.08	4821.50
440.26	4854.27
440.45	4978.32
440.63	4865.97
440.82	4961.94
441.01	5004.07
441.19	5025.13
441.38	4933.85
441.57	5062.58
441.75	5116.41
441.94	5160.88
442.12	5313.02
442.31	5135.14
442.50	5242.80
442.68	5188.97
442.87	5303.65
443.05	5310.68
443.24	5275.57
443.43	5376.21
443.61	5380.89
443.80	5474.51
443.98	5193.65
444.17	5093.01
444.35	5249.82
444.54	5352.81
444.73	5233.44
444.91	5336.42
445.10	5341.10
445.28	5373.87
445.47	5408.98
445.65	5392.59
445.84	5481.53
446.02	5577.50
446.21	5502.60
446.39	5427.70
446.58	5394.93
446.77	5596.22
446.95	5446.43
447.14	5469.83
447.32	5486.22
447.51	5490.90
447.69	5495.58
447.88	5502.60
448.06	5565.79
448.25	5570.48
448.43	5549.41
448.62	5664.10
448.80	5619.63
448.99	5533.03
449.17	5790.49
449.36	5621.97
449.54	5795.17
449.73	5802.19
449.91	5860.70
450.10	5827.93
450.28	5841.98
450.46	5856.02
450.65	5900.49
450.83	5970.71
451.02	5818.57
451.20	5865.38
451.39	6008.16
451.57	5912.19
451.76	5879.43
451.94	5837.30
452.13	6019.86
452.31	6026.88
452.49	5984.75
452.68	6143.91
452.86	6106.46
453.05	6071.35
453.23	6179.01
453.42	6022.20
453.60	6008.16
453.78	6300.72
453.97	6230.51
454.15	6083.05
454.34	6085.39
454.52	6307.74
454.70	6153.27
454.89	6239.87
455.07	6174.33
455.26	6361.58
455.44	6164.97
455.62	6361.58
455.81	6511.37
455.99	6401.37
456.17	6487.96
456.36	6593.29
456.54	6752.45
456.73	6686.91
456.91	6649.46
457.09	6682.23
457.28	6647.12
457.46	6698.61
457.64	6771.17
457.83	6813.30
458.01	6850.75
458.19	6925.65
458.38	6815.64
458.56	7009.90
458.74	6885.86
458.93	6911.60
459.11	6813.30
459.29	6963.09
459.48	7070.76
459.66	6930.33
459.84	7033.31
460.03	7265.02
460.21	7112.89
460.39	7030.97
460.57	7171.40
460.76	7164.38
460.94	7353.96
461.12	7185.44
461.31	7253.32
461.49	7110.55
461.67	7225.23
461.85	7379.71
462.04	7166.72
462.22	7646.53
462.40	7468.65
462.59	7454.61
462.77	7248.64
462.95	7485.03
463.13	7494.40
463.32	7372.69
463.50	7412.48
463.68	7576.31
463.86	7772.92
464.05	7463.97
464.23	7452.27
464.41	7730.79
464.59	7449.93
464.78	7833.77
464.96	7719.09
465.14	7569.29
465.32	7545.89
465.50	7908.67
465.69	7826.75
465.87	7751.85
466.05	7948.46
466.23	7822.07
466.41	7843.14
466.60	7934.42
466.78	7658.23
466.96	7896.97
467.14	7751.85
467.32	7864.20
467.51	8102.93
467.69	7903.99
467.87	7747.17
468.05	7911.01
468.23	7985.91
468.41	8053.78
468.60	7929.74
468.78	8013.99
468.96	8138.04
469.14	8336.99
469.32	8418.91
469.50	8091.23
469.69	8386.14
469.87	8231.66
470.05	8273.79
470.23	8262.09
470.41	8484.44
470.59	8386.14
470.77	8285.50
470.95	8493.80
471.14	8631.90
471.32	8610.83
471.50	8659.98
471.68	8599.13
471.86	8791.05
472.04	8884.67
472.22	8947.87
472.40	8685.73
472.58	8748.92
472.77	8858.93
472.95	8861.27
473.13	9158.52
473.31	8912.76
473.49	8912.76
473.67	9001.70
473.85	9102.34
474.03	9448.74
474.21	9291.93
474.39	9493.21
474.57	9334.06
474.75	9329.38
474.93	9474.49
475.12	9453.42
475.30	9481.51
475.48	9717.90
475.66	9516.62
475.84	9823.23
476.02	9837.27
476.20	9715.56
476.38	10033.88
476.56	10373.25
476.74	10078.35
476.92	10033.88
477.10	9951.96
477.28	10207.08
477.46	10384.96
477.64	10267.93
477.82	10567.52
478.00	10696.25
478.18	10642.42
478.36	10803.91
478.54	10846.04
478.72	10682.20
478.90	10775.83
479.08	11183.08
479.26	11201.80
479.44	10979.45
479.62	11164.36
479.80	11325.85
479.98	11613.74
480.16	11824.39
480.34	11492.03
480.52	11824.39
480.70	11740.13
480.88	11812.68
481.06	11597.35
481.24	11751.83
481.41	12049.08
481.59	12271.43
481.77	12374.41
481.95	12189.51
482.13	12512.50
482.31	12493.78
482.49	12706.77
482.67	12737.20
482.85	12985.29
483.03	12865.92
483.21	13043.81
483.39	13139.77
483.57	13111.68
483.74	13336.37
483.92	13366.80
484.10	13394.89
484.28	13619.58
484.46	13879.38
484.64	14075.98
484.82	13631.28
485.00	14104.07
485.18	14164.92
485.35	14789.85
485.53	14422.38
485.71	14525.36
485.89	14839.00
486.07	14691.54
486.25	14661.12
486.43	15178.37
486.61	14974.75
486.78	14984.11
486.96	15342.21
487.14	15344.55
487.32	15510.73
487.50	15543.50
487.68	15602.01
487.85	15878.19
488.03	16023.31
488.21	16044.37
488.39	16376.73
488.57	16496.10
488.75	16498.44
488.92	16549.93
489.10	16690.36
489.28	16821.43
489.46	17013.35
489.64	17006.33
489.81	17378.48
489.99	17331.67
490.17	17240.39
490.35	17633.60
490.53	17338.69
490.70	17949.57
490.88	17528.27
491.06	18031.49
491.24	18017.44
491.41	18078.30
491.59	18260.86
491.77	18092.34
491.95	18590.88
492.13	18445.76
492.30	19110.47
492.48	18640.03
492.66	19051.96
492.84	18621.30
493.01	19267.29
493.19	19257.93
493.37	19253.25
493.54	19487.30
493.72	19321.12
493.90	19789.23
494.08	19681.56
494.25	20081.80
494.43	19908.60
494.61	20308.83
494.79	20212.87
494.96	20269.04
495.14	20514.80
495.32	20875.24
495.49	20826.09
495.67	20779.28
495.85	21198.23
496.02	21259.09
496.20	21364.41
496.38	21490.80
496.55	21317.60
496.73	21717.83
496.91	21245.04
497.09	21738.90
497.26	21778.68
497.44	21876.99
497.62	22176.58
497.79	22347.44
497.97	22054.87
498.14	22427.01
498.32	22335.73
498.50	22625.96
498.67	22717.24
498.85	22731.28
499.03	22731.28
499.20	23204.07
499.38	23002.78
499.56	23459.19
499.73	23433.44
499.91	23190.03
500.08	23782.18
500.26	23152.58
500.44	23403.02
500.61	23768.14
500.79	23639.41
500.97	23999.85
501.14	24240.93
501.32	24449.24
501.49	24407.11
501.67	24294.76
501.84	24355.61
502.02	24629.46
502.20	24491.37
502.37	24683.29
502.55	24528.81
502.72	24868.19
502.90	24814.36
503.07	24645.84
503.25	24643.50
503.43	25085.86
503.60	25207.57
503.78	25013.31
503.95	25214.59
504.13	25359.70
504.30	25680.36
504.48	25560.99
504.65	25366.73
504.83	25806.75
505.01	26052.50
505.18	25577.37
505.36	26057.18
505.53	26047.82
505.71	26167.19
505.88	26267.83
506.06	26150.81
506.23	26457.42
506.41	26375.50
506.58	26316.98
506.76	26682.11
506.93	26682.11
507.11	26808.50
507.28	27335.12
507.46	27115.11
507.63	26852.97
507.81	27248.52
507.98	27021.48
508.16	27140.85
508.33	27232.13
508.50	27484.91
508.68	27580.87
508.85	27779.82
509.03	27660.45
509.20	27587.89
509.38	27922.59
509.55	27730.67
509.73	28273.67
509.90	27590.24
510.08	28119.20
510.25	28259.63
510.42	28336.87
510.60	28294.74
510.77	28767.52
510.95	28875.19
511.12	28734.76
511.30	28512.41
511.47	28776.89
511.64	28631.77
511.82	28910.30
511.99	28837.74
512.17	29472.03
512.34	29205.20
512.51	29046.05
512.69	29448.62
512.86	29359.68
513.04	29455.64
513.21	29586.71
513.38	29755.23
513.56	29556.28
513.73	29673.31
513.90	29942.47
514.08	29860.55
514.25	30192.91
514.43	30232.70
514.60	30017.37
514.77	30600.16
514.95	30253.76
515.12	30235.04
515.29	30569.74
515.47	30831.88
515.64	30471.43
515.81	30759.32
515.99	30553.35
516.16	31372.54
516.33	31178.28
516.51	30827.20
516.68	30764.00
516.85	31094.02
517.03	31412.33
517.20	31573.83
517.37	31164.23
517.54	31337.43
517.72	31564.46
517.89	31332.75
518.06	31477.86
518.24	31447.44
518.41	31613.62
518.58	31421.69
518.75	31515.31
518.93	31847.67
519.10	31992.78
519.27	31697.88
519.45	31807.88
519.62	31997.46
519.79	32016.19
519.96	32086.40
520.14	32268.97
520.31	32109.81
520.48	32395.35
520.65	32219.81
520.83	33069.43
521.00	32685.58
521.17	32484.30
521.34	33060.07
521.52	32699.62
521.69	33270.72
521.86	33441.57
522.03	33132.62
522.20	33251.99
522.38	33441.57
522.55	33420.51
522.72	33373.70
522.89	33383.06
523.07	34211.61
523.24	33497.75
523.41	33825.42
523.58	33680.31
523.75	34061.82
523.92	33830.10
524.10	34092.24
524.27	34022.03
524.44	34059.48
524.61	34235.02
524.78	34010.32
524.96	34452.69
525.13	34403.53
525.30	34752.27
525.47	34710.14
525.64	34031.39
525.81	34429.28
525.98	34279.49
526.16	35152.51
526.33	34504.18
526.50	34972.28
526.67	34794.40
526.84	34855.26
527.01	35253.15
527.18	35161.87
527.36	35126.76
527.53	35236.77
527.70	35262.51
527.87	35592.53
528.04	35725.94
528.21	35178.25
528.38	35505.93
528.55	35683.81
528.72	35257.83
528.89	35330.39
529.07	35639.34
529.24	35463.80
529.41	36027.87
529.58	35749.34
529.75	36126.17
529.92	36074.68
530.09	36016.16
530.26	36102.76
530.43	36168.30
530.60	36109.78
530.77	35615.93
530.94	36257.24
531.11	36027.87
531.28	36327.45
531.46	36512.36
531.63	36437.46
531.80	36109.78
531.97	36718.32
532.14	36769.82
532.31	36463.21
532.48	36439.80
532.65	36797.90
532.82	36673.85
532.99	36912.59
533.16	36603.64
533.33	37160.69
533.50	36711.30
533.67	37099.83
533.84	36673.85
534.01	37219.20
534.18	37216.86
534.35	37727.10
534.52	37174.73
534.69	37923.70
534.86	37406.44
535.03	37186.43
535.20	37448.57
535.37	37790.29
535.54	37883.91
535.71	37921.36
535.88	38162.43
536.05	37748.16
536.22	38333.29
536.38	37731.78
536.55	37904.98
536.72	37954.13
536.89	38153.07
537.06	38220.95
537.23	38342.66
537.40	38209.25
537.57	38370.74
537.74	37844.12
537.91	38080.52
538.08	38955.88
538.25	37883.91
538.42	38326.27
538.59	38361.38
538.75	38583.73
538.92	38864.60
539.09	38670.33
539.26	38597.77
539.43	38768.63
539.60	38843.53
539.77	38799.06
539.94	38939.49
540.11	39091.63
540.28	38780.34
540.44	38824.81
540.61	38960.56
540.78	38810.76
540.95	39281.21
541.12	38962.90
541.29	39386.54
541.46	39173.55
541.62	39100.99
541.79	39276.53
541.96	39321.00
542.13	39365.47
542.30	39082.27
542.47	39690.80
542.63	39845.28
542.80	40048.91
542.97	39770.38
543.14	40252.53
543.31	39882.73
543.48	40147.21
543.64	40701.92
543.81	40514.67
543.98	40196.36
544.15	39805.49
544.32	40201.04
544.48	40718.30
544.65	40369.56
544.82	40641.06
544.99	40203.38
545.16	40240.83
545.32	40175.30
545.49	40701.92
545.66	40662.13
545.83	40460.84
546.00	40893.84
546.16	40961.72
546.33	40261.90
546.50	40355.52
546.67	41015.55
546.83	40224.45
547.00	40598.93
547.17	40816.60
547.34	40699.58
547.50	41186.41
547.67	40942.99
547.84	41006.19
548.00	41200.45
548.17	41415.78
548.34	41628.77
548.51	41476.63
548.67	41551.53
548.84	41076.40
549.01	41247.26
549.18	41174.70
549.34	41474.29
549.51	41507.06
549.68	41488.34
549.84	41509.40
550.01	41544.51
550.18	41647.49
550.34	41727.07
550.51	41570.25
550.68	41832.39
550.84	41228.54
551.01	42328.59
551.18	41652.17
551.34	41738.77
551.51	41904.95
551.68	42000.91
551.84	41837.08
552.01	41998.57
552.18	41741.11
552.34	41642.81
552.51	42253.69
552.68	41951.76
552.84	41848.78
553.01	42312.20
553.18	42174.11
553.34	42272.42
553.51	42408.17
553.67	42892.66
553.84	42712.44
554.01	42249.01
554.17	42209.22
554.34	42703.07
554.51	42560.30
554.67	42777.97
554.84	42728.82
555.00	42546.26
555.17	42340.29
555.33	42815.42
555.50	42660.94
555.67	43016.71
555.83	42941.81
556.00	42794.36
556.16	42864.57
556.33	43075.22
556.50	43255.44
556.66	42887.98
556.83	43239.06
556.99	42864.57
557.16	43143.09
557.32	43194.59
557.49	43297.57
557.65	42555.62
557.82	43304.59
557.98	43533.96
558.15	43430.98
558.32	43702.48
558.48	42560.30
558.65	43477.79
558.81	43215.65
558.98	43213.31
559.14	43201.61
559.31	42862.23
559.47	43311.61
559.64	43423.96
559.80	43150.12
559.97	43746.95
560.13	43248.42
560.30	43470.77
560.46	43849.94
560.63	43426.30
560.79	43901.43
560.96	43887.39
561.12	44135.48
561.29	43746.95
561.45	43599.50
561.61	43896.75
561.78	43679.08
561.94	43704.82
562.11	43847.60
562.27	43599.50
562.44	43784.40
562.60	44058.24
562.77	43625.25
562.93	43988.03
563.10	43784.40
563.26	43716.53
563.42	44121.44
563.59	43878.02
563.75	44114.42
563.92	43732.91
564.08	44091.01
564.24	44208.04
564.41	43863.98
564.57	43988.03
564.74	43866.32
564.90	44481.88
565.07	44158.89
565.23	43896.75
565.39	44505.29
565.56	44304.00
565.72	44039.52
565.88	44390.60
566.05	44067.61
566.21	44123.78
566.38	44282.94
566.54	44516.99
566.70	44198.68
566.87	44203.36
567.03	44519.33
567.19	44554.44
567.36	44542.74
567.52	44460.82
567.68	44311.02
567.85	44811.90
568.01	44648.06
568.17	44634.02
568.34	44254.85
568.50	44587.21
568.66	44470.18
568.83	44516.99
568.99	44758.06
569.15	44254.85
569.32	44516.99
569.48	44802.53
569.64	44893.82
569.81	44346.13
569.97	44697.21
570.13	44844.66
570.30	44542.74
570.46	44753.38
570.62	44776.79
570.78	44556.78
570.95	44795.51
571.11	44629.34
571.27	44456.14
571.43	44451.45
571.60	44561.46
571.76	44751.04
571.92	44783.81
572.09	44601.25
572.25	44610.61
572.41	44612.95
572.57	44989.78
572.74	45090.42
572.90	44671.46
573.06	44797.85
573.22	44875.09
573.38	45144.25
573.55	44978.07
573.71	45153.62
573.87	45333.84
574.03	44978.07
574.20	44933.60
574.36	45006.16
574.52	45331.50
574.68	44765.09
574.84	45111.49
575.01	45532.78
575.17	45436.82
575.33	45429.80
575.49	45076.38
575.65	45001.48
575.82	45251.92
575.98	44692.53
576.14	45170.00
576.30	45294.05
576.46	45146.59
576.62	44804.88
576.79	44994.46
576.95	44959.35
577.11	45120.85
577.27	45265.96
577.43	45151.27
577.59	45247.24
577.75	44863.39
577.92	45081.06
578.08	45064.67
578.24	45013.18
578.40	44975.73
578.56	45282.34
578.72	45062.33
578.88	45275.32
579.04	45228.51
579.21	44739.34
579.37	45483.63
579.53	45277.66
579.69	45188.72
579.85	44978.07
580.01	45031.91
580.17	45240.21
580.33	45476.61
580.49	45422.78
580.65	45727.05
580.82	45359.58
580.98	45118.51
581.14	44741.68
581.30	45563.21
581.46	45006.16
581.62	45457.88
581.78	45001.48
581.94	45439.16
582.10	44893.82
582.26	45563.21
582.42	45352.56
582.58	44898.50
582.74	45310.43
582.90	44975.73
583.06	45806.62
583.22	45130.21
583.38	45244.90
583.54	45235.53
583.70	45036.59
583.86	45925.99
584.02	45233.19
584.18	45591.30
584.34	45633.42
584.50	45654.49
584.66	45642.79
584.82	45432.14
584.98	45581.93
585.14	45357.24
585.30	45242.56
585.46	45303.41
585.62	45603.00
585.78	45359.58
585.94	44921.90
586.10	45420.44
586.26	44905.52
586.42	44685.51
586.58	45509.38
586.74	45350.22
586.90	45001.48
587.06	45312.77
587.22	45432.14
587.38	45296.39
587.54	45439.16
587.70	46057.06
587.86	45443.84
588.02	45317.45
588.18	45694.28
588.34	45476.61
588.49	45720.02
588.65	45577.25
588.81	45626.40
588.97	45720.02
589.13	45326.81
589.29	45504.70
589.45	45647.47
589.61	45382.99
589.77	45766.84
589.93	45392.35
590.08	45865.14
