SpectraSuite Data File
++++++++++++++++++++++++++++++++++++
Date: Fri Oct 25 11:25:53 EDT 2013
User: price-jones
Dark Spectrum Present: No
Reference Spectrum Present: No
Number of Sampled Component Spectra: 1
Spectrometers: USB2+H05261
Integration Time (usec): 100000 (USB2+H05261)
Spectra Averaged: 1 (USB2+H05261)
Boxcar Smoothing: 0 (USB2+H05261)
Correct for Electrical Dark: No (USB2+H05261)
Strobe/Lamp Enabled: No (USB2+H05261)
Correct for Detector Non-linearity: No (USB2+H05261)
Correct for Stray Light: No (USB2+H05261)
Number of Pixels in Processed Spectrum: 2048
>>>>>Begin Processed Spectral Data<<<<<
365.73	266.82
365.92	266.82
366.12	266.82
366.32	173.20
366.52	135.75
366.72	189.58
366.91	210.65
367.11	156.82
367.31	194.26
367.51	95.96
367.70	117.03
367.90	156.82
368.10	175.54
368.30	210.65
368.49	124.05
368.69	147.45
368.89	161.50
369.09	140.43
369.28	142.77
369.48	110.01
369.68	294.91
369.87	245.76
370.07	152.13
370.27	231.71
370.47	353.42
370.66	552.37
370.86	641.31
371.06	627.26
371.25	786.42
371.45	711.52
371.65	678.76
371.84	716.20
372.04	613.22
372.24	690.46
372.44	741.95
372.63	723.23
372.83	709.18
373.03	753.65
373.22	690.46
373.42	760.67
373.62	784.08
373.81	784.08
374.01	821.53
374.21	828.55
374.40	809.83
374.60	877.70
374.79	866.00
374.99	800.46
375.19	819.19
375.38	809.83
375.58	821.53
375.78	837.91
375.97	856.64
376.17	816.85
376.37	833.23
376.56	873.02
376.76	875.36
376.95	861.32
377.15	898.77
377.35	922.17
377.54	898.77
377.74	851.96
377.93	861.32
378.13	823.87
378.33	961.96
378.52	875.36
378.72	1013.45
378.91	968.98
379.11	919.83
379.31	840.25
379.50	940.90
379.70	971.32
379.89	945.58
380.09	1022.81
380.28	1036.86
380.48	1008.77
380.68	961.96
380.87	957.28
381.07	1069.62
381.26	973.66
381.46	1006.43
381.65	1041.54
381.85	1022.81
382.04	1039.20
382.24	1158.57
382.43	1013.45
382.63	1039.20
382.83	1081.33
383.02	1102.39
383.22	1214.74
383.41	1069.62
383.61	1048.56
383.80	1135.16
384.00	1121.12
384.19	1214.74
384.39	1142.18
384.58	1149.20
384.78	1153.88
384.97	1212.40
385.17	1184.31
385.36	1188.99
385.56	1093.03
385.75	1212.40
385.95	1207.72
386.14	1196.01
386.34	1249.85
386.53	1273.25
386.72	1238.14
386.92	1320.06
387.11	1212.40
387.31	1221.76
387.50	1266.23
387.70	1240.48
387.89	1294.32
388.09	1317.72
388.28	1233.46
388.48	1198.35
388.67	1343.47
388.86	1301.34
389.06	1308.36
389.25	1432.41
389.45	1315.38
389.64	1306.02
389.84	1387.94
390.03	1364.53
390.22	1380.92
390.42	1334.11
390.61	1411.34
390.81	1385.60
391.00	1378.58
391.19	1378.58
391.39	1387.94
391.58	1416.02
391.78	1383.26
391.97	1458.15
392.16	1544.75
392.36	1544.75
392.55	1488.58
392.75	1633.69
392.94	1476.88
393.13	1509.65
393.33	1533.05
393.52	1584.54
393.71	1654.76
393.91	1591.56
394.10	1521.35
394.29	1607.95
394.49	1584.54
394.68	1600.93
394.88	1570.50
395.07	1687.53
395.26	1671.14
395.46	1673.48
395.65	1678.16
395.84	1657.10
396.04	1790.51
396.23	1724.97
396.42	1736.68
396.62	1778.81
396.81	1851.36
397.00	1760.08
397.19	1694.55
397.39	1809.23
397.58	1781.15
397.77	1858.39
397.97	1867.75
398.16	1830.30
398.35	1874.77
398.55	1802.21
398.74	1916.90
398.93	1891.15
399.12	1916.90
399.32	1863.07
399.51	1968.39
399.70	2031.58
399.90	1989.46
400.09	1902.86
400.28	2073.71
400.47	1919.24
400.67	2118.18
400.86	2104.14
401.05	2090.10
401.24	2106.48
401.44	2146.27
401.63	2038.61
401.82	2076.06
402.01	2097.12
402.21	2169.68
402.40	2218.83
402.59	2197.76
402.78	2136.91
402.97	2179.04
403.17	2228.19
403.36	2256.28
403.55	2249.25
403.74	2223.51
403.93	2452.88
404.13	2443.52
404.32	2256.28
404.51	2270.32
404.70	2319.47
404.89	2282.02
405.09	2490.33
405.28	2455.22
405.47	2455.22
405.66	2427.14
405.85	2581.61
406.05	2399.05
406.24	2509.05
406.43	2581.61
406.62	2565.23
406.81	2745.45
407.00	2691.62
407.20	2635.44
407.39	2532.46
407.58	2712.68
407.77	2691.62
407.96	2661.19
408.15	2789.92
408.34	2708.00
408.54	2799.28
408.73	2796.94
408.92	2803.96
409.11	2932.69
409.30	2836.73
409.49	2787.58
409.68	2956.10
409.87	2911.63
410.07	2928.01
410.26	2963.12
410.45	2960.78
410.64	3012.27
410.83	3110.57
411.02	3084.83
411.21	3105.89
411.40	3169.09
411.59	3225.26
411.78	3117.59
411.98	3145.68
412.17	3164.40
412.36	3279.09
412.55	3358.67
412.74	3251.00
412.93	3358.67
413.12	3328.24
413.31	3417.18
413.50	3513.14
413.69	3522.51
413.88	3637.19
414.07	3482.72
414.26	3552.93
414.45	3485.06
414.64	3648.90
414.83	3868.91
415.02	3740.18
415.22	3948.48
415.41	3997.64
415.60	3822.09
415.79	3894.65
415.98	3964.87
416.17	3957.85
416.36	4088.92
416.55	3999.98
416.74	4056.15
416.93	3967.21
417.12	4067.85
417.31	4128.70
417.50	4028.06
417.69	4262.12
417.88	4194.24
418.07	4145.09
418.26	4287.86
418.45	4297.22
418.64	4486.81
418.83	4482.13
419.02	4463.40
419.21	4479.79
419.39	4589.79
419.58	4435.32
419.77	4372.12
419.96	4610.86
420.15	4552.34
420.34	4500.85
420.53	4638.94
420.72	4699.80
420.91	4793.42
421.10	4823.84
421.29	4671.71
421.48	4702.14
421.67	4807.46
421.86	4765.33
422.05	4922.15
422.24	4720.86
422.43	4844.91
422.61	4943.21
422.80	4936.19
422.99	5057.90
423.18	4980.66
423.37	5015.77
423.56	4936.19
423.75	5097.69
423.94	4936.19
424.13	4765.33
424.32	4627.24
424.50	4887.04
424.69	5011.09
424.88	5097.69
425.07	4933.85
425.26	4858.95
425.45	4856.61
425.64	4868.31
425.83	4990.02
426.01	5039.17
426.20	5039.17
426.39	5036.83
426.58	5011.09
426.77	5013.43
426.96	5114.07
427.15	5067.26
427.33	5355.15
427.52	5121.09
427.71	5188.97
427.90	5149.18
428.09	5144.50
428.28	5373.87
428.46	5362.17
428.65	5336.42
428.84	5493.24
429.03	5451.11
429.22	5327.06
429.40	5516.64
429.59	5497.92
429.78	5266.21
429.97	5345.78
430.16	5490.90
430.34	5561.11
430.53	5792.83
430.72	5687.50
430.91	5682.82
431.10	5682.82
431.28	5778.78
431.47	5820.91
431.66	5893.47
431.85	5701.54
432.03	5973.05
432.22	5893.47
432.41	5874.74
432.60	5923.90
432.79	5870.06
432.97	5844.32
433.16	6036.24
433.35	6040.92
433.54	6115.82
433.72	6193.06
433.91	6115.82
434.10	6239.87
434.28	5935.60
434.47	6122.84
434.66	6361.58
434.85	6244.55
435.03	6272.64
435.22	6223.48
435.41	6464.56
435.59	6328.81
435.78	6462.22
435.97	6490.31
436.16	6431.79
436.34	6303.06
436.53	6406.05
436.72	6679.89
436.90	6305.40
437.09	6665.85
437.28	6534.78
437.46	6572.22
437.65	6640.10
437.84	6778.19
438.02	6658.82
438.21	6649.46
438.40	6635.42
438.58	6832.02
438.77	7059.06
438.96	7007.56
439.14	7117.57
439.33	7026.29
439.52	7012.24
439.70	7204.17
439.89	7325.88
440.08	7328.22
440.26	7375.03
440.45	7339.92
440.63	7470.99
440.82	7606.74
441.01	7410.14
441.19	7674.62
441.38	7606.74
441.57	7714.41
441.75	7740.15
441.94	7873.56
442.12	7915.69
442.31	8271.45
442.50	8231.66
442.68	7929.74
442.87	7976.55
443.05	7953.14
443.24	8170.81
443.43	8100.59
443.61	8210.60
443.80	8311.24
443.98	8135.70
444.17	7847.82
444.35	8353.37
444.54	8173.15
444.73	8362.73
444.91	8084.21
445.10	8248.05
445.28	8229.32
445.47	8269.11
445.65	8383.80
445.84	8496.14
446.02	8547.64
446.21	8411.89
446.39	8170.81
446.58	8451.67
446.77	8432.95
446.95	8390.82
447.14	8308.90
447.32	8659.98
447.51	8582.74
447.69	8454.02
447.88	8627.21
448.06	8744.24
448.25	8498.49
448.43	8381.46
448.62	8484.44
448.80	8545.30
448.99	8594.45
449.17	8898.72
449.36	8690.41
449.54	8858.93
449.73	9050.85
449.91	8985.32
450.10	8631.90
450.28	9202.99
450.46	8990.00
450.65	8919.78
450.83	8819.14
451.02	9015.74
451.20	9022.77
451.39	9029.79
451.57	9118.73
451.76	8982.98
451.94	9114.05
452.13	9273.20
452.31	9107.02
452.49	9125.75
452.68	9291.93
452.86	9357.46
453.05	9357.46
453.23	9572.79
453.42	9453.42
453.60	9210.01
453.78	9554.07
453.97	9373.85
454.15	9474.49
454.34	9533.00
454.52	9947.28
454.70	9738.97
454.89	9731.95
455.07	9811.53
455.26	9912.17
455.44	10017.49
455.62	10125.16
455.81	9898.13
455.99	9909.83
456.17	10068.98
456.36	9909.83
456.54	10129.84
456.73	10174.31
456.91	10363.89
457.09	10340.49
457.28	10494.96
457.46	10202.40
457.64	10338.15
457.83	10354.53
458.01	10490.28
458.19	10726.68
458.38	10675.18
458.56	10656.46
458.74	10518.37
458.93	10509.01
459.11	10607.31
459.29	10651.78
459.48	10836.68
459.66	10717.31
459.84	11000.52
460.03	11117.54
460.21	10960.73
460.39	10785.19
460.57	10846.04
460.76	11131.59
460.94	11070.73
461.12	11028.60
461.31	11094.14
461.49	11250.96
461.67	11257.98
461.85	11197.12
462.04	11236.91
462.22	11632.46
462.40	11494.37
462.59	11236.91
462.77	11672.25
462.95	11613.74
463.13	11597.35
463.32	11363.30
463.50	11714.38
463.68	12077.16
463.86	11730.76
464.05	11791.62
464.23	11599.70
464.41	11903.96
464.59	11798.64
464.78	12109.93
464.96	11992.90
465.14	11796.30
465.32	12128.66
465.50	12238.66
465.69	12170.79
465.87	12035.03
466.05	12049.08
466.23	12091.21
466.41	12273.77
466.60	12259.73
466.78	12168.45
466.96	12437.61
467.14	12395.48
467.32	12435.27
467.51	12517.18
467.69	12212.92
467.87	12430.59
468.05	12428.24
468.23	12313.56
468.41	12285.47
468.60	12566.34
468.78	12638.89
468.96	12650.60
469.14	12854.22
469.32	12924.44
469.50	12688.04
469.69	13062.53
469.87	13020.40
470.05	13130.41
470.23	12992.31
470.41	13064.87
470.59	13252.11
470.77	13083.59
470.95	13135.09
471.14	13465.10
471.32	13242.75
471.50	13696.82
471.68	13390.20
471.86	13717.88
472.04	13575.11
472.22	13879.38
472.40	13762.35
472.58	13893.42
472.77	13951.93
472.95	14295.99
473.13	14530.05
473.31	14260.88
473.49	14188.33
473.67	14057.26
473.85	14373.23
474.03	14721.97
474.21	14527.71
474.39	14728.99
474.57	14516.00
474.75	14855.38
474.93	14885.81
475.12	14871.76
475.30	15178.37
475.48	15016.88
475.66	15051.99
475.84	15023.90
476.02	15564.56
476.20	15435.83
476.38	15613.71
476.56	16116.93
476.74	15864.15
476.92	15730.74
477.10	15805.64
477.28	16278.43
477.46	16217.57
477.64	16067.78
477.82	16269.06
478.00	16854.20
478.18	16685.68
478.36	16631.85
478.54	17401.88
478.72	16901.01
478.90	17462.74
479.08	17345.71
479.26	17649.98
479.44	17551.68
479.62	17851.27
479.80	17951.91
479.98	17846.58
480.16	18380.23
480.34	18129.79
480.52	18478.53
480.70	18518.32
480.88	18291.29
481.06	18431.72
481.24	18523.00
481.41	18932.59
481.59	19075.37
481.77	19515.39
481.95	19679.22
482.13	19557.52
482.31	19597.31
482.49	20182.44
482.67	20091.16
482.85	20166.06
483.03	20460.96
483.21	20713.74
483.39	20875.24
483.57	20769.91
483.74	21198.23
483.92	21202.91
484.10	21151.42
484.28	21799.75
484.46	22047.85
484.64	22190.62
484.82	21694.43
485.00	22003.38
485.18	22602.55
485.35	23168.96
485.53	22913.84
485.71	23042.57
485.89	23431.10
486.07	23171.30
486.25	23377.27
486.43	23552.81
486.61	23541.11
486.78	24034.96
486.96	23924.96
487.14	24737.12
487.32	24568.60
487.50	24542.86
487.68	25130.33
487.85	25504.82
488.03	25619.50
488.21	25642.91
488.39	25537.59
488.57	25963.56
488.75	25851.22
488.92	26225.70
489.10	26499.55
489.28	26574.44
489.46	27080.00
489.64	26974.67
489.81	27449.80
489.99	27569.17
490.17	27770.46
490.35	27960.04
490.53	28149.62
490.70	28285.37
490.88	28367.29
491.06	28793.27
491.24	28720.71
491.41	28762.84
491.59	29230.95
491.77	29172.44
491.95	29656.93
492.13	29975.24
492.30	29783.32
492.48	30148.44
492.66	29907.37
492.84	30080.56
493.01	30492.50
493.19	30328.66
493.37	30806.13
493.54	31274.24
493.72	31655.75
493.90	31414.67
494.08	31812.56
494.25	32065.34
494.43	31941.29
494.61	31943.63
494.79	32367.27
494.96	32240.88
495.14	32456.21
495.32	33092.83
495.49	32982.83
495.67	33249.65
495.85	33528.17
496.02	33874.57
496.20	33734.14
496.38	34019.69
496.55	34050.11
496.73	34574.39
496.91	34920.79
497.09	34813.13
497.26	35285.92
497.44	35133.78
497.62	35428.69
497.79	35936.59
497.97	35424.01
498.14	35569.12
498.32	35854.67
498.50	35922.54
498.67	36517.04
498.85	36041.91
499.03	36371.92
499.20	36643.43
499.38	36982.80
499.56	36840.03
499.73	37474.32
499.91	37151.32
500.08	37333.89
500.26	37404.10
500.44	37673.26
500.61	37881.57
500.79	37673.26
500.97	38094.56
501.14	38426.92
501.32	38274.78
501.49	38426.92
501.67	38359.04
501.84	39222.70
502.02	38382.45
502.20	38834.17
502.37	39267.17
502.55	38871.62
502.72	39054.18
502.90	39154.82
503.07	39496.54
503.25	39704.85
503.43	39732.93
503.60	40016.14
503.78	40072.31
503.95	39878.05
504.13	40514.67
504.30	40268.92
504.48	40095.72
504.65	40561.48
504.83	40961.72
505.01	41165.34
505.18	41270.67
505.36	41450.89
505.53	41158.32
505.71	41427.48
505.88	41383.01
506.06	41237.90
506.23	41834.74
506.41	41446.21
506.58	41914.31
506.76	41584.30
506.93	42478.38
507.11	41701.32
507.28	42534.56
507.46	42295.82
507.63	42600.09
507.81	42995.64
507.98	42628.18
508.16	42995.64
508.33	42735.84
508.50	43040.11
508.68	43423.96
508.85	43948.24
509.03	43833.55
509.20	43786.74
509.38	43981.01
509.55	43945.90
509.73	44376.56
509.90	44210.38
510.08	44498.26
510.25	44355.49
510.42	44535.71
510.60	44832.96
510.77	44919.56
510.95	45490.65
511.12	44980.42
511.30	45010.84
511.47	45137.23
511.64	45574.91
511.82	45663.85
511.99	45368.94
512.17	45532.78
512.34	45350.22
512.51	46506.44
512.69	45991.53
512.86	46260.69
513.04	46658.58
513.21	46373.03
513.38	46628.15
513.56	46902.00
513.73	46775.61
513.90	47302.23
514.08	46698.37
514.25	47012.00
514.43	47194.56
514.60	47262.44
514.77	47037.75
514.95	47484.79
515.12	47702.46
515.29	47136.05
515.47	47327.97
515.64	47880.34
515.81	47751.61
515.99	47980.98
516.16	48322.70
516.33	48449.09
516.51	48521.65
516.68	48311.00
516.85	48392.92
517.03	48797.83
517.20	48842.30
517.37	48364.83
517.54	49162.95
517.72	49132.53
517.89	48985.07
518.06	49088.06
518.24	49155.93
518.41	49322.11
518.58	49289.34
518.75	49212.10
518.93	49509.35
519.10	49771.49
519.27	49970.44
519.45	49436.80
519.62	49881.50
519.79	49846.39
519.96	49860.43
520.14	49869.79
520.31	49851.07
520.48	50223.22
520.65	50113.21
520.83	50122.57
521.00	50639.83
521.17	50122.57
521.34	50642.17
521.52	50962.82
521.69	50775.58
521.86	51023.68
522.03	51388.80
522.20	51285.82
522.38	51145.39
522.55	51227.31
522.72	51248.37
522.89	51372.42
523.07	51409.87
523.24	51269.43
523.41	51627.54
523.58	51393.48
523.75	51606.47
523.92	51744.56
524.10	51943.51
524.27	51796.06
524.44	52027.77
524.61	51798.40
524.78	52362.46
524.96	52095.64
525.13	52175.22
525.30	52212.67
525.47	52488.85
525.64	52516.94
525.81	52406.94
525.98	52505.24
526.16	52409.28
526.33	52699.50
526.50	52760.36
526.67	52697.16
526.84	52938.24
527.01	52786.10
527.18	52701.84
527.36	52966.32
527.53	53008.45
527.70	53404.00
527.87	53404.00
528.04	52966.32
528.21	52954.62
528.38	53188.67
528.55	53509.33
528.72	53202.72
528.89	53066.97
529.07	53322.08
529.24	53413.37
529.41	53661.46
529.58	53738.70
529.75	53624.01
529.92	53858.07
530.09	53839.34
530.26	53677.85
530.43	53820.62
530.60	53715.29
530.77	53923.60
530.94	53832.32
531.11	53930.62
531.28	54131.91
531.46	53949.35
531.63	54262.98
531.80	53904.88
531.97	54344.90
532.14	54438.52
532.31	54312.13
532.48	54398.73
532.65	54391.71
532.82	54248.94
532.99	54454.90
533.16	54518.10
533.33	54693.64
533.50	54967.48
533.67	54710.02
533.84	54656.19
534.01	54941.74
534.18	54855.14
534.35	55157.06
534.52	54820.03
534.69	54983.86
534.86	55180.47
535.03	54887.90
535.20	55028.34
535.37	55360.69
535.54	55196.85
535.71	55138.34
535.88	55346.65
536.05	55437.93
536.22	55489.42
536.38	55487.08
536.55	55327.92
536.72	55498.78
536.89	55250.69
537.06	55543.25
537.23	55629.85
537.40	55540.91
537.57	55660.28
537.74	55620.49
537.91	55959.87
538.08	55875.61
538.25	55524.53
538.42	55566.66
538.59	56037.11
538.75	55742.20
538.92	55779.65
539.09	55994.98
539.26	56156.47
539.43	56114.34
539.60	56128.39
539.77	56294.56
539.94	56229.03
540.11	56088.60
540.28	56362.44
540.44	56322.65
540.61	56346.06
540.78	56486.49
540.95	56341.38
541.12	56348.40
541.29	56273.50
541.46	56549.68
541.62	56605.86
541.79	56378.82
541.96	56287.54
542.13	56587.13
542.30	56610.54
542.47	56921.83
542.63	56563.73
542.80	56966.30
542.97	56952.26
543.14	57181.63
543.31	56980.34
543.48	57001.41
543.64	57160.56
543.81	57319.72
543.98	57380.57
544.15	57272.91
544.32	57389.94
544.48	57504.62
544.65	57415.68
544.82	57296.31
544.99	57343.12
545.16	57429.72
545.32	57303.34
545.49	57687.18
545.66	57392.28
545.83	57668.46
546.00	57846.34
546.16	57745.70
546.33	57481.22
546.50	57336.10
546.67	57631.01
546.83	57343.12
547.00	57633.35
547.17	57946.98
547.34	57724.63
547.50	58061.67
547.67	57944.64
547.84	57975.07
548.00	57949.32
548.17	57925.92
548.34	58024.22
548.51	57986.77
548.67	58239.55
548.84	57965.71
549.01	57977.41
549.18	58192.74
549.34	58108.48
549.51	58260.62
549.68	58064.01
549.84	58260.62
550.01	58309.77
550.18	58094.44
550.34	58340.19
550.51	58403.39
550.68	58412.75
550.84	58202.10
551.01	58396.37
551.18	58372.96
551.34	58674.89
551.51	58433.81
551.68	58410.41
551.84	58534.46
552.01	58429.13
552.18	58674.89
552.34	58417.43
552.51	58543.82
552.68	58529.78
552.84	58497.01
553.01	58651.48
553.18	58674.89
553.34	58777.87
553.51	58681.91
553.67	58798.94
553.84	58859.79
554.01	58880.86
554.17	58967.46
554.34	59061.08
554.51	58831.71
554.67	59065.76
554.84	58979.16
555.00	59196.83
555.17	58780.21
555.33	59079.80
555.50	59072.78
555.67	59119.59
555.83	58876.18
556.00	58965.12
556.16	59332.58
556.33	59306.83
556.50	58962.78
556.66	59253.00
556.83	59091.51
556.99	59311.52
557.16	59367.69
557.32	59529.19
557.49	59526.84
557.65	59320.88
557.82	59238.96
557.98	59271.73
558.15	59571.32
558.32	59564.29
558.48	59281.09
558.65	59381.73
558.81	59477.69
558.98	59477.69
559.14	59470.67
559.31	59594.72
559.47	59590.04
559.64	59505.78
559.80	59580.68
559.97	59770.26
560.13	59391.09
560.30	59760.90
560.46	59744.51
560.63	59529.19
560.79	59934.10
560.96	59702.38
561.12	59749.20
561.29	59742.17
561.45	59697.70
561.61	59742.17
561.78	59709.41
561.94	59835.80
562.11	59700.04
562.27	59847.50
562.44	60016.02
562.60	59903.67
562.77	59934.10
562.93	59620.47
563.10	59955.16
563.26	59849.84
563.42	60123.68
563.59	59870.90
563.75	59826.43
563.92	59920.05
564.08	59810.05
564.24	60102.62
564.41	60107.30
564.57	60154.11
564.74	60097.94
564.90	60121.34
565.07	60069.85
565.23	59962.18
565.39	60128.36
565.56	59985.59
565.72	60001.97
565.88	60053.47
566.05	60133.04
566.21	60186.88
566.38	60402.21
566.54	60264.11
566.70	60200.92
566.87	60009.00
567.03	60111.98
567.19	60236.03
567.36	60245.39
567.52	60217.30
567.68	60624.56
567.85	60484.12
568.01	60240.71
568.17	60168.15
568.34	60423.27
568.50	60275.82
568.66	60163.47
568.83	60301.56
568.99	60271.14
569.15	60172.83
569.32	60243.05
569.48	60268.79
569.64	60495.83
569.81	60287.52
569.97	60348.37
570.13	60563.70
570.30	60350.71
570.46	60357.74
570.62	60521.57
570.78	60446.68
570.95	60568.38
571.11	60444.33
571.27	60516.89
571.43	60552.00
571.60	60418.59
571.76	60453.70
571.92	60521.57
572.09	60385.82
572.25	60526.25
572.41	60341.35
572.57	60477.10
572.74	60645.62
572.90	60505.19
573.06	60577.75
573.22	60413.91
573.38	60748.60
573.55	60542.64
573.71	60727.54
573.87	60566.04
574.03	60470.08
574.20	60858.61
574.36	60547.32
574.52	60573.06
574.68	60530.93
574.84	60746.26
575.01	60617.53
575.17	60671.37
575.33	60512.21
575.49	60374.12
575.65	60727.54
575.82	60493.49
575.98	60783.71
576.14	60762.65
576.30	60612.85
576.46	60622.22
576.62	60605.83
576.79	60767.33
576.95	60540.30
577.11	60662.00
577.27	60640.94
577.43	60816.48
577.59	60633.92
577.75	60748.60
577.92	60608.17
578.08	60734.56
578.24	60996.70
578.40	60970.96
578.56	60900.74
578.72	60882.02
578.88	60874.99
579.04	60741.58
579.21	60757.97
579.37	60860.95
579.53	61146.50
579.69	60601.15
579.85	60692.43
580.01	60764.99
580.17	60526.25
580.33	60842.23
580.49	60966.27
580.65	60919.46
580.82	60989.68
580.98	60732.22
581.14	60781.37
581.30	61102.03
581.46	60839.89
581.62	60956.91
581.78	60762.65
581.94	60938.19
582.10	60725.20
582.26	60690.09
582.42	60610.51
582.58	60764.99
582.74	60767.33
582.90	60907.76
583.06	60867.97
583.22	60811.80
583.38	60678.39
583.54	60987.34
583.70	60938.19
583.86	60818.82
584.02	60985.00
584.18	61052.87
584.34	60933.51
584.50	60776.69
584.66	60882.02
584.82	60779.03
584.98	61055.21
585.14	60959.25
585.30	60961.59
585.46	60835.20
585.62	60598.81
585.78	61200.33
585.94	60640.94
586.10	60867.97
586.26	60980.32
586.42	61186.28
586.58	61017.77
586.74	60867.97
586.90	60968.61
587.06	60793.07
587.22	61013.08
587.38	61017.77
587.54	60933.51
587.70	61057.56
587.86	61069.26
588.02	61062.24
588.18	61078.62
588.34	60797.76
