SpectraSuite Data File
++++++++++++++++++++++++++++++++++++
Date: Fri Oct 25 11:22:29 EDT 2013
User: price-jones
Dark Spectrum Present: No
Reference Spectrum Present: No
Number of Sampled Component Spectra: 1
Spectrometers: USB2+H05261
Integration Time (usec): 100000 (USB2+H05261)
Spectra Averaged: 1 (USB2+H05261)
Boxcar Smoothing: 0 (USB2+H05261)
Correct for Electrical Dark: No (USB2+H05261)
Strobe/Lamp Enabled: No (USB2+H05261)
Correct for Detector Non-linearity: No (USB2+H05261)
Correct for Stray Light: No (USB2+H05261)
Number of Pixels in Processed Spectrum: 2048
>>>>>Begin Processed Spectral Data<<<<<
365.73	245.76
365.92	245.76
366.12	245.76
366.32	102.98
366.52	149.79
366.72	98.30
366.91	128.73
367.11	107.66
367.31	112.35
367.51	107.66
367.70	126.39
367.90	121.71
368.10	102.98
368.30	124.05
368.49	170.86
368.69	159.16
368.89	128.73
369.09	140.43
369.28	147.45
369.48	177.88
369.68	131.07
369.87	170.86
370.07	208.31
370.27	238.73
370.47	306.61
370.66	571.09
370.86	695.14
371.06	610.88
371.25	688.12
371.45	692.80
371.65	634.29
371.84	697.48
372.04	718.54
372.24	732.59
372.44	702.16
372.63	685.78
372.83	709.18
373.03	720.88
373.22	732.59
373.42	741.95
373.62	758.33
373.81	807.48
374.01	924.51
374.21	781.74
374.40	819.19
374.60	777.06
374.79	786.42
374.99	863.66
375.19	837.91
375.38	802.80
375.58	821.53
375.78	896.43
375.97	875.36
376.17	882.38
376.37	840.25
376.56	823.87
376.76	844.93
376.95	908.13
377.15	901.11
377.35	842.59
377.54	919.83
377.74	884.72
377.93	854.30
378.13	866.00
378.33	896.43
378.52	957.28
378.72	894.08
378.91	926.85
379.11	943.24
379.31	915.15
379.50	880.04
379.70	1008.77
379.89	994.73
380.09	983.02
380.28	971.32
380.48	978.34
380.68	947.92
380.87	896.43
381.07	1086.01
381.26	1015.79
381.46	1043.88
381.65	1027.50
381.85	1020.47
382.04	1039.20
382.24	1034.52
382.43	1078.99
382.63	1086.01
382.83	1093.03
383.02	1109.41
383.22	1090.69
383.41	1083.67
383.61	1118.78
383.80	1146.86
384.00	1135.16
384.19	1170.27
384.39	1046.22
384.58	1174.95
384.78	1188.99
384.97	1160.91
385.17	1231.12
385.36	1102.39
385.56	1186.65
385.75	1196.01
385.95	1221.76
386.14	1226.44
386.34	1198.35
386.53	1287.29
386.72	1167.93
386.92	1219.42
387.11	1193.67
387.31	1313.04
387.50	1226.44
387.70	1254.53
387.89	1287.29
388.09	1200.69
388.28	1306.02
388.48	1301.34
388.67	1385.60
388.86	1416.02
389.06	1327.08
389.25	1390.28
389.45	1350.49
389.64	1376.24
389.84	1409.00
390.03	1378.58
390.22	1394.96
390.42	1378.58
390.61	1472.20
390.81	1385.60
391.00	1483.90
391.19	1493.26
391.39	1481.56
391.58	1469.86
391.78	1409.00
391.97	1474.54
392.16	1453.47
392.36	1547.09
392.55	1554.12
392.75	1476.88
392.94	1446.45
393.13	1476.88
393.33	1530.71
393.52	1558.80
393.71	1657.10
393.91	1629.01
394.10	1593.90
394.29	1647.74
394.49	1647.74
394.68	1696.89
394.88	1652.42
395.07	1696.89
395.26	1666.46
395.46	1647.74
395.65	1820.94
395.84	1792.85
396.04	1776.47
396.23	1741.36
396.42	1842.00
396.62	1788.17
396.81	1753.06
397.00	1703.91
397.19	1849.02
397.39	1870.09
397.58	1865.41
397.77	1832.64
397.97	1844.34
398.16	1881.79
398.35	1923.92
398.55	1769.44
398.74	1884.13
398.93	1914.56
399.12	1935.62
399.32	1982.43
399.51	2031.58
399.70	1949.67
399.90	1968.39
400.09	2031.58
400.28	2162.66
400.47	2047.97
400.67	2207.13
400.86	2115.84
401.05	2066.69
401.24	2169.68
401.44	2111.16
401.63	2057.33
401.82	2118.18
402.01	2221.17
402.21	2174.36
402.40	2228.19
402.59	2246.91
402.78	2214.15
402.97	2188.40
403.17	2289.04
403.36	2331.17
403.55	2228.19
403.74	2431.82
403.93	2324.15
404.13	2385.01
404.32	2328.83
404.51	2401.39
404.70	2548.84
404.89	2476.29
405.09	2513.74
405.28	2457.56
405.47	2441.18
405.66	2499.69
405.85	2483.31
406.05	2534.80
406.24	2464.58
406.43	2553.52
406.62	2623.74
406.81	2796.94
407.00	2593.31
407.20	2612.04
407.39	2640.12
407.58	2733.75
407.77	2651.83
407.96	2761.83
408.15	2757.15
408.34	2747.79
408.54	2960.78
408.73	2850.77
408.92	2813.32
409.11	2815.66
409.30	2974.82
409.49	2956.10
409.68	3016.95
409.87	2944.39
410.07	3089.51
410.26	3059.08
410.45	3059.08
410.64	3145.68
410.83	3094.19
411.02	3192.49
411.21	3190.15
411.40	3229.94
411.59	3246.32
411.78	3297.81
411.98	3194.83
412.17	3351.65
412.36	3328.24
412.55	3428.88
412.74	3468.67
412.93	3454.63
413.12	3372.71
413.31	3606.77
413.50	3534.21
413.69	3613.79
413.88	3756.56
414.07	3702.73
414.26	3662.94
414.45	3733.15
414.64	3847.84
414.83	3768.26
415.02	3779.97
415.22	3859.54
415.41	3859.54
415.60	3875.93
415.79	3882.95
415.98	3936.78
416.17	3978.91
416.36	3964.87
416.55	4086.58
416.74	4147.43
416.93	4086.58
417.12	4131.05
417.31	4107.64
417.50	4262.12
417.69	4365.10
417.88	4311.27
418.07	4241.05
418.26	4374.46
418.45	4353.40
418.64	4395.53
418.83	4482.13
419.02	4484.47
419.21	4519.57
419.39	4575.75
419.58	4617.88
419.77	4573.41
419.96	4627.24
420.15	4486.81
420.34	4608.51
420.53	4683.41
420.72	4615.54
420.91	4713.84
421.10	4833.21
421.29	4905.76
421.48	4788.74
421.67	4947.89
421.86	4828.53
422.05	4774.69
422.24	4837.89
422.43	4924.49
422.61	4959.60
422.80	5043.85
422.99	5034.49
423.18	5142.16
423.37	5207.69
423.56	5001.72
423.75	5064.92
423.94	4985.34
424.13	4788.74
424.32	4856.61
424.50	4980.66
424.69	5156.20
424.88	5114.07
425.07	5060.24
425.26	5132.79
425.45	5013.43
425.64	5167.90
425.83	5200.67
426.01	5076.62
426.20	5109.39
426.39	5050.88
426.58	5093.01
426.77	5186.63
426.96	5076.62
427.15	5273.23
427.33	5289.61
427.52	5294.29
427.71	5217.05
427.90	5369.19
428.09	5320.04
428.28	5547.07
428.46	5497.92
428.65	5493.24
428.84	5530.69
429.03	5591.54
429.22	5497.92
429.40	5694.52
429.59	5507.28
429.78	5397.28
429.97	5411.32
430.16	5476.85
430.34	5863.04
430.53	5689.84
430.72	5607.92
430.91	5778.78
431.10	5617.29
431.28	5921.56
431.47	5724.95
431.66	5944.96
431.85	5832.62
432.03	5930.92
432.22	6115.82
432.41	5930.92
432.60	5970.71
432.79	6026.88
432.97	5863.04
433.16	6155.61
433.35	6125.18
433.54	6160.29
433.72	6291.36
433.91	6108.80
434.10	6319.45
434.28	6057.31
434.47	6129.86
434.66	6417.75
434.85	6167.31
435.03	6352.21
435.22	6420.09
435.41	6640.10
435.59	6593.29
435.78	6558.18
435.97	6679.89
436.16	6499.67
436.34	6579.25
436.53	6764.15
436.72	6707.98
436.90	6518.39
437.09	6740.74
437.28	6626.06
437.46	6717.34
437.65	6745.42
437.84	6794.58
438.02	6766.49
438.21	7021.61
438.40	6803.94
438.58	6986.50
438.77	7042.67
438.96	7166.72
439.14	7243.96
439.33	7194.81
439.52	7335.24
439.70	7473.33
439.89	7426.52
440.08	7370.35
440.26	7318.86
440.45	7637.17
440.63	7494.40
440.82	7581.00
441.01	7698.02
441.19	7852.50
441.38	7667.60
441.57	7941.44
441.75	7880.58
441.94	7955.48
442.12	8051.44
442.31	8257.41
442.50	8259.75
442.68	8128.68
442.87	8119.32
443.05	8257.41
443.24	8449.33
443.43	8217.62
443.61	8285.50
443.80	8496.14
443.98	8175.49
444.17	8205.92
444.35	8278.47
444.54	8334.65
444.73	8393.16
444.91	8400.18
445.10	8479.76
445.28	8315.92
445.47	8383.80
445.65	8573.38
445.84	8545.30
446.02	8655.30
446.21	8423.59
446.39	8421.25
446.58	8748.92
446.77	8561.68
446.95	8514.87
447.14	8430.61
447.32	8821.48
447.51	8739.56
447.69	8664.66
447.88	8685.73
448.06	8755.94
448.25	8650.62
448.43	8805.10
448.62	8582.74
448.80	8655.30
448.99	8908.08
449.17	8828.50
449.36	8585.08
449.54	8891.70
449.73	9029.79
449.91	9090.64
450.10	9125.75
450.28	9317.67
450.46	9287.25
450.65	9116.39
450.83	9186.60
451.02	9205.33
451.20	9277.88
451.39	9142.13
451.57	9240.44
451.76	9174.90
451.94	9245.12
452.13	9322.35
452.31	9500.23
452.49	9202.99
452.68	9507.26
452.86	9465.13
453.05	9720.24
453.23	9547.05
453.42	9303.63
453.60	9462.79
453.78	9675.77
453.97	9612.58
454.15	9603.22
454.34	9579.81
454.52	9811.53
454.70	9717.90
454.89	9692.16
455.07	10024.51
455.26	9940.26
455.44	10237.50
455.62	10132.18
455.81	9769.40
455.99	10335.81
456.17	10331.12
456.36	10251.55
456.54	10272.61
456.73	10441.13
456.91	10532.41
457.09	10480.92
457.28	10813.28
457.46	10546.45
457.64	10504.32
457.83	10626.03
458.01	10668.16
458.19	10986.47
458.38	10813.28
458.56	10925.62
458.74	10984.13
458.93	10752.42
459.11	10904.56
459.29	10986.47
459.48	11138.61
459.66	11028.60
459.84	10911.58
460.03	11267.34
460.21	11117.54
460.39	11330.53
460.57	11386.71
460.76	11286.06
460.94	11396.07
461.12	11524.80
461.31	11398.41
461.49	11349.26
461.67	11405.43
461.85	11726.08
462.04	11370.32
462.22	11501.39
462.40	11843.11
462.59	11501.39
462.77	11625.44
462.95	11896.94
463.13	11857.15
463.32	11960.14
463.50	11976.52
463.68	11899.28
463.86	11992.90
464.05	11915.67
464.23	12051.42
464.41	11936.73
464.59	11705.02
464.78	12259.73
464.96	12044.40
465.14	11789.28
465.32	12196.53
465.50	12353.35
465.69	12362.71
465.87	12362.71
466.05	12402.50
466.23	12498.46
466.41	12217.60
466.60	12610.81
466.78	12425.90
466.96	12374.41
467.14	12484.42
467.32	12713.79
467.51	12514.84
467.69	12393.14
467.87	12704.43
468.05	12922.10
468.23	12458.67
468.41	12648.26
468.60	12805.07
468.78	13048.49
468.96	12992.31
469.14	12847.20
469.32	13261.48
469.50	12762.94
469.69	13294.24
469.87	13179.56
470.05	13221.69
470.23	13589.15
470.41	13378.50
470.59	13577.45
470.77	13502.55
470.95	13525.96
471.14	13659.37
471.32	13315.31
471.50	13706.18
471.68	13689.79
471.86	13872.36
472.04	13666.39
472.22	13928.53
472.40	13769.37
472.58	14108.75
472.77	13984.70
472.95	14459.83
473.13	14850.70
473.31	14300.67
473.49	14286.63
473.67	14415.36
473.85	14504.30
474.03	14899.85
474.21	15023.90
474.39	14885.81
474.57	14941.98
474.75	15194.76
474.93	15016.88
475.12	15323.49
475.30	15358.60
475.48	15267.31
475.66	15459.24
475.84	15246.25
476.02	15543.50
476.20	15824.36
476.38	15793.94
476.56	16006.92
476.74	16271.40
476.92	15690.95
477.10	15915.64
477.28	16355.66
477.46	16636.53
477.64	16744.19
477.82	16505.46
478.00	17118.68
478.18	17015.69
478.36	17170.17
478.54	17322.30
478.72	17348.05
478.90	17664.02
479.08	17792.75
479.26	17797.43
479.44	18017.44
479.62	18216.39
479.80	18174.26
479.98	18366.18
480.16	18604.92
480.34	18518.32
480.52	18979.40
480.70	18796.84
480.88	18663.43
481.06	19140.90
481.24	19105.79
481.41	19489.64
481.59	19550.49
481.77	19620.71
481.95	19913.28
482.13	19981.15
482.31	19924.98
482.49	20568.63
482.67	20655.23
482.85	20774.60
483.03	20915.03
483.21	21095.25
483.39	21455.69
483.57	20992.26
483.74	21359.73
483.92	21638.25
484.10	21722.51
484.28	21759.96
484.46	22221.05
484.64	22429.35
484.82	22263.18
485.00	22815.54
485.18	23021.51
485.35	23468.55
485.53	23110.45
485.71	23363.23
485.89	23627.71
486.07	23683.88
486.25	24144.97
486.43	24034.96
486.61	24374.34
486.78	24589.67
486.96	24727.76
487.14	24830.74
487.32	25261.40
487.50	25081.18
487.68	25340.98
487.85	25713.13
488.03	25766.96
488.21	26382.52
488.39	26066.55
488.57	26094.63
488.75	26717.22
488.92	26939.57
489.10	26984.04
489.28	27115.11
489.46	27662.79
489.64	27522.36
489.81	28236.22
489.99	27953.02
490.17	27828.97
490.35	28503.04
490.53	28315.80
490.70	28723.05
490.88	28664.54
491.06	29287.12
491.24	29134.99
491.41	29675.65
491.59	29888.64
491.77	29668.63
491.95	30052.48
492.13	30087.59
492.30	30735.92
492.48	30363.77
492.66	30848.26
492.84	30827.20
493.01	31068.27
493.19	31227.43
493.37	31613.62
493.54	31562.12
493.72	31887.46
493.90	31896.82
494.08	32304.07
494.25	32554.51
494.43	32683.24
494.61	32837.72
494.79	32921.98
494.96	33146.67
495.14	33331.57
495.32	33287.10
495.49	33116.24
495.67	33560.94
495.85	34265.44
496.02	34263.10
496.20	34251.40
496.38	34506.52
496.55	34499.50
496.73	35306.98
496.91	35122.08
497.09	35112.72
497.26	35339.75
497.44	35374.86
497.62	36149.57
497.79	36615.34
497.97	35976.37
498.14	36011.48
498.32	36914.93
498.50	36821.31
498.67	37097.49
498.85	36404.69
499.03	37038.98
499.20	37085.79
499.38	37160.69
499.56	37441.55
499.73	37617.09
499.91	37839.44
500.08	38227.97
500.26	37483.68
500.44	38398.83
500.61	38405.85
500.79	38171.80
500.97	38614.16
501.14	39126.74
501.32	39412.28
501.49	39388.88
501.67	39250.78
501.84	39754.00
502.02	39325.68
502.20	39910.82
502.37	39948.26
502.55	40086.36
502.72	39894.43
502.90	40048.91
503.07	39952.94
503.25	40624.68
503.43	40229.13
503.60	40907.88
503.78	40608.29
503.95	40664.47
504.13	40912.56
504.30	41092.79
504.48	40921.93
504.65	41275.35
504.83	41347.90
505.01	41926.02
505.18	41961.12
505.36	41900.27
505.53	41923.68
505.71	42162.41
505.88	42724.14
506.06	41989.21
506.23	42363.70
506.41	42588.39
506.58	42766.27
506.76	42904.36
506.93	43154.80
507.11	43035.43
507.28	43222.67
507.46	43054.15
507.63	43082.24
507.81	43838.23
507.98	43433.32
508.16	43538.65
508.33	44116.76
508.50	44652.74
508.68	44013.77
508.85	44341.45
509.03	44612.95
509.20	44959.35
509.38	45308.09
509.55	45104.46
509.73	44935.95
509.90	45418.10
510.08	45067.02
510.25	45380.65
510.42	45350.22
510.60	45539.80
510.77	45619.38
510.95	46066.42
511.12	45766.84
511.30	45808.96
511.47	46295.80
511.64	46007.91
511.82	46696.03
511.99	46094.51
512.17	46539.21
512.34	46113.23
512.51	46799.01
512.69	46934.76
512.86	47421.59
513.04	47232.01
513.21	47206.26
513.38	47166.48
513.56	47313.93
513.73	47075.19
513.90	47700.12
514.08	47629.90
514.25	47676.71
514.43	47973.96
514.60	48135.46
514.77	47910.77
514.95	48308.66
515.12	48212.70
515.29	48252.48
515.47	48636.33
515.64	48722.93
515.81	48474.84
515.99	48765.06
516.16	49031.88
516.33	49127.84
516.51	49621.70
516.68	48973.37
516.85	48992.09
517.03	49216.78
517.20	49432.11
517.37	49284.66
517.54	49804.26
517.72	49338.49
517.89	49654.47
518.06	49947.03
518.24	49879.16
518.41	49595.95
518.58	50007.89
518.75	49715.32
518.93	50096.83
519.10	50092.15
519.27	50040.65
519.45	50426.84
519.62	50660.90
519.79	50820.05
519.96	50735.79
520.14	50700.68
520.31	50361.31
520.48	50574.30
520.65	50752.18
520.83	51194.54
521.00	51224.96
521.17	51341.99
521.34	51138.36
521.52	51056.45
521.69	51075.17
521.86	51646.26
522.03	51887.34
522.20	52037.13
522.38	52156.50
522.55	51828.82
522.72	52048.83
522.89	51859.25
523.07	51847.55
523.24	52027.77
523.41	52191.61
523.58	51856.91
523.75	52542.69
523.92	52322.68
524.10	52411.62
524.27	52680.78
524.44	52619.92
524.61	52285.23
524.78	52657.37
524.96	52610.56
525.13	53045.90
525.30	52921.85
525.47	52851.64
525.64	53003.77
525.81	52999.09
525.98	53205.06
526.16	53106.76
526.33	53134.84
526.50	53279.96
526.67	53116.12
526.84	53364.21
527.01	53244.85
527.18	53471.88
527.36	53315.06
527.53	53572.52
527.70	53766.79
527.87	53724.66
528.04	53565.50
528.21	53794.87
528.38	54092.12
528.55	53853.39
528.72	53846.36
528.89	54007.86
529.07	53521.03
529.24	53944.67
529.41	54035.95
529.58	54288.73
529.75	54174.04
529.92	54225.53
530.09	54377.67
530.26	54611.72
530.43	54459.58
530.60	54141.27
530.77	54330.86
530.94	54691.30
531.11	54440.86
531.28	54705.34
531.46	54843.43
531.63	54663.21
531.80	54901.95
531.97	54845.77
532.14	54876.20
532.31	54665.55
532.48	54782.58
532.65	55260.05
532.82	54894.92
532.99	55229.62
533.16	54901.95
533.33	55131.32
533.50	55449.63
533.67	55246.00
533.84	55173.45
534.01	55503.46
534.18	55592.40
534.35	55920.08
534.52	55681.34
534.69	55552.62
534.86	55800.71
535.03	55484.74
535.20	55594.74
535.37	55847.52
535.54	55721.13
535.71	55618.15
535.88	55906.04
536.05	55978.59
536.22	55810.07
536.38	55990.30
536.55	56116.68
536.72	55814.76
536.89	56058.17
537.06	55924.76
537.23	56140.09
537.40	56060.51
537.57	56097.96
537.74	56217.33
537.91	56168.18
538.08	56388.19
538.25	55976.25
538.42	56324.99
538.59	56535.64
538.75	56430.32
538.92	56348.40
539.09	56860.97
539.26	56622.24
539.43	56395.21
539.60	56566.07
539.77	56545.00
539.94	56725.22
540.11	56795.44
540.28	56992.04
540.44	56886.72
540.61	56811.82
540.78	56814.16
540.95	56823.53
541.12	56727.56
541.29	56797.78
541.46	56882.04
541.62	56898.42
541.79	57141.84
541.96	56882.04
542.13	57242.48
542.30	57057.58
542.47	57279.93
542.63	57219.08
542.80	57240.14
542.97	57406.32
543.14	57623.99
543.31	57549.09
543.48	57656.76
543.64	57563.14
543.81	57703.57
543.98	57623.99
544.15	57668.46
544.32	57900.17
544.48	58054.65
544.65	57605.26
544.82	57745.70
544.99	57689.52
545.16	57890.81
545.32	57790.17
545.49	58082.73
545.66	58092.10
545.83	58272.32
546.00	57914.22
546.16	58209.12
546.33	57954.00
546.50	57792.51
546.67	58230.19
546.83	57872.09
547.00	58195.08
547.17	58192.74
547.34	58124.86
547.50	58288.70
547.67	58440.84
547.84	58356.58
548.00	58419.77
548.17	58564.88
548.34	58454.88
548.51	58766.17
548.67	58597.65
548.84	58574.25
549.01	58621.06
549.18	58527.44
549.34	58925.33
549.51	58836.39
549.68	58674.89
549.84	58843.41
550.01	58794.26
550.18	58808.30
550.34	58672.55
550.51	58855.11
550.68	59007.25
550.84	58527.44
551.01	58965.12
551.18	58906.60
551.34	59018.95
551.51	58857.45
551.68	58974.48
551.84	58997.88
552.01	58958.09
552.18	59140.66
552.34	58930.01
552.51	59241.30
552.68	59093.85
552.84	59257.68
553.01	59484.72
553.18	59192.15
553.34	59103.21
553.51	59098.53
553.67	58960.44
553.84	59192.15
554.01	59114.91
554.17	59215.55
554.34	59398.12
554.51	59561.95
554.67	59327.90
554.84	59302.15
555.00	59325.56
555.17	59164.06
555.33	59131.29
555.50	59358.33
555.67	59311.52
555.83	59297.47
556.00	59758.56
556.16	59847.50
556.33	59779.62
556.50	59639.19
556.66	59800.69
556.83	59655.57
556.99	59873.24
557.16	59929.42
557.32	59936.44
557.49	59887.29
557.65	59702.38
557.82	59749.20
557.98	59744.51
558.15	59674.30
558.32	60009.00
558.48	59707.07
558.65	59667.28
558.81	59924.74
558.98	59917.71
559.14	60074.53
559.31	59920.05
559.47	60151.77
559.64	60214.96
559.80	59987.93
559.97	60067.51
560.13	59976.23
560.30	60065.17
560.46	59891.97
560.63	60156.45
560.79	60259.43
560.96	60196.24
561.12	60224.32
561.29	60261.77
561.45	60348.37
561.61	60374.12
561.78	60203.26
561.94	60147.09
562.11	60182.19
562.27	60250.07
562.44	60378.80
562.60	60301.56
562.77	60369.44
562.93	60217.30
563.10	60341.35
563.26	60221.98
563.42	60734.56
563.59	60477.10
563.75	60245.39
563.92	60371.78
564.08	60280.50
564.24	60549.66
564.41	60547.32
564.57	60701.79
564.74	60526.25
564.90	60629.24
565.07	60493.49
565.23	60420.93
565.39	60619.88
565.56	60566.04
565.72	60385.82
565.88	60559.02
566.05	60479.44
566.21	60470.08
566.38	60554.34
566.54	60453.70
566.70	60882.02
566.87	60582.43
567.03	60404.55
567.19	60891.38
567.36	60654.98
567.52	60535.62
567.68	60954.57
567.85	60683.07
568.01	60626.90
568.17	60570.72
568.34	60757.97
568.50	60589.45
568.66	60486.46
568.83	60685.41
568.99	60563.70
569.15	60673.71
569.32	60919.46
569.48	60914.78
569.64	61059.90
569.81	60807.12
569.97	60736.90
570.13	60924.14
570.30	60795.42
570.46	60872.65
570.62	60853.93
570.78	60966.27
570.95	60694.77
571.11	60973.30
571.27	60793.07
571.43	60849.25
571.60	60914.78
571.76	60825.84
571.92	60727.54
572.09	60713.50
572.25	60940.53
572.41	60914.78
572.57	60935.85
572.74	61118.41
572.90	61113.73
573.06	61106.71
573.22	60804.78
573.38	60917.12
573.55	61209.69
573.71	61279.91
573.87	61183.94
574.03	60804.78
574.20	60963.93
574.36	60816.48
574.52	61092.66
574.68	61064.58
574.84	61293.95
575.01	61038.83
575.17	61052.87
575.33	61071.60
575.49	61062.24
575.65	61195.65
575.82	60992.02
575.98	61031.81
576.14	61235.44
576.30	61195.65
576.46	61167.56
576.62	61048.19
576.79	60954.57
576.95	60959.25
577.11	61286.93
577.27	61291.61
577.43	61045.85
577.59	61020.11
577.75	61071.60
577.92	61214.37
578.08	61322.04
578.24	61146.50
578.40	61167.56
578.56	61120.75
578.72	61275.22
578.88	61307.99
579.04	61378.21
579.21	61066.92
579.37	61268.20
579.53	61406.30
579.69	61066.92
579.85	61303.31
580.01	61183.94
580.17	60919.46
580.33	61317.35
580.49	61418.00
580.65	61153.52
580.82	61134.79
580.98	61034.15
581.14	61160.54
581.30	61403.95
581.46	61270.54
581.62	61415.66
581.78	61265.86
581.94	61509.28
582.10	61272.88
582.26	61406.30
582.42	61202.67
582.58	61434.38
582.74	61160.54
582.90	61197.99
583.06	61361.82
583.22	61155.86
583.38	61305.65
583.54	61364.17
583.70	61193.31
583.86	61272.88
584.02	61090.32
584.18	61293.95
584.34	61506.94
584.50	61263.52
584.66	61265.86
584.82	61069.26
584.98	61418.00
585.14	61457.79
585.30	61190.97
585.46	61453.11
585.62	61336.08
585.78	61563.11
585.94	61272.88
586.10	61240.12
586.26	61410.98
586.42	61354.80
586.58	61408.64
586.74	61546.73
586.90	61228.41
587.06	61406.30
587.22	61677.80
587.38	61413.32
587.54	61528.00
587.70	61432.04
587.86	61361.82
588.02	61537.36
588.18	61413.32
588.34	61202.67
