SpectraSuite Data File
++++++++++++++++++++++++++++++++++++
Date: Fri Oct 25 11:34:20 EDT 2013
User: price-jones
Dark Spectrum Present: No
Reference Spectrum Present: No
Number of Sampled Component Spectra: 1
Spectrometers: USB2+H05261
Integration Time (usec): 100000 (USB2+H05261)
Spectra Averaged: 1 (USB2+H05261)
Boxcar Smoothing: 0 (USB2+H05261)
Correct for Electrical Dark: No (USB2+H05261)
Strobe/Lamp Enabled: No (USB2+H05261)
Correct for Detector Non-linearity: No (USB2+H05261)
Correct for Stray Light: No (USB2+H05261)
Number of Pixels in Processed Spectrum: 2048
>>>>>Begin Processed Spectral Data<<<<<
365.73	311.29
365.92	311.29
366.12	311.29
366.32	212.99
366.52	182.56
366.72	117.03
366.91	173.20
367.11	133.41
367.31	152.13
367.51	215.33
367.70	184.90
367.90	184.90
368.10	215.33
368.30	189.58
368.49	168.52
368.69	196.60
368.89	147.45
369.09	135.75
369.28	245.76
369.48	229.37
369.68	182.56
369.87	208.31
370.07	227.03
370.27	311.29
370.47	318.31
370.66	470.45
370.86	430.66
371.06	500.87
371.25	564.07
371.45	498.53
371.65	592.16
371.84	610.88
372.04	599.18
372.24	510.24
372.44	564.07
372.63	554.71
372.83	564.07
373.03	514.92
373.22	615.56
373.42	636.63
373.62	610.88
373.81	582.79
374.01	664.71
374.21	636.63
374.40	624.92
374.60	671.73
374.79	603.86
374.99	664.71
375.19	557.05
375.38	648.33
375.58	655.35
375.78	702.16
375.97	606.20
376.17	753.65
376.37	699.82
376.56	653.01
376.76	671.73
376.95	620.24
377.15	690.46
377.35	674.07
377.54	716.20
377.74	629.60
377.93	662.37
378.13	638.97
378.33	655.35
378.52	685.78
378.72	716.20
378.91	758.33
379.11	688.12
379.31	655.35
379.50	578.11
379.70	720.88
379.89	695.14
380.09	767.70
380.28	674.07
380.48	676.41
380.68	720.88
380.87	692.80
381.07	774.72
381.26	779.40
381.46	748.97
381.65	765.36
381.85	786.42
382.04	744.29
382.24	739.61
382.43	798.12
382.63	711.52
382.83	753.65
383.02	732.59
383.22	795.78
383.41	734.93
383.61	737.27
383.80	861.32
384.00	777.06
384.19	828.55
384.39	751.31
384.58	781.74
384.78	800.46
384.97	805.14
385.17	840.25
385.36	744.29
385.56	873.02
385.75	784.08
385.95	830.89
386.14	870.68
386.34	819.19
386.53	767.70
386.72	840.25
386.92	863.66
387.11	835.57
387.31	926.85
387.50	849.61
387.70	915.15
387.89	856.64
388.09	866.00
388.28	781.74
388.48	856.64
388.67	880.04
388.86	922.17
389.06	896.43
389.25	947.92
389.45	950.26
389.64	924.51
389.84	971.32
390.03	917.49
390.22	983.02
390.42	894.08
390.61	938.55
390.81	999.41
391.00	987.71
391.19	961.96
391.39	1020.47
391.58	929.19
391.78	1013.45
391.97	1046.22
392.16	1004.09
392.36	990.05
392.55	978.34
392.75	1011.11
392.94	1062.60
393.13	1025.15
393.33	992.39
393.52	1086.01
393.71	1062.60
393.91	1067.28
394.10	1102.39
394.29	1006.43
394.49	1121.12
394.68	1097.71
394.88	1055.58
395.07	1167.93
395.26	1027.50
395.46	1071.97
395.65	1123.46
395.84	1144.52
396.04	1228.78
396.23	1130.48
396.42	1158.57
396.62	1256.87
396.81	1179.63
397.00	1144.52
397.19	1219.42
397.39	1186.65
397.58	1247.51
397.77	1130.48
397.97	1275.59
398.16	1167.93
398.35	1273.25
398.55	1158.57
398.74	1214.74
398.93	1301.34
399.12	1289.64
399.32	1275.59
399.51	1345.81
399.70	1331.76
399.90	1383.26
400.09	1378.58
400.28	1371.55
400.47	1341.13
400.67	1432.41
400.86	1380.92
401.05	1446.45
401.24	1418.36
401.44	1486.24
401.63	1394.96
401.82	1479.22
402.01	1380.92
402.21	1460.49
402.40	1444.11
402.59	1425.39
402.78	1453.47
402.97	1509.65
403.17	1493.26
403.36	1434.75
403.55	1547.09
403.74	1474.54
403.93	1568.16
404.13	1605.61
404.32	1537.73
404.51	1488.58
404.70	1504.96
404.89	1582.20
405.09	1657.10
405.28	1678.16
405.47	1661.78
405.66	1720.29
405.85	1675.82
406.05	1657.10
406.24	1708.59
406.43	1631.35
406.62	1706.25
406.81	1781.15
407.00	1750.72
407.20	1762.42
407.39	1748.38
407.58	1804.55
407.77	1839.66
407.96	1877.11
408.15	1935.62
408.34	1886.47
408.54	1842.00
408.73	1893.49
408.92	1956.69
409.11	1902.86
409.30	1860.73
409.49	1952.01
409.68	1947.33
409.87	1991.80
410.07	1996.48
410.26	2057.33
410.45	2066.69
410.64	2036.27
410.83	2031.58
411.02	2069.03
411.21	2094.78
411.40	2101.80
411.59	2209.47
411.78	2157.97
411.98	2092.44
412.17	2094.78
412.36	2162.66
412.55	2282.02
412.74	2214.15
412.93	2232.87
413.12	2204.78
413.31	2452.88
413.50	2310.11
413.69	2399.05
413.88	2342.88
414.07	2406.07
414.26	2392.03
414.45	2319.47
414.64	2424.80
414.83	2534.80
415.02	2506.71
415.22	2544.16
415.41	2623.74
415.60	2506.71
415.79	2633.10
415.98	2661.19
416.17	2700.98
416.36	2684.59
416.55	2626.08
416.74	2764.17
416.93	2637.78
417.12	2656.51
417.31	2918.65
417.50	2796.94
417.69	2876.52
417.88	2857.79
418.07	2848.43
418.26	2832.05
418.45	2773.53
418.64	2944.39
418.83	2974.82
419.02	2923.33
419.21	2974.82
419.39	3000.57
419.58	3042.70
419.77	2953.76
419.96	3056.74
420.15	3133.98
420.34	3082.49
420.53	3049.72
420.72	3164.40
420.91	3162.06
421.10	3068.44
421.29	3155.04
421.48	3194.83
421.67	3159.72
421.86	3192.49
422.05	3197.17
422.24	3332.92
422.43	3297.81
422.61	3211.22
422.80	3346.97
422.99	3267.39
423.18	3328.24
423.37	3307.18
423.56	3208.87
423.75	3295.47
423.94	3211.22
424.13	3089.51
424.32	3199.51
424.50	3309.52
424.69	3342.28
424.88	3520.17
425.07	3281.43
425.26	3342.28
425.45	3398.46
425.64	3342.28
425.83	3358.67
426.01	3435.91
426.20	3365.69
426.39	3386.76
426.58	3344.63
426.77	3279.09
426.96	3438.25
427.15	3391.44
427.33	3496.76
427.52	3520.17
427.71	3473.36
427.90	3562.30
428.09	3585.70
428.28	3602.08
428.46	3716.77
428.65	3494.42
428.84	3779.97
429.03	3662.94
429.22	3478.04
429.40	3751.88
429.59	3733.15
429.78	3604.42
429.97	3625.49
430.16	3655.92
430.34	3714.43
430.53	3653.58
430.72	3880.61
430.91	3651.24
431.10	3824.44
431.28	3812.73
431.47	3868.91
431.66	3957.85
431.85	3779.97
432.03	3918.06
432.22	3859.54
432.41	3946.14
432.60	3983.59
432.79	4133.39
432.97	4044.45
433.16	4084.23
433.35	3936.78
433.54	4086.58
433.72	4014.02
433.91	4121.68
434.10	4091.26
434.28	4095.94
434.47	4210.62
434.66	4271.48
434.85	4180.20
435.03	4203.60
435.22	4126.36
435.41	4348.72
435.59	4203.60
435.78	4322.97
435.97	4236.37
436.16	4273.82
436.34	4161.47
436.53	4397.87
436.72	4447.02
436.90	4365.10
437.09	4308.93
437.28	4332.33
437.46	4468.08
437.65	4458.72
437.84	4498.51
438.02	4540.64
438.21	4641.28
438.40	4463.40
438.58	4599.15
438.77	4645.96
438.96	4596.81
439.14	4702.14
439.33	4744.27
439.52	4718.52
439.70	4915.12
439.89	4973.64
440.08	4755.97
440.26	4938.53
440.45	4812.14
440.63	4994.70
440.82	5029.81
441.01	5076.62
441.19	4971.30
441.38	5004.07
441.57	4966.62
441.75	4961.94
441.94	5172.58
442.12	5107.05
442.31	5240.46
442.50	5345.78
442.68	5188.97
442.87	5390.25
443.05	5411.32
443.24	5348.12
443.43	5177.26
443.61	5472.17
443.80	5495.58
443.98	5366.85
444.17	5163.22
444.35	5317.70
444.54	5596.22
444.73	5490.90
444.91	5434.72
445.10	5373.87
445.28	5514.30
445.47	5621.97
445.65	5596.22
445.84	5598.56
446.02	5617.29
446.21	5511.96
446.39	5542.39
446.58	5682.82
446.77	5511.96
446.95	5518.98
447.14	5643.03
447.32	5645.37
447.51	5572.82
447.69	5640.69
447.88	5771.76
448.06	5790.49
448.25	5633.67
448.43	5633.67
448.62	5813.89
448.80	5521.32
448.99	5687.50
449.17	5678.14
449.36	5523.66
449.54	5834.96
449.73	5912.19
449.91	5818.57
450.10	5788.14
450.28	5926.24
450.46	5724.95
450.65	5959.00
450.83	5998.79
451.02	5870.06
451.20	5942.62
451.39	5961.34
451.57	5954.32
451.76	5984.75
451.94	5980.07
452.13	6073.69
452.31	5942.62
452.49	6036.24
452.68	6022.20
452.86	6150.93
453.05	6335.83
453.23	6029.22
453.42	6132.20
453.60	6375.62
453.78	6300.72
453.97	6244.55
454.15	6232.85
454.34	6169.65
454.52	6370.94
454.70	6455.20
454.89	6457.54
455.07	6321.79
455.26	6434.13
455.44	6387.32
455.62	6518.39
455.81	6560.52
455.99	6593.29
456.17	6602.65
456.36	6630.74
456.54	6836.70
456.73	6752.45
456.91	6743.08
457.09	6871.81
457.28	6817.98
457.46	6771.17
457.64	6796.92
457.83	6799.26
458.01	6773.51
458.19	6904.58
458.38	7019.27
458.56	6902.24
458.74	6862.45
458.93	7042.67
459.11	6970.12
459.29	7005.22
459.48	7148.00
459.66	7166.72
459.84	7059.06
460.03	7332.90
460.21	7047.35
460.39	7077.78
460.57	7321.20
460.76	7143.32
460.94	7452.27
461.12	7276.73
461.31	7143.32
461.49	7412.48
461.67	7239.28
461.85	7492.05
462.04	7234.60
462.22	7957.82
462.40	7765.90
462.59	7662.91
462.77	7566.95
462.95	7639.51
463.13	7541.21
463.32	7751.85
463.50	7597.38
463.68	7756.54
463.86	7749.51
464.05	7641.85
464.23	7583.34
464.41	7627.81
464.59	7503.76
464.78	7761.22
464.96	7875.90
465.14	7808.03
465.32	8009.31
465.50	7988.25
465.69	7901.65
465.87	7915.69
466.05	7953.14
466.23	8173.15
466.41	8077.19
466.60	8182.51
466.78	7918.03
466.96	7894.63
467.14	7896.97
467.32	8016.33
467.51	8280.82
467.69	7932.08
467.87	8009.31
468.05	8018.68
468.23	7990.59
468.41	8081.87
468.60	8252.73
468.78	8486.78
468.96	8276.13
469.14	8156.77
469.32	8273.79
469.50	7960.16
469.69	8545.30
469.87	8437.63
470.05	8432.95
470.23	8517.21
470.41	8470.40
470.59	8620.19
470.77	8685.73
470.95	8655.30
471.14	8732.54
471.32	8461.04
471.50	8840.20
471.68	8833.18
471.86	8833.18
472.04	8959.57
472.22	9043.83
472.40	8683.39
472.58	8641.26
472.77	8919.78
472.95	9137.45
473.13	9357.46
473.31	8961.91
473.49	9064.89
473.67	9088.30
473.85	9217.03
474.03	9481.51
474.21	9380.87
474.39	9554.07
474.57	9462.79
474.75	9675.77
474.93	9673.43
475.12	9441.72
475.30	9776.42
475.48	9476.83
475.66	9827.91
475.84	9769.40
476.02	9916.85
476.20	9900.47
476.38	10136.86
476.56	10265.59
476.74	10375.59
476.92	9973.02
477.10	10249.21
477.28	10375.59
477.46	10186.01
477.64	10600.29
477.82	10630.71
478.00	10750.08
478.18	10920.94
478.36	10977.11
478.54	10871.79
478.72	10965.41
478.90	11124.57
479.08	11023.92
479.26	11412.45
479.44	11241.59
479.62	11349.26
479.80	11332.87
479.98	11552.88
480.16	11934.39
480.34	11513.10
480.52	11960.14
480.70	12126.32
480.88	11733.11
481.06	12084.19
481.24	11726.08
481.41	12404.84
481.59	12425.90
481.77	12292.49
481.95	12453.99
482.13	12772.30
482.31	12624.85
482.49	12933.80
482.67	12872.95
482.85	12929.12
483.03	13151.47
483.21	13050.83
483.39	13476.80
483.57	13308.29
483.74	13575.11
483.92	13600.85
484.10	13558.72
484.28	13944.91
484.46	14141.52
484.64	14038.53
484.82	13888.74
485.00	14228.12
485.18	14555.79
485.35	14607.28
485.53	14658.78
485.71	14527.71
485.89	15091.77
486.07	14693.88
486.25	14923.26
486.43	14981.77
486.61	15426.47
486.78	15321.15
486.96	15435.83
487.14	15569.24
487.32	15639.46
487.50	15721.38
487.68	15819.68
487.85	15936.71
488.03	16133.31
488.21	16072.46
488.39	16269.06
488.57	16655.25
488.75	16751.21
488.92	16814.41
489.10	16863.56
489.28	16835.47
489.46	17525.93
489.64	17102.29
489.81	17504.87
489.99	17638.28
490.17	17511.89
490.35	17701.47
490.53	17444.01
490.70	18092.34
490.88	18092.34
491.06	18284.26
491.24	18572.15
491.41	18422.36
491.59	18654.07
491.77	18483.21
491.95	18654.07
492.13	18925.57
492.30	18888.12
492.48	19311.76
492.66	19145.58
492.84	19339.85
493.01	19599.65
493.19	19564.54
493.37	19318.78
493.54	19765.82
493.72	19999.88
493.90	20191.80
494.08	20250.32
494.25	20154.35
494.43	20566.29
494.61	20343.94
494.79	20514.80
494.96	20610.76
495.14	20692.68
495.32	21319.94
495.49	21231.00
495.67	21074.18
495.85	21219.30
496.02	21479.10
496.20	21696.77
496.38	21509.52
496.55	21671.02
496.73	22302.96
496.91	22129.77
497.09	22211.68
497.26	22445.74
497.44	22185.94
497.62	22429.35
497.79	22944.27
497.97	22380.20
498.14	22567.45
498.32	22883.42
498.50	23269.61
498.67	23168.96
498.85	22754.69
499.03	23295.35
499.20	23440.47
499.38	23358.55
499.56	23468.55
499.73	23850.06
499.91	23821.97
500.08	23889.85
500.26	23873.46
500.44	23534.09
500.61	24013.90
500.79	23976.45
500.97	24130.92
501.14	24697.33
501.32	24641.16
501.49	24374.34
501.67	24687.97
501.84	24886.92
502.02	25034.37
502.20	24879.89
502.37	24783.93
502.55	24898.62
502.72	24826.06
502.90	24594.35
503.07	25303.53
503.25	25151.40
503.43	25418.22
503.60	25640.57
503.78	25792.70
503.95	25820.79
504.13	25874.62
504.30	25940.16
504.48	25949.52
504.65	26031.44
504.83	26185.91
505.01	26167.19
505.18	26478.48
505.36	26539.33
505.53	26464.44
505.71	26249.11
505.88	26551.04
506.06	26424.65
506.23	26883.39
506.41	27040.21
506.58	26895.10
506.76	26759.34
506.93	26888.07
507.11	26806.16
507.28	27084.68
507.46	27618.32
507.63	27089.36
507.81	27583.21
507.98	27255.54
508.16	27424.06
508.33	27613.64
508.50	27513.00
508.68	27953.02
508.85	28109.83
509.03	28063.02
509.20	28297.08
509.38	28507.72
509.55	28334.53
509.73	28135.58
509.90	28292.40
510.08	28137.92
510.25	28498.36
510.42	28739.44
510.60	28999.24
510.77	28917.32
510.95	29308.19
511.12	28943.06
511.30	29043.71
511.47	29277.76
511.64	29230.95
511.82	29457.98
511.99	29439.26
512.17	29535.22
512.34	29390.11
512.51	29701.40
512.69	29921.41
512.86	29792.68
513.04	29713.10
513.21	30408.24
513.38	30242.06
513.56	30157.80
513.73	30345.05
513.90	30373.13
514.08	29968.22
514.25	30635.27
514.43	30403.56
514.60	30405.90
514.77	30682.08
514.95	30780.39
515.12	31009.76
515.29	30567.40
515.47	30939.54
515.64	30962.95
515.81	31098.70
515.99	31204.02
516.16	31548.08
516.33	31192.32
516.51	31285.94
516.68	31283.60
516.85	31564.46
517.03	30948.90
517.20	31611.28
517.37	31550.42
517.54	31456.80
517.72	31772.77
517.89	31681.49
518.06	31812.56
518.24	32189.39
518.41	31978.74
518.58	31957.67
518.75	32070.02
518.93	32219.81
519.10	32130.87
519.27	32481.95
519.45	32809.63
519.62	32299.39
519.79	32636.43
519.96	32390.67
520.14	32854.10
520.31	32566.21
520.48	33043.68
520.65	32945.38
520.83	33413.49
521.00	33619.46
521.17	33429.87
521.34	33626.48
521.52	33647.54
521.69	33394.76
521.86	33584.35
522.03	33895.64
522.20	34167.14
522.38	33982.24
522.55	33827.76
522.72	34125.01
522.89	33900.32
523.07	34087.56
523.24	34075.86
523.41	34562.69
523.58	34054.79
523.75	34480.77
523.92	34253.74
524.10	34220.97
524.27	34412.90
524.44	34675.04
524.61	34595.46
524.78	34682.06
524.96	34873.98
525.13	34630.57
525.30	34794.40
525.47	34979.31
525.64	34520.56
525.81	35089.31
525.98	35145.48
526.16	34843.56
526.33	34864.62
526.50	35711.89
526.67	35321.02
526.84	35494.22
527.01	35716.58
527.18	35531.67
527.36	36191.70
527.53	35924.88
527.70	36236.17
527.87	35889.77
528.04	35622.95
528.21	35859.35
528.38	35950.63
528.55	35810.20
528.72	36135.53
528.89	36077.02
529.07	36285.33
529.24	36105.10
529.41	36383.63
529.58	36177.66
529.75	36107.44
529.92	36608.32
530.09	36446.82
530.26	36343.84
530.43	36797.90
530.60	36306.39
530.77	36278.30
530.94	36673.85
531.11	36898.55
531.28	36648.11
531.46	36807.26
531.63	36884.50
531.80	36858.76
531.97	37034.30
532.14	37399.42
532.31	36613.00
532.48	37336.23
532.65	37645.18
532.82	37640.50
532.99	37500.06
533.16	36992.17
533.33	37511.77
533.50	37598.37
533.67	37614.75
533.84	37619.43
534.01	37577.30
534.18	37556.24
534.35	37853.48
534.52	37734.12
534.69	37907.32
534.86	37972.85
535.03	38026.68
535.20	38169.46
535.37	38244.35
535.54	37965.83
535.71	38110.94
535.88	38792.04
536.05	38298.19
536.22	38752.25
536.38	38239.67
536.55	38368.40
536.72	38391.81
536.89	38345.00
537.06	38490.11
537.23	38567.35
537.40	38302.87
537.57	38366.06
537.74	38312.23
537.91	38836.51
538.08	38855.23
538.25	38370.74
538.42	39100.99
538.59	39365.47
538.75	38740.55
538.92	39445.05
539.09	39529.31
539.26	39473.13
539.43	39091.63
539.60	39269.51
539.77	38939.49
539.94	39737.62
540.11	39470.79
540.28	39569.10
540.44	39723.57
540.61	39590.16
540.78	39608.89
540.95	39564.42
541.12	39711.87
541.29	39899.11
541.46	39555.05
541.62	39370.15
541.79	40210.40
541.96	39819.53
542.13	39697.83
542.30	40392.97
542.47	39754.00
542.63	40292.32
542.80	40322.75
542.97	40505.31
543.14	40196.36
543.31	40229.13
543.48	40435.10
543.64	41006.19
543.81	40692.55
543.98	40573.19
544.15	40708.94
544.32	41099.81
544.48	41141.94
544.65	40631.70
544.82	40659.79
544.99	40994.48
545.16	40987.46
545.32	40584.89
545.49	41167.68
545.66	41340.88
545.83	41303.43
546.00	41324.50
546.16	41277.69
546.33	41240.24
546.50	41132.57
546.67	41308.11
546.83	40992.14
547.00	41031.93
547.17	41312.80
547.34	41322.16
547.50	41603.02
547.67	41680.26
547.84	41816.01
548.00	41790.27
548.17	41940.06
548.34	41780.90
548.51	42309.86
548.67	42101.56
548.84	41982.19
549.01	41647.49
549.18	42305.18
549.34	42181.13
549.51	41951.76
549.68	41998.57
549.84	41846.44
550.01	41825.37
550.18	41954.10
550.34	42136.66
550.51	42143.69
550.68	42246.67
550.84	41963.46
551.01	42604.77
551.18	42134.32
551.34	42155.39
551.51	42394.12
551.68	42408.17
551.84	42134.32
552.01	42260.71
552.18	42508.81
552.34	42337.95
552.51	42412.85
552.68	42314.55
552.84	43175.86
553.01	43040.11
553.18	42504.13
553.34	42611.79
553.51	42359.02
553.67	42794.36
553.84	43330.34
554.01	43215.65
554.17	42909.04
554.34	43332.68
554.51	43407.58
554.67	43538.65
554.84	43466.09
555.00	43131.39
555.17	42792.01
555.33	43391.19
555.50	43285.87
555.67	43253.10
555.83	43438.00
556.00	43573.75
556.16	44095.69
556.33	43665.03
556.50	43484.81
556.66	43002.66
556.83	43414.60
556.99	43632.27
557.16	43711.84
557.32	43735.25
557.49	44086.33
557.65	43416.94
557.82	43590.14
557.98	43414.60
558.15	43863.98
558.32	43973.98
558.48	43482.47
558.65	43999.73
558.81	43976.33
558.98	44083.99
559.14	43524.60
559.31	43620.56
559.47	43650.99
559.64	44147.18
559.80	44060.58
559.97	44390.60
560.13	43533.96
560.30	44114.42
560.46	44229.10
560.63	44121.44
560.79	44236.12
560.96	44044.20
561.12	44175.27
561.29	43997.39
561.45	44320.38
561.61	44163.57
561.78	44233.78
561.94	44126.12
562.11	44430.39
562.27	44383.58
562.44	44002.07
562.60	44444.43
562.77	44381.24
562.93	44266.55
563.10	44858.71
563.26	44692.53
563.42	44856.37
563.59	44409.32
563.75	44128.46
563.92	44280.60
564.08	44596.57
564.24	44453.79
564.41	44432.73
564.57	44704.23
564.74	44610.61
564.90	44594.23
565.07	44538.05
565.23	44411.67
565.39	44364.85
565.56	44980.42
565.72	44631.68
565.88	44921.90
566.05	44889.13
566.21	44839.98
566.38	44570.82
566.54	45345.54
566.70	45411.07
566.87	44650.40
567.03	44516.99
567.19	45013.18
567.36	44863.39
567.52	44975.73
567.68	45326.81
567.85	44807.22
568.01	45134.89
568.17	45043.61
568.34	45563.21
568.50	45092.76
568.66	45385.33
568.83	45008.50
568.99	45170.00
569.15	45284.68
569.32	44680.83
569.48	45167.66
569.64	45710.66
569.81	45097.44
569.97	45272.98
570.13	45504.70
570.30	45127.87
570.46	45488.31
570.62	45343.20
570.78	45535.12
570.95	45397.03
571.11	45462.57
571.27	44994.46
571.43	45132.55
571.60	45092.76
571.76	44905.52
571.92	45170.00
572.09	45247.24
572.25	45057.65
572.41	45514.06
572.57	45413.41
572.74	46014.93
572.90	45364.26
573.06	45305.75
573.22	45392.35
573.38	45705.98
573.55	45546.82
573.71	45670.87
573.87	45628.74
574.03	45530.44
574.20	45045.95
574.36	45598.32
574.52	45558.53
574.68	45600.66
574.84	45806.62
575.01	45876.84
575.17	46136.64
575.33	45841.73
575.49	45422.78
575.65	45698.96
575.82	45745.77
575.98	45574.91
576.14	46146.00
576.30	45916.63
576.46	45673.21
576.62	45481.29
576.79	45523.42
576.95	45565.55
577.11	45607.68
577.27	45691.94
577.43	45787.90
577.59	45853.44
577.75	45261.28
577.92	44917.22
578.08	45628.74
578.24	45492.99
578.40	45759.81
578.56	45689.60
578.72	45986.85
578.88	45876.84
579.04	46174.09
579.21	45565.55
579.37	45631.08
579.53	46087.49
579.69	45495.33
579.85	45755.13
580.01	45453.20
580.17	45642.79
580.33	45509.38
580.49	45752.79
580.65	45968.12
580.82	45895.56
580.98	45659.17
581.14	45558.53
581.30	45883.86
581.46	45544.48
581.62	45820.67
581.78	45558.53
581.94	46286.43
582.10	45839.39
582.26	45701.30
582.42	45813.65
582.58	45705.98
582.74	45890.88
582.90	45832.37
583.06	45500.01
583.22	45867.48
583.38	46033.66
583.54	46021.95
583.70	45944.72
583.86	46169.41
584.02	45818.33
584.18	45916.63
584.34	46045.36
584.50	46211.54
584.66	46377.72
584.82	46033.66
584.98	46190.47
585.14	45626.40
585.30	45638.11
585.46	45942.38
585.62	46036.00
585.78	46054.72
585.94	45539.80
586.10	45823.01
586.26	45722.37
586.42	45659.17
586.58	46017.27
586.74	45940.04
586.90	46117.92
587.06	45626.40
587.22	45989.19
587.38	45530.44
587.54	46232.60
587.70	46464.32
587.86	46019.61
588.02	45813.65
588.18	46071.10
588.34	45710.66
588.49	45956.42
588.65	45563.21
588.81	45909.61
588.97	45727.05
589.13	46031.32
589.29	45944.72
589.45	46782.63
589.61	46153.02
589.77	46202.18
589.93	46522.83
590.08	46527.51
