SpectraSuite Data File
++++++++++++++++++++++++++++++++++++
Date: Fri Oct 25 11:23:42 EDT 2013
User: price-jones
Dark Spectrum Present: No
Reference Spectrum Present: No
Number of Sampled Component Spectra: 1
Spectrometers: USB2+H05261
Integration Time (usec): 100000 (USB2+H05261)
Spectra Averaged: 1 (USB2+H05261)
Boxcar Smoothing: 0 (USB2+H05261)
Correct for Electrical Dark: No (USB2+H05261)
Strobe/Lamp Enabled: No (USB2+H05261)
Correct for Detector Non-linearity: No (USB2+H05261)
Correct for Stray Light: No (USB2+H05261)
Number of Pixels in Processed Spectrum: 2048
>>>>>Begin Processed Spectral Data<<<<<
365.73	231.71
365.92	231.71
366.12	231.71
366.32	205.97
366.52	110.01
366.72	149.79
366.91	98.30
367.11	138.09
367.31	196.60
367.51	147.45
367.70	159.16
367.90	88.94
368.10	91.28
368.30	58.51
368.49	79.58
368.69	159.16
368.89	114.69
369.09	159.16
369.28	208.31
369.48	105.32
369.68	145.11
369.87	234.05
370.07	217.67
370.27	161.50
370.47	313.63
370.66	585.13
370.86	587.47
371.06	669.39
371.25	655.35
371.45	657.69
371.65	660.03
371.84	760.67
372.04	716.20
372.24	763.01
372.44	681.10
372.63	716.20
372.83	758.33
373.03	692.80
373.22	667.05
373.42	734.93
373.62	800.46
373.81	814.51
374.01	870.68
374.21	816.85
374.40	774.72
374.60	807.48
374.79	802.80
374.99	779.40
375.19	880.04
375.38	891.74
375.58	870.68
375.78	835.57
375.97	833.23
376.17	889.40
376.37	854.30
376.56	844.93
376.76	837.91
376.95	870.68
377.15	961.96
377.35	835.57
377.54	940.90
377.74	896.43
377.93	940.90
378.13	877.70
378.33	866.00
378.52	877.70
378.72	936.21
378.91	826.21
379.11	870.68
379.31	936.21
379.50	954.94
379.70	964.30
379.89	980.68
380.09	1018.13
380.28	961.96
380.48	997.07
380.68	997.07
380.87	943.24
381.07	959.62
381.26	983.02
381.46	952.60
381.65	1076.65
381.85	1048.56
382.04	1097.71
382.24	1036.86
382.43	1118.78
382.63	1041.54
382.83	999.41
383.02	1107.07
383.22	1132.82
383.41	1083.67
383.61	1036.86
383.80	1193.67
384.00	1076.65
384.19	1093.03
384.39	1109.41
384.58	1153.88
384.78	1111.75
384.97	1160.91
385.17	1172.61
385.36	1231.12
385.56	1172.61
385.75	1116.44
385.95	1259.21
386.14	1151.54
386.34	1254.53
386.53	1191.33
386.72	1188.99
386.92	1231.12
387.11	1121.12
387.31	1139.84
387.50	1233.46
387.70	1256.87
387.89	1268.57
388.09	1284.95
388.28	1299.00
388.48	1411.34
388.67	1352.83
388.86	1420.71
389.06	1296.66
389.25	1359.85
389.45	1299.00
389.64	1418.36
389.84	1284.95
390.03	1448.79
390.22	1472.20
390.42	1446.45
390.61	1371.55
390.81	1380.92
391.00	1369.21
391.19	1439.43
391.39	1439.43
391.58	1467.52
391.78	1451.13
391.97	1530.71
392.16	1392.62
392.36	1469.86
392.55	1497.94
392.75	1465.18
392.94	1537.73
393.13	1448.79
393.33	1453.47
393.52	1519.01
393.71	1614.97
393.91	1593.90
394.10	1607.95
394.29	1568.16
394.49	1600.93
394.68	1610.29
394.88	1619.65
395.07	1568.16
395.26	1640.72
395.46	1675.82
395.65	1685.19
395.84	1790.51
396.04	1778.81
396.23	1783.49
396.42	1741.36
396.62	1823.28
396.81	1842.00
397.00	1734.34
397.19	1823.28
397.39	1732.00
397.58	1776.47
397.77	1661.78
397.97	1877.11
398.16	1832.64
398.35	1879.45
398.55	1867.75
398.74	1874.77
398.93	1991.80
399.12	1914.56
399.32	1881.79
399.51	1973.07
399.70	1996.48
399.90	2033.93
400.09	1982.43
400.28	2120.53
400.47	1914.56
400.67	2150.95
400.86	2038.61
401.05	2120.53
401.24	2094.78
401.44	2139.25
401.63	2150.95
401.82	2097.12
402.01	2045.63
402.21	2148.61
402.40	2282.02
402.59	2148.61
402.78	2260.96
402.97	2326.49
403.17	2275.00
403.36	2235.21
403.55	2242.23
403.74	2410.75
403.93	2359.26
404.13	2352.24
404.32	2511.39
404.51	2420.11
404.70	2394.37
404.89	2399.05
405.09	2392.03
405.28	2427.14
405.47	2471.61
405.66	2518.42
405.85	2516.08
406.05	2560.55
406.24	2644.81
406.43	2616.72
406.62	2553.52
406.81	2614.38
407.00	2644.81
407.20	2677.57
407.39	2686.94
407.58	2752.47
407.77	2775.88
407.96	2778.22
408.15	2803.96
408.34	2731.41
408.54	2815.66
408.73	2841.41
408.92	2846.09
409.11	3021.63
409.30	2918.65
409.49	2864.82
409.68	3009.93
409.87	2876.52
410.07	2925.67
410.26	2951.42
410.45	2967.80
410.64	3054.40
410.83	3173.77
411.02	3101.21
411.21	3145.68
411.40	3164.40
411.59	3145.68
411.78	3248.66
411.98	3297.81
412.17	3253.34
412.36	3314.20
412.55	3300.16
412.74	3431.23
412.93	3391.44
413.12	3370.37
413.31	3433.57
413.50	3447.61
413.69	3478.04
413.88	3618.47
414.07	3698.05
414.26	3599.74
414.45	3861.88
414.64	3583.36
414.83	3562.30
415.02	3850.18
415.22	3871.25
415.41	3808.05
415.60	3901.67
415.79	3887.63
415.98	4091.26
416.17	3964.87
416.36	3971.89
416.55	4032.74
416.74	4187.22
416.93	4060.83
417.12	4170.83
417.31	4170.83
417.50	4301.90
417.69	4329.99
417.88	4299.56
418.07	4283.18
418.26	4117.00
418.45	4379.14
418.64	4451.70
418.83	4514.89
419.02	4489.15
419.21	4447.02
419.39	4512.55
419.58	4496.17
419.77	4531.28
419.96	4603.83
420.15	4477.44
420.34	4535.96
420.53	4652.98
420.72	4629.58
420.91	4760.65
421.10	4697.46
421.29	4767.67
421.48	4704.48
421.67	4840.23
421.86	4704.48
422.05	4837.89
422.24	4734.90
422.43	4861.29
422.61	4889.38
422.80	4971.30
422.99	4971.30
423.18	4912.78
423.37	5121.09
423.56	4973.64
423.75	4863.63
423.94	4840.23
424.13	4634.26
424.32	4802.78
424.50	5158.54
424.69	4985.34
424.88	5067.26
425.07	4884.70
425.26	5008.75
425.45	4938.53
425.64	4896.40
425.83	4835.55
426.01	5090.67
426.20	4943.21
426.39	5146.84
426.58	5011.09
426.77	5053.22
426.96	5111.73
427.15	5163.22
427.33	5224.08
427.52	5200.67
427.71	5296.63
427.90	5163.22
428.09	5392.59
428.28	5413.66
428.46	5280.25
428.65	5432.38
428.84	5666.44
429.03	5493.24
429.22	5547.07
429.40	5626.65
429.59	5572.82
429.78	5408.98
429.97	5128.11
430.16	5448.77
430.34	5767.08
430.53	5640.69
430.72	5727.29
430.91	5598.56
431.10	5591.54
431.28	5795.17
431.47	5774.10
431.66	5886.45
431.85	5666.44
432.03	5675.80
432.22	6069.01
432.41	5954.32
432.60	5781.12
432.79	5914.53
432.97	6080.71
433.16	6029.22
433.35	5963.68
433.54	6083.05
433.72	6157.95
433.91	6038.58
434.10	6143.91
434.28	6153.27
434.47	6122.84
434.66	6239.87
434.85	6263.27
435.03	6249.23
435.22	6340.51
435.41	6654.14
435.59	6340.51
435.78	6511.37
435.97	6429.45
436.16	6516.05
436.34	6558.18
436.53	6541.80
436.72	6757.13
436.90	6431.79
437.09	6686.91
437.28	6637.76
437.46	6796.92
437.65	6689.25
437.84	6799.26
438.02	6775.85
438.21	6892.88
438.40	6733.72
438.58	6984.16
438.77	7124.59
438.96	7000.54
439.14	7162.04
439.33	7129.27
439.52	7187.79
439.70	7234.60
439.89	7428.86
440.08	7414.82
440.26	7398.43
440.45	7309.49
440.63	7482.69
440.82	7899.31
441.01	7555.25
441.19	7602.06
441.38	7918.03
441.57	7719.09
441.75	7674.62
441.94	8035.06
442.12	7880.58
442.31	7948.46
442.50	8086.55
442.68	8166.13
442.87	8156.77
443.05	8084.21
443.24	8131.02
443.43	8161.45
443.61	8304.22
443.80	8573.38
443.98	8086.55
444.17	8032.72
444.35	8238.69
444.54	8470.40
444.73	8278.47
444.91	8257.41
445.10	8234.00
445.28	8423.59
445.47	8201.24
445.65	8362.73
445.84	8451.67
446.02	8376.78
446.21	8496.14
446.39	8360.39
446.58	8414.23
446.77	8587.43
446.95	8320.60
447.14	8484.44
447.32	8526.57
447.51	8458.70
447.69	8458.70
447.88	8645.94
448.06	8713.81
448.25	8510.19
448.43	8872.97
448.62	8580.40
448.80	8564.02
448.99	8585.08
449.17	8875.31
449.36	8601.47
449.54	9046.17
449.73	9018.08
449.91	9057.87
450.10	9001.70
450.28	8777.01
450.46	9174.90
450.65	8856.59
450.83	9046.17
451.02	9034.47
451.20	9357.46
451.39	9130.43
451.57	9415.98
451.76	9184.26
451.94	9193.62
452.13	9525.98
452.31	9324.69
452.49	9298.95
452.68	9533.00
452.86	9483.85
453.05	9579.81
453.23	9500.23
453.42	9277.88
453.60	9411.29
453.78	9392.57
453.97	9509.60
454.15	9554.07
454.34	9628.96
454.52	9626.62
454.70	9621.94
454.89	9760.03
455.07	9750.67
455.26	9977.70
455.44	9984.73
455.62	9977.70
455.81	10010.47
455.99	10115.80
456.17	10141.54
456.36	10038.56
456.54	10188.35
456.73	10272.61
456.91	10480.92
457.09	10387.30
457.28	10532.41
457.46	10396.66
457.64	10602.63
457.83	10448.15
458.01	10597.95
458.19	10661.14
458.38	10574.54
458.56	10951.37
458.74	10794.55
458.93	10555.82
459.11	10792.21
459.29	10913.92
459.48	10918.60
459.66	10953.71
459.84	11066.05
460.03	11253.30
460.21	10902.22
460.39	11056.69
460.57	10930.30
460.76	11040.31
460.94	11124.57
461.12	11199.46
461.31	11138.61
461.49	11475.65
461.67	11360.96
461.85	11456.92
462.04	11513.10
462.22	11564.59
462.40	11740.13
462.59	11370.32
462.77	11449.90
462.95	11585.65
463.13	11499.05
463.32	11716.72
463.50	11805.66
463.68	11789.28
463.86	11896.94
464.05	11721.40
464.23	11602.04
464.41	12032.69
464.59	11751.83
464.78	12016.31
464.96	11915.67
465.14	11831.41
465.32	12032.69
465.50	12245.68
465.69	12325.26
465.87	12355.69
466.05	12152.06
466.23	12283.13
466.41	12376.75
466.60	12568.68
466.78	12180.15
466.96	11957.80
467.14	12283.13
467.32	12585.06
467.51	12549.95
467.69	12290.15
467.87	12620.17
468.05	12840.18
468.23	12512.50
468.41	12287.81
468.60	12449.31
468.78	12992.31
468.96	12669.32
469.14	12828.48
469.32	13048.49
469.50	12725.49
469.69	12987.63
469.87	12931.46
470.05	13137.43
470.23	13226.37
470.41	13362.12
470.59	13352.76
470.77	13245.09
470.95	13420.63
471.14	13532.98
471.32	13252.11
471.50	13645.32
471.68	13486.17
471.86	13713.20
472.04	13685.11
472.22	14068.96
472.40	13762.35
472.58	14244.50
472.77	13987.04
472.95	14338.12
473.13	14691.54
473.31	14246.84
473.49	14075.98
473.67	14256.20
473.85	14338.12
474.03	14590.90
474.21	14759.42
474.39	14743.03
474.57	14759.42
474.75	15080.07
474.93	14799.21
475.12	15094.11
475.30	15136.24
475.48	15091.77
475.66	14871.76
475.84	15234.55
476.02	15297.74
476.20	15405.41
476.38	15925.00
476.56	15999.90
476.74	15925.00
476.92	15829.04
477.10	15971.82
477.28	16154.38
477.46	16343.96
477.64	16198.85
477.82	16599.08
478.00	17261.45
478.18	16875.26
478.36	17156.13
478.54	17315.28
478.72	17238.05
478.90	17434.65
479.08	17642.96
479.26	17841.90
479.44	17947.23
479.62	18001.06
479.80	18207.03
479.98	18501.93
480.16	18508.96
480.34	18642.37
480.52	18633.00
480.70	18710.24
480.88	18340.44
481.06	18904.51
481.24	18888.12
481.41	19084.73
481.59	19449.85
481.77	19667.52
481.95	19665.18
482.13	20009.24
482.31	19669.86
482.49	20231.59
482.67	20379.04
482.85	20554.58
483.03	20472.67
483.21	20767.57
483.39	21137.38
483.57	20879.92
483.74	21298.88
483.92	21483.78
484.10	21591.44
484.28	21575.06
484.46	22146.15
484.64	22295.94
484.82	22097.00
485.00	22434.03
485.18	23091.73
485.35	23082.36
485.53	23070.66
485.71	23442.81
485.89	23791.55
486.07	23672.18
486.25	23580.90
486.43	23784.52
486.61	24065.39
486.78	24156.67
486.96	24372.00
487.14	25001.60
487.32	24374.34
487.50	25436.94
487.68	25130.33
487.85	25160.76
488.03	25678.02
488.21	25769.30
488.39	25865.26
488.57	26256.13
488.75	26122.72
488.92	26487.84
489.10	26558.06
489.28	26771.05
489.46	27040.21
489.64	27487.25
489.81	27707.26
489.99	28175.37
490.17	27931.95
490.35	28421.13
490.53	28404.74
490.70	28463.25
490.88	28547.51
491.06	29153.71
491.24	29287.12
491.41	28826.04
491.59	29277.76
491.77	29099.88
491.95	29764.59
492.13	29900.34
492.30	30157.80
492.48	30309.94
492.66	30349.73
492.84	30700.81
493.01	31096.36
493.19	30534.63
493.37	31229.77
493.54	31171.25
493.72	31632.34
493.90	31723.62
494.08	31917.89
494.25	31697.88
494.43	32378.97
494.61	32615.37
494.79	32704.31
494.96	32563.87
495.14	32921.98
495.32	33385.40
495.49	33200.50
495.67	33338.59
495.85	33668.61
496.02	34146.08
496.20	34298.21
496.38	34078.20
496.55	34155.44
496.73	34873.98
496.91	34897.39
497.09	35028.46
497.26	35002.71
497.44	35047.18
497.62	35416.99
497.79	36161.28
497.97	35519.97
498.14	35971.69
498.32	36222.13
498.50	35847.64
498.67	36884.50
498.85	36797.90
499.03	37156.00
499.20	36547.47
499.38	36687.90
499.56	37027.28
499.73	37244.94
499.91	37715.39
500.08	37462.61
500.26	37699.01
500.44	37610.07
500.61	38595.43
500.79	38120.31
500.97	38347.34
501.14	38878.64
501.32	39072.90
501.49	38787.36
501.67	38902.04
501.84	39239.08
502.02	39086.95
502.20	39276.53
502.37	39246.10
502.55	39154.82
502.72	39538.67
502.90	39899.11
503.07	39791.45
503.25	39952.94
503.43	39585.48
503.60	40142.53
503.78	40591.91
503.95	40392.97
504.13	40648.08
504.30	40781.49
504.48	40657.45
504.65	41184.07
504.83	41226.20
505.01	41455.57
505.18	41504.72
505.36	41780.90
505.53	41546.85
505.71	41926.02
505.88	42043.04
506.06	41771.54
506.23	41965.81
506.41	42323.91
506.58	42417.53
506.76	42344.97
506.93	42377.74
507.11	42349.65
507.28	43061.18
507.46	42892.66
507.63	43175.86
507.81	43555.03
507.98	43332.68
508.16	43225.01
508.33	43643.97
508.50	43927.17
508.68	44123.78
508.85	44271.23
509.03	43880.36
509.20	44320.38
509.38	44851.69
509.55	44924.24
509.73	44863.39
509.90	44655.08
510.08	44570.82
510.25	44823.60
510.42	44669.12
510.60	45216.81
510.77	45102.12
510.95	45212.13
511.12	45525.76
511.30	45312.77
511.47	45537.46
511.64	45514.06
511.82	46316.86
511.99	46162.39
512.17	46050.04
512.34	45935.35
512.51	46632.83
512.69	46632.83
512.86	47021.36
513.04	46946.47
513.21	46848.16
513.38	47332.65
513.56	47091.58
513.73	47028.38
513.90	47248.39
514.08	46976.89
514.25	47391.17
514.43	47105.62
514.60	47873.32
514.77	47796.08
514.95	47798.42
515.12	47793.74
515.29	47819.49
515.47	48229.08
515.64	48067.58
515.81	48037.16
515.99	48540.37
516.16	48505.26
516.33	48683.14
516.51	48643.35
516.68	48818.89
516.85	48584.84
517.03	48959.33
517.20	49448.50
517.37	49024.86
517.54	49148.91
517.72	49249.55
517.89	49354.88
518.06	49514.03
518.24	49514.03
518.41	49200.40
518.58	49635.74
518.75	49476.58
518.93	49799.58
519.10	49947.03
519.27	49996.18
519.45	49951.71
519.62	50197.47
519.79	49907.24
519.96	50052.36
520.14	50618.77
520.31	50103.85
520.48	50672.60
520.65	50415.14
520.83	50787.28
521.00	50841.12
521.17	50569.61
521.34	50843.46
521.52	50651.53
521.69	50820.05
521.86	51096.24
522.03	51164.11
522.20	51421.57
522.38	51622.86
522.55	51601.79
522.72	51414.55
522.89	51503.49
523.07	51709.46
523.24	51517.53
523.41	51805.42
523.58	51679.03
523.75	52051.17
523.92	51966.91
524.10	52123.73
524.27	51910.74
524.44	52205.65
524.61	52559.07
524.78	52402.25
524.96	52399.91
525.13	52210.33
525.30	52257.14
525.47	52683.12
525.64	52615.24
525.81	52882.06
525.98	52851.64
526.16	52530.98
526.33	53151.23
526.50	53095.05
526.67	52898.45
526.84	53165.27
527.01	53214.42
527.18	53078.67
527.36	53277.61
527.53	53226.12
527.70	53542.10
527.87	53404.00
528.04	53120.80
528.21	53659.12
528.38	53567.84
528.55	53780.83
528.72	53357.19
528.89	53661.46
529.07	53492.94
529.24	53514.01
529.41	53853.39
529.58	53813.60
529.75	53771.47
529.92	53722.32
530.09	53954.03
530.26	54028.93
530.43	54031.27
530.60	53923.60
530.77	54260.64
530.94	54284.04
531.11	54148.29
531.28	54145.95
531.46	54440.86
531.63	54398.73
531.80	54258.30
531.97	54653.85
532.14	54649.17
532.31	54499.37
532.48	54815.35
532.65	54644.49
532.82	54513.42
532.99	54845.77
533.16	54733.43
533.33	55040.04
533.50	55009.61
533.67	54663.21
533.84	54777.90
534.01	55065.78
534.18	55107.91
534.35	55660.28
534.52	55210.90
534.69	55217.92
534.86	55679.00
535.03	55391.12
535.20	55440.27
535.37	55458.99
535.54	55484.74
535.71	55402.82
535.88	55643.90
536.05	55653.26
536.22	55793.69
536.38	56016.04
536.55	55601.77
536.72	55746.88
536.89	55681.34
537.06	55767.94
537.23	55899.01
537.40	55599.43
537.57	55817.10
537.74	55824.12
537.91	56018.38
538.08	56257.12
538.25	55856.88
538.42	56287.54
538.59	56229.03
538.75	55962.21
538.92	56126.05
539.09	56275.84
539.26	55997.32
539.43	56357.76
539.60	56205.62
539.77	56172.86
539.94	56605.86
540.11	56519.26
540.28	56378.82
540.44	56643.30
540.61	56762.67
540.78	56692.46
540.95	56495.85
541.12	56608.20
541.29	56542.66
541.46	56673.73
541.62	56910.13
541.79	56734.59
541.96	56369.46
542.13	57109.07
542.30	56905.44
542.47	56940.55
542.63	56800.12
542.80	56776.72
542.97	57125.46
543.14	57242.48
543.31	57034.17
543.48	57516.32
543.64	57504.62
543.81	57324.40
543.98	57511.64
544.15	57411.00
544.32	57528.03
544.48	57577.18
544.65	57586.54
544.82	57530.37
544.99	57401.64
545.16	57614.63
545.32	57511.64
545.49	57722.29
545.66	57801.87
545.83	57736.34
546.00	57858.04
546.16	57764.42
546.33	57563.14
546.50	57511.64
546.67	57963.37
546.83	57556.11
547.00	58071.03
547.17	57691.86
547.34	57560.79
547.50	58166.99
547.67	58277.00
547.84	58211.46
548.00	58454.88
548.17	58267.64
548.34	58230.19
548.51	58389.34
548.67	58394.03
548.84	58206.78
549.01	58150.61
549.18	58202.10
549.34	58265.30
549.51	58426.79
549.68	58471.26
549.84	58527.44
550.01	58665.53
550.18	58574.25
550.34	58501.69
550.51	58724.04
550.68	58529.78
550.84	58431.47
551.01	58681.91
551.18	58773.19
551.34	58525.10
551.51	58754.47
551.68	58777.87
551.84	58695.95
552.01	58520.41
552.18	58775.53
552.34	58604.67
552.51	58749.79
552.68	58618.72
552.84	58621.06
553.01	59096.19
553.18	58908.94
553.34	59061.08
553.51	58808.30
553.67	58930.01
553.84	59133.63
554.01	59040.01
554.17	59093.85
554.34	59037.67
554.51	59164.06
554.67	59187.47
554.84	59131.29
555.00	59135.98
555.17	59061.08
555.33	59089.16
555.50	59072.78
555.67	58988.52
555.83	59086.82
556.00	59306.83
556.16	59503.44
556.33	59276.41
556.50	59334.92
556.66	59400.46
556.83	59121.93
556.99	59632.17
557.16	59728.13
557.32	59732.81
557.49	59725.79
557.65	59480.03
557.82	59306.83
557.98	59494.08
558.15	59608.76
558.32	59491.74
558.48	59405.14
558.65	59515.14
558.81	59533.87
558.98	59519.82
559.14	59650.89
559.31	59821.75
559.47	59627.49
559.64	60006.65
559.80	59849.84
559.97	59824.09
560.13	59735.15
560.30	59781.96
560.46	59849.84
560.63	59896.65
560.79	59917.71
560.96	59938.78
561.12	59936.44
561.29	59854.52
561.45	59805.37
561.61	60001.97
561.78	59990.27
561.94	60004.31
562.11	59835.80
562.27	60147.09
562.44	60030.06
562.60	60172.83
562.77	60123.68
562.93	59971.55
563.10	60154.11
563.26	59929.42
563.42	60282.84
563.59	60041.76
563.75	60250.07
563.92	60214.96
564.08	60196.24
564.24	60245.39
564.41	60280.50
564.57	60231.35
564.74	60353.05
564.90	60126.02
565.07	60030.06
565.23	60189.22
565.39	60205.60
565.56	60247.73
565.72	60343.69
565.88	60245.39
566.05	60243.05
566.21	60207.94
566.38	60409.23
566.54	60360.08
566.70	60486.46
566.87	60294.54
567.03	60308.58
567.19	60575.40
567.36	60439.65
567.52	60292.20
567.68	60542.64
567.85	60371.78
568.01	60498.17
568.17	60432.63
568.34	60563.70
568.50	60554.34
568.66	60427.95
568.83	60430.29
568.99	60360.08
569.15	60523.91
569.32	60395.18
569.48	60388.16
569.64	60535.62
569.81	60596.47
569.97	60463.06
570.13	60540.30
570.30	60397.52
570.46	60624.56
570.62	60587.11
570.78	60463.06
570.95	60552.00
571.11	60619.88
571.27	60456.04
571.43	60647.96
571.60	60748.60
571.76	60720.52
571.92	60891.38
572.09	60666.69
572.25	60851.59
572.41	60645.62
572.57	60781.37
572.74	60917.12
572.90	60732.22
573.06	60769.67
573.22	60776.69
573.38	60669.03
573.55	60563.70
573.71	60889.04
573.87	60659.66
574.03	60554.34
574.20	60669.03
574.36	60687.75
574.52	60952.23
574.68	60825.84
574.84	60818.82
575.01	60802.44
575.17	60893.72
575.33	60860.95
575.49	60781.37
575.65	60963.93
575.82	60844.57
575.98	60893.72
576.14	60987.34
576.30	60982.66
576.46	60849.25
576.62	60811.80
576.79	60640.94
576.95	60842.23
577.11	60874.99
577.27	61120.75
577.43	60877.33
577.59	60884.36
577.75	60858.61
577.92	60509.87
578.08	60790.73
578.24	60884.36
578.40	61181.60
578.56	61027.13
578.72	61034.15
578.88	61200.33
579.04	61256.50
579.21	60900.74
579.37	61158.20
579.53	61099.68
579.69	60814.14
579.85	61006.06
580.01	60956.91
580.17	60856.27
580.33	60982.66
580.49	61116.07
580.65	61172.24
580.82	61015.43
580.98	60938.19
581.14	60924.14
581.30	61176.92
581.46	60832.86
581.62	61106.71
581.78	60996.70
581.94	60970.96
582.10	61111.39
582.26	61141.81
582.42	61031.81
582.58	60807.12
582.74	60968.61
582.90	61036.49
583.06	61043.51
583.22	61008.40
583.38	60935.85
583.54	61216.71
583.70	61181.60
583.86	61162.88
584.02	60956.91
584.18	61127.77
584.34	61102.03
584.50	61080.96
584.66	60938.19
584.82	60828.18
584.98	61420.34
585.14	61268.20
585.30	60938.19
585.46	61092.66
585.62	61085.64
585.78	61291.61
585.94	60898.40
586.10	61132.45
586.26	61258.84
586.42	61293.95
586.58	61254.16
586.74	61230.75
586.90	61066.92
587.06	61085.64
587.22	61155.86
587.38	61202.67
587.54	61202.67
587.70	61361.82
587.86	61092.66
588.02	61240.12
588.18	61216.71
588.34	61207.35
588.49	60963.93
