SpectraSuite Data File
++++++++++++++++++++++++++++++++++++
Date: Fri Oct 25 10:47:29 EDT 2013
User: price-jones
Dark Spectrum Present: No
Reference Spectrum Present: No
Number of Sampled Component Spectra: 1
Spectrometers: USB2+H05261
Integration Time (usec): 100000 (USB2+H05261)
Spectra Averaged: 1 (USB2+H05261)
Boxcar Smoothing: 0 (USB2+H05261)
Correct for Electrical Dark: No (USB2+H05261)
Strobe/Lamp Enabled: No (USB2+H05261)
Correct for Detector Non-linearity: No (USB2+H05261)
Correct for Stray Light: No (USB2+H05261)
Number of Pixels in Processed Spectrum: 2048
>>>>>Begin Processed Spectral Data<<<<<
365.73	152.13
365.92	152.13
366.12	152.13
366.32	95.96
366.52	51.49
366.72	81.92
366.91	0.00
367.11	70.22
367.31	53.83
367.51	23.41
367.70	56.17
367.90	72.56
368.10	46.81
368.30	32.77
368.49	60.85
368.69	60.85
368.89	30.43
369.09	4.68
369.28	44.47
369.48	91.28
369.68	18.72
369.87	63.19
370.07	156.82
370.27	110.01
370.47	161.50
370.66	334.70
370.86	397.89
371.06	470.45
371.25	498.53
371.45	379.17
371.65	390.87
371.84	423.64
372.04	475.13
372.24	482.15
372.44	472.79
372.63	519.60
372.83	535.98
373.03	491.51
373.22	470.45
373.42	496.19
373.62	512.58
373.81	589.82
374.01	566.41
374.21	505.56
374.40	596.84
374.60	592.16
374.79	528.96
374.99	608.54
375.19	587.47
375.38	573.43
375.58	543.00
375.78	603.86
375.97	585.13
376.17	676.41
376.37	552.37
376.56	627.26
376.76	561.73
376.95	568.75
377.15	638.97
377.35	589.82
377.54	552.37
377.74	475.13
377.93	671.73
378.13	603.86
378.33	617.90
378.52	624.92
378.72	613.22
378.91	627.26
379.11	660.03
379.31	660.03
379.50	601.52
379.70	653.01
379.89	636.63
380.09	615.56
380.28	660.03
380.48	730.25
380.68	732.59
380.87	638.97
381.07	641.31
381.26	688.12
381.46	554.71
381.65	667.05
381.85	645.99
382.04	667.05
382.24	655.35
382.43	695.14
382.63	664.71
382.83	636.63
383.02	725.57
383.22	767.70
383.41	734.93
383.61	685.78
383.80	770.04
384.00	648.33
384.19	723.23
384.39	786.42
384.58	683.44
384.78	725.57
384.97	774.72
385.17	758.33
385.36	716.20
385.56	737.27
385.75	681.10
385.95	723.23
386.14	814.51
386.34	805.14
386.53	770.04
386.72	699.82
386.92	823.87
387.11	706.84
387.31	812.17
387.50	767.70
387.70	830.89
387.89	772.38
388.09	767.70
388.28	814.51
388.48	863.66
388.67	870.68
388.86	863.66
389.06	858.98
389.25	821.53
389.45	875.36
389.64	917.49
389.84	980.68
390.03	936.21
390.22	870.68
390.42	901.11
390.61	929.19
390.81	924.51
391.00	940.90
391.19	985.37
391.39	880.04
391.58	945.58
391.78	952.60
391.97	917.49
392.16	875.36
392.36	1008.77
392.55	896.43
392.75	945.58
392.94	1004.09
393.13	954.94
393.33	964.30
393.52	964.30
393.71	952.60
393.91	990.05
394.10	1036.86
394.29	1025.15
394.49	1006.43
394.68	1083.67
394.88	1071.97
395.07	1132.82
395.26	1097.71
395.46	1121.12
395.65	1048.56
395.84	1093.03
396.04	1048.56
396.23	1137.50
396.42	1046.22
396.62	1067.28
396.81	1125.80
397.00	1177.29
397.19	1114.10
397.39	1200.69
397.58	1196.01
397.77	1200.69
397.97	1224.10
398.16	1212.40
398.35	1263.89
398.55	1135.16
398.74	1282.61
398.93	1343.47
399.12	1299.00
399.32	1268.57
399.51	1380.92
399.70	1226.44
399.90	1277.93
400.09	1334.11
400.28	1362.19
400.47	1327.08
400.67	1441.77
400.86	1455.81
401.05	1406.66
401.24	1390.28
401.44	1441.77
401.63	1441.77
401.82	1423.05
402.01	1406.66
402.21	1486.24
402.40	1509.65
402.59	1497.94
402.78	1528.37
402.97	1476.88
403.17	1549.43
403.36	1561.14
403.55	1528.37
403.74	1563.48
403.93	1689.87
404.13	1652.42
404.32	1509.65
404.51	1563.48
404.70	1558.80
404.89	1631.35
405.09	1781.15
405.28	1645.40
405.47	1619.65
405.66	1640.72
405.85	1802.21
406.05	1694.55
406.24	1785.83
406.43	1685.19
406.62	1739.02
406.81	1736.68
407.00	1739.02
407.20	1849.02
407.39	1774.13
407.58	1870.09
407.77	1870.09
407.96	1804.55
408.15	1898.17
408.34	1886.47
408.54	1865.41
408.73	1849.02
408.92	2064.35
409.11	2073.71
409.30	2054.99
409.49	1956.69
409.68	2040.95
409.87	1895.83
410.07	2059.67
410.26	2076.06
410.45	2167.34
410.64	2190.74
410.83	2059.67
411.02	2136.91
411.21	2181.38
411.40	2115.84
411.59	2225.85
411.78	2200.10
411.98	2139.25
412.17	2310.11
412.36	2347.56
412.55	2331.17
412.74	2359.26
412.93	2417.77
413.12	2352.24
413.31	2410.75
413.50	2389.69
413.69	2424.80
413.88	2551.18
414.07	2537.14
414.26	2525.44
414.45	2551.18
414.64	2492.67
414.83	2630.76
415.02	2691.62
415.22	2668.21
415.41	2635.44
415.60	2675.23
415.79	2757.15
415.98	2778.22
416.17	2663.53
416.36	2731.41
416.55	2808.64
416.74	2869.50
416.93	2773.53
417.12	2857.79
417.31	2895.24
417.50	2899.92
417.69	3016.95
417.88	2928.01
418.07	2974.82
418.26	2977.16
418.45	3047.38
418.64	3075.46
418.83	3045.04
419.02	3077.80
419.21	3194.83
419.39	3059.08
419.58	3136.32
419.77	3054.40
419.96	3126.96
420.15	3199.51
420.34	3311.86
420.53	3218.24
420.72	3197.17
420.91	3251.00
421.10	3414.84
421.29	3274.41
421.48	3311.86
421.67	3279.09
421.86	3309.52
422.05	3272.07
422.24	3339.94
422.43	3372.71
422.61	3445.27
422.80	3405.48
422.99	3414.84
423.18	3342.28
423.37	3496.76
423.56	3431.23
423.75	3368.03
423.94	3281.43
424.13	3047.38
424.32	3382.07
424.50	3454.63
424.69	3452.29
424.88	3541.23
425.07	3435.91
425.26	3379.73
425.45	3307.18
425.64	3482.72
425.83	3456.97
426.01	3438.25
426.20	3487.40
426.39	3358.67
426.58	3440.59
426.77	3449.95
426.96	3487.40
427.15	3496.76
427.33	3421.86
427.52	3517.83
427.71	3658.26
427.90	3651.24
428.09	3630.17
428.28	3653.58
428.46	3602.08
428.65	3721.45
428.84	3861.88
429.03	3882.95
429.22	3651.24
429.40	3772.94
429.59	3754.22
429.78	3557.61
429.97	3524.85
430.16	3691.02
430.34	3812.73
430.53	3927.42
430.72	3819.75
430.91	3775.28
431.10	3803.37
431.28	4114.66
431.47	3997.64
431.66	4039.76
431.85	3943.80
432.03	3948.48
432.22	4128.70
432.41	3946.14
432.60	3997.64
432.79	4189.56
432.97	4161.47
433.16	4037.42
433.35	4044.45
433.54	4147.43
433.72	4128.70
433.91	4147.43
434.10	4166.15
434.28	4329.99
434.47	4287.86
434.66	4341.69
434.85	4283.18
435.03	4304.25
435.22	4271.48
435.41	4397.87
435.59	4540.64
435.78	4517.23
435.97	4458.72
436.16	4491.49
436.34	4566.39
436.53	4477.44
436.72	4709.16
436.90	4379.14
437.09	4582.77
437.28	4407.23
437.46	4442.34
437.65	4341.69
437.84	4627.24
438.02	4660.01
438.21	4582.77
438.40	4566.39
438.58	4753.63
438.77	4713.84
438.96	4947.89
439.14	4828.53
439.33	4947.89
439.52	4931.51
439.70	4926.83
439.89	5144.50
440.08	4997.04
440.26	5076.62
440.45	4894.06
440.63	5130.45
440.82	5268.55
441.01	5022.79
441.19	5280.25
441.38	5308.34
441.57	5174.92
441.75	5284.93
441.94	5404.30
442.12	5439.40
442.31	5493.24
442.50	5474.51
442.68	5549.41
442.87	5493.24
443.05	5584.52
443.24	5577.50
443.43	5579.84
443.61	5689.84
443.80	5825.59
443.98	5383.23
444.17	5521.32
444.35	5729.63
444.54	5809.21
444.73	5643.03
444.91	5605.58
445.10	5533.03
445.28	5579.84
445.47	5593.88
445.65	5458.13
445.84	5668.78
446.02	5767.08
446.21	5731.97
446.39	5755.38
446.58	6012.84
446.77	5874.74
446.95	5771.76
447.14	5689.84
447.32	5830.27
447.51	5743.67
447.69	5689.84
447.88	5724.95
448.06	5774.10
448.25	5926.24
448.43	5813.89
448.62	5760.06
448.80	5832.62
448.99	5879.43
449.17	6003.47
449.36	5879.43
449.54	5937.94
449.73	6230.51
449.91	6073.69
450.10	6005.81
450.28	6291.36
450.46	6200.08
450.65	6200.08
450.83	6267.95
451.02	6246.89
451.20	6211.78
451.39	6169.65
451.57	6019.86
451.76	6228.17
451.94	6230.51
452.13	6282.00
452.31	6490.31
452.49	6305.40
452.68	6324.13
452.86	6314.77
453.05	6228.17
453.23	6492.65
453.42	6368.60
453.60	6420.09
453.78	6640.10
453.97	6340.51
454.15	6502.01
454.34	6483.28
454.52	6525.41
454.70	6593.29
454.89	6478.60
455.07	6562.86
455.26	6820.32
455.44	6626.06
455.62	6862.45
455.81	6815.64
455.99	6705.63
456.17	6717.34
456.36	6752.45
456.54	6862.45
456.73	6848.41
456.91	7005.22
457.09	7192.47
457.28	7297.79
457.46	7063.74
457.64	7201.83
457.83	7103.53
458.01	7042.67
458.19	7281.41
458.38	7269.70
458.56	7218.21
458.74	7328.22
458.93	7190.13
459.11	7258.00
459.29	7265.02
459.48	7470.99
459.66	7332.90
459.84	7548.23
460.03	7552.91
460.21	7531.84
460.39	7332.90
460.57	7487.37
460.76	7410.14
460.94	7620.78
461.12	7728.45
461.31	7393.75
461.49	7571.63
461.67	7508.44
461.85	7808.03
462.04	7695.68
462.22	8252.73
462.40	7712.07
462.59	7885.26
462.77	7705.04
462.95	7901.65
463.13	7831.43
463.32	8021.02
463.50	7880.58
463.68	8035.06
463.86	7903.99
464.05	7784.62
464.23	7803.35
464.41	7906.33
464.59	7845.48
464.78	7976.55
464.96	7992.93
465.14	7988.25
465.32	8131.02
465.50	7962.50
465.69	8226.98
465.87	8084.21
466.05	8266.77
466.23	8170.81
466.41	8060.80
466.60	8180.17
466.78	8124.00
466.96	8070.17
467.14	8084.21
467.32	8344.01
467.51	8388.48
467.69	8219.96
467.87	8215.28
468.05	8650.62
468.23	8208.26
468.41	8400.18
468.60	8456.36
468.78	8430.61
468.96	8376.78
469.14	8592.11
469.32	8603.81
469.50	8475.08
469.69	8564.02
469.87	8706.79
470.05	8718.50
470.23	8746.58
470.41	8793.39
470.59	8945.53
470.77	8751.26
470.95	8709.13
471.14	9118.73
471.32	8896.38
471.50	9158.52
471.68	9092.98
471.86	9341.08
472.04	9139.79
472.22	9376.19
472.40	9050.85
472.58	9088.30
472.77	9195.96
472.95	9270.86
473.13	9685.14
473.31	9437.04
473.49	9310.65
473.67	9345.76
473.85	9263.84
474.03	9804.50
474.21	9776.42
474.39	9612.58
474.57	9621.94
474.75	9720.24
474.93	9790.46
475.12	9930.89
475.30	9944.94
475.48	9905.15
475.66	9937.91
475.84	10076.01
476.02	10057.28
476.20	10263.25
476.38	10417.72
476.56	10427.09
476.74	10487.94
476.92	10342.83
477.10	10541.77
477.28	10635.39
477.46	10391.98
477.64	10703.27
477.82	10827.32
478.00	10993.50
478.18	11087.12
478.36	11267.34
478.54	11213.51
478.72	11279.04
478.90	11325.85
479.08	11538.84
479.26	11611.40
479.44	11686.29
479.62	11620.76
479.80	11763.53
479.98	11985.88
480.16	12042.06
480.34	11978.86
480.52	12325.26
480.70	11988.22
480.88	12217.60
481.06	12201.21
481.24	12379.09
481.41	12505.48
481.59	12711.45
481.77	12746.56
481.95	12994.65
482.13	12903.37
482.31	12950.18
482.49	13434.68
482.67	13174.88
482.85	13444.04
483.03	13486.17
483.21	13392.55
483.39	13954.27
483.57	13551.70
483.74	13783.41
483.92	13797.46
484.10	13785.76
484.28	14045.55
484.46	14415.36
484.64	14487.92
484.82	14200.03
485.00	14457.49
485.18	14745.38
485.35	14974.75
485.53	14635.37
485.71	15094.11
485.89	15264.97
486.07	15138.58
486.25	15279.02
486.43	15314.13
486.61	15447.54
486.78	15723.72
486.96	15735.42
487.14	15882.88
487.32	15953.09
487.50	16159.06
487.68	16130.97
487.85	16517.16
488.03	16383.75
488.21	16898.67
488.39	16486.73
488.57	16835.47
488.75	17067.19
488.92	17301.24
489.10	17441.67
489.28	17331.67
489.46	17535.29
489.64	17404.22
489.81	17937.87
489.99	18097.02
490.17	17886.37
490.35	18272.56
490.53	18012.76
490.70	18295.97
490.88	18436.40
491.06	18448.10
491.24	18658.75
491.41	18780.46
491.59	18803.86
491.77	18462.15
491.95	19164.31
492.13	19267.29
492.30	19363.25
492.48	19651.14
492.66	19218.14
492.84	19470.92
493.01	19807.95
493.19	19803.27
493.37	20264.36
493.54	19997.54
493.72	20638.84
493.90	20266.70
494.08	20514.80
494.25	20692.68
494.43	21015.67
494.61	20669.27
494.79	21135.04
494.96	20961.84
495.14	21132.70
495.32	21661.66
495.49	21432.29
495.67	21202.91
495.85	21523.57
496.02	21523.57
496.20	22202.32
496.38	21968.27
496.55	22169.55
496.73	22171.89
496.91	22331.05
497.09	22689.15
497.26	22803.84
497.44	22300.62
497.62	22888.10
497.79	22857.67
497.97	22874.06
498.14	23304.71
498.32	23346.84
498.50	23005.13
498.67	23459.19
498.85	23386.63
499.03	23826.65
499.20	23735.37
499.38	23747.08
499.56	23704.95
499.73	23892.19
499.91	23831.33
500.08	24210.50
500.26	24229.23
500.44	24245.61
500.61	24315.83
500.79	24027.94
500.97	24346.25
501.14	24678.61
501.32	24510.09
501.49	24783.93
501.67	24577.97
501.84	24779.25
502.02	25053.09
502.20	25158.42
502.37	25242.68
502.55	25584.40
502.72	25027.35
502.90	25411.20
503.07	25177.14
503.25	25799.73
503.43	25399.49
503.60	26125.06
503.78	25972.92
503.95	25530.56
504.13	25905.05
504.30	25951.86
504.48	26064.21
504.65	26321.66
504.83	26244.43
505.01	26661.04
505.18	26602.53
505.36	26682.11
505.53	26651.68
505.71	26696.15
505.88	27075.32
506.06	26628.27
506.23	27077.66
506.41	27115.11
506.58	27084.68
506.76	27276.60
506.93	27367.88
507.11	27112.77
507.28	27374.91
507.46	27625.34
507.63	27676.83
507.81	27779.82
507.98	27402.99
508.16	27910.89
508.33	27814.93
508.50	28114.52
508.68	28067.70
508.85	28217.50
509.03	28409.42
509.20	27964.72
509.38	28294.74
509.55	28952.43
509.73	28676.24
509.90	28741.78
510.08	28521.77
510.25	28414.10
510.42	28617.73
510.60	29015.62
510.77	28826.04
510.95	29287.12
511.12	29399.47
511.30	29727.14
511.47	29214.57
511.64	29741.19
511.82	29521.18
511.99	29399.47
512.17	29556.28
512.34	29668.63
512.51	30012.69
512.69	30029.07
512.86	29818.42
513.04	29961.20
513.21	30096.95
513.38	30099.29
513.56	30022.05
513.73	30066.52
513.90	30511.22
514.08	30122.69
514.25	30443.35
514.43	30335.68
514.60	30782.73
514.77	30366.11
514.95	30611.87
515.12	31016.78
515.29	30824.86
515.47	31323.39
515.64	31110.40
515.81	31005.08
515.99	30941.88
516.16	31414.67
516.33	31440.42
516.51	31630.00
516.68	31014.44
516.85	30822.51
517.03	31438.08
517.20	31402.97
517.37	31402.97
517.54	31578.51
517.72	31850.01
517.89	31882.78
518.06	31871.07
518.24	31945.97
518.41	31550.42
518.58	32158.96
518.75	31817.24
518.93	32833.04
519.10	31864.05
519.27	32570.90
519.45	32416.42
519.62	32346.20
519.79	32437.48
519.96	32748.78
520.14	32868.14
520.31	32706.65
520.48	33039.00
520.65	32620.05
520.83	32978.15
521.00	33188.80
521.17	33170.07
521.34	33251.99
521.52	33188.80
521.69	33792.65
521.86	33584.35
522.03	33455.62
522.20	33603.07
522.38	33631.16
522.55	33556.26
522.72	33684.99
522.89	33701.37
523.07	33947.13
523.24	33802.02
523.41	34167.14
523.58	33949.47
523.75	34347.36
523.92	33977.56
524.10	34558.01
524.27	34190.55
524.44	34284.17
524.61	34494.82
524.78	34691.42
524.96	34295.87
525.13	34927.81
525.30	35037.82
525.47	34857.60
525.64	35051.86
525.81	35042.50
525.98	34841.21
526.16	34810.79
526.33	34705.46
526.50	35264.85
526.67	34731.21
526.84	35068.25
527.01	34967.60
527.18	34916.11
527.36	35178.25
527.53	35395.92
527.70	35732.96
527.87	36044.25
528.04	35358.47
528.21	35653.38
528.38	35672.10
528.55	35969.35
528.72	35208.68
528.89	36222.13
529.07	36105.10
529.24	35810.20
529.41	36151.91
529.58	36051.27
529.75	36072.34
529.92	36093.40
530.09	36165.96
530.26	36245.54
530.43	36147.23
530.60	36107.44
530.77	36505.34
530.94	36701.94
531.11	36486.61
531.28	36793.22
531.46	36650.45
531.63	36620.02
531.80	36800.24
531.97	36514.70
532.14	37242.60
532.31	36500.65
532.48	37139.62
532.65	37036.64
532.82	36868.12
532.99	37064.72
533.16	36875.14
533.33	37207.50
533.50	37376.01
533.67	37305.80
533.84	36968.76
534.01	37443.89
534.18	37361.97
534.35	37666.24
534.52	37699.01
534.69	37420.48
534.86	37689.65
535.03	37160.69
535.20	37462.61
535.37	38195.20
535.54	38064.13
535.71	37951.79
535.88	37926.04
536.05	38120.31
536.22	38213.93
536.38	38106.26
536.55	38014.98
536.72	38047.75
536.89	38256.06
537.06	37696.67
537.23	38511.17
537.40	38033.71
537.57	37986.89
537.74	38464.36
537.91	38866.94
538.08	38382.45
538.25	38431.60
538.42	38316.91
538.59	38625.86
538.75	38401.17
538.92	38110.94
539.09	38871.62
539.26	39014.39
539.43	38600.12
539.60	38787.36
539.77	38710.12
539.94	39023.75
540.11	39166.52
540.28	38768.63
540.44	39070.56
540.61	38635.22
540.78	38595.43
540.95	38920.77
541.12	38590.75
541.29	39115.03
541.46	39140.78
541.62	39147.80
541.79	39243.76
541.96	39103.33
542.13	39337.38
542.30	39419.30
542.47	39632.29
542.63	39194.61
542.80	39260.15
542.97	40084.01
543.14	40116.78
543.31	39969.33
543.48	40287.64
543.64	40910.22
543.81	40032.52
543.98	40165.93
544.15	39885.07
544.32	40474.88
544.48	40545.10
544.65	40179.98
544.82	40414.03
544.99	40278.28
545.16	40254.87
545.32	39814.85
545.49	40629.36
545.66	40900.86
545.83	40671.49
546.00	40762.77
546.16	40575.53
546.33	40748.73
546.50	40261.90
546.67	40392.97
546.83	40076.99
547.00	40500.63
547.17	40793.20
547.34	40612.98
547.50	40832.99
547.67	41385.35
547.84	40802.56
548.00	40954.69
548.17	41123.21
548.34	41186.41
548.51	41024.91
548.67	41226.20
548.84	41074.06
549.01	41251.94
549.18	40975.76
549.34	41626.43
549.51	41043.63
549.68	41380.67
549.84	41474.29
550.01	41689.62
550.18	41027.25
550.34	41790.27
550.51	41794.95
550.68	41530.47
550.84	41247.26
551.01	41624.09
551.18	41720.05
551.34	41743.45
551.51	41975.17
551.68	41633.45
551.84	41717.71
552.01	41546.85
552.18	41680.26
552.34	41771.54
552.51	41801.97
552.68	41926.02
552.84	42003.25
553.01	42101.56
553.18	42026.66
553.34	41771.54
553.51	41928.36
553.67	42120.28
553.84	42185.82
554.01	42190.50
554.17	42319.23
554.34	42380.08
554.51	42246.67
554.67	42117.94
554.84	42340.29
555.00	41993.89
555.17	42330.93
555.33	42319.23
555.50	42302.84
555.67	42340.29
555.83	42581.37
556.00	42139.00
556.16	42864.57
556.33	42700.73
556.50	42433.91
556.66	42630.52
556.83	42433.91
556.99	42820.10
557.16	42586.05
557.32	42930.11
557.49	42852.87
557.65	42094.53
557.82	42740.52
557.98	42806.06
558.15	42808.40
558.32	42960.53
558.48	42562.64
558.65	42916.06
558.81	42548.60
558.98	42932.45
559.14	42719.46
559.31	42927.77
559.47	42710.10
559.64	43068.20
559.80	43166.50
559.97	42939.47
560.13	42859.89
560.30	42904.36
560.46	42951.17
560.63	43051.81
560.79	43276.51
560.96	42958.19
561.12	43175.86
561.29	43196.93
561.45	43604.18
561.61	43077.56
561.78	43203.95
561.94	42813.08
562.11	43267.14
562.27	43187.56
562.44	43358.42
562.60	43318.64
562.77	43306.93
562.93	43381.83
563.10	43253.10
563.26	42707.76
563.42	43461.41
563.59	43126.71
563.75	43323.32
563.92	43814.83
564.08	43138.41
564.24	43344.38
564.41	43423.96
564.57	43667.37
564.74	43496.52
564.90	43267.14
565.07	43276.51
565.23	43309.27
565.39	43636.95
565.56	43709.50
565.72	43665.03
565.88	43526.94
566.05	43346.72
566.21	43140.75
566.38	43847.60
566.54	43629.93
566.70	43281.19
566.87	43983.35
567.03	43241.40
567.19	44107.40
567.36	43868.66
567.52	43688.44
567.68	44238.47
567.85	43737.59
568.01	43718.87
568.17	43658.01
568.34	44247.83
568.50	43669.72
568.66	43826.53
568.83	43536.30
568.99	43660.35
569.15	43475.45
569.32	43786.74
569.48	43133.73
569.64	43735.25
569.81	44280.60
569.97	44069.95
570.13	44048.88
570.30	43735.25
570.46	43419.28
570.62	43634.61
570.78	43482.47
570.95	43718.87
571.11	43716.53
571.27	44037.18
571.43	43805.47
571.60	43981.01
571.76	44025.48
571.92	43892.07
572.09	43753.97
572.25	44025.48
572.41	43686.10
572.57	44191.65
572.74	44170.59
572.90	44161.23
573.06	44172.93
573.22	44109.74
573.38	44020.80
573.55	43880.36
573.71	44203.36
573.87	44245.49
574.03	43632.27
574.20	43903.77
574.36	43915.47
574.52	44091.01
574.68	43594.82
574.84	44364.85
575.01	44048.88
575.17	43782.06
575.33	44006.75
575.49	44268.89
575.65	44357.83
575.82	44327.41
575.98	44355.49
576.14	44294.64
576.30	44392.94
576.46	44119.10
576.62	43878.02
576.79	43985.69
576.95	43365.45
577.11	44002.07
577.27	43915.47
577.43	44301.66
577.59	44205.70
577.75	44404.64
577.92	43732.91
578.08	43922.49
578.24	43587.80
578.40	44414.01
578.56	44151.87
578.72	44278.25
578.88	44100.37
579.04	44498.26
579.21	44002.07
579.37	43948.24
579.53	44168.25
579.69	43866.32
579.85	44065.27
580.01	44318.04
580.17	44418.69
580.33	44561.46
580.49	44472.52
580.65	44484.22
580.82	44182.29
580.98	44381.24
581.14	44165.91
581.30	44495.92
581.46	43955.26
581.62	44163.57
581.78	44128.46
581.94	44591.89
582.10	44488.90
582.26	44137.82
582.42	43981.01
582.58	44163.57
582.74	44397.62
582.90	44353.15
583.06	44201.02
583.22	43852.28
583.38	44727.64
583.54	43995.05
583.70	44091.01
583.86	44093.35
584.02	43929.51
584.18	44296.98
584.34	44098.03
584.50	44367.20
584.66	43985.69
584.82	44432.73
584.98	44519.33
585.14	44402.30
585.30	44231.44
585.46	44348.47
585.62	44397.62
585.78	44062.93
585.94	43742.27
586.10	44158.89
586.26	44083.99
586.42	44561.46
586.58	44334.43
586.74	44685.51
586.90	44196.34
587.06	44336.77
587.22	44245.49
587.38	44215.06
587.54	45013.18
587.70	44289.96
587.86	44655.08
588.02	44224.42
588.18	44559.12
588.34	44065.27
588.49	43966.96
588.65	44163.57
588.81	43786.74
588.97	44182.29
589.13	43997.39
589.29	44524.01
589.45	44493.58
589.61	44449.11
589.77	44552.10
589.93	44547.42
590.08	44568.48
590.24	44559.12
590.40	44652.74
