SpectraSuite Data File
++++++++++++++++++++++++++++++++++++
Date: Fri Oct 25 10:44:49 EDT 2013
User: price-jones
Dark Spectrum Present: No
Reference Spectrum Present: No
Number of Sampled Component Spectra: 1
Spectrometers: USB2+H05261
Integration Time (usec): 100000 (USB2+H05261)
Spectra Averaged: 1 (USB2+H05261)
Boxcar Smoothing: 0 (USB2+H05261)
Correct for Electrical Dark: No (USB2+H05261)
Strobe/Lamp Enabled: No (USB2+H05261)
Correct for Detector Non-linearity: No (USB2+H05261)
Correct for Stray Light: No (USB2+H05261)
Number of Pixels in Processed Spectrum: 2048
>>>>>Begin Processed Spectral Data<<<<<
365.73	95.96
365.92	95.96
366.12	95.96
366.32	23.41
366.52	42.13
366.72	32.77
366.91	49.15
367.11	100.64
367.31	0.00
367.51	16.38
367.70	0.00
367.90	23.41
368.10	21.06
368.30	25.75
368.49	60.85
368.69	79.58
368.89	42.13
369.09	93.62
369.28	77.24
369.48	56.17
369.68	100.64
369.87	88.94
370.07	102.98
370.27	81.92
370.47	175.54
370.66	362.78
370.86	358.10
371.06	449.38
371.25	425.98
371.45	442.36
371.65	479.81
371.84	454.06
372.04	407.25
372.24	463.43
372.44	498.53
372.63	472.79
372.83	564.07
373.03	449.38
373.22	554.71
373.42	491.51
373.62	493.85
373.81	531.30
374.01	540.66
374.21	543.00
374.40	465.77
374.60	550.03
374.79	526.62
374.99	533.64
375.19	535.98
375.38	585.13
375.58	587.47
375.78	566.41
375.97	575.77
376.17	587.47
376.37	552.37
376.56	608.54
376.76	543.00
376.95	585.13
377.15	587.47
377.35	575.77
377.54	585.13
377.74	620.24
377.93	468.11
378.13	683.44
378.33	667.05
378.52	589.82
378.72	592.16
378.91	603.86
379.11	594.50
379.31	636.63
379.50	634.29
379.70	641.31
379.89	559.39
380.09	573.43
380.28	599.18
380.48	545.34
380.68	634.29
380.87	725.57
381.07	629.60
381.26	636.63
381.46	758.33
381.65	627.26
381.85	674.07
382.04	657.69
382.24	713.86
382.43	641.31
382.63	662.37
382.83	627.26
383.02	648.33
383.22	702.16
383.41	636.63
383.61	667.05
383.80	772.38
384.00	678.76
384.19	699.82
384.39	697.48
384.58	734.93
384.78	685.78
384.97	720.88
385.17	751.31
385.36	716.20
385.56	765.36
385.75	709.18
385.95	779.40
386.14	837.91
386.34	819.19
386.53	730.25
386.72	751.31
386.92	870.68
387.11	800.46
387.31	851.96
387.50	777.06
387.70	814.51
387.89	800.46
388.09	828.55
388.28	826.21
388.48	777.06
388.67	861.32
388.86	842.59
389.06	826.21
389.25	875.36
389.45	840.25
389.64	849.61
389.84	830.89
390.03	791.10
390.22	922.17
390.42	983.02
390.61	912.81
390.81	950.26
391.00	891.74
391.19	961.96
391.39	924.51
391.58	922.17
391.78	952.60
391.97	1008.77
392.16	992.39
392.36	1046.22
392.55	950.26
392.75	964.30
392.94	994.73
393.13	971.32
393.33	964.30
393.52	908.13
393.71	987.71
393.91	973.66
394.10	1027.50
394.29	1046.22
394.49	1013.45
394.68	1074.31
394.88	1149.20
395.07	1132.82
395.26	1107.07
395.46	1095.37
395.65	1076.65
395.84	1118.78
396.04	1170.27
396.23	1043.88
396.42	1125.80
396.62	1135.16
396.81	1179.63
397.00	1088.35
397.19	1083.67
397.39	1088.35
397.58	1193.67
397.77	1240.48
397.97	1224.10
398.16	1231.12
398.35	1357.51
398.55	1224.10
398.74	1254.53
398.93	1324.74
399.12	1268.57
399.32	1296.66
399.51	1294.32
399.70	1362.19
399.90	1369.21
400.09	1308.36
400.28	1362.19
400.47	1308.36
400.67	1434.75
400.86	1486.24
401.05	1488.58
401.24	1526.03
401.44	1437.09
401.63	1621.99
401.82	1483.90
402.01	1528.37
402.21	1509.65
402.40	1495.60
402.59	1514.33
402.78	1465.18
402.97	1558.80
403.17	1575.18
403.36	1600.93
403.55	1579.86
403.74	1598.59
403.93	1666.46
404.13	1652.42
404.32	1591.56
404.51	1575.18
404.70	1699.23
404.89	1694.55
405.09	1713.27
405.28	1617.31
405.47	1750.72
405.66	1797.53
405.85	1736.68
406.05	1706.25
406.24	1781.15
406.43	1893.49
406.62	1905.20
406.81	1970.73
407.00	1834.98
407.20	1830.30
407.39	1870.09
407.58	1891.15
407.77	1891.15
407.96	1902.86
408.15	2001.16
408.34	1846.68
408.54	1942.64
408.73	2005.84
408.92	1963.71
409.11	1944.99
409.30	1944.99
409.49	2104.14
409.68	1961.37
409.87	1977.75
410.07	2108.82
410.26	2069.03
410.45	2267.98
410.64	2195.42
410.83	2249.25
411.02	2134.57
411.21	2246.91
411.40	2202.44
411.59	2242.23
411.78	2333.51
411.98	2331.17
412.17	2354.58
412.36	2396.71
412.55	2401.39
412.74	2356.92
412.93	2420.11
413.12	2422.45
413.31	2551.18
413.50	2499.69
413.69	2504.37
413.88	2590.97
414.07	2544.16
414.26	2581.61
414.45	2612.04
414.64	2579.27
414.83	2731.41
415.02	2597.99
415.22	2715.02
415.41	2736.09
415.60	2696.30
415.79	2904.60
415.98	2869.50
416.17	2827.37
416.36	2897.58
416.55	2930.35
416.74	2920.99
416.93	2944.39
417.12	2885.88
417.31	3028.65
417.50	3002.91
417.69	3148.02
417.88	3192.49
418.07	3075.46
418.26	2993.55
418.45	3108.23
418.64	3194.83
418.83	3239.30
419.02	3110.57
419.21	3204.19
419.39	3225.26
419.58	3190.15
419.77	3309.52
419.96	3272.07
420.15	3272.07
420.34	3169.09
420.53	3349.31
420.72	3351.65
420.91	3382.07
421.10	3478.04
421.29	3475.70
421.48	3288.45
421.67	3426.54
421.86	3426.54
422.05	3417.18
422.24	3356.33
422.43	3482.72
422.61	3410.16
422.80	3471.01
422.99	3503.78
423.18	3660.60
423.37	3538.89
423.56	3620.81
423.75	3456.97
423.94	3496.76
424.13	3309.52
424.32	3309.52
424.50	3515.48
424.69	3524.85
424.88	3471.01
425.07	3592.72
425.26	3454.63
425.45	3452.29
425.64	3576.34
425.83	3471.01
426.01	3545.91
426.20	3627.83
426.39	3574.00
426.58	3503.78
426.77	3585.70
426.96	3557.61
427.15	3585.70
427.33	3662.94
427.52	3585.70
427.71	3655.92
427.90	3641.87
428.09	3824.44
428.28	3679.32
428.46	3700.39
428.65	3824.44
428.84	3712.09
429.03	3782.31
429.22	3716.77
429.40	3864.22
429.59	3756.56
429.78	3658.26
429.97	3639.53
430.16	3662.94
430.34	3833.80
430.53	3782.31
430.72	3929.76
430.91	3915.72
431.10	3929.76
431.28	4102.96
431.47	4191.90
431.66	4224.67
431.85	4079.55
432.03	4126.36
432.22	4276.16
432.41	4299.56
432.60	4332.33
432.79	4156.79
432.97	4308.93
433.16	4397.87
433.35	4140.41
433.54	4444.68
433.72	4145.09
433.91	4234.03
434.10	4423.61
434.28	4411.91
434.47	4353.40
434.66	4514.89
434.85	4484.47
435.03	4421.27
435.22	4315.95
435.41	4657.67
435.59	4713.84
435.78	4676.39
435.97	4554.68
436.16	4704.48
436.34	4681.07
436.53	4650.64
436.72	4718.52
436.90	4582.77
437.09	4622.56
437.28	4510.21
437.46	4681.07
437.65	4596.81
437.84	4870.65
438.02	4821.50
438.21	4720.86
438.40	4704.48
438.58	4929.17
438.77	4889.38
438.96	4821.50
439.14	5025.13
439.33	5043.85
439.52	4975.98
439.70	4887.04
439.89	5231.10
440.08	5207.69
440.26	5142.16
440.45	5048.54
440.63	5118.75
440.82	5448.77
441.01	5284.93
441.19	5383.23
441.38	5446.43
441.57	5465.15
441.75	5486.22
441.94	5701.54
442.12	5607.92
442.31	5771.76
442.50	5636.01
442.68	5579.84
442.87	5748.36
443.05	5706.23
443.24	5881.77
443.43	5738.99
443.61	5820.91
443.80	5921.56
443.98	5799.85
444.17	5645.37
444.35	5919.21
444.54	5846.66
444.73	5905.17
444.91	5912.19
445.10	5984.75
445.28	5900.49
445.47	5760.06
445.65	5706.23
445.84	5844.32
446.02	5942.62
446.21	5797.51
446.39	5877.09
446.58	6026.88
446.77	5982.41
446.95	5832.62
447.14	6078.37
447.32	5961.34
447.51	6038.58
447.69	6036.24
447.88	5968.37
448.06	5956.66
448.25	6078.37
448.43	5966.03
448.62	6045.60
448.80	6022.20
448.99	6010.50
449.17	6242.21
449.36	6104.12
449.54	6256.25
449.73	6209.44
449.91	6434.13
450.10	6431.79
450.28	6492.65
450.46	6525.41
450.65	6551.16
450.83	6548.82
451.02	6441.15
451.20	6670.53
451.39	6464.56
451.57	6296.04
451.76	6403.71
451.94	6401.37
452.13	6574.56
452.31	6600.31
452.49	6293.70
452.68	6583.93
452.86	6602.65
453.05	6614.35
453.23	6612.01
453.42	6715.00
453.60	6588.61
453.78	6743.08
453.97	6696.27
454.15	6604.99
454.34	6576.91
454.52	6909.26
454.70	6705.63
454.89	6836.70
455.07	6925.65
455.26	6942.03
455.44	6841.39
455.62	6773.51
455.81	6918.62
455.99	7159.70
456.17	7028.63
456.36	7094.16
456.54	7082.46
456.73	7283.75
456.91	7262.68
457.09	7211.19
457.28	7330.56
457.46	7330.56
457.64	7192.47
457.83	7250.98
458.01	7227.57
458.19	7396.09
458.38	7321.20
458.56	7576.31
458.74	7461.63
458.93	7508.44
459.11	7456.95
459.29	7552.91
459.48	7442.90
459.66	7382.05
459.84	7559.93
460.03	7655.89
460.21	7693.34
460.39	7737.81
460.57	7667.60
460.76	7599.72
460.94	7789.30
461.12	7707.38
461.31	7805.69
461.49	7871.22
461.67	7524.82
461.85	7967.18
462.04	7915.69
462.22	8124.00
462.40	8142.72
462.59	7999.95
462.77	8077.19
462.95	7969.52
463.13	8173.15
463.32	8002.29
463.50	8138.04
463.68	8196.56
463.86	8224.64
464.05	8091.23
464.23	8133.36
464.41	8210.60
464.59	7943.78
464.78	8210.60
464.96	8212.94
465.14	8044.42
465.32	8177.83
465.50	8407.20
465.69	8409.54
465.87	8400.18
466.05	8374.44
466.23	8311.24
466.41	8458.70
466.60	8411.89
466.78	8348.69
466.96	8418.91
467.14	8493.80
467.32	8564.02
467.51	8688.07
467.69	8355.71
467.87	8585.08
468.05	8521.89
468.23	8699.77
468.41	8842.54
468.60	8475.08
468.78	8732.54
468.96	8617.85
469.14	8847.22
469.32	8748.92
469.50	8643.60
469.69	8908.08
469.87	9022.77
470.05	8812.12
470.23	8889.35
470.41	8887.01
470.59	9032.13
470.77	8887.01
470.95	9050.85
471.14	9341.08
471.32	9062.55
471.50	9233.41
471.68	9202.99
471.86	9249.80
472.04	9341.08
472.22	9540.02
472.40	9266.18
472.58	9418.32
472.77	9444.06
472.95	9650.03
473.13	10012.81
473.31	9593.86
473.49	9399.59
473.67	9497.89
473.85	9589.17
474.03	9905.15
474.21	9771.74
474.39	9848.97
474.57	9916.85
474.75	10204.74
474.93	10373.25
475.12	10083.03
475.30	10284.31
475.48	10139.20
475.66	10370.91
475.84	10270.27
476.02	10476.24
476.20	10471.56
476.38	10452.83
476.56	10974.77
476.74	10841.36
476.92	10846.04
477.10	10916.26
477.28	10972.43
477.46	11012.22
477.64	11192.44
477.82	11353.94
478.00	11445.22
478.18	11412.45
478.36	11372.66
478.54	11578.63
478.72	11604.38
478.90	11808.00
479.08	11723.74
479.26	12011.63
479.44	12018.65
479.62	11903.96
479.80	12257.39
479.98	12248.02
480.16	12624.85
480.34	12351.01
480.52	12507.82
480.70	12444.63
480.88	12400.16
481.06	12720.81
481.24	12723.15
481.41	12781.67
481.59	12854.22
481.77	13076.57
481.95	13064.87
482.13	13083.59
482.31	13202.96
482.49	13509.57
482.67	13617.24
482.85	13895.76
483.03	13769.37
483.21	13923.85
483.39	14031.51
483.57	13872.36
483.74	14068.96
483.92	14408.34
484.10	14207.05
484.28	14665.80
484.46	14457.49
484.64	15056.67
484.82	14895.17
485.00	14995.81
485.18	15136.24
485.35	15367.96
485.53	14867.08
485.71	15066.03
485.89	15297.74
486.07	15215.82
486.25	15290.72
486.43	15559.88
486.61	15730.74
486.78	15803.30
486.96	15779.89
487.14	16067.78
487.32	16355.66
487.50	16477.37
487.68	16711.42
487.85	16645.89
488.03	16908.03
488.21	17069.53
488.39	17209.96
488.57	17298.90
488.75	17160.81
488.92	17649.98
489.10	17949.57
489.28	17617.21
489.46	17872.33
489.64	17844.24
489.81	18302.99
489.99	18445.76
490.17	18614.28
490.35	18771.10
490.53	18691.52
490.70	18864.72
490.88	18843.65
491.06	19241.54
491.24	19061.32
491.41	19117.50
491.59	19129.20
491.77	19339.85
491.95	19124.52
492.13	19543.47
492.30	19824.34
492.48	19859.45
492.66	19733.06
492.84	20086.48
493.01	20505.43
493.19	20198.82
493.37	20381.38
493.54	20360.32
493.72	20779.28
493.90	21027.37
494.08	20989.92
494.25	21322.28
494.43	21319.94
494.61	21624.21
494.79	21525.91
494.96	21827.84
495.14	21619.53
495.32	21530.59
495.49	21998.70
495.67	21886.35
495.85	22207.00
496.02	22209.34
496.20	22508.93
496.38	22338.07
496.55	22628.30
496.73	23070.66
496.91	22740.64
497.09	23225.14
497.26	23061.30
497.44	23183.01
497.62	23253.22
497.79	23384.29
497.97	23349.18
498.14	23590.26
498.32	23939.00
498.50	23484.94
498.67	23908.57
498.85	23946.02
499.03	24123.90
499.20	24259.65
499.38	23988.15
499.56	24699.67
499.73	24287.74
499.91	24823.72
500.08	24666.91
500.26	24613.07
500.44	24599.03
500.61	24879.89
500.79	24762.87
500.97	24863.51
501.14	25340.98
501.32	25118.63
501.49	25151.40
501.67	25289.49
501.84	25282.47
502.02	25619.50
502.20	25923.77
502.37	25692.06
502.55	25869.94
502.72	26022.08
502.90	26047.82
503.07	26022.08
503.25	26192.94
503.43	26153.15
503.60	26214.00
503.78	26373.16
503.95	26134.42
504.13	26211.66
504.30	26534.65
504.48	26375.50
504.65	26855.31
504.83	26988.72
505.01	27065.96
505.18	27229.79
505.36	27386.61
505.53	27325.75
505.71	27318.73
505.88	27393.63
506.06	27234.47
506.23	27517.68
506.41	27201.71
506.58	27775.14
506.76	27604.28
506.93	28182.39
507.11	28016.21
507.28	28250.27
507.46	27735.35
507.63	27882.80
507.81	28271.33
507.98	28404.74
508.16	28381.34
508.33	28758.16
508.50	28428.15
508.68	28538.15
508.85	28971.15
509.03	28947.75
509.20	28947.75
509.38	29261.38
509.55	29151.37
509.73	29200.52
509.90	29397.13
510.08	29219.25
510.25	29158.39
510.42	29415.85
510.60	29303.51
510.77	29497.77
510.95	29930.77
511.12	29764.59
511.30	30122.69
511.47	30012.69
511.64	29834.81
511.82	30333.34
511.99	30221.00
512.17	30171.85
512.34	30345.05
512.51	30565.06
512.69	30569.74
512.86	30609.53
513.04	30944.22
513.21	30525.27
513.38	30476.12
513.56	30986.35
513.73	30485.48
513.90	30635.27
514.08	30597.82
514.25	30806.13
514.43	31171.25
514.60	31454.46
514.77	31028.48
514.95	31386.58
515.12	31229.77
515.29	31372.54
515.47	31985.76
515.64	31398.29
515.81	31433.39
515.99	31812.56
516.16	31952.99
516.33	31356.16
516.51	32116.83
516.68	31613.62
516.85	31749.37
517.03	31632.34
517.20	31896.82
517.37	32074.70
517.54	32198.75
517.72	32044.27
517.89	31873.42
518.06	32243.22
518.24	32297.05
518.41	32149.60
518.58	32254.92
518.75	32559.19
518.93	32924.32
519.10	32500.68
519.27	32865.80
519.45	32652.81
519.62	32840.06
519.79	33172.41
519.96	33071.77
520.14	33057.73
520.31	33303.48
520.48	33446.26
520.65	33434.55
520.83	33565.62
521.00	33720.10
521.17	33521.15
521.34	33460.30
521.52	33603.07
521.69	33844.15
521.86	34265.44
522.03	34092.24
522.20	33965.85
522.38	34328.64
522.55	34242.04
522.72	34377.79
522.89	34494.82
523.07	34457.37
523.24	34513.54
523.41	34443.32
523.58	34635.25
523.75	35360.81
523.92	35079.95
524.10	34979.31
524.27	35147.82
524.44	34855.26
524.61	34878.66
524.78	35101.01
524.96	35459.12
525.13	35445.07
525.30	35510.61
525.47	35328.05
525.64	35658.06
525.81	35622.95
525.98	35339.75
526.16	35749.34
526.33	35548.06
526.50	35517.63
526.67	34976.97
526.84	35358.47
527.01	35274.21
527.18	36072.34
527.36	35763.39
527.53	36034.89
527.70	36350.86
527.87	36549.81
528.04	36109.78
528.21	36271.28
528.38	36135.53
528.55	36751.09
528.72	36655.13
528.89	36294.69
529.07	36411.71
529.24	36669.17
529.41	36467.89
529.58	36842.37
529.75	36575.55
529.92	36907.91
530.09	36954.72
530.26	36961.74
530.43	36746.41
530.60	36828.33
530.77	37069.40
530.94	37345.59
531.11	36676.19
531.28	37205.16
531.46	37631.13
531.63	37371.33
531.80	37221.54
531.97	37095.15
532.14	37532.83
532.31	37034.30
532.48	37296.44
532.65	37521.13
532.82	37654.54
532.99	37682.62
533.16	37188.77
533.33	37771.57
533.50	37535.17
533.67	37778.59
533.84	37837.10
534.01	37722.41
534.18	38136.69
534.35	37858.17
534.52	38178.82
534.69	37912.00
534.86	38286.48
535.03	38169.46
535.20	38555.64
535.37	38635.22
535.54	38677.35
535.71	38462.02
535.88	38085.20
536.05	38822.47
536.22	38227.97
536.38	38595.43
536.55	38611.82
536.72	38712.46
536.89	38230.31
537.06	38630.54
537.23	38682.03
537.40	38990.98
537.57	38752.25
537.74	38829.49
537.91	39262.49
538.08	38352.02
538.25	39007.37
538.42	39002.69
538.59	39346.75
538.75	39079.92
538.92	39108.01
539.09	39117.37
539.26	38871.62
539.43	39503.56
539.60	39304.62
539.77	39246.10
539.94	39030.77
540.11	39124.40
540.28	39522.29
540.44	39360.79
540.61	39295.25
540.78	39669.74
540.95	39459.09
541.12	39227.38
541.29	39639.31
541.46	39409.94
541.62	39250.78
541.79	39592.50
541.96	39398.24
542.13	39938.90
542.30	40041.88
542.47	39772.72
542.63	39594.84
542.80	40308.71
542.97	40407.01
543.14	40456.16
543.31	40533.40
543.48	40580.21
543.64	40816.60
543.81	40964.06
543.98	40594.25
544.15	40556.80
544.32	40865.75
544.48	40959.38
544.65	40603.61
544.82	41263.64
544.99	40339.13
545.16	40861.07
545.32	40634.04
545.49	40933.63
545.66	41352.58
545.83	41092.79
546.00	41202.79
546.16	40746.39
546.33	41284.71
546.50	40847.03
546.67	41060.02
546.83	40898.52
547.00	41317.48
547.17	40994.48
547.34	40870.43
547.50	41273.01
547.67	41893.25
547.84	41429.82
548.00	41869.84
548.17	41666.22
548.34	41909.63
548.51	41574.94
548.67	41816.01
548.84	41530.47
549.01	41614.72
549.18	41696.64
549.34	41354.93
549.51	41787.92
549.68	41916.65
549.84	41801.97
550.01	42234.97
550.18	41785.58
550.34	42124.96
550.51	41961.12
550.68	41778.56
550.84	41722.39
551.01	42272.42
551.18	42029.00
551.34	42284.12
551.51	42047.72
551.68	41942.40
551.84	42211.56
552.01	42038.36
552.18	42038.36
552.34	42373.06
552.51	42171.77
552.68	42241.99
552.84	42387.10
553.01	42817.76
553.18	42443.27
553.34	42635.20
553.51	42106.24
553.67	42195.18
553.84	43091.60
554.01	42494.77
554.17	42927.77
554.34	42597.75
554.51	42869.25
554.67	43051.81
554.84	42784.99
555.00	42586.05
555.17	42588.39
555.33	42672.65
555.50	42490.09
555.67	42885.64
555.83	42801.38
556.00	42997.98
556.16	43459.07
556.33	43194.59
556.50	42752.23
556.66	42852.87
556.83	42597.75
556.99	43213.31
557.16	43171.18
557.32	43239.06
557.49	42707.76
557.65	42951.17
557.82	43136.07
557.98	42953.51
558.15	43487.15
558.32	43421.62
558.48	43044.79
558.65	42913.72
558.81	43302.25
558.98	43098.62
559.14	43702.48
559.31	43049.47
559.47	43398.21
559.64	43889.73
559.80	43723.55
559.97	43543.33
560.13	43093.94
560.30	42920.74
560.46	43313.95
560.63	43409.92
560.79	43990.37
560.96	43931.86
561.12	43672.06
561.29	43920.15
561.45	43491.83
561.61	43597.16
561.78	43498.86
561.94	43239.06
562.11	43227.35
562.27	43620.56
562.44	43737.59
562.60	43934.20
562.77	43690.78
562.93	43622.90
563.10	43711.84
563.26	43512.90
563.42	43868.66
563.59	43405.23
563.75	43805.47
563.92	43868.66
564.08	44205.70
564.24	44369.54
564.41	43896.75
564.57	43370.13
564.74	43625.25
564.90	43674.40
565.07	43508.22
565.23	44140.16
565.39	44130.80
565.56	43973.98
565.72	43854.62
565.88	44004.41
566.05	43885.04
566.21	44009.09
566.38	43889.73
566.54	43896.75
566.70	44208.04
566.87	44467.84
567.03	44402.30
567.19	44435.07
567.36	43749.29
567.52	44074.63
567.68	44439.75
567.85	43838.23
568.01	44498.26
568.17	44135.48
568.34	44406.98
568.50	44271.23
568.66	44268.89
568.83	44105.06
568.99	43761.00
569.15	43735.25
569.32	44289.96
569.48	43838.23
569.64	44545.08
569.81	44596.57
569.97	44273.57
570.13	44299.32
570.30	43941.22
570.46	44027.82
570.62	43737.59
570.78	44027.82
570.95	43999.73
571.11	44107.40
571.27	44163.57
571.43	43915.47
571.60	44095.69
571.76	44289.96
571.92	44346.13
572.09	44619.97
572.25	44505.29
572.41	44243.15
572.57	44453.79
572.74	44449.11
572.90	44278.25
573.06	44619.97
573.22	44226.76
573.38	44442.09
573.55	44016.11
573.71	44278.25
573.87	44229.10
574.03	44430.39
574.20	44222.08
574.36	44119.10
574.52	44474.86
574.68	44374.22
574.84	44350.81
575.01	44149.53
575.17	44016.11
575.33	44105.06
575.49	44435.07
575.65	44650.40
575.82	44722.96
575.98	44231.44
576.14	44636.36
576.30	44526.35
576.46	44250.17
576.62	44402.30
576.79	44196.34
576.95	44486.56
577.11	44533.37
577.27	44268.89
577.43	44652.74
577.59	44364.85
577.75	44278.25
577.92	43798.44
578.08	43821.85
578.24	44268.89
578.40	44212.72
578.56	44835.30
578.72	44194.00
578.88	44402.30
579.04	44790.83
579.21	44573.16
579.37	44589.55
579.53	44399.96
579.69	44233.78
579.85	44346.13
580.01	44451.45
580.17	44554.44
580.33	44912.54
580.49	44507.63
580.65	45158.30
580.82	44701.89
580.98	44355.49
581.14	44163.57
581.30	44999.14
581.46	44425.71
581.62	44194.00
581.78	44968.71
581.94	44416.35
582.10	44151.87
582.26	44732.32
582.42	44580.18
582.58	44687.85
582.74	44062.93
582.90	44371.88
583.06	44409.32
583.22	44751.04
583.38	45170.00
583.54	44856.37
583.70	44753.38
583.86	44414.01
584.02	44390.60
584.18	44729.98
584.34	44507.63
584.50	44584.86
584.66	44641.04
584.82	44315.70
584.98	44844.66
585.14	44622.31
585.30	44392.94
585.46	44676.15
585.62	44533.37
585.78	44409.32
585.94	44086.33
586.10	44568.48
586.26	44374.22
586.42	44737.00
586.58	44711.25
586.74	44961.69
586.90	44456.14
587.06	44350.81
587.22	44362.51
587.38	44432.73
587.54	44615.29
587.70	44690.19
587.86	44685.51
588.02	44526.35
588.18	44973.39
588.34	44442.09
588.49	43927.17
588.65	44009.09
588.81	44388.26
588.97	44568.48
589.13	44210.38
589.29	44751.04
589.45	44809.56
589.61	44170.59
589.77	44685.51
589.93	44875.09
590.08	44847.00
590.24	44856.37
