SpectraSuite Data File
++++++++++++++++++++++++++++++++++++
Date: Fri Oct 25 11:34:10 EDT 2013
User: price-jones
Dark Spectrum Present: No
Reference Spectrum Present: No
Number of Sampled Component Spectra: 1
Spectrometers: USB2+H05261
Integration Time (usec): 100000 (USB2+H05261)
Spectra Averaged: 1 (USB2+H05261)
Boxcar Smoothing: 0 (USB2+H05261)
Correct for Electrical Dark: No (USB2+H05261)
Strobe/Lamp Enabled: No (USB2+H05261)
Correct for Detector Non-linearity: No (USB2+H05261)
Correct for Stray Light: No (USB2+H05261)
Number of Pixels in Processed Spectrum: 2048
>>>>>Begin Processed Spectral Data<<<<<
365.73	248.10
365.92	248.10
366.12	248.10
366.32	294.91
366.52	252.78
366.72	220.01
366.91	222.35
367.11	205.97
367.31	194.26
367.51	145.11
367.70	203.63
367.90	145.11
368.10	180.22
368.30	262.14
368.49	159.16
368.69	177.88
368.89	149.79
369.09	212.99
369.28	220.01
369.48	280.86
369.68	173.20
369.87	222.35
370.07	236.39
370.27	299.59
370.47	334.70
370.66	463.43
370.86	552.37
371.06	512.58
371.25	507.90
371.45	503.22
371.65	547.69
371.84	479.81
372.04	479.81
372.24	575.77
372.44	592.16
372.63	559.39
372.83	608.54
373.03	629.60
373.22	657.69
373.42	610.88
373.62	582.79
373.81	624.92
374.01	634.29
374.21	601.52
374.40	629.60
374.60	674.07
374.79	631.94
374.99	692.80
375.19	603.86
375.38	648.33
375.58	624.92
375.78	655.35
375.97	636.63
376.17	690.46
376.37	711.52
376.56	706.84
376.76	706.84
376.95	683.44
377.15	589.82
377.35	755.99
377.54	660.03
377.74	734.93
377.93	758.33
378.13	725.57
378.33	688.12
378.52	678.76
378.72	732.59
378.91	660.03
379.11	608.54
379.31	697.48
379.50	692.80
379.70	786.42
379.89	746.63
380.09	676.41
380.28	641.31
380.48	744.29
380.68	746.63
380.87	767.70
381.07	704.50
381.26	760.67
381.46	784.08
381.65	706.84
381.85	753.65
382.04	805.14
382.24	800.46
382.43	791.10
382.63	734.93
382.83	784.08
383.02	748.97
383.22	849.61
383.41	739.61
383.61	819.19
383.80	805.14
384.00	821.53
384.19	779.40
384.39	753.65
384.58	851.96
384.78	830.89
384.97	821.53
385.17	863.66
385.36	772.38
385.56	826.21
385.75	842.59
385.95	791.10
386.14	889.40
386.34	868.34
386.53	901.11
386.72	809.83
386.92	922.17
387.11	898.77
387.31	837.91
387.50	894.08
387.70	844.93
387.89	896.43
388.09	973.66
388.28	851.96
388.48	889.40
388.67	933.87
388.86	908.13
389.06	847.27
389.25	823.87
389.45	875.36
389.64	943.24
389.84	924.51
390.03	901.11
390.22	959.62
390.42	1001.75
390.61	908.13
390.81	959.62
391.00	952.60
391.19	980.68
391.39	978.34
391.58	945.58
391.78	992.39
391.97	971.32
392.16	1032.18
392.36	1048.56
392.55	1095.37
392.75	997.07
392.94	1055.58
393.13	1090.69
393.33	1039.20
393.52	1076.65
393.71	1104.73
393.91	1090.69
394.10	1186.65
394.29	1050.90
394.49	1074.31
394.68	1123.46
394.88	1025.15
395.07	1167.93
395.26	1153.88
395.46	1111.75
395.65	1240.48
395.84	1153.88
396.04	1116.44
396.23	1203.04
396.42	1107.07
396.62	1142.18
396.81	1132.82
397.00	1172.61
397.19	1259.21
397.39	1221.76
397.58	1252.19
397.77	1231.12
397.97	1240.48
398.16	1245.16
398.35	1313.04
398.55	1177.29
398.74	1280.27
398.93	1294.32
399.12	1341.13
399.32	1291.98
399.51	1308.36
399.70	1320.06
399.90	1320.06
400.09	1301.34
400.28	1371.55
400.47	1380.92
400.67	1366.87
400.86	1350.49
401.05	1437.09
401.24	1355.17
401.44	1401.98
401.63	1420.71
401.82	1385.60
402.01	1397.30
402.21	1401.98
402.40	1418.36
402.59	1488.58
402.78	1385.60
402.97	1504.96
403.17	1558.80
403.36	1439.43
403.55	1549.43
403.74	1551.78
403.93	1600.93
404.13	1575.18
404.32	1579.86
404.51	1540.07
404.70	1657.10
404.89	1575.18
405.09	1706.25
405.28	1699.23
405.47	1661.78
405.66	1589.22
405.85	1710.93
406.05	1624.33
406.24	1743.70
406.43	1764.76
406.62	1717.95
406.81	1769.44
407.00	1687.53
407.20	1753.06
407.39	1764.76
407.58	1722.63
407.77	1872.43
407.96	1767.10
408.15	1865.41
408.34	1813.92
408.54	1879.45
408.73	1839.66
408.92	1884.13
409.11	1933.28
409.30	1937.96
409.49	1940.30
409.68	1984.77
409.87	1947.33
410.07	2022.22
410.26	1970.73
410.45	2059.67
410.64	2106.48
410.83	2078.40
411.02	2087.76
411.21	2179.04
411.40	2064.35
411.59	2186.06
411.78	2143.93
411.98	2136.91
412.17	2108.82
412.36	2244.57
412.55	2319.47
412.74	2307.77
412.93	2237.55
413.12	2331.17
413.31	2392.03
413.50	2389.69
413.69	2317.13
413.88	2438.84
414.07	2370.96
414.26	2518.42
414.45	2509.05
414.64	2499.69
414.83	2466.92
415.02	2506.71
415.22	2579.27
415.41	2649.49
415.60	2675.23
415.79	2684.59
415.98	2750.13
416.17	2612.04
416.36	2703.32
416.55	2703.32
416.74	2757.15
416.93	2808.64
417.12	2729.06
417.31	2782.90
417.50	2810.98
417.69	3052.06
417.88	2871.84
418.07	2878.86
418.26	2909.29
418.45	2867.16
418.64	3066.10
418.83	2869.50
419.02	3000.57
419.21	3096.53
419.39	3089.51
419.58	2972.48
419.77	3084.83
419.96	3101.21
420.15	3005.25
420.34	3110.57
420.53	3162.06
420.72	3133.98
420.91	3087.17
421.10	3236.96
421.29	3169.09
421.48	3157.38
421.67	3157.38
421.86	3176.11
422.05	3082.49
422.24	3138.66
422.43	3185.47
422.61	3258.03
422.80	3370.37
422.99	3239.30
423.18	3178.45
423.37	3447.61
423.56	3372.71
423.75	3377.39
423.94	3431.23
424.13	3178.45
424.32	3150.36
424.50	3368.03
424.69	3445.27
424.88	3389.10
425.07	3211.22
425.26	3382.07
425.45	3377.39
425.64	3361.01
425.83	3456.97
426.01	3473.36
426.20	3370.37
426.39	3379.73
426.58	3393.78
426.77	3356.33
426.96	3485.06
427.15	3494.42
427.33	3581.02
427.52	3435.91
427.71	3590.38
427.90	3585.70
428.09	3590.38
428.28	3667.62
428.46	3588.04
428.65	3646.55
428.84	3667.62
429.03	3803.37
429.22	3531.87
429.40	3676.98
429.59	3744.86
429.78	3503.78
429.97	3620.81
430.16	3634.85
430.34	3662.94
430.53	3726.13
430.72	3850.18
430.91	3733.15
431.10	3833.80
431.28	3882.95
431.47	3791.67
431.66	3913.38
431.85	3922.74
432.03	3824.44
432.22	3962.53
432.41	3885.29
432.60	3885.29
432.79	3974.23
432.97	4051.47
433.16	4018.70
433.35	4077.21
433.54	4156.79
433.72	4070.19
433.91	4138.07
434.10	4046.79
434.28	4163.81
434.47	4126.36
434.66	4217.65
434.85	4304.25
435.03	4287.86
435.22	4180.20
435.41	4390.84
435.59	4198.92
435.78	4236.37
435.97	4353.40
436.16	4341.69
436.34	4425.95
436.53	4161.47
436.72	4519.57
436.90	4395.53
437.09	4449.36
437.28	4222.33
437.46	4517.23
437.65	4404.89
437.84	4521.92
438.02	4486.81
438.21	4589.79
438.40	4477.44
438.58	4601.49
438.77	4699.80
438.96	4667.03
439.14	4784.06
439.33	4690.43
439.52	4638.94
439.70	4709.16
439.89	4777.03
440.08	4954.91
440.26	4945.55
440.45	4784.06
440.63	4983.00
440.82	5210.03
441.01	5039.17
441.19	4952.57
441.38	5069.60
441.57	5149.18
441.75	5158.54
441.94	5266.21
442.12	5233.44
442.31	5371.53
442.50	5380.89
442.68	5301.31
442.87	5408.98
443.05	5392.59
443.24	5472.17
443.43	5231.10
443.61	5551.75
443.80	5654.73
443.98	5329.40
444.17	5146.84
444.35	5437.06
444.54	5530.69
444.73	5518.98
444.91	5366.85
445.10	5614.95
445.28	5542.39
445.47	5392.59
445.65	5540.05
445.84	5603.24
446.02	5572.82
446.21	5504.94
446.39	5659.42
446.58	5493.24
446.77	5741.33
446.95	5500.26
447.14	5607.92
447.32	5631.33
447.51	5591.54
447.69	5699.20
447.88	5792.83
448.06	5762.40
448.25	5619.63
448.43	5645.37
448.62	5643.03
448.80	5570.48
448.99	5870.06
449.17	5788.14
449.36	5795.17
449.54	5841.98
449.73	5900.49
449.91	5921.56
450.10	5856.02
450.28	5973.05
450.46	5898.15
450.65	6015.18
450.83	5963.68
451.02	6059.65
451.20	5991.77
451.39	6052.63
451.57	5923.90
451.76	6157.95
451.94	6047.94
452.13	6040.92
452.31	6029.22
452.49	6022.20
452.68	6204.76
452.86	6101.78
453.05	6225.82
453.23	6260.93
453.42	6101.78
453.60	6263.27
453.78	6298.38
453.97	6370.94
454.15	6125.18
454.34	6202.42
454.52	6384.98
454.70	6612.01
454.89	6459.88
455.07	6434.13
455.26	6436.47
455.44	6565.20
455.62	6530.09
455.81	6450.52
455.99	6572.22
456.17	6525.41
456.36	6581.59
456.54	6700.95
456.73	6768.83
456.91	6949.05
457.09	6722.02
457.28	6963.09
457.46	6862.45
457.64	6761.81
457.83	6841.39
458.01	6890.54
458.19	6927.99
458.38	6904.58
458.56	7126.93
458.74	6988.84
458.93	7040.33
459.11	7152.68
459.29	7019.27
459.48	7119.91
459.66	7087.14
459.84	7117.57
460.03	7192.47
460.21	7288.43
460.39	7258.00
460.57	7211.19
460.76	7199.49
460.94	7293.11
461.12	7215.87
461.31	7391.41
461.49	7262.68
461.67	7246.30
461.85	7499.08
462.04	7480.35
462.22	8023.36
462.40	7791.64
462.59	7595.04
462.77	7543.55
462.95	7609.08
463.13	7581.00
463.32	7641.85
463.50	7840.79
463.68	7599.72
463.86	7801.01
464.05	7627.81
464.23	7793.98
464.41	7742.49
464.59	7716.75
464.78	7866.54
464.96	7756.54
465.14	7836.11
465.32	7969.52
465.50	7756.54
465.69	7936.76
465.87	7906.33
466.05	7955.48
466.23	7953.14
466.41	8016.33
466.60	8208.26
466.78	7887.61
466.96	7892.29
467.14	8030.38
467.32	8329.97
467.51	8058.46
467.69	8053.78
467.87	8056.12
468.05	8074.85
468.23	8159.11
468.41	8248.05
468.60	8362.73
468.78	8381.46
468.96	8257.41
469.14	8266.77
469.32	8435.29
469.50	8269.11
469.69	8318.26
469.87	8486.78
470.05	8517.21
470.23	8730.20
470.41	8514.87
470.59	8650.62
470.77	8437.63
470.95	8739.56
471.14	8638.92
471.32	8519.55
471.50	8877.65
471.68	8699.77
471.86	9050.85
472.04	8718.50
472.22	9193.62
472.40	8861.27
472.58	8922.12
472.77	9128.09
472.95	9083.62
473.13	9420.66
473.31	9111.71
473.49	9266.18
473.67	9214.69
473.85	9336.40
474.03	9413.63
474.21	9582.15
474.39	9481.51
474.57	9626.62
474.75	9525.98
474.93	9493.21
475.12	9694.50
475.30	9951.96
475.48	9776.42
475.66	10010.47
475.84	9715.56
476.02	9619.60
476.20	9893.44
476.38	10157.92
476.56	10349.85
476.74	10293.68
476.92	10307.72
477.10	10204.74
477.28	10342.83
477.46	10574.54
477.64	10443.47
477.82	10661.14
478.00	10946.69
478.18	10644.76
478.36	11000.52
478.54	10958.39
478.72	10956.05
478.90	11108.18
479.08	11225.21
479.26	11449.90
479.44	11286.06
479.62	11407.77
479.80	11630.12
479.98	11599.70
480.16	11962.48
480.34	11768.21
480.52	11875.88
480.70	11953.12
480.88	12051.42
481.06	12105.25
481.24	12145.04
481.41	12351.01
481.59	12573.36
481.77	12287.81
481.95	12711.45
482.13	12727.83
482.31	12589.74
482.49	13027.42
482.67	12978.27
482.85	13231.05
483.03	13099.98
483.21	13495.53
483.39	13607.87
483.57	13406.59
483.74	13642.98
483.92	13523.62
484.10	13617.24
484.28	13879.38
484.46	14209.39
484.64	14267.91
484.82	14094.71
485.00	14059.60
485.18	14523.02
485.35	14817.93
485.53	14644.73
485.71	14792.19
485.89	14944.32
486.07	14934.96
486.25	14974.75
486.43	15197.10
486.61	15089.43
486.78	15618.39
486.96	15672.23
487.14	15704.99
487.32	15674.57
487.50	15838.41
487.68	16238.64
487.85	16257.36
488.03	16128.63
488.21	16393.11
488.39	16603.76
488.57	16739.51
488.75	16762.92
488.92	16987.61
489.10	16943.14
489.28	17191.23
489.46	17256.77
489.64	17778.71
489.81	17767.01
489.99	17441.67
490.17	17745.94
490.35	18012.76
490.53	18113.41
490.70	18111.07
490.88	17982.34
491.06	18420.02
491.24	18625.98
491.41	18614.28
491.59	18604.92
491.77	18635.35
491.95	18796.84
492.13	19044.94
492.30	19321.12
492.48	19068.34
492.66	19468.58
492.84	19503.68
493.01	19728.38
493.19	19726.04
493.37	19955.41
493.54	19798.59
493.72	19960.09
493.90	19995.20
494.08	20231.59
494.25	20334.57
494.43	20585.01
494.61	20594.37
494.79	20971.20
494.96	20683.31
495.14	20680.97
495.32	20994.61
495.49	21355.05
495.67	21254.40
495.85	21303.56
496.02	21537.61
496.20	21539.95
496.38	21827.84
496.55	21668.68
496.73	22508.93
496.91	21916.78
497.09	22244.45
497.26	22441.06
497.44	22155.51
497.62	22286.58
497.79	22902.14
497.97	22668.09
498.14	23009.81
498.32	23105.77
498.50	23285.99
498.67	23215.77
498.85	23379.61
499.03	23421.74
499.20	23363.23
499.38	23522.38
499.56	23665.16
499.73	23637.07
499.91	23730.69
500.08	24121.56
500.26	23997.51
500.44	24212.84
500.61	24163.69
500.79	24224.54
500.97	24800.32
501.14	24467.96
501.32	24503.07
501.49	24505.41
501.67	24769.89
501.84	25022.67
502.02	25158.42
502.20	24875.21
502.37	25165.44
502.55	24727.76
502.72	25340.98
502.90	25247.36
503.07	25436.94
503.25	25453.33
503.43	25415.88
503.60	25816.11
503.78	26120.38
503.95	25628.87
504.13	25537.59
504.30	26176.55
504.48	25956.54
504.65	26476.14
504.83	26363.79
505.01	26293.58
505.18	26534.65
505.36	26501.89
505.53	26586.15
505.71	26801.47
505.88	26829.56
506.06	26328.69
506.23	27211.07
506.41	27243.84
506.58	27028.51
506.76	27110.43
506.93	27510.66
507.11	27278.94
507.28	27658.11
507.46	27585.55
507.63	27482.57
507.81	27733.01
507.98	27606.62
508.16	27754.07
508.33	27850.03
508.50	28011.53
508.68	27810.25
508.85	28201.11
509.03	28151.96
509.20	28390.70
509.38	28620.07
509.55	28481.98
509.73	28790.93
509.90	28692.63
510.08	28400.06
510.25	28786.25
510.42	28987.53
510.60	28966.47
510.77	28989.88
510.95	29390.11
511.12	28945.41
511.30	29186.48
511.47	29411.17
511.64	29310.53
511.82	29902.68
511.99	29542.24
512.17	29483.73
512.34	29598.41
512.51	30099.29
512.69	30064.18
512.86	30235.04
513.04	30244.40
513.21	30040.78
513.38	30078.22
513.56	30258.45
513.73	30050.14
513.90	30471.43
514.08	30675.06
514.25	30494.84
514.43	30513.56
514.60	30623.57
514.77	30639.95
514.95	30787.41
515.12	30707.83
515.29	30602.50
515.47	31377.22
515.64	31164.23
515.81	31096.36
515.99	31552.76
516.16	31412.33
516.33	31527.02
516.51	31747.03
516.68	31402.97
516.85	31702.56
517.03	32041.93
517.20	31838.31
517.37	32107.47
517.54	31765.75
517.72	32514.72
517.89	31885.12
518.06	32063.00
518.24	32514.72
518.41	31744.69
518.58	32290.03
518.75	32039.59
518.93	32500.68
519.10	32512.38
519.27	32706.65
519.45	32783.88
519.62	32889.21
519.79	32790.91
519.96	33202.84
520.14	32725.37
520.31	32898.57
520.48	33221.56
520.65	33474.34
520.83	33514.13
521.00	33397.10
521.17	33453.28
521.34	33315.19
521.52	33432.21
521.69	33537.54
521.86	33975.22
522.03	33448.60
522.20	34007.98
522.38	34391.83
522.55	34398.85
522.72	34117.99
522.89	34340.34
523.07	34607.16
523.24	34213.95
523.41	34370.77
523.58	34047.77
523.75	34333.32
523.92	34436.30
524.10	35030.80
524.27	35271.87
524.44	34756.96
524.61	34843.56
524.78	35192.30
524.96	35201.66
525.13	35274.21
525.30	35314.00
525.47	35269.53
525.64	34859.94
525.81	35388.90
525.98	35765.73
526.16	35220.38
526.33	35299.96
526.50	35812.54
526.67	35424.01
526.84	35440.39
527.01	35761.05
527.18	35786.79
527.36	35709.55
527.53	35896.80
527.70	36325.11
527.87	36212.77
528.04	36128.51
528.21	36348.52
528.38	35899.14
528.55	35962.33
528.72	36175.32
528.89	36449.16
529.07	36098.08
529.24	36367.24
529.41	36503.00
529.58	36666.83
529.75	36446.82
529.92	36746.41
530.09	36430.44
530.26	36627.04
530.43	36924.29
530.60	36804.92
530.77	36701.94
530.94	36854.08
531.11	36893.86
531.28	37038.98
531.46	37046.00
531.63	36891.52
531.80	37085.79
531.97	37329.20
532.14	37219.20
532.31	37090.47
532.48	37642.84
532.65	37759.86
532.82	37647.52
532.99	37691.99
533.16	37429.85
533.33	37986.89
533.50	37759.86
533.67	37811.35
533.84	37755.18
534.01	37867.53
534.18	37677.94
534.35	38274.78
534.52	38050.09
534.69	38377.76
534.86	38445.64
535.03	38244.35
535.20	38478.41
535.37	38583.73
535.54	38440.96
535.71	38693.74
535.88	38387.13
536.05	38506.49
536.22	38677.35
536.38	38684.37
536.55	38653.95
536.72	38251.38
536.89	38658.63
537.06	38731.18
537.23	38998.01
537.40	38906.73
537.57	38778.00
537.74	38644.59
537.91	39215.68
538.08	39306.96
538.25	38951.20
538.42	39255.46
538.59	39110.35
538.75	39414.62
538.92	39658.04
539.09	39409.94
539.26	39522.29
539.43	39428.66
539.60	39686.12
539.77	39339.72
539.94	40076.99
540.11	39924.86
540.28	39990.39
540.44	39529.31
540.61	39768.04
540.78	39924.86
540.95	40201.04
541.12	39768.04
541.29	39669.74
541.46	40175.30
541.62	39976.35
541.79	40624.68
541.96	39660.38
542.13	39754.00
542.30	40587.23
542.47	40381.26
542.63	40158.91
542.80	40311.05
542.97	40552.12
543.14	40957.03
543.31	40739.36
543.48	40914.90
543.64	41476.63
543.81	40861.07
543.98	40659.79
544.15	40589.57
544.32	40868.09
544.48	41216.83
544.65	40957.03
544.82	41081.08
544.99	41361.95
545.16	41202.79
545.32	40872.78
545.49	41799.63
545.66	42010.28
545.83	41628.77
546.00	41633.45
546.16	41490.68
546.33	41263.64
546.50	40858.73
546.67	41921.34
546.83	41022.57
547.00	41607.70
547.17	41684.94
547.34	41806.65
547.50	41556.21
547.67	41530.47
547.84	41748.14
548.00	41837.08
548.17	42480.72
548.34	42026.66
548.51	41972.83
548.67	42169.43
548.84	42337.95
549.01	41577.28
549.18	41965.81
549.34	42438.59
549.51	42490.09
549.68	42485.40
549.84	42286.46
550.01	42569.66
550.18	42071.13
550.34	42426.89
550.51	42707.76
550.68	43000.32
550.84	42522.85
551.01	42829.46
551.18	42429.23
551.34	42749.88
551.51	42667.97
551.68	42515.83
551.84	42878.61
552.01	42777.97
552.18	42880.95
552.34	42972.24
552.51	42813.08
552.68	42604.77
552.84	42628.18
553.01	43075.22
553.18	43014.37
553.34	43311.61
553.51	43126.71
553.67	43592.48
553.84	43337.36
554.01	43761.00
554.17	43828.87
554.34	43707.16
554.51	43676.74
554.67	43548.01
554.84	43700.14
555.00	43524.60
555.17	43253.10
555.33	43669.72
555.50	43674.40
555.67	43761.00
555.83	43807.81
556.00	43725.89
556.16	44648.06
556.33	44177.61
556.50	43648.65
556.66	43732.91
556.83	43435.66
556.99	44051.22
557.16	43913.13
557.32	44144.84
557.49	44208.04
557.65	43805.47
557.82	44048.88
557.98	44069.95
558.15	43856.96
558.32	43861.64
558.48	43868.66
558.65	43894.41
558.81	44004.41
558.98	44245.49
559.14	44320.38
559.31	44271.23
559.47	43835.89
559.64	44416.35
559.80	44622.31
559.97	44507.63
560.13	44325.07
560.30	44243.15
560.46	44753.38
560.63	44533.37
560.79	44463.16
560.96	44957.01
561.12	44287.62
561.29	44353.15
561.45	44713.59
561.61	44886.79
561.78	44690.19
561.94	44355.49
562.11	44818.92
562.27	44683.17
562.44	44509.97
562.60	44800.19
562.77	44807.22
562.93	44500.61
563.10	44847.00
563.26	44847.00
563.42	45195.74
563.59	44659.76
563.75	44875.09
563.92	45097.44
564.08	44835.30
564.24	44399.96
564.41	44636.36
564.57	45069.36
564.74	44854.03
564.90	44376.56
565.07	44942.97
565.23	45155.96
565.39	45132.55
565.56	45191.06
565.72	44832.96
565.88	45247.24
566.05	45443.84
566.21	44957.01
566.38	45020.20
566.54	45132.55
566.70	45251.92
566.87	45478.95
567.03	45085.74
567.19	45249.58
567.36	45413.41
567.52	45261.28
567.68	45654.49
567.85	45275.32
568.01	45558.53
568.17	44952.33
568.34	45132.55
568.50	45500.01
568.66	45258.94
568.83	45565.55
568.99	45460.23
569.15	45177.02
569.32	45476.61
569.48	45397.03
569.64	45813.65
569.81	45691.94
569.97	45827.69
570.13	45404.05
570.30	45017.86
570.46	45666.19
570.62	45427.46
570.78	45394.69
570.95	45317.45
571.11	45734.07
571.27	45612.36
571.43	45371.28
571.60	45132.55
571.76	45546.82
571.92	45720.02
572.09	45617.04
572.25	45427.46
572.41	45113.83
572.57	45624.06
572.74	46019.61
572.90	45876.84
573.06	46012.59
573.22	45900.25
573.38	45893.22
573.55	45659.17
573.71	46197.49
573.87	45757.47
574.03	45954.08
574.20	45979.82
574.36	45659.17
574.52	45661.51
574.68	46106.21
574.84	45876.84
575.01	46089.83
575.17	46117.92
575.33	45724.71
575.49	45818.33
575.65	45935.35
575.82	46138.98
575.98	45783.22
576.14	45862.80
576.30	46590.70
576.46	45944.72
576.62	45717.68
576.79	45897.91
576.95	45539.80
577.11	45869.82
577.27	45965.78
577.43	45956.42
577.59	45794.92
577.75	46110.89
577.92	45794.92
578.08	45911.95
578.24	45984.51
578.40	45933.01
578.56	45893.22
578.72	46115.58
578.88	46337.93
579.04	46176.43
579.21	45783.22
579.37	46244.30
579.53	46239.62
579.69	45727.05
579.85	46092.17
580.01	45823.01
580.17	45839.39
580.33	46092.17
580.49	46237.28
580.65	45963.44
580.82	46333.24
580.98	46117.92
581.14	45691.94
581.30	45778.54
581.46	46031.32
581.62	45900.25
581.78	46080.47
581.94	46312.18
582.10	46017.27
582.26	46265.37
582.42	45865.14
582.58	46403.46
582.74	46473.68
582.90	46286.43
583.06	46213.88
583.22	45921.31
583.38	46508.79
583.54	46302.82
583.70	46600.07
583.86	46363.67
584.02	46237.28
584.18	46316.86
584.34	46703.05
584.50	46394.10
584.66	46342.61
584.82	45954.08
584.98	46438.57
585.14	46469.00
585.30	46260.69
585.46	46326.22
585.62	46256.01
585.78	46707.73
585.94	45991.53
586.10	46298.14
586.26	46445.59
586.42	46312.18
586.58	46443.25
586.74	46096.85
586.90	46115.58
587.06	46031.32
587.22	46101.53
587.38	46391.76
587.54	46373.03
587.70	46642.20
587.86	46314.52
588.02	46003.23
588.18	46260.69
588.34	45916.63
588.49	46405.80
588.65	46326.22
588.81	46630.49
588.97	46525.17
589.13	46520.49
589.29	46099.19
589.45	46808.37
589.61	46504.10
589.77	46220.90
589.93	46564.96
590.08	46667.94
