SpectraSuite Data File
++++++++++++++++++++++++++++++++++++
Date: Fri Oct 25 11:25:10 EDT 2013
User: price-jones
Dark Spectrum Present: No
Reference Spectrum Present: No
Number of Sampled Component Spectra: 1
Spectrometers: USB2+H05261
Integration Time (usec): 100000 (USB2+H05261)
Spectra Averaged: 1 (USB2+H05261)
Boxcar Smoothing: 0 (USB2+H05261)
Correct for Electrical Dark: No (USB2+H05261)
Strobe/Lamp Enabled: No (USB2+H05261)
Correct for Detector Non-linearity: No (USB2+H05261)
Correct for Stray Light: No (USB2+H05261)
Number of Pixels in Processed Spectrum: 2048
>>>>>Begin Processed Spectral Data<<<<<
365.73	194.26
365.92	194.26
366.12	194.26
366.32	126.39
366.52	84.26
366.72	198.95
366.91	117.03
367.11	145.11
367.31	74.90
367.51	53.83
367.70	86.60
367.90	131.07
368.10	110.01
368.30	236.39
368.49	126.39
368.69	105.32
368.89	177.88
369.09	170.86
369.28	215.33
369.48	182.56
369.68	173.20
369.87	189.58
370.07	224.69
370.27	248.10
370.47	315.97
370.66	580.45
370.86	589.82
371.06	664.71
371.25	627.26
371.45	629.60
371.65	608.54
371.84	704.50
372.04	692.80
372.24	624.92
372.44	732.59
372.63	760.67
372.83	681.10
373.03	690.46
373.22	744.29
373.42	763.01
373.62	777.06
373.81	802.80
374.01	847.27
374.21	774.72
374.40	770.04
374.60	837.91
374.79	760.67
374.99	854.30
375.19	835.57
375.38	770.04
375.58	903.45
375.78	819.19
375.97	868.34
376.17	889.40
376.37	779.40
376.56	854.30
376.76	851.96
376.95	812.17
377.15	903.45
377.35	856.64
377.54	894.08
377.74	931.53
377.93	835.57
378.13	870.68
378.33	966.64
378.52	819.19
378.72	903.45
378.91	957.28
379.11	1018.13
379.31	917.49
379.50	915.15
379.70	999.41
379.89	943.24
380.09	1008.77
380.28	877.70
380.48	1053.24
380.68	983.02
380.87	1022.81
381.07	1036.86
381.26	1125.80
381.46	919.83
381.65	1029.84
381.85	990.05
382.04	1041.54
382.24	987.71
382.43	1048.56
382.63	1034.52
382.83	1111.75
383.02	1069.62
383.22	1116.44
383.41	1090.69
383.61	1083.67
383.80	1123.46
384.00	1048.56
384.19	1086.01
384.39	1130.48
384.58	1086.01
384.78	1130.48
384.97	1121.12
385.17	1188.99
385.36	1149.20
385.56	1238.14
385.75	1184.31
385.95	1149.20
386.14	1050.90
386.34	1153.88
386.53	1210.06
386.72	1156.22
386.92	1240.48
387.11	1210.06
387.31	1369.21
387.50	1219.42
387.70	1174.95
387.89	1252.19
388.09	1280.27
388.28	1277.93
388.48	1277.93
388.67	1315.38
388.86	1320.06
389.06	1390.28
389.25	1385.60
389.45	1331.76
389.64	1277.93
389.84	1317.72
390.03	1324.74
390.22	1291.98
390.42	1338.79
390.61	1294.32
390.81	1362.19
391.00	1341.13
391.19	1460.49
391.39	1472.20
391.58	1483.90
391.78	1479.22
391.97	1418.36
392.16	1502.62
392.36	1612.63
392.55	1547.09
392.75	1483.90
392.94	1535.39
393.13	1521.35
393.33	1502.62
393.52	1582.20
393.71	1577.52
393.91	1511.99
394.10	1556.46
394.29	1544.75
394.49	1638.38
394.68	1633.69
394.88	1607.95
395.07	1654.76
395.26	1624.33
395.46	1617.31
395.65	1678.16
395.84	1764.76
396.04	1816.26
396.23	1783.49
396.42	1701.57
396.62	1717.95
396.81	1722.63
397.00	1781.15
397.19	1717.95
397.39	1753.06
397.58	1746.04
397.77	1785.83
397.97	1827.96
398.16	1802.21
398.35	1853.70
398.55	1870.09
398.74	1827.96
398.93	1839.66
399.12	1921.58
399.32	1795.19
399.51	1923.92
399.70	1977.75
399.90	1973.07
400.09	2040.95
400.28	1966.05
400.47	1923.92
400.67	2097.12
400.86	2115.84
401.05	2057.33
401.24	2031.58
401.44	1994.14
401.63	2162.66
401.82	2176.70
402.01	2050.31
402.21	2256.28
402.40	2181.38
402.59	2169.68
402.78	2083.08
402.97	2181.38
403.17	2303.09
403.36	2275.00
403.55	2237.55
403.74	2279.68
403.93	2275.00
404.13	2342.88
404.32	2338.20
404.51	2284.36
404.70	2342.88
404.89	2399.05
405.09	2422.45
405.28	2422.45
405.47	2464.58
405.66	2555.86
405.85	2527.78
406.05	2628.42
406.24	2478.63
406.43	2452.88
406.62	2668.21
406.81	2658.85
407.00	2480.97
407.20	2539.48
407.39	2628.42
407.58	2679.91
407.77	2672.89
407.96	2726.72
408.15	2722.04
408.34	2759.49
408.54	2768.85
408.73	2848.43
408.92	2867.16
409.11	2869.50
409.30	2963.12
409.49	2935.03
409.68	2935.03
409.87	2963.12
410.07	2939.71
410.26	3026.31
410.45	2928.01
410.64	3005.25
410.83	3045.04
411.02	3164.40
411.21	3169.09
411.40	3138.66
411.59	3293.13
411.78	3166.74
411.98	3145.68
412.17	3234.62
412.36	3276.75
412.55	3407.82
412.74	3269.73
412.93	3342.28
413.12	3342.28
413.31	3459.31
413.50	3487.40
413.69	3426.54
413.88	3597.40
414.07	3503.78
414.26	3616.13
414.45	3667.62
414.64	3651.24
414.83	3765.92
415.02	3751.88
415.22	3838.48
415.41	3726.13
415.60	3812.73
415.79	3946.14
415.98	3815.07
416.17	4065.51
416.36	3976.57
416.55	3971.89
416.74	4035.08
416.93	4039.76
417.12	4187.22
417.31	4306.59
417.50	4161.47
417.69	4351.06
417.88	4238.71
418.07	4208.28
418.26	4269.14
418.45	4243.39
418.64	4456.38
418.83	4393.19
419.02	4266.80
419.21	4470.42
419.39	4550.00
419.58	4432.97
419.77	4367.44
419.96	4451.70
420.15	4545.32
420.34	4578.09
420.53	4582.77
420.72	4585.11
420.91	4709.16
421.10	4606.17
421.29	4643.62
421.48	4770.01
421.67	4676.39
421.86	4683.41
422.05	4858.95
422.24	4816.82
422.43	4739.58
422.61	4919.81
422.80	4891.72
422.99	4971.30
423.18	4961.94
423.37	4992.36
423.56	4844.91
423.75	5060.24
423.94	4788.74
424.13	4573.41
424.32	4681.07
424.50	5093.01
424.69	5041.51
424.88	5090.67
425.07	4840.23
425.26	4891.72
425.45	4884.70
425.64	5076.62
425.83	5008.75
426.01	4975.98
426.20	5085.98
426.39	4961.94
426.58	5090.67
426.77	5004.07
426.96	5046.20
427.15	5207.69
427.33	5111.73
427.52	5020.45
427.71	5149.18
427.90	5172.58
428.09	5137.48
428.28	5322.38
428.46	5219.39
428.65	5331.74
428.84	5420.68
429.03	5446.43
429.22	5352.81
429.40	5397.28
429.59	5172.58
429.78	5170.24
429.97	5320.04
430.16	5317.70
430.34	5575.16
430.53	5600.90
430.72	5645.37
430.91	5528.35
431.10	5671.12
431.28	5647.71
431.47	5809.21
431.66	5912.19
431.85	5699.20
432.03	5825.59
432.22	6050.28
432.41	5914.53
432.60	5856.02
432.79	5916.87
432.97	5930.92
433.16	5926.24
433.35	5823.25
433.54	5959.00
433.72	5970.71
433.91	5982.41
434.10	6286.68
434.28	6136.88
434.47	6038.58
434.66	6277.32
434.85	6296.04
435.03	6342.85
435.22	6296.04
435.41	6270.30
435.59	6335.83
435.78	6293.70
435.97	6413.07
436.16	6354.55
436.34	6396.68
436.53	6272.64
436.72	6530.09
436.90	6441.15
437.09	6616.69
437.28	6483.28
437.46	6544.14
437.65	6677.55
437.84	6583.93
438.02	6724.36
438.21	6630.74
438.40	6574.56
438.58	6897.56
438.77	6841.39
438.96	7056.72
439.14	7047.35
439.33	7112.89
439.52	7218.21
439.70	7201.83
439.89	7510.78
440.08	7180.76
440.26	7424.18
440.45	7377.37
440.63	7529.50
440.82	7524.82
441.01	7386.73
441.19	7403.11
441.38	7662.91
441.57	7784.62
441.75	7555.25
441.94	7843.14
442.12	7829.09
442.31	7967.18
442.50	7967.18
442.68	7761.22
442.87	7737.81
443.05	8086.55
443.24	8226.98
443.43	8182.51
443.61	8095.91
443.80	8390.82
443.98	8070.17
444.17	7599.72
444.35	8329.97
444.54	8297.20
444.73	8273.79
444.91	8243.37
445.10	8238.69
445.28	8173.15
445.47	8180.17
445.65	8168.47
445.84	8229.32
446.02	8257.41
446.21	8124.00
446.39	8264.43
446.58	8353.37
446.77	8390.82
446.95	8203.58
447.14	8187.19
447.32	8564.02
447.51	8208.26
447.69	8217.62
447.88	8496.14
448.06	8454.02
448.25	8547.64
448.43	8301.88
448.62	8531.25
448.80	8493.80
448.99	8575.72
449.17	8617.85
449.36	8456.36
449.54	8788.71
449.73	8795.73
449.91	8997.02
450.10	8884.67
450.28	8978.30
450.46	8870.63
450.65	8952.55
450.83	9064.89
451.02	9116.39
451.20	9097.66
451.39	9252.14
451.57	9043.83
451.76	8795.73
451.94	8997.02
452.13	9261.50
452.31	9160.86
452.49	8943.19
452.68	9397.25
452.86	9294.27
453.05	9336.40
453.23	9444.06
453.42	9324.69
453.60	9240.44
453.78	9509.60
453.97	9371.50
454.15	9385.55
454.34	9385.55
454.52	9586.83
454.70	9549.39
454.89	9610.24
455.07	9731.95
455.26	9696.84
455.44	9729.61
455.62	9764.72
455.81	9902.81
455.99	9832.59
456.17	9848.97
456.36	10036.22
456.54	10066.64
456.73	10153.24
456.91	10478.58
457.09	10181.33
457.28	10464.54
457.46	10406.02
457.64	10394.32
457.83	10562.84
458.01	10258.57
458.19	10490.28
458.38	10539.43
458.56	10609.65
458.74	10785.19
458.93	10354.53
459.11	10719.65
459.29	10675.18
459.48	10607.31
459.66	10766.46
459.84	10656.46
460.03	10944.34
460.21	10916.26
460.39	10857.75
460.57	11147.97
460.76	10984.13
460.94	11030.94
461.12	11262.66
461.31	11012.22
461.49	11110.52
461.67	10890.51
461.85	11510.75
462.04	11136.27
462.22	11620.76
462.40	11466.28
462.59	11337.56
462.77	11370.32
462.95	11531.82
463.13	11772.89
463.32	11555.22
463.50	11672.25
463.68	11365.64
463.86	11808.00
464.05	11438.20
464.23	11686.29
464.41	11815.02
464.59	11679.27
464.78	11988.22
464.96	11822.05
465.14	11815.02
465.32	11824.39
465.50	12173.13
465.69	11974.18
465.87	11992.90
466.05	12049.08
466.23	12177.81
466.41	11843.11
466.60	12477.40
466.78	12049.08
466.96	12379.09
467.14	12376.75
467.32	12339.30
467.51	12634.21
467.69	11988.22
467.87	12175.47
468.05	12542.93
468.23	12182.49
468.41	12343.99
468.60	12465.69
468.78	12493.78
468.96	12315.90
469.14	12603.78
469.32	12896.35
469.50	12468.03
469.69	13020.40
469.87	13104.66
470.05	12924.44
470.23	13123.38
470.41	13074.23
470.59	13282.54
470.77	13214.66
470.95	13408.93
471.14	13341.05
471.32	13132.75
471.50	13509.57
471.68	13422.97
471.86	13554.04
472.04	13769.37
472.22	13881.72
472.40	13570.43
472.58	13701.50
472.77	13930.87
472.95	14127.47
473.13	14083.00
473.31	14052.58
473.49	14162.58
473.67	14043.21
473.85	14242.16
474.03	14490.26
474.21	14434.08
474.39	14796.87
474.57	14539.41
474.75	14815.59
474.93	14794.53
475.12	14792.19
475.30	14897.51
475.48	14775.80
475.66	15302.42
475.84	14946.66
476.02	15157.31
476.20	15234.55
476.38	15765.85
476.56	15728.40
476.74	15714.36
476.92	15829.04
477.10	15658.18
477.28	15953.09
477.46	15999.90
477.64	16116.93
477.82	16430.56
478.00	16786.32
478.18	16788.66
478.36	16908.03
478.54	16992.29
478.72	16734.83
478.90	17446.35
479.08	17525.93
479.26	17413.59
479.44	17582.10
479.62	17525.93
479.80	17717.86
479.98	17977.65
480.16	18530.02
480.34	18232.77
480.52	18712.58
480.70	18333.42
480.88	18071.28
481.06	18532.36
481.24	18597.90
481.41	18888.12
481.59	19058.98
481.77	19325.80
481.95	19110.47
482.13	19468.58
482.31	19587.94
482.49	20453.94
482.67	20266.70
482.85	20290.10
483.03	20182.44
483.21	20503.09
483.39	20889.28
483.57	21022.69
483.74	21003.97
483.92	21010.99
484.10	20943.11
484.28	21781.03
484.46	21626.55
484.64	22265.52
484.82	21638.25
485.00	22328.71
485.18	22501.91
485.35	22867.03
485.53	22738.30
485.71	22621.28
485.89	23501.32
486.07	22808.52
486.25	23440.47
486.43	23323.44
486.61	23501.32
486.78	23571.54
486.96	23910.91
487.14	24140.29
487.32	24231.57
487.50	24584.99
487.68	24629.46
487.85	25057.78
488.03	25390.13
488.21	25497.80
488.39	25481.41
488.57	25678.02
488.75	25678.02
488.92	26010.37
489.10	26431.67
489.28	26464.44
489.46	27096.38
489.64	26644.66
489.81	27428.74
489.99	27494.27
490.17	27393.63
490.35	27716.62
490.53	28184.73
490.70	27906.21
490.88	28119.20
491.06	28407.08
491.24	28882.21
491.41	28666.88
491.59	28966.47
491.77	28961.79
491.95	29357.34
492.13	29184.14
492.30	29816.08
492.48	29872.26
492.66	30087.59
492.84	29724.80
493.01	30567.40
493.19	30216.32
493.37	30958.27
493.54	30902.09
493.72	31178.28
493.90	30862.30
494.08	31449.78
494.25	31765.75
494.43	31924.91
494.61	31936.61
494.79	32332.16
494.96	32027.89
495.14	32559.19
495.32	32952.40
495.49	33048.36
495.67	32800.27
495.85	33521.15
496.02	33631.16
496.20	33518.81
496.38	33385.40
496.55	34293.53
496.73	34169.48
496.91	34321.62
497.09	34375.45
497.26	34426.94
497.44	34881.00
497.62	34911.43
497.79	35442.73
497.97	34873.98
498.14	35358.47
498.32	36055.95
498.50	35707.21
498.67	36107.44
498.85	36273.62
499.03	36353.20
499.20	36252.56
499.38	36374.27
499.56	36629.38
499.73	37156.00
499.91	37289.42
500.08	37427.51
500.26	37024.93
500.44	37860.51
500.61	37736.46
500.79	37523.47
500.97	37771.57
501.14	38213.93
501.32	38239.67
501.49	38595.43
501.67	38717.14
501.84	38752.25
502.02	38265.42
502.20	38494.79
502.37	38473.73
502.55	38890.34
502.72	39271.85
502.90	39147.80
503.07	39264.83
503.25	39442.71
503.43	39363.13
503.60	39941.24
503.78	39615.91
503.95	40072.31
504.13	40116.78
504.30	40355.52
504.48	40194.02
504.65	40339.13
504.83	40383.60
505.01	41350.24
505.18	41188.75
505.36	41015.55
505.53	41057.68
505.71	41359.61
505.88	41516.42
506.06	41153.64
506.23	41528.13
506.41	41214.49
506.58	41614.72
506.76	41710.69
506.93	42370.72
507.11	42012.62
507.28	42169.43
507.46	42265.39
507.63	42550.94
507.81	42686.69
507.98	42653.92
508.16	43019.05
508.33	43323.32
508.50	43225.01
508.68	43248.42
508.85	43419.28
509.03	43367.79
509.20	43606.52
509.38	44098.03
509.55	43885.04
509.73	44229.10
509.90	44210.38
510.08	44266.55
510.25	44287.62
510.42	44217.40
510.60	44594.23
510.77	44683.17
510.95	45043.61
511.12	44760.40
511.30	44872.75
511.47	45436.82
511.64	45034.25
511.82	45766.84
511.99	45294.05
512.17	45322.13
512.34	45743.43
512.51	46007.91
512.69	45584.27
512.86	46110.89
513.04	46227.92
513.21	46101.53
513.38	46539.21
513.56	46429.21
513.73	46232.60
513.90	46862.21
514.08	46466.66
514.25	47002.64
514.43	47061.15
514.60	46754.54
514.77	46883.27
514.95	47262.44
515.12	47042.43
515.29	47086.90
515.47	47271.80
515.64	47751.61
515.81	47625.22
515.99	47824.17
516.16	47959.92
516.33	47941.19
516.51	48350.79
516.68	48233.76
516.85	48332.06
517.03	48715.91
517.20	48399.94
517.37	48261.85
517.54	48676.12
517.72	48360.15
517.89	48910.17
518.06	49193.38
518.24	48985.07
518.41	49134.87
518.58	48832.94
518.75	48680.80
518.93	49294.02
519.10	49106.78
519.27	49441.48
519.45	49684.89
519.62	49090.40
519.79	49799.58
519.96	49624.04
520.14	49956.39
520.31	49734.04
520.48	50033.63
520.65	50003.20
520.83	50590.68
521.00	50103.85
521.17	50284.07
521.34	50253.64
521.52	50635.15
521.69	50466.63
521.86	50707.71
522.03	50436.20
522.20	51065.81
522.38	51229.65
522.55	51000.27
522.72	51035.38
522.89	51241.35
523.07	51421.57
523.24	50946.44
523.41	51515.19
523.58	51033.04
523.75	51297.52
523.92	51496.47
524.10	51777.33
524.27	51784.35
524.44	51987.98
524.61	51889.68
524.78	51629.88
524.96	52023.09
525.13	52184.58
525.30	52135.43
525.47	52254.80
525.64	52226.71
525.81	52350.76
525.98	52404.59
526.16	52420.98
526.33	52306.29
526.50	52893.77
526.67	52582.48
526.84	52573.11
527.01	52837.59
527.18	52715.89
527.36	52488.85
527.53	52898.45
527.70	52994.41
527.87	53069.31
528.04	52781.42
528.21	53282.30
528.38	52858.66
528.55	52940.58
528.72	52889.09
528.89	53315.06
529.07	53158.25
529.24	53380.60
529.41	53600.61
529.58	53464.86
529.75	53502.31
529.92	53532.73
530.09	53675.51
530.26	53514.01
530.43	54003.18
530.60	53462.52
530.77	53563.16
530.94	53851.05
531.11	53804.24
531.28	54038.29
531.46	54117.87
531.63	53918.92
531.80	54405.75
531.97	54164.68
532.14	54382.35
532.31	54155.32
532.48	54251.28
532.65	54494.69
532.82	54253.62
532.99	54473.63
533.16	54232.55
533.33	54651.51
533.50	54761.51
533.67	54553.21
533.84	54555.55
534.01	54567.25
534.18	54569.59
534.35	54920.67
534.52	54663.21
534.69	54915.99
534.86	55136.00
535.03	54670.23
535.20	54892.58
535.37	54859.82
535.54	55210.90
535.71	55238.98
535.88	55124.30
536.05	55173.45
536.22	55440.27
536.38	55344.31
536.55	55447.29
536.72	55346.65
536.89	55136.00
537.06	55454.31
537.23	55330.26
537.40	55332.60
537.57	55550.27
537.74	55648.58
537.91	55512.83
538.08	55664.96
538.25	55545.59
538.42	55545.59
538.59	56072.21
538.75	55730.50
538.92	55845.18
539.09	56109.66
539.26	55793.69
539.43	55957.53
539.60	55948.17
539.77	55931.78
539.94	56346.06
540.11	56123.71
540.28	56133.07
540.44	56296.91
540.61	56135.41
540.78	56170.52
540.95	56229.03
541.12	56360.10
541.29	56303.93
541.46	56481.81
541.62	56313.29
541.79	56711.18
541.96	56278.18
542.13	56301.59
542.30	56451.38
542.47	56669.05
542.63	56753.31
542.80	56776.72
542.97	56942.89
543.14	57085.67
543.31	56975.66
543.48	56750.97
543.64	57125.46
543.81	57190.99
543.98	57099.71
544.15	57048.22
544.32	57233.12
544.48	57226.10
544.65	56949.92
544.82	57303.34
544.99	57282.27
545.16	57151.20
545.32	57265.89
545.49	57518.67
545.66	57425.04
545.83	57425.04
546.00	57434.41
546.16	57347.81
546.33	57621.65
546.50	57434.41
546.67	57560.79
546.83	57385.25
547.00	57593.56
547.17	57436.75
547.34	57331.42
547.50	57729.31
547.67	58064.01
547.84	57701.23
548.00	57801.87
548.17	57839.32
548.34	57834.64
548.51	58085.07
548.67	58108.48
548.84	57729.31
549.01	57790.17
549.18	57904.85
549.34	58021.88
549.51	57989.11
549.68	58068.69
549.84	58054.65
550.01	58356.58
550.18	58143.59
550.34	58241.89
550.51	58225.51
550.68	58316.79
550.84	58085.07
551.01	58347.21
551.18	58199.76
551.34	58239.55
551.51	58522.76
551.68	58342.53
551.84	58405.73
552.01	58258.27
552.18	58602.33
552.34	58466.58
552.51	58410.41
552.68	58440.84
552.84	58482.97
553.01	58740.42
553.18	58508.71
553.34	58658.51
553.51	58630.42
553.67	58518.07
553.84	58672.55
554.01	58607.01
554.17	58712.34
554.34	58761.49
554.51	58885.54
554.67	58869.15
554.84	58869.15
555.00	58607.01
555.17	58782.55
555.33	58674.89
555.50	58770.85
555.67	58698.30
555.83	58829.37
556.00	58925.33
556.16	59409.82
556.33	59056.40
556.50	59004.91
556.66	59056.40
556.83	58855.11
556.99	59096.19
557.16	59358.33
557.32	59238.96
557.49	59297.47
557.65	59126.61
557.82	59168.74
557.98	59325.56
558.15	59196.83
558.32	59157.04
558.48	59103.21
558.65	59271.73
558.81	59384.07
558.98	59339.60
559.14	59442.59
559.31	59477.69
559.47	59454.29
559.64	59608.76
559.80	59494.08
559.97	59494.08
560.13	59458.97
560.30	59503.44
560.46	59475.35
560.63	59306.83
560.79	59686.00
560.96	59484.72
561.12	59524.50
561.29	59639.19
561.45	59550.25
561.61	59554.93
561.78	59765.58
561.94	59550.25
562.11	59517.48
562.27	59671.96
562.44	59639.19
562.60	59973.89
562.77	60065.17
562.93	59477.69
563.10	59838.14
563.26	59690.68
563.42	60133.04
563.59	59756.22
563.75	59702.38
563.92	59772.60
564.08	59728.13
564.24	60072.19
564.41	60030.06
564.57	59898.99
564.74	59856.86
564.90	59950.48
565.07	59739.83
565.23	59910.69
565.39	59763.24
565.56	60161.13
565.72	59978.57
565.88	60055.81
566.05	59976.23
566.21	60072.19
566.38	59959.84
566.54	59938.78
566.70	60203.26
566.87	60221.98
567.03	60100.28
567.19	60163.47
567.36	60170.49
567.52	59992.61
567.68	60329.65
567.85	60271.14
568.01	60334.33
568.17	60058.15
568.34	60191.56
568.50	60104.96
568.66	60275.82
568.83	60254.75
568.99	60011.34
569.15	60542.64
569.32	60224.32
569.48	60303.90
569.64	60336.67
569.81	60439.65
569.97	60114.32
570.13	60238.37
570.30	60254.75
570.46	60385.82
570.62	60430.29
570.78	60273.48
570.95	60259.43
571.11	60371.78
571.27	60303.90
571.43	60348.37
571.60	60537.96
571.76	60210.28
571.92	60432.63
572.09	60566.04
572.25	60453.70
572.41	60245.39
572.57	60645.62
572.74	60814.14
572.90	60465.40
573.06	60535.62
573.22	60708.82
573.38	60589.45
573.55	60423.27
573.71	60643.28
573.87	60671.37
574.03	60498.17
574.20	60491.15
574.36	60507.53
574.52	60533.28
574.68	60533.28
574.84	60537.96
575.01	60622.22
575.17	60491.15
575.33	60598.81
575.49	60523.91
575.65	60678.39
575.82	60664.35
575.98	60669.03
576.14	60743.92
576.30	60720.52
576.46	60444.33
576.62	60626.90
576.79	60542.64
576.95	60474.76
577.11	60542.64
577.27	60647.96
577.43	60772.01
577.59	60584.77
577.75	60566.04
577.92	60580.09
578.08	60624.56
578.24	60580.09
578.40	60882.02
578.56	60772.01
578.72	60638.60
578.88	60743.92
579.04	60924.14
579.21	60757.97
579.37	60996.70
579.53	60935.85
579.69	60601.15
579.85	60570.72
580.01	60629.24
580.17	60383.48
580.33	60608.17
580.49	60912.44
580.65	60622.22
580.82	60486.46
580.98	60460.72
581.14	60605.83
581.30	60671.37
581.46	60774.35
581.62	60781.37
581.78	60559.02
581.94	60732.22
582.10	60725.20
582.26	60713.50
582.42	60713.50
582.58	60828.18
582.74	60633.92
582.90	60629.24
583.06	60975.64
583.22	60418.59
583.38	60662.00
583.54	60753.29
583.70	60816.48
583.86	60580.09
584.02	60687.75
584.18	60678.39
584.34	60760.31
584.50	60764.99
584.66	60692.43
584.82	60669.03
584.98	60921.80
585.14	60823.50
585.30	60633.92
585.46	61010.74
585.62	61059.90
585.78	60912.44
585.94	60575.40
586.10	60961.59
586.26	60797.76
586.42	60886.70
586.58	61003.72
586.74	60963.93
586.90	60779.03
587.06	60809.46
587.22	60907.76
587.38	60673.71
587.54	60931.17
587.70	61329.06
587.86	60914.78
588.02	60814.14
588.18	60975.64
588.34	60905.42
588.49	60898.40
