SpectraSuite Data File
++++++++++++++++++++++++++++++++++++
Date: Fri Oct 25 10:43:49 EDT 2013
User: price-jones
Dark Spectrum Present: No
Reference Spectrum Present: No
Number of Sampled Component Spectra: 1
Spectrometers: USB2+H05261
Integration Time (usec): 100000 (USB2+H05261)
Spectra Averaged: 1 (USB2+H05261)
Boxcar Smoothing: 0 (USB2+H05261)
Correct for Electrical Dark: No (USB2+H05261)
Strobe/Lamp Enabled: No (USB2+H05261)
Correct for Detector Non-linearity: No (USB2+H05261)
Correct for Stray Light: No (USB2+H05261)
Number of Pixels in Processed Spectrum: 2048
>>>>>Begin Processed Spectral Data<<<<<
365.73	156.82
365.92	156.82
366.12	156.82
366.32	0.00
366.52	0.00
366.72	93.62
366.91	44.47
367.11	0.00
367.31	0.00
367.51	0.00
367.70	0.00
367.90	0.00
368.10	0.00
368.30	0.00
368.49	46.81
368.69	46.81
368.89	84.26
369.09	0.00
369.28	53.83
369.48	51.49
369.68	53.83
369.87	51.49
370.07	98.30
370.27	145.11
370.47	212.99
370.66	393.21
370.86	498.53
371.06	454.06
371.25	507.90
371.45	423.64
371.65	493.85
371.84	470.45
372.04	425.98
372.24	496.19
372.44	442.36
372.63	545.34
372.83	517.26
373.03	468.11
373.22	512.58
373.42	512.58
373.62	582.79
373.81	528.96
374.01	470.45
374.21	526.62
374.40	533.64
374.60	594.50
374.79	552.37
374.99	554.71
375.19	514.92
375.38	526.62
375.58	601.52
375.78	596.84
375.97	676.41
376.17	613.22
376.37	664.71
376.56	594.50
376.76	557.05
376.95	601.52
377.15	627.26
377.35	638.97
377.54	629.60
377.74	739.61
377.93	667.05
378.13	634.29
378.33	622.58
378.52	596.84
378.72	657.69
378.91	702.16
379.11	653.01
379.31	617.90
379.50	662.37
379.70	660.03
379.89	615.56
380.09	674.07
380.28	718.54
380.48	594.50
380.68	723.23
380.87	641.31
381.07	732.59
381.26	709.18
381.46	737.27
381.65	692.80
381.85	751.31
382.04	727.91
382.24	748.97
382.43	737.27
382.63	617.90
382.83	650.67
383.02	730.25
383.22	763.01
383.41	674.07
383.61	741.95
383.80	746.63
384.00	758.33
384.19	713.86
384.39	809.83
384.58	809.83
384.78	807.48
384.97	819.19
385.17	730.25
385.36	802.80
385.56	720.88
385.75	777.06
385.95	830.89
386.14	901.11
386.34	847.27
386.53	880.04
386.72	814.51
386.92	868.34
387.11	908.13
387.31	868.34
387.50	807.48
387.70	821.53
387.89	863.66
388.09	809.83
388.28	940.90
388.48	873.02
388.67	891.74
388.86	943.24
389.06	924.51
389.25	896.43
389.45	985.37
389.64	957.28
389.84	959.62
390.03	1088.35
390.22	978.34
390.42	964.30
390.61	1027.50
390.81	1034.52
391.00	1053.24
391.19	1128.14
391.39	1067.28
391.58	1128.14
391.78	1046.22
391.97	1053.24
392.16	1053.24
392.36	1060.26
392.55	1004.09
392.75	915.15
392.94	992.39
393.13	943.24
393.33	910.47
393.52	1069.62
393.71	1053.24
393.91	1076.65
394.10	1018.13
394.29	1163.25
394.49	1181.97
394.68	1104.73
394.88	1172.61
395.07	1151.54
395.26	1219.42
395.46	1263.89
395.65	1301.34
395.84	1203.04
396.04	1207.72
396.23	1165.59
396.42	1188.99
396.62	1135.16
396.81	1188.99
397.00	1177.29
397.19	1301.34
397.39	1380.92
397.58	1352.83
397.77	1352.83
397.97	1474.54
398.16	1404.32
398.35	1453.47
398.55	1460.49
398.74	1423.05
398.93	1507.30
399.12	1554.12
399.32	1504.96
399.51	1495.60
399.70	1540.07
399.90	1544.75
400.09	1678.16
400.28	1561.14
400.47	1565.82
400.67	1617.31
400.86	1666.46
401.05	1732.00
401.24	1647.74
401.44	1673.48
401.63	1689.87
401.82	1739.02
402.01	1696.89
402.21	1687.53
402.40	1820.94
402.59	1795.19
402.78	1694.55
402.97	1624.33
403.17	1788.17
403.36	1680.50
403.55	1795.19
403.74	1795.19
403.93	1977.75
404.13	1898.17
404.32	1813.92
404.51	1853.70
404.70	1935.62
404.89	1877.11
405.09	1937.96
405.28	1919.24
405.47	1989.46
405.66	1842.00
405.85	1933.28
406.05	1888.81
406.24	1968.39
406.43	2033.93
406.62	2143.93
406.81	2047.97
407.00	2043.29
407.20	2040.95
407.39	2022.22
407.58	2176.70
407.77	2064.35
407.96	2202.44
408.15	2211.81
408.34	2118.18
408.54	2223.51
408.73	2251.60
408.92	2275.00
409.11	2267.98
409.30	2286.70
409.49	2230.53
409.68	2303.09
409.87	2361.60
410.07	2335.85
410.26	2375.64
410.45	2410.75
410.64	2438.84
410.83	2513.74
411.02	2420.11
411.21	2504.37
411.40	2565.23
411.59	2516.08
411.78	2551.18
411.98	2537.14
412.17	2579.27
412.36	2675.23
412.55	2731.41
412.74	2766.51
412.93	2743.11
413.12	2759.49
413.31	2754.81
413.50	2829.71
413.69	2801.62
413.88	2991.20
414.07	2892.90
414.26	2958.44
414.45	2963.12
414.64	3047.38
414.83	2953.76
415.02	3007.59
415.22	3169.09
415.41	3241.64
415.60	3087.17
415.79	3091.85
415.98	3248.66
416.17	3262.71
416.36	3126.96
416.55	3126.96
416.74	3269.73
416.93	3297.81
417.12	3218.24
417.31	3253.34
417.50	3349.31
417.69	3480.38
417.88	3445.27
418.07	3419.52
418.26	3393.78
418.45	3468.67
418.64	3665.28
418.83	3667.62
419.02	3574.00
419.21	3583.36
419.39	3613.79
419.58	3574.00
419.77	3487.40
419.96	3679.32
420.15	3676.98
420.34	3639.53
420.53	3698.05
420.72	3833.80
420.91	3875.93
421.10	3779.97
421.29	4021.04
421.48	3681.66
421.67	3850.18
421.86	3798.69
422.05	3705.07
422.24	3695.71
422.43	3826.78
422.61	3920.40
422.80	3857.20
422.99	3918.06
423.18	4014.02
423.37	3882.95
423.56	3946.14
423.75	3985.93
423.94	3768.26
424.13	3609.11
424.32	3740.18
424.50	3871.25
424.69	3976.57
424.88	3875.93
425.07	3845.50
425.26	3915.72
425.45	3899.33
425.64	4133.39
425.83	3932.10
426.01	3976.57
426.20	4095.94
426.39	3988.27
426.58	3981.25
426.77	3761.24
426.96	4032.74
427.15	3878.27
427.33	4091.26
427.52	4032.74
427.71	4145.09
427.90	4131.05
428.09	4028.06
428.28	4212.96
428.46	4098.28
428.65	4227.01
428.84	4341.69
429.03	4337.01
429.22	4074.87
429.40	4121.68
429.59	4088.92
429.78	3969.55
429.97	3904.01
430.16	4002.32
430.34	4133.39
430.53	4156.79
430.72	4025.72
430.91	4264.46
431.10	4297.22
431.28	4461.06
431.47	4638.94
431.66	4444.68
431.85	4479.79
432.03	4580.43
432.22	4690.43
432.41	4683.41
432.60	4477.44
432.79	4585.11
432.97	4723.20
433.16	4741.93
433.35	4669.37
433.54	4589.79
433.72	4730.22
433.91	4587.45
434.10	4760.65
434.28	4716.18
434.47	4903.42
434.66	4903.42
434.85	5027.47
435.03	5011.09
435.22	4933.85
435.41	5195.99
435.59	5107.05
435.78	5078.96
435.97	5085.98
436.16	5055.56
436.34	5146.84
436.53	5146.84
436.72	5317.70
436.90	4936.19
437.09	5163.22
437.28	5207.69
437.46	5174.92
437.65	5240.46
437.84	5188.97
438.02	5097.69
438.21	5263.86
438.40	5144.50
438.58	5359.83
438.77	5416.00
438.96	5453.45
439.14	5518.98
439.33	5582.18
439.52	5497.92
439.70	5650.05
439.89	5472.17
440.08	5696.86
440.26	5724.95
440.45	5804.53
440.63	5989.43
440.82	6040.92
441.01	5837.30
441.19	5811.55
441.38	6008.16
441.57	5991.77
441.75	6036.24
441.94	6242.21
442.12	6237.53
442.31	6324.13
442.50	6242.21
442.68	6267.95
442.87	6244.55
443.05	6223.48
443.24	6389.66
443.43	6267.95
443.61	6326.47
443.80	6651.80
443.98	6176.67
444.17	6228.17
444.35	6443.49
444.54	6502.01
444.73	6464.56
444.91	6445.84
445.10	6476.26
445.28	6441.15
445.47	6333.49
445.65	6373.28
445.84	6537.12
446.02	6487.96
446.21	6443.49
446.39	6569.88
446.58	6593.29
446.77	6637.76
446.95	6647.12
447.14	6630.74
447.32	6789.89
447.51	6647.12
447.69	6567.54
447.88	6502.01
448.06	6691.59
448.25	6736.06
448.43	6757.13
448.62	6719.68
448.80	6614.35
448.99	6862.45
449.17	6820.32
449.36	6897.56
449.54	6913.94
449.73	7056.72
449.91	7080.12
450.10	7007.56
450.28	7103.53
450.46	7056.72
450.65	7279.07
450.83	7023.95
451.02	7030.97
451.20	7005.22
451.39	7239.28
451.57	7091.82
451.76	7143.32
451.94	7063.74
452.13	7433.54
452.31	7178.42
452.49	7232.26
452.68	7159.70
452.86	7204.17
453.05	7283.75
453.23	7192.47
453.42	7295.45
453.60	7232.26
453.78	7559.93
453.97	7344.60
454.15	7344.60
454.34	7325.88
454.52	7466.31
454.70	7492.05
454.89	7510.78
455.07	7466.31
455.26	7559.93
455.44	7625.47
455.62	7875.90
455.81	7812.71
455.99	7761.22
456.17	7676.96
456.36	7768.24
456.54	7864.20
456.73	7896.97
456.91	8013.99
457.09	8205.92
457.28	8145.06
457.46	8004.63
457.64	8145.06
457.83	8124.00
458.01	7861.86
458.19	8255.07
458.38	8170.81
458.56	8444.65
458.74	8119.32
458.93	8355.71
459.11	8278.47
459.29	8428.27
459.48	8231.66
459.66	8224.64
459.84	8573.38
460.03	8753.60
460.21	8507.85
460.39	8491.46
460.57	8379.12
460.76	8475.08
460.94	8507.85
461.12	8526.57
461.31	8575.72
461.49	8657.64
461.67	8528.91
461.85	8887.01
462.04	8784.03
462.22	8868.29
462.40	9025.11
462.59	8891.70
462.77	9018.08
462.95	8889.35
463.13	8994.68
463.32	8870.63
463.50	8865.95
463.68	9090.64
463.86	9097.66
464.05	8816.80
464.23	8910.42
464.41	8975.95
464.59	8662.32
464.78	9198.31
464.96	9053.19
465.14	9076.60
465.32	9076.60
465.50	9376.19
465.69	9202.99
465.87	9130.43
466.05	9144.47
466.23	9135.11
466.41	9312.99
466.60	9160.86
466.78	9018.08
466.96	9067.24
467.14	9291.93
467.32	9413.63
467.51	9385.55
467.69	8968.93
467.87	9502.58
468.05	9406.61
468.23	9397.25
468.41	9383.21
468.60	9481.51
468.78	9444.06
468.96	9453.42
469.14	9727.27
469.32	9661.73
469.50	9650.03
469.69	9572.79
469.87	9886.42
470.05	9795.14
470.23	9788.12
470.41	9811.53
470.59	9916.85
470.77	9745.99
470.95	10153.24
471.14	10111.11
471.32	9956.64
471.50	10186.01
471.68	10319.42
471.86	10218.78
472.04	10328.78
472.22	10642.42
472.40	10312.40
472.58	10174.31
472.77	10326.44
472.95	10593.26
473.13	10719.65
473.31	10537.09
473.49	10658.80
473.67	10670.50
473.85	10808.59
474.03	11080.10
474.21	10799.23
474.39	10864.77
474.57	10834.34
474.75	11016.90
474.93	11014.56
475.12	10970.09
475.30	11295.43
475.48	11049.67
475.66	11232.23
475.84	11232.23
476.02	11344.58
476.20	11548.20
476.38	11852.47
476.56	11908.65
476.74	11864.18
476.92	11550.54
477.10	11705.02
477.28	11875.88
477.46	11939.07
477.64	12271.43
477.82	12442.29
478.00	12573.36
478.18	12468.03
478.36	12479.74
478.54	12671.66
478.72	12889.33
478.90	12788.69
479.08	12711.45
479.26	13034.44
479.44	13224.03
479.62	13195.94
479.80	13193.60
479.98	13413.61
480.16	13596.17
480.34	13738.94
480.52	13619.58
480.70	13642.98
480.88	13738.94
481.06	14019.81
481.24	13963.64
481.41	13984.70
481.59	14120.45
481.77	14317.06
481.95	14155.56
482.13	14375.57
482.31	14548.77
482.49	15161.99
482.67	14785.16
482.85	14904.53
483.03	15012.20
483.21	15096.46
483.39	15037.94
483.57	15414.77
483.74	15302.42
483.92	15470.94
484.10	15517.75
484.28	15831.38
484.46	16086.50
484.64	16439.92
484.82	15906.28
485.00	16376.73
485.18	16463.33
485.35	16350.98
485.53	16177.78
485.71	16177.78
485.89	16334.60
486.07	16262.04
486.25	16615.46
486.43	16592.06
486.61	16865.90
486.78	17170.17
486.96	17343.37
487.14	17542.32
487.32	17591.47
487.50	17855.95
487.68	18270.22
487.85	18200.01
488.03	18352.14
488.21	18450.44
488.39	18394.27
488.57	18574.49
488.75	18611.94
488.92	19073.03
489.10	19042.60
489.28	19211.12
489.46	19618.37
489.64	19611.35
489.81	20119.24
489.99	20343.94
490.17	20039.67
490.35	20552.24
490.53	20210.53
490.70	20388.41
490.88	20365.00
491.06	21041.42
491.24	20599.05
491.41	20606.08
491.59	20713.74
491.77	20889.28
491.95	21006.31
492.13	21420.58
492.30	21642.93
492.48	21570.38
492.66	21891.03
492.84	21715.49
493.01	22054.87
493.19	21743.58
493.37	21965.93
493.54	22204.66
493.72	22504.25
493.90	22462.12
494.08	22618.94
494.25	22979.38
494.43	23094.07
494.61	23150.24
494.79	23349.18
494.96	23417.06
495.14	23356.21
495.32	23789.20
495.49	23768.14
495.67	23889.85
495.85	23976.45
496.02	24100.50
496.20	24184.76
496.38	24189.44
496.55	24238.59
496.73	24964.15
496.91	24826.06
497.09	25027.35
497.26	24996.92
497.44	25294.17
497.62	25013.31
497.79	25282.47
497.97	24933.73
498.14	25275.45
498.32	25795.04
498.50	25645.25
498.67	25926.11
498.85	25788.02
499.03	26225.70
499.20	26153.15
499.38	26127.40
499.56	26071.23
499.73	26150.81
499.91	26403.58
500.08	26614.23
500.26	26230.38
500.44	26441.03
500.61	26836.58
500.79	26525.29
500.97	26689.13
501.14	26852.97
501.32	27274.26
501.49	27147.87
501.67	27037.87
501.84	27229.79
502.02	27325.75
502.20	27388.95
502.37	27466.19
502.55	27843.01
502.72	27852.38
502.90	27889.82
503.07	27721.30
503.25	28095.79
503.43	28102.81
503.60	28222.18
503.78	28041.96
503.95	28163.67
504.13	28584.96
504.30	28826.04
504.48	28849.44
504.65	28870.51
504.83	28922.00
505.01	28711.35
505.18	29013.28
505.36	29418.19
505.53	29404.15
505.71	29535.22
505.88	29722.46
506.06	29113.92
506.23	29848.85
506.41	29319.89
506.58	29942.47
506.76	29663.95
506.93	30260.79
507.11	29869.92
507.28	29923.75
507.46	29652.25
507.63	30045.46
507.81	29820.77
507.98	30118.01
508.16	30235.04
508.33	30637.61
508.50	30651.66
508.68	30438.67
508.85	30897.41
509.03	30817.83
509.20	30541.65
509.38	31405.31
509.55	31461.48
509.73	31353.82
509.90	30920.82
510.08	31309.35
510.25	31197.00
510.42	31564.46
510.60	31690.85
510.77	32011.51
510.95	31728.30
511.12	31875.76
511.30	32140.24
511.47	31899.16
511.64	32470.25
511.82	32594.30
511.99	32189.39
512.17	32229.18
512.34	32156.62
512.51	32467.91
512.69	32776.86
512.86	32416.42
513.04	32830.69
513.21	32577.92
513.38	32519.40
513.56	33060.07
513.73	32531.11
513.90	32947.72
514.08	32985.17
514.25	33020.28
514.43	33132.62
514.60	32875.16
514.77	33221.56
514.95	33584.35
515.12	33256.67
515.29	33408.81
515.47	33979.90
515.64	33528.17
515.81	33558.60
515.99	33958.83
516.16	33825.42
516.33	33516.47
516.51	33673.29
516.68	33404.13
516.85	33216.88
517.03	33556.26
517.20	33874.57
517.37	34164.80
517.54	33972.88
517.72	34113.31
517.89	34153.10
518.06	34125.01
518.24	33598.39
518.41	34178.84
518.58	34487.79
518.75	34588.44
518.93	34850.58
519.10	34925.47
519.27	35164.21
519.45	35431.03
519.62	35119.74
519.79	35604.23
519.96	35498.91
520.14	35447.41
520.31	34962.92
520.48	35243.79
520.65	35299.96
520.83	35735.30
521.00	36032.55
521.17	35742.32
521.34	35777.43
521.52	36175.32
521.69	36109.78
521.86	36409.37
522.03	36280.64
522.20	36048.93
522.38	36236.17
522.55	36329.80
522.72	36329.80
522.89	36325.11
523.07	36540.44
523.24	36465.55
523.41	36634.06
523.58	36762.79
523.75	36964.08
523.92	36868.12
524.10	37261.33
524.27	37228.56
524.44	37530.49
524.61	37514.11
524.78	37221.54
524.96	37029.62
525.13	37706.03
525.30	37677.94
525.47	37771.57
525.64	37783.27
525.81	37392.40
525.98	37298.78
526.16	37172.39
526.33	37017.91
526.50	37361.97
526.67	37230.90
526.84	37317.50
527.01	37200.47
527.18	38033.71
527.36	37963.49
527.53	38384.79
527.70	38682.03
527.87	38169.46
528.04	38139.03
528.21	38068.81
528.38	38759.27
528.55	38792.04
528.72	38745.23
528.89	39079.92
529.07	38506.49
529.24	38630.54
529.41	38733.53
529.58	38864.60
529.75	38614.16
529.92	39063.54
530.09	39302.28
530.26	39061.20
530.43	39400.58
530.60	39007.37
530.77	39093.97
530.94	39281.21
531.11	38895.02
531.28	39491.86
531.46	39180.57
531.63	39367.81
531.80	39084.61
531.97	39435.69
532.14	38916.09
532.31	39409.94
532.48	39082.27
532.65	39246.10
532.82	39693.15
532.99	39505.90
533.16	39533.99
533.33	39901.45
533.50	39878.05
533.67	40179.98
533.84	39627.61
534.01	39632.29
534.18	39735.27
534.35	40528.72
534.52	39847.62
534.69	40638.72
534.86	40292.32
535.03	40041.88
535.20	40804.90
535.37	40390.62
535.54	40486.59
535.71	40711.28
535.88	40517.01
536.05	40442.12
536.22	40807.24
536.38	40921.93
536.55	40868.09
536.72	40341.47
536.89	40514.67
537.06	40964.06
537.23	40910.22
537.40	40790.86
537.57	40863.41
537.74	41591.32
537.91	40898.52
538.08	41237.90
538.25	40964.06
538.42	40992.14
538.59	41202.79
538.75	41333.86
538.92	41394.71
539.09	41205.13
539.26	41680.26
539.43	41799.63
539.60	41633.45
539.77	41429.82
539.94	41280.03
540.11	41174.70
540.28	41291.73
540.44	41216.83
540.61	41078.74
540.78	41415.78
540.95	41521.10
541.12	41471.95
541.29	41476.63
541.46	41296.41
541.62	41827.71
541.79	42005.59
541.96	41270.67
542.13	41928.36
542.30	41869.84
542.47	41993.89
542.63	41694.30
542.80	41935.38
542.97	42728.82
543.14	42536.90
543.31	42323.91
543.48	42380.08
543.64	42763.93
543.81	42623.50
543.98	42579.03
544.15	42618.81
544.32	42625.84
544.48	43093.94
544.65	42550.94
544.82	42787.33
544.99	42621.16
545.16	42967.55
545.32	42567.32
545.49	43267.14
545.66	43311.61
545.83	43068.20
546.00	43283.53
546.16	42499.45
546.33	43000.32
546.50	42997.98
546.67	43047.13
546.83	42864.57
547.00	43175.86
547.17	43318.64
547.34	43318.64
547.50	43264.80
547.67	43166.50
547.84	43384.17
548.00	43697.80
548.17	43501.20
548.34	43800.79
548.51	44027.82
548.67	43686.10
548.84	43421.62
549.01	43461.41
549.18	43159.48
549.34	43480.13
549.51	43931.86
549.68	43777.38
549.84	43690.78
550.01	43973.98
550.18	43753.97
550.34	43920.15
550.51	43693.12
550.68	43737.59
550.84	43517.58
551.01	43955.26
551.18	43941.22
551.34	44147.18
551.51	44051.22
551.68	44210.38
551.84	43885.04
552.01	43812.49
552.18	44051.22
552.34	44067.61
552.51	44011.43
552.68	44158.89
552.84	44467.84
553.01	44423.37
553.18	44240.81
553.34	44161.23
553.51	44261.87
553.67	44086.33
553.84	44776.79
554.01	44336.77
554.17	44624.65
554.34	44554.44
554.51	45024.89
554.67	44388.26
554.84	44685.51
555.00	44762.75
555.17	44449.11
555.33	44474.86
555.50	44662.10
555.67	44425.71
555.83	44629.34
556.00	45139.57
556.16	44933.60
556.33	44486.56
556.50	44753.38
556.66	44786.15
556.83	44538.05
556.99	44849.35
557.16	44755.72
557.32	45109.14
557.49	44940.63
557.65	44975.73
557.82	44917.22
557.98	45055.31
558.15	44971.05
558.32	44938.29
558.48	44383.58
558.65	44753.38
558.81	44917.22
558.98	44570.82
559.14	45043.61
559.31	44854.03
559.47	44863.39
559.64	45516.40
559.80	45565.55
559.97	45095.10
560.13	44884.45
560.30	45394.69
560.46	44858.71
560.63	45277.66
560.79	45027.23
560.96	45762.15
561.12	45141.91
561.29	45301.07
561.45	45507.04
561.61	45371.28
561.78	45338.52
561.94	45251.92
562.11	44870.41
562.27	45052.97
562.44	45397.03
562.60	45581.93
562.77	44973.39
562.93	45471.93
563.10	45858.12
563.26	45022.54
563.42	45727.05
563.59	45277.66
563.75	45333.84
563.92	45624.06
564.08	45535.12
564.24	45720.02
564.41	45558.53
564.57	45315.11
564.74	45436.82
564.90	45581.93
565.07	45312.77
565.23	45963.44
565.39	45347.88
565.56	45787.90
565.72	45205.11
565.88	45312.77
566.05	45404.05
566.21	44949.99
566.38	45577.25
566.54	45216.81
566.70	46047.70
566.87	46061.74
567.03	45928.33
567.19	46050.04
567.36	45579.59
567.52	45453.20
567.68	45806.62
567.85	45975.14
568.01	45645.13
568.17	45778.54
568.34	45909.61
568.50	46211.54
568.66	45474.27
568.83	45949.40
568.99	45464.91
569.15	45631.08
569.32	45427.46
569.48	45888.54
569.64	46028.98
569.81	45565.55
569.97	45429.80
570.13	45502.35
570.30	45724.71
570.46	45497.67
570.62	45546.82
570.78	45404.05
570.95	45684.92
571.11	45689.60
571.27	45846.41
571.43	45785.56
571.60	46384.74
571.76	46043.02
571.92	45607.68
572.09	45947.06
572.25	45687.26
572.41	45925.99
572.57	46124.94
572.74	45914.29
572.90	46117.92
573.06	46073.45
573.22	45874.50
573.38	45713.00
573.55	45530.44
573.71	46328.56
573.87	46005.57
574.03	45986.85
574.20	46508.79
574.36	45928.33
574.52	45563.21
574.68	45895.56
574.84	45970.46
575.01	45708.32
575.17	45720.02
575.33	45626.40
575.49	45879.18
575.65	46092.17
575.82	46059.40
575.98	46012.59
576.14	45909.61
576.30	45954.08
576.46	45918.97
576.62	45652.15
576.79	45710.66
576.95	46176.43
577.11	46129.62
577.27	46045.36
577.43	46176.43
577.59	45757.47
577.75	45521.08
577.92	45818.33
578.08	45680.24
578.24	45705.98
578.40	45965.78
578.56	46094.51
578.72	46124.94
578.88	45970.46
579.04	46026.63
579.21	45961.10
579.37	45991.53
579.53	46579.00
579.69	45638.11
579.85	45923.65
580.01	46277.07
580.17	45792.58
580.33	46036.00
580.49	45951.74
580.65	46148.34
580.82	46082.81
580.98	45947.06
581.14	45853.44
581.30	46103.87
581.46	45911.95
581.62	46237.28
581.78	45820.67
581.94	46206.86
582.10	45818.33
582.26	46412.82
582.42	46319.20
582.58	46284.09
582.74	46031.32
582.90	46136.64
583.06	46057.06
583.22	46326.22
583.38	46230.26
583.54	46326.22
583.70	46085.15
583.86	46120.26
584.02	45834.71
584.18	45982.16
584.34	45815.99
584.50	46497.08
584.66	46117.92
584.82	45865.14
584.98	46330.90
585.14	46167.07
585.30	45787.90
585.46	46146.00
585.62	45617.04
585.78	45975.14
585.94	45933.01
586.10	45984.51
586.26	46169.41
586.42	46181.11
586.58	46347.29
586.74	46234.94
586.90	45837.05
587.06	46443.25
587.22	46190.47
587.38	45603.00
587.54	46492.40
587.70	46316.86
587.86	46370.69
588.02	45890.88
588.18	46431.55
588.34	46199.83
588.49	45495.33
588.65	45385.33
588.81	45193.40
588.97	45603.00
589.13	45443.84
589.29	45977.48
589.45	45853.44
589.61	45872.16
589.77	46143.66
589.93	46017.27
590.08	46038.34
