SpectraSuite Data File
++++++++++++++++++++++++++++++++++++
Date: Fri Oct 25 10:48:14 EDT 2013
User: price-jones
Dark Spectrum Present: No
Reference Spectrum Present: No
Number of Sampled Component Spectra: 1
Spectrometers: USB2+H05261
Integration Time (usec): 100000 (USB2+H05261)
Spectra Averaged: 1 (USB2+H05261)
Boxcar Smoothing: 0 (USB2+H05261)
Correct for Electrical Dark: No (USB2+H05261)
Strobe/Lamp Enabled: No (USB2+H05261)
Correct for Detector Non-linearity: No (USB2+H05261)
Correct for Stray Light: No (USB2+H05261)
Number of Pixels in Processed Spectrum: 2048
>>>>>Begin Processed Spectral Data<<<<<
365.73	131.07
365.92	131.07
366.12	131.07
366.32	56.17
366.52	44.47
366.72	126.39
366.91	0.00
367.11	46.81
367.31	51.49
367.51	86.60
367.70	7.02
367.90	65.54
368.10	44.47
368.30	88.94
368.49	56.17
368.69	114.69
368.89	65.54
369.09	65.54
369.28	74.90
369.48	18.72
369.68	154.48
369.87	124.05
370.07	121.71
370.27	177.88
370.47	198.95
370.66	358.10
370.86	376.83
371.06	428.32
371.25	517.26
371.45	444.70
371.65	470.45
371.84	388.53
372.04	390.87
372.24	519.60
372.44	461.09
372.63	414.27
372.83	482.15
373.03	582.79
373.22	571.09
373.42	617.90
373.62	505.56
373.81	615.56
374.01	535.98
374.21	519.60
374.40	521.94
374.60	505.56
374.79	606.20
374.99	550.03
375.19	561.73
375.38	517.26
375.58	596.84
375.78	615.56
375.97	587.47
376.17	657.69
376.37	514.92
376.56	636.63
376.76	657.69
376.95	641.31
377.15	638.97
377.35	610.88
377.54	589.82
377.74	660.03
377.93	610.88
378.13	667.05
378.33	657.69
378.52	589.82
378.72	662.37
378.91	657.69
379.11	697.48
379.31	585.13
379.50	575.77
379.70	678.76
379.89	674.07
380.09	725.57
380.28	622.58
380.48	674.07
380.68	674.07
380.87	655.35
381.07	678.76
381.26	760.67
381.46	699.82
381.65	688.12
381.85	725.57
382.04	709.18
382.24	662.37
382.43	685.78
382.63	631.94
382.83	725.57
383.02	777.06
383.22	713.86
383.41	723.23
383.61	718.54
383.80	737.27
384.00	772.38
384.19	844.93
384.39	692.80
384.58	840.25
384.78	809.83
384.97	772.38
385.17	774.72
385.36	791.10
385.56	760.67
385.75	816.85
385.95	786.42
386.14	772.38
386.34	847.27
386.53	847.27
386.72	786.42
386.92	861.32
387.11	856.64
387.31	863.66
387.50	866.00
387.70	814.51
387.89	805.14
388.09	849.61
388.28	851.96
388.48	866.00
388.67	833.23
388.86	858.98
389.06	938.55
389.25	987.71
389.45	938.55
389.64	842.59
389.84	898.77
390.03	985.37
390.22	940.90
390.42	1015.79
390.61	1046.22
390.81	987.71
391.00	959.62
391.19	1064.94
391.39	926.85
391.58	1095.37
391.78	994.73
391.97	1043.88
392.16	936.21
392.36	1022.81
392.55	1039.20
392.75	985.37
392.94	1004.09
393.13	973.66
393.33	952.60
393.52	997.07
393.71	1121.12
393.91	1036.86
394.10	968.98
394.29	999.41
394.49	1062.60
394.68	1109.41
394.88	1151.54
395.07	1172.61
395.26	1137.50
395.46	1118.78
395.65	1153.88
395.84	1104.73
396.04	1107.07
396.23	1151.54
396.42	1146.86
396.62	1137.50
396.81	1245.16
397.00	1212.40
397.19	1282.61
397.39	1231.12
397.58	1306.02
397.77	1280.27
397.97	1327.08
398.16	1385.60
398.35	1373.89
398.55	1352.83
398.74	1301.34
398.93	1329.42
399.12	1308.36
399.32	1392.62
399.51	1350.49
399.70	1390.28
399.90	1434.75
400.09	1582.20
400.28	1458.15
400.47	1383.26
400.67	1537.73
400.86	1504.96
401.05	1488.58
401.24	1511.99
401.44	1497.94
401.63	1448.79
401.82	1523.69
402.01	1507.30
402.21	1579.86
402.40	1629.01
402.59	1605.61
402.78	1558.80
402.97	1605.61
403.17	1572.84
403.36	1575.18
403.55	1633.69
403.74	1666.46
403.93	1640.72
404.13	1701.57
404.32	1755.40
404.51	1631.35
404.70	1806.89
404.89	1659.44
405.09	1694.55
405.28	1795.19
405.47	1680.50
405.66	1701.57
405.85	1724.97
406.05	1820.94
406.24	1727.32
406.43	1884.13
406.62	1874.77
406.81	1844.34
407.00	1860.73
407.20	1863.07
407.39	1865.41
407.58	1849.02
407.77	2017.54
407.96	1968.39
408.15	2029.24
408.34	1973.07
408.54	2101.80
408.73	2026.90
408.92	2120.53
409.11	2083.08
409.30	2069.03
409.49	2125.21
409.68	2047.97
409.87	2129.89
410.07	2148.61
410.26	2209.47
410.45	2200.10
410.64	2132.23
410.83	2207.13
411.02	2260.96
411.21	2403.73
411.40	2361.60
411.59	2506.71
411.78	2354.58
411.98	2420.11
412.17	2466.92
412.36	2445.86
412.55	2452.88
412.74	2448.20
412.93	2490.33
413.12	2427.14
413.31	2684.59
413.50	2513.74
413.69	2651.83
413.88	2663.53
414.07	2679.91
414.26	2647.15
414.45	2740.77
414.64	2679.91
414.83	2818.00
415.02	2787.58
415.22	2703.32
415.41	2850.77
415.60	2832.05
415.79	2818.00
415.98	2998.23
416.17	2860.13
416.36	2902.26
416.55	2998.23
416.74	3035.67
416.93	2937.37
417.12	3019.29
417.31	2979.50
417.50	3136.32
417.69	3225.26
417.88	3112.91
418.07	3183.13
418.26	3171.43
418.45	3288.45
418.64	3372.71
418.83	3262.71
419.02	3234.62
419.21	3272.07
419.39	3152.70
419.58	3276.75
419.77	3208.87
419.96	3377.39
420.15	3492.08
420.34	3351.65
420.53	3344.63
420.72	3520.17
420.91	3489.74
421.10	3496.76
421.29	3438.25
421.48	3494.42
421.67	3510.80
421.86	3424.20
422.05	3534.21
422.24	3506.12
422.43	3487.40
422.61	3548.25
422.80	3686.34
422.99	3662.94
423.18	3595.06
423.37	3786.99
423.56	3576.34
423.75	3531.87
423.94	3564.64
424.13	3471.01
424.32	3466.33
424.50	3702.73
424.69	3646.55
424.88	3681.66
425.07	3520.17
425.26	3564.64
425.45	3517.83
425.64	3655.92
425.83	3712.09
426.01	3789.33
426.20	3712.09
426.39	3719.11
426.58	3763.58
426.77	3735.50
426.96	3698.05
427.15	3728.47
427.33	3751.88
427.52	3772.94
427.71	3744.86
427.90	3794.01
428.09	3801.03
428.28	3868.91
428.46	3894.65
428.65	3894.65
428.84	3955.51
429.03	3948.48
429.22	3850.18
429.40	3857.20
429.59	3880.61
429.78	3838.48
429.97	3751.88
430.16	3726.13
430.34	3798.69
430.53	3838.48
430.72	3882.95
430.91	3936.78
431.10	3967.21
431.28	4191.90
431.47	4236.37
431.66	4358.08
431.85	4236.37
432.03	4285.52
432.22	4432.97
432.41	4250.41
432.60	4358.08
432.79	4208.28
432.97	4388.50
433.16	4444.68
433.35	4369.78
433.54	4290.20
433.72	4411.91
433.91	4386.16
434.10	4402.55
434.28	4301.90
434.47	4397.87
434.66	4447.02
434.85	4685.75
435.03	4585.11
435.22	4727.88
435.41	4664.69
435.59	4709.16
435.78	4636.60
435.97	4702.14
436.16	4545.32
436.34	4695.11
436.53	4741.93
436.72	4835.55
436.90	4741.93
437.09	4770.01
437.28	4688.09
437.46	4706.82
437.65	4760.65
437.84	4774.69
438.02	4833.21
438.21	4980.66
438.40	4713.84
438.58	5013.43
438.77	5008.75
438.96	5011.09
439.14	5013.43
439.33	5212.37
439.52	5200.67
439.70	5195.99
439.89	5224.08
440.08	5259.18
440.26	5282.59
440.45	5373.87
440.63	5345.78
440.82	5441.75
441.01	5284.93
441.19	5612.60
441.38	5577.50
441.57	5554.09
441.75	5558.77
441.94	5771.76
442.12	5788.14
442.31	5687.50
442.50	5825.59
442.68	5692.18
442.87	5675.80
443.05	5729.63
443.24	5937.94
443.43	5823.25
443.61	6022.20
443.80	6078.37
443.98	5825.59
444.17	5638.35
444.35	5973.05
444.54	6118.16
444.73	6087.73
444.91	6026.88
445.10	5902.83
445.28	5968.37
445.47	5853.68
445.65	6143.91
445.84	6054.97
446.02	6033.90
446.21	6069.01
446.39	6008.16
446.58	6092.41
446.77	5982.41
446.95	6064.33
447.14	6059.65
447.32	6195.40
447.51	5914.53
447.69	5970.71
447.88	6258.59
448.06	6202.42
448.25	6003.47
448.43	6136.88
448.62	6097.10
448.80	6230.51
448.99	6274.98
449.17	6466.90
449.36	6073.69
449.54	6394.34
449.73	6459.88
449.91	6633.08
450.10	6633.08
450.28	6750.10
450.46	6614.35
450.65	6567.54
450.83	6534.78
451.02	6392.00
451.20	6658.82
451.39	6569.88
451.57	6483.28
451.76	6682.23
451.94	6640.10
452.13	6853.09
452.31	6668.19
452.49	6715.00
452.68	6670.53
452.86	6604.99
453.05	6925.65
453.23	6759.47
453.42	6609.67
453.60	6757.13
453.78	6787.55
453.97	6836.70
454.15	6663.51
454.34	6722.02
454.52	6848.41
454.70	7019.27
454.89	6935.01
455.07	6956.07
455.26	6913.94
455.44	7035.65
455.62	7066.08
455.81	7169.06
455.99	7096.50
456.17	6988.84
456.36	7108.21
456.54	7171.40
456.73	7166.72
456.91	7618.44
457.09	7414.82
457.28	7447.58
457.46	7400.77
457.64	7426.52
457.83	7630.15
458.01	7293.11
458.19	7679.30
458.38	7541.21
458.56	7583.34
458.74	7625.47
458.93	7611.42
459.11	7606.74
459.29	7595.04
459.48	7676.96
459.66	7789.30
459.84	7691.00
460.03	7932.08
460.21	7803.35
460.39	7730.79
460.57	7662.91
460.76	7852.50
460.94	7887.61
461.12	7805.69
461.31	7985.91
461.49	8133.36
461.67	8030.38
461.85	8308.90
462.04	8004.63
462.22	8437.63
462.40	8086.55
462.59	8173.15
462.77	8102.93
462.95	8269.11
463.13	8173.15
463.32	8184.85
463.50	8287.84
463.68	8351.03
463.86	8386.14
464.05	8156.77
464.23	8168.47
464.41	8475.08
464.59	8262.09
464.78	8582.74
464.96	8290.18
465.14	8365.07
465.32	8182.51
465.50	8468.06
465.69	8547.64
465.87	8697.43
466.05	8442.31
466.23	8468.06
466.41	8669.34
466.60	8702.11
466.78	8585.08
466.96	8393.16
467.14	8461.04
467.32	8711.47
467.51	8648.28
467.69	8688.07
467.87	8615.51
468.05	8798.07
468.23	8669.34
468.41	8798.07
468.60	8683.39
468.78	8748.92
468.96	8725.52
469.14	9067.24
469.32	9074.26
469.50	8847.22
469.69	8987.66
469.87	9142.13
470.05	9198.31
470.23	9043.83
470.41	9078.94
470.59	9277.88
470.77	8994.68
470.95	9327.03
471.14	9210.01
471.32	9270.86
471.50	9731.95
471.68	9444.06
471.86	9504.92
472.04	9617.26
472.22	9804.50
472.40	9418.32
472.58	9621.94
472.77	9694.50
472.95	9870.04
473.13	9970.68
473.31	9851.31
473.49	9729.61
473.67	9893.44
473.85	9987.07
474.03	10122.82
474.21	10150.90
474.39	10190.69
474.57	10228.14
474.75	10368.57
474.93	10647.10
475.12	10333.47
475.30	10745.40
475.48	10480.92
475.66	10490.28
475.84	10420.06
476.02	10796.89
476.20	10696.25
476.38	10869.45
476.56	10981.79
476.74	10993.50
476.92	10995.84
477.10	11089.46
477.28	11080.10
477.46	11304.79
477.64	11330.53
477.82	11564.59
478.00	11356.28
478.18	11662.89
478.36	11641.82
478.54	11756.51
478.72	11749.49
478.90	12030.35
479.08	11999.93
479.26	12238.66
479.44	12053.76
479.62	12283.13
479.80	12423.56
479.98	12475.06
480.16	12643.57
480.34	12601.44
480.52	12868.27
480.70	12795.71
480.88	12676.34
481.06	12980.61
481.24	12727.83
481.41	13057.85
481.59	13238.07
481.77	13411.27
481.95	13331.69
482.13	13390.20
482.31	13488.51
482.49	13666.39
482.67	13996.40
482.85	14197.69
483.03	14188.33
483.21	14239.82
483.39	14104.07
483.57	14197.69
483.74	14473.87
483.92	14356.85
484.10	14527.71
484.28	14806.23
484.46	14949.00
484.64	15227.53
484.82	14808.57
485.00	14995.81
485.18	15374.98
485.35	15583.29
485.53	15199.44
485.71	15594.99
485.89	15482.64
486.07	15651.16
486.25	15529.45
486.43	15758.83
486.61	15878.19
486.78	16123.95
486.96	16393.11
487.14	16528.86
487.32	16524.18
487.50	16779.30
487.68	17102.29
487.85	17083.57
488.03	17172.51
488.21	17376.14
488.39	17422.95
488.57	17521.25
488.75	17708.49
488.92	17795.09
489.10	17909.78
489.28	17862.97
489.46	18221.07
489.64	18525.34
489.81	18813.23
489.99	18583.85
490.17	18771.10
490.35	19241.54
490.53	18658.75
490.70	19112.81
490.88	19068.34
491.06	19318.78
491.24	19466.24
491.41	19520.07
491.59	19587.94
491.77	19714.33
491.95	19681.56
492.13	19988.18
492.30	20372.02
492.48	20460.96
492.66	20175.42
492.84	20568.63
493.01	20475.01
493.19	20467.98
493.37	21099.93
493.54	20835.45
493.72	21235.68
493.90	21102.27
494.08	21294.19
494.25	21479.10
494.43	21858.26
494.61	21797.41
494.79	21708.47
494.96	22295.94
495.14	21872.31
495.32	22078.27
495.49	22089.98
495.67	22483.19
495.85	22242.11
496.02	22668.09
496.20	22944.27
496.38	23082.36
496.55	23070.66
496.73	23412.38
496.91	23047.26
497.09	23220.45
497.26	23463.87
497.44	23576.22
497.62	23459.19
497.79	24201.14
497.97	23810.27
498.14	23889.85
498.32	24063.05
498.50	23931.98
498.67	24720.74
498.85	24397.74
499.03	24482.00
499.20	24786.27
499.38	24765.21
499.56	24769.89
499.73	24552.22
499.91	24912.66
500.08	24851.81
500.26	24671.59
500.44	25090.54
500.61	25366.73
500.79	25186.50
500.97	25399.49
501.14	25654.61
501.32	25699.08
501.49	25823.13
501.67	25603.12
501.84	25909.73
502.02	25844.20
502.20	26101.65
502.37	26183.57
502.55	26384.86
502.72	26497.20
502.90	26342.73
503.07	26300.60
503.25	26579.12
503.43	26562.74
503.60	26845.94
503.78	26665.72
503.95	26658.70
504.13	26714.87
504.30	26913.82
504.48	27096.38
504.65	27225.11
504.83	27583.21
505.01	27702.58
505.18	27264.90
505.36	28020.89
505.53	27171.28
505.71	27714.28
505.88	27995.15
506.06	27718.96
506.23	28112.17
506.41	27714.28
506.58	28395.38
506.76	28402.40
506.93	28285.37
507.11	28067.70
507.28	28463.25
507.46	28453.89
507.63	28685.61
507.81	28814.34
507.98	28386.02
508.16	29074.13
508.33	29408.83
508.50	28996.90
508.68	29034.35
508.85	29759.91
509.03	29537.56
509.20	29432.24
509.38	29586.71
509.55	29268.40
509.73	29394.79
509.90	29764.59
510.08	29612.46
510.25	29610.12
510.42	30157.80
510.60	30178.87
510.77	30370.79
510.95	30286.53
511.12	30380.15
511.30	30424.62
511.47	30794.43
511.64	30841.24
511.82	30356.75
511.99	30609.53
512.17	30579.10
512.34	30658.68
512.51	30761.66
512.69	30939.54
512.86	31122.10
513.04	31257.85
513.21	31204.02
513.38	31257.85
513.56	31377.22
513.73	30974.65
513.90	30906.77
514.08	31417.01
514.25	31096.36
514.43	31573.83
514.60	31524.68
514.77	31852.35
514.95	31747.03
515.12	31798.52
515.29	32091.09
515.47	32130.87
515.64	32189.39
515.81	32353.23
515.99	32004.49
516.16	32135.56
516.33	32114.49
516.51	32360.25
516.68	32224.50
516.85	31960.02
517.03	32222.16
517.20	32395.35
517.37	32589.62
517.54	32921.98
517.72	32964.10
517.89	32591.96
518.06	32587.28
518.24	32596.64
518.41	32978.15
518.58	32929.00
518.75	33167.73
518.93	33378.38
519.10	33081.13
519.27	33528.17
519.45	33621.80
519.62	33617.11
519.79	33535.20
519.96	33787.97
520.14	33773.93
520.31	34003.30
520.48	33926.07
520.65	33905.00
520.83	34043.09
521.00	34398.85
521.17	34377.79
521.34	34300.55
521.52	34771.00
521.69	34859.94
521.86	34274.80
522.03	34246.72
522.20	34773.34
522.38	34829.51
522.55	35346.77
522.72	34710.14
522.89	34785.04
523.07	34951.22
523.24	34759.30
523.41	34871.64
523.58	34932.50
523.75	35077.61
523.92	35232.08
524.10	35421.67
524.27	35805.52
524.44	35526.99
524.61	35395.92
524.78	35882.75
524.96	35742.32
525.13	36390.65
525.30	36306.39
525.47	35887.43
525.64	36046.59
525.81	36285.33
525.98	36285.33
526.16	36011.48
526.33	35667.42
526.50	36212.77
526.67	35814.88
526.84	36027.87
527.01	35791.47
527.18	36238.51
527.36	36116.81
527.53	36727.69
527.70	36652.79
527.87	36987.49
528.04	36767.48
528.21	36893.86
528.38	36704.28
528.55	37022.59
528.72	36772.16
528.89	37127.92
529.07	36982.80
529.24	37184.09
529.41	37376.01
529.58	36809.61
529.75	37198.13
529.92	37156.00
530.09	37560.92
530.26	37567.94
530.43	37612.41
530.60	37071.75
530.77	37156.00
530.94	37855.82
531.11	37418.14
531.28	37769.22
531.46	38045.41
531.63	37883.91
531.80	37694.33
531.97	37937.74
532.14	37837.10
532.31	37792.63
532.48	38139.03
532.65	37970.51
532.82	37949.45
532.99	38497.13
533.16	37722.41
533.33	38029.02
533.50	38373.08
533.67	38403.51
533.84	38014.98
534.01	38157.75
534.18	38583.73
534.35	38923.11
534.52	38443.30
534.69	38499.47
534.86	38682.03
535.03	38115.62
535.20	38873.96
535.37	38953.54
535.54	39089.29
535.71	39077.58
535.88	38899.70
536.05	38990.98
536.22	39466.11
536.38	39302.28
536.55	39604.20
536.72	39035.45
536.89	38822.47
537.06	39398.24
537.23	39562.08
537.40	39489.52
537.57	39323.34
537.74	39269.51
537.91	40086.36
538.08	39856.98
538.25	39667.40
538.42	39267.17
538.59	40306.37
538.75	39395.90
538.92	39236.74
539.09	39962.31
539.26	39761.02
539.43	40137.85
539.60	39882.73
539.77	40229.13
539.94	40432.75
540.11	39864.00
540.28	39793.79
540.44	40163.59
540.61	39854.64
540.78	39826.56
540.95	39840.60
541.12	40254.87
541.29	40308.71
541.46	40524.04
541.62	40252.53
541.79	40549.78
541.96	40060.61
542.13	40390.62
542.30	40582.55
542.47	40767.45
542.63	40481.91
542.80	40582.55
542.97	41186.41
543.14	41064.70
543.31	40814.26
543.48	41329.18
543.64	41535.15
543.81	41092.79
543.98	41195.77
544.15	41055.34
544.32	41780.90
544.48	41551.53
544.65	41654.51
544.82	41743.45
544.99	41090.44
545.16	41603.02
545.32	41425.14
545.49	41876.86
545.66	41874.52
545.83	41684.94
546.00	41872.18
546.16	41879.21
546.33	41535.15
546.50	41296.41
546.67	41095.13
546.83	41368.97
547.00	41968.15
547.17	41900.27
547.34	41326.84
547.50	42356.67
547.67	42096.88
547.84	42000.91
548.00	42333.27
548.17	42478.38
548.34	42047.72
548.51	42485.40
548.67	42054.75
548.84	42614.13
549.01	42478.38
549.18	42239.65
549.34	42232.63
549.51	42141.35
549.68	42499.45
549.84	42319.23
550.01	42857.55
550.18	42532.22
550.34	42485.40
550.51	42693.71
550.68	42855.21
550.84	42227.95
551.01	42454.98
551.18	42520.51
551.34	42876.27
551.51	42590.73
551.68	42892.66
551.84	43058.84
552.01	42522.85
552.18	42726.48
552.34	42710.10
552.51	43225.01
552.68	42604.77
552.84	42918.40
553.01	43225.01
553.18	43267.14
553.34	42927.77
553.51	43112.67
553.67	43430.98
553.84	43351.40
554.01	43400.55
554.17	43299.91
554.34	43171.18
554.51	43079.90
554.67	43217.99
554.84	43304.59
555.00	43194.59
555.17	43529.28
555.33	43800.79
555.50	43449.70
555.67	43915.47
555.83	43047.13
556.00	43498.86
556.16	43695.46
556.33	43779.72
556.50	43552.69
556.66	44112.08
556.83	43213.31
556.99	43768.02
557.16	44175.27
557.32	43597.16
557.49	43997.39
557.65	43669.72
557.82	43316.29
557.98	43772.70
558.15	43819.51
558.32	43730.57
558.48	43758.66
558.65	44004.41
558.81	43835.89
558.98	44023.14
559.14	43997.39
559.31	44098.03
559.47	44018.46
559.64	44259.53
559.80	43831.21
559.97	44074.63
560.13	43775.04
560.30	44231.44
560.46	44491.24
560.63	43538.65
560.79	44439.75
560.96	44264.21
561.12	43929.51
561.29	44357.83
561.45	44072.29
561.61	44236.12
561.78	44477.20
561.94	44198.68
562.11	43920.15
562.27	44247.83
562.44	44406.98
562.60	44769.77
562.77	44418.69
562.93	44612.95
563.10	44002.07
563.26	44053.56
563.42	44133.14
563.59	44397.62
563.75	44524.01
563.92	44631.68
564.08	44528.69
564.24	44987.44
564.41	44830.62
564.57	44814.24
564.74	44563.80
564.90	44884.45
565.07	44617.63
565.23	44751.04
565.39	44617.63
565.56	44041.86
565.72	44334.43
565.88	44767.43
566.05	44596.57
566.21	44404.64
566.38	44240.81
566.54	44254.85
566.70	44772.11
566.87	45432.14
567.03	44594.23
567.19	45177.02
567.36	44612.95
567.52	44556.78
567.68	44825.94
567.85	44741.68
568.01	44935.95
568.17	44608.27
568.34	44814.24
568.50	44636.36
568.66	44538.05
568.83	44800.19
568.99	44556.78
569.15	44481.88
569.32	44465.50
569.48	44669.12
569.64	44788.49
569.81	44832.96
569.97	44573.16
570.13	44779.13
570.30	44615.29
570.46	45144.25
570.62	44851.69
570.78	44573.16
570.95	44842.32
571.11	44767.43
571.27	44467.84
571.43	44615.29
571.60	44861.05
571.76	44952.33
571.92	45029.57
572.09	44753.38
572.25	45008.50
572.41	44954.67
572.57	45380.65
572.74	45385.33
572.90	44982.76
573.06	44804.88
573.22	44992.12
573.38	45153.62
573.55	44980.42
573.71	45092.76
573.87	44737.00
574.03	44493.58
574.20	44889.13
574.36	44879.77
574.52	45057.65
574.68	45085.74
574.84	45184.04
575.01	44961.69
575.17	45027.23
575.33	44502.95
575.49	45003.82
575.65	44917.22
575.82	45425.12
575.98	44718.28
576.14	45078.72
576.30	44912.54
576.46	45057.65
576.62	44816.58
576.79	44870.41
576.95	44804.88
577.11	44746.36
577.27	44788.49
577.43	45457.88
577.59	44774.45
577.75	44524.01
577.92	44479.54
578.08	44978.07
578.24	45097.44
578.40	44987.44
578.56	45059.99
578.72	44966.37
578.88	45034.25
579.04	45024.89
579.21	45116.17
579.37	45167.66
579.53	44942.97
579.69	44605.93
579.85	44942.97
580.01	45223.83
580.17	45170.00
580.33	45518.74
580.49	45343.20
580.65	45221.49
580.82	45347.88
580.98	44793.17
581.14	45081.06
581.30	45074.04
581.46	45141.91
581.62	45041.27
581.78	45104.46
581.94	45745.77
582.10	45352.56
582.26	45514.06
582.42	45027.23
582.58	45359.58
582.74	45371.28
582.90	44744.02
583.06	45492.99
583.22	45649.81
583.38	45792.58
583.54	45212.13
583.70	45102.12
583.86	45158.30
584.02	44538.05
584.18	45155.96
584.34	45708.32
584.50	44828.28
584.66	45603.00
584.82	45195.74
584.98	45514.06
585.14	45640.45
585.30	45071.70
585.46	45230.85
585.62	45174.68
585.78	45303.41
585.94	45106.80
586.10	45322.13
586.26	45434.48
586.42	45642.79
586.58	45495.33
586.74	45200.43
586.90	44999.14
587.06	45139.57
587.22	45294.05
587.38	44715.93
587.54	45303.41
587.70	45270.64
587.86	45277.66
588.02	45111.49
588.18	45436.82
588.34	45074.04
588.49	45120.85
588.65	45193.40
588.81	45214.47
588.97	45029.57
589.13	45123.19
589.29	45137.23
589.45	45287.03
589.61	45462.57
589.77	45317.45
589.93	45471.93
590.08	45485.97
590.24	45207.45
