SpectraSuite Data File
++++++++++++++++++++++++++++++++++++
Date: Fri Oct 25 11:25:38 EDT 2013
User: price-jones
Dark Spectrum Present: No
Reference Spectrum Present: No
Number of Sampled Component Spectra: 1
Spectrometers: USB2+H05261
Integration Time (usec): 100000 (USB2+H05261)
Spectra Averaged: 1 (USB2+H05261)
Boxcar Smoothing: 0 (USB2+H05261)
Correct for Electrical Dark: No (USB2+H05261)
Strobe/Lamp Enabled: No (USB2+H05261)
Correct for Detector Non-linearity: No (USB2+H05261)
Correct for Stray Light: No (USB2+H05261)
Number of Pixels in Processed Spectrum: 2048
>>>>>Begin Processed Spectral Data<<<<<
365.73	294.91
365.92	294.91
366.12	294.91
366.32	201.29
366.52	210.65
366.72	124.05
366.91	149.79
367.11	133.41
367.31	72.56
367.51	42.13
367.70	74.90
367.90	133.41
368.10	79.58
368.30	201.29
368.49	180.22
368.69	152.13
368.89	142.77
369.09	124.05
369.28	161.50
369.48	168.52
369.68	152.13
369.87	156.82
370.07	234.05
370.27	248.10
370.47	360.44
370.66	557.05
370.86	599.18
371.06	636.63
371.25	671.73
371.45	709.18
371.65	779.40
371.84	671.73
372.04	629.60
372.24	786.42
372.44	727.91
372.63	690.46
372.83	760.67
373.03	727.91
373.22	767.70
373.42	793.44
373.62	791.10
373.81	753.65
374.01	814.51
374.21	849.61
374.40	814.51
374.60	887.06
374.79	840.25
374.99	828.55
375.19	809.83
375.38	833.23
375.58	840.25
375.78	814.51
375.97	915.15
376.17	868.34
376.37	868.34
376.56	891.74
376.76	844.93
376.95	868.34
377.15	807.48
377.35	887.06
377.54	903.45
377.74	858.98
377.93	940.90
378.13	968.98
378.33	938.55
378.52	971.32
378.72	884.72
378.91	898.77
379.11	947.92
379.31	894.08
379.50	844.93
379.70	985.37
379.89	987.71
380.09	936.21
380.28	882.38
380.48	931.53
380.68	1027.50
380.87	971.32
381.07	1039.20
381.26	990.05
381.46	1055.58
381.65	1067.28
381.85	1062.60
382.04	1107.07
382.24	1069.62
382.43	1097.71
382.63	1027.50
382.83	999.41
383.02	1104.73
383.22	1029.84
383.41	1046.22
383.61	1102.39
383.80	1111.75
384.00	1064.94
384.19	1095.37
384.39	1111.75
384.58	1172.61
384.78	1153.88
384.97	1205.38
385.17	1062.60
385.36	1156.22
385.56	1170.27
385.75	1174.95
385.95	1198.35
386.14	1221.76
386.34	1165.59
386.53	1284.95
386.72	1174.95
386.92	1149.20
387.11	1231.12
387.31	1301.34
387.50	1228.78
387.70	1221.76
387.89	1268.57
388.09	1238.14
388.28	1224.10
388.48	1287.29
388.67	1369.21
388.86	1254.53
389.06	1331.76
389.25	1327.08
389.45	1392.62
389.64	1327.08
389.84	1371.55
390.03	1359.85
390.22	1308.36
390.42	1380.92
390.61	1535.39
390.81	1455.81
391.00	1327.08
391.19	1320.06
391.39	1401.98
391.58	1399.64
391.78	1397.30
391.97	1549.43
392.16	1465.18
392.36	1540.07
392.55	1568.16
392.75	1591.56
392.94	1448.79
393.13	1568.16
393.33	1451.13
393.52	1547.09
393.71	1533.05
393.91	1514.33
394.10	1612.63
394.29	1530.71
394.49	1568.16
394.68	1598.59
394.88	1612.63
395.07	1661.78
395.26	1607.95
395.46	1675.82
395.65	1715.61
395.84	1673.48
396.04	1757.74
396.23	1750.72
396.42	1647.74
396.62	1792.85
396.81	1832.64
397.00	1753.06
397.19	1860.73
397.39	1813.92
397.58	1788.17
397.77	1762.42
397.97	1842.00
398.16	1746.04
398.35	1895.83
398.55	1865.41
398.74	1905.20
398.93	1949.67
399.12	1975.41
399.32	1804.55
399.51	1884.13
399.70	1973.07
399.90	1930.94
400.09	1982.43
400.28	2092.44
400.47	1970.73
400.67	2057.33
400.86	2038.61
401.05	1975.41
401.24	2083.08
401.44	2050.31
401.63	2186.06
401.82	2118.18
402.01	2120.53
402.21	2228.19
402.40	2038.61
402.59	2155.63
402.78	2242.23
402.97	2270.32
403.17	2232.87
403.36	2265.64
403.55	2305.43
403.74	2183.72
403.93	2382.67
404.13	2317.13
404.32	2382.67
404.51	2375.64
404.70	2349.90
404.89	2511.39
405.09	2520.76
405.28	2478.63
405.47	2487.99
405.66	2544.16
405.85	2544.16
406.05	2544.16
406.24	2483.31
406.43	2630.76
406.62	2612.04
406.81	2551.18
407.00	2544.16
407.20	2565.23
407.39	2527.78
407.58	2815.66
407.77	2700.98
407.96	2703.32
408.15	2740.77
408.34	2766.51
408.54	2822.69
408.73	2768.85
408.92	2675.23
409.11	2808.64
409.30	2874.18
409.49	2958.44
409.68	2843.75
409.87	2876.52
410.07	3000.57
410.26	3019.29
410.45	2937.37
410.64	2984.18
410.83	3066.10
411.02	3014.61
411.21	3171.43
411.40	2993.55
411.59	3185.47
411.78	3265.05
411.98	3148.02
412.17	3192.49
412.36	3272.07
412.55	3295.47
412.74	3480.38
412.93	3480.38
413.12	3344.63
413.31	3459.31
413.50	3487.40
413.69	3438.25
413.88	3609.11
414.07	3571.66
414.26	3630.17
414.45	3658.26
414.64	3606.77
414.83	3747.20
415.02	3840.82
415.22	3911.04
415.41	3922.74
415.60	3861.88
415.79	3852.52
415.98	3889.97
416.17	3918.06
416.36	3918.06
416.55	3948.48
416.74	4051.47
416.93	3955.51
417.12	4086.58
417.31	4112.32
417.50	4138.07
417.69	4245.73
417.88	4341.69
418.07	4217.65
418.26	4308.93
418.45	4217.65
418.64	4519.57
418.83	4444.68
419.02	4245.73
419.21	4524.26
419.39	4477.44
419.58	4348.72
419.77	4432.97
419.96	4505.53
420.15	4620.22
420.34	4585.11
420.53	4493.83
420.72	4690.43
420.91	4573.41
421.10	4631.92
421.29	4716.18
421.48	4580.43
421.67	4880.02
421.86	4741.93
422.05	4704.48
422.24	4755.97
422.43	4826.18
422.61	4746.61
422.80	4828.53
422.99	4940.87
423.18	4856.61
423.37	5034.49
423.56	4971.30
423.75	4858.95
423.94	4819.16
424.13	4545.32
424.32	4688.09
424.50	4912.78
424.69	5067.26
424.88	5027.47
425.07	4844.91
425.26	4910.44
425.45	4873.00
425.64	5074.28
425.83	4936.19
426.01	5046.20
426.20	5207.69
426.39	5001.72
426.58	4950.23
426.77	5179.61
426.96	5135.14
427.15	5107.05
427.33	5249.82
427.52	5149.18
427.71	5198.33
427.90	5235.78
428.09	5284.93
428.28	5266.21
428.46	5327.06
428.65	5224.08
428.84	5437.06
429.03	5455.79
429.22	5263.86
429.40	5472.17
429.59	5439.40
429.78	5100.03
429.97	5352.81
430.16	5474.51
430.34	5659.42
430.53	5533.03
430.72	5535.37
430.91	5593.88
431.10	5572.82
431.28	5720.27
431.47	5863.04
431.66	5706.23
431.85	5738.99
432.03	5825.59
432.22	5975.39
432.41	6012.84
432.60	5825.59
432.79	5996.45
432.97	5959.00
433.16	6162.63
433.35	5818.57
433.54	6087.73
433.72	6146.25
433.91	5928.58
434.10	6160.29
434.28	5956.66
434.47	6139.23
434.66	6321.79
434.85	6293.70
435.03	6270.30
435.22	6267.95
435.41	6406.05
435.59	6188.38
435.78	6403.71
435.97	6251.57
436.16	6539.46
436.34	6380.30
436.53	6420.09
436.72	6693.93
436.90	6401.37
437.09	6579.25
437.28	6368.60
437.46	6471.58
437.65	6579.25
437.84	6649.46
438.02	6810.96
438.21	6890.54
438.40	6583.93
438.58	6942.03
438.77	7059.06
438.96	6778.19
439.14	7286.09
439.33	7279.07
439.52	7047.35
439.70	7248.64
439.89	7265.02
440.08	7407.80
440.26	7358.64
440.45	7339.92
440.63	7431.20
440.82	7522.48
441.01	7398.43
441.19	7641.85
441.38	7602.06
441.57	7597.38
441.75	7847.82
441.94	7880.58
442.12	8030.38
442.31	7962.50
442.50	7929.74
442.68	7964.84
442.87	8046.76
443.05	7791.64
443.24	8013.99
443.43	8131.02
443.61	8198.90
443.80	8278.47
443.98	7955.48
444.17	7826.75
444.35	8161.45
444.54	8280.82
444.73	8126.34
444.91	8168.47
445.10	8215.28
445.28	8255.07
445.47	8159.11
445.65	8432.95
445.84	8313.58
446.02	8498.49
446.21	8226.98
446.39	8505.51
446.58	8578.06
446.77	8512.53
446.95	8004.63
447.14	8346.35
447.32	8540.61
447.51	8388.48
447.69	8414.23
447.88	8741.90
448.06	8294.86
448.25	8580.40
448.43	8542.96
448.62	8594.45
448.80	8353.37
448.99	8760.63
449.17	8812.12
449.36	8578.06
449.54	8821.48
449.73	8872.97
449.91	8985.32
450.10	8777.01
450.28	9008.72
450.46	8985.32
450.65	8987.66
450.83	8999.36
451.02	9085.96
451.20	9114.05
451.39	9231.07
451.57	9053.19
451.76	8945.53
451.94	9291.93
452.13	9324.69
452.31	9252.14
452.49	9008.72
452.68	9423.00
452.86	9352.78
453.05	9448.74
453.23	9408.95
453.42	9303.63
453.60	9455.76
453.78	9383.21
453.97	9390.23
454.15	9544.70
454.34	9214.69
454.52	9724.93
454.70	9523.64
454.89	9717.90
455.07	9542.36
455.26	9600.88
455.44	9825.57
455.62	9837.27
455.81	9825.57
455.99	10061.96
456.17	10050.26
456.36	10134.52
456.54	10073.67
456.73	10211.76
456.91	10310.06
457.09	10413.04
457.28	10555.82
457.46	10363.89
457.64	10635.39
457.83	10497.30
458.01	10270.27
458.19	10644.76
458.38	10347.51
458.56	10768.80
458.74	10523.05
458.93	10642.42
459.11	10696.25
459.29	10785.19
459.48	10724.33
459.66	10806.25
459.84	10876.47
460.03	11040.31
460.21	10939.66
460.39	10963.07
460.57	10899.87
460.76	11002.86
460.94	10991.16
461.12	11077.76
461.31	11140.95
461.49	11157.33
461.67	11194.78
461.85	11456.92
462.04	11335.21
462.22	11679.27
462.40	11494.37
462.59	11438.20
462.77	11201.80
462.95	11543.52
463.13	11702.68
463.32	11698.00
463.50	11609.06
463.68	11754.17
463.86	11667.57
464.05	11662.89
464.23	11749.49
464.41	11784.60
464.59	11669.91
464.78	12226.96
464.96	11864.18
465.14	11634.80
465.32	11962.48
465.50	12133.34
465.69	11871.20
465.87	12248.02
466.05	12081.85
466.23	12095.89
466.41	12273.77
466.60	12465.69
466.78	12046.74
466.96	12123.98
467.14	12257.39
467.32	12435.27
467.51	12407.18
467.69	12074.82
467.87	12381.43
468.05	12535.91
468.23	12421.22
468.41	12329.94
468.60	12458.67
468.78	12716.13
468.96	12711.45
469.14	12959.55
469.32	12877.63
469.50	12823.80
469.69	12926.78
469.87	13116.36
470.05	13041.46
470.23	12966.57
470.41	13097.64
470.59	13259.13
470.77	13111.68
470.95	13355.10
471.14	13451.06
471.32	13385.52
471.50	13551.70
471.68	13799.80
471.86	13755.33
472.04	13802.14
472.22	13954.27
472.40	13853.63
472.58	13715.54
472.77	14029.17
472.95	14148.54
473.13	14445.79
473.31	13951.93
473.49	13886.40
473.67	13956.61
473.85	14288.97
474.03	14693.88
474.21	14450.47
474.39	14661.12
474.57	14897.51
474.75	14747.72
474.93	14963.04
475.12	14831.97
475.30	15054.33
475.48	15016.88
475.66	15253.27
475.84	15344.55
476.02	15180.71
476.20	15190.08
476.38	15559.88
476.56	16009.26
476.74	15852.45
476.92	15751.81
477.10	15683.93
477.28	16311.19
477.46	15873.51
477.64	16058.42
477.82	16472.69
478.00	16886.97
478.18	16519.50
478.36	16968.88
478.54	17069.53
478.72	16919.73
478.90	17326.99
479.08	17591.47
479.26	17556.36
479.44	17649.98
479.62	17874.67
479.80	17919.14
479.98	18134.47
480.16	18288.95
480.34	18125.11
480.52	18412.99
480.70	18031.49
480.88	18412.99
481.06	18647.05
481.24	18862.38
481.41	18939.62
481.59	19117.50
481.77	20018.60
481.95	19609.01
482.13	19594.96
482.31	19435.81
482.49	20013.92
482.67	19932.00
482.85	20320.53
483.03	20290.10
483.21	20453.94
483.39	21008.65
483.57	20917.37
483.74	21078.86
483.92	21261.43
484.10	21188.87
484.28	21862.94
484.46	21706.13
484.64	22075.93
484.82	21930.82
485.00	22118.06
485.18	22408.29
485.35	22885.76
485.53	22642.34
485.71	22855.33
485.89	23152.58
486.07	23316.42
486.25	23091.73
486.43	23597.28
486.61	23688.56
486.78	23796.23
486.96	24079.43
487.14	24514.77
487.32	24678.61
487.50	25013.31
487.68	24849.47
487.85	25511.84
488.03	25329.28
488.21	25706.10
488.39	25387.79
488.57	26111.02
488.75	26214.00
488.92	26281.88
489.10	26518.27
489.28	26597.85
489.46	27161.92
489.64	26953.61
489.81	27627.68
489.99	27803.22
490.17	27131.49
490.35	27962.38
490.53	28254.95
490.70	28673.90
490.88	28367.29
491.06	28870.51
491.24	28449.21
491.41	28966.47
491.59	29001.58
491.77	29216.91
491.95	29418.19
492.13	29514.16
492.30	29869.92
492.48	29954.18
492.66	29944.81
492.84	30246.74
493.01	30616.55
493.19	30522.93
493.37	30817.83
493.54	30792.09
493.72	31407.65
493.90	31248.49
494.08	31732.98
494.25	32208.11
494.43	31674.47
494.61	31934.27
494.79	32252.58
494.96	32102.79
495.14	32940.70
495.32	33085.81
495.49	33287.10
495.67	33102.20
495.85	33369.02
496.02	33818.40
496.20	33673.29
496.38	33970.54
496.55	33652.22
496.73	34387.15
496.91	34153.10
497.09	34651.63
497.26	34831.85
497.44	34630.57
497.62	34991.01
497.79	35667.42
497.97	35557.42
498.14	35924.88
498.32	35967.01
498.50	35800.83
498.67	36282.98
498.85	36521.72
499.03	36357.88
499.20	36559.17
499.38	36545.12
499.56	37081.11
499.73	36886.84
499.91	37069.40
500.08	37923.70
500.26	36704.28
500.44	37500.06
500.61	37839.44
500.79	37743.48
500.97	37921.36
501.14	38298.19
501.32	38206.90
501.49	38462.02
501.67	38539.26
501.84	38897.36
502.02	38731.18
502.20	39306.96
502.37	38843.53
502.55	39084.61
502.72	39409.94
502.90	39475.48
503.07	39754.00
503.25	39091.63
503.43	39309.30
503.60	39894.43
503.78	40322.75
503.95	40093.38
504.13	40601.27
504.30	40388.28
504.48	40528.72
504.65	40573.19
504.83	40561.48
505.01	40905.54
505.18	40528.72
505.36	41516.42
505.53	40886.82
505.71	41368.97
505.88	41696.64
506.06	41230.88
506.23	41780.90
506.41	41542.17
506.58	41507.06
506.76	42122.62
506.93	42305.18
507.11	42244.33
507.28	42286.46
507.46	42394.12
507.63	42864.57
507.81	42925.42
507.98	42377.74
508.16	42962.87
508.33	43236.72
508.50	42969.90
508.68	43189.91
508.85	43835.89
509.03	43381.83
509.20	43786.74
509.38	44163.57
509.55	44362.51
509.73	43878.02
509.90	44844.66
510.08	44575.50
510.25	44570.82
510.42	44437.41
510.60	44964.03
510.77	44329.75
510.95	45127.87
511.12	45001.48
511.30	45001.48
511.47	45230.85
511.64	45333.84
511.82	45869.82
511.99	45415.76
512.17	46171.75
512.34	45158.30
512.51	46150.68
512.69	45860.46
512.86	46265.37
513.04	46642.20
513.21	46450.27
513.38	46646.88
513.56	46976.89
513.73	46677.30
513.90	47112.64
514.08	46904.34
514.25	47285.84
514.43	47037.75
514.60	47182.86
514.77	46637.51
514.95	47501.17
515.12	47126.69
515.29	47220.31
515.47	47650.97
515.64	48107.37
515.81	47562.03
515.99	47929.49
516.16	48109.71
516.33	48135.46
516.51	48722.93
516.68	48404.62
516.85	48381.21
517.03	48542.71
517.20	48732.29
517.37	48790.81
517.54	48736.98
517.72	48718.25
517.89	48914.86
518.06	48844.64
518.24	48994.43
518.41	49312.75
518.58	49375.94
518.75	49041.24
518.93	49347.86
519.10	49261.26
519.27	49621.70
519.45	49593.61
519.62	49382.96
519.79	49799.58
519.96	49797.24
520.14	50031.29
520.31	50064.06
520.48	50082.78
520.65	50174.06
520.83	50365.99
521.00	50452.59
521.17	50595.36
521.34	50253.64
521.52	50913.67
521.69	50728.77
521.86	50665.58
522.03	50958.14
522.20	51096.24
522.38	51428.59
522.55	51224.96
522.72	50967.51
522.89	51082.19
523.07	51463.70
523.24	51110.28
523.41	51447.32
523.58	51419.23
523.75	51688.39
523.92	51597.11
524.10	51906.06
524.27	52081.60
524.44	52086.28
524.61	51845.21
524.78	52030.11
524.96	51938.83
525.13	52212.67
525.30	52296.93
525.47	52509.92
525.64	52158.84
525.81	52320.34
525.98	52720.57
526.16	52552.05
526.33	52423.32
526.50	52715.89
526.67	52610.56
526.84	52640.99
527.01	52587.16
527.18	52729.93
527.36	52835.25
527.53	53104.41
527.70	53233.14
527.87	53151.23
528.04	52980.37
528.21	53366.55
528.38	53212.08
528.55	53574.86
528.72	53202.72
528.89	53165.27
529.07	53153.57
529.24	53406.34
529.41	53722.32
529.58	53453.15
529.75	53769.13
529.92	53757.42
530.09	53717.64
530.26	53457.84
530.43	53804.24
530.60	53598.27
530.77	53879.13
530.94	54073.40
531.11	54096.80
531.28	54160.00
531.46	54141.27
531.63	54110.85
531.80	54120.21
531.97	54281.70
532.14	54335.54
532.31	54075.74
532.48	54209.15
532.65	54578.95
532.82	54417.46
532.99	54780.24
533.16	54578.95
533.33	54752.15
533.50	55054.08
533.67	54600.02
533.84	54646.83
534.01	54672.57
534.18	54798.96
534.35	54869.18
534.52	54990.89
534.69	54904.29
534.86	54955.78
535.03	54761.51
535.20	55290.48
535.37	55033.02
535.54	55374.73
535.71	54983.86
535.88	55152.38
536.05	55281.11
536.22	55398.14
536.38	55351.33
536.55	55444.95
536.72	55786.67
536.89	55131.32
537.06	55480.06
537.23	55901.36
537.40	55358.35
537.57	55426.23
537.74	55536.23
537.91	56034.77
538.08	55751.56
538.25	55592.40
538.42	55913.06
538.59	56076.90
538.75	55791.35
538.92	55955.19
539.09	56193.92
539.26	55899.01
539.43	56011.36
539.60	56172.86
539.77	55948.17
539.94	56275.84
540.11	56254.78
540.28	56205.62
540.44	56191.58
540.61	56404.57
540.78	56474.79
540.95	56446.70
541.12	56397.55
541.29	56259.46
541.46	56369.46
541.62	56364.78
541.79	56397.55
541.96	56322.65
542.13	56191.58
542.30	56449.04
542.47	56535.64
542.63	56596.49
542.80	56757.99
542.97	56978.00
543.14	57305.68
543.31	57132.48
543.48	57111.41
543.64	57263.55
543.81	57256.53
543.98	57169.93
544.15	57078.64
544.32	57179.29
544.48	57544.41
544.65	57130.14
544.82	57097.37
544.99	57244.82
545.16	57476.54
545.32	57247.16
545.49	57595.90
545.66	57593.56
545.83	57350.15
546.00	57661.44
546.16	57570.16
546.33	57460.15
546.50	57375.89
546.67	57556.11
546.83	57364.19
547.00	57647.39
547.17	57492.92
547.34	57946.98
547.50	57771.44
547.67	57902.51
547.84	57841.66
548.00	58129.54
548.17	58014.86
548.34	57879.11
548.51	58038.26
548.67	58305.09
548.84	58117.84
549.01	57914.22
549.18	57909.53
549.34	58141.25
549.51	58220.83
549.68	58253.59
549.84	58164.65
550.01	58459.56
550.18	58298.06
550.34	58312.11
550.51	58054.65
550.68	58234.87
550.84	58225.51
551.01	58426.79
551.18	58347.21
551.34	58525.10
551.51	58471.26
551.68	58365.94
551.84	58312.11
552.01	58092.10
552.18	58513.39
552.34	58522.76
552.51	58670.21
552.68	58361.26
552.84	58522.76
553.01	58906.60
553.18	58735.74
553.34	58768.51
553.51	58515.73
553.67	58700.64
553.84	58887.88
554.01	59004.91
554.17	59077.46
554.34	58878.52
554.51	58733.40
554.67	59000.22
554.84	58817.66
555.00	58894.90
555.17	59007.25
555.33	58766.17
555.50	58787.24
555.67	58920.65
555.83	59025.97
556.00	59105.55
556.16	59283.43
556.33	59011.93
556.50	59306.83
556.66	59250.66
556.83	59072.78
556.99	59367.69
557.16	59398.12
557.32	59283.43
557.49	59639.19
557.65	59264.70
557.82	59337.26
557.98	59114.91
558.15	59313.86
558.32	59175.76
558.48	59147.68
558.65	59236.62
558.81	59407.48
558.98	59576.00
559.14	59512.80
559.31	59615.79
559.47	59568.97
559.64	59398.12
559.80	59451.95
559.97	59454.29
560.13	59552.59
560.30	59606.42
560.46	59578.34
560.63	59634.51
560.79	59788.98
560.96	59746.86
561.12	59678.98
561.29	59693.02
561.45	59828.77
561.61	59763.24
561.78	59835.80
561.94	59728.13
562.11	59739.83
562.27	59732.81
562.44	59840.48
562.60	59777.28
562.77	59922.40
562.93	59674.30
563.10	60065.17
563.26	59924.74
563.42	60320.29
563.59	59929.42
563.75	59976.23
563.92	59868.56
564.08	59891.97
564.24	59987.93
564.41	60053.47
564.57	60032.40
564.74	59861.54
564.90	60065.17
565.07	60114.32
565.23	59969.21
565.39	59927.08
565.56	59931.76
565.72	59847.50
565.88	60027.72
566.05	59870.90
566.21	59969.21
566.38	60081.55
566.54	60327.31
566.70	60247.73
566.87	60294.54
567.03	60109.64
567.19	60336.67
567.36	60299.22
567.52	60149.43
567.68	60406.89
567.85	60165.81
568.01	60317.95
568.17	60257.09
568.34	60346.03
568.50	60406.89
568.66	59950.48
568.83	60179.85
568.99	60229.01
569.15	60219.64
569.32	60278.16
569.48	60299.22
569.64	60324.97
569.81	60402.21
569.97	60170.49
570.13	60376.46
570.30	60254.75
570.46	60243.05
570.62	60404.55
570.78	60292.20
570.95	60397.52
571.11	60388.16
571.27	60357.74
571.43	60383.48
571.60	60404.55
571.76	60397.52
571.92	60376.46
572.09	60563.70
572.25	60451.36
572.41	60303.90
572.57	60430.29
572.74	60495.83
572.90	60570.72
573.06	60502.85
573.22	60498.17
573.38	60764.99
573.55	60409.23
573.71	60629.24
573.87	60449.02
574.03	60404.55
574.20	60601.15
574.36	60486.46
574.52	60526.25
574.68	60619.88
574.84	60807.12
575.01	60924.14
575.17	60704.13
575.33	60491.15
575.49	60449.02
575.65	60601.15
575.82	60495.83
575.98	60683.07
576.14	60865.63
576.30	60673.71
576.46	60680.73
576.62	60601.15
576.79	60542.64
576.95	60521.57
577.11	60893.72
577.27	60818.82
577.43	60882.02
577.59	60535.62
577.75	60610.51
577.92	60676.05
578.08	60748.60
578.24	60636.26
578.40	60858.61
578.56	60917.12
578.72	60725.20
578.88	60739.24
579.04	60931.17
579.21	60779.03
579.37	60846.91
579.53	60764.99
579.69	60449.02
579.85	60664.35
580.01	60505.19
580.17	60727.54
580.33	60858.61
580.49	60907.76
580.65	60884.36
580.82	60858.61
580.98	60683.07
581.14	60762.65
581.30	60999.04
581.46	60708.82
581.62	60860.95
581.78	60853.93
581.94	60767.33
582.10	60699.45
582.26	60713.50
582.42	60715.84
582.58	60860.95
582.74	60811.80
582.90	60947.55
583.06	60992.02
583.22	60678.39
583.38	60823.50
583.54	60823.50
583.70	60889.04
583.86	60905.42
584.02	60959.25
584.18	60774.35
584.34	60975.64
584.50	60900.74
584.66	60669.03
584.82	60694.77
584.98	60931.17
585.14	61048.19
585.30	60767.33
585.46	60947.55
585.62	60839.89
585.78	61085.64
585.94	60746.26
586.10	61022.45
586.26	60954.57
586.42	61048.19
586.58	61006.06
586.74	60769.67
586.90	60928.83
587.06	60938.19
587.22	61043.51
587.38	60772.01
587.54	61102.03
587.70	61050.53
587.86	61237.78
588.02	61038.83
588.18	61034.15
588.34	61036.49
588.49	60996.70
