SpectraSuite Data File
++++++++++++++++++++++++++++++++++++
Date: Fri Oct 25 11:26:32 EDT 2013
User: price-jones
Dark Spectrum Present: No
Reference Spectrum Present: No
Number of Sampled Component Spectra: 1
Spectrometers: USB2+H05261
Integration Time (usec): 100000 (USB2+H05261)
Spectra Averaged: 1 (USB2+H05261)
Boxcar Smoothing: 0 (USB2+H05261)
Correct for Electrical Dark: No (USB2+H05261)
Strobe/Lamp Enabled: No (USB2+H05261)
Correct for Detector Non-linearity: No (USB2+H05261)
Correct for Stray Light: No (USB2+H05261)
Number of Pixels in Processed Spectrum: 2048
>>>>>Begin Processed Spectral Data<<<<<
365.73	180.22
365.92	180.22
366.12	180.22
366.32	210.65
366.52	70.22
366.72	88.94
366.91	142.77
367.11	142.77
367.31	152.13
367.51	124.05
367.70	140.43
367.90	145.11
368.10	156.82
368.30	177.88
368.49	152.13
368.69	110.01
368.89	170.86
369.09	110.01
369.28	236.39
369.48	182.56
369.68	180.22
369.87	203.63
370.07	269.16
370.27	269.16
370.47	273.84
370.66	599.18
370.86	685.78
371.06	601.52
371.25	699.82
371.45	685.78
371.65	718.54
371.84	650.67
372.04	699.82
372.24	716.20
372.44	704.50
372.63	713.86
372.83	716.20
373.03	767.70
373.22	781.74
373.42	791.10
373.62	725.57
373.81	713.86
374.01	760.67
374.21	809.83
374.40	819.19
374.60	788.76
374.79	798.12
374.99	856.64
375.19	802.80
375.38	830.89
375.58	922.17
375.78	875.36
375.97	870.68
376.17	793.44
376.37	830.89
376.56	896.43
376.76	887.06
376.95	896.43
377.15	985.37
377.35	924.51
377.54	924.51
377.74	866.00
377.93	922.17
378.13	992.39
378.33	922.17
378.52	898.77
378.72	945.58
378.91	898.77
379.11	971.32
379.31	1004.09
379.50	938.55
379.70	1027.50
379.89	980.68
380.09	931.53
380.28	929.19
380.48	964.30
380.68	985.37
380.87	947.92
381.07	997.07
381.26	1060.26
381.46	1095.37
381.65	1025.15
381.85	1041.54
382.04	1006.43
382.24	1086.01
382.43	1015.79
382.63	1137.50
382.83	1104.73
383.02	1086.01
383.22	1146.86
383.41	1160.91
383.61	1144.52
383.80	1086.01
384.00	1064.94
384.19	1146.86
384.39	1174.95
384.58	1111.75
384.78	1158.57
384.97	1210.06
385.17	1142.18
385.36	1217.08
385.56	1188.99
385.75	1249.85
385.95	1273.25
386.14	1193.67
386.34	1109.41
386.53	1149.20
386.72	1191.33
386.92	1266.23
387.11	1249.85
387.31	1299.00
387.50	1228.78
387.70	1226.44
387.89	1268.57
388.09	1345.81
388.28	1301.34
388.48	1310.70
388.67	1362.19
388.86	1345.81
389.06	1273.25
389.25	1378.58
389.45	1240.48
389.64	1252.19
389.84	1488.58
390.03	1460.49
390.22	1423.05
390.42	1376.24
390.61	1371.55
390.81	1338.79
391.00	1413.68
391.19	1479.22
391.39	1425.39
391.58	1488.58
391.78	1444.11
391.97	1535.39
392.16	1469.86
392.36	1526.03
392.55	1516.67
392.75	1570.50
392.94	1556.46
393.13	1596.25
393.33	1561.14
393.52	1661.78
393.71	1575.18
393.91	1511.99
394.10	1647.74
394.29	1610.29
394.49	1521.35
394.68	1610.29
394.88	1678.16
395.07	1708.59
395.26	1600.93
395.46	1638.38
395.65	1743.70
395.84	1694.55
396.04	1842.00
396.23	1776.47
396.42	1685.19
396.62	1823.28
396.81	1837.32
397.00	1762.42
397.19	1839.66
397.39	1771.79
397.58	1863.07
397.77	1788.17
397.97	1851.36
398.16	1769.44
398.35	1895.83
398.55	1961.37
398.74	1956.69
398.93	1961.37
399.12	1886.47
399.32	1933.28
399.51	1970.73
399.70	1926.26
399.90	2083.08
400.09	2001.16
400.28	2052.65
400.47	2108.82
400.67	2143.93
400.86	2066.69
401.05	2054.99
401.24	2101.80
401.44	2125.21
401.63	2176.70
401.82	2153.29
402.01	2162.66
402.21	2211.81
402.40	2312.45
402.59	2148.61
402.78	2228.19
402.97	2303.09
403.17	2260.96
403.36	2235.21
403.55	2218.83
403.74	2422.45
403.93	2347.56
404.13	2443.52
404.32	2420.11
404.51	2392.03
404.70	2424.80
404.89	2399.05
405.09	2448.20
405.28	2492.67
405.47	2462.24
405.66	2490.33
405.85	2473.95
406.05	2541.82
406.24	2534.80
406.43	2574.59
406.62	2530.12
406.81	2658.85
407.00	2640.12
407.20	2600.34
407.39	2513.74
407.58	2759.49
407.77	2726.72
407.96	2813.32
408.15	2712.68
408.34	2810.98
408.54	2808.64
408.73	2621.40
408.92	2827.37
409.11	2846.09
409.30	2846.09
409.49	3012.27
409.68	2836.73
409.87	2944.39
410.07	3075.46
410.26	3063.76
410.45	2942.05
410.64	3122.27
410.83	3007.59
411.02	3084.83
411.21	3208.87
411.40	3112.91
411.59	3225.26
411.78	3026.31
411.98	3201.85
412.17	3321.22
412.36	3344.63
412.55	3239.30
412.74	3311.86
412.93	3386.76
413.12	3314.20
413.31	3747.20
413.50	3424.20
413.69	3571.66
413.88	3527.19
414.07	3637.19
414.26	3641.87
414.45	3726.13
414.64	3723.79
414.83	3662.94
415.02	3772.94
415.22	3981.25
415.41	3852.52
415.60	3918.06
415.79	3866.56
415.98	3957.85
416.17	4021.04
416.36	3969.55
416.55	4023.38
416.74	3981.25
416.93	3929.76
417.12	4159.13
417.31	4292.54
417.50	4238.71
417.69	4292.54
417.88	4236.37
418.07	4404.89
418.26	4234.03
418.45	4320.63
418.64	4404.89
418.83	4526.60
419.02	4339.35
419.21	4566.39
419.39	4592.13
419.58	4353.40
419.77	4386.16
419.96	4617.88
420.15	4622.56
420.34	4547.66
420.53	4681.07
420.72	4823.84
420.91	4667.03
421.10	4748.95
421.29	4709.16
421.48	4613.20
421.67	4720.86
421.86	4844.91
422.05	4833.21
422.24	4873.00
422.43	4685.75
422.61	4858.95
422.80	4816.82
422.99	4873.00
423.18	4973.64
423.37	4929.17
423.56	5048.54
423.75	4908.10
423.94	5032.15
424.13	4650.64
424.32	4706.82
424.50	5057.90
424.69	5135.14
424.88	5217.05
425.07	4908.10
425.26	4882.36
425.45	5069.60
425.64	4964.28
425.83	4896.40
426.01	5027.47
426.20	5118.75
426.39	5116.41
426.58	5153.86
426.77	5093.01
426.96	5188.97
427.15	5111.73
427.33	5247.48
427.52	5100.03
427.71	5345.78
427.90	5305.99
428.09	5238.12
428.28	5439.40
428.46	5352.81
428.65	5366.85
428.84	5565.79
429.03	5444.09
429.22	5385.57
429.40	5385.57
429.59	5490.90
429.78	5303.65
429.97	5308.34
430.16	5577.50
430.34	5631.33
430.53	5755.38
430.72	5626.65
430.91	5638.35
431.10	5579.84
431.28	5708.57
431.47	5636.01
431.66	5834.96
431.85	5799.85
432.03	5902.83
432.22	6050.28
432.41	5717.93
432.60	5930.92
432.79	6085.39
432.97	5788.14
433.16	6008.16
433.35	5907.51
433.54	6202.42
433.72	6230.51
433.91	6122.84
434.10	6064.33
434.28	6148.59
434.47	6071.35
434.66	6242.21
434.85	6282.00
435.03	6328.81
435.22	6307.74
435.41	6387.32
435.59	6270.30
435.78	6413.07
435.97	6518.39
436.16	6279.66
436.34	6296.04
436.53	6527.75
436.72	6703.29
436.90	6534.78
437.09	6565.20
437.28	6548.82
437.46	6710.32
437.65	6597.97
437.84	6799.26
438.02	6698.61
438.21	6822.66
438.40	6562.86
438.58	7019.27
438.77	7194.81
438.96	6988.84
439.14	7276.73
439.33	7082.46
439.52	7159.70
439.70	7140.97
439.89	7386.73
440.08	7393.75
440.26	7332.90
440.45	7470.99
440.63	7665.25
440.82	7735.47
441.01	7616.10
441.19	7660.57
441.38	7784.62
441.57	7817.39
441.75	7925.05
441.94	8088.89
442.12	7971.86
442.31	8035.06
442.50	8100.59
442.68	8121.66
442.87	8138.04
443.05	8187.19
443.24	8116.98
443.43	8287.84
443.61	8219.96
443.80	8423.59
443.98	8095.91
444.17	7868.88
444.35	8374.44
444.54	8182.51
444.73	8269.11
444.91	8287.84
445.10	8407.20
445.28	8234.00
445.47	8271.45
445.65	8283.16
445.84	8582.74
446.02	8762.97
446.21	8287.84
446.39	8311.24
446.58	8404.86
446.77	8571.04
446.95	8266.77
447.14	8526.57
447.32	8606.15
447.51	8421.25
447.69	8404.86
447.88	8507.85
448.06	8664.66
448.25	8507.85
448.43	8667.00
448.62	8697.43
448.80	8514.87
448.99	8645.94
449.17	8573.38
449.36	8617.85
449.54	8938.51
449.73	8978.30
449.91	8896.38
450.10	8938.51
450.28	9177.24
450.46	9165.54
450.65	9034.47
450.83	9071.92
451.02	9254.48
451.20	9273.20
451.39	9193.62
451.57	9142.13
451.76	9235.75
451.94	9259.16
452.13	9284.91
452.31	9432.36
452.49	9195.96
452.68	9415.98
452.86	9320.01
453.05	9350.44
453.23	9441.72
453.42	9493.21
453.60	9451.08
453.78	9781.10
453.97	9411.29
454.15	9432.36
454.34	9383.21
454.52	9657.05
454.70	9643.01
454.89	9827.91
455.07	9750.67
455.26	9893.44
455.44	9886.42
455.62	9832.59
455.81	10005.79
455.99	10019.83
456.17	10019.83
456.36	10101.75
456.54	10054.94
456.73	10291.34
456.91	10537.09
457.09	10396.66
457.28	10436.45
457.46	10068.98
457.64	10429.43
457.83	10445.81
458.01	10345.17
458.19	10963.07
458.38	10602.63
458.56	10710.29
458.74	10490.28
458.93	10719.65
459.11	10382.62
459.29	10574.54
459.48	10729.02
459.66	11040.31
459.84	11012.22
460.03	10913.92
460.21	11026.26
460.39	10897.53
460.57	11035.63
460.76	11154.99
460.94	11154.99
461.12	11302.45
461.31	11115.20
461.49	11192.44
461.67	11384.37
461.85	11391.39
462.04	11332.87
462.22	11384.37
462.40	11398.41
462.59	11349.26
462.77	11602.04
462.95	11761.19
463.13	11524.80
463.32	11611.40
463.50	11819.71
463.68	11875.88
463.86	11840.77
464.05	11861.84
464.23	11587.99
464.41	11920.35
464.59	11728.42
464.78	12266.75
464.96	11639.48
465.14	11836.09
465.32	11932.05
465.50	12119.29
465.69	12175.47
465.87	11936.73
466.05	12053.76
466.23	12224.62
466.41	12360.37
466.60	12493.78
466.78	12184.83
466.96	12074.82
467.14	12250.36
467.32	12549.95
467.51	12430.59
467.69	12098.23
467.87	12531.23
468.05	12650.60
468.23	12351.01
468.41	12571.02
468.60	12629.53
468.78	12830.82
468.96	12573.36
469.14	12622.51
469.32	13121.04
469.50	12688.04
469.69	12994.65
469.87	13153.81
470.05	13202.96
470.23	13142.11
470.41	13390.20
470.59	13439.36
470.77	13050.83
470.95	13123.38
471.14	13657.03
471.32	13165.51
471.50	13453.40
471.68	13521.27
471.86	13528.30
472.04	13778.73
472.22	14090.02
472.40	13678.09
472.58	14066.62
472.77	14132.15
472.95	14253.86
473.13	14642.39
473.31	14167.26
473.49	14176.62
473.67	14354.51
473.85	14317.06
474.03	14541.75
474.21	14483.24
474.39	14525.36
474.57	14574.52
474.75	15096.46
474.93	14998.15
475.12	14998.15
475.30	15194.76
475.48	14808.57
475.66	15094.11
475.84	15424.13
476.02	15545.84
476.20	15695.63
476.38	15730.74
476.56	16109.91
476.74	16086.50
476.92	15868.83
477.10	15730.74
477.28	16301.83
477.46	16355.66
477.64	16180.12
477.82	16622.48
478.00	16739.51
478.18	16886.97
478.36	16950.16
478.54	17362.09
478.72	17125.70
478.90	17397.20
479.08	17745.94
479.26	17965.95
479.44	17722.54
479.62	18153.20
479.80	18047.87
479.98	18094.68
480.16	18684.50
480.34	18087.66
480.52	18595.56
480.70	18548.75
480.88	18415.34
481.06	18754.71
481.24	18604.92
481.41	19145.58
481.59	19225.16
481.77	19702.63
481.95	19248.57
482.13	19660.50
482.31	19634.75
482.49	20189.46
482.67	20194.14
482.85	20533.52
483.03	20912.69
483.21	20821.41
483.39	20849.49
483.57	20622.46
483.74	21074.18
483.92	21661.66
484.10	21348.03
484.28	21619.53
484.46	21806.77
484.64	22256.15
484.82	21860.60
485.00	22459.78
485.18	22960.66
485.35	23133.86
485.53	22937.25
485.71	23321.10
485.89	23531.75
486.07	23119.81
486.25	23283.65
486.43	23475.57
486.61	23974.11
486.78	24013.90
486.96	24388.38
487.14	24327.53
487.32	24823.72
487.50	25057.78
487.68	25350.34
487.85	25331.62
488.03	25839.51
488.21	25816.11
488.39	25818.45
488.57	26068.89
488.75	26223.36
488.92	26244.43
489.10	26593.17
489.28	26778.07
489.46	27103.40
489.64	26757.00
489.81	27751.73
489.99	27667.47
490.17	27908.55
490.35	28535.81
490.53	27992.81
490.70	28409.42
490.88	28273.67
491.06	28657.52
491.24	28655.18
491.41	29223.93
491.59	29689.70
491.77	28905.62
491.95	29476.71
492.13	29523.52
492.30	29839.49
492.48	30307.60
492.66	30073.54
492.84	30331.00
493.01	30553.35
493.19	30181.21
493.37	30965.29
493.54	31250.83
493.72	31660.43
493.90	31489.57
494.08	31885.12
494.25	32531.11
494.43	31999.80
494.61	32189.39
494.79	32421.10
494.96	32505.36
495.14	32451.53
495.32	33406.47
495.49	32968.79
495.67	33130.28
495.85	33542.22
496.02	33841.81
496.20	34174.16
496.38	34031.39
496.55	33926.07
496.73	34759.30
496.91	34487.79
497.09	34738.23
497.26	35044.84
497.44	34991.01
497.62	35297.62
497.79	36020.84
497.97	35194.64
498.14	36067.66
498.32	36135.53
498.50	36182.34
498.67	36891.52
498.85	35959.99
499.03	36657.47
499.20	36662.15
499.38	37193.45
499.56	37167.71
499.73	37785.61
499.91	37376.01
500.08	37729.44
500.26	37343.25
500.44	37691.99
500.61	38019.66
500.79	37621.77
500.97	38043.07
501.14	39007.37
501.32	38422.23
501.49	38546.28
501.67	38820.13
501.84	39007.37
502.02	38927.79
502.20	38803.74
502.37	39419.30
502.55	39250.78
502.72	39299.94
502.90	39480.16
503.07	39398.24
503.25	39639.31
503.43	39796.13
503.60	40172.96
503.78	40240.83
503.95	40350.84
504.13	40425.73
504.30	40722.98
504.48	40582.55
504.65	40957.03
504.83	41202.79
505.01	41549.19
505.18	41612.38
505.36	41528.13
505.53	41352.58
505.71	41607.70
505.88	42110.92
506.06	41350.24
506.23	42117.94
506.41	41715.37
506.58	42342.63
506.76	42199.86
506.93	42747.54
507.11	42057.09
507.28	42534.56
507.46	42553.28
507.63	42628.18
507.81	43428.64
507.98	42890.32
508.16	43533.96
508.33	43536.30
508.50	43761.00
508.68	43868.66
508.85	43999.73
509.03	43779.72
509.20	43789.08
509.38	44662.10
509.55	44406.98
509.73	44584.86
509.90	44734.66
510.08	44612.95
510.25	44591.89
510.42	44959.35
510.60	45027.23
510.77	44978.07
510.95	45116.17
511.12	45338.52
511.30	45581.93
511.47	45553.85
511.64	45703.64
511.82	45940.04
511.99	45291.71
512.17	46164.73
512.34	46234.94
512.51	46700.71
512.69	46501.76
512.86	46363.67
513.04	46731.14
513.21	46892.63
513.38	46944.12
513.56	46937.10
513.73	46780.29
513.90	47112.64
514.08	47068.17
514.25	47004.98
514.43	47608.84
514.60	47559.69
514.77	47782.04
514.95	47681.39
515.12	47618.20
515.29	47538.62
515.47	47941.19
515.64	48039.50
515.81	47849.91
515.99	48107.37
516.16	48540.37
516.33	48381.21
516.51	48399.94
516.68	48486.54
516.85	48566.12
517.03	48818.89
517.20	49076.35
517.37	48947.62
517.54	49020.18
517.72	48732.29
517.89	49144.23
518.06	49322.11
518.24	49422.75
518.41	49474.24
518.58	49436.80
518.75	49263.60
518.93	49595.95
519.10	49272.96
519.27	49886.18
519.45	49614.68
519.62	49602.97
519.79	49930.65
519.96	49951.71
520.14	50075.76
520.31	50103.85
520.48	50443.23
520.65	50321.52
520.83	50742.81
521.00	50667.92
521.17	50396.42
521.34	50361.31
521.52	50824.73
521.69	50829.41
521.86	51119.64
522.03	51353.69
522.20	51152.41
522.38	51405.19
522.55	51444.98
522.72	51257.73
522.89	51526.89
523.07	52048.83
523.24	51304.54
523.41	51613.49
523.58	51714.14
523.75	51845.21
523.92	51452.00
524.10	52030.11
524.27	51995.00
524.44	51959.89
524.61	51992.66
524.78	52275.87
524.96	52193.95
525.13	52329.70
525.30	52568.43
525.47	52715.89
525.64	52147.14
525.81	52587.16
525.98	52917.17
526.16	52650.35
526.33	52753.33
526.50	52809.51
526.67	52720.57
526.84	53038.88
527.01	52835.25
527.18	53127.82
527.36	53160.59
527.53	53069.31
527.70	53518.69
527.87	53755.08
528.04	53315.06
528.21	53195.70
528.38	53153.57
528.55	53762.11
528.72	53394.64
528.89	53286.98
529.07	53436.77
529.24	53567.84
529.41	53483.58
529.58	53675.51
529.75	53649.76
529.92	53862.75
530.09	53932.96
530.26	53832.32
530.43	54075.74
530.60	53801.89
530.77	53925.94
530.94	54302.77
531.11	54363.62
531.28	54372.99
531.46	54178.72
531.63	54152.97
531.80	54087.44
531.97	54319.15
532.14	54461.93
532.31	54490.01
532.48	54681.94
532.65	54703.00
532.82	54593.00
532.99	54897.27
533.16	54695.98
533.33	54824.71
533.50	54981.52
533.67	54766.20
533.84	54775.56
534.01	55114.94
534.18	54915.99
534.35	55356.01
534.52	55325.58
534.69	55126.64
534.86	55224.94
535.03	55105.57
535.20	55377.08
535.37	55292.82
535.54	55498.78
535.71	55360.69
535.88	55683.69
536.05	55608.79
536.22	55606.45
536.38	55620.49
536.55	55622.83
536.72	55517.51
536.89	55224.94
537.06	55826.46
537.23	55931.78
537.40	55334.95
537.57	55842.84
537.74	55756.24
537.91	55882.63
538.08	55917.74
538.25	55374.73
538.42	55901.36
538.59	56002.00
538.75	56214.99
538.92	56233.71
539.09	56357.76
539.26	55936.46
539.43	56137.75
539.60	56303.93
539.77	56406.91
539.94	56463.08
540.11	56301.59
540.28	56343.72
540.44	56741.61
540.61	56474.79
540.78	56402.23
540.95	56540.32
541.12	56336.69
541.29	56310.95
541.46	56568.41
541.62	56844.59
541.79	56554.36
541.96	56271.16
542.13	56486.49
542.30	56615.22
542.47	57022.47
542.63	56975.66
542.80	57118.43
542.97	57160.56
543.14	57338.44
543.31	57228.44
543.48	57268.23
543.64	57378.23
543.81	57387.60
543.98	57406.32
544.15	57193.33
544.32	57396.96
544.48	57635.69
544.65	57528.03
544.82	57586.54
544.99	57392.28
545.16	57588.88
545.32	57340.78
545.49	57691.86
545.66	57811.23
545.83	57380.57
546.00	57911.88
546.16	57722.29
546.33	57670.80
546.50	57453.13
546.67	57652.08
546.83	57518.67
547.00	57726.97
547.17	57656.76
547.34	58019.54
547.50	57954.00
547.67	57918.90
547.84	57986.77
548.00	58138.91
548.17	58143.59
548.34	58122.52
548.51	58372.96
548.67	58272.32
548.84	58007.84
549.01	58204.44
549.18	58188.06
549.34	58262.96
549.51	58536.80
549.68	58143.59
549.84	58485.31
550.01	58452.54
550.18	58075.71
550.34	58475.94
550.51	58501.69
550.68	58515.73
550.84	58333.17
551.01	58611.70
551.18	58457.22
551.34	58429.13
551.51	58625.74
551.68	58653.82
551.84	58466.58
552.01	58473.60
552.18	58838.73
552.34	58466.58
552.51	58567.23
552.68	58557.86
552.84	58686.59
553.01	58848.09
553.18	58766.17
553.34	59110.23
553.51	58621.06
553.67	58731.06
553.84	59025.97
554.01	58930.01
554.17	59173.42
554.34	58969.80
554.51	59058.74
554.67	59262.36
554.84	59000.22
555.00	59075.12
555.17	58775.53
555.33	59077.46
555.50	58885.54
555.67	59028.31
555.83	58911.28
556.00	59025.97
556.16	59290.45
556.33	59253.00
556.50	59173.42
556.66	59175.76
556.83	59063.42
556.99	59386.41
557.16	59489.40
557.32	59522.16
557.49	59650.89
557.65	59299.81
557.82	59421.52
557.98	59793.67
558.15	59320.88
558.32	59613.44
558.48	59501.10
558.65	59763.24
558.81	59339.60
558.98	59632.17
559.14	59636.85
559.31	59629.83
559.47	59774.94
559.64	59744.51
559.80	59671.96
559.97	59681.32
560.13	59606.42
560.30	59636.85
560.46	59704.73
560.63	59812.39
560.79	59693.02
560.96	59849.84
561.12	59906.01
561.29	59643.87
561.45	59732.81
561.61	59723.45
561.78	59711.75
561.94	59840.48
562.11	59924.74
562.27	59838.14
562.44	59784.30
562.60	60090.91
562.77	59891.97
562.93	59805.37
563.10	60093.25
563.26	59906.01
563.42	60285.18
563.59	60123.68
563.75	59943.46
563.92	60142.41
564.08	59887.29
564.24	60116.66
564.41	60205.60
564.57	60191.56
564.74	59906.01
564.90	60088.57
565.07	60214.96
565.23	60198.58
565.39	60250.07
565.56	60327.31
565.72	60114.32
565.88	60425.61
566.05	60116.66
566.21	60245.39
566.38	60540.30
566.54	60357.74
566.70	60170.49
566.87	60465.40
567.03	60280.50
567.19	60495.83
567.36	60449.02
567.52	60411.57
567.68	60626.90
567.85	60334.33
568.01	60523.91
568.17	60266.45
568.34	60402.21
568.50	60259.43
568.66	60626.90
568.83	60425.61
568.99	60360.08
569.15	60402.21
569.32	60175.17
569.48	60182.19
569.64	60671.37
569.81	60378.80
569.97	60458.38
570.13	60528.59
570.30	60296.88
570.46	60512.21
570.62	60549.66
570.78	60523.91
570.95	60519.23
571.11	60664.35
571.27	60720.52
571.43	60526.25
571.60	60484.12
571.76	60666.69
571.92	60589.45
572.09	60629.24
572.25	60701.79
572.41	60547.32
572.57	60615.19
572.74	60874.99
572.90	60596.47
573.06	60734.56
573.22	60636.26
573.38	60554.34
573.55	60552.00
573.71	61022.45
573.87	60580.09
574.03	60530.93
574.20	60631.58
574.36	60533.28
574.52	60814.14
574.68	60823.50
574.84	60872.65
575.01	60959.25
575.17	60741.58
575.33	60650.30
575.49	60582.43
575.65	60662.00
575.82	60921.80
575.98	60914.78
576.14	60828.18
576.30	60741.58
576.46	60844.57
576.62	60734.56
576.79	60619.88
576.95	60584.77
577.11	60818.82
577.27	60903.08
577.43	60828.18
577.59	60839.89
577.75	60701.79
577.92	60860.95
578.08	60687.75
578.24	60746.26
578.40	60825.84
578.56	60928.83
578.72	60924.14
578.88	61001.38
579.04	61024.79
579.21	60774.35
579.37	60999.04
579.53	60966.27
579.69	60568.38
579.85	60814.14
580.01	60694.77
580.17	60872.65
580.33	60928.83
580.49	61104.37
580.65	60985.00
580.82	60907.76
580.98	60795.42
581.14	60914.78
581.30	61092.66
581.46	60982.66
581.62	60954.57
581.78	60715.84
581.94	61013.08
582.10	60889.04
582.26	60837.54
582.42	60800.10
582.58	61146.50
582.74	60825.84
582.90	61027.13
583.06	61078.62
583.22	60970.96
583.38	61029.47
583.54	61073.94
583.70	60985.00
583.86	61109.05
584.02	61057.56
584.18	61137.13
584.34	61001.38
584.50	61076.28
584.66	60835.20
584.82	60828.18
584.98	61289.27
585.14	61029.47
585.30	60912.44
585.46	60907.76
585.62	61148.84
585.78	60970.96
585.94	60945.21
586.10	61006.06
586.26	61116.07
586.42	61048.19
586.58	61034.15
586.74	61052.87
586.90	60987.34
587.06	61050.53
587.22	61092.66
587.38	60968.61
587.54	61214.37
587.70	61244.80
587.86	61069.26
588.02	61202.67
588.18	61226.07
588.34	60996.70
588.49	60982.66
