SpectraSuite Data File
++++++++++++++++++++++++++++++++++++
Date: Fri Oct 25 11:24:00 EDT 2013
User: price-jones
Dark Spectrum Present: No
Reference Spectrum Present: No
Number of Sampled Component Spectra: 1
Spectrometers: USB2+H05261
Integration Time (usec): 100000 (USB2+H05261)
Spectra Averaged: 1 (USB2+H05261)
Boxcar Smoothing: 0 (USB2+H05261)
Correct for Electrical Dark: No (USB2+H05261)
Strobe/Lamp Enabled: No (USB2+H05261)
Correct for Detector Non-linearity: No (USB2+H05261)
Correct for Stray Light: No (USB2+H05261)
Number of Pixels in Processed Spectrum: 2048
>>>>>Begin Processed Spectral Data<<<<<
365.73	217.67
365.92	217.67
366.12	217.67
366.32	145.11
366.52	135.75
366.72	112.35
366.91	100.64
367.11	149.79
367.31	58.51
367.51	133.41
367.70	105.32
367.90	184.90
368.10	177.88
368.30	124.05
368.49	119.37
368.69	170.86
368.89	119.37
369.09	124.05
369.28	117.03
369.48	102.98
369.68	205.97
369.87	184.90
370.07	107.66
370.27	191.92
370.47	306.61
370.66	636.63
370.86	655.35
371.06	655.35
371.25	706.84
371.45	657.69
371.65	664.71
371.84	678.76
372.04	662.37
372.24	741.95
372.44	706.84
372.63	709.18
372.83	755.99
373.03	777.06
373.22	737.27
373.42	688.12
373.62	826.21
373.81	828.55
374.01	786.42
374.21	840.25
374.40	741.95
374.60	863.66
374.79	802.80
374.99	837.91
375.19	910.47
375.38	758.33
375.58	765.36
375.78	856.64
375.97	812.17
376.17	896.43
376.37	805.14
376.56	901.11
376.76	844.93
376.95	805.14
377.15	866.00
377.35	851.96
377.54	875.36
377.74	903.45
377.93	901.11
378.13	849.61
378.33	807.48
378.52	964.30
378.72	898.77
378.91	999.41
379.11	926.85
379.31	929.19
379.50	863.66
379.70	1008.77
379.89	1102.39
380.09	999.41
380.28	856.64
380.48	1029.84
380.68	994.73
380.87	940.90
381.07	1071.97
381.26	999.41
381.46	926.85
381.65	966.64
381.85	1069.62
382.04	1018.13
382.24	1046.22
382.43	1062.60
382.63	1046.22
382.83	1034.52
383.02	1132.82
383.22	1093.03
383.41	1203.04
383.61	1114.10
383.80	1165.59
384.00	1095.37
384.19	1055.58
384.39	1076.65
384.58	1130.48
384.78	1181.97
384.97	1123.46
385.17	1174.95
385.36	1146.86
385.56	1203.04
385.75	1142.18
385.95	1207.72
386.14	1207.72
386.34	1170.27
386.53	1282.61
386.72	1137.50
386.92	1261.55
387.11	1259.21
387.31	1172.61
387.50	1181.97
387.70	1214.74
387.89	1231.12
388.09	1385.60
388.28	1341.13
388.48	1254.53
388.67	1270.91
388.86	1348.15
389.06	1364.53
389.25	1291.98
389.45	1334.11
389.64	1329.42
389.84	1299.00
390.03	1345.81
390.22	1420.71
390.42	1371.55
390.61	1378.58
390.81	1324.74
391.00	1420.71
391.19	1432.41
391.39	1359.85
391.58	1481.56
391.78	1488.58
391.97	1455.81
392.16	1427.73
392.36	1584.54
392.55	1526.03
392.75	1495.60
392.94	1565.82
393.13	1519.01
393.33	1533.05
393.52	1605.61
393.71	1701.57
393.91	1577.52
394.10	1523.69
394.29	1530.71
394.49	1542.41
394.68	1680.50
394.88	1624.33
395.07	1708.59
395.26	1739.02
395.46	1682.85
395.65	1645.40
395.84	1734.34
396.04	1682.85
396.23	1713.27
396.42	1769.44
396.62	1743.70
396.81	1736.68
397.00	1736.68
397.19	1809.23
397.39	1736.68
397.58	1856.04
397.77	1811.57
397.97	1867.75
398.16	1898.17
398.35	1832.64
398.55	2015.20
398.74	1886.47
398.93	1952.01
399.12	1970.73
399.32	1970.73
399.51	1940.30
399.70	1996.48
399.90	1870.09
400.09	2031.58
400.28	2071.37
400.47	2043.29
400.67	2136.91
400.86	2010.52
401.05	2017.54
401.24	2099.46
401.44	2148.61
401.63	2127.55
401.82	2157.97
402.01	2167.34
402.21	2132.23
402.40	2228.19
402.59	2256.28
402.78	2204.78
402.97	2188.40
403.17	2256.28
403.36	2356.92
403.55	2202.44
403.74	2338.20
403.93	2335.85
404.13	2436.50
404.32	2366.28
404.51	2368.62
404.70	2487.99
404.89	2326.49
405.09	2448.20
405.28	2525.44
405.47	2427.14
405.66	2558.21
405.85	2572.25
406.05	2626.08
406.24	2518.42
406.43	2551.18
406.62	2661.19
406.81	2693.96
407.00	2506.71
407.20	2511.39
407.39	2612.04
407.58	2703.32
407.77	2792.26
407.96	2708.00
408.15	2733.75
408.34	2712.68
408.54	2771.19
408.73	2822.69
408.92	2789.92
409.11	2881.20
409.30	2855.45
409.49	2895.24
409.68	2991.20
409.87	2967.80
410.07	3030.99
410.26	3049.72
410.45	3162.06
410.64	3054.40
410.83	3056.74
411.02	2995.89
411.21	3199.51
411.40	3112.91
411.59	3183.13
411.78	3325.90
411.98	3251.00
412.17	3335.26
412.36	3274.41
412.55	3417.18
412.74	3417.18
412.93	3377.39
413.12	3351.65
413.31	3534.21
413.50	3478.04
413.69	3597.40
413.88	3667.62
414.07	3611.45
414.26	3590.38
414.45	3583.36
414.64	3625.49
414.83	3662.94
415.02	3786.99
415.22	3796.35
415.41	3918.06
415.60	3875.93
415.79	4009.34
415.98	4102.96
416.17	3988.27
416.36	3878.27
416.55	4058.49
416.74	4035.08
416.93	4126.36
417.12	4245.73
417.31	4109.98
417.50	4243.39
417.69	4304.25
417.88	4276.16
418.07	4327.65
418.26	4292.54
418.45	4287.86
418.64	4550.00
418.83	4458.72
419.02	4456.38
419.21	4634.26
419.39	4589.79
419.58	4496.17
419.77	4383.82
419.96	4699.80
420.15	4582.77
420.34	4603.83
420.53	4681.07
420.72	4662.35
420.91	4629.58
421.10	4732.56
421.29	4903.42
421.48	4664.69
421.67	4772.35
421.86	4849.59
422.05	4744.27
422.24	4709.16
422.43	4737.24
422.61	4896.40
422.80	4999.38
422.99	4980.66
423.18	4978.32
423.37	4997.04
423.56	4947.89
423.75	4861.29
423.94	4840.23
424.13	4540.64
424.32	4784.06
424.50	5085.98
424.69	5163.22
424.88	5135.14
425.07	4868.31
425.26	4966.62
425.45	4987.68
425.64	5071.94
425.83	5060.24
426.01	5085.98
426.20	5153.86
426.39	5011.09
426.58	5172.58
426.77	5118.75
426.96	5142.16
427.15	5146.84
427.33	5093.01
427.52	5261.52
427.71	5324.72
427.90	5387.91
428.09	5575.16
428.28	5277.91
428.46	5366.85
428.65	5500.26
428.84	5514.30
429.03	5535.37
429.22	5296.63
429.40	5413.66
429.59	5481.53
429.78	5088.32
429.97	5373.87
430.16	5591.54
430.34	5652.39
430.53	5483.88
430.72	5652.39
430.91	5579.84
431.10	5753.04
431.28	5884.11
431.47	5799.85
431.66	5738.99
431.85	5729.63
432.03	5916.87
432.22	5959.00
432.41	5914.53
432.60	6136.88
432.79	6047.94
432.97	5914.53
433.16	5954.32
433.35	6015.18
433.54	6190.72
433.72	6200.08
433.91	6052.63
434.10	6406.05
434.28	6171.99
434.47	6214.12
434.66	6293.70
434.85	6443.49
435.03	6427.11
435.22	6380.30
435.41	6619.04
435.59	6396.68
435.78	6579.25
435.97	6628.40
436.16	6654.14
436.34	6326.47
436.53	6527.75
436.72	6761.81
436.90	6441.15
437.09	6773.51
437.28	6471.58
437.46	6572.22
437.65	6619.04
437.84	6956.07
438.02	6740.74
438.21	6855.43
438.40	6768.83
438.58	7117.57
438.77	7030.97
438.96	7094.16
439.14	7108.21
439.33	7208.85
439.52	7314.17
439.70	7463.97
439.89	7485.03
440.08	7356.30
440.26	7520.14
440.45	7398.43
440.63	7698.02
440.82	7801.01
441.01	7590.36
441.19	7735.47
441.38	7836.11
441.57	7641.85
441.75	7925.05
441.94	7744.83
442.12	8016.33
442.31	8128.68
442.50	8306.56
442.68	8091.23
442.87	8231.66
443.05	8135.70
443.24	8351.03
443.43	8147.40
443.61	8222.30
443.80	8566.36
443.98	8053.78
444.17	7887.61
444.35	8264.43
444.54	8444.65
444.73	8458.70
444.91	8306.56
445.10	8439.97
445.28	8549.98
445.47	8262.09
445.65	8468.06
445.84	8444.65
446.02	8521.89
446.21	8491.46
446.39	8280.82
446.58	8643.60
446.77	8514.87
446.95	8327.63
447.14	8425.93
447.32	8542.96
447.51	8498.49
447.69	8407.20
447.88	8557.00
448.06	8360.39
448.25	8540.61
448.43	8592.11
448.62	8758.28
448.80	8505.51
448.99	8755.94
449.17	8901.06
449.36	8643.60
449.54	8788.71
449.73	9060.21
449.91	9036.81
450.10	9095.32
450.28	9062.55
450.46	8966.59
450.65	9001.70
450.83	9100.00
451.02	9174.90
451.20	9401.93
451.39	9231.07
451.57	9200.65
451.76	9043.83
451.94	9282.56
452.13	9352.78
452.31	9303.63
452.49	9259.16
452.68	9509.60
452.86	9324.69
453.05	9516.62
453.23	9439.38
453.42	9528.32
453.60	9481.51
453.78	9486.19
453.97	9383.21
454.15	9605.56
454.34	9418.32
454.52	9645.35
454.70	9708.54
454.89	9820.89
455.07	9954.30
455.26	9858.34
455.44	9853.66
455.62	9907.49
455.81	9851.31
455.99	10181.33
456.17	10132.18
456.36	10010.47
456.54	10193.03
456.73	10064.30
456.91	10677.52
457.09	10256.23
457.28	10579.22
457.46	10462.19
457.64	10649.44
457.83	10546.45
458.01	10284.31
458.19	10888.17
458.38	10775.83
458.56	10637.73
458.74	10523.05
458.93	10782.85
459.11	10747.74
459.29	10504.32
459.48	10759.44
459.66	11059.03
459.84	10942.00
460.03	10979.45
460.21	10874.13
460.39	11077.76
460.57	11234.57
460.76	11009.88
460.94	11115.20
461.12	11281.38
461.31	11178.40
461.49	11281.38
461.67	11260.32
461.85	11618.42
462.04	11501.39
462.22	11613.74
462.40	11496.71
462.59	11384.37
462.77	11454.58
462.95	11700.34
463.13	11559.91
463.32	11698.00
463.50	11880.56
463.68	11812.68
463.86	11639.48
464.05	11892.26
464.23	11896.94
464.41	11988.22
464.59	11749.49
464.78	12238.66
464.96	12161.42
465.14	11845.45
465.32	12098.23
465.50	12060.78
465.69	12011.63
465.87	12191.85
466.05	12194.19
466.23	12088.87
466.41	12257.39
466.60	12273.77
466.78	12002.27
466.96	12374.41
467.14	12245.68
467.32	12482.08
467.51	12461.01
467.69	12271.43
467.87	12580.38
468.05	12631.87
468.23	12477.40
468.41	12709.11
468.60	12746.56
468.78	12732.51
468.96	12585.06
469.14	13036.78
469.32	13149.13
469.50	12884.65
469.69	12809.75
469.87	12875.29
470.05	12950.18
470.23	13015.72
470.41	13502.55
470.59	13392.55
470.77	13289.56
470.95	13441.70
471.14	13806.82
471.32	13350.42
471.50	13626.60
471.68	13792.78
471.86	13870.01
472.04	13710.86
472.22	14026.83
472.40	13781.07
472.58	13825.54
472.77	14090.02
472.95	14260.88
473.13	14633.03
473.31	14281.95
473.49	14342.80
473.67	14532.39
473.85	14558.13
474.03	14710.27
474.21	14534.73
474.39	14815.59
474.57	14679.84
474.75	14963.04
474.93	15103.48
475.12	15150.29
475.30	15283.70
475.48	14963.04
475.66	15440.51
475.84	15215.82
476.02	15702.65
476.20	15559.88
476.38	15672.23
476.56	16009.26
476.74	16161.40
476.92	16035.01
477.10	16051.39
477.28	16250.34
477.46	16355.66
477.64	16472.69
477.82	16622.48
478.00	17130.38
478.18	16959.52
478.36	16954.84
478.54	17420.61
478.72	17336.35
478.90	17287.20
479.08	17544.66
479.26	17673.39
479.44	17750.62
479.62	18246.82
479.80	18111.07
479.98	18214.05
480.16	18520.66
480.34	18293.63
480.52	18740.67
480.70	18979.40
480.88	18785.14
481.06	18850.67
481.24	18731.31
481.41	18988.77
481.59	19353.89
481.77	19924.98
481.95	19824.34
482.13	19796.25
482.31	19716.67
482.49	20231.59
482.67	20222.23
482.85	20425.86
483.03	20835.45
483.21	20812.04
483.39	20781.62
483.57	21226.32
483.74	21350.37
483.92	21219.30
484.10	21488.46
484.28	21729.53
484.46	22148.49
484.64	22455.10
484.82	22153.17
485.00	22647.02
485.18	22618.94
485.35	22974.70
485.53	22705.54
485.71	23227.48
485.89	23754.10
486.07	23552.81
486.25	23398.34
486.43	23728.35
486.61	23943.68
486.78	24098.16
486.96	24458.60
487.14	24549.88
487.32	24891.60
487.50	25010.96
487.68	25137.35
487.85	25532.90
488.03	25696.74
488.21	25937.82
488.39	26054.84
488.57	26391.88
488.75	26480.82
488.92	27058.93
489.10	26883.39
489.28	26778.07
489.46	27424.06
489.64	27360.86
489.81	27889.82
489.99	27950.68
490.17	28020.89
490.35	28236.22
490.53	28360.27
490.70	28669.22
490.88	28416.44
491.06	28898.59
491.24	28809.65
491.41	29298.83
491.59	29490.75
491.77	29312.87
491.95	29701.40
492.13	29895.66
492.30	29902.68
492.48	30604.84
492.66	30455.05
492.84	30398.88
493.01	30803.79
493.19	30686.76
493.37	31276.58
493.54	31456.80
493.72	31534.04
493.90	31646.38
494.08	31793.84
494.25	32175.34
494.43	32528.77
494.61	32687.92
494.79	32638.77
494.96	32617.71
495.14	33221.56
495.32	33380.72
495.49	33099.86
495.67	33373.70
495.85	33567.96
496.02	34059.48
496.20	34401.19
496.38	34384.81
496.55	34471.41
496.73	35077.61
496.91	34658.65
497.09	35047.18
497.26	35019.10
497.44	34829.51
497.62	35524.65
497.79	36034.89
497.97	35777.43
498.14	36088.72
498.32	36453.84
498.50	36409.37
498.67	36723.01
498.85	36713.64
499.03	37160.69
499.20	37017.91
499.38	36631.72
499.56	37560.92
499.73	37530.49
499.91	37820.72
500.08	38117.96
500.26	37481.34
500.44	37879.23
500.61	37687.31
500.79	37820.72
500.97	38431.60
501.14	39306.96
501.32	38815.44
501.49	38761.61
501.67	39014.39
501.84	39393.56
502.02	39115.03
502.20	39126.74
502.37	39463.77
502.55	39625.27
502.72	39641.65
502.90	39906.13
503.07	39688.46
503.25	40121.46
503.43	40041.88
503.60	40409.35
503.78	40299.34
503.95	40671.49
504.13	40549.78
504.30	41060.02
504.48	40671.49
504.65	41233.22
504.83	41371.31
505.01	41537.49
505.18	41441.53
505.36	41949.42
505.53	41270.67
505.71	42153.05
505.88	42344.97
506.06	41509.40
506.23	42232.63
506.41	41954.10
506.58	42740.52
506.76	42508.81
506.93	42904.36
507.11	42672.65
507.28	43044.79
507.46	43201.61
507.63	43604.18
507.81	43107.99
507.98	43405.23
508.16	43543.33
508.33	44208.04
508.50	43889.73
508.68	43707.16
508.85	44680.83
509.03	44048.88
509.20	44353.15
509.38	44388.26
509.55	44779.13
509.73	45015.52
509.90	44966.37
510.08	44804.88
510.25	44844.66
510.42	45242.56
510.60	45357.24
510.77	46066.42
510.95	45315.11
511.12	45242.56
511.30	45202.77
511.47	45720.02
511.64	45799.60
511.82	46253.67
511.99	45881.52
512.17	46780.29
512.34	45949.40
512.51	46560.28
512.69	46646.88
512.86	46487.72
513.04	47220.31
513.21	46920.72
513.38	46742.84
513.56	47086.90
513.73	47398.19
513.90	47166.48
514.08	47515.22
514.25	47470.75
514.43	47803.10
514.60	47704.80
514.77	47775.02
514.95	47667.35
515.12	48034.81
515.29	48072.26
515.47	48039.50
515.64	48264.19
515.81	48292.27
515.99	48484.20
516.16	48795.49
516.33	48797.83
516.51	48968.69
516.68	48608.25
516.85	48760.38
517.03	49193.38
517.20	49055.29
517.37	49179.34
517.54	49291.68
517.72	49600.63
517.89	49200.40
518.06	49249.55
518.24	49118.48
518.41	49336.15
518.58	49542.12
518.75	49151.25
518.93	49773.83
519.10	49317.43
519.27	50000.86
519.45	49902.56
519.62	50431.52
519.79	50349.60
519.96	49909.58
520.14	50124.91
520.31	50199.81
520.48	50525.14
520.65	50354.29
520.83	50967.51
521.00	51203.90
521.17	50672.60
521.34	51159.43
521.52	51051.76
521.69	51229.65
521.86	50892.61
522.03	51533.92
522.20	51606.47
522.38	51393.48
522.55	51611.15
522.72	51510.51
522.89	51262.41
523.07	51868.61
523.24	51756.27
523.41	51655.62
523.58	51482.42
523.75	52238.42
523.92	51927.13
524.10	52013.73
524.27	52528.64
524.44	52086.28
524.61	52229.05
524.78	52481.83
524.96	52552.05
525.13	52507.58
525.30	52750.99
525.47	52818.87
525.64	52861.00
525.81	52931.22
525.98	52753.33
526.16	52905.47
526.33	52978.03
526.50	53350.17
526.67	53183.99
526.84	53270.59
527.01	53162.93
527.18	53214.42
527.36	53123.14
527.53	53092.71
527.70	53450.81
527.87	53434.43
528.04	53375.92
528.21	53717.64
528.38	53366.55
528.55	53616.99
528.72	53525.71
528.89	53595.93
529.07	53755.08
529.24	53506.99
529.41	54234.89
529.58	53724.66
529.75	53734.02
529.92	53911.90
530.09	54007.86
530.26	54188.08
530.43	54358.94
530.60	53869.77
530.77	54169.36
530.94	54326.17
531.11	54115.53
531.28	54548.53
531.46	53883.81
531.63	54667.89
531.80	54368.30
531.97	54752.15
532.14	54609.38
532.31	54445.54
532.48	54885.56
532.65	54864.50
532.82	54639.81
532.99	54883.22
533.16	54520.44
533.33	54913.65
533.50	55014.29
533.67	54649.17
533.84	54918.33
534.01	55002.59
534.18	55107.91
534.35	55538.57
534.52	55327.92
534.69	55409.84
534.86	55253.03
535.03	55145.36
535.20	55346.65
535.37	55370.05
535.54	55653.26
535.71	55346.65
535.88	55629.85
536.05	55664.96
536.22	55842.84
536.38	55826.46
536.55	55948.17
536.72	55779.65
536.89	55781.99
537.06	55613.47
537.23	56051.15
537.40	55873.27
537.57	55973.91
537.74	55931.78
537.91	56200.94
538.08	56074.55
538.25	55599.43
538.42	56100.30
538.59	56264.14
538.75	55732.84
538.92	56217.33
539.09	56392.87
539.26	56231.37
539.43	56243.07
539.60	56268.82
539.77	56458.40
539.94	56568.41
540.11	56596.49
540.28	56697.14
540.44	56500.53
540.61	56332.01
540.78	56575.43
540.95	56399.89
541.12	56498.19
541.29	56533.30
541.46	56746.29
541.62	56603.52
541.79	56992.04
541.96	56568.41
542.13	56790.76
542.30	56823.53
542.47	56926.51
542.63	57013.11
542.80	57083.33
542.97	57240.14
543.14	57495.26
543.31	57305.68
543.48	57251.84
543.64	57776.12
543.81	57766.76
543.98	57485.90
544.15	57621.65
544.32	57726.97
544.48	57825.28
544.65	57635.69
544.82	57778.46
544.99	57427.38
545.16	57666.12
545.32	57523.35
545.49	57846.34
545.66	57731.65
545.83	57984.43
546.00	57998.48
546.16	57764.42
546.33	57822.93
546.50	57525.69
546.67	57982.09
546.83	57848.68
547.00	57801.87
547.17	57858.04
547.34	57965.71
547.50	58204.44
547.67	58054.65
547.84	58171.67
548.00	58323.81
548.17	58405.73
548.34	58253.59
548.51	58333.17
548.67	58358.92
548.84	58220.83
549.01	58202.10
549.18	58450.20
549.34	58520.41
549.51	58548.50
549.68	58562.54
549.84	58354.24
550.01	58693.61
550.18	58419.77
550.34	58621.06
550.51	58728.72
550.68	58588.29
550.84	58429.13
551.01	58766.17
551.18	58562.54
551.34	58585.95
551.51	58602.33
551.68	58679.57
551.84	58674.89
552.01	58658.51
552.18	58981.50
552.34	58590.63
552.51	58555.52
552.68	58677.23
552.84	58922.99
553.01	59245.98
553.18	58815.32
553.34	59091.51
553.51	58899.58
553.67	58946.39
553.84	59016.61
554.01	59208.53
554.17	59192.15
554.34	59208.53
554.51	59140.66
554.67	59131.29
554.84	59297.47
555.00	59250.66
555.17	59133.63
555.33	59426.20
555.50	59002.56
555.67	59178.10
555.83	59061.08
556.00	59306.83
556.16	59641.53
556.33	59320.88
556.50	59199.17
556.66	59498.76
556.83	59337.26
556.99	59377.05
557.16	59728.13
557.32	59568.97
557.49	59578.34
557.65	59407.48
557.82	59517.48
557.98	59590.04
558.15	59676.64
558.32	59531.53
558.48	59374.71
558.65	59585.36
558.81	59671.96
558.98	59828.77
559.14	59924.74
559.31	59777.28
559.47	59662.60
559.64	59887.29
559.80	59817.07
559.97	59901.33
560.13	59751.54
560.30	59838.14
560.46	60013.68
560.63	60039.42
560.79	60048.78
560.96	60048.78
561.12	59966.87
561.29	59971.55
561.45	60048.78
561.61	59985.59
561.78	59884.95
561.94	59880.27
562.11	60065.17
562.27	60051.12
562.44	59957.50
562.60	60247.73
562.77	60081.55
562.93	59884.95
563.10	60229.01
563.26	60074.53
563.42	60472.42
563.59	60027.72
563.75	60044.10
563.92	60214.96
564.08	60308.58
564.24	60317.95
564.41	60362.42
564.57	60392.84
564.74	60046.44
564.90	60254.75
565.07	60259.43
565.23	60310.92
565.39	60289.86
565.56	60528.59
565.72	60273.48
565.88	60409.23
566.05	60172.83
566.21	60308.58
566.38	60509.87
566.54	60444.33
566.70	60505.19
566.87	60692.43
567.03	60018.36
567.19	60638.60
567.36	60610.51
567.52	60427.95
567.68	60706.47
567.85	60418.59
568.01	60383.48
568.17	60542.64
568.34	60594.13
568.50	60669.03
568.66	60514.55
568.83	60858.61
568.99	60568.38
569.15	60610.51
569.32	60502.85
569.48	60554.34
569.64	60643.28
569.81	60392.84
569.97	60360.08
570.13	60715.84
570.30	60638.60
570.46	60654.98
570.62	60790.73
570.78	60650.30
570.95	60652.64
571.11	60779.03
571.27	60734.56
571.43	60636.26
571.60	60956.91
571.76	60549.66
571.92	60811.80
572.09	60832.86
572.25	60708.82
572.41	60802.44
572.57	60685.41
572.74	61024.79
572.90	60835.20
573.06	60914.78
573.22	60699.45
573.38	60711.16
573.55	60701.79
573.71	60823.50
573.87	60938.19
574.03	60673.71
574.20	60842.23
574.36	60734.56
574.52	60842.23
574.68	61097.34
574.84	60921.80
575.01	60683.07
575.17	60874.99
575.33	60776.69
575.49	60788.39
575.65	61048.19
575.82	61015.43
575.98	60837.54
576.14	61160.54
576.30	61031.81
576.46	60860.95
576.62	60935.85
576.79	60987.34
576.95	60615.19
577.11	60823.50
577.27	61165.22
577.43	60980.32
577.59	60790.73
577.75	61036.49
577.92	60746.26
578.08	60844.57
578.24	60963.93
578.40	60999.04
578.56	60975.64
578.72	60963.93
578.88	61190.97
579.04	61085.64
579.21	61160.54
579.37	61212.03
579.53	61237.78
579.69	60903.08
579.85	60903.08
580.01	61045.85
580.17	60956.91
580.33	61073.94
580.49	61111.39
580.65	61097.34
580.82	61010.74
580.98	60903.08
581.14	60919.46
581.30	61209.69
581.46	60961.59
581.62	61132.45
581.78	61134.79
581.94	61024.79
582.10	61090.32
582.26	61127.77
582.42	61031.81
582.58	61158.20
582.74	60989.68
582.90	61036.49
583.06	61148.84
583.22	61013.08
583.38	60884.36
583.54	61106.71
583.70	61095.00
583.86	61165.22
584.02	61066.92
584.18	61249.48
584.34	61153.52
584.50	60989.68
584.66	60973.30
584.82	60886.70
584.98	61202.67
585.14	61240.12
585.30	61015.43
585.46	61146.50
585.62	61160.54
585.78	61382.89
585.94	61078.62
586.10	61270.54
586.26	61132.45
586.42	61305.65
586.58	61296.29
586.74	61296.29
586.90	61078.62
587.06	61172.24
587.22	61216.71
587.38	61174.58
587.54	61209.69
587.70	61371.19
587.86	61036.49
588.02	61270.54
588.18	61420.34
588.34	61205.01
588.49	61153.52
