SpectraSuite Data File
++++++++++++++++++++++++++++++++++++
Date: Fri Oct 25 11:34:17 EDT 2013
User: price-jones
Dark Spectrum Present: No
Reference Spectrum Present: No
Number of Sampled Component Spectra: 1
Spectrometers: USB2+H05261
Integration Time (usec): 100000 (USB2+H05261)
Spectra Averaged: 1 (USB2+H05261)
Boxcar Smoothing: 0 (USB2+H05261)
Correct for Electrical Dark: No (USB2+H05261)
Strobe/Lamp Enabled: No (USB2+H05261)
Correct for Detector Non-linearity: No (USB2+H05261)
Correct for Stray Light: No (USB2+H05261)
Number of Pixels in Processed Spectrum: 2048
>>>>>Begin Processed Spectral Data<<<<<
365.73	227.03
365.92	227.03
366.12	227.03
366.32	201.29
366.52	224.69
366.72	173.20
366.91	177.88
367.11	245.76
367.31	175.54
367.51	194.26
367.70	161.50
367.90	201.29
368.10	201.29
368.30	168.52
368.49	182.56
368.69	234.05
368.89	145.11
369.09	248.10
369.28	203.63
369.48	198.95
369.68	189.58
369.87	245.76
370.07	234.05
370.27	238.73
370.47	327.68
370.66	475.13
370.86	496.19
371.06	580.45
371.25	578.11
371.45	610.88
371.65	610.88
371.84	524.28
372.04	521.94
372.24	510.24
372.44	521.94
372.63	507.90
372.83	596.84
373.03	580.45
373.22	667.05
373.42	482.15
373.62	641.31
373.81	695.14
374.01	592.16
374.21	587.47
374.40	678.76
374.60	706.84
374.79	627.26
374.99	669.39
375.19	554.71
375.38	592.16
375.58	650.67
375.78	648.33
375.97	622.58
376.17	660.03
376.37	624.92
376.56	713.86
376.76	674.07
376.95	641.31
377.15	678.76
377.35	620.24
377.54	685.78
377.74	655.35
377.93	709.18
378.13	620.24
378.33	723.23
378.52	620.24
378.72	674.07
378.91	688.12
379.11	669.39
379.31	690.46
379.50	704.50
379.70	720.88
379.89	748.97
380.09	716.20
380.28	758.33
380.48	669.39
380.68	716.20
380.87	704.50
381.07	704.50
381.26	795.78
381.46	753.65
381.65	753.65
381.85	770.04
382.04	699.82
382.24	765.36
382.43	688.12
382.63	737.27
382.83	716.20
383.02	828.55
383.22	861.32
383.41	753.65
383.61	840.25
383.80	763.01
384.00	809.83
384.19	812.17
384.39	844.93
384.58	875.36
384.78	737.27
384.97	807.48
385.17	854.30
385.36	847.27
385.56	793.44
385.75	760.67
385.95	779.40
386.14	896.43
386.34	847.27
386.53	856.64
386.72	849.61
386.92	840.25
387.11	830.89
387.31	915.15
387.50	896.43
387.70	868.34
387.89	929.19
388.09	875.36
388.28	856.64
388.48	868.34
388.67	903.45
388.86	980.68
389.06	873.02
389.25	1020.47
389.45	894.08
389.64	854.30
389.84	896.43
390.03	922.17
390.22	957.28
390.42	968.98
390.61	978.34
390.81	990.05
391.00	866.00
391.19	908.13
391.39	1004.09
391.58	1011.11
391.78	959.62
391.97	999.41
392.16	1057.92
392.36	1102.39
392.55	978.34
392.75	1041.54
392.94	1043.88
393.13	1034.52
393.33	1029.84
393.52	1020.47
393.71	1111.75
393.91	1050.90
394.10	1062.60
394.29	1090.69
394.49	1142.18
394.68	1102.39
394.88	1125.80
395.07	1207.72
395.26	1001.75
395.46	1095.37
395.65	1153.88
395.84	1170.27
396.04	1231.12
396.23	1188.99
396.42	1170.27
396.62	1212.40
396.81	1191.33
397.00	1203.04
397.19	1193.67
397.39	1210.06
397.58	1249.85
397.77	1242.82
397.97	1242.82
398.16	1177.29
398.35	1331.76
398.55	1306.02
398.74	1193.67
398.93	1331.76
399.12	1329.42
399.32	1268.57
399.51	1376.24
399.70	1352.83
399.90	1376.24
400.09	1329.42
400.28	1378.58
400.47	1280.27
400.67	1355.17
400.86	1338.79
401.05	1359.85
401.24	1521.35
401.44	1416.02
401.63	1390.28
401.82	1378.58
402.01	1399.64
402.21	1401.98
402.40	1341.13
402.59	1441.77
402.78	1481.56
402.97	1476.88
403.17	1589.22
403.36	1394.96
403.55	1516.67
403.74	1490.92
403.93	1554.12
404.13	1654.76
404.32	1558.80
404.51	1533.05
404.70	1659.44
404.89	1619.65
405.09	1603.27
405.28	1631.35
405.47	1584.54
405.66	1675.82
405.85	1664.12
406.05	1624.33
406.24	1729.66
406.43	1692.21
406.62	1678.16
406.81	1724.97
407.00	1720.29
407.20	1736.68
407.39	1741.36
407.58	1764.76
407.77	1750.72
407.96	1820.94
408.15	1865.41
408.34	1739.02
408.54	1823.28
408.73	1809.23
408.92	1750.72
409.11	1867.75
409.30	1959.03
409.49	1872.43
409.68	1984.77
409.87	1973.07
410.07	1968.39
410.26	1952.01
410.45	2029.24
410.64	2019.88
410.83	2122.87
411.02	2078.40
411.21	2122.87
411.40	2106.48
411.59	2228.19
411.78	2040.95
411.98	2153.29
412.17	2214.15
412.36	2176.70
412.55	2218.83
412.74	2237.55
412.93	2312.45
413.12	2176.70
413.31	2370.96
413.50	2352.24
413.69	2282.02
413.88	2450.54
414.07	2389.69
414.26	2511.39
414.45	2462.24
414.64	2424.80
414.83	2476.29
415.02	2572.25
415.22	2651.83
415.41	2520.76
415.60	2672.89
415.79	2684.59
415.98	2675.23
416.17	2740.77
416.36	2640.12
416.55	2630.76
416.74	2722.04
416.93	2775.88
417.12	2703.32
417.31	2951.42
417.50	2766.51
417.69	2799.28
417.88	2913.97
418.07	2820.35
418.26	2832.05
418.45	2911.63
418.64	3091.85
418.83	2857.79
419.02	2949.08
419.21	2986.52
419.39	3108.23
419.58	2944.39
419.77	3005.25
419.96	3101.21
420.15	3166.74
420.34	2984.18
420.53	2981.84
420.72	3220.58
420.91	3145.68
421.10	3136.32
421.29	3220.58
421.48	3061.42
421.67	3241.64
421.86	3162.06
422.05	3213.56
422.24	3173.77
422.43	3323.56
422.61	3342.28
422.80	3365.69
422.99	3307.18
423.18	3316.54
423.37	3356.33
423.56	3382.07
423.75	3276.75
423.94	3225.26
424.13	3103.55
424.32	3155.04
424.50	3365.69
424.69	3503.78
424.88	3456.97
425.07	3379.73
425.26	3370.37
425.45	3349.31
425.64	3248.66
425.83	3295.47
426.01	3407.82
426.20	3365.69
426.39	3398.46
426.58	3382.07
426.77	3342.28
426.96	3358.67
427.15	3417.18
427.33	3428.88
427.52	3501.44
427.71	3559.95
427.90	3545.91
428.09	3513.14
428.28	3499.10
428.46	3583.36
428.65	3623.15
428.84	3786.99
429.03	3571.66
429.22	3637.19
429.40	3616.13
429.59	3695.71
429.78	3508.46
429.97	3667.62
430.16	3733.15
430.34	3721.45
430.53	3728.47
430.72	3796.35
430.91	3789.33
431.10	3779.97
431.28	3782.31
431.47	3889.97
431.66	3918.06
431.85	3798.69
432.03	3915.72
432.22	4007.00
432.41	3988.27
432.60	3962.53
432.79	4018.70
432.97	3967.21
433.16	3943.80
433.35	3946.14
433.54	4039.76
433.72	4091.26
433.91	4105.30
434.10	3960.19
434.28	4091.26
434.47	3997.64
434.66	4294.88
434.85	4215.30
435.03	4266.80
435.22	4140.41
435.41	4315.95
435.59	4219.99
435.78	4325.31
435.97	4276.16
436.16	4360.42
436.34	4243.39
436.53	4379.14
436.72	4475.10
436.90	4269.14
437.09	4407.23
437.28	4294.88
437.46	4358.08
437.65	4524.26
437.84	4461.06
438.02	4442.34
438.21	4486.81
438.40	4402.55
438.58	4472.76
438.77	4664.69
438.96	4676.39
439.14	4669.37
439.33	4777.03
439.52	4748.95
439.70	4732.56
439.89	4915.12
440.08	4917.47
440.26	4894.06
440.45	4896.40
440.63	4990.02
440.82	4968.96
441.01	4987.68
441.19	4994.70
441.38	5074.28
441.57	5064.92
441.75	5174.92
441.94	5184.29
442.12	5268.55
442.31	5217.05
442.50	5357.49
442.68	5172.58
442.87	5357.49
443.05	5341.10
443.24	5390.25
443.43	5247.48
443.61	5315.36
443.80	5472.17
443.98	5235.78
444.17	5156.20
444.35	5423.02
444.54	5547.07
444.73	5687.50
444.91	5336.42
445.10	5401.96
445.28	5528.35
445.47	5348.12
445.65	5416.00
445.84	5509.62
446.02	5537.71
446.21	5481.53
446.39	5359.83
446.58	5540.05
446.77	5542.39
446.95	5530.69
447.14	5497.92
447.32	5474.51
447.51	5472.17
447.69	5668.78
447.88	5561.11
448.06	5762.40
448.25	5593.88
448.43	5657.07
448.62	5497.92
448.80	5771.76
448.99	5554.09
449.17	5729.63
449.36	5647.71
449.54	5701.54
449.73	5959.00
449.91	5949.64
450.10	6043.26
450.28	6036.24
450.46	6031.56
450.65	5928.58
450.83	5954.32
451.02	5949.64
451.20	5874.74
451.39	6029.22
451.57	5968.37
451.76	6008.16
451.94	6125.18
452.13	6036.24
452.31	6193.06
452.49	6031.56
452.68	6146.25
452.86	5954.32
453.05	6270.30
453.23	6373.28
453.42	6258.59
453.60	6265.61
453.78	6401.37
453.97	6143.91
454.15	6143.91
454.34	6209.44
454.52	6349.87
454.70	6483.28
454.89	6310.08
455.07	6317.11
455.26	6361.58
455.44	6586.27
455.62	6289.02
455.81	6551.16
455.99	6434.13
456.17	6686.91
456.36	6537.12
456.54	6551.16
456.73	6792.23
456.91	6691.59
457.09	6689.25
457.28	6850.75
457.46	6740.74
457.64	6799.26
457.83	6883.52
458.01	6757.13
458.19	6960.75
458.38	6864.79
458.56	7026.29
458.74	6883.52
458.93	6932.67
459.11	6981.82
459.29	6881.18
459.48	7190.13
459.66	7183.10
459.84	7143.32
460.03	7304.81
460.21	7194.81
460.39	7192.47
460.57	7066.08
460.76	7140.97
460.94	7339.92
461.12	7218.21
461.31	7342.26
461.49	7258.00
461.67	7105.87
461.85	7515.46
462.04	7316.51
462.22	7772.92
462.40	7503.76
462.59	7365.67
462.77	7440.56
462.95	7508.44
463.13	7412.48
463.32	7578.65
463.50	7691.00
463.68	7730.79
463.86	7728.45
464.05	7475.67
464.23	7611.42
464.41	7686.32
464.59	7578.65
464.78	7714.41
464.96	7859.52
465.14	7676.96
465.32	7857.18
465.50	7815.05
465.69	8156.77
465.87	7929.74
466.05	7850.16
466.23	7808.03
466.41	7985.91
466.60	8131.02
466.78	8065.49
466.96	7988.25
467.14	7939.10
467.32	7985.91
467.51	8140.38
467.69	7927.39
467.87	8042.08
468.05	8285.50
468.23	7960.16
468.41	8074.85
468.60	8285.50
468.78	8273.79
468.96	8365.07
469.14	8229.32
469.32	8362.73
469.50	8177.83
469.69	8514.87
469.87	8423.59
470.05	8407.20
470.23	8484.44
470.41	8531.25
470.59	8273.79
470.77	8468.06
470.95	8769.99
471.14	8732.54
471.32	8662.32
471.50	8851.91
471.68	8657.64
471.86	8868.29
472.04	8997.02
472.22	9193.62
472.40	9015.74
472.58	9039.15
472.77	9008.72
472.95	9076.60
473.13	9444.06
473.31	9111.71
473.49	9048.51
473.67	9202.99
473.85	9202.99
474.03	9359.80
474.21	9694.50
474.39	9612.58
474.57	9483.85
474.75	9486.19
474.93	9563.43
475.12	9659.39
475.30	9729.61
475.48	9748.33
475.66	9813.87
475.84	9769.40
476.02	9949.62
476.20	9940.26
476.38	9942.60
476.56	10176.65
476.74	10415.38
476.92	9916.85
477.10	10134.52
477.28	10251.55
477.46	10307.72
477.64	10635.39
477.82	10609.65
478.00	10738.38
478.18	10906.90
478.36	10740.72
478.54	10993.50
478.72	11213.51
478.90	11257.98
479.08	11267.34
479.26	11332.87
479.44	11206.48
479.62	11477.99
479.80	11297.77
479.98	11508.41
480.16	11688.64
480.34	11810.34
480.52	11800.98
480.70	11976.52
480.88	11768.21
481.06	11831.41
481.24	12208.23
481.41	12070.14
481.59	12201.21
481.77	12255.04
481.95	12610.81
482.13	12795.71
482.31	12741.88
482.49	12982.95
482.67	13069.55
482.85	13181.90
483.03	13043.81
483.21	13111.68
483.39	13355.10
483.57	13376.16
483.74	13462.76
483.92	13589.15
484.10	13591.49
484.28	13947.25
484.46	14101.73
484.64	14162.58
484.82	13841.93
485.00	14207.05
485.18	14408.34
485.35	14516.00
485.53	14546.43
485.71	14497.28
485.89	14974.75
486.07	15070.71
486.25	14862.40
486.43	14998.15
486.61	15241.57
486.78	15260.29
486.96	15194.76
487.14	15700.31
487.32	15583.29
487.50	15824.36
487.68	15892.24
487.85	15962.45
488.03	16093.52
488.21	16350.98
488.39	16379.07
488.57	16423.54
488.75	16634.19
488.92	16816.75
489.10	16753.55
489.28	16996.97
489.46	17099.95
489.64	17167.83
489.81	17818.50
489.99	17394.86
490.17	17488.48
490.35	18001.06
490.53	18012.76
490.70	18153.20
490.88	17937.87
491.06	18469.17
491.24	17975.31
491.41	18249.16
491.59	18588.53
491.77	18813.23
491.95	18820.25
492.13	18785.14
492.30	19084.73
492.48	19096.43
492.66	19286.01
492.84	19330.48
493.01	19475.60
493.19	19501.34
493.37	19761.14
493.54	19721.35
493.72	19878.17
493.90	19798.59
494.08	20098.18
494.25	20554.58
494.43	20210.53
494.61	20416.49
494.79	20669.27
494.96	20425.86
495.14	20744.17
495.32	21020.35
495.49	21032.05
495.67	21041.42
495.85	21259.09
496.02	21422.92
496.20	21322.28
496.38	21701.45
496.55	21443.99
496.73	22178.92
496.91	21738.90
497.09	22235.09
497.26	22324.03
497.44	21750.60
497.62	21862.94
497.79	22731.28
497.97	22431.69
498.14	22881.08
498.32	23012.15
498.50	23033.21
498.67	22979.38
498.85	23243.86
499.03	23412.38
499.20	23197.05
499.38	23384.29
499.56	23496.64
499.73	23293.01
499.91	23770.48
500.08	23821.97
500.26	23686.22
500.44	24191.78
500.61	24002.19
500.79	24034.96
500.97	24102.84
501.14	24439.87
501.32	24376.68
501.49	24620.10
501.67	24629.46
501.84	25013.31
502.02	24776.91
502.20	24507.75
502.37	24734.78
502.55	25249.70
502.72	25015.65
502.90	25102.25
503.07	24922.02
503.25	25057.78
503.43	25109.27
503.60	25319.92
503.78	25720.15
503.95	25518.86
504.13	25486.09
504.30	25900.37
504.48	25914.41
504.65	25830.15
504.83	26008.03
505.01	25993.99
505.18	26405.92
505.36	26375.50
505.53	26457.42
505.71	26682.11
505.88	26546.36
506.06	26342.73
506.23	26647.00
506.41	26314.64
506.58	26927.86
506.76	26513.59
506.93	27398.31
507.11	27016.80
507.28	26972.33
507.46	27484.91
507.63	27283.62
507.81	27711.94
507.98	27541.08
508.16	27653.43
508.33	27700.24
508.50	27974.08
508.68	27871.10
508.85	28166.01
509.03	27789.18
509.20	27946.00
509.38	28205.80
509.55	28196.43
509.73	28453.89
509.90	28582.62
510.08	28364.95
510.25	28474.96
510.42	28634.11
510.60	28709.01
510.77	29017.96
510.95	29268.40
511.12	28762.84
511.30	28931.36
511.47	28966.47
511.64	29099.88
511.82	29317.55
511.99	29333.93
512.17	29331.59
512.34	29387.77
512.51	30171.85
512.69	29607.78
512.86	30061.84
513.04	29525.86
513.21	30057.16
513.38	29975.24
513.56	29993.97
513.73	29933.11
513.90	30141.42
514.08	30253.76
514.25	30604.84
514.43	30403.56
514.60	30604.84
514.77	30483.14
514.95	30302.92
515.12	30527.61
515.29	30932.52
515.47	30735.92
515.64	30960.61
515.81	30955.93
515.99	31084.65
516.16	31592.55
516.33	31199.34
516.51	31342.11
516.68	31058.91
516.85	31292.96
517.03	31534.04
517.20	31660.43
517.37	31538.72
517.54	31466.16
517.72	31805.54
517.89	31931.93
518.06	31889.80
518.24	32376.63
518.41	31826.60
518.58	31955.33
518.75	31810.22
518.93	31943.63
519.10	32161.30
519.27	31875.76
519.45	32378.97
519.62	32294.71
519.79	32264.28
519.96	32268.97
520.14	32556.85
520.31	32552.17
520.48	33305.82
520.65	32730.05
520.83	33443.91
521.00	33125.60
521.17	33558.60
521.34	33369.02
521.52	32921.98
521.69	33333.91
521.86	33523.49
522.03	33420.51
522.20	34338.00
522.38	34125.01
522.55	34087.56
522.72	33867.55
522.89	33408.81
523.07	34139.05
523.24	33823.08
523.41	34225.65
523.58	34356.72
523.75	34218.63
523.92	34319.28
524.10	34670.36
524.27	34646.95
524.44	34373.11
524.61	34672.70
524.78	34609.50
524.96	35065.91
525.13	35189.95
525.30	35395.92
525.47	34972.28
525.64	34637.59
525.81	35033.14
525.98	34831.85
526.16	35199.32
526.33	35140.80
526.50	35353.79
526.67	35101.01
526.84	35576.14
527.01	35461.46
527.18	35508.27
527.36	35608.91
527.53	35545.72
527.70	35761.05
527.87	35845.30
528.04	35487.20
528.21	35793.81
528.38	35772.75
528.55	35906.16
528.72	35573.80
528.89	35824.24
529.07	36147.23
529.24	36182.34
529.41	36425.76
529.58	36294.69
529.75	36030.21
529.92	36446.82
530.09	36577.89
530.26	36751.09
530.43	36715.98
530.60	36261.92
530.77	36308.73
530.94	36350.86
531.11	36360.22
531.28	37048.34
531.46	36758.11
531.63	37074.09
531.80	36664.49
531.97	37392.40
532.14	37118.56
532.31	36720.66
532.48	36907.91
532.65	37303.46
532.82	37141.96
532.99	37118.56
533.16	37130.26
533.33	37425.17
533.50	38068.81
533.67	37251.97
533.84	37406.44
534.01	37900.29
534.18	37949.45
534.35	37921.36
534.52	37940.08
534.69	38270.10
534.86	38281.80
535.03	37766.88
535.20	38291.16
535.37	38185.84
535.54	38560.33
535.71	38169.46
535.88	38445.64
536.05	38445.64
536.22	38696.08
536.38	38258.40
536.55	38356.70
536.72	38511.17
536.89	38426.92
537.06	38761.61
537.23	38813.10
537.40	38632.88
537.57	38569.69
537.74	38593.09
537.91	38714.80
538.08	38862.26
538.25	38677.35
538.42	38326.27
538.59	39377.17
538.75	38653.95
538.92	39180.57
539.09	39267.17
539.26	39070.56
539.43	39405.26
539.60	39363.13
539.77	39248.44
539.94	39566.76
540.11	39372.49
540.28	39641.65
540.44	39606.55
540.61	39639.31
540.78	39604.20
540.95	39594.84
541.12	39833.58
541.29	39386.54
541.46	39906.13
541.62	39831.24
541.79	39775.06
541.96	39526.97
542.13	40149.55
542.30	40046.57
542.47	40011.46
542.63	40147.21
542.80	40264.24
542.97	40313.39
543.14	40634.04
543.31	40432.75
543.48	40659.79
543.64	40935.97
543.81	40577.87
543.98	40683.19
544.15	40418.71
544.32	40847.03
544.48	40959.38
544.65	40699.58
544.82	40978.10
544.99	40818.94
545.16	40727.66
545.32	40921.93
545.49	41539.83
545.66	41907.29
545.83	41064.70
546.00	41518.76
546.16	41148.96
546.33	40840.01
546.50	40910.22
546.67	41352.58
546.83	40580.21
547.00	41188.75
547.17	41457.91
547.34	41247.26
547.50	41504.72
547.67	41773.88
547.84	41394.71
548.00	41682.60
548.17	42237.31
548.34	41816.01
548.51	41853.46
548.67	41820.69
548.84	41593.66
549.01	41614.72
549.18	42164.75
549.34	42197.52
549.51	42162.41
549.68	42426.89
549.84	41965.81
550.01	42588.39
550.18	42220.92
550.34	42347.31
550.51	42342.63
550.68	42733.50
550.84	41855.80
551.01	42452.64
551.18	42106.24
551.34	42546.26
551.51	42656.26
551.68	42824.78
551.84	42642.22
552.01	42108.58
552.18	42101.56
552.34	41764.52
552.51	42588.39
552.68	42066.45
552.84	42473.70
553.01	42609.45
553.18	42754.57
553.34	43058.84
553.51	42895.00
553.67	42810.74
553.84	43117.35
554.01	42862.23
554.17	43075.22
554.34	43171.18
554.51	42983.94
554.67	43246.08
554.84	43519.92
555.00	42878.61
555.17	42637.54
555.33	43129.05
555.50	43131.39
555.67	43178.20
555.83	43374.81
556.00	43407.58
556.16	43758.66
556.33	43182.88
556.50	43372.47
556.66	43627.59
556.83	43381.83
556.99	43742.27
557.16	43550.35
557.32	43597.16
557.49	43484.81
557.65	43112.67
557.82	43672.06
557.98	43550.35
558.15	43985.69
558.32	43899.09
558.48	43517.58
558.65	43627.59
558.81	43845.26
558.98	43920.15
559.14	43655.67
559.31	43737.59
559.47	43665.03
559.64	43702.48
559.80	43753.97
559.97	43952.92
560.13	44149.53
560.30	43695.46
560.46	44205.70
560.63	44212.72
560.79	44692.53
560.96	44114.42
561.12	44126.12
561.29	44439.75
561.45	44273.57
561.61	44133.14
561.78	44392.94
561.94	44528.69
562.11	44238.47
562.27	44343.79
562.44	44247.83
562.60	44355.49
562.77	44605.93
562.93	44032.50
563.10	45177.02
563.26	44266.55
563.42	44648.06
563.59	44430.39
563.75	44587.21
563.92	44793.17
564.08	44428.05
564.24	44912.54
564.41	44561.46
564.57	44751.04
564.74	44575.50
564.90	44561.46
565.07	44921.90
565.23	44790.83
565.39	44680.83
565.56	44509.97
565.72	44711.25
565.88	44905.52
566.05	44669.12
566.21	44949.99
566.38	44854.03
566.54	44931.26
566.70	45160.64
566.87	44662.10
567.03	44741.68
567.19	44952.33
567.36	44891.48
567.52	44912.54
567.68	45123.19
567.85	45141.91
568.01	44968.71
568.17	44987.44
568.34	44982.76
568.50	45095.10
568.66	44673.81
568.83	44949.99
568.99	44982.76
569.15	45120.85
569.32	44830.62
569.48	45443.84
569.64	45347.88
569.81	45294.05
569.97	45013.18
570.13	45518.74
570.30	44554.44
570.46	45048.29
570.62	45076.38
570.78	45237.87
570.95	45235.53
571.11	45617.04
571.27	45244.90
571.43	45109.14
571.60	45155.96
571.76	45375.97
571.92	45354.90
572.09	44910.20
572.25	45434.48
572.41	44900.84
572.57	45352.56
572.74	45247.24
572.90	45364.26
573.06	45565.55
573.22	45448.52
573.38	45457.88
573.55	45408.73
573.71	45916.63
573.87	45757.47
574.03	45137.23
574.20	45577.25
574.36	45535.12
574.52	45565.55
574.68	45441.50
574.84	45851.09
575.01	45713.00
575.17	45675.55
575.33	45619.38
575.49	45212.13
575.65	45539.80
575.82	45766.84
575.98	45570.23
576.14	45806.62
576.30	46052.38
576.46	45607.68
576.62	45469.59
576.79	45539.80
576.95	45177.02
577.11	45668.53
577.27	45371.28
577.43	45797.26
577.59	45771.52
577.75	45200.43
577.92	45535.12
578.08	46089.83
578.24	45893.22
578.40	45954.08
578.56	45958.76
578.72	46010.25
578.88	45975.14
579.04	45633.42
579.21	45244.90
579.37	45556.19
579.53	45944.72
579.69	45598.32
579.85	45572.57
580.01	45961.10
580.17	45619.38
580.33	46237.28
580.49	45572.57
580.65	45773.86
580.82	45350.22
580.98	45483.63
581.14	45507.04
581.30	45830.03
581.46	45977.48
581.62	46045.36
581.78	45918.97
581.94	46178.77
582.10	45598.32
582.26	45584.27
582.42	45977.48
582.58	45848.75
582.74	45778.54
582.90	45617.04
583.06	45418.10
583.22	45427.46
583.38	45879.18
583.54	46089.83
583.70	46012.59
583.86	46148.34
584.02	45748.11
584.18	46040.68
584.34	45624.06
584.50	46286.43
584.66	46040.68
584.82	45940.04
584.98	46506.44
585.14	46436.23
585.30	45738.75
585.46	45923.65
585.62	45734.07
585.78	46017.27
585.94	45516.40
586.10	45595.98
586.26	45647.47
586.42	45928.33
586.58	46059.40
586.74	46164.73
586.90	45991.53
587.06	45757.47
587.22	46356.65
587.38	45954.08
587.54	46146.00
587.70	46188.13
587.86	45989.19
588.02	45808.96
588.18	45879.18
588.34	46199.83
588.49	46225.58
588.65	45769.18
588.81	46431.55
588.97	46057.06
589.13	45811.31
589.29	46258.35
589.45	46237.28
589.61	46246.65
589.77	45986.85
589.93	46323.88
590.08	46696.03
