SpectraSuite Data File
++++++++++++++++++++++++++++++++++++
Date: Fri Oct 25 11:25:07 EDT 2013
User: price-jones
Dark Spectrum Present: No
Reference Spectrum Present: No
Number of Sampled Component Spectra: 1
Spectrometers: USB2+H05261
Integration Time (usec): 100000 (USB2+H05261)
Spectra Averaged: 1 (USB2+H05261)
Boxcar Smoothing: 0 (USB2+H05261)
Correct for Electrical Dark: No (USB2+H05261)
Strobe/Lamp Enabled: No (USB2+H05261)
Correct for Detector Non-linearity: No (USB2+H05261)
Correct for Stray Light: No (USB2+H05261)
Number of Pixels in Processed Spectrum: 2048
>>>>>Begin Processed Spectral Data<<<<<
365.73	194.26
365.92	194.26
366.12	194.26
366.32	95.96
366.52	107.66
366.72	168.52
366.91	210.65
367.11	191.92
367.31	117.03
367.51	170.86
367.70	142.77
367.90	145.11
368.10	79.58
368.30	105.32
368.49	72.56
368.69	161.50
368.89	159.16
369.09	180.22
369.28	227.03
369.48	126.39
369.68	152.13
369.87	271.50
370.07	220.01
370.27	243.42
370.47	297.25
370.66	552.37
370.86	585.13
371.06	657.69
371.25	716.20
371.45	627.26
371.65	716.20
371.84	638.97
372.04	636.63
372.24	755.99
372.44	676.41
372.63	774.72
372.83	732.59
373.03	760.67
373.22	732.59
373.42	744.29
373.62	739.61
373.81	765.36
374.01	800.46
374.21	741.95
374.40	798.12
374.60	880.04
374.79	821.53
374.99	812.17
375.19	833.23
375.38	805.14
375.58	856.64
375.78	873.02
375.97	894.08
376.17	866.00
376.37	908.13
376.56	809.83
376.76	929.19
376.95	830.89
377.15	884.72
377.35	910.47
377.54	870.68
377.74	1020.47
377.93	915.15
378.13	807.48
378.33	844.93
378.52	903.45
378.72	915.15
378.91	922.17
379.11	903.45
379.31	945.58
379.50	947.92
379.70	945.58
379.89	1025.15
380.09	940.90
380.28	1036.86
380.48	1043.88
380.68	959.62
380.87	1004.09
381.07	1025.15
381.26	961.96
381.46	1029.84
381.65	1011.11
381.85	961.96
382.04	1032.18
382.24	1116.44
382.43	1036.86
382.63	1057.92
382.83	1128.14
383.02	1071.97
383.22	1086.01
383.41	1153.88
383.61	1125.80
383.80	1146.86
384.00	1128.14
384.19	1217.08
384.39	1090.69
384.58	1139.84
384.78	1121.12
384.97	1090.69
385.17	1186.65
385.36	1198.35
385.56	1184.31
385.75	1163.25
385.95	1163.25
386.14	1273.25
386.34	1184.31
386.53	1186.65
386.72	1343.47
386.92	1221.76
387.11	1252.19
387.31	1263.89
387.50	1277.93
387.70	1322.40
387.89	1268.57
388.09	1240.48
388.28	1181.97
388.48	1240.48
388.67	1282.61
388.86	1343.47
389.06	1313.04
389.25	1404.32
389.45	1224.10
389.64	1277.93
389.84	1303.68
390.03	1406.66
390.22	1397.30
390.42	1390.28
390.61	1362.19
390.81	1357.51
391.00	1352.83
391.19	1504.96
391.39	1404.32
391.58	1423.05
391.78	1373.89
391.97	1472.20
392.16	1493.26
392.36	1551.78
392.55	1446.45
392.75	1434.75
392.94	1474.54
393.13	1551.78
393.33	1373.89
393.52	1563.48
393.71	1640.72
393.91	1710.93
394.10	1570.50
394.29	1514.33
394.49	1533.05
394.68	1572.84
394.88	1652.42
395.07	1675.82
395.26	1659.44
395.46	1621.99
395.65	1685.19
395.84	1722.63
396.04	1722.63
396.23	1708.59
396.42	1603.27
396.62	1802.21
396.81	1762.42
397.00	1881.79
397.19	1790.51
397.39	1785.83
397.58	1851.36
397.77	1856.04
397.97	1820.94
398.16	1872.43
398.35	1933.28
398.55	1895.83
398.74	1837.32
398.93	1984.77
399.12	1856.04
399.32	1877.11
399.51	1980.09
399.70	2019.88
399.90	1891.15
400.09	1914.56
400.28	2115.84
400.47	2026.90
400.67	2085.42
400.86	2054.99
401.05	2026.90
401.24	1961.37
401.44	2076.06
401.63	2235.21
401.82	2094.78
402.01	2141.59
402.21	2062.01
402.40	2108.82
402.59	2204.78
402.78	2260.96
402.97	2305.43
403.17	2214.15
403.36	2169.68
403.55	2200.10
403.74	2282.02
403.93	2370.96
404.13	2305.43
404.32	2340.54
404.51	2265.64
404.70	2387.35
404.89	2401.39
405.09	2431.82
405.28	2448.20
405.47	2415.43
405.66	2466.92
405.85	2516.08
406.05	2424.80
406.24	2558.21
406.43	2471.61
406.62	2668.21
406.81	2626.08
407.00	2616.72
407.20	2539.48
407.39	2633.10
407.58	2647.15
407.77	2712.68
407.96	2686.94
408.15	2759.49
408.34	2764.17
408.54	2738.43
408.73	2785.24
408.92	2801.62
409.11	2799.28
409.30	2843.75
409.49	2822.69
409.68	2829.71
409.87	2876.52
410.07	3068.44
410.26	3075.46
410.45	2911.63
410.64	3014.61
410.83	3035.67
411.02	3133.98
411.21	3141.00
411.40	2995.89
411.59	3229.94
411.78	3063.76
411.98	3157.38
412.17	3215.90
412.36	3279.09
412.55	3300.16
412.74	3255.69
412.93	3316.54
413.12	3290.79
413.31	3492.08
413.50	3440.59
413.69	3524.85
413.88	3454.63
414.07	3719.11
414.26	3674.64
414.45	3700.39
414.64	3627.83
414.83	3749.54
415.02	3599.74
415.22	3786.99
415.41	3723.79
415.60	3854.86
415.79	3850.18
415.98	3761.24
416.17	3887.63
416.36	3922.74
416.55	3929.76
416.74	4114.66
416.93	3995.29
417.12	3962.53
417.31	4229.35
417.50	4056.15
417.69	4259.78
417.88	4205.94
418.07	4365.10
418.26	4215.30
418.45	4379.14
418.64	4276.16
418.83	4365.10
419.02	4301.90
419.21	4468.08
419.39	4540.64
419.58	4444.68
419.77	4542.98
419.96	4582.77
420.15	4489.15
420.34	4599.15
420.53	4664.69
420.72	4627.24
420.91	4627.24
421.10	4650.64
421.29	4896.40
421.48	4737.24
421.67	4669.37
421.86	4631.92
422.05	4648.30
422.24	4812.14
422.43	4873.00
422.61	4840.23
422.80	4957.25
422.99	4812.14
423.18	4851.93
423.37	4908.10
423.56	4849.59
423.75	4800.44
423.94	4856.61
424.13	4648.30
424.32	4683.41
424.50	4954.91
424.69	5090.67
424.88	5125.77
425.07	4936.19
425.26	5088.32
425.45	4917.47
425.64	4990.02
425.83	4882.36
426.01	5032.15
426.20	5071.94
426.39	4994.70
426.58	5008.75
426.77	4847.25
426.96	4971.30
427.15	5123.43
427.33	5132.79
427.52	5011.09
427.71	5212.37
427.90	5118.75
428.09	5362.17
428.28	5383.23
428.46	5188.97
428.65	5277.91
428.84	5558.77
429.03	5355.15
429.22	5163.22
429.40	5523.66
429.59	5561.11
429.78	5198.33
429.97	5303.65
430.16	5338.76
430.34	5650.05
430.53	5696.86
430.72	5701.54
430.91	5694.52
431.10	5577.50
431.28	5640.69
431.47	5762.40
431.66	5795.17
431.85	5762.40
432.03	5926.24
432.22	5867.72
432.41	5760.06
432.60	5900.49
432.79	5837.30
432.97	5966.03
433.16	5982.41
433.35	5820.91
433.54	6026.88
433.72	5963.68
433.91	6008.16
434.10	6340.51
434.28	6125.18
434.47	6246.89
434.66	6162.63
434.85	6155.61
435.03	6293.70
435.22	6118.16
435.41	6331.15
435.59	6382.64
435.78	6314.77
435.97	6380.30
436.16	6310.08
436.34	6347.53
436.53	6473.92
436.72	6406.05
436.90	6277.32
437.09	6438.81
437.28	6380.30
437.46	6527.75
437.65	6597.97
437.84	6724.36
438.02	6691.59
438.21	6794.58
438.40	6588.61
438.58	6759.47
438.77	7054.37
438.96	7002.88
439.14	7066.08
439.33	7026.29
439.52	7370.35
439.70	7302.47
439.89	7332.90
440.08	7410.14
440.26	7365.67
440.45	7297.79
440.63	7454.61
440.82	7639.51
441.01	7463.97
441.19	7550.57
441.38	7613.76
441.57	7433.54
441.75	7625.47
441.94	8016.33
442.12	7913.35
442.31	7840.79
442.50	8013.99
442.68	7983.57
442.87	7885.26
443.05	7995.27
443.24	8063.15
443.43	8238.69
443.61	8032.72
443.80	8372.10
443.98	8013.99
444.17	7819.73
444.35	8184.85
444.54	8351.03
444.73	8273.79
444.91	8334.65
445.10	8051.44
445.28	8219.96
445.47	7962.50
445.65	8262.09
445.84	8498.49
446.02	8376.78
446.21	8423.59
446.39	8402.52
446.58	8336.99
446.77	8507.85
446.95	8353.37
447.14	8334.65
447.32	8505.51
447.51	8444.65
447.69	8329.97
447.88	8425.93
448.06	8454.02
448.25	8461.04
448.43	8442.31
448.62	8493.80
448.80	8383.80
448.99	8601.47
449.17	8617.85
449.36	8622.53
449.54	8933.82
449.73	8842.54
449.91	9069.58
450.10	8819.14
450.28	9062.55
450.46	9048.51
450.65	9102.34
450.83	9074.26
451.02	9041.49
451.20	9273.20
451.39	8954.89
451.57	8868.29
451.76	9277.88
451.94	9135.11
452.13	9238.09
452.31	9221.71
452.49	9156.18
452.68	9235.75
452.86	9268.52
453.05	9338.74
453.23	9460.45
453.42	9259.16
453.60	9273.20
453.78	9638.33
453.97	9535.34
454.15	9420.66
454.34	9359.80
454.52	9806.84
454.70	9706.20
454.89	9703.86
455.07	9708.54
455.26	9731.95
455.44	9764.72
455.62	9905.15
455.81	9792.80
455.99	9832.59
456.17	9987.07
456.36	10017.49
456.54	10242.18
456.73	10270.27
456.91	10466.88
457.09	10469.22
457.28	10417.72
457.46	10279.63
457.64	10434.11
457.83	10668.16
458.01	10473.90
458.19	10530.07
458.38	10377.94
458.56	10665.82
458.74	10649.44
458.93	10623.69
459.11	10752.42
459.29	10726.68
459.48	10820.30
459.66	10967.75
459.84	10977.11
460.03	10857.75
460.21	10995.84
460.39	11143.29
460.57	10752.42
460.76	10911.58
460.94	11206.48
461.12	11110.52
461.31	11215.85
461.49	11234.57
461.67	11056.69
461.85	11159.67
462.04	11375.00
462.22	11676.93
462.40	11695.66
462.59	11248.61
462.77	11318.83
462.95	11290.74
463.13	11531.82
463.32	11531.82
463.50	11440.54
463.68	11690.98
463.86	11803.32
464.05	11555.22
464.23	11555.22
464.41	11768.21
464.59	11515.44
464.78	12095.89
464.96	11852.47
465.14	11829.07
465.32	12175.47
465.50	11910.99
465.69	12187.17
465.87	12020.99
466.05	12093.55
466.23	12074.82
466.41	11939.07
466.60	12521.87
466.78	12037.38
466.96	12248.02
467.14	12187.17
467.32	12187.17
467.51	12351.01
467.69	11969.50
467.87	12456.33
468.05	12603.78
468.23	12360.37
468.41	12746.56
468.60	12507.82
468.78	12643.57
468.96	12290.15
469.14	12528.89
469.32	12854.22
469.50	12795.71
469.69	12636.55
469.87	13252.11
470.05	12861.24
470.23	13092.96
470.41	12973.59
470.59	13205.30
470.77	13149.13
470.95	13048.49
471.14	13561.06
471.32	13111.68
471.50	13399.57
471.68	13425.31
471.86	13434.68
472.04	13619.58
472.22	13832.57
472.40	13666.39
472.58	13661.71
472.77	13872.36
472.95	14097.05
473.13	14314.72
473.31	13926.19
473.49	13921.51
473.67	14059.60
473.85	13982.36
474.03	14600.26
474.21	14588.56
474.39	14424.72
474.57	14541.75
474.75	14876.44
474.93	14941.98
475.12	14876.44
475.30	15115.18
475.48	14733.67
475.66	14998.15
475.84	14965.39
476.02	15440.51
476.20	15063.69
476.38	15552.86
476.56	15548.18
476.74	15800.96
476.92	15789.25
477.10	15728.40
477.28	16325.24
477.46	16126.29
477.64	16374.39
477.82	16414.18
478.00	17092.93
478.18	16713.77
478.36	16631.85
478.54	16858.88
478.72	17188.89
478.90	17486.14
479.08	17348.05
479.26	17397.20
479.44	17605.51
479.62	17619.55
479.80	17944.89
479.98	17951.91
480.16	18373.21
480.34	18155.54
480.52	18572.15
480.70	18427.04
480.88	18075.96
481.06	18628.32
481.24	18724.29
481.41	18796.84
481.59	19407.72
481.77	19604.33
481.95	19644.12
482.13	19751.78
482.31	19770.51
482.49	20109.88
482.67	19927.32
482.85	20554.58
483.03	20692.68
483.21	20795.66
483.39	21025.03
483.57	20601.40
483.74	21191.21
483.92	21228.66
484.10	21380.79
484.28	21476.76
484.46	22050.19
484.64	22157.85
484.82	21490.80
485.00	22307.65
485.18	22773.41
485.35	22714.90
485.53	22728.94
485.71	23433.44
485.89	23470.89
486.07	22995.76
486.25	23660.48
486.43	23405.36
486.61	23852.40
486.78	23599.62
486.96	24144.97
487.14	24542.86
487.32	24287.74
487.50	24840.11
487.68	24769.89
487.85	25046.07
488.03	25624.18
488.21	25727.17
488.39	25563.33
488.57	25860.58
488.75	25853.56
488.92	26375.50
489.10	26345.07
489.28	26953.61
489.46	26991.06
489.64	26754.66
489.81	27665.13
489.99	27257.88
490.17	27445.12
490.35	27749.39
490.53	27857.06
490.70	28278.35
490.88	27915.57
491.06	28683.27
491.24	28526.45
491.41	28790.93
491.59	28940.72
491.77	28800.29
491.95	29413.51
492.13	29617.14
492.30	30022.05
492.48	30057.16
492.66	30094.61
492.84	30382.49
493.01	30820.17
493.19	30600.16
493.37	30766.34
493.54	31063.59
493.72	31566.81
493.90	31204.02
494.08	31358.50
494.25	32107.47
494.43	32030.23
494.61	32133.21
494.79	32259.60
494.96	32226.84
495.14	32664.52
495.32	32767.50
495.49	33628.82
495.67	33193.48
495.85	33132.62
496.02	33755.21
496.20	33717.76
496.38	33923.72
496.55	34000.96
496.73	34785.04
496.91	34845.90
497.09	34307.57
497.26	34724.19
497.44	34443.32
497.62	35115.06
497.79	35641.68
497.97	35288.26
498.14	35585.50
498.32	35887.43
498.50	35880.41
498.67	36275.96
498.85	36444.48
499.03	36598.96
499.20	36854.08
499.38	36678.54
499.56	36727.69
499.73	37535.17
499.91	37123.24
500.08	37530.49
500.26	37099.83
500.44	37139.62
500.61	37532.83
500.79	37614.75
500.97	37993.92
501.14	38403.51
501.32	38265.42
501.49	38213.93
501.67	38483.09
501.84	38792.04
502.02	38616.50
502.20	38663.31
502.37	38794.38
502.55	39218.02
502.72	39136.10
502.90	39538.67
503.07	38962.90
503.25	39543.35
503.43	39435.69
503.60	39681.44
503.78	39920.18
503.95	40039.54
504.13	40259.55
504.30	40605.95
504.48	40332.11
504.65	40481.91
504.83	41319.82
505.01	41273.01
505.18	40919.59
505.36	41308.11
505.53	40870.43
505.71	41092.79
505.88	41500.04
506.06	41448.55
506.23	42021.98
506.41	41165.34
506.58	42162.41
506.76	41947.08
506.93	42040.70
507.11	42644.56
507.28	42284.12
507.46	42209.22
507.63	42682.01
507.81	43002.66
507.98	42885.64
508.16	42756.91
508.33	43601.84
508.50	42960.53
508.68	43407.58
508.85	43669.72
509.03	43576.09
509.20	43594.82
509.38	43756.32
509.55	44020.80
509.73	43950.58
509.90	44652.74
510.08	44428.05
510.25	44507.63
510.42	44217.40
510.60	44844.66
510.77	44935.95
510.95	44933.60
511.12	44837.64
511.30	44886.79
511.47	45567.89
511.64	45507.04
511.82	45448.52
511.99	45560.87
512.17	45518.74
512.34	45605.34
512.51	46256.01
512.69	46167.07
512.86	46183.45
513.04	46333.24
513.21	46646.88
513.38	46705.39
513.56	46576.66
513.73	46424.53
513.90	46639.86
514.08	46740.50
514.25	47143.07
514.43	47395.85
514.60	47379.46
514.77	47227.33
514.95	47585.43
515.12	47281.16
515.29	47136.05
515.47	47253.08
515.64	47440.32
515.81	47784.38
515.99	48039.50
516.16	47978.64
516.33	48051.20
516.51	48648.03
516.68	48311.00
516.85	48479.52
517.03	48561.44
517.20	48371.85
517.37	48495.90
517.54	48531.01
517.72	48783.79
517.89	48655.06
518.06	49258.91
518.24	49097.42
518.41	48858.68
518.58	49324.45
518.75	49109.12
518.93	49270.62
519.10	49308.07
519.27	49139.55
519.45	49308.07
519.62	49764.47
519.79	49743.41
519.96	49865.11
520.14	50178.75
520.31	50127.25
520.48	50300.45
520.65	49947.03
520.83	50504.08
521.00	50377.69
521.17	50513.44
521.34	50483.01
521.52	50749.84
521.69	50869.20
521.86	50548.55
522.03	51040.06
522.20	51129.00
522.38	51171.13
522.55	51154.75
522.72	51131.34
522.89	51297.52
523.07	51594.77
523.24	51341.99
523.41	51290.50
523.58	51395.82
523.75	51578.39
523.92	51725.84
524.10	51758.61
524.27	51758.61
524.44	52161.18
524.61	51870.95
524.78	51842.87
524.96	51920.10
525.13	52278.21
525.30	52140.11
525.47	52418.64
525.64	51969.26
525.81	52252.46
525.98	52608.22
526.16	52470.13
526.33	52516.94
526.50	52877.38
526.67	52477.15
526.84	52741.63
527.01	52416.30
527.18	52643.33
527.36	52652.69
527.53	52830.57
527.70	53146.54
527.87	53359.53
528.04	53003.77
528.21	53169.95
528.38	52896.11
528.55	53375.92
528.72	53045.90
528.89	53200.38
529.07	53001.43
529.24	52996.75
529.41	53757.42
529.58	53249.53
529.75	53418.05
529.92	53722.32
530.09	53848.71
530.26	53815.94
530.43	53745.72
530.60	53635.72
530.77	53794.87
530.94	53581.88
531.11	53984.46
531.28	54075.74
531.46	54092.12
531.63	53851.05
531.80	54040.63
531.97	54082.76
532.14	54433.84
532.31	54160.00
532.48	54337.88
532.65	54529.80
532.82	54141.27
532.99	54490.01
533.16	54581.29
533.33	54740.45
533.50	54761.51
533.67	54796.62
533.84	54714.70
534.01	54710.02
534.18	54775.56
534.35	55042.38
534.52	54787.26
534.69	55220.26
534.86	54981.52
535.03	55089.19
535.20	55161.75
535.37	55000.25
535.54	55306.86
535.71	55171.11
535.88	55264.73
536.05	55388.78
536.22	55054.08
536.38	55540.91
536.55	55388.78
536.72	55519.85
536.89	55353.67
537.06	55643.90
537.23	55573.68
537.40	55086.85
537.57	55491.76
537.74	55655.60
537.91	55994.98
538.08	55908.38
538.25	55629.85
538.42	55756.24
538.59	56081.58
538.75	55763.26
538.92	55814.76
539.09	56060.51
539.26	55894.33
539.43	55861.57
539.60	56088.60
539.77	56006.68
539.94	56383.51
540.11	56268.82
540.28	56121.37
540.44	56589.47
540.61	56355.42
540.78	56231.37
540.95	56509.89
541.12	56247.75
541.29	56018.38
541.46	56427.98
541.62	56285.20
541.79	56626.92
541.96	56245.41
542.13	56502.87
542.30	56568.41
542.47	56795.44
542.63	56673.73
542.80	56542.66
542.97	56779.06
543.14	56973.32
543.31	56762.67
543.48	57144.18
543.64	57434.41
543.81	57284.61
543.98	57293.97
544.15	57050.56
544.32	57223.76
544.48	57378.23
544.65	57172.27
544.82	57195.67
544.99	57097.37
545.16	57272.91
545.32	57293.97
545.49	57539.73
545.66	57509.30
545.83	57567.82
546.00	57612.29
546.16	57394.62
546.33	57284.61
546.50	57387.60
546.67	57497.60
546.83	57261.21
547.00	57605.26
547.17	57673.14
547.34	57516.32
547.50	57745.70
547.67	57949.32
547.84	57755.06
548.00	57715.27
548.17	58216.14
548.34	57963.37
548.51	57937.62
548.67	58108.48
548.84	58054.65
549.01	58080.39
549.18	57942.30
549.34	58213.80
549.51	58216.14
549.68	58071.03
549.84	58169.33
550.01	58335.51
550.18	58148.27
550.34	58305.09
550.51	58298.06
550.68	58082.73
550.84	58099.12
551.01	58403.39
551.18	58489.99
551.34	58501.69
551.51	58363.60
551.68	58454.88
551.84	58384.66
552.01	58192.74
552.18	58560.20
552.34	58401.05
552.51	58548.50
552.68	58265.30
552.84	58499.35
553.01	58688.93
553.18	58700.64
553.34	58820.00
553.51	58504.03
553.67	58824.68
553.84	58754.47
554.01	58925.33
554.17	58862.13
554.34	58817.66
554.51	58604.67
554.67	58948.73
554.84	58674.89
555.00	58897.24
555.17	58932.35
555.33	58808.30
555.50	58841.07
555.67	58656.17
555.83	58777.87
556.00	59084.48
556.16	59262.36
556.33	59030.65
556.50	59159.38
556.66	59274.07
556.83	58988.52
556.99	59164.06
557.16	59316.20
557.32	59398.12
557.49	59461.31
557.65	59227.26
557.82	59426.20
557.98	59435.56
558.15	59353.65
558.32	59491.74
558.48	59201.51
558.65	59234.28
558.81	59220.23
558.98	59297.47
559.14	59346.62
559.31	59529.19
559.47	59529.19
559.64	59725.79
559.80	59564.29
559.97	59550.25
560.13	59416.84
560.30	59461.31
560.46	59721.11
560.63	59662.60
560.79	59756.22
560.96	59618.13
561.12	59604.08
561.29	59681.32
561.45	59821.75
561.61	59803.03
561.78	59760.90
561.94	59671.96
562.11	59545.57
562.27	59756.22
562.44	59922.40
562.60	59920.05
562.77	59887.29
562.93	59671.96
563.10	59910.69
563.26	59812.39
563.42	59973.89
563.59	59924.74
563.75	59728.13
563.92	59791.33
564.08	59868.56
564.24	60296.88
564.41	60104.96
564.57	59901.33
564.74	59936.44
564.90	59976.23
565.07	60020.70
565.23	59910.69
565.39	59882.61
565.56	60247.73
565.72	60126.02
565.88	59913.03
566.05	60046.44
566.21	60053.47
566.38	60088.57
566.54	60207.94
566.70	60191.56
566.87	60285.18
567.03	59966.87
567.19	60273.48
567.36	60088.57
567.52	60140.07
567.68	60395.18
567.85	60236.03
568.01	60282.84
568.17	60451.36
568.34	60306.24
568.50	60037.08
568.66	60088.57
568.83	60367.10
568.99	60292.20
569.15	60226.66
569.32	60149.43
569.48	60308.58
569.64	60350.71
569.81	60296.88
569.97	60245.39
570.13	60198.58
570.30	60149.43
570.46	60369.44
570.62	60374.12
570.78	60437.31
570.95	60439.65
571.11	60528.59
571.27	60313.26
571.43	60430.29
571.60	60430.29
571.76	60388.16
571.92	60505.19
572.09	60420.93
572.25	60568.38
572.41	60552.00
572.57	60397.52
572.74	60556.68
572.90	60540.30
573.06	60472.42
573.22	60350.71
573.38	60404.55
573.55	60563.70
573.71	60676.05
573.87	60357.74
574.03	60484.12
574.20	60638.60
574.36	60610.51
574.52	60542.64
574.68	60685.41
574.84	60673.71
575.01	60683.07
575.17	60383.48
575.33	60615.19
575.49	60533.28
575.65	60619.88
575.82	60776.69
575.98	60594.13
576.14	60772.01
576.30	60760.31
576.46	60519.23
576.62	60540.30
576.79	60706.47
576.95	60409.23
577.11	60608.17
577.27	60713.50
577.43	60697.11
577.59	60729.88
577.75	60650.30
577.92	60547.32
578.08	60608.17
578.24	60622.22
578.40	60839.89
578.56	60619.88
578.72	60760.31
578.88	60804.78
579.04	61001.38
579.21	60612.85
579.37	60994.36
579.53	60898.40
579.69	60573.06
579.85	60720.52
580.01	60760.31
580.17	60612.85
580.33	60697.11
580.49	60793.07
580.65	60662.00
580.82	60715.84
580.98	60743.92
581.14	60587.11
581.30	60919.46
581.46	60757.97
581.62	60626.90
581.78	60755.63
581.94	60757.97
582.10	60521.57
582.26	60872.65
582.42	60748.60
582.58	60935.85
582.74	60704.13
582.90	60718.18
583.06	60783.71
583.22	60561.36
583.38	60877.33
583.54	60746.26
583.70	60790.73
583.86	60903.08
584.02	60797.76
584.18	61043.51
584.34	60849.25
584.50	60781.37
584.66	60741.58
584.82	60650.30
584.98	60994.36
585.14	60872.65
585.30	60779.03
585.46	60874.99
585.62	60924.14
585.78	60891.38
585.94	60835.20
586.10	60975.64
586.26	60743.92
586.42	60914.78
586.58	60975.64
586.74	61057.56
586.90	60903.08
587.06	60954.57
587.22	61024.79
587.38	60907.76
587.54	61167.56
587.70	61111.39
587.86	61153.52
588.02	60762.65
588.18	61095.00
588.34	60940.53
588.49	60914.78
