SpectraSuite Data File
++++++++++++++++++++++++++++++++++++
Date: Fri Oct 25 11:33:38 EDT 2013
User: price-jones
Dark Spectrum Present: No
Reference Spectrum Present: No
Number of Sampled Component Spectra: 1
Spectrometers: USB2+H05261
Integration Time (usec): 100000 (USB2+H05261)
Spectra Averaged: 1 (USB2+H05261)
Boxcar Smoothing: 0 (USB2+H05261)
Correct for Electrical Dark: No (USB2+H05261)
Strobe/Lamp Enabled: No (USB2+H05261)
Correct for Detector Non-linearity: No (USB2+H05261)
Correct for Stray Light: No (USB2+H05261)
Number of Pixels in Processed Spectrum: 2048
>>>>>Begin Processed Spectral Data<<<<<
365.73	266.82
365.92	266.82
366.12	266.82
366.32	152.13
366.52	175.54
366.72	187.24
366.91	149.79
367.11	124.05
367.31	110.01
367.51	217.67
367.70	152.13
367.90	290.23
368.10	194.26
368.30	198.95
368.49	191.92
368.69	208.31
368.89	102.98
369.09	154.48
369.28	229.37
369.48	236.39
369.68	180.22
369.87	224.69
370.07	285.55
370.27	252.78
370.47	330.02
370.66	468.11
370.86	498.53
371.06	596.84
371.25	627.26
371.45	484.49
371.65	592.16
371.84	582.79
372.04	601.52
372.24	585.13
372.44	561.73
372.63	603.86
372.83	550.03
373.03	564.07
373.22	671.73
373.42	620.24
373.62	566.41
373.81	676.41
374.01	606.20
374.21	667.05
374.40	603.86
374.60	667.05
374.79	613.22
374.99	613.22
375.19	683.44
375.38	695.14
375.58	664.71
375.78	688.12
375.97	734.93
376.17	676.41
376.37	697.48
376.56	638.97
376.76	704.50
376.95	648.33
377.15	688.12
377.35	653.01
377.54	753.65
377.74	727.91
377.93	704.50
378.13	692.80
378.33	697.48
378.52	697.48
378.72	716.20
378.91	763.01
379.11	648.33
379.31	725.57
379.50	774.72
379.70	734.93
379.89	833.23
380.09	667.05
380.28	713.86
380.48	725.57
380.68	751.31
380.87	704.50
381.07	716.20
381.26	763.01
381.46	748.97
381.65	727.91
381.85	739.61
382.04	741.95
382.24	713.86
382.43	802.80
382.63	723.23
382.83	828.55
383.02	842.59
383.22	800.46
383.41	870.68
383.61	746.63
383.80	746.63
384.00	777.06
384.19	830.89
384.39	760.67
384.58	842.59
384.78	856.64
384.97	828.55
385.17	866.00
385.36	791.10
385.56	774.72
385.75	851.96
385.95	821.53
386.14	947.92
386.34	877.70
386.53	954.94
386.72	943.24
386.92	854.30
387.11	887.06
387.31	917.49
387.50	826.21
387.70	847.27
387.89	866.00
388.09	830.89
388.28	961.96
388.48	1011.11
388.67	966.64
388.86	922.17
389.06	887.06
389.25	903.45
389.45	894.08
389.64	931.53
389.84	978.34
390.03	973.66
390.22	978.34
390.42	957.28
390.61	964.30
390.81	968.98
391.00	950.26
391.19	1055.58
391.39	997.07
391.58	1008.77
391.78	1043.88
391.97	1001.75
392.16	961.96
392.36	1074.31
392.55	1041.54
392.75	1088.35
392.94	1093.03
393.13	1074.31
393.33	976.00
393.52	1114.10
393.71	1064.94
393.91	1170.27
394.10	1156.22
394.29	1128.14
394.49	1064.94
394.68	1083.67
394.88	1057.92
395.07	1158.57
395.26	1174.95
395.46	1210.06
395.65	1170.27
395.84	1233.46
396.04	1263.89
396.23	1214.74
396.42	1188.99
396.62	1217.08
396.81	1188.99
397.00	1165.59
397.19	1177.29
397.39	1219.42
397.58	1282.61
397.77	1270.91
397.97	1296.66
398.16	1268.57
398.35	1317.72
398.55	1259.21
398.74	1287.29
398.93	1329.42
399.12	1299.00
399.32	1329.42
399.51	1301.34
399.70	1376.24
399.90	1268.57
400.09	1387.94
400.28	1446.45
400.47	1350.49
400.67	1441.77
400.86	1425.39
401.05	1416.02
401.24	1495.60
401.44	1420.71
401.63	1437.09
401.82	1404.32
402.01	1504.96
402.21	1453.47
402.40	1430.07
402.59	1467.52
402.78	1455.81
402.97	1493.26
403.17	1542.41
403.36	1474.54
403.55	1537.73
403.74	1542.41
403.93	1575.18
404.13	1603.27
404.32	1638.38
404.51	1631.35
404.70	1643.06
404.89	1511.99
405.09	1706.25
405.28	1717.95
405.47	1713.27
405.66	1741.36
405.85	1802.21
406.05	1617.31
406.24	1767.10
406.43	1783.49
406.62	1757.74
406.81	1809.23
407.00	1788.17
407.20	1776.47
407.39	1846.68
407.58	1879.45
407.77	1891.15
407.96	1888.81
408.15	1881.79
408.34	1881.79
408.54	1891.15
408.73	1905.20
408.92	1952.01
409.11	1888.81
409.30	1930.94
409.49	1980.09
409.68	1975.41
409.87	2003.50
410.07	2148.61
410.26	2019.88
410.45	1982.43
410.64	2167.34
410.83	2136.91
411.02	2146.27
411.21	2120.53
411.40	2139.25
411.59	2125.21
411.78	2108.82
411.98	2167.34
412.17	2258.62
412.36	2207.13
412.55	2399.05
412.74	2392.03
412.93	2363.94
413.12	2256.28
413.31	2480.97
413.50	2361.60
413.69	2394.37
413.88	2422.45
414.07	2462.24
414.26	2485.65
414.45	2597.99
414.64	2431.82
414.83	2530.12
415.02	2642.46
415.22	2579.27
415.41	2719.70
415.60	2583.95
415.79	2768.85
415.98	2773.53
416.17	2743.11
416.36	2684.59
416.55	2651.83
416.74	2843.75
416.93	2693.96
417.12	2759.49
417.31	2888.22
417.50	2754.81
417.69	2963.12
417.88	2925.67
418.07	2932.69
418.26	2956.10
418.45	2925.67
418.64	3138.66
418.83	3185.47
419.02	3042.70
419.21	3040.36
419.39	3021.63
419.58	3075.46
419.77	3084.83
419.96	3124.62
420.15	3049.72
420.34	3162.06
420.53	3295.47
420.72	3229.94
420.91	3171.43
421.10	3269.73
421.29	3361.01
421.48	3304.84
421.67	3300.16
421.86	3363.35
422.05	3424.20
422.24	3279.09
422.43	3351.65
422.61	3372.71
422.80	3386.76
422.99	3487.40
423.18	3459.31
423.37	3382.07
423.56	3384.41
423.75	3501.44
423.94	3349.31
424.13	3253.34
424.32	3255.69
424.50	3468.67
424.69	3487.40
424.88	3478.04
425.07	3496.76
425.26	3269.73
425.45	3520.17
425.64	3405.48
425.83	3393.78
426.01	3445.27
426.20	3522.51
426.39	3485.06
426.58	3478.04
426.77	3555.27
426.96	3538.89
427.15	3524.85
427.33	3569.32
427.52	3599.74
427.71	3449.95
427.90	3559.95
428.09	3576.34
428.28	3775.28
428.46	3801.03
428.65	3756.56
428.84	3754.22
429.03	3826.78
429.22	3723.79
429.40	3829.12
429.59	3721.45
429.78	3735.50
429.97	3576.34
430.16	3836.14
430.34	3911.04
430.53	3875.93
430.72	3824.44
430.91	4056.15
431.10	3838.48
431.28	3969.55
431.47	3967.21
431.66	4032.74
431.85	3962.53
432.03	4140.41
432.22	4079.55
432.41	3962.53
432.60	4039.76
432.79	4072.53
432.97	4128.70
433.16	4093.60
433.35	4182.54
433.54	4203.60
433.72	4243.39
433.91	4112.32
434.10	4259.78
434.28	4128.70
434.47	4290.20
434.66	4276.16
434.85	4252.75
435.03	4329.99
435.22	4390.84
435.41	4447.02
435.59	4400.21
435.78	4376.80
435.97	4318.29
436.16	4372.12
436.34	4346.37
436.53	4250.41
436.72	4624.90
436.90	4327.65
437.09	4655.33
437.28	4421.27
437.46	4564.04
437.65	4599.15
437.84	4624.90
438.02	4571.07
438.21	4652.98
438.40	4582.77
438.58	4681.07
438.77	4784.06
438.96	4851.93
439.14	4917.47
439.33	4833.21
439.52	4926.83
439.70	4933.85
439.89	5055.56
440.08	4975.98
440.26	5076.62
440.45	5039.17
440.63	4957.25
440.82	5212.37
441.01	5041.51
441.19	5280.25
441.38	5291.95
441.57	5376.21
441.75	5252.16
441.94	5418.34
442.12	5518.98
442.31	5315.36
442.50	5479.19
442.68	5364.51
442.87	5394.93
443.05	5472.17
443.24	5631.33
443.43	5607.92
443.61	5556.43
443.80	5856.02
443.98	5544.73
444.17	5195.99
444.35	5530.69
444.54	5699.20
444.73	5561.11
444.91	5650.05
445.10	5589.20
445.28	5673.46
445.47	5495.58
445.65	5528.35
445.84	5760.06
446.02	5647.71
446.21	5682.82
446.39	5614.95
446.58	5720.27
446.77	5731.97
446.95	5694.52
447.14	5696.86
447.32	5839.64
447.51	5783.46
447.69	5650.05
447.88	5914.53
448.06	5856.02
448.25	5764.74
448.43	5767.08
448.62	5802.19
448.80	5762.40
448.99	5844.32
449.17	5804.53
449.36	5820.91
449.54	5989.43
449.73	6101.78
449.91	6087.73
450.10	6104.12
450.28	6090.07
450.46	6071.35
450.65	6186.04
450.83	6090.07
451.02	6136.88
451.20	6249.23
451.39	6232.85
451.57	6356.90
451.76	6127.52
451.94	6176.67
452.13	6319.45
452.31	6097.10
452.49	6202.42
452.68	6190.72
452.86	6291.36
453.05	6427.11
453.23	6361.58
453.42	6286.68
453.60	6291.36
453.78	6452.86
453.97	6310.08
454.15	6300.72
454.34	6195.40
454.52	6509.03
454.70	6455.20
454.89	6553.50
455.07	6518.39
455.26	6583.93
455.44	6789.89
455.62	6700.95
455.81	6635.42
455.99	6658.82
456.17	6778.19
456.36	6773.51
456.54	6829.68
456.73	6815.64
456.91	7082.46
457.09	7052.03
457.28	7206.51
457.46	6937.35
457.64	7075.44
457.83	6878.83
458.01	6927.99
458.19	7000.54
458.38	7089.48
458.56	7197.15
458.74	7019.27
458.93	7232.26
459.11	7222.89
459.29	7353.96
459.48	7295.45
459.66	7339.92
459.84	7171.40
460.03	7543.55
460.21	7403.11
460.39	7351.62
460.57	7339.92
460.76	7569.29
460.94	7503.76
461.12	7358.64
461.31	7604.40
461.49	7499.08
461.67	7576.31
461.85	7683.98
462.04	7627.81
462.22	8100.59
462.40	7964.84
462.59	7812.71
462.77	7702.70
462.95	7911.01
463.13	7873.56
463.32	7810.37
463.50	7857.18
463.68	8016.33
463.86	7995.27
464.05	7915.69
464.23	7878.24
464.41	7896.97
464.59	7946.12
464.78	8093.57
464.96	8079.53
465.14	7798.66
465.32	8166.13
465.50	8442.31
465.69	8266.77
465.87	8070.17
466.05	8208.26
466.23	8198.90
466.41	8154.43
466.60	8442.31
466.78	8140.38
466.96	8234.00
467.14	8095.91
467.32	8255.07
467.51	8702.11
467.69	8013.99
467.87	8362.73
468.05	8554.66
468.23	8318.26
468.41	8458.70
468.60	8486.78
468.78	8484.44
468.96	8449.33
469.14	8559.34
469.32	8805.10
469.50	8468.06
469.69	8674.03
469.87	8730.20
470.05	8784.03
470.23	8807.44
470.41	8765.31
470.59	8809.78
470.77	8793.39
470.95	8816.80
471.14	9083.62
471.32	8741.90
471.50	8870.63
471.68	9195.96
471.86	9172.56
472.04	9125.75
472.22	9394.91
472.40	9193.62
472.58	9041.49
472.77	9277.88
472.95	9277.88
473.13	9767.06
473.31	9570.45
473.49	9600.88
473.67	9301.29
473.85	9544.70
474.03	9694.50
474.21	9603.22
474.39	9729.61
474.57	9827.91
474.75	9963.66
474.93	9741.31
475.12	9900.47
475.30	10050.26
475.48	9933.23
475.66	10090.05
475.84	9942.60
476.02	10211.76
476.20	10333.47
476.38	10602.63
476.56	10499.64
476.74	10647.10
476.92	10417.72
477.10	10513.69
477.28	10785.19
477.46	10504.32
477.64	10736.04
477.82	11063.71
478.00	11297.77
478.18	11000.52
478.36	11330.53
478.54	11199.46
478.72	11370.32
478.90	11412.45
479.08	11632.46
479.26	11627.78
479.44	11707.36
479.62	11871.20
479.80	12191.85
479.98	11964.82
480.16	12266.75
480.34	12095.89
480.52	12306.54
480.70	12315.90
480.88	12060.78
481.06	12044.40
481.24	12236.32
481.41	12617.83
481.59	12772.30
481.77	12912.74
481.95	12889.33
482.13	13179.56
482.31	12840.18
482.49	13277.86
482.67	13357.44
482.85	13495.53
483.03	13549.36
483.21	13664.05
483.39	13795.12
483.57	13563.40
483.74	13884.06
483.92	14167.26
484.10	14104.07
484.28	14464.51
484.46	14537.07
484.64	14640.05
484.82	14258.54
485.00	14647.07
485.18	14810.91
485.35	15129.22
485.53	14843.68
485.71	15133.90
485.89	15363.28
486.07	15201.78
486.25	15452.22
486.43	15384.34
486.61	15648.82
486.78	15477.96
486.96	15836.06
487.14	15955.43
487.32	16065.44
487.50	16072.46
487.68	16528.86
487.85	16718.45
488.03	16842.50
488.21	16896.33
488.39	16957.18
488.57	17188.89
488.75	17216.98
488.92	17532.95
489.10	17539.97
489.28	17399.54
489.46	17692.11
489.64	17659.34
489.81	18005.74
489.99	17942.55
490.17	18310.01
490.35	18401.29
490.53	18251.50
490.70	18443.42
490.88	18394.27
491.06	18803.86
491.24	19103.45
491.41	18958.34
491.59	19225.16
491.77	19290.70
491.95	19428.79
492.13	19480.28
492.30	19384.32
492.48	19609.01
492.66	19782.21
492.84	20002.22
493.01	20088.82
493.19	20107.54
493.37	20372.02
493.54	20306.49
493.72	20608.42
493.90	20610.76
494.08	21142.06
494.25	20842.47
494.43	21116.31
494.61	21174.83
494.79	21453.35
494.96	21064.82
495.14	21495.48
495.32	21862.94
495.49	21916.78
495.67	21654.64
495.85	21837.20
496.02	22003.38
496.20	22436.38
496.38	22576.81
496.55	22520.63
496.73	22682.13
496.91	22541.70
497.09	22815.54
497.26	22878.74
497.44	22984.06
497.62	23276.63
497.79	23569.19
497.97	23498.98
498.14	23681.54
498.32	23948.36
498.50	23639.41
498.67	24004.53
498.85	23807.93
499.03	24016.24
499.20	23791.55
499.38	23988.15
499.56	24161.35
499.73	24552.22
499.91	24617.75
500.08	24875.21
500.26	24474.98
500.44	24629.46
500.61	24840.11
500.79	24479.66
500.97	24945.43
501.14	25530.56
501.32	25425.24
501.49	25160.76
501.67	25160.76
501.84	25509.50
502.02	25537.59
502.20	25570.35
502.37	25851.22
502.55	25539.93
502.72	25795.04
502.90	25766.96
503.07	26008.03
503.25	26120.38
503.43	25797.38
503.60	26260.81
503.78	26635.30
503.95	26242.09
504.13	26632.96
504.30	27005.10
504.48	26614.23
504.65	26930.20
504.83	27098.72
505.01	27185.32
505.18	27337.46
505.36	27388.95
505.53	27501.29
505.71	27770.46
505.88	27316.39
506.06	27159.58
506.23	27655.77
506.41	27363.20
506.58	27812.59
506.76	28009.19
506.93	28030.26
507.11	28091.11
507.28	27896.85
507.46	28058.34
507.63	27985.79
507.81	28556.88
507.98	28201.11
508.16	29081.16
508.33	28608.37
508.50	28816.68
508.68	28952.43
508.85	29024.98
509.03	28758.16
509.20	28917.32
509.38	29387.77
509.55	29287.12
509.73	29621.82
509.90	29696.72
510.08	29532.88
510.25	29579.69
510.42	29694.38
510.60	29902.68
510.77	29984.60
510.95	30080.56
511.12	29979.92
511.30	29965.88
511.47	30466.75
511.64	30061.84
511.82	30120.35
511.99	30766.34
512.17	30342.70
512.34	30525.27
512.51	30508.88
512.69	31033.16
512.86	30658.68
513.04	30827.20
513.21	31030.82
513.38	31255.51
513.56	31021.46
513.73	31094.02
513.90	31880.44
514.08	31276.58
514.25	31527.02
514.43	31737.66
514.60	32065.34
514.77	31740.00
514.95	32023.21
515.12	31349.14
515.29	31798.52
515.47	32006.83
515.64	32011.51
515.81	32058.32
515.99	32233.86
516.16	32519.40
516.33	32156.62
516.51	32683.24
516.68	32449.19
516.85	32835.38
517.03	32914.95
517.20	32938.36
517.37	33060.07
517.54	32900.91
517.72	32769.84
517.89	32940.70
518.06	32645.79
518.24	33099.86
518.41	32826.01
518.58	33301.14
518.75	33116.24
518.93	33280.08
519.10	33626.48
519.27	33312.84
519.45	33839.47
519.62	33905.00
519.79	34052.45
519.96	33886.28
520.14	33848.83
520.31	33460.30
520.48	33993.94
520.65	34113.31
520.83	34883.34
521.00	34300.55
521.17	34117.99
521.34	34492.47
521.52	34464.39
521.69	34859.94
521.86	34899.73
522.03	34735.89
522.20	34834.19
522.38	34981.65
522.55	35143.14
522.72	34932.50
522.89	35218.04
523.07	35442.73
523.24	35182.93
523.41	35564.44
523.58	35033.14
523.75	35814.88
523.92	35711.89
524.10	35222.72
524.27	35917.86
524.44	35999.78
524.61	35957.65
524.78	36086.38
524.96	35416.99
525.13	35959.99
525.30	35852.33
525.47	36201.07
525.64	35962.33
525.81	36526.40
525.98	36659.81
526.16	36524.06
526.33	36290.01
526.50	36545.12
526.67	36032.55
526.84	36514.70
527.01	36762.79
527.18	36666.83
527.36	36708.96
527.53	36882.16
527.70	36989.83
527.87	37530.49
528.04	37167.71
528.21	37036.64
528.38	37083.45
528.55	37581.98
528.72	37467.30
528.89	36975.78
529.07	37390.06
529.24	37352.61
529.41	37392.40
529.58	37188.77
529.75	37556.24
529.92	37340.91
530.09	37813.70
530.26	37572.62
530.43	37605.39
530.60	37762.20
530.77	37422.83
530.94	37773.91
531.11	38110.94
531.28	37921.36
531.46	38132.01
531.63	38256.06
531.80	37895.61
531.97	38457.34
532.14	38321.59
532.31	38778.00
532.48	38326.27
532.65	38490.11
532.82	38667.99
532.99	38899.70
533.16	38529.90
533.33	38815.44
533.50	38646.93
533.67	39026.09
533.84	38483.09
534.01	38836.51
534.18	38789.70
534.35	39229.72
534.52	39182.91
534.69	39367.81
534.86	39220.36
535.03	39351.43
535.20	39222.70
535.37	39391.22
535.54	40088.70
535.71	39625.27
535.88	39702.51
536.05	39807.83
536.22	39667.40
536.38	39676.76
536.55	39826.56
536.72	39440.37
536.89	39515.26
537.06	39805.49
537.23	40114.44
537.40	39707.19
537.57	39789.11
537.74	40086.36
537.91	39864.00
538.08	40463.18
538.25	39541.01
538.42	40100.40
538.59	40437.44
538.75	40184.66
538.92	40549.78
539.09	40669.15
539.26	40517.01
539.43	40568.51
539.60	40589.57
539.77	40493.61
539.94	40690.21
540.11	40376.58
540.28	40627.02
540.44	40954.69
540.61	41184.07
540.78	41064.70
540.95	40865.75
541.12	40648.08
541.29	40730.00
541.46	40851.71
541.62	41125.55
541.79	41436.84
541.96	40950.01
542.13	41111.51
542.30	40858.73
542.47	40786.18
542.63	41490.68
542.80	41216.83
542.97	41684.94
543.14	41736.43
543.31	42075.81
543.48	41799.63
543.64	42089.85
543.81	42073.47
543.98	41916.65
544.15	42005.59
544.32	42127.30
544.48	42361.36
544.65	42274.76
544.82	42003.25
544.99	41659.20
545.16	42234.97
545.32	42256.03
545.49	42644.56
545.66	42796.70
545.83	42246.67
546.00	42506.47
546.16	42473.70
546.33	42635.20
546.50	42351.99
546.67	42696.05
546.83	42499.45
547.00	42260.71
547.17	42506.47
547.34	42314.55
547.50	43026.07
547.67	43559.71
547.84	43178.20
548.00	43093.94
548.17	43414.60
548.34	43187.56
548.51	43442.68
548.67	43407.58
548.84	43098.62
549.01	43309.27
549.18	42960.53
549.34	43636.95
549.51	43917.81
549.68	43386.51
549.84	43323.32
550.01	43260.12
550.18	43423.96
550.34	43917.81
550.51	43793.76
550.68	43662.69
550.84	43606.52
551.01	43824.19
551.18	43620.56
551.34	43632.27
551.51	44072.29
551.68	44044.20
551.84	43496.52
552.01	43583.12
552.18	43791.42
552.34	43309.27
552.51	43533.96
552.68	43732.91
552.84	44341.45
553.01	44421.03
553.18	44421.03
553.34	44135.48
553.51	44081.65
553.67	44009.09
553.84	44533.37
554.01	44142.50
554.17	43957.60
554.34	44460.82
554.51	44563.80
554.67	44486.56
554.84	44311.02
555.00	44722.96
555.17	44444.43
555.33	44294.64
555.50	44353.15
555.67	44636.36
555.83	44746.36
556.00	44835.30
556.16	45247.24
556.33	45095.10
556.50	44711.25
556.66	45001.48
556.83	44952.33
556.99	45109.14
557.16	45469.59
557.32	44816.58
557.49	45041.27
557.65	45050.63
557.82	45261.28
557.98	45235.53
558.15	45427.46
558.32	45240.21
558.48	45071.70
558.65	45085.74
558.81	45294.05
558.98	45200.43
559.14	44971.05
559.31	44971.05
559.47	45525.76
559.64	45539.80
559.80	45565.55
559.97	45312.77
560.13	45158.30
560.30	45516.40
560.46	45591.30
560.63	45799.60
560.79	45904.93
560.96	46131.96
561.12	45886.20
561.29	46080.47
561.45	45942.38
561.61	45268.30
561.78	45532.78
561.94	45804.28
562.11	45455.54
562.27	45698.96
562.44	45940.04
562.60	46110.89
562.77	45933.01
562.93	45642.79
563.10	45787.90
563.26	45808.96
563.42	46642.20
563.59	45488.31
563.75	45832.37
563.92	45638.11
564.08	45790.24
564.24	46131.96
564.41	45937.69
564.57	46452.61
564.74	45858.12
564.90	46155.36
565.07	46190.47
565.23	45752.79
565.39	45991.53
565.56	46134.30
565.72	46096.85
565.88	46377.72
566.05	46206.86
566.21	46040.68
566.38	46078.13
566.54	46216.22
566.70	46354.31
566.87	46501.76
567.03	46192.81
567.19	46188.13
567.36	46328.56
567.52	46335.59
567.68	46466.66
567.85	46307.50
568.01	46501.76
568.17	46293.46
568.34	46693.69
568.50	46822.42
568.66	46127.28
568.83	46478.36
568.99	46593.04
569.15	46548.57
569.32	46026.63
569.48	46663.26
569.64	46883.27
569.81	46899.65
569.97	46546.23
570.13	46433.89
570.30	46623.47
570.46	46415.16
570.62	46703.05
570.78	46738.16
570.95	46721.77
571.11	46866.89
571.27	46562.62
571.43	46576.66
571.60	46894.97
571.76	46810.71
571.92	46525.17
572.09	46822.42
572.25	46464.32
572.41	46714.75
572.57	46656.24
572.74	47325.63
572.90	46951.15
573.06	46983.91
573.22	47093.92
573.38	47131.37
573.55	46539.21
573.71	47463.72
573.87	46902.00
574.03	46831.78
574.20	47035.41
574.36	46960.51
574.52	47356.06
574.68	46883.27
574.84	47117.32
575.01	47419.25
575.17	47311.59
575.33	47047.11
575.49	46419.84
575.65	47068.17
575.82	46997.96
575.98	46780.29
576.14	47526.92
576.30	47381.80
576.46	47384.15
576.62	46787.31
576.79	46981.57
576.95	46457.29
577.11	47131.37
577.27	47215.63
577.43	46707.73
577.59	47679.05
577.75	46777.95
577.92	46314.52
578.08	46820.08
578.24	47042.43
578.40	47445.00
578.56	46859.87
578.72	47426.28
578.88	47316.27
579.04	46993.28
579.21	47065.83
579.37	47281.16
579.53	47236.69
579.69	46721.77
579.85	47267.12
580.01	47276.48
580.17	46791.99
580.33	47243.71
580.49	47138.39
580.65	47285.84
580.82	46930.08
580.98	46911.36
581.14	47173.50
581.30	47222.65
581.46	47145.41
581.62	47426.28
581.78	46962.85
581.94	47220.31
582.10	47229.67
582.26	47210.95
582.42	47056.47
582.58	47538.62
582.74	47533.94
582.90	47302.23
583.06	47882.68
583.22	47311.59
583.38	47358.40
583.54	47419.25
583.70	47112.64
583.86	47089.24
584.02	47517.56
584.18	47693.10
584.34	47545.64
584.50	47433.30
584.66	47695.44
584.82	47447.34
584.98	47309.25
585.14	47526.92
585.30	47107.96
585.46	47107.96
585.62	47379.46
585.78	47763.31
585.94	47643.94
586.10	47608.84
586.26	47175.84
586.42	46930.08
586.58	47597.13
586.74	47346.70
586.90	47524.58
587.06	47477.77
587.22	47648.63
587.38	47423.93
587.54	47660.33
587.70	47634.58
587.86	47611.18
588.02	47337.33
588.18	47372.44
588.34	47363.08
588.49	47686.07
588.65	47524.58
588.81	47440.32
588.97	47625.22
589.13	47538.62
589.29	47475.43
589.45	47868.64
589.61	47573.73
589.77	47866.30
589.93	47267.12
590.08	48067.58
