SpectraSuite Data File
++++++++++++++++++++++++++++++++++++
Date: Fri Oct 25 10:47:05 EDT 2013
User: price-jones
Dark Spectrum Present: No
Reference Spectrum Present: No
Number of Sampled Component Spectra: 1
Spectrometers: USB2+H05261
Integration Time (usec): 100000 (USB2+H05261)
Spectra Averaged: 1 (USB2+H05261)
Boxcar Smoothing: 0 (USB2+H05261)
Correct for Electrical Dark: No (USB2+H05261)
Strobe/Lamp Enabled: No (USB2+H05261)
Correct for Detector Non-linearity: No (USB2+H05261)
Correct for Stray Light: No (USB2+H05261)
Number of Pixels in Processed Spectrum: 2048
>>>>>Begin Processed Spectral Data<<<<<
365.73	177.88
365.92	177.88
366.12	177.88
366.32	42.13
366.52	21.06
366.72	7.02
366.91	35.11
367.11	0.00
367.31	30.43
367.51	65.54
367.70	23.41
367.90	63.19
368.10	28.09
368.30	72.56
368.49	2.34
368.69	11.70
368.89	37.45
369.09	95.96
369.28	25.75
369.48	77.24
369.68	93.62
369.87	112.35
370.07	81.92
370.27	100.64
370.47	215.33
370.66	383.85
370.86	449.38
371.06	369.80
371.25	475.13
371.45	435.34
371.65	440.02
371.84	400.23
372.04	416.62
372.24	472.79
372.44	447.04
372.63	477.47
372.83	430.66
373.03	512.58
373.22	482.15
373.42	538.32
373.62	498.53
373.81	547.69
374.01	510.24
374.21	543.00
374.40	608.54
374.60	526.62
374.79	571.09
374.99	566.41
375.19	559.39
375.38	547.69
375.58	566.41
375.78	624.92
375.97	587.47
376.17	641.31
376.37	629.60
376.56	657.69
376.76	540.66
376.95	557.05
377.15	676.41
377.35	685.78
377.54	622.58
377.74	589.82
377.93	636.63
378.13	648.33
378.33	622.58
378.52	589.82
378.72	596.84
378.91	713.86
379.11	594.50
379.31	655.35
379.50	681.10
379.70	631.94
379.89	681.10
380.09	601.52
380.28	608.54
380.48	697.48
380.68	662.37
380.87	660.03
381.07	692.80
381.26	716.20
381.46	720.88
381.65	730.25
381.85	615.56
382.04	667.05
382.24	678.76
382.43	606.20
382.63	774.72
382.83	746.63
383.02	716.20
383.22	774.72
383.41	765.36
383.61	765.36
383.80	770.04
384.00	734.93
384.19	812.17
384.39	748.97
384.58	753.65
384.78	770.04
384.97	779.40
385.17	744.29
385.36	777.06
385.56	770.04
385.75	861.32
385.95	795.78
386.14	748.97
386.34	709.18
386.53	795.78
386.72	807.48
386.92	856.64
387.11	807.48
387.31	795.78
387.50	819.19
387.70	830.89
387.89	898.77
388.09	922.17
388.28	903.45
388.48	894.08
388.67	908.13
388.86	910.47
389.06	894.08
389.25	877.70
389.45	985.37
389.64	901.11
389.84	873.02
390.03	910.47
390.22	854.30
390.42	933.87
390.61	910.47
390.81	1020.47
391.00	973.66
391.19	1022.81
391.39	882.38
391.58	976.00
391.78	938.55
391.97	1034.52
392.16	933.87
392.36	873.02
392.55	983.02
392.75	999.41
392.94	980.68
393.13	877.70
393.33	933.87
393.52	1053.24
393.71	1078.99
393.91	1050.90
394.10	1062.60
394.29	1022.81
394.49	1114.10
394.68	1076.65
394.88	961.96
395.07	1170.27
395.26	1100.05
395.46	1104.73
395.65	1107.07
395.84	1186.65
396.04	1235.80
396.23	1036.86
396.42	1219.42
396.62	1172.61
396.81	1198.35
397.00	1247.51
397.19	1153.88
397.39	1181.97
397.58	1294.32
397.77	1289.64
397.97	1308.36
398.16	1191.33
398.35	1329.42
398.55	1261.55
398.74	1306.02
398.93	1364.53
399.12	1380.92
399.32	1256.87
399.51	1383.26
399.70	1432.41
399.90	1390.28
400.09	1460.49
400.28	1394.96
400.47	1462.83
400.67	1427.73
400.86	1476.88
401.05	1504.96
401.24	1439.43
401.44	1469.86
401.63	1528.37
401.82	1519.01
402.01	1385.60
402.21	1416.02
402.40	1519.01
402.59	1493.26
402.78	1544.75
402.97	1647.74
403.17	1575.18
403.36	1570.50
403.55	1657.10
403.74	1673.48
403.93	1650.08
404.13	1689.87
404.32	1661.78
404.51	1650.08
404.70	1685.19
404.89	1610.29
405.09	1797.53
405.28	1776.47
405.47	1703.91
405.66	1760.08
405.85	1727.32
406.05	1900.52
406.24	1790.51
406.43	1797.53
406.62	1884.13
406.81	1954.35
407.00	1746.04
407.20	1825.62
407.39	1877.11
407.58	1956.69
407.77	2012.86
407.96	2012.86
408.15	1944.99
408.34	1996.48
408.54	2094.78
408.73	2071.37
408.92	1954.35
409.11	2064.35
409.30	1968.39
409.49	2029.24
409.68	2181.38
409.87	2036.27
410.07	2129.89
410.26	2083.08
410.45	2101.80
410.64	2073.71
410.83	2279.68
411.02	2275.00
411.21	2289.04
411.40	2249.25
411.59	2359.26
411.78	2265.64
411.98	2232.87
412.17	2342.88
412.36	2431.82
412.55	2485.65
412.74	2457.56
412.93	2509.05
413.12	2464.58
413.31	2490.33
413.50	2518.42
413.69	2485.65
413.88	2612.04
414.07	2717.36
414.26	2644.81
414.45	2649.49
414.64	2541.82
414.83	2623.74
415.02	2731.41
415.22	2750.13
415.41	2747.79
415.60	2700.98
415.79	2874.18
415.98	2925.67
416.17	2923.33
416.36	2874.18
416.55	2881.20
416.74	2953.76
416.93	2864.82
417.12	2878.86
417.31	3012.27
417.50	3112.91
417.69	3328.24
417.88	3105.89
418.07	3110.57
418.26	2970.14
418.45	2977.16
418.64	3297.81
418.83	3248.66
419.02	3138.66
419.21	3248.66
419.39	3155.04
419.58	3279.09
419.77	3218.24
419.96	3187.81
420.15	3412.50
420.34	3346.97
420.53	3377.39
420.72	3344.63
420.91	3325.90
421.10	3442.93
421.29	3487.40
421.48	3372.71
421.67	3569.32
421.86	3492.08
422.05	3398.46
422.24	3421.86
422.43	3487.40
422.61	3396.12
422.80	3412.50
422.99	3545.91
423.18	3431.23
423.37	3564.64
423.56	3707.41
423.75	3545.91
423.94	3508.46
424.13	3398.46
424.32	3377.39
424.50	3566.98
424.69	3616.13
424.88	3473.36
425.07	3475.70
425.26	3606.77
425.45	3613.79
425.64	3569.32
425.83	3623.15
426.01	3772.94
426.20	3726.13
426.39	3520.17
426.58	3693.37
426.77	3412.50
426.96	3571.66
427.15	3714.43
427.33	3808.05
427.52	3735.50
427.71	3861.88
427.90	3749.54
428.09	3723.79
428.28	3812.73
428.46	3789.33
428.65	3882.95
428.84	3822.09
429.03	3983.59
429.22	3648.90
429.40	3751.88
429.59	3829.12
429.78	3604.42
429.97	3644.21
430.16	3777.62
430.34	3805.71
430.53	3911.04
430.72	3782.31
430.91	3920.40
431.10	4018.70
431.28	4138.07
431.47	4161.47
431.66	4058.49
431.85	4121.68
432.03	4021.04
432.22	4224.67
432.41	4219.99
432.60	4219.99
432.79	4259.78
432.97	4287.86
433.16	4374.46
433.35	4198.92
433.54	4229.35
433.72	4290.20
433.91	4219.99
434.10	4297.22
434.28	4491.49
434.47	4428.29
434.66	4432.97
434.85	4550.00
435.03	4550.00
435.22	4587.45
435.41	4538.30
435.59	4634.26
435.78	4606.17
435.97	4652.98
436.16	4664.69
436.34	4627.24
436.53	4676.39
436.72	4676.39
436.90	4524.26
437.09	4585.11
437.28	4482.13
437.46	4613.20
437.65	4770.01
437.84	4662.35
438.02	4791.08
438.21	4791.08
438.40	4690.43
438.58	4980.66
438.77	4870.65
438.96	4987.68
439.14	4983.00
439.33	5158.54
439.52	5039.17
439.70	4873.00
439.89	5231.10
440.08	5188.97
440.26	5181.95
440.45	5226.42
440.63	5329.40
440.82	5364.51
441.01	5523.66
441.19	5500.26
441.38	5397.28
441.57	5659.42
441.75	5507.28
441.94	5839.64
442.12	5633.67
442.31	5746.02
442.50	5734.31
442.68	5628.99
442.87	5837.30
443.05	5809.21
443.24	5907.51
443.43	5802.19
443.61	5987.09
443.80	5900.49
443.98	5738.99
444.17	5689.84
444.35	5769.42
444.54	5895.81
444.73	5982.41
444.91	5909.85
445.10	5668.78
445.28	5790.49
445.47	5846.66
445.65	5846.66
445.84	5942.62
446.02	6029.22
446.21	6059.65
446.39	5813.89
446.58	6097.10
446.77	6106.46
446.95	5991.77
447.14	6047.94
447.32	6225.82
447.51	6003.47
447.69	6038.58
447.88	6106.46
448.06	6136.88
448.25	5926.24
448.43	6162.63
448.62	6296.04
448.80	6052.63
448.99	6270.30
449.17	6125.18
449.36	6230.51
449.54	6321.79
449.73	6382.64
449.91	6356.90
450.10	6296.04
450.28	6565.20
450.46	6420.09
450.65	6595.63
450.83	6616.69
451.02	6354.55
451.20	6560.52
451.39	6436.47
451.57	6368.60
451.76	6307.74
451.94	6399.02
452.13	6654.14
452.31	6541.80
452.49	6392.00
452.68	6590.95
452.86	6516.05
453.05	6789.89
453.23	6766.49
453.42	6523.07
453.60	6590.95
453.78	6855.43
453.97	6857.77
454.15	6686.91
454.34	6675.21
454.52	7037.99
454.70	6946.71
454.89	7042.67
455.07	6806.28
455.26	6846.07
455.44	7056.72
455.62	6827.34
455.81	6993.52
455.99	6960.75
456.17	7211.19
456.36	7033.31
456.54	7213.53
456.73	7157.36
456.91	7164.38
457.09	7384.39
457.28	7351.62
457.46	7283.75
457.64	7389.07
457.83	7379.71
458.01	7243.96
458.19	7564.61
458.38	7346.94
458.56	7520.14
458.74	7440.56
458.93	7379.71
459.11	7552.91
459.29	7419.50
459.48	7566.95
459.66	7513.12
459.84	7688.66
460.03	7850.16
460.21	7810.37
460.39	7658.23
460.57	7707.38
460.76	7812.71
460.94	7962.50
461.12	7929.74
461.31	8030.38
461.49	7913.35
461.67	8002.29
461.85	7903.99
462.04	7936.76
462.22	8503.17
462.40	7985.91
462.59	8238.69
462.77	8011.65
462.95	8035.06
463.13	7943.78
463.32	8170.81
463.50	8229.32
463.68	8070.17
463.86	8238.69
464.05	8217.62
464.23	8002.29
464.41	8348.69
464.59	8152.09
464.78	8334.65
464.96	8292.52
465.14	8142.72
465.32	8184.85
465.50	8266.77
465.69	8430.61
465.87	8339.33
466.05	8428.27
466.23	8489.12
466.41	8486.78
466.60	8596.79
466.78	8432.95
466.96	8496.14
467.14	8313.58
467.32	8641.26
467.51	8641.26
467.69	8482.10
467.87	8678.71
468.05	8655.30
468.23	8664.66
468.41	8734.88
468.60	8730.20
468.78	8746.58
468.96	8912.76
469.14	8781.69
469.32	9062.55
469.50	8692.75
469.69	9039.15
469.87	8961.91
470.05	8879.99
470.23	9118.73
470.41	8905.74
470.59	9167.88
470.77	8926.80
470.95	9263.84
471.14	9434.70
471.32	8990.00
471.50	9312.99
471.68	9348.10
471.86	9502.58
472.04	9586.83
472.22	9600.88
472.40	9593.86
472.58	9483.85
472.77	9362.14
472.95	9774.08
473.13	9928.55
473.31	9692.16
473.49	9612.58
473.67	9818.55
473.85	9621.94
474.03	10001.11
474.21	9998.77
474.39	10228.14
474.57	10052.60
474.75	10253.89
474.93	10066.64
475.12	10256.23
475.30	10555.82
475.48	10448.15
475.66	10441.13
475.84	10193.03
476.02	10523.05
476.20	10525.39
476.38	10593.26
476.56	11016.90
476.74	10808.59
476.92	10656.46
477.10	10806.25
477.28	11002.86
477.46	10913.92
477.64	11250.96
477.82	11220.53
478.00	11597.35
478.18	11733.11
478.36	11543.52
478.54	11822.05
478.72	11690.98
478.90	11641.82
479.08	11889.92
479.26	11953.12
479.44	12343.99
479.62	11957.80
479.80	12425.90
479.98	12353.35
480.16	12404.84
480.34	12491.44
480.52	12725.49
480.70	12407.18
480.88	12526.55
481.06	12629.53
481.24	12791.03
481.41	12910.40
481.59	13331.69
481.77	13350.42
481.95	13029.76
482.13	13408.93
482.31	13193.60
482.49	13706.18
482.67	13465.10
482.85	13940.23
483.03	13968.32
483.21	13841.93
483.39	14059.60
483.57	14155.56
483.74	14478.55
483.92	14569.83
484.10	14384.93
484.28	14607.28
484.46	14824.95
484.64	14850.70
484.82	14635.37
485.00	14799.21
485.18	15033.26
485.35	15403.07
485.53	14960.70
485.71	15136.24
485.89	15571.58
486.07	15438.17
486.25	15665.21
486.43	15630.10
486.61	15896.92
486.78	16037.35
486.96	16145.02
487.14	16545.25
487.32	16596.74
487.50	16575.67
487.68	16683.34
487.85	16964.20
488.03	17062.51
488.21	17352.73
488.39	17062.51
488.57	17118.68
488.75	17572.74
488.92	17762.33
489.10	18085.32
489.28	18120.43
489.46	18197.67
489.64	18253.84
489.81	18448.10
489.99	18579.17
490.17	18698.54
490.35	18693.86
490.53	19131.54
490.70	18892.80
490.88	18885.78
491.06	19414.74
491.24	19112.81
491.41	19349.21
491.59	19473.26
491.77	19484.96
491.95	19662.84
492.13	19742.42
492.30	19864.13
492.48	19917.96
492.66	20423.51
492.84	20074.77
493.01	20477.35
493.19	20467.98
493.37	20755.87
493.54	20889.28
493.72	20884.60
493.90	20765.23
494.08	21177.17
494.25	21488.46
494.43	21661.66
494.61	21963.59
494.79	21820.81
494.96	21401.86
495.14	21549.31
495.32	22054.87
495.49	22064.23
495.67	22047.85
495.85	22431.69
496.02	22361.48
496.20	22448.08
496.38	22789.80
496.55	22892.78
496.73	23440.47
496.91	22815.54
497.09	23300.03
497.26	23356.21
497.44	23026.19
497.62	23269.61
497.79	23583.24
497.97	23447.49
498.14	23892.19
498.32	23821.97
498.50	23936.66
498.67	23892.19
498.85	24154.33
499.03	24400.08
499.20	24503.07
499.38	24184.76
499.56	24257.31
499.73	24498.39
499.91	24788.61
500.08	24875.21
500.26	24718.40
500.44	25055.43
500.61	24671.59
500.79	25069.48
500.97	25069.48
501.14	25460.35
501.32	25570.35
501.49	25041.39
501.67	25228.63
501.84	26120.38
502.02	25827.81
502.20	25876.96
502.37	26162.51
502.55	25729.51
502.72	26111.02
502.90	26244.43
503.07	25900.37
503.25	26422.31
503.43	26426.99
503.60	26518.27
503.78	26555.72
503.95	26735.94
504.13	26829.56
504.30	26827.22
504.48	26544.02
504.65	27206.39
504.83	27461.51
505.01	26969.99
505.18	27283.62
505.36	27445.12
505.53	27417.04
505.71	27676.83
505.88	27728.33
506.06	27447.46
506.23	27274.26
506.41	27569.17
506.58	27920.25
506.76	27714.28
506.93	28027.92
507.11	28140.26
507.28	28144.94
507.46	28240.90
507.63	28018.55
507.81	28250.27
507.98	28371.97
508.16	28430.49
508.33	28699.65
508.50	28807.31
508.68	29071.79
508.85	29120.95
509.03	28783.91
509.20	29214.57
509.38	29401.81
509.55	29280.10
509.73	29156.05
509.90	29488.41
510.08	29266.06
510.25	29677.99
510.42	29677.99
510.60	29802.04
510.77	29652.25
510.95	30492.50
511.12	29823.11
511.30	30258.45
511.47	30017.37
511.64	30279.51
511.82	30438.67
511.99	30326.32
512.17	30279.51
512.34	30232.70
512.51	30445.69
512.69	30794.43
512.86	30583.78
513.04	30939.54
513.21	31072.95
513.38	31021.46
513.56	30611.87
513.73	30682.08
513.90	30656.34
514.08	30799.11
514.25	31374.88
514.43	31227.43
514.60	31180.62
514.77	31409.99
514.95	31566.81
515.12	31651.06
515.29	31819.58
515.47	32163.64
515.64	31955.33
515.81	31686.17
515.99	31770.43
516.16	31807.88
516.33	31854.69
516.51	31969.38
516.68	31978.74
516.85	31817.24
517.03	31782.13
517.20	32402.38
517.37	32620.05
517.54	32322.80
517.72	32664.52
517.89	32402.38
518.06	32737.07
518.24	32563.87
518.41	32362.59
518.58	32308.76
518.75	32512.38
518.93	33067.09
519.10	33191.14
519.27	32872.82
519.45	33111.56
519.62	33071.77
519.79	33102.20
519.96	32943.04
520.14	33825.42
520.31	33670.95
520.48	33951.81
520.65	33518.81
520.83	33771.59
521.00	33806.70
521.17	34160.12
521.34	34251.40
521.52	34010.32
521.69	34307.57
521.86	34527.58
522.03	34745.25
522.20	34602.48
522.38	34291.19
522.55	34630.57
522.72	33961.17
522.89	34270.12
523.07	34728.87
523.24	34705.46
523.41	34883.34
523.58	34710.14
523.75	35108.04
523.92	35175.91
524.10	35454.44
524.27	35391.24
524.44	35241.45
524.61	35047.18
524.78	35262.51
524.96	35304.64
525.13	35618.27
525.30	35878.07
525.47	35496.56
525.64	35908.50
525.81	35494.22
525.98	35821.90
526.16	35508.27
526.33	35412.31
526.50	36187.02
526.67	35695.51
526.84	35730.62
527.01	35599.55
527.18	35676.79
527.36	35945.95
527.53	36364.90
527.70	36666.83
527.87	36290.01
528.04	36385.97
528.21	36697.26
528.38	36339.16
528.55	36554.49
528.72	36392.99
528.89	37085.79
529.07	36985.15
529.24	36542.78
529.41	37031.96
529.58	36542.78
529.75	36634.06
529.92	37160.69
530.09	37050.68
530.26	37249.63
530.43	37003.87
530.60	36664.49
530.77	37020.25
530.94	37495.38
531.11	37280.05
531.28	37387.72
531.46	37385.38
531.63	37251.97
531.80	37240.26
531.97	37280.05
532.14	37600.71
532.31	37479.00
532.48	37659.22
532.65	38010.30
532.82	37841.78
532.99	38258.40
533.16	37727.10
533.33	37825.40
533.50	38319.25
533.67	38286.48
533.84	38188.18
534.01	38511.17
534.18	38234.99
534.35	38256.06
534.52	38766.29
534.69	38604.80
534.86	38550.96
535.03	38855.23
535.20	38562.67
535.37	38862.26
535.54	38642.24
535.71	38534.58
535.88	38501.81
536.05	38696.08
536.22	39056.52
536.38	38859.91
536.55	38363.72
536.72	38721.82
536.89	38902.04
537.06	38775.66
537.23	39108.01
537.40	39145.46
537.57	39393.56
537.74	38983.96
537.91	39466.11
538.08	39271.85
538.25	38909.07
538.42	39335.04
538.59	39246.10
538.75	39452.07
538.92	39501.22
539.09	39676.76
539.26	39299.94
539.43	39608.89
539.60	39716.55
539.77	39250.78
539.94	39431.01
540.11	39597.18
540.28	39360.79
540.44	39646.33
540.61	39765.70
540.78	39606.55
540.95	39592.50
541.12	39803.15
541.29	39859.32
541.46	39885.07
541.62	40203.38
541.79	40261.90
541.96	39981.03
542.13	39686.12
542.30	40030.18
542.47	40304.02
542.63	39941.24
542.80	40587.23
542.97	40617.66
543.14	40807.24
543.31	41233.22
543.48	40708.94
543.64	41757.50
543.81	41017.89
543.98	40945.33
544.15	41043.63
544.32	41165.34
544.48	41069.38
544.65	40818.94
544.82	41230.88
544.99	40840.01
545.16	41275.35
545.32	41043.63
545.49	41284.71
545.66	41450.89
545.83	41263.64
546.00	41790.27
546.16	41528.13
546.33	41450.89
546.50	41041.29
546.67	41530.47
546.83	40994.48
547.00	42005.59
547.17	41242.58
547.34	41380.67
547.50	41460.25
547.67	41890.91
547.84	41598.34
548.00	41787.92
548.17	42471.36
548.34	41682.60
548.51	41986.87
548.67	42630.52
548.84	41776.22
549.01	41731.75
549.18	41869.84
549.34	41874.52
549.51	42017.30
549.68	41984.53
549.84	42143.69
550.01	42490.09
550.18	41883.89
550.34	42256.03
550.51	42377.74
550.68	42078.15
550.84	42167.09
551.01	42307.52
551.18	41991.55
551.34	42342.63
551.51	42274.76
551.68	42454.98
551.84	42784.99
552.01	42188.16
552.18	42124.96
552.34	42183.48
552.51	42728.82
552.68	42511.15
552.84	42527.53
553.01	42518.17
553.18	42600.09
553.34	42611.79
553.51	42611.79
553.67	42604.77
553.84	43042.45
554.01	43508.22
554.17	43447.36
554.34	42857.55
554.51	42761.59
554.67	43157.14
554.84	42691.37
555.00	43196.93
555.17	43115.01
555.33	43019.05
555.50	43150.12
555.67	43601.84
555.83	43051.81
556.00	42937.13
556.16	43555.03
556.33	43311.61
556.50	43557.37
556.66	43613.54
556.83	43246.08
556.99	43524.60
557.16	43367.79
557.32	43571.41
557.49	43414.60
557.65	43040.11
557.82	43402.89
557.98	43681.42
558.15	43545.67
558.32	43295.23
558.48	43833.55
558.65	43625.25
558.81	43861.64
558.98	43887.39
559.14	44142.50
559.31	43412.26
559.47	43704.82
559.64	44198.68
559.80	43693.12
559.97	44158.89
560.13	43597.16
560.30	43707.16
560.46	43859.30
560.63	44027.82
560.79	44184.63
560.96	44608.27
561.12	43658.01
561.29	43885.04
561.45	44196.34
561.61	44149.53
561.78	43618.22
561.94	43847.60
562.11	44194.00
562.27	43658.01
562.44	43878.02
562.60	44498.26
562.77	44374.22
562.93	44215.06
563.10	43938.88
563.26	43276.51
563.42	44123.78
563.59	44254.85
563.75	44360.17
563.92	43901.43
564.08	43950.58
564.24	44350.81
564.41	44219.74
564.57	44294.64
564.74	44549.76
564.90	44046.54
565.07	44322.72
565.23	44428.05
565.39	43945.90
565.56	44231.44
565.72	44172.93
565.88	44617.63
566.05	44282.94
566.21	44170.59
566.38	44069.95
566.54	44378.90
566.70	44701.89
566.87	44474.86
567.03	44217.40
567.19	44444.43
567.36	44414.01
567.52	43955.26
567.68	44395.28
567.85	44079.31
568.01	44481.88
568.17	44428.05
568.34	44636.36
568.50	44842.32
568.66	44004.41
568.83	44421.03
568.99	44439.75
569.15	44121.44
569.32	44439.75
569.48	44292.30
569.64	44442.09
569.81	44680.83
569.97	44591.89
570.13	44432.73
570.30	44364.85
570.46	44306.34
570.62	44203.36
570.78	44507.63
570.95	44526.35
571.11	44818.92
571.27	44549.76
571.43	44282.94
571.60	44594.23
571.76	44645.72
571.92	44465.50
572.09	44512.31
572.25	44835.30
572.41	44713.59
572.57	44891.48
572.74	44994.46
572.90	44900.84
573.06	44442.09
573.22	44664.44
573.38	44631.68
573.55	44109.74
573.71	44744.02
573.87	44636.36
574.03	44381.24
574.20	44474.86
574.36	44306.34
574.52	45134.89
574.68	44870.41
574.84	45027.23
575.01	44589.55
575.17	44603.59
575.33	44311.02
575.49	44624.65
575.65	44741.68
575.82	45291.71
575.98	45104.46
576.14	44872.75
576.30	45099.78
576.46	44959.35
576.62	44706.57
576.79	44582.52
576.95	44533.37
577.11	44886.79
577.27	44893.82
577.43	44507.63
577.59	44889.13
577.75	44662.10
577.92	44608.27
578.08	44893.82
578.24	44687.85
578.40	44601.25
578.56	44549.76
578.72	44772.11
578.88	45219.15
579.04	45029.57
579.21	44722.96
579.37	44741.68
579.53	44535.71
579.69	44690.19
579.85	45034.25
580.01	44837.64
580.17	44980.42
580.33	44917.22
580.49	45230.85
580.65	44987.44
580.82	44779.13
580.98	44940.63
581.14	45055.31
581.30	44781.47
581.46	44966.37
581.62	45036.59
581.78	45020.20
581.94	45509.38
582.10	44900.84
582.26	44807.22
582.42	45104.46
582.58	45127.87
582.74	44636.36
582.90	44699.55
583.06	44762.75
583.22	45130.21
583.38	45174.68
583.54	45090.42
583.70	44636.36
583.86	44734.66
584.02	44725.30
584.18	45235.53
584.34	44837.64
584.50	45359.58
584.66	44858.71
584.82	44414.01
584.98	45045.95
585.14	44931.26
585.30	44870.41
585.46	45137.23
585.62	44765.09
585.78	44458.48
585.94	44729.98
586.10	44882.11
586.26	44711.25
586.42	44837.64
586.58	45226.17
586.74	44982.76
586.90	44601.25
587.06	44996.80
587.22	45177.02
587.38	44842.32
587.54	45324.47
587.70	44893.82
587.86	45345.54
588.02	44968.71
588.18	45544.48
588.34	44790.83
588.49	44797.85
588.65	44741.68
588.81	44626.99
588.97	45212.13
589.13	44832.96
589.29	45038.93
589.45	45134.89
589.61	44484.22
589.77	45062.33
589.93	44802.53
590.08	45301.07
590.24	45106.80
