SpectraSuite Data File
++++++++++++++++++++++++++++++++++++
Date: Fri Oct 25 10:43:51 EDT 2013
User: price-jones
Dark Spectrum Present: No
Reference Spectrum Present: No
Number of Sampled Component Spectra: 1
Spectrometers: USB2+H05261
Integration Time (usec): 100000 (USB2+H05261)
Spectra Averaged: 1 (USB2+H05261)
Boxcar Smoothing: 0 (USB2+H05261)
Correct for Electrical Dark: No (USB2+H05261)
Strobe/Lamp Enabled: No (USB2+H05261)
Correct for Detector Non-linearity: No (USB2+H05261)
Correct for Stray Light: No (USB2+H05261)
Number of Pixels in Processed Spectrum: 2048
>>>>>Begin Processed Spectral Data<<<<<
365.73	74.90
365.92	74.90
366.12	74.90
366.32	70.22
366.52	72.56
366.72	58.51
366.91	2.34
367.11	9.36
367.31	25.75
367.51	0.00
367.70	16.38
367.90	16.38
368.10	32.77
368.30	14.04
368.49	0.00
368.69	98.30
368.89	0.00
369.09	25.75
369.28	53.83
369.48	107.66
369.68	28.09
369.87	51.49
370.07	107.66
370.27	124.05
370.47	203.63
370.66	381.51
370.86	433.00
371.06	493.85
371.25	456.40
371.45	411.93
371.65	454.06
371.84	507.90
372.04	433.00
372.24	503.22
372.44	477.47
372.63	547.69
372.83	528.96
373.03	470.45
373.22	528.96
373.42	627.26
373.62	554.71
373.81	526.62
374.01	594.50
374.21	554.71
374.40	531.30
374.60	603.86
374.79	543.00
374.99	543.00
375.19	554.71
375.38	566.41
375.58	596.84
375.78	566.41
375.97	678.76
376.17	660.03
376.37	643.65
376.56	627.26
376.76	538.32
376.95	645.99
377.15	610.88
377.35	622.58
377.54	641.31
377.74	692.80
377.93	669.39
378.13	709.18
378.33	627.26
378.52	641.31
378.72	723.23
378.91	699.82
379.11	674.07
379.31	681.10
379.50	606.20
379.70	706.84
379.89	702.16
380.09	690.46
380.28	676.41
380.48	720.88
380.68	610.88
380.87	795.78
381.07	739.61
381.26	788.76
381.46	744.29
381.65	741.95
381.85	767.70
382.04	704.50
382.24	751.31
382.43	737.27
382.63	737.27
382.83	760.67
383.02	641.31
383.22	802.80
383.41	737.27
383.61	748.97
383.80	858.98
384.00	784.08
384.19	767.70
384.39	807.48
384.58	774.72
384.78	784.08
384.97	842.59
385.17	856.64
385.36	870.68
385.56	861.32
385.75	898.77
385.95	840.25
386.14	889.40
386.34	842.59
386.53	800.46
386.72	882.38
386.92	866.00
387.11	835.57
387.31	842.59
387.50	894.08
387.70	821.53
387.89	894.08
388.09	884.72
388.28	882.38
388.48	891.74
388.67	978.34
388.86	1022.81
389.06	889.40
389.25	945.58
389.45	990.05
389.64	999.41
389.84	1032.18
390.03	922.17
390.22	1064.94
390.42	1029.84
390.61	1088.35
390.81	992.39
391.00	1071.97
391.19	961.96
391.39	1027.50
391.58	1004.09
391.78	1090.69
391.97	1008.77
392.16	997.07
392.36	1100.05
392.55	1062.60
392.75	1107.07
392.94	968.98
393.13	992.39
393.33	959.62
393.52	1088.35
393.71	1095.37
393.91	1144.52
394.10	1153.88
394.29	1238.14
394.49	1135.16
394.68	1233.46
394.88	1200.69
395.07	1224.10
395.26	1170.27
395.46	1179.63
395.65	1235.80
395.84	1181.97
396.04	1240.48
396.23	1118.78
396.42	1181.97
396.62	1181.97
396.81	1320.06
397.00	1228.78
397.19	1315.38
397.39	1343.47
397.58	1366.87
397.77	1357.51
397.97	1373.89
398.16	1441.77
398.35	1504.96
398.55	1446.45
398.74	1542.41
398.93	1481.56
399.12	1507.30
399.32	1373.89
399.51	1490.92
399.70	1584.54
399.90	1483.90
400.09	1619.65
400.28	1636.03
400.47	1619.65
400.67	1636.03
400.86	1661.78
401.05	1710.93
401.24	1722.63
401.44	1666.46
401.63	1746.04
401.82	1715.61
402.01	1746.04
402.21	1820.94
402.40	1823.28
402.59	1638.38
402.78	1774.13
402.97	1767.10
403.17	1774.13
403.36	1703.91
403.55	1739.02
403.74	1806.89
403.93	1804.55
404.13	1806.89
404.32	1884.13
404.51	1893.49
404.70	1973.07
404.89	1895.83
405.09	1893.49
405.28	1937.96
405.47	1982.43
405.66	1830.30
405.85	2071.37
406.05	1975.41
406.24	2083.08
406.43	2078.40
406.62	2036.27
406.81	2125.21
407.00	2057.33
407.20	1996.48
407.39	2036.27
407.58	2172.02
407.77	2190.74
407.96	2228.19
408.15	2270.32
408.34	2326.49
408.54	2331.17
408.73	2356.92
408.92	2368.62
409.11	2303.09
409.30	2246.91
409.49	2223.51
409.68	2279.68
409.87	2338.20
410.07	2377.98
410.26	2258.62
410.45	2476.29
410.64	2466.92
410.83	2562.89
411.02	2499.69
411.21	2708.00
411.40	2555.86
411.59	2640.12
411.78	2668.21
411.98	2691.62
412.17	2672.89
412.36	2555.86
412.55	2813.32
412.74	2689.28
412.93	2785.24
413.12	2726.72
413.31	2946.73
413.50	2789.92
413.69	2897.58
413.88	2937.37
414.07	2925.67
414.26	3052.06
414.45	2946.73
414.64	3042.70
414.83	2991.20
415.02	2977.16
415.22	2970.14
415.41	3152.70
415.60	3187.81
415.79	3143.34
415.98	3330.58
416.17	3201.85
416.36	3187.81
416.55	3246.32
416.74	3311.86
416.93	3328.24
417.12	3337.60
417.31	3382.07
417.50	3438.25
417.69	3478.04
417.88	3396.12
418.07	3400.80
418.26	3375.05
418.45	3379.73
418.64	3585.70
418.83	3602.08
419.02	3651.24
419.21	3627.83
419.39	3590.38
419.58	3559.95
419.77	3595.06
419.96	3777.62
420.15	3674.64
420.34	3634.85
420.53	3777.62
420.72	3913.38
420.91	3971.89
421.10	3913.38
421.29	3946.14
421.48	3735.50
421.67	3936.78
421.86	3918.06
422.05	3873.59
422.24	3861.88
422.43	3763.58
422.61	3868.91
422.80	3894.65
422.99	3803.37
423.18	3995.29
423.37	3934.44
423.56	4023.38
423.75	3922.74
423.94	3873.59
424.13	3768.26
424.32	3845.50
424.50	4072.53
424.69	4124.02
424.88	3995.29
425.07	4039.76
425.26	3960.19
425.45	3864.22
425.64	3964.87
425.83	3990.61
426.01	4166.15
426.20	4088.92
426.39	4063.17
426.58	4037.42
426.77	4056.15
426.96	4133.39
427.15	3967.21
427.33	3932.10
427.52	3960.19
427.71	4131.05
427.90	4262.12
428.09	4133.39
428.28	4231.69
428.46	4276.16
428.65	4152.11
428.84	4376.80
429.03	4210.62
429.22	4077.21
429.40	4177.86
429.59	4142.75
429.78	4138.07
429.97	3908.69
430.16	4021.04
430.34	4135.73
430.53	4337.01
430.72	4266.80
430.91	4234.03
431.10	4334.67
431.28	4507.87
431.47	4507.87
431.66	4819.16
431.85	4587.45
432.03	4615.54
432.22	4662.35
432.41	4652.98
432.60	4681.07
432.79	4617.88
432.97	4882.36
433.16	4755.97
433.35	4636.60
433.54	4779.37
433.72	4730.22
433.91	4702.14
434.10	4660.01
434.28	4802.78
434.47	4781.71
434.66	4873.00
434.85	4908.10
435.03	4922.15
435.22	4947.89
435.41	5188.97
435.59	5046.20
435.78	5071.94
435.97	5277.91
436.16	5214.71
436.34	5242.80
436.53	5200.67
436.72	5273.23
436.90	5287.27
437.09	5275.57
437.28	5305.99
437.46	5268.55
437.65	5249.82
437.84	5331.74
438.02	5142.16
438.21	5198.33
438.40	5111.73
438.58	5247.48
438.77	5462.81
438.96	5476.85
439.14	5654.73
439.33	5572.82
439.52	5731.97
439.70	5659.42
439.89	5877.09
440.08	5839.64
440.26	5734.31
440.45	5846.66
440.63	6047.94
440.82	6010.50
441.01	5886.45
441.19	5881.77
441.38	6136.88
441.57	6179.01
441.75	6186.04
441.94	6394.34
442.12	6221.14
442.31	6485.62
442.50	6396.68
442.68	6155.61
442.87	6333.49
443.05	6469.24
443.24	6485.62
443.43	6352.21
443.61	6553.50
443.80	6642.44
443.98	6525.41
444.17	6347.53
444.35	6504.35
444.54	6583.93
444.73	6530.09
444.91	6335.83
445.10	6436.47
445.28	6427.11
445.47	6452.86
445.65	6572.22
445.84	6619.04
446.02	6562.86
446.21	6661.16
446.39	6537.12
446.58	6668.19
446.77	6640.10
446.95	6684.57
447.14	6745.42
447.32	6843.73
447.51	6546.48
447.69	6698.61
447.88	6841.39
448.06	6649.46
448.25	6707.98
448.43	6939.69
448.62	6750.10
448.80	6881.18
448.99	6827.34
449.17	6799.26
449.36	6949.05
449.54	7148.00
449.73	6979.48
449.91	7122.25
450.10	7028.63
450.28	7206.51
450.46	7234.60
450.65	7178.42
450.83	7075.44
451.02	7176.08
451.20	7421.84
451.39	7279.07
451.57	7290.77
451.76	7215.87
451.94	7304.81
452.13	7316.51
452.31	7293.11
452.49	7192.47
452.68	7211.19
452.86	7253.32
453.05	7314.17
453.23	7232.26
453.42	7328.22
453.60	7349.28
453.78	7459.29
453.97	7424.18
454.15	7438.22
454.34	7440.56
454.52	7662.91
454.70	7534.18
454.89	7545.89
455.07	7573.97
455.26	7503.76
455.44	7740.15
455.62	7695.68
455.81	7939.10
455.99	7749.51
456.17	7864.20
456.36	8021.02
456.54	8100.59
456.73	7913.35
456.91	8259.75
457.09	8105.28
457.28	8313.58
457.46	8128.68
457.64	8163.79
457.83	8084.21
458.01	8100.59
458.19	8245.71
458.38	8196.56
458.56	8269.11
458.74	8147.40
458.93	8280.82
459.11	8395.50
459.29	8437.63
459.48	8318.26
459.66	8297.20
459.84	8435.29
460.03	8641.26
460.21	8652.96
460.39	8568.70
460.57	8629.56
460.76	8610.83
460.94	8781.69
461.12	8667.00
461.31	8681.05
461.49	8622.53
461.67	8566.36
461.85	8858.93
462.04	8849.57
462.22	9069.58
462.40	9013.40
462.59	9078.94
462.77	8826.16
462.95	8849.57
463.13	8959.57
463.32	9008.72
463.50	9259.16
463.68	8980.64
463.86	9027.45
464.05	8999.36
464.23	9151.49
464.41	8985.32
464.59	8940.85
464.78	9280.22
464.96	9221.71
465.14	9221.71
465.32	9261.50
465.50	9298.95
465.69	9617.26
465.87	9444.06
466.05	9317.67
466.23	9254.48
466.41	9195.96
466.60	9444.06
466.78	9149.15
466.96	9224.05
467.14	9343.42
467.32	9509.60
467.51	9544.70
467.69	9423.00
467.87	9493.21
468.05	9481.51
468.23	9575.13
468.41	9453.42
468.60	9563.43
468.78	9659.39
468.96	9741.31
469.14	9776.42
469.32	9860.68
469.50	9542.36
469.69	9699.18
469.87	9975.36
470.05	9921.53
470.23	9823.23
470.41	9954.30
470.59	10059.62
470.77	10036.22
470.95	10181.33
471.14	10216.44
471.32	10019.83
471.50	10328.78
471.68	10438.79
471.86	10471.56
472.04	10581.56
472.22	10759.44
472.40	10335.81
472.58	10473.90
472.77	10644.76
472.95	10647.10
473.13	10827.32
473.31	10672.84
473.49	10661.14
473.67	10619.01
473.85	10860.09
474.03	10984.13
474.21	11077.76
474.39	11084.78
474.57	10974.77
474.75	11143.29
474.93	11192.44
475.12	11293.08
475.30	11428.84
475.48	11098.82
475.66	11178.40
475.84	11356.28
476.02	11492.03
476.20	11499.05
476.38	11777.58
476.56	11896.94
476.74	11733.11
476.92	11810.34
477.10	12013.97
477.28	12112.27
477.46	12187.17
477.64	12311.22
477.82	12311.22
478.00	12748.90
478.18	12332.28
478.36	12727.83
478.54	12697.41
478.72	12933.80
478.90	12973.59
479.08	13062.53
479.26	13336.37
479.44	13174.88
479.62	13294.24
479.80	13219.35
479.98	13261.48
480.16	13671.07
480.34	13729.58
480.52	13790.44
480.70	13865.33
480.88	13848.95
481.06	14073.64
481.24	14101.73
481.41	14417.70
481.59	14799.21
481.77	14368.55
481.95	14384.93
482.13	14834.32
482.31	14511.32
482.49	14986.45
482.67	14813.25
482.85	15131.56
483.03	15234.55
483.21	15550.52
483.39	15466.26
483.57	15522.43
483.74	15442.85
483.92	15775.21
484.10	15342.21
484.28	16205.87
484.46	16177.78
484.64	16535.88
484.82	16233.96
485.00	16388.43
485.18	16592.06
485.35	16678.66
485.53	16482.05
485.71	16379.07
485.89	16540.57
486.07	16624.83
486.25	16734.83
486.43	16957.18
486.61	17146.76
486.78	17284.86
486.96	17563.38
487.14	17771.69
487.32	17900.42
487.50	18019.78
487.68	18373.21
487.85	18511.30
488.03	18537.04
488.21	18827.27
488.39	18527.68
488.57	18485.55
488.75	18911.53
488.92	19229.84
489.10	19070.68
489.28	19754.12
489.46	19864.13
489.64	19700.29
489.81	20018.60
489.99	20479.69
490.17	20411.81
490.35	20510.11
490.53	20659.91
490.70	20416.49
490.88	20884.60
491.06	21039.08
491.24	20987.58
491.41	20863.54
491.59	21097.59
491.77	21099.93
491.95	21195.89
492.13	21172.49
492.30	21511.86
492.48	21743.58
492.66	21937.84
492.84	22223.39
493.01	22199.98
493.19	21968.27
493.37	22408.29
493.54	22436.38
493.72	22525.32
493.90	23065.98
494.08	23166.62
494.25	23477.91
494.43	23477.91
494.61	23531.75
494.79	23108.11
494.96	23566.85
495.14	23531.75
495.32	23929.64
495.49	23990.49
495.67	23899.21
495.85	24147.31
496.02	24390.72
496.20	24542.86
496.38	24257.31
496.55	24596.69
496.73	25130.33
496.91	25006.28
497.09	25074.16
497.26	25333.96
497.44	25179.48
497.62	25483.75
497.79	25441.62
497.97	25324.60
498.14	25450.99
498.32	25816.11
498.50	25961.22
498.67	25986.97
498.85	26192.94
499.03	26316.98
499.20	26426.99
499.38	26813.18
499.56	26199.96
499.73	26721.90
499.91	26462.10
500.08	26754.66
500.26	26504.23
500.44	26806.16
500.61	27119.79
500.79	26670.40
500.97	27136.17
501.14	27281.28
501.32	27122.13
501.49	27007.44
501.67	27201.71
501.84	27182.98
502.02	27358.52
502.20	27784.50
502.37	28100.47
502.55	28191.75
502.72	28283.03
502.90	28128.56
503.07	28058.34
503.25	28044.30
503.43	28388.36
503.60	28355.59
503.78	28627.09
503.95	28371.97
504.13	28655.18
504.30	28903.28
504.48	29149.03
504.65	28882.21
504.83	29134.99
505.01	29270.74
505.18	29287.12
505.36	29495.43
505.53	29502.45
505.71	29724.80
505.88	29722.46
506.06	29537.56
506.23	29773.95
506.41	29598.41
506.58	30031.41
506.76	30171.85
506.93	29862.90
507.11	30183.55
507.28	29820.77
507.46	29869.92
507.63	30522.93
507.81	30178.87
507.98	30253.76
508.16	30422.28
508.33	30834.22
508.50	30897.41
508.68	31164.23
508.85	31063.59
509.03	31269.56
509.20	31267.22
509.38	31606.59
509.55	31510.63
509.73	31309.35
509.90	31318.71
510.08	31519.99
510.25	31566.81
510.42	31819.58
510.60	32371.95
510.77	32079.38
510.95	31983.42
511.12	31756.39
511.30	32313.44
511.47	32556.85
511.64	32552.17
511.82	32439.82
511.99	32755.80
512.17	32652.81
512.34	32453.87
512.51	33153.69
512.69	33181.77
512.86	33165.39
513.04	33427.53
513.21	32966.45
513.38	33160.71
513.56	32959.42
513.73	32634.09
513.90	33041.34
514.08	33193.48
514.25	33439.23
514.43	33640.52
514.60	33369.02
514.77	33441.57
514.95	33869.89
515.12	33394.76
515.29	34071.18
515.47	34338.00
515.64	34040.75
515.81	34368.43
515.99	33956.49
516.16	33951.81
516.33	34000.96
516.51	33926.07
516.68	33528.17
516.85	33823.08
517.03	33549.24
517.20	34190.55
517.37	34780.36
517.54	34642.27
517.72	34237.36
517.89	34256.08
518.06	34328.64
518.24	34391.83
518.41	34323.96
518.58	34778.02
518.75	34649.29
518.93	35133.78
519.10	34883.34
519.27	35302.30
519.45	35480.18
519.62	35433.37
519.79	35608.91
519.96	35377.20
520.14	35562.10
520.31	35583.16
520.48	36079.36
520.65	35660.40
520.83	35735.30
521.00	36037.23
521.17	35910.84
521.34	35835.94
521.52	36060.63
521.69	36315.75
521.86	36825.99
522.03	36699.60
522.20	36002.12
522.38	36432.78
522.55	36751.09
522.72	36416.40
522.89	36711.30
523.07	36893.86
523.24	36891.52
523.41	37366.65
523.58	36847.05
523.75	37284.73
523.92	37275.37
524.10	37530.49
524.27	37593.68
524.44	37420.48
524.61	37303.46
524.78	37352.61
524.96	37441.55
525.13	37874.55
525.30	37619.43
525.47	37862.85
525.64	37708.37
525.81	37647.52
525.98	37230.90
526.16	37329.20
526.33	37514.11
526.50	37820.72
526.67	37720.07
526.84	37500.06
527.01	37832.42
527.18	37647.52
527.36	38199.88
527.53	38038.39
527.70	38464.36
527.87	38948.85
528.04	38464.36
528.21	38244.35
528.38	39007.37
528.55	39103.33
528.72	39070.56
528.89	39070.56
529.07	39353.77
529.24	38880.98
529.41	39255.46
529.58	38974.60
529.75	39117.37
529.92	39459.09
530.09	39524.63
530.26	39770.38
530.43	39381.85
530.60	39496.54
530.77	39742.30
530.94	39578.46
531.11	39463.77
531.28	39765.70
531.46	39824.22
531.63	39646.33
531.80	39718.89
531.97	39335.04
532.14	39658.04
532.31	39384.19
532.48	39833.58
532.65	39412.28
532.82	39648.68
532.99	40121.46
533.16	39931.88
533.33	40297.00
533.50	40474.88
533.67	40252.53
533.84	40289.98
534.01	40156.57
534.18	40259.55
534.35	40924.27
534.52	40201.04
534.69	40924.27
534.86	40435.10
535.03	41111.51
535.20	41235.56
535.37	41074.06
535.54	41031.93
535.71	41141.94
535.88	41148.96
536.05	40655.11
536.22	41163.00
536.38	40790.86
536.55	40832.99
536.72	41085.76
536.89	40678.51
537.06	41146.62
537.23	41741.11
537.40	41275.35
537.57	41553.87
537.74	41027.25
537.91	41935.38
538.08	41345.56
538.25	41282.37
538.42	41233.22
538.59	41963.46
538.75	41277.69
538.92	41954.10
539.09	41977.51
539.26	41404.08
539.43	41661.54
539.60	41495.36
539.77	41551.53
539.94	41598.34
540.11	41476.63
540.28	41523.44
540.44	41942.40
540.61	41383.01
540.78	41546.85
540.95	41542.17
541.12	42150.71
541.29	42029.00
541.46	42171.77
541.62	42272.42
541.79	42403.49
541.96	41614.72
542.13	42075.81
542.30	42160.07
542.47	42103.90
542.63	42066.45
542.80	42059.43
542.97	42780.31
543.14	42796.70
543.31	42794.36
543.48	42738.18
543.64	42869.25
543.81	43100.97
543.98	42794.36
544.15	42735.84
544.32	43126.71
544.48	43058.84
544.65	43079.90
544.82	43175.86
544.99	43033.09
545.16	43349.06
545.32	42878.61
545.49	43660.35
545.66	43777.38
545.83	43468.43
546.00	43643.97
546.16	43599.50
546.33	43267.14
546.50	43014.37
546.67	43847.60
546.83	43124.37
547.00	43325.66
547.17	43482.47
547.34	43496.52
547.50	43819.51
547.67	43948.24
547.84	43325.66
548.00	43784.40
548.17	43725.89
548.34	43800.79
548.51	44325.07
548.67	44088.67
548.84	44336.77
549.01	44051.22
549.18	44205.70
549.34	43943.56
549.51	43812.49
549.68	44161.23
549.84	44406.98
550.01	44055.90
550.18	43861.64
550.34	44051.22
550.51	43950.58
550.68	44266.55
550.84	43742.27
551.01	44161.23
551.18	44458.48
551.34	44383.58
551.51	44671.46
551.68	44636.36
551.84	44678.49
552.01	44374.22
552.18	44472.52
552.34	44217.40
552.51	44186.97
552.68	44488.90
552.84	44509.97
553.01	44774.45
553.18	44215.06
553.34	44690.19
553.51	44924.24
553.67	44746.36
553.84	45027.23
554.01	45123.19
554.17	44921.90
554.34	44905.52
554.51	44999.14
554.67	44879.77
554.84	45347.88
555.00	44643.38
555.17	44568.48
555.33	44715.93
555.50	44821.26
555.67	44802.53
555.83	44854.03
556.00	45045.95
556.16	45324.47
556.33	45144.25
556.50	45390.01
556.66	45202.77
556.83	44561.46
556.99	45408.73
557.16	45162.98
557.32	45277.66
557.49	45153.62
557.65	45291.71
557.82	45382.99
557.98	45151.27
558.15	45551.51
558.32	45221.49
558.48	45514.06
558.65	45406.39
558.81	45134.89
558.98	44994.46
559.14	45502.35
559.31	45317.45
559.47	45581.93
559.64	45509.38
559.80	45832.37
559.97	45471.93
560.13	44884.45
560.30	45167.66
560.46	45773.86
560.63	45425.12
560.79	45483.63
560.96	45839.39
561.12	45287.03
561.29	45375.97
561.45	45371.28
561.61	45551.51
561.78	45759.81
561.94	45160.64
562.11	45429.80
562.27	45715.34
562.44	45762.15
562.60	46108.55
562.77	45617.04
562.93	45841.73
563.10	45951.74
563.26	45603.00
563.42	45663.85
563.59	45373.63
563.75	45844.07
563.92	45755.13
564.08	45713.00
564.24	46153.02
564.41	45642.79
564.57	45638.11
564.74	45755.13
564.90	45219.15
565.07	45900.25
565.23	45930.67
565.39	45911.95
565.56	45612.36
565.72	45387.67
565.88	45830.03
566.05	45710.66
566.21	45951.74
566.38	45881.52
566.54	45769.18
566.70	46230.26
566.87	46368.35
567.03	45797.26
567.19	46230.26
567.36	46244.30
567.52	45923.65
567.68	46209.20
567.85	45764.49
568.01	45876.84
568.17	45820.67
568.34	46188.13
568.50	46124.94
568.66	46017.27
568.83	46220.90
568.99	45689.60
569.15	45942.38
569.32	45951.74
569.48	46129.62
569.64	46401.12
569.81	45846.41
569.97	46216.22
570.13	45935.35
570.30	45820.67
570.46	45815.99
570.62	46185.79
570.78	45689.60
570.95	45722.37
571.11	46094.51
571.27	46115.58
571.43	46017.27
571.60	46506.44
571.76	45876.84
571.92	46209.20
572.09	46508.79
572.25	46115.58
572.41	46314.52
572.57	46246.65
572.74	46366.01
572.90	46525.17
573.06	46492.40
573.22	46080.47
573.38	45888.54
573.55	46017.27
573.71	46527.51
573.87	46213.88
574.03	46078.13
574.20	46272.39
574.36	46426.87
574.52	46066.42
574.68	45914.29
574.84	46581.34
575.01	45787.90
575.17	46014.93
575.33	46007.91
575.49	46274.73
575.65	46258.35
575.82	46506.44
575.98	45911.95
576.14	46454.95
576.30	46422.19
576.46	46021.95
576.62	45965.78
576.79	45825.35
576.95	45565.55
577.11	46108.55
577.27	46366.01
577.43	46300.48
577.59	45745.77
577.75	46136.64
577.92	45846.41
578.08	46160.05
578.24	46148.34
578.40	46078.13
578.56	46665.60
578.72	46305.16
578.88	46712.41
579.04	46316.86
579.21	46461.97
579.37	46260.69
579.53	46099.19
579.69	45956.42
579.85	46000.89
580.01	46169.41
580.17	45961.10
580.33	46291.12
580.49	46628.15
580.65	46295.80
580.82	46127.28
580.98	45979.82
581.14	46169.41
581.30	46499.42
581.46	46649.22
581.62	46494.74
581.78	46464.32
581.94	46461.97
582.10	46579.00
582.26	46457.29
582.42	46665.60
582.58	46602.41
582.74	46478.36
582.90	46281.75
583.06	46660.92
583.22	46749.86
583.38	46471.34
583.54	46466.66
583.70	46714.75
583.86	46300.48
584.02	46164.73
584.18	46541.55
584.34	46321.54
584.50	46080.47
584.66	46113.23
584.82	46403.46
584.98	46674.96
585.14	46375.37
585.30	46663.26
585.46	46759.22
585.62	46387.08
585.78	46536.87
585.94	45975.14
586.10	46225.58
586.26	46068.76
586.42	46677.30
586.58	46656.24
586.74	46674.96
586.90	46073.45
587.06	46263.03
587.22	46691.35
587.38	46096.85
587.54	46260.69
587.70	46831.78
587.86	46099.19
588.02	46557.94
588.18	46569.64
588.34	46007.91
588.49	45720.02
588.65	46103.87
588.81	45900.25
588.97	45773.86
589.13	45567.89
589.29	46087.49
589.45	45776.20
589.61	46263.03
589.77	45811.31
589.93	46295.80
