SpectraSuite Data File
++++++++++++++++++++++++++++++++++++
Date: Fri Oct 25 10:43:26 EDT 2013
User: price-jones
Dark Spectrum Present: No
Reference Spectrum Present: No
Number of Sampled Component Spectra: 1
Spectrometers: USB2+H05261
Integration Time (usec): 100000 (USB2+H05261)
Spectra Averaged: 1 (USB2+H05261)
Boxcar Smoothing: 0 (USB2+H05261)
Correct for Electrical Dark: No (USB2+H05261)
Strobe/Lamp Enabled: No (USB2+H05261)
Correct for Detector Non-linearity: No (USB2+H05261)
Correct for Stray Light: No (USB2+H05261)
Number of Pixels in Processed Spectrum: 2048
>>>>>Begin Processed Spectral Data<<<<<
365.73	145.11
365.92	145.11
366.12	145.11
366.32	32.77
366.52	0.00
366.72	0.00
366.91	18.72
367.11	79.58
367.31	14.04
367.51	42.13
367.70	0.00
367.90	49.15
368.10	42.13
368.30	7.02
368.49	0.00
368.69	159.16
368.89	81.92
369.09	46.81
369.28	42.13
369.48	88.94
369.68	0.00
369.87	100.64
370.07	84.26
370.27	180.22
370.47	119.37
370.66	421.30
370.86	425.98
371.06	435.34
371.25	423.64
371.45	386.19
371.65	447.04
371.84	407.25
372.04	416.62
372.24	533.64
372.44	444.70
372.63	465.77
372.83	486.83
373.03	449.38
373.22	545.34
373.42	463.43
373.62	461.09
373.81	547.69
374.01	592.16
374.21	498.53
374.40	592.16
374.60	603.86
374.79	510.24
374.99	566.41
375.19	575.77
375.38	608.54
375.58	503.22
375.78	571.09
375.97	594.50
376.17	709.18
376.37	559.39
376.56	528.96
376.76	566.41
376.95	564.07
377.15	622.58
377.35	662.37
377.54	582.79
377.74	608.54
377.93	580.45
378.13	692.80
378.33	711.52
378.52	587.47
378.72	713.86
378.91	674.07
379.11	645.99
379.31	685.78
379.50	599.18
379.70	706.84
379.89	713.86
380.09	683.44
380.28	589.82
380.48	725.57
380.68	746.63
380.87	627.26
381.07	697.48
381.26	760.67
381.46	617.90
381.65	709.18
381.85	681.10
382.04	674.07
382.24	638.97
382.43	662.37
382.63	664.71
382.83	683.44
383.02	777.06
383.22	753.65
383.41	634.29
383.61	723.23
383.80	816.85
384.00	791.10
384.19	763.01
384.39	779.40
384.58	702.16
384.78	858.98
384.97	767.70
385.17	828.55
385.36	774.72
385.56	816.85
385.75	800.46
385.95	858.98
386.14	781.74
386.34	795.78
386.53	837.91
386.72	746.63
386.92	905.79
387.11	896.43
387.31	922.17
387.50	840.25
387.70	863.66
387.89	858.98
388.09	887.06
388.28	861.32
388.48	863.66
388.67	929.19
388.86	959.62
389.06	940.90
389.25	915.15
389.45	898.77
389.64	940.90
389.84	994.73
390.03	945.58
390.22	1001.75
390.42	1067.28
390.61	922.17
390.81	1001.75
391.00	1048.56
391.19	1053.24
391.39	1046.22
391.58	1062.60
391.78	985.37
391.97	1081.33
392.16	992.39
392.36	1004.09
392.55	1011.11
392.75	973.66
392.94	947.92
393.13	980.68
393.33	987.71
393.52	987.71
393.71	1076.65
393.91	1022.81
394.10	1048.56
394.29	1144.52
394.49	1048.56
394.68	1240.48
394.88	1081.33
395.07	1221.76
395.26	1198.35
395.46	1233.46
395.65	1163.25
395.84	1203.04
396.04	1284.95
396.23	1177.29
396.42	1083.67
396.62	1153.88
396.81	1163.25
397.00	1107.07
397.19	1151.54
397.39	1280.27
397.58	1376.24
397.77	1315.38
397.97	1416.02
398.16	1331.76
398.35	1453.47
398.55	1439.43
398.74	1486.24
398.93	1519.01
399.12	1530.71
399.32	1416.02
399.51	1507.30
399.70	1514.33
399.90	1404.32
400.09	1582.20
400.28	1533.05
400.47	1533.05
400.67	1582.20
400.86	1589.22
401.05	1638.38
401.24	1621.99
401.44	1706.25
401.63	1589.22
401.82	1617.31
402.01	1626.67
402.21	1685.19
402.40	1736.68
402.59	1724.97
402.78	1617.31
402.97	1708.59
403.17	1680.50
403.36	1755.40
403.55	1776.47
403.74	1818.60
403.93	1811.57
404.13	1870.09
404.32	1743.70
404.51	1774.13
404.70	1788.17
404.89	1818.60
405.09	1933.28
405.28	1895.83
405.47	1926.26
405.66	1970.73
405.85	1928.60
406.05	1987.11
406.24	1940.30
406.43	2036.27
406.62	1961.37
406.81	2031.58
407.00	2024.56
407.20	1982.43
407.39	2069.03
407.58	2165.00
407.77	2064.35
407.96	2193.08
408.15	2122.87
408.34	2218.83
408.54	2209.47
408.73	2186.06
408.92	2260.96
409.11	2289.04
409.30	2317.13
409.49	2143.93
409.68	2207.13
409.87	2225.85
410.07	2221.17
410.26	2251.60
410.45	2338.20
410.64	2345.22
410.83	2403.73
411.02	2328.83
411.21	2478.63
411.40	2544.16
411.59	2546.50
411.78	2537.14
411.98	2497.35
412.17	2572.25
412.36	2558.21
412.55	2696.30
412.74	2696.30
412.93	2649.49
413.12	2595.65
413.31	2843.75
413.50	2684.59
413.69	2658.85
413.88	2878.86
414.07	2848.43
414.26	2700.98
414.45	2867.16
414.64	2935.03
414.83	3026.31
415.02	3005.25
415.22	2956.10
415.41	3047.38
415.60	2974.82
415.79	3148.02
415.98	3260.37
416.17	3169.09
416.36	3084.83
416.55	3190.15
416.74	3213.56
416.93	3164.40
417.12	3190.15
417.31	3335.26
417.50	3246.32
417.69	3251.00
417.88	3428.88
418.07	3377.39
418.26	3435.91
418.45	3438.25
418.64	3391.44
418.83	3398.46
419.02	3424.20
419.21	3545.91
419.39	3602.08
419.58	3459.31
419.77	3405.48
419.96	3499.10
420.15	3550.59
420.34	3611.45
420.53	3632.51
420.72	3845.50
420.91	3662.94
421.10	3714.43
421.29	3733.15
421.48	3613.79
421.67	3625.49
421.86	3662.94
422.05	3742.52
422.24	3747.20
422.43	3749.54
422.61	3866.56
422.80	3691.02
422.99	3805.71
423.18	3662.94
423.37	3843.16
423.56	3866.56
423.75	3721.45
423.94	3705.07
424.13	3550.59
424.32	3707.41
424.50	3889.97
424.69	3894.65
424.88	3901.67
425.07	3796.35
425.26	3817.41
425.45	3681.66
425.64	3777.62
425.83	3763.58
426.01	3948.48
426.20	3847.84
426.39	3988.27
426.58	3819.75
426.77	3887.63
426.96	3971.89
427.15	3927.42
427.33	4025.72
427.52	3892.31
427.71	3990.61
427.90	4044.45
428.09	4044.45
428.28	4154.45
428.46	4095.94
428.65	4086.58
428.84	4175.52
429.03	4219.99
429.22	4049.13
429.40	4135.73
429.59	4128.70
429.78	3801.03
429.97	3911.04
430.16	4025.72
430.34	4102.96
430.53	4037.42
430.72	4227.01
430.91	4077.21
431.10	4229.35
431.28	4397.87
431.47	4561.70
431.66	4557.02
431.85	4386.16
432.03	4414.25
432.22	4622.56
432.41	4561.70
432.60	4531.28
432.79	4374.46
432.97	4765.33
433.16	4603.83
433.35	4554.68
433.54	4498.51
433.72	4465.74
433.91	4578.09
434.10	4571.07
434.28	4674.05
434.47	4622.56
434.66	4660.01
434.85	4777.03
435.03	4997.04
435.22	4727.88
435.41	4889.38
435.59	4940.87
435.78	4957.25
435.97	4968.96
436.16	5022.79
436.34	5006.41
436.53	4926.83
436.72	5179.61
436.90	4990.02
437.09	5057.90
437.28	4971.30
437.46	4971.30
437.65	5057.90
437.84	4980.66
438.02	5078.96
438.21	5144.50
438.40	5097.69
438.58	5270.89
438.77	5334.08
438.96	5249.82
439.14	5387.91
439.33	5355.15
439.52	5558.77
439.70	5509.62
439.89	5434.72
440.08	5689.84
440.26	5486.22
440.45	5444.09
440.63	5720.27
440.82	5902.83
441.01	5795.17
441.19	5841.98
441.38	6005.81
441.57	5858.36
441.75	6078.37
441.94	5989.43
442.12	6120.50
442.31	6223.48
442.50	6164.97
442.68	6104.12
442.87	6010.50
443.05	6136.88
443.24	6377.96
443.43	6188.38
443.61	6225.82
443.80	6562.86
443.98	6097.10
444.17	6129.86
444.35	6300.72
444.54	6310.08
444.73	6417.75
444.91	6347.53
445.10	6347.53
445.28	6422.43
445.47	6272.64
445.65	6249.23
445.84	6506.69
446.02	6361.58
446.21	6317.11
446.39	6466.90
446.58	6499.67
446.77	6487.96
446.95	6356.90
447.14	6523.07
447.32	6757.13
447.51	6548.82
447.69	6380.30
447.88	6511.37
448.06	6438.81
448.25	6555.84
448.43	6384.98
448.62	6429.45
448.80	6497.33
448.99	6712.66
449.17	6715.00
449.36	6710.32
449.54	6768.83
449.73	6705.63
449.91	6953.73
450.10	6991.18
450.28	7091.82
450.46	7002.88
450.65	7087.14
450.83	6991.18
451.02	7042.67
451.20	7101.19
451.39	7119.91
451.57	6906.92
451.76	7035.65
451.94	7098.84
452.13	7009.90
452.31	7030.97
452.49	6881.18
452.68	7091.82
452.86	6918.62
453.05	7143.32
453.23	7300.13
453.42	7103.53
453.60	7089.48
453.78	7449.93
453.97	7119.91
454.15	7351.62
454.34	6902.24
454.52	7363.33
454.70	7440.56
454.89	7295.45
455.07	7286.09
455.26	7426.52
455.44	7637.17
455.62	7688.66
455.81	7375.03
455.99	7653.55
456.17	7613.76
456.36	7585.68
456.54	7705.04
456.73	7527.16
456.91	7920.37
457.09	7810.37
457.28	8095.91
457.46	7789.30
457.64	8116.98
457.83	7843.14
458.01	7861.86
458.19	8046.76
458.38	7920.37
458.56	8002.29
458.74	8119.32
458.93	8159.11
459.11	8168.47
459.29	7983.57
459.48	8030.38
459.66	8219.96
459.84	8231.66
460.03	8170.81
460.21	8313.58
460.39	8353.37
460.57	8194.22
460.76	8435.29
460.94	8500.83
461.12	8442.31
461.31	8465.72
461.49	8564.02
461.67	8327.63
461.85	8748.92
462.04	8559.34
462.22	9289.59
462.40	8945.53
462.59	8620.19
462.77	8601.47
462.95	8671.68
463.13	8669.34
463.32	8617.85
463.50	8863.61
463.68	8805.10
463.86	8713.81
464.05	8697.43
464.23	8812.12
464.41	8767.65
464.59	8849.57
464.78	8912.76
464.96	8828.50
465.14	8814.46
465.32	8896.38
465.50	9259.16
465.69	9202.99
465.87	8950.21
466.05	8910.42
466.23	8821.48
466.41	8884.67
466.60	9100.00
466.78	8798.07
466.96	9071.92
467.14	8938.51
467.32	9184.26
467.51	9238.09
467.69	8882.33
467.87	9263.84
468.05	9423.00
468.23	9172.56
468.41	9170.22
468.60	9312.99
468.78	9352.78
468.96	9121.07
469.14	9444.06
469.32	9664.07
469.50	9444.06
469.69	9500.23
469.87	9591.52
470.05	9668.75
470.23	9743.65
470.41	9504.92
470.59	9774.08
470.77	9689.82
470.95	9708.54
471.14	10038.56
471.32	9717.90
471.50	9966.00
471.68	10059.62
471.86	10148.56
472.04	10087.71
472.22	10321.76
472.40	9907.49
472.58	10040.90
472.77	10176.65
472.95	10223.46
473.13	10654.12
473.31	10473.90
473.49	10263.25
473.67	10237.50
473.85	10623.69
474.03	10616.67
474.21	10565.18
474.39	10789.87
474.57	10789.87
474.75	10857.75
474.93	10679.86
475.12	10792.21
475.30	10888.17
475.48	10752.42
475.66	10951.37
475.84	10981.79
476.02	11049.67
476.20	11206.48
476.38	11377.34
476.56	11747.15
476.74	11679.27
476.92	11421.81
477.10	11536.50
477.28	11885.24
477.46	11800.98
477.64	12006.95
477.82	11997.59
478.00	12100.57
478.18	12154.40
478.36	12189.51
478.54	12496.12
478.72	12542.93
478.90	12622.51
479.08	12601.44
479.26	13004.02
479.44	13048.49
479.62	12959.55
479.80	12929.12
479.98	13102.32
480.16	13378.50
480.34	13254.45
480.52	13434.68
480.70	13465.10
480.88	13266.16
481.06	13654.69
481.24	13554.04
481.41	14047.90
481.59	13912.14
481.77	14136.84
481.95	14003.43
482.13	14207.05
482.31	14164.92
482.49	14476.21
482.67	14527.71
482.85	14576.86
483.03	14867.08
483.21	14813.25
483.39	14855.38
483.57	15194.76
483.74	15002.83
483.92	14995.81
484.10	15136.24
484.28	15424.13
484.46	15852.45
484.64	15971.82
484.82	15679.25
485.00	15815.00
485.18	15929.69
485.35	16372.05
485.53	15676.91
485.71	15744.78
485.89	16058.42
486.07	16205.87
486.25	16390.77
486.43	16545.25
486.61	16889.31
486.78	16870.58
486.96	16992.29
487.14	17319.96
487.32	17385.50
487.50	17750.62
487.68	17832.54
487.85	17886.37
488.03	17916.80
488.21	18115.75
488.39	18068.94
488.57	18375.55
488.75	18221.07
488.92	18651.73
489.10	18780.46
489.28	19140.90
489.46	19206.44
489.64	19215.80
489.81	19763.48
489.99	19756.46
490.17	19726.04
490.35	19861.79
490.53	19662.84
490.70	20238.61
490.88	20098.18
491.06	20130.95
491.24	20238.61
491.41	20217.55
491.59	20208.19
491.77	20489.05
491.95	20697.36
492.13	20772.25
492.30	21116.31
492.48	21123.33
492.66	21394.84
492.84	21537.61
493.01	21497.82
493.19	21535.27
493.37	21820.81
493.54	21766.98
493.72	22300.62
493.90	21977.63
494.08	22216.36
494.25	22558.08
494.43	22705.54
494.61	22801.50
494.79	22923.21
494.96	23147.90
495.14	22960.66
495.32	22937.25
495.49	23124.49
495.67	23051.94
495.85	23658.14
496.02	23864.10
496.20	23627.71
496.38	23845.38
496.55	23936.66
496.73	24325.19
496.91	24196.46
497.09	24208.16
497.26	24386.04
497.44	24641.16
497.62	24449.24
497.79	24856.49
497.97	24601.37
498.14	24957.13
498.32	25008.62
498.50	25191.19
498.67	25340.98
498.85	25514.18
499.03	25408.86
499.20	25912.07
499.38	25881.64
499.56	25764.62
499.73	25825.47
499.91	26216.34
500.08	25830.15
500.26	26075.91
500.44	26171.87
500.61	26326.35
500.79	26174.21
500.97	26529.97
501.14	26457.42
501.32	26218.68
501.49	26415.29
501.67	26642.32
501.84	26569.76
502.02	27009.78
502.20	27054.25
502.37	27241.50
502.55	27358.52
502.72	27309.37
502.90	27140.85
503.07	27285.97
503.25	27538.74
503.43	27337.46
503.60	27704.92
503.78	28013.87
503.95	28039.62
504.13	27674.49
504.30	27910.89
504.48	27938.97
504.65	28573.26
504.83	28198.77
505.01	28748.80
505.18	28664.54
505.36	28694.97
505.53	28914.98
505.71	29081.16
505.88	29078.82
506.06	28737.10
506.23	28697.31
506.41	28830.72
506.58	29219.25
506.76	29560.97
506.93	29462.66
507.11	29460.32
507.28	29333.93
507.46	29315.21
507.63	29137.33
507.81	29631.18
507.98	29783.32
508.16	30012.69
508.33	29912.05
508.50	29755.23
508.68	30061.84
508.85	30623.57
509.03	30410.58
509.20	30525.27
509.38	30525.27
509.55	30782.73
509.73	30663.36
509.90	31016.78
510.08	30625.91
510.25	30845.92
510.42	31150.19
510.60	31079.97
510.77	31255.51
510.95	31419.35
511.12	31281.26
511.30	31566.81
511.47	31505.95
511.64	31707.24
511.82	31718.94
511.99	31489.57
512.17	31501.27
512.34	31559.78
512.51	31777.45
512.69	32196.41
512.86	32041.93
513.04	32268.97
513.21	31955.33
513.38	32690.26
513.56	32177.68
513.73	32039.59
513.90	32470.25
514.08	32507.70
514.25	32486.64
514.43	32872.82
514.60	32694.94
514.77	32652.81
514.95	33165.39
515.12	32781.54
515.29	32807.29
515.47	33467.32
515.64	33567.96
515.81	32940.70
515.99	33134.96
516.16	32823.67
516.33	32926.66
516.51	33413.49
516.68	32538.13
516.85	32680.90
517.03	33186.46
517.20	33247.31
517.37	33607.75
517.54	33792.65
517.72	33319.87
517.89	33610.09
518.06	33226.24
518.24	33291.78
518.41	33806.70
518.58	34015.01
518.75	33923.72
518.93	34148.42
519.10	34338.00
519.27	34419.92
519.45	34382.47
519.62	34637.59
519.79	34763.98
519.96	34593.12
520.14	35091.65
520.31	34354.38
520.48	34796.74
520.65	35026.12
520.83	35227.40
521.00	34965.26
521.17	35211.02
521.34	35192.30
521.52	35353.79
521.69	35072.93
521.86	35091.65
522.03	35864.03
522.20	35995.10
522.38	35814.88
522.55	35878.07
522.72	35807.86
522.89	36027.87
523.07	35924.88
523.24	36023.19
523.41	36334.48
523.58	36208.09
523.75	37006.21
523.92	36474.91
524.10	36517.04
524.27	36907.91
524.44	36657.47
524.61	36306.39
524.78	36727.69
524.96	36793.22
525.13	36772.16
525.30	37266.01
525.47	37095.15
525.64	37078.77
525.81	37141.96
525.98	36833.01
526.16	37008.55
526.33	36280.64
526.50	37090.47
526.67	36634.06
526.84	36910.25
527.01	37228.56
527.18	37427.51
527.36	37535.17
527.53	37191.11
527.70	37752.84
527.87	37801.99
528.04	37701.35
528.21	38087.54
528.38	37670.92
528.55	38124.99
528.72	38209.25
528.89	38115.62
529.07	38108.60
529.24	37989.24
529.41	38099.24
529.58	37928.38
529.75	37954.13
529.92	38260.74
530.09	38309.89
530.26	38855.23
530.43	38256.06
530.60	38375.42
530.77	38546.28
530.94	38869.28
531.11	38686.71
531.28	38897.36
531.46	38703.10
531.63	38560.33
531.80	38637.56
531.97	38869.28
532.14	38265.42
532.31	38265.42
532.48	39110.35
532.65	38796.72
532.82	38792.04
532.99	39136.10
533.16	38857.57
533.33	39274.19
533.50	39086.95
533.67	39480.16
533.84	39351.43
534.01	39040.14
534.18	39021.41
534.35	39651.02
534.52	39658.04
534.69	39557.39
534.86	39899.11
535.03	39573.78
535.20	39952.94
535.37	40601.27
535.54	40430.41
535.71	39466.11
535.88	39938.90
536.05	40222.11
536.22	40055.93
536.38	40201.04
536.55	40287.64
536.72	39922.52
536.89	39501.22
537.06	40016.14
537.23	40093.38
537.40	40367.22
537.57	40177.64
537.74	40465.52
537.91	40676.17
538.08	40840.01
538.25	40577.87
538.42	40474.88
538.59	40861.07
538.75	40334.45
538.92	40236.15
539.09	41303.43
539.26	40479.57
539.43	40854.05
539.60	40699.58
539.77	40854.05
539.94	40659.79
540.11	40512.33
540.28	40645.74
540.44	40844.69
540.61	40704.26
540.78	40245.51
540.95	40935.97
541.12	40769.79
541.29	41256.62
541.46	41130.23
541.62	41151.30
541.79	41305.77
541.96	41277.69
542.13	41102.15
542.30	41366.63
542.47	41287.05
542.63	41251.94
542.80	41532.81
542.97	41759.84
543.14	42045.38
543.31	41603.02
543.48	41722.39
543.64	42059.43
543.81	42085.17
543.98	41769.20
544.15	42277.10
544.32	42059.43
544.48	42569.66
544.65	42476.04
544.82	42014.96
544.99	41776.22
545.16	41830.05
545.32	42204.54
545.49	42742.86
545.66	42607.11
545.83	42546.26
546.00	42422.21
546.16	42618.81
546.33	42195.18
546.50	42302.84
546.67	42473.70
546.83	42204.54
547.00	42363.70
547.17	42471.36
547.34	42351.99
547.50	42689.03
547.67	42955.85
547.84	42740.52
548.00	42862.23
548.17	43126.71
548.34	42995.64
548.51	43129.05
548.67	43232.04
548.84	42962.87
549.01	43002.66
549.18	43075.22
549.34	42944.15
549.51	42752.23
549.68	43285.87
549.84	43105.65
550.01	43885.04
550.18	42983.94
550.34	43098.62
550.51	43412.26
550.68	43531.62
550.84	42827.12
551.01	43629.93
551.18	43320.98
551.34	43217.99
551.51	43559.71
551.68	43866.32
551.84	43297.57
552.01	43255.44
552.18	43669.72
552.34	43592.48
552.51	43810.15
552.68	43501.20
552.84	44142.50
553.01	43838.23
553.18	43831.21
553.34	44048.88
553.51	43377.15
553.67	43941.22
553.84	44353.15
554.01	44191.65
554.17	44191.65
554.34	43903.77
554.51	44280.60
554.67	43894.41
554.84	43615.88
555.00	43529.28
555.17	43955.26
555.33	44069.95
555.50	43739.93
555.67	43782.06
555.83	44051.22
556.00	43927.17
556.16	44126.12
556.33	44044.20
556.50	44634.02
556.66	43952.92
556.83	43723.55
556.99	44264.21
557.16	44156.55
557.32	44240.81
557.49	44549.76
557.65	44172.93
557.82	44456.14
557.98	43910.79
558.15	44694.87
558.32	44086.33
558.48	43969.30
558.65	44783.81
558.81	44280.60
558.98	44325.07
559.14	44669.12
559.31	44250.17
559.47	44313.36
559.64	44488.90
559.80	44498.26
559.97	44437.41
560.13	44236.12
560.30	44507.63
560.46	45031.91
560.63	44673.81
560.79	44765.09
560.96	45251.92
561.12	44856.37
561.29	44538.05
561.45	45085.74
561.61	44809.56
561.78	44676.15
561.94	44357.83
562.11	44985.10
562.27	44399.96
562.44	44685.51
562.60	45247.24
562.77	44591.89
562.93	44783.81
563.10	45170.00
563.26	44655.08
563.42	45064.67
563.59	44863.39
563.75	44737.00
563.92	45544.48
564.08	45146.59
564.24	45069.36
564.41	44802.53
564.57	44931.26
564.74	44779.13
564.90	44657.42
565.07	45001.48
565.23	45401.71
565.39	45022.54
565.56	44996.80
565.72	44608.27
565.88	45059.99
566.05	44999.14
566.21	44706.57
566.38	45160.64
566.54	45008.50
566.70	45336.18
566.87	45404.05
567.03	45343.20
567.19	45633.42
567.36	45436.82
567.52	44856.37
567.68	45340.86
567.85	45174.68
568.01	45329.16
568.17	45432.14
568.34	45310.43
568.50	45095.10
568.66	45167.66
568.83	45270.64
568.99	44940.63
569.15	45167.66
569.32	44849.35
569.48	45511.72
569.64	45680.24
569.81	45364.26
569.97	45483.63
570.13	45092.76
570.30	44931.26
570.46	44552.10
570.62	44816.58
570.78	45202.77
570.95	45036.59
571.11	45464.91
571.27	44966.37
571.43	44645.72
571.60	45448.52
571.76	45338.52
571.92	45214.47
572.09	45350.22
572.25	45684.92
572.41	45471.93
572.57	45514.06
572.74	45818.33
572.90	45717.68
573.06	45689.60
573.22	45631.08
573.38	45352.56
573.55	45184.04
573.71	45748.11
573.87	45617.04
574.03	45432.14
574.20	45450.86
574.36	45631.08
574.52	45574.91
574.68	45460.23
574.84	45481.29
575.01	45521.08
575.17	45088.08
575.33	45446.18
575.49	45104.46
575.65	45390.01
575.82	46021.95
575.98	44996.80
576.14	45771.52
576.30	45516.40
576.46	45247.24
576.62	45310.43
576.79	45280.00
576.95	45141.91
577.11	45614.70
577.27	45617.04
577.43	45581.93
577.59	45085.74
577.75	45399.37
577.92	45083.40
578.08	44919.56
578.24	44797.85
578.40	45492.99
578.56	45729.39
578.72	45411.07
578.88	45757.47
579.04	45818.33
579.21	45106.80
579.37	45394.69
579.53	45703.64
579.69	45429.80
579.85	45478.95
580.01	45581.93
580.17	45076.38
580.33	45523.42
580.49	45343.20
580.65	45008.50
580.82	45481.29
580.98	45399.37
581.14	45296.39
581.30	45710.66
581.46	45111.49
581.62	46033.66
581.78	45549.17
581.94	45654.49
582.10	45755.13
582.26	45574.91
582.42	45738.75
582.58	45579.59
582.74	45102.12
582.90	45549.17
583.06	45780.88
583.22	45642.79
583.38	45970.46
583.54	45649.81
583.70	45839.39
583.86	45867.48
584.02	45256.60
584.18	45649.81
584.34	45401.71
584.50	45179.36
584.66	45408.73
584.82	45464.91
584.98	45488.31
585.14	46071.10
585.30	44961.69
585.46	45610.02
585.62	44940.63
585.78	45394.69
585.94	45247.24
586.10	45467.25
586.26	45523.42
586.42	45434.48
586.58	45612.36
586.74	45593.64
586.90	45546.82
587.06	45301.07
587.22	45734.07
587.38	45626.40
587.54	45888.54
587.70	45757.47
587.86	45516.40
588.02	45397.03
588.18	45900.25
588.34	45371.28
588.49	44917.22
588.65	45038.93
588.81	45212.13
588.97	45240.21
589.13	44842.32
589.29	45539.80
589.45	45500.01
589.61	45457.88
589.77	45605.34
589.93	45886.20
590.08	46028.98
