SpectraSuite Data File
++++++++++++++++++++++++++++++++++++
Date: Fri Oct 25 11:34:05 EDT 2013
User: price-jones
Dark Spectrum Present: No
Reference Spectrum Present: No
Number of Sampled Component Spectra: 1
Spectrometers: USB2+H05261
Integration Time (usec): 100000 (USB2+H05261)
Spectra Averaged: 1 (USB2+H05261)
Boxcar Smoothing: 0 (USB2+H05261)
Correct for Electrical Dark: No (USB2+H05261)
Strobe/Lamp Enabled: No (USB2+H05261)
Correct for Detector Non-linearity: No (USB2+H05261)
Correct for Stray Light: No (USB2+H05261)
Number of Pixels in Processed Spectrum: 2048
>>>>>Begin Processed Spectral Data<<<<<
365.73	252.78
365.92	252.78
366.12	252.78
366.32	177.88
366.52	177.88
366.72	184.90
366.91	142.77
367.11	119.37
367.31	222.35
367.51	145.11
367.70	145.11
367.90	194.26
368.10	126.39
368.30	138.09
368.49	105.32
368.69	191.92
368.89	138.09
369.09	201.29
369.28	173.20
369.48	208.31
369.68	152.13
369.87	257.46
370.07	262.14
370.27	257.46
370.47	330.02
370.66	575.77
370.86	505.56
371.06	507.90
371.25	650.67
371.45	496.19
371.65	505.56
371.84	524.28
372.04	547.69
372.24	571.09
372.44	603.86
372.63	622.58
372.83	526.62
373.03	587.47
373.22	587.47
373.42	585.13
373.62	669.39
373.81	634.29
374.01	653.01
374.21	678.76
374.40	709.18
374.60	669.39
374.79	589.82
374.99	624.92
375.19	587.47
375.38	676.41
375.58	643.65
375.78	669.39
375.97	664.71
376.17	716.20
376.37	699.82
376.56	674.07
376.76	657.69
376.95	660.03
377.15	697.48
377.35	650.67
377.54	671.73
377.74	645.99
377.93	613.22
378.13	711.52
378.33	777.06
378.52	655.35
378.72	755.99
378.91	751.31
379.11	758.33
379.31	734.93
379.50	671.73
379.70	746.63
379.89	777.06
380.09	746.63
380.28	734.93
380.48	660.03
380.68	706.84
380.87	730.25
381.07	772.38
381.26	681.10
381.46	737.27
381.65	739.61
381.85	692.80
382.04	830.89
382.24	732.59
382.43	753.65
382.63	823.87
382.83	774.72
383.02	784.08
383.22	837.91
383.41	814.51
383.61	791.10
383.80	807.48
384.00	786.42
384.19	823.87
384.39	784.08
384.58	784.08
384.78	837.91
384.97	809.83
385.17	844.93
385.36	816.85
385.56	840.25
385.75	814.51
385.95	814.51
386.14	887.06
386.34	873.02
386.53	744.29
386.72	926.85
386.92	891.74
387.11	889.40
387.31	821.53
387.50	875.36
387.70	887.06
387.89	877.70
388.09	908.13
388.28	933.87
388.48	978.34
388.67	851.96
388.86	891.74
389.06	910.47
389.25	912.81
389.45	1022.81
389.64	966.64
389.84	957.28
390.03	910.47
390.22	922.17
390.42	976.00
390.61	933.87
390.81	905.79
391.00	1027.50
391.19	978.34
391.39	1032.18
391.58	1039.20
391.78	1074.31
391.97	1032.18
392.16	1032.18
392.36	1076.65
392.55	1057.92
392.75	1069.62
392.94	1006.43
393.13	987.71
393.33	1008.77
393.52	1083.67
393.71	1118.78
393.91	1025.15
394.10	1071.97
394.29	1071.97
394.49	1069.62
394.68	1139.84
394.88	1181.97
395.07	1193.67
395.26	1102.39
395.46	1212.40
395.65	1172.61
395.84	1137.50
396.04	1219.42
396.23	1177.29
396.42	1200.69
396.62	1287.29
396.81	1142.18
397.00	1238.14
397.19	1210.06
397.39	1226.44
397.58	1158.57
397.77	1203.04
397.97	1214.74
398.16	1212.40
398.35	1252.19
398.55	1184.31
398.74	1259.21
398.93	1331.76
399.12	1224.10
399.32	1261.55
399.51	1411.34
399.70	1392.62
399.90	1413.68
400.09	1350.49
400.28	1315.38
400.47	1266.23
400.67	1444.11
400.86	1371.55
401.05	1399.64
401.24	1387.94
401.44	1467.52
401.63	1392.62
401.82	1439.43
402.01	1451.13
402.21	1427.73
402.40	1500.28
402.59	1476.88
402.78	1500.28
402.97	1507.30
403.17	1497.94
403.36	1600.93
403.55	1568.16
403.74	1596.25
403.93	1533.05
404.13	1624.33
404.32	1603.27
404.51	1579.86
404.70	1610.29
404.89	1612.63
405.09	1708.59
405.28	1647.74
405.47	1640.72
405.66	1687.53
405.85	1650.08
406.05	1650.08
406.24	1734.34
406.43	1673.48
406.62	1816.26
406.81	1715.61
407.00	1664.12
407.20	1713.27
407.39	1729.66
407.58	1715.61
407.77	1792.85
407.96	1837.32
408.15	1792.85
408.34	1795.19
408.54	1968.39
408.73	1886.47
408.92	1849.02
409.11	1989.46
409.30	2024.56
409.49	1956.69
409.68	2017.54
409.87	1994.14
410.07	2085.42
410.26	1977.75
410.45	1933.28
410.64	2012.86
410.83	2076.06
411.02	2097.12
411.21	2174.36
411.40	2118.18
411.59	2207.13
411.78	2134.57
411.98	2284.36
412.17	2282.02
412.36	2214.15
412.55	2211.81
412.74	2345.22
412.93	2317.13
413.12	2389.69
413.31	2380.32
413.50	2326.49
413.69	2417.77
413.88	2436.50
414.07	2324.15
414.26	2487.99
414.45	2410.75
414.64	2464.58
414.83	2499.69
415.02	2509.05
415.22	2471.61
415.41	2506.71
415.60	2619.06
415.79	2513.74
415.98	2710.34
416.17	2609.70
416.36	2609.70
416.55	2626.08
416.74	2829.71
416.93	2733.75
417.12	2736.09
417.31	2825.03
417.50	2848.43
417.69	2953.76
417.88	2825.03
418.07	2911.63
418.26	2949.08
418.45	3108.23
418.64	3026.31
418.83	2946.73
419.02	3014.61
419.21	3122.27
419.39	3148.02
419.58	3110.57
419.77	3089.51
419.96	3185.47
420.15	3187.81
420.34	3023.97
420.53	3201.85
420.72	3274.41
420.91	3108.23
421.10	3272.07
421.29	3272.07
421.48	3066.10
421.67	3297.81
421.86	3225.26
422.05	3171.43
422.24	3171.43
422.43	3290.79
422.61	3253.34
422.80	3274.41
422.99	3222.92
423.18	3295.47
423.37	3349.31
423.56	3431.23
423.75	3356.33
423.94	3173.77
424.13	3192.49
424.32	3262.71
424.50	3503.78
424.69	3421.86
424.88	3527.19
425.07	3316.54
425.26	3323.56
425.45	3346.97
425.64	3391.44
425.83	3407.82
426.01	3337.60
426.20	3520.17
426.39	3461.65
426.58	3421.86
426.77	3389.10
426.96	3421.86
427.15	3377.39
427.33	3471.01
427.52	3485.06
427.71	3489.74
427.90	3449.95
428.09	3578.68
428.28	3618.47
428.46	3648.90
428.65	3665.28
428.84	3719.11
429.03	3779.97
429.22	3475.70
429.40	3726.13
429.59	3772.94
429.78	3742.52
429.97	3543.57
430.16	3763.58
430.34	3812.73
430.53	3768.26
430.72	3843.16
430.91	3976.57
431.10	3822.09
431.28	3908.69
431.47	3892.31
431.66	3985.93
431.85	3810.39
432.03	3922.74
432.22	4004.66
432.41	3908.69
432.60	3901.67
432.79	3962.53
432.97	4081.89
433.16	4119.34
433.35	3978.91
433.54	4067.85
433.72	4079.55
433.91	4191.90
434.10	4133.39
434.28	4084.23
434.47	4077.21
434.66	4325.31
434.85	4365.10
435.03	4294.88
435.22	4280.84
435.41	4390.84
435.59	4416.59
435.78	4273.82
435.97	4196.58
436.16	4369.78
436.34	4329.99
436.53	4280.84
436.72	4498.51
436.90	4442.34
437.09	4489.15
437.28	4428.29
437.46	4425.95
437.65	4437.66
437.84	4468.08
438.02	4491.49
438.21	4610.86
438.40	4339.35
438.58	4765.33
438.77	4627.24
438.96	4755.97
439.14	4589.79
439.33	4718.52
439.52	4791.08
439.70	4873.00
439.89	4908.10
440.08	4823.84
440.26	4929.17
440.45	4994.70
440.63	4950.23
440.82	5001.72
441.01	4936.19
441.19	5085.98
441.38	5163.22
441.57	5266.21
441.75	5315.36
441.94	5298.97
442.12	5411.32
442.31	5284.93
442.50	5240.46
442.68	5427.70
442.87	5296.63
443.05	5448.77
443.24	5638.35
443.43	5476.85
443.61	5376.21
443.80	5603.24
443.98	5336.42
444.17	5284.93
444.35	5533.03
444.54	5523.66
444.73	5671.12
444.91	5476.85
445.10	5476.85
445.28	5556.43
445.47	5509.62
445.65	5434.72
445.84	5610.26
446.02	5689.84
446.21	5586.86
446.39	5680.48
446.58	5692.18
446.77	5673.46
446.95	5610.26
447.14	5654.73
447.32	5572.82
447.51	5771.76
447.69	5584.52
447.88	5753.04
448.06	5666.44
448.25	5645.37
448.43	5661.76
448.62	5621.97
448.80	5692.18
448.99	5982.41
449.17	5757.72
449.36	5661.76
449.54	5902.83
449.73	5919.21
449.91	6099.44
450.10	6043.26
450.28	5989.43
450.46	5884.11
450.65	5984.75
450.83	6101.78
451.02	6015.18
451.20	6090.07
451.39	5902.83
451.57	6202.42
451.76	6008.16
451.94	6092.41
452.13	6249.23
452.31	6186.04
452.49	6188.38
452.68	6237.53
452.86	6195.40
453.05	6436.47
453.23	6352.21
453.42	6387.32
453.60	6054.97
453.78	6239.87
453.97	6253.91
454.15	6274.98
454.34	6244.55
454.52	6473.92
454.70	6326.47
454.89	6413.07
455.07	6504.35
455.26	6523.07
455.44	6546.48
455.62	6445.84
455.81	6621.38
455.99	6647.12
456.17	6759.47
456.36	6722.02
456.54	6745.42
456.73	6923.30
456.91	6855.43
457.09	6904.58
457.28	6995.86
457.46	6731.38
457.64	6967.77
457.83	6839.05
458.01	6836.70
458.19	7077.78
458.38	7026.29
458.56	7019.27
458.74	7213.53
458.93	7129.27
459.11	7183.10
459.29	6937.35
459.48	7136.29
459.66	7082.46
459.84	7211.19
460.03	7183.10
460.21	7456.95
460.39	7208.85
460.57	7412.48
460.76	7220.55
460.94	7328.22
461.12	7250.98
461.31	7286.09
461.49	7192.47
461.67	7454.61
461.85	7581.00
462.04	7414.82
462.22	7831.43
462.40	7744.83
462.59	7531.84
462.77	7658.23
462.95	7510.78
463.13	7562.27
463.32	7616.10
463.50	7730.79
463.68	7756.54
463.86	7815.05
464.05	7588.02
464.23	7850.16
464.41	7688.66
464.59	7700.36
464.78	7999.95
464.96	7941.44
465.14	7768.24
465.32	7927.39
465.50	8004.63
465.69	7971.86
465.87	7999.95
466.05	7882.92
466.23	7964.84
466.41	7882.92
466.60	8044.42
466.78	7964.84
466.96	7995.27
467.14	8107.62
467.32	8032.72
467.51	8311.24
467.69	7896.97
467.87	8285.50
468.05	8262.09
468.23	8280.82
468.41	8201.24
468.60	8294.86
468.78	8461.04
468.96	8432.95
469.14	8418.91
469.32	8709.13
469.50	8369.76
469.69	8439.97
469.87	8643.60
470.05	8559.34
470.23	8674.03
470.41	8617.85
470.59	8648.28
470.77	8566.36
470.95	8788.71
471.14	8884.67
471.32	8564.02
471.50	8856.59
471.68	9088.30
471.86	9109.36
472.04	8922.12
472.22	9163.20
472.40	8954.89
472.58	9263.84
472.77	9170.22
472.95	9266.18
473.13	9394.91
473.31	9034.47
473.49	9125.75
473.67	9317.67
473.85	9331.72
474.03	9523.64
474.21	9727.27
474.39	9598.54
474.57	9685.14
474.75	9659.39
474.93	9858.34
475.12	9722.59
475.30	9736.63
475.48	9839.61
475.66	9956.64
475.84	9685.14
476.02	9907.49
476.20	10040.90
476.38	10160.27
476.56	10363.89
476.74	10293.68
476.92	10221.12
477.10	10087.71
477.28	10586.24
477.46	10457.51
477.64	10619.01
477.82	10771.15
478.00	11028.60
478.18	10953.71
478.36	11166.70
478.54	10963.07
478.72	11173.72
478.90	11323.51
479.08	10991.16
479.26	11384.37
479.44	11236.91
479.62	11466.28
479.80	11592.67
479.98	11803.32
480.16	12079.50
480.34	11854.81
480.52	12004.61
480.70	11908.65
480.88	11829.07
481.06	12093.55
481.24	12285.47
481.41	12484.42
481.59	12512.50
481.77	12559.31
481.95	12592.08
482.13	12709.11
482.31	12589.74
482.49	13181.90
482.67	13095.30
482.85	13252.11
483.03	13207.64
483.21	13188.92
483.39	13507.23
483.57	13429.99
483.74	13671.07
483.92	13724.90
484.10	13741.29
484.28	13837.25
484.46	14092.37
484.64	14080.66
484.82	14031.51
485.00	14356.85
485.18	14572.18
485.35	14843.68
485.53	14979.43
485.71	14841.34
485.89	15323.49
486.07	15047.30
486.25	15051.99
486.43	15176.03
486.61	15419.45
486.78	15616.05
486.96	15365.62
487.14	15676.91
487.32	15854.79
487.50	15761.17
487.68	15985.86
487.85	16170.76
488.03	16465.67
488.21	16683.34
488.39	16755.90
488.57	16861.22
488.75	16931.44
488.92	16996.97
489.10	17268.47
489.28	17109.32
489.46	17448.69
489.64	17401.88
489.81	17935.53
489.99	17809.14
490.17	17785.73
490.35	18214.05
490.53	18431.72
490.70	18349.80
490.88	18260.86
491.06	18431.72
491.24	18438.74
491.41	18572.15
491.59	18717.26
491.77	18445.76
491.95	19124.52
492.13	19061.32
492.30	19417.08
492.48	19248.57
492.66	19358.57
492.84	19438.15
493.01	19599.65
493.19	19510.71
493.37	19836.04
493.54	20034.99
493.72	20030.30
493.90	20182.44
494.08	20465.64
494.25	20498.41
494.43	20617.78
494.61	20886.94
494.79	21034.39
494.96	21097.59
495.14	20889.28
495.32	21050.78
495.49	21343.35
495.67	21109.29
495.85	21397.18
496.02	21710.81
496.20	21792.73
496.38	21907.41
496.55	22059.55
496.73	22384.88
496.91	22527.66
497.09	22506.59
497.26	22178.92
497.44	22207.00
497.62	22450.42
497.79	22937.25
497.97	22726.60
498.14	23206.41
498.32	23314.08
498.50	23377.27
498.67	23344.50
498.85	23557.49
499.03	23548.13
499.20	23578.56
499.38	23707.29
499.56	23721.33
499.73	23814.95
499.91	24109.86
500.08	24051.34
500.26	23789.20
500.44	24498.39
500.61	24318.17
500.79	24301.78
500.97	24395.40
501.14	24774.57
501.32	24748.82
501.49	24664.57
501.67	24879.89
501.84	24957.13
502.02	25057.78
502.20	24903.30
502.37	25104.59
502.55	25579.71
502.72	25591.42
502.90	25458.01
503.07	25324.60
503.25	25530.56
503.43	25343.32
503.60	25935.48
503.78	25926.11
503.95	25827.81
504.13	25956.54
504.30	26387.20
504.48	26270.17
504.65	26539.33
504.83	26431.67
505.01	26679.77
505.18	26483.16
505.36	26787.43
505.53	26672.74
505.71	27157.24
505.88	26757.00
506.06	26993.40
506.23	26969.99
506.41	26995.74
506.58	27218.09
506.76	27520.02
506.93	27665.13
507.11	26969.99
507.28	27379.59
507.46	27449.80
507.63	27562.15
507.81	28116.86
507.98	27679.18
508.16	27775.14
508.33	27892.16
508.50	28486.66
508.68	28149.62
508.85	28315.80
509.03	28151.96
509.20	28166.01
509.38	28507.72
509.55	28699.65
509.73	28709.01
509.90	28547.51
510.08	28842.42
510.25	28973.49
510.42	29043.71
510.60	29099.88
510.77	29490.75
510.95	29855.87
511.12	29298.83
511.30	29706.08
511.47	29907.37
511.64	29682.67
511.82	29600.76
511.99	29305.85
512.17	29832.47
512.34	29668.63
512.51	30150.78
512.69	30408.24
512.86	30373.13
513.04	30415.26
513.21	30249.08
513.38	30363.77
513.56	30661.02
513.73	30621.23
513.90	30724.21
514.08	30455.05
514.25	31091.68
514.43	30625.91
514.60	30974.65
514.77	30775.70
514.95	31559.78
515.12	31133.81
515.29	31431.05
515.47	31332.75
515.64	31133.81
515.81	31077.63
515.99	31660.43
516.16	31723.62
516.33	31255.51
516.51	31690.85
516.68	31250.83
516.85	31639.36
517.03	32203.43
517.20	32194.07
517.37	31730.64
517.54	31908.52
517.72	31819.58
517.89	32488.98
518.06	32535.79
518.24	32655.15
518.41	32292.37
518.58	32233.86
518.75	32453.87
518.93	33060.07
519.10	32615.37
519.27	32535.79
519.45	32978.15
519.62	33031.98
519.79	32900.91
519.96	32676.22
520.14	33153.69
520.31	33200.50
520.48	33486.04
520.65	33476.68
520.83	34000.96
521.00	33586.69
521.17	33046.02
521.34	33525.83
521.52	34230.33
521.69	33680.31
521.86	34110.97
522.03	33701.37
522.20	34398.85
522.38	34370.77
522.55	34433.96
522.72	34600.14
522.89	34532.26
523.07	35253.15
523.24	34295.87
523.41	34653.97
523.58	34450.35
523.75	34824.83
523.92	34415.24
524.10	34965.26
524.27	34712.49
524.44	35519.97
524.61	34991.01
524.78	35211.02
524.96	35470.82
525.13	35232.08
525.30	35339.75
525.47	35662.74
525.64	35140.80
525.81	35618.27
525.98	35330.39
526.16	35571.46
526.33	35189.95
526.50	35915.52
526.67	35185.27
526.84	36006.80
527.01	35700.19
527.18	35950.63
527.36	35962.33
527.53	36217.45
527.70	36285.33
527.87	36505.34
528.04	36203.41
528.21	36493.63
528.38	36673.85
528.55	36774.50
528.72	36348.52
528.89	36376.61
529.07	36252.56
529.24	36392.99
529.41	36336.82
529.58	36708.96
529.75	36458.52
529.92	37078.77
530.09	37095.15
530.26	36804.92
530.43	37413.46
530.60	36732.37
530.77	36652.79
530.94	37188.77
531.11	36795.56
531.28	37354.95
531.46	37347.93
531.63	37860.51
531.80	37062.38
531.97	37488.36
532.14	37450.91
532.31	37488.36
532.48	38064.13
532.65	37727.10
532.82	37479.00
532.99	38094.56
533.16	38010.30
533.33	37825.40
533.50	38436.28
533.67	38050.09
533.84	37764.54
534.01	37710.71
534.18	38012.64
534.35	38403.51
534.52	38595.43
534.69	38543.94
534.86	38478.41
535.03	38616.50
535.20	38436.28
535.37	38719.48
535.54	38738.21
535.71	38445.64
535.88	38983.96
536.05	38679.69
536.22	38635.22
536.38	38820.13
536.55	38745.23
536.72	38920.77
536.89	38932.47
537.06	39033.11
537.23	39089.29
537.40	39040.14
537.57	38785.02
537.74	38995.67
537.91	39531.65
538.08	39498.88
538.25	38925.45
538.42	39068.22
538.59	39473.13
538.75	39203.97
538.92	39517.60
539.09	39805.49
539.26	39508.24
539.43	39454.41
539.60	39578.46
539.77	39739.96
539.94	40156.57
540.11	39866.34
540.28	39824.22
540.44	39934.22
540.61	39950.60
540.78	39793.79
540.95	40161.25
541.12	39758.68
541.29	39503.56
541.46	39962.31
541.62	40184.66
541.79	40374.24
541.96	40128.48
542.13	40648.08
542.30	40362.54
542.47	40360.20
542.63	40594.25
542.80	40273.60
542.97	41024.91
543.14	41090.44
543.31	40795.54
543.48	41090.44
543.64	41502.38
543.81	41301.09
543.98	40847.03
544.15	40762.77
544.32	41502.38
544.48	41832.39
544.65	41504.72
544.82	41354.93
544.99	41207.47
545.16	41205.13
545.32	41422.80
545.49	41399.40
545.66	41757.50
545.83	41509.40
546.00	41483.66
546.16	41792.61
546.33	41858.14
546.50	41420.46
546.67	41556.21
546.83	41523.44
547.00	41645.15
547.17	41408.76
547.34	41766.86
547.50	42038.36
547.67	42555.62
547.84	42057.09
548.00	42394.12
548.17	42651.58
548.34	42445.62
548.51	42452.64
548.67	42349.65
548.84	42354.33
549.01	42057.09
549.18	42534.56
549.34	42401.14
549.51	42497.11
549.68	42572.00
549.84	42614.13
550.01	42848.19
550.18	42335.61
550.34	42770.95
550.51	42972.24
550.68	42766.27
550.84	42387.10
551.01	43002.66
551.18	42663.28
551.34	43100.97
551.51	42684.35
551.68	43220.33
551.84	42899.68
552.01	43222.67
552.18	43093.94
552.34	43040.11
552.51	43332.68
552.68	43089.26
552.84	43330.34
553.01	43164.16
553.18	43100.97
553.34	43391.19
553.51	43019.05
553.67	43660.35
553.84	43292.89
554.01	43737.59
554.17	43517.58
554.34	43587.80
554.51	43793.76
554.67	43641.63
554.84	44027.82
555.00	43845.26
555.17	43512.90
555.33	43732.91
555.50	43489.49
555.67	43508.22
555.83	43653.33
556.00	44194.00
556.16	44339.11
556.33	44140.16
556.50	44091.01
556.66	44030.16
556.83	44037.18
556.99	44327.41
557.16	44903.18
557.32	44334.43
557.49	44271.23
557.65	44226.76
557.82	43950.58
557.98	44273.57
558.15	44088.67
558.32	44516.99
558.48	44414.01
558.65	44163.57
558.81	44854.03
558.98	44189.31
559.14	43817.17
559.31	44170.59
559.47	44755.72
559.64	44533.37
559.80	44203.36
559.97	44868.07
560.13	44266.55
560.30	44399.96
560.46	44776.79
560.63	44612.95
560.79	45221.49
560.96	44938.29
561.12	44999.14
561.29	44589.55
561.45	45263.62
561.61	44509.97
561.78	45001.48
561.94	45017.86
562.11	44959.35
562.27	44720.62
562.44	44446.77
562.60	45088.08
562.77	44856.37
562.93	44865.73
563.10	45177.02
563.26	44619.97
563.42	45652.15
563.59	45106.80
563.75	44584.86
563.92	44928.92
564.08	44781.47
564.24	45280.00
564.41	45336.18
564.57	45029.57
564.74	45399.37
564.90	44900.84
565.07	44875.09
565.23	45390.01
565.39	45151.27
565.56	45427.46
565.72	45357.24
565.88	45528.10
566.05	45097.44
566.21	45471.93
566.38	45308.09
566.54	45099.78
566.70	45450.86
566.87	45399.37
567.03	45411.07
567.19	45605.34
567.36	45338.52
567.52	45617.04
567.68	45593.64
567.85	45734.07
568.01	45368.94
568.17	45310.43
568.34	45471.93
568.50	45748.11
568.66	45715.34
568.83	45387.67
568.99	45581.93
569.15	45930.67
569.32	45507.04
569.48	45481.29
569.64	45862.80
569.81	45928.33
569.97	45710.66
570.13	45752.79
570.30	45497.67
570.46	46469.00
570.62	46036.00
570.78	46122.60
570.95	45684.92
571.11	45792.58
571.27	45797.26
571.43	45462.57
571.60	46019.61
571.76	45605.34
571.92	45425.12
572.09	45846.41
572.25	45626.40
572.41	45605.34
572.57	46148.34
572.74	46370.69
572.90	45755.13
573.06	45883.86
573.22	45977.48
573.38	46234.94
573.55	45764.49
573.71	46429.21
573.87	46157.70
574.03	46192.81
574.20	46438.57
574.36	45764.49
574.52	46185.79
574.68	46099.19
574.84	46433.89
575.01	46288.77
575.17	46157.70
575.33	46012.59
575.49	45970.46
575.65	45928.33
575.82	46117.92
575.98	46319.20
576.14	46354.31
576.30	46419.84
576.46	46405.80
576.62	46064.08
576.79	46103.87
576.95	45846.41
577.11	45815.99
577.27	45815.99
577.43	46527.51
577.59	45972.80
577.75	46085.15
577.92	45832.37
578.08	46241.96
578.24	46237.28
578.40	46403.46
578.56	46391.76
578.72	45881.52
578.88	46506.44
579.04	46127.28
579.21	46110.89
579.37	46476.02
579.53	46366.01
579.69	46593.04
579.85	46363.67
580.01	46700.71
580.17	46113.23
580.33	46710.07
580.49	46248.99
580.65	46368.35
580.82	46698.37
580.98	46019.61
581.14	45745.77
581.30	46366.01
581.46	46047.70
581.62	46248.99
581.78	46064.08
581.94	46328.56
582.10	46759.22
582.26	46316.86
582.42	46305.16
582.58	46532.19
582.74	46445.59
582.90	46651.56
583.06	46293.46
583.22	46272.39
583.38	46277.07
583.54	46494.74
583.70	46241.96
583.86	46838.80
584.02	46548.57
584.18	46672.62
584.34	46504.10
584.50	46836.46
584.66	46948.81
584.82	46211.54
584.98	46960.51
585.14	46747.52
585.30	46377.72
585.46	46232.60
585.62	46387.08
585.78	46525.17
585.94	46370.69
586.10	46621.13
586.26	46429.21
586.42	46625.81
586.58	46820.08
586.74	46197.49
586.90	46698.37
587.06	45937.69
587.22	46710.07
587.38	46220.90
587.54	46693.69
587.70	46988.60
587.86	46639.86
588.02	46490.06
588.18	46665.60
588.34	46532.19
588.49	46672.62
588.65	46490.06
588.81	46724.11
588.97	46543.89
589.13	46796.67
589.29	46569.64
589.45	46916.04
589.61	46609.43
589.77	46958.17
589.93	46806.03
590.08	46789.65
