SpectraSuite Data File
++++++++++++++++++++++++++++++++++++
Date: Fri Oct 25 10:47:03 EDT 2013
User: price-jones
Dark Spectrum Present: No
Reference Spectrum Present: No
Number of Sampled Component Spectra: 1
Spectrometers: USB2+H05261
Integration Time (usec): 100000 (USB2+H05261)
Spectra Averaged: 1 (USB2+H05261)
Boxcar Smoothing: 0 (USB2+H05261)
Correct for Electrical Dark: No (USB2+H05261)
Strobe/Lamp Enabled: No (USB2+H05261)
Correct for Detector Non-linearity: No (USB2+H05261)
Correct for Stray Light: No (USB2+H05261)
Number of Pixels in Processed Spectrum: 2048
>>>>>Begin Processed Spectral Data<<<<<
365.73	156.82
365.92	156.82
366.12	156.82
366.32	63.19
366.52	39.79
366.72	114.69
366.91	0.00
367.11	53.83
367.31	25.75
367.51	44.47
367.70	0.00
367.90	32.77
368.10	25.75
368.30	46.81
368.49	0.00
368.69	23.41
368.89	0.00
369.09	0.00
369.28	21.06
369.48	49.15
369.68	91.28
369.87	25.75
370.07	131.07
370.27	177.88
370.47	236.39
370.66	383.85
370.86	397.89
371.06	449.38
371.25	477.47
371.45	477.47
371.65	538.32
371.84	416.62
372.04	437.68
372.24	528.96
372.44	491.51
372.63	440.02
372.83	475.13
373.03	500.87
373.22	418.96
373.42	421.30
373.62	582.79
373.81	547.69
374.01	550.03
374.21	653.01
374.40	587.47
374.60	479.81
374.79	510.24
374.99	641.31
375.19	547.69
375.38	629.60
375.58	528.96
375.78	624.92
375.97	540.66
376.17	601.52
376.37	557.05
376.56	683.44
376.76	638.97
376.95	573.43
377.15	624.92
377.35	573.43
377.54	601.52
377.74	601.52
377.93	620.24
378.13	550.03
378.33	622.58
378.52	697.48
378.72	622.58
378.91	664.71
379.11	615.56
379.31	664.71
379.50	627.26
379.70	697.48
379.89	650.67
380.09	704.50
380.28	582.79
380.48	669.39
380.68	690.46
380.87	629.60
381.07	709.18
381.26	718.54
381.46	695.14
381.65	573.43
381.85	662.37
382.04	685.78
382.24	692.80
382.43	777.06
382.63	641.31
382.83	662.37
383.02	746.63
383.22	671.73
383.41	692.80
383.61	706.84
383.80	716.20
384.00	671.73
384.19	732.59
384.39	788.76
384.58	821.53
384.78	798.12
384.97	751.31
385.17	788.76
385.36	718.54
385.56	779.40
385.75	830.89
385.95	807.48
386.14	812.17
386.34	784.08
386.53	828.55
386.72	866.00
386.92	837.91
387.11	868.34
387.31	791.10
387.50	805.14
387.70	739.61
387.89	847.27
388.09	788.76
388.28	849.61
388.48	781.74
388.67	919.83
388.86	866.00
389.06	858.98
389.25	901.11
389.45	938.55
389.64	842.59
389.84	861.32
390.03	922.17
390.22	966.64
390.42	919.83
390.61	924.51
390.81	1022.81
391.00	1083.67
391.19	1057.92
391.39	994.73
391.58	994.73
391.78	891.74
391.97	1011.11
392.16	910.47
392.36	1008.77
392.55	1039.20
392.75	929.19
392.94	980.68
393.13	1004.09
393.33	957.28
393.52	1074.31
393.71	1074.31
393.91	1067.28
394.10	1060.26
394.29	1172.61
394.49	1095.37
394.68	1137.50
394.88	1095.37
395.07	1086.01
395.26	1153.88
395.46	1233.46
395.65	1177.29
395.84	1282.61
396.04	1139.84
396.23	1118.78
396.42	1060.26
396.62	1111.75
396.81	1191.33
397.00	1210.06
397.19	1130.48
397.39	1280.27
397.58	1203.04
397.77	1224.10
397.97	1336.45
398.16	1364.53
398.35	1350.49
398.55	1306.02
398.74	1345.81
398.93	1418.36
399.12	1324.74
399.32	1364.53
399.51	1420.71
399.70	1411.34
399.90	1406.66
400.09	1362.19
400.28	1458.15
400.47	1500.28
400.67	1460.49
400.86	1474.54
401.05	1519.01
401.24	1486.24
401.44	1413.68
401.63	1647.74
401.82	1621.99
402.01	1572.84
402.21	1497.94
402.40	1575.18
402.59	1514.33
402.78	1568.16
402.97	1652.42
403.17	1680.50
403.36	1640.72
403.55	1603.27
403.74	1650.08
403.93	1696.89
404.13	1685.19
404.32	1678.16
404.51	1717.95
404.70	1795.19
404.89	1781.15
405.09	1872.43
405.28	1739.02
405.47	1741.36
405.66	1736.68
405.85	1760.08
406.05	1727.32
406.24	1823.28
406.43	1863.07
406.62	1966.05
406.81	1912.22
407.00	1907.54
407.20	1802.21
407.39	1881.79
407.58	2003.50
407.77	1954.35
407.96	2054.99
408.15	2026.90
408.34	2038.61
408.54	2097.12
408.73	2080.74
408.92	2059.67
409.11	2181.38
409.30	2132.23
409.49	2054.99
409.68	2099.46
409.87	2200.10
410.07	2167.34
410.26	2230.53
410.45	2253.94
410.64	2179.04
410.83	2221.17
411.02	2296.07
411.21	2401.39
411.40	2424.80
411.59	2431.82
411.78	2356.92
411.98	2427.14
412.17	2429.48
412.36	2375.64
412.55	2539.48
412.74	2555.86
412.93	2504.37
413.12	2504.37
413.31	2523.10
413.50	2516.08
413.69	2513.74
413.88	2569.91
414.07	2700.98
414.26	2708.00
414.45	2736.09
414.64	2665.87
414.83	2588.63
415.02	2696.30
415.22	2766.51
415.41	2733.75
415.60	2745.45
415.79	2853.11
415.98	2860.13
416.17	2998.23
416.36	2928.01
416.55	3026.31
416.74	3124.62
416.93	2960.78
417.12	3119.93
417.31	2991.20
417.50	3141.00
417.69	3229.94
417.88	3089.51
418.07	3136.32
418.26	3183.13
418.45	3255.69
418.64	3288.45
418.83	3183.13
419.02	3389.10
419.21	3297.81
419.39	3229.94
419.58	3321.22
419.77	3269.73
419.96	3377.39
420.15	3384.41
420.34	3393.78
420.53	3471.01
420.72	3400.80
420.91	3478.04
421.10	3384.41
421.29	3566.98
421.48	3412.50
421.67	3496.76
421.86	3487.40
422.05	3410.16
422.24	3508.46
422.43	3524.85
422.61	3641.87
422.80	3705.07
422.99	3684.00
423.18	3761.24
423.37	3655.92
423.56	3660.60
423.75	3695.71
423.94	3618.47
424.13	3487.40
424.32	3578.68
424.50	3728.47
424.69	3581.02
424.88	3880.61
425.07	3550.59
425.26	3655.92
425.45	3585.70
425.64	3536.55
425.83	3700.39
426.01	3672.30
426.20	3644.21
426.39	3662.94
426.58	3672.30
426.77	3592.72
426.96	3709.75
427.15	3723.79
427.33	3772.94
427.52	3709.75
427.71	3772.94
427.90	3850.18
428.09	3882.95
428.28	3836.14
428.46	3922.74
428.65	3929.76
428.84	3969.55
429.03	3929.76
429.22	3901.67
429.40	3831.46
429.59	3955.51
429.78	3763.58
429.97	3691.02
430.16	3763.58
430.34	3934.44
430.53	3976.57
430.72	3983.59
430.91	3981.25
431.10	4049.13
431.28	4189.56
431.47	4133.39
431.66	4369.78
431.85	4182.54
432.03	4351.06
432.22	4297.22
432.41	4205.94
432.60	4231.69
432.79	4313.61
432.97	4337.01
433.16	4257.43
433.35	4292.54
433.54	4390.84
433.72	4358.08
433.91	4311.27
434.10	4386.16
434.28	4379.14
434.47	4407.23
434.66	4498.51
434.85	4535.96
435.03	4505.53
435.22	4671.71
435.41	4697.46
435.59	4690.43
435.78	4610.86
435.97	4802.78
436.16	4603.83
436.34	4702.14
436.53	4744.27
436.72	4858.95
436.90	4531.28
437.09	4751.29
437.28	4524.26
437.46	4723.20
437.65	4851.93
437.84	4849.59
438.02	4929.17
438.21	4924.49
438.40	4678.73
438.58	5088.32
438.77	5083.64
438.96	4936.19
439.14	5088.32
439.33	5200.67
439.52	5252.16
439.70	5247.48
439.89	5418.34
440.08	5205.35
440.26	5224.08
440.45	5172.58
440.63	5310.68
440.82	5507.28
441.01	5507.28
441.19	5441.75
441.38	5671.12
441.57	5682.82
441.75	5507.28
441.94	5781.12
442.12	5701.54
442.31	5783.46
442.50	5715.59
442.68	5783.46
442.87	5802.19
443.05	5926.24
443.24	5928.58
443.43	5809.21
443.61	5912.19
443.80	6005.81
443.98	5783.46
444.17	5853.68
444.35	5961.34
444.54	6108.80
444.73	6162.63
444.91	6017.52
445.10	5884.11
445.28	5813.89
445.47	5799.85
445.65	5973.05
445.84	6010.50
446.02	6029.22
446.21	6040.92
446.39	6179.01
446.58	6235.19
446.77	6069.01
446.95	6083.05
447.14	6207.10
447.32	6162.63
447.51	6122.84
447.69	6087.73
447.88	6223.48
448.06	6202.42
448.25	6143.91
448.43	6108.80
448.62	6111.14
448.80	6171.99
448.99	6169.65
449.17	6326.47
449.36	6307.74
449.54	6384.98
449.73	6628.40
449.91	6572.22
450.10	6455.20
450.28	6614.35
450.46	6469.24
450.65	6619.04
450.83	6682.23
451.02	6642.44
451.20	6780.53
451.39	6513.71
451.57	6593.29
451.76	6738.40
451.94	6623.72
452.13	6752.45
452.31	6551.16
452.49	6427.11
452.68	6782.87
452.86	6729.04
453.05	6733.72
453.23	6927.99
453.42	6757.13
453.60	6829.68
453.78	6892.88
453.97	6642.44
454.15	6799.26
454.34	6801.60
454.52	6979.48
454.70	6913.94
454.89	6841.39
455.07	6927.99
455.26	7084.80
455.44	7267.36
455.62	6995.86
455.81	7089.48
455.99	7101.19
456.17	7267.36
456.36	7171.40
456.54	7353.96
456.73	7206.51
456.91	7258.00
457.09	7447.58
457.28	7602.06
457.46	7344.60
457.64	7403.11
457.83	7510.78
458.01	7262.68
458.19	7543.55
458.38	7599.72
458.56	7552.91
458.74	7552.91
458.93	7555.25
459.11	7679.30
459.29	7730.79
459.48	7777.60
459.66	7686.32
459.84	7763.56
460.03	7962.50
460.21	7796.32
460.39	7871.22
460.57	7840.79
460.76	8039.74
460.94	7932.08
461.12	8058.46
461.31	8011.65
461.49	8091.23
461.67	8081.87
461.85	8339.33
462.04	8107.62
462.22	8636.58
462.40	8301.88
462.59	8437.63
462.77	8109.96
462.95	8173.15
463.13	8238.69
463.32	8163.79
463.50	8297.20
463.68	8355.71
463.86	8486.78
464.05	8189.53
464.23	8313.58
464.41	8264.43
464.59	8215.28
464.78	8575.72
464.96	8283.16
465.14	8367.42
465.32	8674.03
465.50	8315.92
465.69	8484.44
465.87	8432.95
466.05	8608.49
466.23	8390.82
466.41	8449.33
466.60	8699.77
466.78	8643.60
466.96	8557.00
467.14	8573.38
467.32	8760.63
467.51	8933.82
467.69	8589.77
467.87	8664.66
468.05	8805.10
468.23	8737.22
468.41	8870.63
468.60	8847.22
468.78	8999.36
468.96	8905.74
469.14	9029.79
469.32	9022.77
469.50	8933.82
469.69	9034.47
469.87	9060.21
470.05	9261.50
470.23	9027.45
470.41	9202.99
470.59	9268.52
470.77	9289.59
470.95	9376.19
471.14	9556.41
471.32	9027.45
471.50	9535.34
471.68	9514.28
471.86	9743.65
472.04	9628.96
472.22	9753.01
472.40	9584.49
472.58	9600.88
472.77	9776.42
472.95	9928.55
473.13	10157.92
473.31	9792.80
473.49	9893.44
473.67	9996.43
473.85	9970.68
474.03	9980.04
474.21	10279.63
474.39	10167.29
474.57	10298.36
474.75	10349.85
474.93	10518.37
475.12	10396.66
475.30	10492.62
475.48	10581.56
475.66	10593.26
475.84	10579.22
476.02	10588.58
476.20	10623.69
476.38	10850.72
476.56	11091.80
476.74	11159.67
476.92	11012.22
477.10	10953.71
477.28	11185.42
477.46	11274.36
477.64	11382.03
477.82	11283.72
478.00	11763.53
478.18	11534.16
478.36	11726.08
478.54	11838.43
478.72	11793.96
478.90	11885.24
479.08	12159.08
479.26	12341.64
479.44	12231.64
479.62	12362.71
479.80	12535.91
479.98	12706.77
480.16	12793.37
480.34	12386.12
480.52	12758.26
480.70	12725.49
480.88	12784.01
481.06	12973.59
481.24	13125.72
481.41	13160.83
481.59	13233.39
481.77	13451.06
481.95	13495.53
482.13	13406.59
482.31	13708.52
482.49	13944.91
482.67	13621.92
482.85	13933.21
483.03	14246.84
483.21	14216.41
483.39	14317.06
483.57	14356.85
483.74	14560.47
483.92	14934.96
484.10	14267.91
484.28	14860.06
484.46	14841.34
484.64	15424.13
484.82	14853.04
485.00	15105.82
485.18	15585.63
485.35	15534.14
485.53	15330.51
485.71	15215.82
485.89	15517.75
486.07	15480.30
486.25	15754.15
486.43	15967.13
486.61	16367.37
486.78	16402.47
486.96	16194.17
487.14	16601.42
487.32	16650.57
487.50	16697.38
487.68	16842.50
487.85	17422.95
488.03	17308.26
488.21	17528.27
488.39	17172.51
488.57	17701.47
488.75	17654.66
488.92	17951.91
489.10	17928.50
489.28	18293.63
489.46	18342.78
489.64	18434.06
489.81	19080.05
489.99	18785.14
490.17	18644.71
490.35	19054.30
490.53	19080.05
490.70	19119.84
490.88	19131.54
491.06	19711.99
491.24	19358.57
491.41	19714.33
491.59	19878.17
491.77	19932.00
491.95	19655.82
492.13	20086.48
492.30	20435.22
492.48	20463.30
492.66	20491.39
492.84	20500.75
493.01	20748.85
493.19	20678.63
493.37	21046.10
493.54	20975.88
493.72	21582.08
493.90	21212.28
494.08	21443.99
494.25	21589.10
494.43	22022.10
494.61	22026.78
494.79	21954.22
494.96	21813.79
495.14	22085.30
495.32	22120.40
495.49	22291.26
495.67	22443.40
495.85	22586.17
496.02	22822.56
496.20	22937.25
496.38	23101.09
496.55	23005.13
496.73	23351.52
496.91	23002.78
497.09	23351.52
497.26	23620.69
497.44	23456.85
497.62	23754.10
497.79	23906.23
497.97	23611.32
498.14	23941.34
498.32	24067.73
498.50	23957.72
498.67	24650.52
498.85	24388.38
499.03	24568.60
499.20	24950.11
499.38	24732.44
499.56	24905.64
499.73	24994.58
499.91	24919.68
500.08	25235.66
500.26	24746.48
500.44	25340.98
500.61	25238.00
500.79	25102.25
500.97	25465.03
501.14	25621.84
501.32	25750.57
501.49	25385.45
501.67	25811.43
501.84	25951.86
502.02	25935.48
502.20	26335.71
502.37	26354.43
502.55	26150.81
502.72	26394.22
502.90	26466.78
503.07	26391.88
503.25	26291.24
503.43	26382.52
503.60	26780.41
503.78	26864.67
503.95	26654.02
504.13	26993.40
504.30	27033.19
504.48	27002.76
504.65	27173.62
504.83	27285.97
505.01	27513.00
505.18	27658.11
505.36	27744.71
505.53	27718.96
505.71	27887.48
505.88	28077.07
506.06	27747.05
506.23	27803.22
506.41	27903.87
506.58	28091.11
506.76	27988.13
506.93	28748.80
507.11	28261.97
507.28	28526.45
507.46	28694.97
507.63	28531.13
507.81	29046.05
507.98	28484.32
508.16	29022.64
508.33	28692.63
508.50	29088.18
508.68	29472.03
508.85	29401.81
509.03	29043.71
509.20	29631.18
509.38	29844.17
509.55	29656.93
509.73	29921.41
509.90	29872.26
510.08	29764.59
510.25	29546.92
510.42	29977.58
510.60	30160.14
510.77	30302.92
510.95	30408.24
511.12	30221.00
511.30	30448.03
511.47	30433.99
511.64	30473.78
511.82	30859.96
511.99	30991.03
512.17	30969.97
512.34	30689.10
512.51	30756.98
512.69	30588.46
512.86	31367.86
513.04	31000.40
513.21	30895.07
513.38	31096.36
513.56	31068.27
513.73	31290.62
513.90	31786.82
514.08	31555.10
514.25	31976.40
514.43	31524.68
514.60	31672.13
514.77	31697.88
514.95	32051.30
515.12	31721.28
515.29	32023.21
515.47	32734.73
515.64	32676.22
515.81	32163.64
515.99	32325.14
516.16	32250.24
516.33	32233.86
516.51	32135.56
516.68	32353.23
516.85	32051.30
517.03	32521.74
517.20	32758.14
517.37	32795.59
517.54	33048.36
517.72	33083.47
517.89	32521.74
518.06	32788.56
518.24	33102.20
518.41	32460.89
518.58	32566.21
518.75	32994.53
518.93	33067.09
519.10	33340.93
519.27	33420.51
519.45	33673.29
519.62	33738.82
519.79	33956.49
519.96	33694.35
520.14	34087.56
520.31	33989.26
520.48	34227.99
520.65	34005.64
520.83	34227.99
521.00	34113.31
521.17	33984.58
521.34	33979.90
521.52	35033.14
521.69	34574.39
521.86	34724.19
522.03	34689.08
522.20	35063.57
522.38	34684.40
522.55	35049.52
522.72	35145.48
522.89	34782.70
523.07	35161.87
523.24	34497.16
523.41	35239.11
523.58	34808.45
523.75	35431.03
523.92	35611.25
524.10	35667.42
524.27	35627.63
524.44	35564.44
524.61	36348.52
524.78	35716.58
524.96	36268.94
525.13	35929.56
525.30	36084.04
525.47	36172.98
525.64	36051.27
525.81	36147.23
525.98	35908.50
526.16	35674.45
526.33	36205.75
526.50	36023.19
526.67	36168.30
526.84	35995.10
527.01	36154.26
527.18	36367.24
527.36	36376.61
527.53	36591.94
527.70	37230.90
527.87	36823.65
528.04	36428.10
528.21	37078.77
528.38	36463.21
528.55	37156.00
528.72	36879.82
528.89	37429.85
529.07	37219.20
529.24	37425.17
529.41	37310.48
529.58	37209.84
529.75	37443.89
529.92	36917.27
530.09	37071.75
530.26	37762.20
530.43	37439.21
530.60	37989.24
530.77	37579.64
530.94	37858.17
531.11	37467.30
531.28	38321.59
531.46	37970.51
531.63	37846.46
531.80	38141.37
531.97	37982.21
532.14	37963.49
532.31	38052.43
532.48	38237.33
532.65	38019.66
532.82	37717.73
532.99	38359.04
533.16	37965.83
533.33	38012.64
533.50	38630.54
533.67	38483.09
533.84	38588.41
534.01	38312.23
534.18	38724.16
534.35	38782.68
534.52	38375.42
534.69	38941.83
534.86	38719.48
535.03	39044.82
535.20	39143.12
535.37	38756.93
535.54	39274.19
535.71	38513.52
535.88	39515.26
536.05	38747.57
536.22	39290.57
536.38	38829.49
536.55	39143.12
536.72	39421.64
536.89	39295.25
537.06	39487.18
537.23	39517.60
537.40	39573.78
537.57	39370.15
537.74	39641.65
537.91	39959.97
538.08	40144.87
538.25	39878.05
538.42	39475.48
538.59	39807.83
538.75	39377.17
538.92	39658.04
539.09	39800.81
539.26	40013.80
539.43	39702.51
539.60	39997.41
539.77	39871.03
539.94	39929.54
540.11	39910.82
540.28	39847.62
540.44	40053.59
540.61	40240.83
540.78	39772.72
540.95	40062.95
541.12	39807.83
541.29	40247.85
541.46	40526.38
541.62	40357.86
541.79	40795.54
541.96	40053.59
542.13	40339.13
542.30	40545.10
542.47	40596.59
542.63	41188.75
542.80	40858.73
542.97	40945.33
543.14	41160.66
543.31	40959.38
543.48	41085.76
543.64	41600.68
543.81	41298.75
543.98	41434.50
544.15	41329.18
544.32	41343.22
544.48	41869.84
544.65	41350.24
544.82	41565.57
544.99	41387.69
545.16	40945.33
545.32	41233.22
545.49	41745.80
545.66	41888.57
545.83	41570.25
546.00	42146.03
546.16	41769.20
546.33	41544.51
546.50	41319.82
546.67	41832.39
546.83	41392.37
547.00	41563.23
547.17	41818.35
547.34	41801.97
547.50	41951.76
547.67	42127.30
547.84	41743.45
548.00	42412.85
548.17	42176.45
548.34	41855.80
548.51	42106.24
548.67	42342.63
548.84	42403.49
549.01	42146.03
549.18	42197.52
549.34	42394.12
549.51	42335.61
549.68	42740.52
549.84	42635.20
550.01	42682.01
550.18	41958.78
550.34	42614.13
550.51	42082.83
550.68	42459.66
550.84	42689.03
551.01	42689.03
551.18	42625.84
551.34	42665.63
551.51	42773.29
551.68	42635.20
551.84	43131.39
552.01	42770.95
552.18	42305.18
552.34	42724.14
552.51	42941.81
552.68	42787.33
552.84	43367.79
553.01	43367.79
553.18	43414.60
553.34	43107.99
553.51	42962.87
553.67	42979.26
553.84	43576.09
554.01	43356.08
554.17	43559.71
554.34	43517.58
554.51	43805.47
554.67	43407.58
554.84	43770.36
555.00	43337.36
555.17	43402.89
555.33	43353.74
555.50	43243.74
555.67	43618.22
555.83	43353.74
556.00	43487.15
556.16	43973.98
556.33	43915.47
556.50	43229.69
556.66	43330.34
556.83	43042.45
556.99	44320.38
557.16	43796.10
557.32	43871.00
557.49	43878.02
557.65	43665.03
557.82	43629.93
557.98	43798.44
558.15	43672.06
558.32	43648.65
558.48	43707.16
558.65	44360.17
558.81	43976.33
558.98	43796.10
559.14	43466.09
559.31	43892.07
559.47	43676.74
559.64	44226.76
559.80	43976.33
559.97	44158.89
560.13	44013.77
560.30	43971.64
560.46	44074.63
560.63	44320.38
560.79	44130.80
560.96	44409.32
561.12	44502.95
561.29	44245.49
561.45	43997.39
561.61	44261.87
561.78	44100.37
561.94	43943.56
562.11	44074.63
562.27	44229.10
562.44	44100.37
562.60	44556.78
562.77	44348.47
562.93	44350.81
563.10	44395.28
563.26	44254.85
563.42	44179.95
563.59	43976.33
563.75	44388.26
563.92	44322.72
564.08	44327.41
564.24	44795.51
564.41	44865.73
564.57	44418.69
564.74	44769.77
564.90	44364.85
565.07	44872.75
565.23	44765.09
565.39	44348.47
565.56	44662.10
565.72	44348.47
565.88	44353.15
566.05	44563.80
566.21	44418.69
566.38	44734.66
566.54	44699.55
566.70	44718.28
566.87	45001.48
567.03	44645.72
567.19	45212.13
567.36	45378.31
567.52	44767.43
567.68	44650.40
567.85	44924.24
568.01	44849.35
568.17	44978.07
568.34	45120.85
568.50	44921.90
568.66	45109.14
568.83	44856.37
568.99	44463.16
569.15	44879.77
569.32	44512.31
569.48	44610.61
569.64	44886.79
569.81	45034.25
569.97	44839.98
570.13	44746.36
570.30	44739.34
570.46	44336.77
570.62	44406.98
570.78	44727.64
570.95	44626.99
571.11	44996.80
571.27	44938.29
571.43	44556.78
571.60	44755.72
571.76	45001.48
571.92	44938.29
572.09	44910.20
572.25	44875.09
572.41	45523.42
572.57	45212.13
572.74	45705.98
572.90	45160.64
573.06	44832.96
573.22	44844.66
573.38	44982.76
573.55	44870.41
573.71	44842.32
573.87	44994.46
574.03	44612.95
574.20	44863.39
574.36	44926.58
574.52	45511.72
574.68	45198.09
574.84	44999.14
575.01	44767.43
575.17	45162.98
575.33	44788.49
575.49	44582.52
575.65	45263.62
575.82	45350.22
575.98	45244.90
576.14	45612.36
576.30	45270.64
576.46	45333.84
576.62	44914.88
576.79	45006.16
576.95	44959.35
577.11	44959.35
577.27	45289.37
577.43	45460.23
577.59	44905.52
577.75	45120.85
577.92	44926.58
578.08	44519.33
578.24	44933.60
578.40	44697.21
578.56	44629.34
578.72	44959.35
578.88	45441.50
579.04	45294.05
579.21	45380.65
579.37	45179.36
579.53	45090.42
579.69	44905.52
579.85	44886.79
580.01	45223.83
580.17	45146.59
580.33	45425.12
580.49	45287.03
580.65	45230.85
580.82	45521.08
580.98	45127.87
581.14	44935.95
581.30	45588.95
581.46	45434.48
581.62	45303.41
581.78	45418.10
581.94	46005.57
582.10	45139.57
582.26	45361.92
582.42	45289.37
582.58	45095.10
582.74	45329.16
582.90	45408.73
583.06	45551.51
583.22	45282.34
583.38	45708.32
583.54	45240.21
583.70	45022.54
583.86	45462.57
584.02	45254.26
584.18	45371.28
584.34	45429.80
584.50	45001.48
584.66	45137.23
584.82	44818.92
584.98	45471.93
585.14	45263.62
585.30	45207.45
585.46	45116.17
585.62	45181.70
585.78	45244.90
585.94	45184.04
586.10	45057.65
586.26	45675.55
586.42	45539.80
586.58	45228.51
586.74	45336.18
586.90	45198.09
587.06	45081.06
587.22	45485.97
587.38	45071.70
587.54	45670.87
587.70	45488.31
587.86	45481.29
588.02	45352.56
588.18	45240.21
588.34	45296.39
588.49	44758.06
588.65	45043.61
588.81	44790.83
588.97	45478.95
589.13	45261.28
589.29	45029.57
589.45	45441.50
589.61	45277.66
589.77	45296.39
589.93	45230.85
590.08	45553.85
590.24	45305.75
