SpectraSuite Data File
++++++++++++++++++++++++++++++++++++
Date: Fri Oct 25 11:22:38 EDT 2013
User: price-jones
Dark Spectrum Present: No
Reference Spectrum Present: No
Number of Sampled Component Spectra: 1
Spectrometers: USB2+H05261
Integration Time (usec): 100000 (USB2+H05261)
Spectra Averaged: 1 (USB2+H05261)
Boxcar Smoothing: 0 (USB2+H05261)
Correct for Electrical Dark: No (USB2+H05261)
Strobe/Lamp Enabled: No (USB2+H05261)
Correct for Detector Non-linearity: No (USB2+H05261)
Correct for Stray Light: No (USB2+H05261)
Number of Pixels in Processed Spectrum: 2048
>>>>>Begin Processed Spectral Data<<<<<
365.73	229.37
365.92	229.37
366.12	229.37
366.32	187.24
366.52	152.13
366.72	93.62
366.91	102.98
367.11	135.75
367.31	77.24
367.51	84.26
367.70	187.24
367.90	114.69
368.10	175.54
368.30	112.35
368.49	98.30
368.69	98.30
368.89	72.56
369.09	170.86
369.28	201.29
369.48	117.03
369.68	229.37
369.87	210.65
370.07	142.77
370.27	276.18
370.47	294.91
370.66	573.43
370.86	545.34
371.06	653.01
371.25	657.69
371.45	671.73
371.65	678.76
371.84	674.07
372.04	578.11
372.24	788.76
372.44	716.20
372.63	734.93
372.83	755.99
373.03	688.12
373.22	770.04
373.42	716.20
373.62	690.46
373.81	802.80
374.01	727.91
374.21	844.93
374.40	767.70
374.60	814.51
374.79	800.46
374.99	926.85
375.19	922.17
375.38	814.51
375.58	793.44
375.78	809.83
375.97	823.87
376.17	898.77
376.37	809.83
376.56	870.68
376.76	786.42
376.95	903.45
377.15	947.92
377.35	861.32
377.54	912.81
377.74	868.34
377.93	943.24
378.13	875.36
378.33	912.81
378.52	936.21
378.72	917.49
378.91	968.98
379.11	940.90
379.31	943.24
379.50	954.94
379.70	866.00
379.89	903.45
380.09	908.13
380.28	961.96
380.48	952.60
380.68	1041.54
380.87	999.41
381.07	1008.77
381.26	1123.46
381.46	985.37
381.65	1050.90
381.85	1043.88
382.04	1032.18
382.24	1050.90
382.43	1011.11
382.63	1022.81
382.83	1064.94
383.02	1008.77
383.22	1137.50
383.41	1125.80
383.61	1069.62
383.80	1102.39
384.00	1027.50
384.19	1149.20
384.39	1174.95
384.58	1160.91
384.78	1093.03
384.97	1196.01
385.17	1078.99
385.36	1163.25
385.56	1174.95
385.75	1149.20
385.95	1137.50
386.14	1212.40
386.34	1238.14
386.53	1181.97
386.72	1123.46
386.92	1198.35
387.11	1226.44
387.31	1329.42
387.50	1200.69
387.70	1287.29
387.89	1245.16
388.09	1315.38
388.28	1249.85
388.48	1205.38
388.67	1291.98
388.86	1359.85
389.06	1315.38
389.25	1320.06
389.45	1359.85
389.64	1240.48
389.84	1437.09
390.03	1366.87
390.22	1324.74
390.42	1427.73
390.61	1308.36
390.81	1462.83
391.00	1481.56
391.19	1380.92
391.39	1359.85
391.58	1364.53
391.78	1380.92
391.97	1493.26
392.16	1502.62
392.36	1563.48
392.55	1547.09
392.75	1521.35
392.94	1507.30
393.13	1474.54
393.33	1460.49
393.52	1551.78
393.71	1533.05
393.91	1610.29
394.10	1558.80
394.29	1643.06
394.49	1624.33
394.68	1652.42
394.88	1638.38
395.07	1710.93
395.26	1631.35
395.46	1584.54
395.65	1701.57
395.84	1750.72
396.04	1722.63
396.23	1720.29
396.42	1724.97
396.62	1720.29
396.81	1661.78
397.00	1750.72
397.19	1778.81
397.39	1757.74
397.58	1858.39
397.77	1776.47
397.97	1792.85
398.16	1902.86
398.35	1788.17
398.55	1902.86
398.74	1863.07
398.93	2078.40
399.12	1963.71
399.32	1905.20
399.51	1930.94
399.70	2031.58
399.90	1923.92
400.09	2115.84
400.28	1919.24
400.47	1973.07
400.67	1984.77
400.86	2059.67
401.05	2090.10
401.24	2017.54
401.44	2069.03
401.63	2064.35
401.82	2251.60
402.01	2174.36
402.21	2312.45
402.40	2148.61
402.59	2134.57
402.78	2235.21
402.97	2197.76
403.17	2237.55
403.36	2258.62
403.55	2270.32
403.74	2431.82
403.93	2462.24
404.13	2396.71
404.32	2370.96
404.51	2342.88
404.70	2534.80
404.89	2303.09
405.09	2438.84
405.28	2459.90
405.47	2487.99
405.66	2597.99
405.85	2513.74
406.05	2443.52
406.24	2544.16
406.43	2532.46
406.62	2583.95
406.81	2710.34
407.00	2649.49
407.20	2675.23
407.39	2607.36
407.58	2808.64
407.77	2722.04
407.96	2785.24
408.15	2846.09
408.34	2686.94
408.54	2808.64
408.73	2850.77
408.92	2857.79
409.11	2785.24
409.30	2818.00
409.49	2888.22
409.68	2750.13
409.87	2857.79
410.07	3035.67
410.26	2949.08
410.45	2958.44
410.64	3045.04
410.83	3084.83
411.02	3075.46
411.21	3187.81
411.40	3169.09
411.59	3201.85
411.78	3180.79
411.98	3255.69
412.17	3368.03
412.36	3346.97
412.55	3353.99
412.74	3414.84
412.93	3426.54
413.12	3468.67
413.31	3545.91
413.50	3475.70
413.69	3403.14
413.88	3726.13
414.07	3545.91
414.26	3578.68
414.45	3749.54
414.64	3768.26
414.83	3770.60
415.02	3794.01
415.22	3833.80
415.41	3817.41
415.60	4018.70
415.79	3786.99
415.98	4067.85
416.17	4145.09
416.36	4058.49
416.55	3971.89
416.74	3941.46
416.93	4156.79
417.12	4018.70
417.31	4046.79
417.50	4109.98
417.69	4187.22
417.88	4203.60
418.07	4358.08
418.26	4205.94
418.45	4437.66
418.64	4496.17
418.83	4353.40
419.02	4482.13
419.21	4587.45
419.39	4608.51
419.58	4566.39
419.77	4648.30
419.96	4594.47
420.15	4620.22
420.34	4660.01
420.53	4643.62
420.72	4755.97
420.91	4779.37
421.10	4718.52
421.29	4760.65
421.48	4741.93
421.67	4772.35
421.86	4655.33
422.05	4873.00
422.24	4819.16
422.43	4849.59
422.61	4952.57
422.80	4821.50
422.99	4830.87
423.18	4959.60
423.37	4910.44
423.56	5074.28
423.75	5107.05
423.94	4826.18
424.13	4571.07
424.32	4734.90
424.50	5093.01
424.69	5046.20
424.88	5011.09
425.07	4922.15
425.26	5029.81
425.45	4952.57
425.64	4905.76
425.83	5022.79
426.01	5015.77
426.20	5013.43
426.39	4947.89
426.58	5090.67
426.77	5083.64
426.96	5146.84
427.15	5128.11
427.33	5282.59
427.52	5195.99
427.71	5406.64
427.90	5184.29
428.09	5334.08
428.28	5167.90
428.46	5413.66
428.65	5589.20
428.84	5472.17
429.03	5575.16
429.22	5334.08
429.40	5476.85
429.59	5355.15
429.78	5446.43
429.97	5315.36
430.16	5549.41
430.34	5764.74
430.53	5621.97
430.72	5568.13
430.91	5605.58
431.10	5530.69
431.28	5760.06
431.47	5928.58
431.66	5888.79
431.85	5804.53
432.03	5755.38
432.22	5982.41
432.41	5937.94
432.60	6080.71
432.79	6043.26
432.97	6012.84
433.16	5989.43
433.35	6080.71
433.54	6108.80
433.72	6143.91
433.91	6132.20
434.10	6064.33
434.28	6150.93
434.47	6408.39
434.66	6445.84
434.85	6389.66
435.03	6307.74
435.22	6246.89
435.41	6410.73
435.59	6417.75
435.78	6431.79
435.97	6228.17
436.16	6651.80
436.34	6438.81
436.53	6642.44
436.72	6717.34
436.90	6487.96
437.09	6689.25
437.28	6464.56
437.46	6654.14
437.65	6773.51
437.84	6757.13
438.02	6724.36
438.21	6771.17
438.40	6740.74
438.58	6902.24
438.77	7115.23
438.96	6932.67
439.14	7112.89
439.33	7281.41
439.52	7171.40
439.70	7492.05
439.89	7468.65
440.08	7676.96
440.26	7616.10
440.45	7449.93
440.63	7524.82
440.82	7667.60
441.01	7531.84
441.19	7798.66
441.38	7681.64
441.57	7499.08
441.75	7756.54
441.94	8056.12
442.12	7866.54
442.31	8088.89
442.50	8138.04
442.68	8114.64
442.87	8063.15
443.05	8292.52
443.24	8400.18
443.43	8226.98
443.61	8168.47
443.80	8463.38
443.98	7967.18
444.17	7822.07
444.35	8255.07
444.54	8442.31
444.73	8290.18
444.91	8276.13
445.10	8355.71
445.28	8257.41
445.47	8334.65
445.65	8395.50
445.84	8573.38
446.02	8404.86
446.21	8353.37
446.39	8456.36
446.58	8479.76
446.77	8482.10
446.95	8489.12
447.14	8505.51
447.32	8528.91
447.51	8571.04
447.69	8631.90
447.88	8690.41
448.06	8407.20
448.25	8369.76
448.43	8566.36
448.62	8514.87
448.80	8648.28
448.99	8648.28
449.17	8887.01
449.36	8755.94
449.54	9029.79
449.73	8992.34
449.91	9095.32
450.10	8952.55
450.28	9165.54
450.46	9188.94
450.65	9233.41
450.83	9273.20
451.02	9025.11
451.20	9195.96
451.39	9275.54
451.57	9224.05
451.76	9224.05
451.94	9228.73
452.13	9369.16
452.31	9308.31
452.49	9308.31
452.68	9537.68
452.86	9210.01
453.05	9579.81
453.23	9460.45
453.42	9364.48
453.60	9191.28
453.78	9631.30
453.97	9366.82
454.15	9507.26
454.34	9254.48
454.52	9689.82
454.70	9701.52
454.89	9820.89
455.07	9858.34
455.26	9987.07
455.44	10036.22
455.62	9951.96
455.81	10001.11
455.99	9799.82
456.17	9982.38
456.36	10019.83
456.54	10211.76
456.73	10281.97
456.91	10370.91
457.09	10410.70
457.28	10607.31
457.46	10441.13
457.64	10560.50
457.83	10600.29
458.01	10668.16
458.19	10925.62
458.38	10562.84
458.56	10712.63
458.74	10764.12
458.93	10614.33
459.11	10721.99
459.29	10782.85
459.48	10860.09
459.66	10775.83
459.84	11096.48
460.03	11281.38
460.21	10958.39
460.39	11122.23
460.57	10860.09
460.76	11274.36
460.94	11314.15
461.12	11056.69
461.31	11337.56
461.49	11365.64
461.67	11279.04
461.85	11335.21
462.04	11501.39
462.22	11903.96
462.40	11538.84
462.59	11672.25
462.77	11779.92
462.95	11700.34
463.13	11719.06
463.32	11871.20
463.50	11730.76
463.68	11836.09
463.86	11840.77
464.05	11646.51
464.23	11660.55
464.41	12126.32
464.59	11719.06
464.78	12390.80
464.96	11974.18
465.14	12091.21
465.32	12308.88
465.50	12077.16
465.69	12262.07
465.87	12327.60
466.05	12175.47
466.23	12112.27
466.41	12161.42
466.60	12458.67
466.78	12327.60
466.96	11981.20
467.14	12395.48
467.32	12430.59
467.51	12718.47
467.69	12222.28
467.87	12486.76
468.05	12800.39
468.23	12489.10
468.41	12451.65
468.60	12690.38
468.78	12917.42
468.96	12833.16
469.14	12987.63
469.32	12961.89
469.50	12510.16
469.69	13055.51
469.87	13055.51
470.05	13217.01
470.23	13275.52
470.41	13165.51
470.59	13518.93
470.77	13315.31
470.95	13266.16
471.14	13577.45
471.32	13123.38
471.50	13687.45
471.68	13858.31
471.86	13867.67
472.04	13907.46
472.22	13998.74
472.40	13783.41
472.58	13970.66
472.77	14111.09
472.95	14230.46
473.13	14733.67
473.31	14342.80
473.49	14026.83
473.67	14232.80
473.85	14443.45
474.03	14635.37
474.21	14391.95
474.39	14953.68
474.57	14581.54
474.75	14911.55
474.93	15126.88
475.12	15234.55
475.30	15321.15
475.48	15101.14
475.66	15112.84
475.84	15264.97
476.02	15555.20
476.20	15482.64
476.38	15932.03
476.56	16203.53
476.74	16161.40
476.92	15875.85
477.10	16072.46
477.28	16425.88
477.46	16421.20
477.64	16685.68
477.82	16683.34
478.00	17144.42
478.18	16718.45
478.36	16931.44
478.54	16989.95
478.72	17228.68
478.90	17509.55
479.08	17645.30
479.26	17968.29
479.44	17972.97
479.62	17806.80
479.80	18024.47
479.98	18157.88
480.16	18544.06
480.34	18490.23
480.52	18766.42
480.70	18817.91
480.88	18904.51
481.06	18794.50
481.24	18970.04
481.41	19044.94
481.59	19260.27
481.77	19559.86
481.95	19854.76
482.13	19845.40
482.31	19957.75
482.49	20404.79
482.67	20215.21
482.85	20318.19
483.03	20957.16
483.21	20945.45
483.39	21130.36
483.57	20999.29
483.74	21420.58
483.92	21603.14
484.10	21135.04
484.28	21986.99
484.46	22207.00
484.64	22473.82
484.82	21975.29
485.00	22424.67
485.18	22731.28
485.35	23159.60
485.53	22955.97
485.71	23281.31
485.89	23859.42
486.07	23552.81
486.25	23218.11
486.43	23618.35
486.61	23983.47
486.78	24360.30
486.96	24229.23
487.14	24788.61
487.32	24716.06
487.50	24973.52
487.68	24922.02
487.85	25582.06
488.03	25860.58
488.21	26235.06
488.39	25893.35
488.57	26221.02
488.75	26485.50
488.92	26511.25
489.10	26719.56
489.28	27105.74
489.46	27119.79
489.64	26986.38
489.81	27892.16
489.99	27861.74
490.17	27960.04
490.35	28388.36
490.53	28074.73
490.70	28713.69
490.88	28584.96
491.06	28975.83
491.24	28947.75
491.41	29235.63
491.59	29392.45
491.77	29638.20
491.95	29993.97
492.13	29694.38
492.30	30373.13
492.48	30012.69
492.66	30148.44
492.84	30707.83
493.01	30600.16
493.19	30738.26
493.37	31363.18
493.54	31246.15
493.72	31704.90
493.90	32013.85
494.08	31957.67
494.25	32074.70
494.43	32416.42
494.61	32774.52
494.79	32664.52
494.96	32676.22
495.14	32952.40
495.32	33125.60
495.49	33556.26
495.67	33441.57
495.85	33926.07
496.02	33970.54
496.20	34286.51
496.38	34274.80
496.55	33729.46
496.73	35276.55
496.91	34983.99
497.09	35028.46
497.26	35463.80
497.44	35512.95
497.62	35440.39
497.79	36020.84
497.97	35976.37
498.14	36456.18
498.32	36495.97
498.50	36273.62
498.67	37139.62
498.85	36870.46
499.03	37013.23
499.20	36980.46
499.38	36861.10
499.56	37544.53
499.73	36980.46
499.91	37530.49
500.08	37883.91
500.26	37612.41
500.44	37956.47
500.61	38192.86
500.79	38462.02
500.97	38455.00
501.14	38941.83
501.32	38897.36
501.49	39007.37
501.67	39110.35
501.84	39459.09
502.02	39264.83
502.20	39246.10
502.37	39564.42
502.55	39578.46
502.72	39700.17
502.90	39852.30
503.07	39578.46
503.25	39999.76
503.43	40315.73
503.60	40245.51
503.78	40259.55
503.95	40383.60
504.13	40678.51
504.30	40821.28
504.48	40851.71
504.65	40804.90
504.83	41301.09
505.01	41682.60
505.18	41572.60
505.36	41820.69
505.53	41558.55
505.71	41771.54
505.88	42181.13
506.06	41909.63
506.23	41834.74
506.41	41977.51
506.58	42377.74
506.76	42672.65
506.93	42906.70
507.11	42670.31
507.28	42869.25
507.46	43037.77
507.63	43325.66
507.81	43442.68
507.98	42993.30
508.16	43344.38
508.33	43966.96
508.50	43962.28
508.68	43735.25
508.85	43955.26
509.03	44594.23
509.20	44208.04
509.38	44486.56
509.55	44722.96
509.73	44371.88
509.90	44821.26
510.08	44591.89
510.25	44982.76
510.42	45022.54
510.60	45167.66
510.77	45268.30
510.95	45462.57
511.12	45549.17
511.30	45666.19
511.47	45846.41
511.64	45752.79
511.82	46155.36
511.99	45940.04
512.17	46246.65
512.34	45785.56
512.51	46777.95
512.69	46429.21
512.86	46756.88
513.04	46740.50
513.21	46946.47
513.38	47007.32
513.56	47171.16
513.73	47103.28
513.90	47100.94
514.08	47297.55
514.25	47622.88
514.43	47686.07
514.60	47302.23
514.77	47763.31
514.95	48147.16
515.12	48212.70
515.29	47753.95
515.47	48200.99
515.64	48533.35
515.81	48044.18
515.99	48582.50
516.16	48732.29
516.33	48790.81
516.51	48905.49
516.68	48821.23
516.85	48580.16
517.03	49134.87
517.20	49432.11
517.37	49041.24
517.54	49254.23
517.72	48989.75
517.89	49310.41
518.06	49638.08
518.24	49317.43
518.41	49577.23
518.58	49462.54
518.75	49322.11
518.93	49670.85
519.10	50124.91
519.27	50047.68
519.45	50384.71
519.62	50124.91
519.79	50581.32
519.96	50075.76
520.14	50511.10
520.31	50457.27
520.48	50724.09
520.65	50670.26
520.83	51026.02
521.00	51079.85
521.17	50965.17
521.34	50763.88
521.52	51140.71
521.69	51201.56
521.86	51082.19
522.03	51601.79
522.20	51356.03
522.38	51695.41
522.55	51456.68
522.72	51559.66
522.89	51784.35
523.07	51800.74
523.24	51889.68
523.41	51856.91
523.58	51779.67
523.75	52147.14
523.92	51936.49
524.10	52034.79
524.27	52245.44
524.44	52051.17
524.61	52341.40
524.78	52399.91
524.96	52437.36
525.13	52690.14
525.30	52765.04
525.47	52910.15
525.64	53038.88
525.81	53116.12
525.98	52877.38
526.16	52729.93
526.33	52793.12
526.50	53294.00
526.67	52781.42
526.84	52886.74
527.01	53272.93
527.18	53272.93
527.36	53373.58
527.53	53340.81
527.70	53499.97
527.87	53324.43
528.04	53249.53
528.21	53642.74
528.38	53602.95
528.55	53652.10
528.72	53560.82
528.89	53614.65
529.07	53511.67
529.24	53574.86
529.41	53923.60
529.58	53949.35
529.75	53675.51
529.92	53743.38
530.09	53879.13
530.26	54162.34
530.43	54494.69
530.60	54108.50
530.77	54094.46
530.94	54372.99
531.11	54490.01
531.28	54518.10
531.46	54506.40
531.63	54438.52
531.80	54492.35
531.97	54576.61
532.14	54571.93
532.31	54981.52
532.48	54892.58
532.65	54738.11
532.82	54389.37
532.99	54871.52
533.16	55040.04
533.33	54939.39
533.50	55227.28
533.67	55028.34
533.84	54864.50
534.01	55210.90
534.18	55356.01
534.35	55388.78
534.52	55327.92
534.69	55442.61
534.86	55566.66
535.03	55334.95
535.20	55412.18
535.37	55634.53
535.54	55636.87
535.71	55625.17
535.88	55707.09
536.05	55805.39
536.22	55725.81
536.38	55400.48
536.55	55877.95
536.72	56081.58
536.89	55721.13
537.06	55826.46
537.23	56013.70
537.40	55913.06
537.57	55999.66
537.74	55950.51
537.91	56324.99
538.08	56175.20
538.25	56083.92
538.42	56086.26
538.59	56477.13
538.75	56069.87
538.92	56364.78
539.09	56289.88
539.26	56554.36
539.43	56296.91
539.60	56603.52
539.77	56212.65
539.94	56711.18
540.11	56652.67
540.28	56694.80
540.44	56692.46
540.61	56516.92
540.78	56612.88
540.95	56680.75
541.12	56662.03
541.29	56552.02
541.46	56835.23
541.62	56720.54
541.79	56870.34
541.96	56615.22
542.13	56519.26
542.30	56746.29
542.47	56739.27
542.63	56942.89
542.80	57130.14
542.97	57403.98
543.14	57228.44
543.31	57286.95
543.48	57394.62
543.64	57748.04
543.81	57668.46
543.98	57785.49
544.15	57521.01
544.32	57425.04
544.48	57762.08
544.65	57488.24
544.82	57701.23
544.99	57462.49
545.16	57607.61
545.32	57497.60
545.49	58040.60
545.66	58045.29
545.83	57691.86
546.00	57930.60
546.16	57855.70
546.33	57979.75
546.50	57822.93
546.67	58073.37
546.83	57616.97
547.00	58192.74
547.17	57963.37
547.34	57860.38
547.50	58108.48
547.67	58061.67
547.84	58131.89
548.00	58305.09
548.17	58262.96
548.34	58309.77
548.51	58588.29
548.67	58330.83
548.84	58487.65
549.01	58230.19
549.18	58382.32
549.34	58377.64
549.51	58504.03
549.68	58618.72
549.84	58443.18
550.01	58653.82
550.18	58478.28
550.34	58688.93
550.51	58590.63
550.68	58672.55
550.84	58363.60
551.01	58906.60
551.18	58749.79
551.34	58672.55
551.51	58707.66
551.68	58791.92
551.84	58841.07
552.01	58745.11
552.18	58883.20
552.34	58777.87
552.51	59152.36
552.68	58780.21
552.84	58766.17
553.01	59075.12
553.18	59222.58
553.34	59222.58
553.51	58850.43
553.67	59042.35
553.84	59222.58
554.01	59068.10
554.17	59114.91
554.34	59248.32
554.51	59306.83
554.67	59112.57
554.84	59025.97
555.00	59117.25
555.17	59047.04
555.33	59180.45
555.50	59093.85
555.67	59096.19
555.83	59166.40
556.00	59372.37
556.16	59641.53
556.33	59372.37
556.50	59561.95
556.66	59709.41
556.83	59320.88
556.99	59697.70
557.16	59770.26
557.32	59807.71
557.49	59765.58
557.65	59344.28
557.82	59468.33
557.98	59566.63
558.15	59643.87
558.32	59716.43
558.48	59388.75
558.65	59536.21
558.81	59566.63
558.98	59751.54
559.14	59945.80
559.31	59765.58
559.47	59772.60
559.64	59976.23
559.80	60107.30
559.97	60135.38
560.13	59772.60
560.30	59976.23
560.46	59859.20
560.63	60123.68
560.79	60020.70
560.96	60109.64
561.12	60060.49
561.29	60020.70
561.45	60044.10
561.61	60072.19
561.78	59959.84
561.94	59997.29
562.11	59973.89
562.27	60186.88
562.44	60037.08
562.60	60161.13
562.77	60081.55
562.93	59955.16
563.10	60158.79
563.26	60245.39
563.42	60488.80
563.59	60327.31
563.75	60275.82
563.92	60278.16
564.08	60336.67
564.24	60420.93
564.41	60212.62
564.57	60374.12
564.74	60371.78
564.90	60465.40
565.07	60168.15
565.23	60470.08
565.39	60486.46
565.56	60334.33
565.72	60322.63
565.88	60371.78
566.05	60430.29
566.21	60229.01
566.38	60514.55
566.54	60507.53
566.70	60402.21
566.87	60605.83
567.03	60390.50
567.19	60748.60
567.36	60530.93
567.52	60643.28
567.68	60556.68
567.85	60231.35
568.01	60458.38
568.17	60493.49
568.34	60456.04
568.50	60694.77
568.66	60619.88
568.83	60612.85
568.99	60465.40
569.15	60619.88
569.32	60535.62
569.48	60591.79
569.64	60846.91
569.81	60605.83
569.97	60676.05
570.13	60732.22
570.30	60481.78
570.46	60594.13
570.62	60856.27
570.78	60863.29
570.95	60566.04
571.11	60767.33
571.27	60842.23
571.43	60706.47
571.60	60837.54
571.76	60605.83
571.92	60924.14
572.09	60750.94
572.25	60802.44
572.41	60715.84
572.57	60961.59
572.74	60896.06
572.90	60821.16
573.06	60814.14
573.22	60725.20
573.38	60727.54
573.55	60757.97
573.71	60961.59
573.87	60896.06
574.03	60671.37
574.20	61006.06
574.36	60547.32
574.52	60867.97
574.68	60898.40
574.84	60882.02
575.01	61099.68
575.17	61001.38
575.33	61006.06
575.49	60788.39
575.65	60828.18
575.82	60863.29
575.98	60865.63
576.14	61123.09
576.30	60994.36
576.46	60956.91
576.62	60999.04
576.79	60825.84
576.95	60814.14
577.11	60779.03
577.27	61092.66
577.43	60999.04
577.59	60989.68
577.75	60867.97
577.92	61144.16
578.08	61006.06
578.24	60949.89
578.40	61041.17
578.56	61193.31
578.72	60938.19
578.88	61188.63
579.04	61174.58
579.21	61167.56
579.37	61223.73
579.53	61221.39
579.69	61076.28
579.85	60938.19
580.01	61090.32
580.17	60985.00
580.33	61099.68
580.49	61113.73
580.65	61090.32
580.82	61015.43
580.98	60926.49
581.14	60945.21
581.30	61111.39
581.46	61066.92
581.62	61010.74
581.78	61071.60
581.94	61261.18
582.10	60926.49
582.26	61181.60
582.42	60980.32
582.58	61010.74
582.74	61104.37
582.90	61034.15
583.06	61045.85
583.22	60952.23
583.38	61111.39
583.54	61284.59
583.70	61202.67
583.86	61144.16
584.02	60970.96
584.18	61427.36
584.34	61155.86
584.50	61144.16
584.66	61095.00
584.82	60959.25
584.98	61209.69
585.14	61263.52
585.30	60994.36
585.46	61020.11
585.62	61340.76
585.78	61385.23
585.94	61001.38
586.10	61083.30
586.26	61223.73
586.42	61069.26
586.58	61230.75
586.74	61352.46
586.90	61272.88
587.06	61113.73
587.22	61289.27
587.38	61200.33
587.54	61509.28
587.70	61317.35
587.86	61212.03
588.02	61254.16
588.18	61179.26
588.34	61179.26
588.49	61132.45
