SpectraSuite Data File
++++++++++++++++++++++++++++++++++++
Date: Fri Oct 25 11:25:00 EDT 2013
User: price-jones
Dark Spectrum Present: No
Reference Spectrum Present: No
Number of Sampled Component Spectra: 1
Spectrometers: USB2+H05261
Integration Time (usec): 100000 (USB2+H05261)
Spectra Averaged: 1 (USB2+H05261)
Boxcar Smoothing: 0 (USB2+H05261)
Correct for Electrical Dark: No (USB2+H05261)
Strobe/Lamp Enabled: No (USB2+H05261)
Correct for Detector Non-linearity: No (USB2+H05261)
Correct for Stray Light: No (USB2+H05261)
Number of Pixels in Processed Spectrum: 2048
>>>>>Begin Processed Spectral Data<<<<<
365.73	194.26
365.92	194.26
366.12	194.26
366.32	175.54
366.52	140.43
366.72	152.13
366.91	161.50
367.11	124.05
367.31	166.18
367.51	191.92
367.70	126.39
367.90	86.60
368.10	205.97
368.30	131.07
368.49	138.09
368.69	131.07
368.89	203.63
369.09	203.63
369.28	152.13
369.48	191.92
369.68	147.45
369.87	227.03
370.07	168.52
370.27	280.86
370.47	304.27
370.66	601.52
370.86	601.52
371.06	688.12
371.25	660.03
371.45	631.94
371.65	650.67
371.84	650.67
372.04	692.80
372.24	734.93
372.44	620.24
372.63	688.12
372.83	777.06
373.03	739.61
373.22	772.38
373.42	784.08
373.62	720.88
373.81	875.36
374.01	779.40
374.21	755.99
374.40	793.44
374.60	863.66
374.79	896.43
374.99	744.29
375.19	732.59
375.38	798.12
375.58	889.40
375.78	816.85
375.97	844.93
376.17	915.15
376.37	828.55
376.56	868.34
376.76	837.91
376.95	929.19
377.15	894.08
377.35	957.28
377.54	952.60
377.74	915.15
377.93	943.24
378.13	931.53
378.33	952.60
378.52	915.15
378.72	973.66
378.91	887.06
379.11	910.47
379.31	891.74
379.50	922.17
379.70	1048.56
379.89	978.34
380.09	980.68
380.28	1041.54
380.48	1001.75
380.68	1086.01
380.87	1064.94
381.07	1020.47
381.26	983.02
381.46	1015.79
381.65	1034.52
381.85	992.39
382.04	999.41
382.24	1067.28
382.43	1020.47
382.63	1013.45
382.83	1137.50
383.02	1142.18
383.22	1137.50
383.41	1055.58
383.61	1128.14
383.80	1174.95
384.00	1043.88
384.19	1114.10
384.39	1191.33
384.58	1114.10
384.78	1144.52
384.97	1172.61
385.17	1207.72
385.36	1050.90
385.56	1170.27
385.75	1137.50
385.95	1170.27
386.14	1205.38
386.34	1224.10
386.53	1200.69
386.72	1221.76
386.92	1245.16
387.11	1256.87
387.31	1259.21
387.50	1200.69
387.70	1205.38
387.89	1320.06
388.09	1228.78
388.28	1322.40
388.48	1256.87
388.67	1320.06
388.86	1289.64
389.06	1350.49
389.25	1320.06
389.45	1338.79
389.64	1406.66
389.84	1343.47
390.03	1315.38
390.22	1409.00
390.42	1451.13
390.61	1401.98
390.81	1401.98
391.00	1441.77
391.19	1373.89
391.39	1551.78
391.58	1453.47
391.78	1432.41
391.97	1476.88
392.16	1514.33
392.36	1495.60
392.55	1533.05
392.75	1462.83
392.94	1462.83
393.13	1544.75
393.33	1500.28
393.52	1526.03
393.71	1621.99
393.91	1605.61
394.10	1624.33
394.29	1584.54
394.49	1633.69
394.68	1607.95
394.88	1624.33
395.07	1631.35
395.26	1605.61
395.46	1732.00
395.65	1710.93
395.84	1727.32
396.04	1671.14
396.23	1724.97
396.42	1727.32
396.62	1673.48
396.81	1757.74
397.00	1687.53
397.19	1898.17
397.39	1762.42
397.58	1820.94
397.77	1886.47
397.97	1923.92
398.16	1898.17
398.35	1849.02
398.55	1813.92
398.74	1996.48
398.93	1898.17
399.12	1732.00
399.32	1888.81
399.51	1952.01
399.70	2003.50
399.90	1949.67
400.09	2022.22
400.28	2090.10
400.47	2069.03
400.67	2029.24
400.86	2062.01
401.05	2092.44
401.24	2127.55
401.44	2015.20
401.63	2022.22
401.82	2136.91
402.01	2104.14
402.21	2132.23
402.40	2162.66
402.59	2200.10
402.78	2256.28
402.97	2204.78
403.17	2300.75
403.36	2228.19
403.55	2197.76
403.74	2389.69
403.93	2183.72
404.13	2228.19
404.32	2279.68
404.51	2317.13
404.70	2321.81
404.89	2462.24
405.09	2527.78
405.28	2530.12
405.47	2555.86
405.66	2513.74
405.85	2523.10
406.05	2450.54
406.24	2640.12
406.43	2630.76
406.62	2637.78
406.81	2670.55
407.00	2527.78
407.20	2532.46
407.39	2595.65
407.58	2647.15
407.77	2801.62
407.96	2708.00
408.15	2815.66
408.34	2691.62
408.54	2782.90
408.73	2773.53
408.92	2878.86
409.11	2803.96
409.30	2703.32
409.49	2998.23
409.68	2862.48
409.87	2806.30
410.07	2991.20
410.26	2930.35
410.45	3023.97
410.64	3077.80
410.83	3049.72
411.02	3089.51
411.21	3206.53
411.40	3080.14
411.59	3138.66
411.78	3164.40
411.98	3236.96
412.17	3361.01
412.36	3351.65
412.55	3309.52
412.74	3417.18
412.93	3372.71
413.12	3342.28
413.31	3548.25
413.50	3499.10
413.69	3545.91
413.88	3641.87
414.07	3515.48
414.26	3707.41
414.45	3737.84
414.64	3674.64
414.83	3772.94
415.02	3758.90
415.22	3786.99
415.41	3861.88
415.60	3854.86
415.79	3985.93
415.98	4018.70
416.17	3934.44
416.36	3995.29
416.55	3978.91
416.74	4065.51
416.93	4023.38
417.12	4105.30
417.31	4077.21
417.50	4196.58
417.69	4227.01
417.88	4301.90
418.07	4180.20
418.26	4409.57
418.45	4322.97
418.64	4358.08
418.83	4355.74
419.02	4238.71
419.21	4486.81
419.39	4559.36
419.58	4472.76
419.77	4491.49
419.96	4664.69
420.15	4606.17
420.34	4571.07
420.53	4624.90
420.72	4552.34
420.91	4601.49
421.10	4856.61
421.29	4856.61
421.48	4660.01
421.67	4851.93
421.86	4903.42
422.05	4821.50
422.24	4856.61
422.43	4842.57
422.61	4929.17
422.80	4975.98
422.99	4919.81
423.18	5029.81
423.37	5008.75
423.56	5090.67
423.75	4821.50
423.94	4781.71
424.13	4580.43
424.32	4828.53
424.50	4985.34
424.69	5022.79
424.88	5114.07
425.07	5043.85
425.26	4999.38
425.45	4917.47
425.64	4966.62
425.83	5004.07
426.01	5048.54
426.20	5001.72
426.39	5076.62
426.58	4961.94
426.77	5018.11
426.96	4957.25
427.15	5149.18
427.33	5116.41
427.52	5114.07
427.71	5198.33
427.90	5132.79
428.09	5284.93
428.28	5327.06
428.46	5392.59
428.65	5425.36
428.84	5224.08
429.03	5563.45
429.22	5369.19
429.40	5448.77
429.59	5462.81
429.78	5191.31
429.97	5266.21
430.16	5441.75
430.34	5636.01
430.53	5724.95
430.72	5591.54
430.91	5610.26
431.10	5542.39
431.28	5738.99
431.47	5769.42
431.66	5856.02
431.85	5636.01
432.03	5820.91
432.22	5991.77
432.41	5841.98
432.60	5830.27
432.79	5928.58
432.97	5994.11
433.16	6001.13
433.35	6073.69
433.54	6054.97
433.72	6211.78
433.91	6225.82
434.10	6064.33
434.28	6052.63
434.47	6101.78
434.66	6319.45
434.85	6136.88
435.03	6448.18
435.22	6207.10
435.41	6370.94
435.59	6375.62
435.78	6436.47
435.97	6361.58
436.16	6296.04
436.34	6586.27
436.53	6422.43
436.72	6614.35
436.90	6375.62
437.09	6724.36
437.28	6392.00
437.46	6616.69
437.65	6621.38
437.84	6839.05
438.02	6736.06
438.21	6785.21
438.40	6665.85
438.58	6813.30
438.77	7136.29
438.96	7183.10
439.14	7066.08
439.33	7112.89
439.52	7279.07
439.70	7293.11
439.89	7300.13
440.08	7410.14
440.26	7253.32
440.45	7274.38
440.63	7527.16
440.82	7506.10
441.01	7349.28
441.19	7648.87
441.38	7611.42
441.57	7761.22
441.75	7815.05
441.94	7882.92
442.12	7906.33
442.31	7974.21
442.50	8081.87
442.68	8037.40
442.87	7967.18
443.05	8053.78
443.24	8449.33
443.43	8142.72
443.61	8074.85
443.80	8615.51
443.98	8271.45
444.17	7772.92
444.35	8105.28
444.54	8332.31
444.73	8145.06
444.91	8224.64
445.10	8311.24
445.28	8329.97
445.47	8269.11
445.65	8266.77
445.84	8264.43
446.02	8564.02
446.21	8390.82
446.39	8311.24
446.58	8353.37
446.77	8423.59
446.95	8360.39
447.14	8697.43
447.32	8585.08
447.51	8531.25
447.69	8435.29
447.88	8465.72
448.06	8404.86
448.25	8535.93
448.43	8383.80
448.62	8514.87
448.80	8620.19
448.99	8798.07
449.17	8849.57
449.36	8737.22
449.54	8821.48
449.73	8830.84
449.91	8945.53
450.10	8732.54
450.28	9064.89
450.46	8943.19
450.65	8973.61
450.83	8872.97
451.02	9020.42
451.20	9263.84
451.39	9226.39
451.57	9041.49
451.76	9102.34
451.94	9240.44
452.13	9444.06
452.31	9217.03
452.49	9188.94
452.68	9331.72
452.86	9369.16
453.05	9451.08
453.23	9549.39
453.42	9205.33
453.60	9540.02
453.78	9514.28
453.97	9348.10
454.15	9399.59
454.34	9533.00
454.52	9458.10
454.70	9673.43
454.89	9652.37
455.07	9898.13
455.26	9760.03
455.44	9973.02
455.62	9863.02
455.81	9909.83
455.99	10153.24
456.17	10029.20
456.36	9966.00
456.54	10132.18
456.73	10228.14
456.91	10223.46
457.09	10253.89
457.28	10532.41
457.46	10169.63
457.64	10424.75
457.83	10597.95
458.01	10289.00
458.19	10757.10
458.38	10548.79
458.56	10565.18
458.74	10944.34
458.93	10675.18
459.11	10764.12
459.29	10920.94
459.48	10820.30
459.66	10679.86
459.84	10920.94
460.03	11101.16
460.21	10991.16
460.39	10963.07
460.57	11019.24
460.76	11033.29
460.94	11206.48
461.12	10979.45
461.31	11087.12
461.49	11136.27
461.67	11236.91
461.85	11419.47
462.04	11204.14
462.22	11854.81
462.40	11714.38
462.59	11393.73
462.77	11138.61
462.95	11623.10
463.13	11534.16
463.32	11522.46
463.50	11595.01
463.68	11824.39
463.86	11754.17
464.05	11580.97
464.23	11770.55
464.41	12072.48
464.59	11726.08
464.78	11964.82
464.96	12154.40
465.14	11611.40
465.32	11871.20
465.50	12025.67
465.69	12372.07
465.87	11976.52
466.05	12011.63
466.23	12287.81
466.41	12238.66
466.60	12306.54
466.78	12023.33
466.96	12318.24
467.14	12224.62
467.32	12538.25
467.51	12446.97
467.69	12072.48
467.87	12549.95
468.05	12332.28
468.23	12442.29
468.41	12627.19
468.60	12449.31
468.78	12835.50
468.96	12545.27
469.14	12755.92
469.32	12917.42
469.50	12402.50
469.69	12954.87
469.87	13214.66
470.05	13069.55
470.23	13214.66
470.41	13128.06
470.59	13233.39
470.77	13146.79
470.95	13247.43
471.14	13462.76
471.32	13139.77
471.50	13556.38
471.68	13748.31
471.86	13596.17
472.04	13474.46
472.22	13984.70
472.40	13764.69
472.58	13752.99
472.77	13919.17
472.95	14113.43
473.13	14508.98
473.31	14001.08
473.49	14314.72
473.67	14291.31
473.85	14178.97
474.03	14581.54
474.21	14445.79
474.39	14712.61
474.57	14445.79
474.75	14970.07
474.93	14925.60
475.12	15030.92
475.30	14981.77
475.48	14972.41
475.66	14979.43
475.84	14944.32
476.02	15346.89
476.20	15426.47
476.38	15723.72
476.56	16114.59
476.74	16187.14
476.92	15838.41
477.10	15885.22
477.28	16147.36
477.46	16156.72
477.64	16339.28
477.82	16362.69
478.00	16929.09
478.18	16734.83
478.36	16947.82
478.54	17214.64
478.72	16776.96
478.90	17369.12
479.08	17504.87
479.26	17490.82
479.44	17436.99
479.62	17776.37
479.80	18064.25
479.98	18178.94
480.16	18424.70
480.34	18071.28
480.52	18780.46
480.70	18478.53
480.88	18569.81
481.06	18920.89
481.24	18600.24
481.41	18888.12
481.59	19225.16
481.77	19421.77
481.95	19587.94
482.13	19819.66
482.31	19747.10
482.49	20257.34
482.67	20194.14
482.85	20271.38
483.03	20514.80
483.21	20816.72
483.39	21163.12
483.57	20798.00
483.74	21036.74
483.92	21509.52
484.10	21025.03
484.28	21539.95
484.46	21834.86
484.64	22178.92
484.82	22239.77
485.00	22274.88
485.18	22640.00
485.35	23058.96
485.53	22663.41
485.71	22705.54
485.89	23601.96
486.07	22995.76
486.25	23101.09
486.43	23536.43
486.61	23667.50
486.78	24105.18
486.96	24278.38
487.14	24636.48
487.32	24390.72
487.50	24643.50
487.68	25078.84
487.85	25041.39
488.03	25270.76
488.21	25912.07
488.39	25584.40
488.57	26155.49
488.75	25984.63
488.92	26422.31
489.10	26567.42
489.28	26611.89
489.46	26955.95
489.64	26759.34
489.81	27461.51
489.99	27850.03
490.17	27515.34
490.35	27641.73
490.53	27995.15
490.70	28650.50
490.88	28463.25
491.06	28669.22
491.24	28854.12
491.41	29013.28
491.59	29212.23
491.77	29291.80
491.95	29305.85
492.13	29748.21
492.30	29930.77
492.48	29977.58
492.66	30424.62
492.84	30129.72
493.01	30480.80
493.19	30691.44
493.37	30845.92
493.54	31000.40
493.72	31637.02
493.90	31384.24
494.08	31594.89
494.25	31917.89
494.43	32053.64
494.61	31728.30
494.79	32575.58
494.96	32601.32
495.14	32950.06
495.32	32938.36
495.49	33207.52
495.67	33380.72
495.85	33249.65
496.02	33598.39
496.20	34038.41
496.38	33729.46
496.55	33734.14
496.73	35021.44
496.91	34160.12
497.09	34651.63
497.26	34773.34
497.44	35019.10
497.62	35068.25
497.79	35728.28
497.97	35049.52
498.14	35910.84
498.32	36212.77
498.50	36184.68
498.67	36615.34
498.85	36617.68
499.03	36755.77
499.20	36538.10
499.38	36978.12
499.56	37148.98
499.73	37233.24
499.91	37322.18
500.08	37956.47
500.26	36940.68
500.44	37682.62
500.61	38043.07
500.79	37635.81
500.97	37811.35
501.14	38426.92
501.32	38546.28
501.49	38038.39
501.67	38632.88
501.84	38759.27
502.02	38469.04
502.20	39068.22
502.37	39000.35
502.55	39522.29
502.72	39260.15
502.90	39470.79
503.07	39697.83
503.25	39683.78
503.43	39618.25
503.60	39782.09
503.78	40053.59
503.95	40367.22
504.13	40751.07
504.30	40360.20
504.48	40524.04
504.65	40378.92
504.83	40844.69
505.01	41361.95
505.18	41170.02
505.36	41268.33
505.53	40935.97
505.71	41511.74
505.88	42127.30
506.06	41446.21
506.23	41972.83
506.41	41942.40
506.58	41713.03
506.76	42279.44
506.93	42167.09
507.11	42108.58
507.28	42808.40
507.46	42260.71
507.63	42899.68
507.81	43283.53
507.98	42899.68
508.16	43229.69
508.33	43180.54
508.50	43540.99
508.68	43927.17
508.85	44076.97
509.03	43728.23
509.20	43777.38
509.38	44081.65
509.55	44451.45
509.73	44519.33
509.90	44353.15
510.08	44446.77
510.25	44432.73
510.42	44769.77
510.60	44999.14
510.77	45045.95
510.95	45284.68
511.12	44720.62
511.30	45415.76
511.47	45462.57
511.64	45558.53
511.82	46045.36
511.99	45970.46
512.17	46129.62
512.34	45525.76
512.51	46082.81
512.69	46307.50
512.86	46082.81
513.04	46660.92
513.21	46515.81
513.38	46883.27
513.56	46777.95
513.73	47065.83
513.90	46967.53
514.08	46775.61
514.25	47035.41
514.43	47468.40
514.60	47124.35
514.77	47236.69
514.95	47643.94
515.12	47543.30
515.29	46953.49
515.47	47634.58
515.64	48098.01
515.81	48039.50
515.99	48076.94
516.16	48151.84
516.33	48346.11
516.51	48563.78
516.68	48311.00
516.85	48928.90
517.03	48622.29
517.20	48549.73
517.37	48713.57
517.54	48917.20
517.72	48961.67
517.89	49169.97
518.06	49162.95
518.24	49008.48
518.41	49413.39
518.58	49123.16
518.75	49106.78
518.93	49478.92
519.10	49364.24
519.27	49624.04
519.45	49771.49
519.62	49811.28
519.79	49684.89
519.96	49989.16
520.14	49947.03
520.31	50110.87
520.48	50167.04
520.65	50410.46
520.83	50775.58
521.00	50206.83
521.17	50712.39
521.34	50775.58
521.52	50656.21
521.69	50705.37
521.86	51023.68
522.03	51107.94
522.20	51210.92
522.38	51222.62
522.55	51065.81
522.72	51313.90
522.89	51285.82
523.07	51405.19
523.24	51585.41
523.41	51522.21
523.58	51409.87
523.75	51526.89
523.92	51774.99
524.10	52130.75
524.27	51943.51
524.44	52561.41
524.61	52315.65
524.78	52282.89
524.96	52315.65
525.13	52264.16
525.30	52285.23
525.47	52610.56
525.64	52280.55
525.81	52643.33
525.98	52701.84
526.16	52547.37
526.33	52818.87
526.50	52886.74
526.67	52523.96
526.84	53008.45
527.01	52776.74
527.18	52942.92
527.36	53022.50
527.53	53127.82
527.70	53139.52
527.87	53141.86
528.04	52952.28
528.21	53092.71
528.38	53240.17
528.55	53242.51
528.72	53347.83
528.89	53392.30
529.07	53460.18
529.24	53591.25
529.41	53460.18
529.58	53333.79
529.75	53666.14
529.92	54176.38
530.09	53916.58
530.26	53909.56
530.43	53970.41
530.60	53715.29
530.77	53539.75
530.94	54176.38
531.11	54089.78
531.28	54143.61
531.46	54274.68
531.63	54410.43
531.80	54026.59
531.97	54480.65
532.14	54262.98
532.31	54281.70
532.48	54389.37
532.65	54897.27
532.82	54326.17
532.99	54726.41
533.16	54562.57
533.33	54939.39
533.50	54894.92
533.67	55037.70
533.84	54571.93
534.01	54728.75
534.18	54728.75
534.35	55105.57
534.52	54995.57
534.69	54887.90
534.86	55334.95
535.03	54796.62
535.20	55276.43
535.37	55274.09
535.54	55257.71
535.71	55386.44
535.88	55449.63
536.05	55470.70
536.22	55398.14
536.38	55786.67
536.55	55561.98
536.72	55578.36
536.89	55524.53
537.06	55770.28
537.23	55594.74
537.40	55557.30
537.57	55594.74
537.74	55760.92
537.91	55856.88
538.08	55915.40
538.25	55702.41
538.42	55683.69
538.59	56306.27
538.75	55964.55
538.92	56203.28
539.09	56151.79
539.26	56196.26
539.43	56109.66
539.60	56535.64
539.77	56367.12
539.94	56444.36
540.11	56051.15
540.28	56266.48
540.44	56303.93
540.61	56360.10
540.78	56486.49
540.95	56280.52
541.12	56493.51
541.29	56353.08
541.46	56474.79
541.62	56404.57
541.79	56608.20
541.96	56601.18
542.13	56687.78
542.30	56584.79
542.47	56765.01
542.63	56767.35
542.80	56748.63
542.97	57050.56
543.14	57188.65
543.31	57176.95
543.48	57071.62
543.64	57406.32
543.81	57317.38
543.98	57293.97
544.15	57375.89
544.32	57460.15
544.48	57516.32
544.65	57413.34
544.82	57389.94
544.99	56914.81
545.16	57469.51
545.32	57448.45
545.49	57719.95
545.66	57471.85
545.83	57593.56
546.00	57893.15
546.16	57563.14
546.33	57670.80
546.50	57324.40
546.67	57607.61
546.83	57616.97
547.00	57628.67
547.17	57937.62
547.34	57897.83
547.50	58014.86
547.67	58007.84
547.84	57954.00
548.00	58014.86
548.17	58110.82
548.34	58199.76
548.51	58246.57
548.67	58152.95
548.84	58129.54
549.01	57916.56
549.18	58284.02
549.34	58408.07
549.51	58164.65
549.68	58379.98
549.84	58384.66
550.01	58309.77
550.18	58372.96
550.34	58333.17
550.51	58401.05
550.68	58403.39
550.84	58248.91
551.01	58424.45
551.18	58333.17
551.34	58611.70
551.51	58494.67
551.68	58574.25
551.84	58581.27
552.01	58543.82
552.18	58464.24
552.34	58323.81
552.51	58761.49
552.68	58485.31
552.84	58628.08
553.01	58836.39
553.18	58845.75
553.34	58836.39
553.51	58812.98
553.67	58754.47
553.84	58930.01
554.01	58798.94
554.17	59011.93
554.34	59025.97
554.51	58990.86
554.67	58908.94
554.84	59075.12
555.00	59016.61
555.17	58960.44
555.33	59082.14
555.50	58592.97
555.67	58979.16
555.83	59044.69
556.00	58796.60
556.16	59447.27
556.33	59377.05
556.50	59164.06
556.66	59278.75
556.83	58908.94
556.99	59248.32
557.16	59447.27
557.32	59503.44
557.49	59781.96
557.65	59150.02
557.82	59297.47
557.98	59318.54
558.15	59372.37
558.32	59597.06
558.48	59306.83
558.65	59447.27
558.81	59365.35
558.98	59355.99
559.14	59393.43
559.31	59718.77
559.47	59496.42
559.64	59758.56
559.80	59653.23
559.97	60023.04
560.13	59632.17
560.30	59597.06
560.46	59683.66
560.63	59847.50
560.79	59898.99
560.96	59980.91
561.12	59550.25
561.29	59929.42
561.45	59781.96
561.61	59784.30
561.78	59735.15
561.94	59650.89
562.11	59913.03
562.27	59763.24
562.44	59863.88
562.60	59997.29
562.77	60041.76
562.93	59538.55
563.10	60086.23
563.26	59751.54
563.42	60177.51
563.59	60088.57
563.75	59950.48
563.92	60083.89
564.08	59917.71
564.24	60140.07
564.41	60102.62
564.57	60271.14
564.74	60100.28
564.90	60100.28
565.07	60126.02
565.23	60257.09
565.39	60116.66
565.56	60144.75
565.72	60046.44
565.88	60271.14
566.05	60107.30
566.21	60170.49
566.38	60289.86
566.54	60149.43
566.70	60453.70
566.87	60516.89
567.03	60037.08
567.19	60299.22
567.36	60236.03
567.52	60086.23
567.68	60280.50
567.85	60161.13
568.01	60453.70
568.17	60353.05
568.34	60303.90
568.50	60322.63
568.66	60369.44
568.83	60402.21
568.99	60481.78
569.15	60322.63
569.32	60388.16
569.48	60275.82
569.64	60519.23
569.81	60446.68
569.97	60168.15
570.13	60580.09
570.30	60528.59
570.46	60509.87
570.62	60252.41
570.78	60458.38
570.95	60357.74
571.11	60568.38
571.27	60186.88
571.43	60224.32
571.60	60617.53
571.76	60549.66
571.92	60720.52
572.09	60629.24
572.25	60605.83
572.41	60601.15
572.57	60582.43
572.74	60924.14
572.90	60547.32
573.06	60388.16
573.22	60596.47
573.38	60739.24
573.55	60444.33
573.71	60713.50
573.87	60573.06
574.03	60755.63
574.20	60788.39
574.36	60601.15
574.52	60802.44
574.68	60779.03
574.84	60832.86
575.01	60718.18
575.17	60619.88
575.33	60622.22
575.49	60573.06
575.65	60905.42
575.82	60736.90
575.98	60748.60
576.14	60975.64
576.30	60928.83
576.46	60446.68
576.62	60687.75
576.79	60701.79
576.95	60666.69
577.11	60818.82
577.27	60687.75
577.43	60879.67
577.59	60399.86
577.75	60680.73
577.92	60533.28
578.08	60746.26
578.24	60842.23
578.40	60797.76
578.56	61087.98
578.72	60662.00
578.88	60774.35
579.04	61113.73
579.21	60760.31
579.37	60966.27
579.53	61095.00
579.69	60652.64
579.85	60865.63
580.01	60725.20
580.17	60694.77
580.33	60999.04
580.49	60884.36
580.65	61041.17
580.82	60790.73
580.98	60704.13
581.14	60804.78
581.30	60963.93
581.46	60692.43
581.62	61045.85
581.78	60769.67
581.94	61043.51
582.10	60764.99
582.26	61017.77
582.42	60914.78
582.58	60898.40
582.74	60973.30
582.90	60867.97
583.06	60867.97
583.22	60952.23
583.38	60966.27
583.54	61085.64
583.70	60664.35
583.86	60975.64
584.02	60844.57
584.18	60860.95
584.34	60612.85
584.50	60968.61
584.66	60671.37
584.82	60884.36
584.98	61268.20
585.14	60940.53
585.30	60835.20
585.46	61087.98
585.62	60879.67
585.78	60996.70
585.94	60802.44
586.10	61083.30
586.26	60968.61
586.42	61146.50
586.58	61113.73
586.74	61010.74
586.90	60903.08
587.06	60956.91
587.22	61261.18
587.38	61127.77
587.54	60900.74
587.70	61212.03
587.86	61127.77
588.02	60954.57
588.18	61183.94
588.34	60851.59
588.49	61205.01
