SpectraSuite Data File
++++++++++++++++++++++++++++++++++++
Date: Fri Oct 25 11:26:07 EDT 2013
User: price-jones
Dark Spectrum Present: No
Reference Spectrum Present: No
Number of Sampled Component Spectra: 1
Spectrometers: USB2+H05261
Integration Time (usec): 100000 (USB2+H05261)
Spectra Averaged: 1 (USB2+H05261)
Boxcar Smoothing: 0 (USB2+H05261)
Correct for Electrical Dark: No (USB2+H05261)
Strobe/Lamp Enabled: No (USB2+H05261)
Correct for Detector Non-linearity: No (USB2+H05261)
Correct for Stray Light: No (USB2+H05261)
Number of Pixels in Processed Spectrum: 2048
>>>>>Begin Processed Spectral Data<<<<<
365.73	224.69
365.92	224.69
366.12	224.69
366.32	140.43
366.52	142.77
366.72	102.98
366.91	140.43
367.11	159.16
367.31	63.19
367.51	152.13
367.70	149.79
367.90	138.09
368.10	189.58
368.30	114.69
368.49	102.98
368.69	173.20
368.89	159.16
369.09	149.79
369.28	294.91
369.48	203.63
369.68	112.35
369.87	220.01
370.07	255.12
370.27	271.50
370.47	393.21
370.66	573.43
370.86	674.07
371.06	697.48
371.25	685.78
371.45	599.18
371.65	720.88
371.84	706.84
372.04	779.40
372.24	744.29
372.44	692.80
372.63	732.59
372.83	711.52
373.03	786.42
373.22	678.76
373.42	765.36
373.62	772.38
373.81	816.85
374.01	823.87
374.21	854.30
374.40	802.80
374.60	767.70
374.79	861.32
374.99	828.55
375.19	828.55
375.38	746.63
375.58	877.70
375.78	919.83
375.97	887.06
376.17	966.64
376.37	819.19
376.56	814.51
376.76	863.66
376.95	856.64
377.15	910.47
377.35	912.81
377.54	931.53
377.74	807.48
377.93	851.96
378.13	882.38
378.33	961.96
378.52	952.60
378.72	999.41
378.91	929.19
379.11	903.45
379.31	957.28
379.50	1034.52
379.70	950.26
379.89	919.83
380.09	964.30
380.28	896.43
380.48	968.98
380.68	945.58
380.87	1011.11
381.07	971.32
381.26	1081.33
381.46	973.66
381.65	1032.18
381.85	1093.03
382.04	1121.12
382.24	999.41
382.43	1029.84
382.63	1102.39
382.83	1160.91
383.02	1128.14
383.22	1170.27
383.41	1064.94
383.61	1114.10
383.80	1144.52
384.00	1130.48
384.19	1139.84
384.39	1116.44
384.58	1004.09
384.78	1172.61
384.97	1116.44
385.17	1160.91
385.36	1156.22
385.56	1203.04
385.75	1135.16
385.95	1174.95
386.14	1198.35
386.34	1149.20
386.53	1214.74
386.72	1245.16
386.92	1296.66
387.11	1149.20
387.31	1338.79
387.50	1165.59
387.70	1139.84
387.89	1273.25
388.09	1329.42
388.28	1263.89
388.48	1277.93
388.67	1329.42
388.86	1343.47
389.06	1301.34
389.25	1352.83
389.45	1352.83
389.64	1282.61
389.84	1366.87
390.03	1348.15
390.22	1357.51
390.42	1324.74
390.61	1364.53
390.81	1383.26
391.00	1488.58
391.19	1451.13
391.39	1409.00
391.58	1551.78
391.78	1514.33
391.97	1446.45
392.16	1483.90
392.36	1511.99
392.55	1572.84
392.75	1519.01
392.94	1509.65
393.13	1514.33
393.33	1469.86
393.52	1547.09
393.71	1556.46
393.91	1554.12
394.10	1533.05
394.29	1584.54
394.49	1554.12
394.68	1675.82
394.88	1638.38
395.07	1671.14
395.26	1732.00
395.46	1673.48
395.65	1689.87
395.84	1729.66
396.04	1804.55
396.23	1743.70
396.42	1844.34
396.62	1762.42
396.81	1757.74
397.00	1771.79
397.19	1689.87
397.39	1769.44
397.58	1781.15
397.77	1790.51
397.97	1769.44
398.16	1839.66
398.35	1940.30
398.55	1914.56
398.74	1895.83
398.93	1846.68
399.12	1937.96
399.32	1970.73
399.51	1907.54
399.70	2012.86
399.90	1956.69
400.09	2125.21
400.28	2087.76
400.47	2036.27
400.67	2125.21
400.86	2083.08
401.05	2026.90
401.24	2111.16
401.44	2127.55
401.63	2080.74
401.82	2179.04
402.01	2125.21
402.21	2097.12
402.40	2160.31
402.59	2260.96
402.78	2155.63
402.97	2101.80
403.17	2340.54
403.36	2169.68
403.55	2237.55
403.74	2277.34
403.93	2368.62
404.13	2310.11
404.32	2345.22
404.51	2424.80
404.70	2342.88
404.89	2406.07
405.09	2438.84
405.28	2551.18
405.47	2499.69
405.66	2389.69
405.85	2534.80
406.05	2450.54
406.24	2537.14
406.43	2569.91
406.62	2679.91
406.81	2630.76
407.00	2647.15
407.20	2555.86
407.39	2525.44
407.58	2834.39
407.77	2743.11
407.96	2722.04
408.15	2757.15
408.34	2738.43
408.54	2733.75
408.73	2773.53
408.92	2848.43
409.11	2757.15
409.30	2841.41
409.49	2829.71
409.68	2932.69
409.87	2836.73
410.07	2883.54
410.26	3035.67
410.45	2981.84
410.64	3014.61
410.83	3131.64
411.02	3056.74
411.21	3080.14
411.40	3192.49
411.59	3262.71
411.78	3162.06
411.98	3253.34
412.17	3178.45
412.36	3253.34
412.55	3372.71
412.74	3506.12
412.93	3421.86
413.12	3337.60
413.31	3463.99
413.50	3499.10
413.69	3545.91
413.88	3658.26
414.07	3606.77
414.26	3534.21
414.45	3742.52
414.64	3669.96
414.83	3489.74
415.02	3927.42
415.22	3892.31
415.41	3899.33
415.60	3894.65
415.79	3791.67
415.98	3904.01
416.17	4025.72
416.36	4004.66
416.55	4023.38
416.74	4086.58
416.93	3948.48
417.12	4121.68
417.31	4259.78
417.50	4184.88
417.69	4259.78
417.88	4166.15
418.07	4351.06
418.26	4449.36
418.45	4184.88
418.64	4358.08
418.83	4484.47
419.02	4400.21
419.21	4547.66
419.39	4594.47
419.58	4484.47
419.77	4435.32
419.96	4582.77
420.15	4447.02
420.34	4559.36
420.53	4561.70
420.72	4657.67
420.91	4564.04
421.10	4683.41
421.29	4828.53
421.48	4660.01
421.67	4760.65
421.86	4589.79
422.05	4931.51
422.24	4711.50
422.43	4762.99
422.61	5027.47
422.80	4959.60
422.99	4891.72
423.18	4826.18
423.37	4994.70
423.56	4950.23
423.75	4957.25
423.94	4844.91
424.13	4603.83
424.32	4718.52
424.50	5146.84
424.69	5039.17
424.88	5132.79
425.07	5050.88
425.26	4983.00
425.45	5041.51
425.64	4915.12
425.83	4919.81
426.01	5032.15
426.20	5048.54
426.39	5184.29
426.58	4992.36
426.77	5095.35
426.96	5085.98
427.15	5006.41
427.33	5135.14
427.52	5233.44
427.71	5313.02
427.90	5203.01
428.09	5298.97
428.28	5465.15
428.46	5366.85
428.65	5343.44
428.84	5472.17
429.03	5465.15
429.22	5376.21
429.40	5490.90
429.59	5474.51
429.78	5296.63
429.97	5327.06
430.16	5502.60
430.34	5423.02
430.53	5776.44
430.72	5605.58
430.91	5694.52
431.10	5444.09
431.28	5710.91
431.47	5853.68
431.66	5921.56
431.85	5724.95
432.03	5905.17
432.22	5795.17
432.41	5858.36
432.60	5921.56
432.79	6047.94
432.97	6019.86
433.16	5982.41
433.35	6012.84
433.54	6104.12
433.72	6160.29
433.91	6204.76
434.10	6209.44
434.28	5973.05
434.47	6232.85
434.66	6061.99
434.85	6146.25
435.03	6319.45
435.22	6277.32
435.41	6649.46
435.59	6434.13
435.78	6462.22
435.97	6525.41
436.16	6420.09
436.34	6506.69
436.53	6455.20
436.72	6513.71
436.90	6457.54
437.09	6654.14
437.28	6410.73
437.46	6473.92
437.65	6480.94
437.84	6682.23
438.02	6782.87
438.21	6825.00
438.40	6691.59
438.58	6899.90
438.77	7253.32
438.96	6857.77
439.14	7096.50
439.33	7218.21
439.52	7342.26
439.70	7400.77
439.89	7311.83
440.08	7342.26
440.26	7356.30
440.45	7335.24
440.63	7531.84
440.82	7625.47
441.01	7419.50
441.19	7679.30
441.38	7733.13
441.57	7618.44
441.75	7754.19
441.94	7896.97
442.12	7819.73
442.31	7960.16
442.50	7948.46
442.68	7801.01
442.87	7997.61
443.05	8215.28
443.24	8187.19
443.43	8039.74
443.61	8175.49
443.80	8264.43
443.98	8177.83
444.17	7831.43
444.35	8175.49
444.54	8292.52
444.73	8229.32
444.91	8231.66
445.10	8393.16
445.28	8269.11
445.47	8234.00
445.65	8280.82
445.84	8397.84
446.02	8416.57
446.21	8397.84
446.39	8329.97
446.58	8451.67
446.77	8226.98
446.95	8332.31
447.14	8559.34
447.32	8596.79
447.51	8500.83
447.69	8528.91
447.88	8297.20
448.06	8566.36
448.25	8657.64
448.43	8578.06
448.62	8737.22
448.80	8585.08
448.99	8655.30
449.17	8805.10
449.36	8526.57
449.54	8762.97
449.73	8872.97
449.91	9015.74
450.10	8868.29
450.28	9029.79
450.46	8952.55
450.65	9018.08
450.83	8877.65
451.02	8828.50
451.20	8978.30
451.39	8919.78
451.57	9055.53
451.76	8919.78
451.94	9240.44
452.13	9231.07
452.31	9329.38
452.49	8985.32
452.68	9385.55
452.86	9341.08
453.05	9298.95
453.23	9413.63
453.42	9453.42
453.60	9451.08
453.78	9453.42
453.97	9350.44
454.15	9444.06
454.34	9305.97
454.52	9816.21
454.70	9544.70
454.89	9914.51
455.07	9511.94
455.26	9848.97
455.44	10106.43
455.62	9977.70
455.81	9788.12
455.99	9977.70
456.17	10150.90
456.36	9942.60
456.54	10148.56
456.73	10303.04
456.91	10602.63
457.09	10333.47
457.28	10462.19
457.46	10476.24
457.64	10228.14
457.83	10476.24
458.01	10361.55
458.19	10665.82
458.38	10663.48
458.56	10839.02
458.74	10574.54
458.93	10630.71
459.11	10759.44
459.29	10689.23
459.48	10752.42
459.66	10883.49
459.84	10892.85
460.03	10958.39
460.21	10822.64
460.39	10951.37
460.57	11082.44
460.76	11082.44
460.94	11124.57
461.12	11073.07
461.31	11117.54
461.49	11044.99
461.67	11070.73
461.85	11513.10
462.04	11150.31
462.22	11808.00
462.40	11833.75
462.59	11410.11
462.77	11417.13
462.95	11868.86
463.13	11559.91
463.32	11824.39
463.50	11798.64
463.68	11730.76
463.86	11948.43
464.05	11784.60
464.23	11541.18
464.41	11920.35
464.59	11730.76
464.78	12053.76
464.96	12044.40
465.14	11758.85
465.32	11906.31
465.50	11918.01
465.69	12013.97
465.87	11999.93
466.05	11992.90
466.23	12035.03
466.41	12170.79
466.60	12470.37
466.78	12301.86
466.96	12215.26
467.14	12266.75
467.32	12409.52
467.51	12657.62
467.69	12173.13
467.87	12535.91
468.05	12844.86
468.23	12409.52
468.41	12458.67
468.60	12622.51
468.78	12847.20
468.96	12388.46
469.14	12863.58
469.32	12968.91
469.50	12655.28
469.69	12879.97
469.87	13109.34
470.05	13186.58
470.23	13125.72
470.41	13083.59
470.59	13165.51
470.77	13282.54
470.95	13275.52
471.14	13614.90
471.32	13294.24
471.50	13577.45
471.68	13530.64
471.86	13476.80
472.04	13687.45
472.22	13748.31
472.40	13455.74
472.58	13720.22
472.77	13841.93
472.95	14108.75
473.13	14518.34
473.31	13886.40
473.49	14190.67
473.67	14064.28
473.85	14417.70
474.03	14422.38
474.21	14539.41
474.39	14773.46
474.57	14752.40
474.75	14656.43
474.93	14738.35
475.12	14764.10
475.30	14927.94
475.48	15082.41
475.66	15183.06
475.84	15117.52
476.02	15239.23
476.20	15297.74
476.38	15508.39
476.56	15681.59
476.74	16037.35
476.92	15866.49
477.10	15903.94
477.28	15915.64
477.46	16051.39
477.64	16095.86
477.82	16404.81
478.00	16966.54
478.18	16706.74
478.36	16783.98
478.54	17036.76
478.72	16922.07
478.90	17516.57
479.08	17734.24
479.26	17638.28
479.44	17661.68
479.62	17668.70
479.80	17877.01
479.98	18237.45
480.16	18757.05
480.34	18284.26
480.52	18338.10
480.70	18523.00
480.88	18345.12
481.06	18621.30
481.24	18614.28
481.41	19063.66
481.59	19332.82
481.77	19473.26
481.95	19400.70
482.13	19648.80
482.31	19583.26
482.49	20098.18
482.67	19789.23
482.85	20421.17
483.03	20269.04
483.21	20762.89
483.39	20755.87
483.57	20772.25
483.74	20929.07
483.92	21467.39
484.10	21099.93
484.28	21556.33
484.46	22169.55
484.64	22214.02
484.82	21884.01
485.00	22281.90
485.18	22640.00
485.35	22876.40
485.53	22630.64
485.71	23084.70
485.89	23377.27
486.07	23047.26
486.25	23129.17
486.43	23412.38
486.61	23796.23
486.78	23868.78
486.96	23882.83
487.14	24669.25
487.32	24519.45
487.50	24821.38
487.68	24940.75
487.85	25408.86
488.03	25186.50
488.21	25830.15
488.39	25514.18
488.57	25876.96
488.75	26155.49
488.92	26221.02
489.10	26422.31
489.28	26361.45
489.46	26995.74
489.64	27014.46
489.81	27639.39
489.99	27513.00
490.17	27711.94
490.35	27978.76
490.53	28100.47
490.70	28098.13
490.88	28243.24
491.06	28765.18
491.24	28467.94
491.41	28891.57
491.59	29060.09
491.77	29310.53
491.95	29682.67
492.13	29539.90
492.30	29898.00
492.48	29933.11
492.66	29907.37
492.84	29937.79
493.01	30714.85
493.19	30639.95
493.37	30866.98
493.54	31049.55
493.72	31653.40
493.90	31246.15
494.08	31653.40
494.25	31955.33
494.43	31534.04
494.61	32086.40
494.79	32299.39
494.96	32320.46
495.14	32959.42
495.32	33067.09
495.49	32893.89
495.67	33305.82
495.85	33523.49
496.02	33741.16
496.20	34246.72
496.38	34082.88
496.55	33855.85
496.73	34586.10
496.91	34534.60
497.09	35007.39
497.26	34808.45
497.44	34988.67
497.62	35407.62
497.79	35491.88
497.97	35274.21
498.14	35683.81
498.32	36140.21
498.50	36357.88
498.67	36168.30
498.85	36343.84
499.03	36594.28
499.20	36304.05
499.38	37055.36
499.56	36856.42
499.73	37352.61
499.91	37055.36
500.08	37539.85
500.26	37493.04
500.44	37762.20
500.61	37722.41
500.79	37443.89
500.97	37825.40
501.14	38579.05
501.32	38117.96
501.49	38433.94
501.67	38253.72
501.84	38958.22
502.02	38586.07
502.20	38817.78
502.37	39033.11
502.55	39042.48
502.72	39215.68
502.90	39578.46
503.07	39428.66
503.25	39386.54
503.43	39597.18
503.60	39817.19
503.78	40041.88
503.95	39864.00
504.13	40334.45
504.30	40458.50
504.48	40828.30
504.65	40531.06
504.83	40622.34
505.01	41139.60
505.18	41411.10
505.36	41509.40
505.53	40987.46
505.71	41511.74
505.88	41373.65
506.06	41624.09
506.23	42103.90
506.41	42401.14
506.58	42232.63
506.76	41799.63
506.93	42679.67
507.11	41956.44
507.28	42183.48
507.46	42609.45
507.63	42721.80
507.81	43028.41
507.98	42508.81
508.16	43442.68
508.33	43246.08
508.50	43723.55
508.68	43519.92
508.85	43924.83
509.03	43608.86
509.20	43679.08
509.38	44257.19
509.55	44184.63
509.73	44126.12
509.90	44186.97
510.08	44172.93
510.25	44589.55
510.42	44975.73
510.60	45055.31
510.77	45162.98
510.95	45045.95
511.12	45195.74
511.30	45345.54
511.47	45132.55
511.64	45303.41
511.82	45546.82
511.99	45921.31
512.17	45734.07
512.34	45588.95
512.51	45907.27
512.69	46241.96
512.86	46286.43
513.04	46726.46
513.21	46632.83
513.38	46754.54
513.56	46817.74
513.73	46403.46
513.90	46827.10
514.08	46827.10
514.25	46937.10
514.43	47381.80
514.60	47309.25
514.77	47468.40
514.95	47285.84
515.12	47334.99
515.29	47166.48
515.47	48002.05
515.64	47447.34
515.81	47852.25
515.99	47704.80
516.16	48505.26
516.33	48303.98
516.51	48479.52
516.68	48107.37
516.85	48535.69
517.03	48861.02
517.20	48694.85
517.37	48769.74
517.54	48605.91
517.72	48582.50
517.89	49076.35
518.06	49352.54
518.24	49287.00
518.41	49088.06
518.58	49146.57
518.75	49006.14
518.93	49324.45
519.10	49591.27
519.27	49598.29
519.45	49827.66
519.62	49921.29
519.79	49801.92
519.96	49872.14
520.14	50459.61
520.31	49790.22
520.48	50527.48
520.65	49752.77
520.83	50417.48
521.00	50852.82
521.17	50607.06
521.34	50567.27
521.52	50927.72
521.69	50696.00
521.86	50518.12
522.03	51098.58
522.20	51248.37
522.38	51278.80
522.55	50754.52
522.72	51239.01
522.89	51346.67
523.07	51587.75
523.24	51327.95
523.41	51222.62
523.58	51309.22
523.75	51760.95
523.92	51723.50
524.10	51777.33
524.27	52046.49
524.44	52114.37
524.61	51709.46
524.78	52119.05
524.96	52182.24
525.13	52109.69
525.30	52236.08
525.47	52498.22
525.64	52158.84
525.81	52596.52
525.98	52608.22
526.16	52767.38
526.33	52418.64
526.50	52935.90
526.67	52725.25
526.84	52685.46
527.01	52851.64
527.18	52832.91
527.36	52692.48
527.53	52741.63
527.70	53200.38
527.87	53073.99
528.04	52750.99
528.21	53422.73
528.38	52872.70
528.55	53581.88
528.72	53301.02
528.89	53382.94
529.07	53305.70
529.24	53586.57
529.41	53602.95
529.58	53654.44
529.75	53485.92
529.92	53614.65
530.09	53682.53
530.26	54026.59
530.43	54122.55
530.60	53549.12
530.77	53738.70
530.94	53944.67
531.11	54010.20
531.28	54223.19
531.46	54080.42
531.63	54181.06
531.80	54080.42
531.97	54307.45
532.14	54363.62
532.31	54326.17
532.48	54588.31
532.65	54621.08
532.82	54344.90
532.99	54698.32
533.16	54410.43
533.33	54953.44
533.50	55002.59
533.67	54590.66
533.84	54674.91
534.01	55002.59
534.18	54754.49
534.35	55269.41
534.52	55018.97
534.69	55098.55
534.86	55208.56
535.03	54681.94
535.20	55128.98
535.37	55215.58
535.54	55313.88
535.71	55143.02
535.88	55217.92
536.05	55402.82
536.22	55576.02
536.38	55714.11
536.55	55117.28
536.72	55480.06
536.89	55320.90
537.06	55561.98
537.23	55718.79
537.40	55367.71
537.57	55859.23
537.74	55519.85
537.91	55983.27
538.08	55955.19
538.25	55739.86
538.42	55718.79
538.59	55877.95
538.75	55969.23
538.92	55849.86
539.09	56224.35
539.26	56163.50
539.43	56046.47
539.60	55945.83
539.77	56170.52
539.94	56320.31
540.11	56264.14
540.28	56135.41
540.44	56392.87
540.61	56334.35
540.78	56357.76
540.95	56102.64
541.12	56402.23
541.29	56308.61
541.46	56381.16
541.62	56594.15
541.79	56563.73
541.96	56140.09
542.13	56266.48
542.30	56573.09
542.47	56736.93
542.63	56797.78
542.80	57036.51
542.97	57113.75
543.14	57078.64
543.31	56907.79
543.48	57090.35
543.64	57579.52
543.81	57301.00
543.98	57338.44
544.15	57324.40
544.32	57216.74
544.48	57392.28
544.65	57312.70
544.82	57162.90
544.99	57109.07
545.16	57485.90
545.32	57312.70
545.49	57656.76
545.66	57530.37
545.83	57560.79
546.00	57645.05
546.16	57492.92
546.33	57368.87
546.50	57469.51
546.67	57663.78
546.83	57282.27
547.00	57684.84
547.17	57485.90
547.34	57881.45
547.50	57853.36
547.67	57998.48
547.84	57928.26
548.00	57958.69
548.17	58066.35
548.34	57928.26
548.51	58082.73
548.67	58103.80
548.84	58010.18
549.01	58012.52
549.18	58101.46
549.34	58106.14
549.51	58019.54
549.68	58344.87
549.84	58234.87
550.01	58426.79
550.18	58309.77
550.34	58604.67
550.51	58426.79
550.68	58497.01
550.84	57984.43
551.01	58454.88
551.18	58314.45
551.34	58520.41
551.51	58677.23
551.68	58358.92
551.84	58387.00
552.01	58328.49
552.18	58422.11
552.34	58403.39
552.51	58695.95
552.68	58485.31
552.84	58464.24
553.01	58911.28
553.18	58827.02
553.34	58672.55
553.51	58543.82
553.67	58752.13
553.84	59014.27
554.01	58972.14
554.17	58979.16
554.34	58995.54
554.51	58981.50
554.67	59138.32
554.84	58981.50
555.00	58939.37
555.17	58822.34
555.33	59037.67
555.50	58679.57
555.67	58866.81
555.83	58768.51
556.00	58958.09
556.16	59248.32
556.33	59152.36
556.50	59231.94
556.66	59379.39
556.83	58962.78
556.99	59388.75
557.16	59395.77
557.32	59473.01
557.49	59435.56
557.65	59330.24
557.82	59215.55
557.98	59283.43
558.15	59344.28
558.32	59384.07
558.48	59306.83
558.65	59456.63
558.81	59526.84
558.98	59519.82
559.14	59611.10
559.31	59491.74
559.47	59578.34
559.64	59538.55
559.80	59463.65
559.97	59615.79
560.13	59742.17
560.30	59419.18
560.46	59568.97
560.63	59760.90
560.79	59854.52
560.96	59873.24
561.12	59774.94
561.29	59884.95
561.45	59765.58
561.61	59718.77
561.78	59887.29
561.94	59959.84
562.11	59774.94
562.27	59730.47
562.44	59906.01
562.60	60111.98
562.77	59723.45
562.93	59770.26
563.10	60130.70
563.26	59863.88
563.42	60170.49
563.59	59973.89
563.75	59913.03
563.92	59936.44
564.08	59765.58
564.24	60104.96
564.41	60027.72
564.57	60161.13
564.74	60093.25
564.90	60046.44
565.07	60093.25
565.23	60149.43
565.39	60044.10
565.56	60111.98
565.72	60074.53
565.88	60111.98
566.05	60083.89
566.21	60016.02
566.38	60282.84
566.54	60252.41
566.70	60437.31
566.87	60472.42
567.03	60039.42
567.19	60463.06
567.36	60013.68
567.52	59976.23
567.68	60350.71
567.85	60212.62
568.01	60308.58
568.17	60285.18
568.34	60472.42
568.50	60116.66
568.66	60233.69
568.83	60339.01
568.99	60161.13
569.15	60449.02
569.32	60198.58
569.48	60205.60
569.64	60420.93
569.81	60369.44
569.97	60161.13
570.13	60603.49
570.30	60357.74
570.46	60404.55
570.62	60306.24
570.78	60430.29
570.95	60472.42
571.11	60502.85
571.27	60406.89
571.43	60521.57
571.60	60516.89
571.76	60509.87
571.92	60580.09
572.09	60341.35
572.25	60402.21
572.41	60631.58
572.57	60427.95
572.74	60573.06
572.90	60453.70
573.06	60643.28
573.22	60612.85
573.38	60484.12
573.55	60519.23
573.71	60753.29
573.87	60757.97
574.03	60577.75
574.20	60706.47
574.36	60500.51
574.52	60795.42
574.68	60528.59
574.84	60610.51
575.01	60671.37
575.17	60790.73
575.33	60549.66
575.49	60662.00
575.65	60877.33
575.82	60821.16
575.98	60685.41
576.14	60867.97
576.30	60673.71
576.46	60706.47
576.62	60568.38
576.79	60816.48
576.95	60493.49
577.11	60645.62
577.27	60498.17
577.43	60669.03
577.59	60647.96
577.75	60552.00
577.92	60523.91
578.08	60816.48
578.24	60870.31
578.40	60898.40
578.56	60846.91
578.72	60633.92
578.88	60931.17
579.04	61003.72
579.21	60772.01
579.37	60844.57
579.53	60860.95
579.69	60631.58
579.85	60715.84
580.01	60837.54
580.17	60699.45
580.33	60877.33
580.49	60818.82
580.65	60842.23
580.82	60865.63
580.98	60884.36
581.14	60769.67
581.30	60837.54
581.46	60739.24
581.62	60750.94
581.78	60741.58
581.94	60987.34
582.10	60886.70
582.26	60743.92
582.42	60800.10
582.58	60919.46
582.74	60849.25
582.90	61008.40
583.06	60919.46
583.22	60832.86
583.38	60935.85
583.54	60830.52
583.70	60882.02
583.86	61104.37
584.02	60954.57
584.18	60994.36
584.34	60853.93
584.50	60713.50
584.66	60629.24
584.82	60669.03
584.98	61048.19
585.14	60961.59
585.30	60788.39
585.46	60928.83
585.62	61017.77
585.78	61022.45
585.94	60683.07
586.10	60870.31
586.26	60865.63
586.42	60884.36
586.58	60884.36
586.74	60954.57
586.90	60809.46
587.06	60994.36
587.22	61006.06
587.38	60931.17
587.54	61109.05
587.70	61024.79
587.86	61216.71
588.02	61008.40
588.18	61045.85
588.34	60809.46
588.49	60992.02
