SpectraSuite Data File
++++++++++++++++++++++++++++++++++++
Date: Fri Oct 25 10:48:27 EDT 2013
User: price-jones
Dark Spectrum Present: No
Reference Spectrum Present: No
Number of Sampled Component Spectra: 1
Spectrometers: USB2+H05261
Integration Time (usec): 100000 (USB2+H05261)
Spectra Averaged: 1 (USB2+H05261)
Boxcar Smoothing: 0 (USB2+H05261)
Correct for Electrical Dark: No (USB2+H05261)
Strobe/Lamp Enabled: No (USB2+H05261)
Correct for Detector Non-linearity: No (USB2+H05261)
Correct for Stray Light: No (USB2+H05261)
Number of Pixels in Processed Spectrum: 2048
>>>>>Begin Processed Spectral Data<<<<<
365.73	105.32
365.92	105.32
366.12	105.32
366.32	91.28
366.52	0.00
366.72	23.41
366.91	0.00
367.11	32.77
367.31	25.75
367.51	14.04
367.70	81.92
367.90	102.98
368.10	39.79
368.30	25.75
368.49	58.51
368.69	44.47
368.89	35.11
369.09	77.24
369.28	0.00
369.48	105.32
369.68	149.79
369.87	168.52
370.07	159.16
370.27	131.07
370.47	234.05
370.66	444.70
370.86	493.85
371.06	458.74
371.25	559.39
371.45	484.49
371.65	491.51
371.84	472.79
372.04	468.11
372.24	510.24
372.44	465.77
372.63	486.83
372.83	482.15
373.03	622.58
373.22	486.83
373.42	559.39
373.62	512.58
373.81	587.47
374.01	535.98
374.21	587.47
374.40	629.60
374.60	634.29
374.79	531.30
374.99	613.22
375.19	606.20
375.38	510.24
375.58	550.03
375.78	575.77
375.97	678.76
376.17	638.97
376.37	575.77
376.56	643.65
376.76	617.90
376.95	643.65
377.15	699.82
377.35	683.44
377.54	617.90
377.74	660.03
377.93	613.22
378.13	636.63
378.33	622.58
378.52	669.39
378.72	657.69
378.91	601.52
379.11	645.99
379.31	634.29
379.50	601.52
379.70	779.40
379.89	664.71
380.09	650.67
380.28	627.26
380.48	713.86
380.68	678.76
380.87	718.54
381.07	692.80
381.26	795.78
381.46	702.16
381.65	648.33
381.85	805.14
382.04	685.78
382.24	737.27
382.43	758.33
382.63	767.70
382.83	767.70
383.02	723.23
383.22	840.25
383.41	674.07
383.61	720.88
383.80	713.86
384.00	821.53
384.19	737.27
384.39	819.19
384.58	798.12
384.78	791.10
384.97	816.85
385.17	781.74
385.36	854.30
385.56	842.59
385.75	877.70
385.95	833.23
386.14	917.49
386.34	816.85
386.53	840.25
386.72	826.21
386.92	854.30
387.11	938.55
387.31	896.43
387.50	842.59
387.70	842.59
387.89	875.36
388.09	873.02
388.28	1011.11
388.48	947.92
388.67	971.32
388.86	912.81
389.06	978.34
389.25	873.02
389.45	1067.28
389.64	987.71
389.84	1060.26
390.03	1102.39
390.22	999.41
390.42	1008.77
390.61	994.73
390.81	992.39
391.00	959.62
391.19	1071.97
391.39	954.94
391.58	1086.01
391.78	1107.07
391.97	1053.24
392.16	1036.86
392.36	1093.03
392.55	1060.26
392.75	1050.90
392.94	971.32
393.13	1041.54
393.33	1001.75
393.52	1027.50
393.71	1156.22
393.91	1135.16
394.10	1114.10
394.29	1188.99
394.49	1160.91
394.68	1188.99
394.88	1196.01
395.07	1205.38
395.26	1165.59
395.46	1217.08
395.65	1217.08
395.84	1240.48
396.04	1275.59
396.23	1142.18
396.42	1158.57
396.62	1198.35
396.81	1245.16
397.00	1165.59
397.19	1282.61
397.39	1289.64
397.58	1362.19
397.77	1376.24
397.97	1320.06
398.16	1502.62
398.35	1320.06
398.55	1497.94
398.74	1446.45
398.93	1427.73
399.12	1509.65
399.32	1528.37
399.51	1418.36
399.70	1526.03
399.90	1523.69
400.09	1549.43
400.28	1549.43
400.47	1577.52
400.67	1631.35
400.86	1614.97
401.05	1666.46
401.24	1671.14
401.44	1643.06
401.63	1727.32
401.82	1699.23
402.01	1764.76
402.21	1575.18
402.40	1743.70
402.59	1678.16
402.78	1593.90
402.97	1764.76
403.17	1837.32
403.36	1750.72
403.55	1867.75
403.74	1886.47
403.93	1849.02
404.13	1884.13
404.32	1865.41
404.51	1846.68
404.70	1970.73
404.89	1799.87
405.09	1884.13
405.28	1996.48
405.47	1846.68
405.66	1949.67
405.85	1895.83
406.05	2033.93
406.24	1933.28
406.43	1966.05
406.62	2129.89
406.81	2202.44
407.00	2092.44
407.20	2054.99
407.39	2040.95
407.58	2136.91
407.77	2090.10
407.96	2193.08
408.15	2228.19
408.34	2076.06
408.54	2235.21
408.73	2148.61
408.92	2181.38
409.11	2251.60
409.30	2260.96
409.49	2223.51
409.68	2216.49
409.87	2296.07
410.07	2300.75
410.26	2303.09
410.45	2373.30
410.64	2464.58
410.83	2445.86
411.02	2586.29
411.21	2487.99
411.40	2401.39
411.59	2602.68
411.78	2567.57
411.98	2532.46
412.17	2635.44
412.36	2712.68
412.55	2754.81
412.74	2609.70
412.93	2665.87
413.12	2670.55
413.31	2803.96
413.50	2747.79
413.69	2906.95
413.88	2949.08
414.07	2857.79
414.26	2918.65
414.45	2906.95
414.64	2860.13
414.83	3033.33
415.02	2923.33
415.22	3042.70
415.41	2991.20
415.60	2993.55
415.79	3145.68
415.98	3192.49
416.17	3073.12
416.36	3143.34
416.55	3150.36
416.74	3201.85
416.93	3220.58
417.12	3243.98
417.31	3215.90
417.50	3372.71
417.69	3260.37
417.88	3316.54
418.07	3463.99
418.26	3293.13
418.45	3290.79
418.64	3543.57
418.83	3588.04
419.02	3480.38
419.21	3536.55
419.39	3543.57
419.58	3499.10
419.77	3564.64
419.96	3559.95
420.15	3740.18
420.34	3548.25
420.53	3665.28
420.72	3805.71
420.91	3691.02
421.10	3702.73
421.29	3770.60
421.48	3737.84
421.67	3817.41
421.86	3716.77
422.05	3754.22
422.24	3660.60
422.43	3702.73
422.61	3777.62
422.80	3892.31
422.99	3803.37
423.18	3852.52
423.37	3875.93
423.56	3955.51
423.75	3889.97
423.94	3737.84
424.13	3616.13
424.32	3758.90
424.50	3918.06
424.69	3899.33
424.88	3948.48
425.07	3815.07
425.26	3871.25
425.45	3908.69
425.64	3882.95
425.83	3962.53
426.01	3925.08
426.20	3868.91
426.39	3976.57
426.58	3861.88
426.77	3801.03
426.96	3960.19
427.15	3997.64
427.33	3936.78
427.52	3957.85
427.71	4091.26
427.90	4030.40
428.09	4163.81
428.28	4138.07
428.46	4093.60
428.65	4084.23
428.84	4180.20
429.03	4276.16
429.22	4098.28
429.40	4070.19
429.59	4044.45
429.78	3896.99
429.97	3824.44
430.16	3927.42
430.34	4042.11
430.53	4306.59
430.72	4334.67
430.91	4163.81
431.10	4194.24
431.28	4542.98
431.47	4643.62
431.66	4589.79
431.85	4416.59
432.03	4421.27
432.22	4706.82
432.41	4447.02
432.60	4479.79
432.79	4573.41
432.97	4531.28
433.16	4737.24
433.35	4650.64
433.54	4727.88
433.72	4718.52
433.91	4599.15
434.10	4777.03
434.28	4746.61
434.47	4837.89
434.66	4983.00
434.85	4971.30
435.03	4945.55
435.22	4945.55
435.41	4968.96
435.59	4938.53
435.78	4929.17
435.97	5067.26
436.16	4957.25
436.34	5022.79
436.53	5053.22
436.72	5008.75
436.90	5114.07
437.09	5114.07
437.28	4919.81
437.46	5062.58
437.65	5135.14
437.84	5247.48
438.02	4945.55
438.21	5214.71
438.40	5062.58
438.58	5427.70
438.77	5247.48
438.96	5320.04
439.14	5554.09
439.33	5610.26
439.52	5483.88
439.70	5509.62
439.89	5685.16
440.08	5547.07
440.26	5701.54
440.45	5654.73
440.63	5827.93
440.82	5799.85
441.01	5886.45
441.19	5870.06
441.38	5827.93
441.57	5879.43
441.75	6064.33
441.94	6153.27
442.12	6237.53
442.31	6265.61
442.50	6289.02
442.68	6197.74
442.87	6190.72
443.05	6342.85
443.24	6452.86
443.43	6246.89
443.61	6286.68
443.80	6567.54
443.98	6188.38
444.17	6113.48
444.35	6429.45
444.54	6555.84
444.73	6511.37
444.91	6317.11
445.10	6312.42
445.28	6429.45
445.47	6345.19
445.65	6223.48
445.84	6525.41
446.02	6555.84
446.21	6380.30
446.39	6382.64
446.58	6574.56
446.77	6682.23
446.95	6408.39
447.14	6604.99
447.32	6602.65
447.51	6380.30
447.69	6670.53
447.88	6422.43
448.06	6621.38
448.25	6651.80
448.43	6668.19
448.62	6595.63
448.80	6544.14
448.99	6595.63
449.17	6677.55
449.36	6764.15
449.54	6787.55
449.73	6860.11
449.91	7052.03
450.10	7028.63
450.28	7047.35
450.46	7126.93
450.65	7122.25
450.83	7148.00
451.02	6817.98
451.20	6862.45
451.39	7178.42
451.57	7066.08
451.76	6967.77
451.94	7052.03
452.13	7180.76
452.31	7126.93
452.49	6890.54
452.68	7323.54
452.86	6958.41
453.05	7229.91
453.23	7365.67
453.42	7042.67
453.60	7159.70
453.78	7290.77
453.97	7169.06
454.15	7155.02
454.34	7281.41
454.52	7391.41
454.70	7520.14
454.89	7405.46
455.07	7300.13
455.26	7435.88
455.44	7545.89
455.62	7658.23
455.81	7756.54
455.99	7655.89
456.17	7744.83
456.36	7775.26
456.54	7672.28
456.73	7789.30
456.91	7775.26
457.09	7831.43
457.28	8189.53
457.46	7887.61
457.64	8081.87
457.83	7852.50
458.01	7882.92
458.19	8229.32
458.38	7875.90
458.56	8163.79
458.74	8112.30
458.93	8138.04
459.11	8098.25
459.29	8121.66
459.48	8170.81
459.66	8315.92
459.84	8170.81
460.03	8390.82
460.21	8388.48
460.39	8191.88
460.57	8318.26
460.76	8496.14
460.94	8442.31
461.12	8641.26
461.31	8521.89
461.49	8432.95
461.67	8676.37
461.85	8638.92
462.04	8472.74
462.22	9053.19
462.40	8847.22
462.59	8765.31
462.77	8779.35
462.95	8823.82
463.13	8793.39
463.32	8641.26
463.50	9071.92
463.68	8985.32
463.86	8727.86
464.05	8898.72
464.23	8643.60
464.41	8805.10
464.59	8765.31
464.78	8952.55
464.96	9027.45
465.14	8786.37
465.32	9231.07
465.50	9123.41
465.69	8950.21
465.87	9025.11
466.05	9137.45
466.23	8994.68
466.41	9060.21
466.60	9305.97
466.78	9104.68
466.96	9167.88
467.14	9174.90
467.32	9317.67
467.51	9362.14
467.69	9041.49
467.87	9291.93
468.05	9483.85
468.23	9275.54
468.41	9439.38
468.60	9394.91
468.78	9458.10
468.96	9528.32
469.14	9657.05
469.32	9748.33
469.50	9390.23
469.69	9593.86
469.87	9530.66
470.05	9607.90
470.23	9558.75
470.41	9893.44
470.59	9900.47
470.77	9816.21
470.95	10064.30
471.14	10040.90
471.32	9741.31
471.50	10092.39
471.68	10094.73
471.86	10377.94
472.04	10171.97
472.22	10160.27
472.40	10204.74
472.58	10267.93
472.77	10345.17
472.95	10373.25
473.13	10530.07
473.31	10501.98
473.49	10452.83
473.67	10785.19
473.85	10450.49
474.03	10705.61
474.21	10729.02
474.39	10764.12
474.57	10832.00
474.75	11105.84
474.93	10860.09
475.12	11021.58
475.30	11356.28
475.48	11117.54
475.66	11318.83
475.84	11028.60
476.02	11311.81
476.20	11201.80
476.38	11414.79
476.56	11817.36
476.74	11611.40
476.92	11653.53
477.10	11847.79
477.28	11815.02
477.46	12116.95
477.64	12060.78
477.82	12255.04
478.00	12578.04
478.18	12339.30
478.36	12566.34
478.54	12411.86
478.72	12503.14
478.90	12587.40
479.08	12865.92
479.26	12713.79
479.44	13064.87
479.62	13097.64
479.80	13200.62
479.98	13331.69
480.16	13334.03
480.34	13425.31
480.52	13762.35
480.70	13650.00
480.88	13532.98
481.06	13870.01
481.24	13586.81
481.41	13834.91
481.59	14216.41
481.77	14216.41
481.95	14209.39
482.13	14092.37
482.31	14265.57
482.49	14719.63
482.67	14544.09
482.85	15105.82
483.03	15248.59
483.21	15049.64
483.39	15075.39
483.57	15201.78
483.74	15279.02
483.92	15538.82
484.10	15351.57
484.28	15529.45
484.46	15805.64
484.64	16107.57
484.82	16009.26
485.00	15971.82
485.18	16112.25
485.35	16397.79
485.53	15896.92
485.71	16194.17
485.89	16428.22
486.07	16325.24
486.25	16561.63
486.43	16659.93
486.61	16917.39
486.78	17137.40
486.96	17060.16
487.14	17572.74
487.32	17788.07
487.50	17645.30
487.68	18207.03
487.85	18342.78
488.03	18228.09
488.21	18420.02
488.39	18541.72
488.57	18373.21
488.75	18604.92
488.92	18897.49
489.10	19197.07
489.28	19379.64
489.46	19349.21
489.64	19538.79
489.81	20170.74
489.99	19590.28
490.17	19922.64
490.35	20130.95
490.53	19829.02
490.70	20269.04
490.88	20056.05
491.06	20563.95
491.24	20641.18
491.41	20575.65
491.59	20673.95
491.77	20531.18
491.95	20856.51
492.13	20905.66
492.30	21324.62
492.48	21427.60
492.66	21516.54
492.84	21577.40
493.01	21958.91
493.19	21598.46
493.37	22092.32
493.54	21926.14
493.72	22450.42
493.90	22232.75
494.08	23056.62
494.25	22899.80
494.43	22670.43
494.61	22995.76
494.79	23101.09
494.96	23386.63
495.14	23124.49
495.32	23571.54
495.49	23449.83
495.67	23445.15
495.85	23880.49
496.02	24081.77
496.20	23946.02
496.38	23885.17
496.55	24058.37
496.73	25039.05
496.91	24627.12
497.09	24699.67
497.26	25015.65
497.44	24620.10
497.62	24992.24
497.79	25385.45
497.97	25083.52
498.14	25130.33
498.32	25071.82
498.50	25343.32
498.67	25654.61
498.85	25792.70
499.03	26073.57
499.20	26160.17
499.38	25659.29
499.56	26242.09
499.73	26398.90
499.91	26270.17
500.08	26197.62
500.26	26167.19
500.44	26452.73
500.61	26595.51
500.79	26522.95
500.97	26625.93
501.14	26892.76
501.32	26806.16
501.49	26948.93
501.67	26941.91
501.84	27154.90
502.02	27040.21
502.20	27730.67
502.37	27924.93
502.55	27304.69
502.72	28009.19
502.90	27754.07
503.07	27566.83
503.25	27648.75
503.43	27566.83
503.60	27908.55
503.78	27892.16
503.95	28327.50
504.13	28327.50
504.30	28163.67
504.48	28489.00
504.65	28662.20
504.83	28980.51
505.01	29275.42
505.18	28989.88
505.36	29219.25
505.53	29039.03
505.71	29867.58
505.88	29317.55
506.06	29394.79
506.23	29762.25
506.41	29542.24
506.58	29565.65
506.76	29832.47
506.93	30185.89
507.11	29776.30
507.28	29902.68
507.46	29832.47
507.63	30008.01
507.81	30174.19
507.98	29802.04
508.16	30284.19
508.33	30459.73
508.50	30366.11
508.68	30373.13
508.85	30892.73
509.03	30726.55
509.20	30972.31
509.38	31152.53
509.55	31503.61
509.73	31119.76
509.90	31417.01
510.08	31068.27
510.25	30764.00
510.42	31662.77
510.60	31597.23
510.77	31845.33
510.95	32081.72
511.12	31417.01
511.30	32268.97
511.47	32203.43
511.64	31992.78
511.82	32460.89
511.99	32084.06
512.17	32268.97
512.34	32100.45
512.51	32503.02
512.69	32496.00
512.86	32442.17
513.04	33188.80
513.21	32540.47
513.38	32304.07
513.56	32533.45
513.73	32549.83
513.90	33106.88
514.08	32507.70
514.25	32945.38
514.43	33127.94
514.60	32891.55
514.77	33006.23
514.95	33598.39
515.12	33338.59
515.29	33750.52
515.47	34031.39
515.64	33715.42
515.81	33537.54
515.99	33668.61
516.16	33675.63
516.33	33532.86
516.51	33942.45
516.68	33050.70
516.85	33205.18
517.03	33656.90
517.20	34148.42
517.37	34167.14
517.54	34670.36
517.72	34054.79
517.89	33867.55
518.06	33937.77
518.24	33996.28
518.41	34249.06
518.58	34403.53
518.75	34094.58
518.93	34801.43
519.10	34485.45
519.27	34724.19
519.45	35077.61
519.62	35337.41
519.79	35557.42
519.96	35510.61
520.14	35079.95
520.31	34979.31
520.48	35480.18
520.65	35529.33
520.83	35854.67
521.00	35920.20
521.17	35587.85
521.34	35814.88
521.52	35840.62
521.69	36341.50
521.86	35871.05
522.03	36020.84
522.20	36041.91
522.38	35871.05
522.55	36484.27
522.72	36114.47
522.89	36191.70
523.07	36933.65
523.24	36308.73
523.41	36575.55
523.58	36493.63
523.75	37413.46
523.92	37179.41
524.10	36964.08
524.27	37064.72
524.44	36980.46
524.61	37226.22
524.78	37474.32
524.96	37254.31
525.13	37715.39
525.30	37930.72
525.47	37591.34
525.64	37612.41
525.81	37441.55
525.98	37464.96
526.16	36779.18
526.33	37191.11
526.50	37694.33
526.67	36840.03
526.84	37399.42
527.01	37654.54
527.18	37874.55
527.36	38153.07
527.53	37940.08
527.70	38417.55
527.87	38529.90
528.04	38160.09
528.21	38469.04
528.38	38295.85
528.55	38873.96
528.72	38417.55
528.89	38380.10
529.07	38981.62
529.24	38686.71
529.41	38541.60
529.58	38464.36
529.75	38930.13
529.92	39110.35
530.09	38679.69
530.26	38979.28
530.43	39414.62
530.60	38759.27
530.77	39225.04
530.94	39763.36
531.11	39203.97
531.28	39576.12
531.46	39379.51
531.63	39332.70
531.80	39295.25
531.97	39508.24
532.14	39489.52
532.31	39257.81
532.48	39725.91
532.65	39629.95
532.82	39255.46
532.99	39849.96
533.16	39416.96
533.33	39835.92
533.50	39917.84
533.67	39789.11
533.84	39782.09
534.01	40142.53
534.18	39636.97
534.35	40655.11
534.52	40320.41
534.69	40383.60
534.86	40430.41
535.03	40332.11
535.20	40444.46
535.37	41020.23
535.54	40816.60
535.71	40376.58
535.88	40259.55
536.05	40816.60
536.22	40706.60
536.38	40900.86
536.55	40491.27
536.72	40404.67
536.89	40730.00
537.06	40683.19
537.23	41010.87
537.40	40699.58
537.57	40840.01
537.74	41078.74
537.91	41684.94
538.08	41265.99
538.25	40765.11
538.42	41434.50
538.59	41628.77
538.75	40992.14
538.92	40954.69
539.09	41530.47
539.26	41296.41
539.43	41371.31
539.60	41605.36
539.77	40938.31
539.94	41598.34
540.11	41148.96
540.28	41116.19
540.44	41427.48
540.61	41507.06
540.78	40847.03
540.95	41596.00
541.12	41942.40
541.29	41542.17
541.46	41820.69
541.62	42000.91
541.79	42169.43
541.96	41584.30
542.13	41930.70
542.30	42239.65
542.47	41979.85
542.63	42309.86
542.80	42405.83
542.97	42307.52
543.14	42323.91
543.31	42747.54
543.48	42321.57
543.64	43269.48
543.81	42784.99
543.98	42880.95
544.15	42827.12
544.32	42646.90
544.48	42834.14
544.65	42857.55
544.82	42873.93
544.99	42586.05
545.16	43164.16
545.32	42520.51
545.49	43409.92
545.66	43349.06
545.83	43620.56
546.00	43377.15
546.16	43379.49
546.33	43304.59
546.50	42873.93
546.67	43110.33
546.83	42979.26
547.00	43243.74
547.17	43552.69
547.34	43571.41
547.50	43606.52
547.67	43688.44
547.84	43372.47
548.00	43875.68
548.17	43807.81
548.34	43129.05
548.51	43791.42
548.67	44142.50
548.84	44257.19
549.01	43770.36
549.18	44037.18
549.34	44128.46
549.51	43908.45
549.68	44189.31
549.84	44449.11
550.01	43901.43
550.18	43655.67
550.34	44053.56
550.51	44257.19
550.68	43981.01
550.84	43908.45
551.01	43950.58
551.18	43824.19
551.34	44355.49
551.51	44250.17
551.68	44554.44
551.84	44046.54
552.01	43999.73
552.18	44634.02
552.34	44259.53
552.51	44669.12
552.68	44598.91
552.84	44353.15
553.01	44584.86
553.18	44168.25
553.34	44825.94
553.51	44231.44
553.67	44772.11
553.84	44781.47
554.01	45001.48
554.17	45202.77
554.34	44839.98
554.51	44903.18
554.67	45584.27
554.84	45069.36
555.00	44626.99
555.17	44704.23
555.33	44580.18
555.50	45003.82
555.67	44875.09
555.83	44638.70
556.00	45392.35
556.16	45542.14
556.33	45385.33
556.50	44928.92
556.66	45127.87
556.83	44879.77
556.99	45256.60
557.16	45507.04
557.32	45495.33
557.49	45448.52
557.65	45059.99
557.82	45085.74
557.98	45146.59
558.15	45111.49
558.32	45319.79
558.48	45179.36
558.65	45212.13
558.81	45322.13
558.98	45062.33
559.14	45263.62
559.31	45052.97
559.47	45411.07
559.64	45731.73
559.80	45750.45
559.97	45600.66
560.13	45230.85
560.30	45125.53
560.46	45710.66
560.63	45668.53
560.79	45628.74
560.96	45846.41
561.12	45385.33
561.29	45689.60
561.45	45492.99
561.61	45509.38
561.78	45673.21
561.94	45191.06
562.11	45593.64
562.27	45474.27
562.44	45851.09
562.60	46162.39
562.77	46323.88
562.93	45925.99
563.10	46071.10
563.26	45392.35
563.42	45958.76
563.59	45940.04
563.75	45270.64
563.92	46010.25
564.08	45834.71
564.24	45872.16
564.41	45827.69
564.57	45598.32
564.74	45909.61
564.90	46246.65
565.07	45848.75
565.23	45897.91
565.39	45736.41
565.56	46014.93
565.72	45713.00
565.88	46272.39
566.05	45748.11
566.21	46508.79
566.38	45694.28
566.54	45993.87
566.70	46143.66
566.87	46485.38
567.03	45769.18
567.19	46436.23
567.36	46057.06
567.52	45944.72
567.68	46234.94
567.85	45844.07
568.01	46279.41
568.17	46103.87
568.34	46241.96
568.50	45738.75
568.66	45921.31
568.83	45928.33
568.99	45741.09
569.15	46188.13
569.32	45956.42
569.48	45949.40
569.64	46466.66
569.81	46057.06
569.97	46087.49
570.13	46129.62
570.30	46005.57
570.46	45750.45
570.62	46218.56
570.78	45956.42
570.95	46031.32
571.11	46543.89
571.27	45867.48
571.43	46230.26
571.60	46672.62
571.76	46136.64
571.92	46064.08
572.09	46312.18
572.25	46450.27
572.41	46064.08
572.57	46286.43
572.74	46761.56
572.90	46422.19
573.06	46358.99
573.22	46323.88
573.38	46167.07
573.55	46185.79
573.71	46417.50
573.87	46237.28
574.03	45785.56
574.20	46422.19
574.36	46052.38
574.52	46300.48
574.68	46366.01
574.84	46232.60
575.01	46614.11
575.17	46288.77
575.33	45869.82
575.49	46534.53
575.65	46106.21
575.82	46665.60
575.98	46562.62
576.14	46064.08
576.30	46410.48
576.46	46279.41
576.62	46391.76
576.79	46089.83
576.95	46117.92
577.11	46057.06
577.27	46277.07
577.43	46513.47
577.59	46485.38
577.75	46366.01
577.92	46389.42
578.08	46136.64
578.24	46122.60
578.40	46167.07
578.56	46021.95
578.72	46190.47
578.88	46461.97
579.04	46494.74
579.21	46377.72
579.37	46576.66
579.53	46347.29
579.69	45888.54
579.85	46358.99
580.01	46712.41
580.17	46373.03
580.33	46532.19
580.49	46241.96
580.65	46487.72
580.82	46663.26
580.98	46309.84
581.14	45977.48
581.30	46438.57
581.46	46351.97
581.62	46623.47
581.78	46632.83
581.94	46862.21
582.10	46380.06
582.26	46637.51
582.42	46705.39
582.58	46328.56
582.74	46323.88
582.90	46707.73
583.06	46642.20
583.22	46642.20
583.38	47096.26
583.54	46883.27
583.70	46548.57
583.86	46396.44
584.02	46106.21
584.18	46403.46
584.34	46845.82
584.50	46632.83
584.66	46710.07
584.82	46281.75
584.98	46637.51
585.14	46918.38
585.30	46183.45
585.46	46389.42
585.62	46312.18
585.78	46571.98
585.94	45963.44
586.10	46113.23
586.26	46445.59
586.42	46347.29
586.58	46670.28
586.74	46567.30
586.90	46351.97
587.06	46548.57
587.22	46841.14
587.38	46403.46
587.54	46766.24
587.70	46866.89
587.86	46438.57
588.02	46321.54
588.18	46761.56
588.34	46632.83
588.49	46185.79
588.65	46220.90
588.81	46043.02
588.97	45989.19
589.13	46333.24
589.29	46368.35
589.45	46270.05
589.61	46373.03
589.77	46892.63
589.93	46494.74
