SpectraSuite Data File
++++++++++++++++++++++++++++++++++++
Date: Fri Oct 25 11:23:04 EDT 2013
User: price-jones
Dark Spectrum Present: No
Reference Spectrum Present: No
Number of Sampled Component Spectra: 1
Spectrometers: USB2+H05261
Integration Time (usec): 100000 (USB2+H05261)
Spectra Averaged: 1 (USB2+H05261)
Boxcar Smoothing: 0 (USB2+H05261)
Correct for Electrical Dark: No (USB2+H05261)
Strobe/Lamp Enabled: No (USB2+H05261)
Correct for Detector Non-linearity: No (USB2+H05261)
Correct for Stray Light: No (USB2+H05261)
Number of Pixels in Processed Spectrum: 2048
>>>>>Begin Processed Spectral Data<<<<<
365.73	203.63
365.92	203.63
366.12	203.63
366.32	95.96
366.52	135.75
366.72	88.94
366.91	58.51
367.11	133.41
367.31	128.73
367.51	86.60
367.70	119.37
367.90	133.41
368.10	117.03
368.30	128.73
368.49	84.26
368.69	112.35
368.89	168.52
369.09	210.65
369.28	205.97
369.48	222.35
369.68	147.45
369.87	135.75
370.07	212.99
370.27	255.12
370.47	287.89
370.66	533.64
370.86	662.37
371.06	648.33
371.25	657.69
371.45	603.86
371.65	685.78
371.84	660.03
372.04	751.31
372.24	662.37
372.44	732.59
372.63	744.29
372.83	716.20
373.03	697.48
373.22	683.44
373.42	781.74
373.62	758.33
373.81	793.44
374.01	828.55
374.21	795.78
374.40	887.06
374.60	863.66
374.79	842.59
374.99	898.77
375.19	873.02
375.38	875.36
375.58	863.66
375.78	884.72
375.97	851.96
376.17	866.00
376.37	774.72
376.56	940.90
376.76	819.19
376.95	847.27
377.15	863.66
377.35	866.00
377.54	912.81
377.74	898.77
377.93	842.59
378.13	894.08
378.33	840.25
378.52	910.47
378.72	964.30
378.91	983.02
379.11	908.13
379.31	903.45
379.50	964.30
379.70	940.90
379.89	903.45
380.09	994.73
380.28	922.17
380.48	1004.09
380.68	957.28
380.87	891.74
381.07	1013.45
381.26	1086.01
381.46	999.41
381.65	1041.54
381.85	1132.82
382.04	1081.33
382.24	1062.60
382.43	1055.58
382.63	1100.05
382.83	1132.82
383.02	1130.48
383.22	1144.52
383.41	1046.22
383.61	1039.20
383.80	1111.75
384.00	1081.33
384.19	1210.06
384.39	1118.78
384.58	1107.07
384.78	1078.99
384.97	1205.38
385.17	1095.37
385.36	1153.88
385.56	1158.57
385.75	1158.57
385.95	1188.99
386.14	1263.89
386.34	1144.52
386.53	1224.10
386.72	1184.31
386.92	1287.29
387.11	1210.06
387.31	1399.64
387.50	1313.04
387.70	1219.42
387.89	1240.48
388.09	1291.98
388.28	1240.48
388.48	1306.02
388.67	1376.24
388.86	1357.51
389.06	1313.04
389.25	1409.00
389.45	1327.08
389.64	1399.64
389.84	1270.91
390.03	1418.36
390.22	1387.94
390.42	1413.68
390.61	1373.89
390.81	1359.85
391.00	1404.32
391.19	1397.30
391.39	1474.54
391.58	1446.45
391.78	1490.92
391.97	1376.24
392.16	1432.41
392.36	1533.05
392.55	1570.50
392.75	1528.37
392.94	1409.00
393.13	1516.67
393.33	1607.95
393.52	1586.88
393.71	1561.14
393.91	1540.07
394.10	1561.14
394.29	1575.18
394.49	1640.72
394.68	1659.44
394.88	1624.33
395.07	1610.29
395.26	1722.63
395.46	1596.25
395.65	1668.80
395.84	1687.53
396.04	1724.97
396.23	1771.79
396.42	1724.97
396.62	1795.19
396.81	1732.00
397.00	1849.02
397.19	1820.94
397.39	1825.62
397.58	1837.32
397.77	1795.19
397.97	1886.47
398.16	1806.89
398.35	1954.35
398.55	1764.76
398.74	1921.58
398.93	2040.95
399.12	1940.30
399.32	1914.56
399.51	2036.27
399.70	2097.12
399.90	1970.73
400.09	1928.60
400.28	2080.74
400.47	2094.78
400.67	2040.95
400.86	2031.58
401.05	2165.00
401.24	2108.82
401.44	2136.91
401.63	2183.72
401.82	2190.74
402.01	2204.78
402.21	2167.34
402.40	2136.91
402.59	2216.49
402.78	2258.62
402.97	2279.68
403.17	2242.23
403.36	2223.51
403.55	2225.85
403.74	2417.77
403.93	2368.62
404.13	2399.05
404.32	2298.41
404.51	2403.73
404.70	2413.09
404.89	2420.11
405.09	2455.22
405.28	2478.63
405.47	2443.52
405.66	2516.08
405.85	2546.50
406.05	2434.16
406.24	2689.28
406.43	2560.55
406.62	2642.46
406.81	2874.18
407.00	2700.98
407.20	2642.46
407.39	2675.23
407.58	2808.64
407.77	2773.53
407.96	2803.96
408.15	2656.51
408.34	2813.32
408.54	2857.79
408.73	2813.32
408.92	2829.71
409.11	3000.57
409.30	2832.05
409.49	2897.58
409.68	2874.18
409.87	2904.60
410.07	2970.14
410.26	3007.59
410.45	3033.33
410.64	3056.74
410.83	3098.87
411.02	3218.24
411.21	3222.92
411.40	3164.40
411.59	3150.36
411.78	3304.84
411.98	3297.81
412.17	3246.32
412.36	3384.41
412.55	3281.43
412.74	3410.16
412.93	3372.71
413.12	3438.25
413.31	3456.97
413.50	3623.15
413.69	3581.02
413.88	3581.02
414.07	3632.51
414.26	3726.13
414.45	3707.41
414.64	3782.31
414.83	3864.22
415.02	3772.94
415.22	3791.67
415.41	3904.01
415.60	3861.88
415.79	3861.88
415.98	3906.35
416.17	4023.38
416.36	3908.69
416.55	3992.95
416.74	4142.75
416.93	4109.98
417.12	4074.87
417.31	4131.05
417.50	4056.15
417.69	4318.29
417.88	4306.59
418.07	4447.02
418.26	4362.76
418.45	4383.82
418.64	4475.10
418.83	4510.21
419.02	4468.08
419.21	4564.04
419.39	4573.41
419.58	4617.88
419.77	4503.19
419.96	4706.82
420.15	4669.37
420.34	4594.47
420.53	4767.67
420.72	4802.78
420.91	4767.67
421.10	4805.12
421.29	4868.31
421.48	4683.41
421.67	4844.91
421.86	4807.46
422.05	4755.97
422.24	5081.30
422.43	4959.60
422.61	4898.74
422.80	5015.77
422.99	4947.89
423.18	4997.04
423.37	5076.62
423.56	4901.08
423.75	4954.91
423.94	4802.78
424.13	4737.24
424.32	4795.76
424.50	5004.07
424.69	5179.61
424.88	5093.01
425.07	5029.81
425.26	4828.53
425.45	4943.21
425.64	5008.75
425.83	4992.36
426.01	5085.98
426.20	5219.39
426.39	4980.66
426.58	5020.45
426.77	5125.77
426.96	5228.76
427.15	5156.20
427.33	5217.05
427.52	5226.42
427.71	5362.17
427.90	5350.46
428.09	5287.27
428.28	5296.63
428.46	5439.40
428.65	5392.59
428.84	5612.60
429.03	5579.84
429.22	5362.17
429.40	5420.68
429.59	5554.09
429.78	5254.50
429.97	5336.42
430.16	5540.05
430.34	5664.10
430.53	5776.44
430.72	5783.46
430.91	5582.18
431.10	5643.03
431.28	5806.87
431.47	5994.11
431.66	5977.73
431.85	5907.51
432.03	5797.51
432.22	5966.03
432.41	6167.31
432.60	6015.18
432.79	6017.52
432.97	6029.22
433.16	5956.66
433.35	6221.14
433.54	6164.97
433.72	6167.31
433.91	6272.64
434.10	6193.06
434.28	6202.42
434.47	6204.76
434.66	6305.40
434.85	6406.05
435.03	6216.46
435.22	6256.25
435.41	6366.26
435.59	6502.01
435.78	6555.84
435.97	6747.76
436.16	6537.12
436.34	6408.39
436.53	6581.59
436.72	6782.87
436.90	6427.11
437.09	6684.57
437.28	6773.51
437.46	6698.61
437.65	6682.23
437.84	6780.53
438.02	6719.68
438.21	6759.47
438.40	6768.83
438.58	7052.03
438.77	7124.59
438.96	6995.86
439.14	7016.93
439.33	7262.68
439.52	7124.59
439.70	7330.56
439.89	7323.54
440.08	7569.29
440.26	7555.25
440.45	7400.77
440.63	7433.54
440.82	7822.07
441.01	7489.71
441.19	7779.94
441.38	7838.45
441.57	7756.54
441.75	8049.10
441.94	7829.09
442.12	8002.29
442.31	8177.83
442.50	8025.70
442.68	8098.25
442.87	8088.89
443.05	7985.91
443.24	8336.99
443.43	8421.25
443.61	8549.98
443.80	8533.59
443.98	8306.56
444.17	7922.71
444.35	8266.77
444.54	8681.05
444.73	8163.79
444.91	8489.12
445.10	8482.10
445.28	8519.55
445.47	8348.69
445.65	8367.42
445.84	8652.96
446.02	8524.23
446.21	8482.10
446.39	8629.56
446.58	8510.19
446.77	8580.40
446.95	8468.06
447.14	8472.74
447.32	8557.00
447.51	8549.98
447.69	8606.15
447.88	8620.19
448.06	8697.43
448.25	8369.76
448.43	8627.21
448.62	8650.62
448.80	8793.39
448.99	8734.88
449.17	8938.51
449.36	8723.18
449.54	8931.48
449.73	9200.65
449.91	9053.19
450.10	9228.73
450.28	9149.15
450.46	9165.54
450.65	9043.83
450.83	9242.78
451.02	9270.86
451.20	9338.74
451.39	9114.05
451.57	9320.01
451.76	9249.80
451.94	9228.73
452.13	9390.23
452.31	9462.79
452.49	9277.88
452.68	9394.91
452.86	9404.27
453.05	9565.77
453.23	9563.43
453.42	9364.48
453.60	9413.63
453.78	9441.72
453.97	9624.28
454.15	9614.92
454.34	9685.14
454.52	9933.23
454.70	9867.70
454.89	9905.15
455.07	10078.35
455.26	9958.98
455.44	10146.22
455.62	10036.22
455.81	9942.60
455.99	10094.73
456.17	10076.01
456.36	10328.78
456.54	10230.48
456.73	10555.82
456.91	10602.63
457.09	10490.28
457.28	10532.41
457.46	10377.94
457.64	10637.73
457.83	10441.13
458.01	10525.39
458.19	10761.78
458.38	10499.64
458.56	10916.26
458.74	10724.33
458.93	11089.46
459.11	10951.37
459.29	10944.34
459.48	10787.53
459.66	10895.19
459.84	11192.44
460.03	11316.49
460.21	10923.28
460.39	11037.97
460.57	11096.48
460.76	11136.27
460.94	11265.00
461.12	11201.80
461.31	11534.16
461.49	11417.13
461.67	11405.43
461.85	11592.67
462.04	11503.73
462.22	11747.15
462.40	11599.70
462.59	11651.19
462.77	11803.32
462.95	11871.20
463.13	11712.04
463.32	11543.52
463.50	11833.75
463.68	11843.11
463.86	11985.88
464.05	11665.23
464.23	11763.53
464.41	12152.06
464.59	11782.26
464.78	12255.04
464.96	12376.75
465.14	11894.60
465.32	12252.70
465.50	12238.66
465.69	12109.93
465.87	12311.22
466.05	12456.33
466.23	12329.94
466.41	12503.14
466.60	12748.90
466.78	12276.11
466.96	12114.61
467.14	12463.35
467.32	12739.54
467.51	12676.34
467.69	12313.56
467.87	12521.87
468.05	12844.86
468.23	12360.37
468.41	12636.55
468.60	12688.04
468.78	12858.90
468.96	12671.66
469.14	12966.57
469.32	13277.86
469.50	12894.01
469.69	13130.41
469.87	13179.56
470.05	13109.34
470.23	13273.18
470.41	13205.30
470.59	13275.52
470.77	13123.38
470.95	13486.17
471.14	13844.27
471.32	13193.60
471.50	13891.08
471.68	13635.96
471.86	13961.30
472.04	14031.51
472.22	14427.06
472.40	13682.77
472.58	14146.20
472.77	14087.68
472.95	14368.55
473.13	14604.94
473.31	14363.87
473.49	14125.13
473.67	14286.63
473.85	14501.96
474.03	14764.10
474.21	14768.78
474.39	14974.75
474.57	14726.65
474.75	15218.16
474.93	15136.24
475.12	15122.20
475.30	15440.51
475.48	15183.06
475.66	15417.11
475.84	15342.21
476.02	15583.29
476.20	15580.95
476.38	15740.10
476.56	16086.50
476.74	16329.92
476.92	15901.60
477.10	16063.10
477.28	16219.91
477.46	16393.11
477.64	16510.14
477.82	16547.59
478.00	17373.80
478.18	16877.60
478.36	17018.04
478.54	17228.68
478.72	17291.88
478.90	17720.20
479.08	17738.92
479.26	17869.99
479.44	18073.62
479.62	18050.21
479.80	18431.72
479.98	18431.72
480.16	18822.59
480.34	18881.10
480.52	19044.94
480.70	18803.86
480.88	18747.69
481.06	18843.65
481.24	18967.70
481.41	19183.03
481.59	19445.17
481.77	19737.74
481.95	19728.38
482.13	19960.09
482.31	19672.20
482.49	20395.43
482.67	20362.66
482.85	20650.55
483.03	20765.23
483.21	20980.56
483.39	21085.89
483.57	21233.34
483.74	21025.03
483.92	21481.44
484.10	21387.82
484.28	21837.20
484.46	22195.30
484.64	22405.95
484.82	22267.86
485.00	22527.66
485.18	23091.73
485.35	23309.40
485.53	23173.64
485.71	23136.20
485.89	23627.71
486.07	23405.36
486.25	23681.54
486.43	23969.43
486.61	24109.86
486.78	24264.33
486.96	24327.53
487.14	24999.26
487.32	24533.50
487.50	25062.46
487.68	25245.02
487.85	25759.94
488.03	25631.21
488.21	26281.88
488.39	26115.70
488.57	26492.52
488.75	26696.15
488.92	26733.60
489.10	26984.04
489.28	27267.24
489.46	27337.46
489.64	27227.45
489.81	27917.91
489.99	28011.53
490.17	28229.20
490.35	28559.22
490.53	28414.10
490.70	28917.32
490.88	28474.96
491.06	29008.60
491.24	29385.43
491.41	29598.41
491.59	29490.75
491.77	29490.75
491.95	29516.50
492.13	30129.72
492.30	30174.19
492.48	30366.11
492.66	30492.50
492.84	30815.49
493.01	30979.33
493.19	30649.32
493.37	30834.22
493.54	31433.39
493.72	31880.44
493.90	31908.52
494.08	32535.79
494.25	32627.07
494.43	32421.10
494.61	32657.49
494.79	33085.81
494.96	33184.12
495.14	32919.63
495.32	33469.66
495.49	33462.64
495.67	33390.08
495.85	33935.43
496.02	34153.10
496.20	34195.23
496.38	34022.03
496.55	34169.48
496.73	35002.71
496.91	35063.57
497.09	35124.42
497.26	35318.68
497.44	35512.95
497.62	35501.25
497.79	35871.05
497.97	35658.06
498.14	36467.89
498.32	36524.06
498.50	36512.36
498.67	37097.49
498.85	36971.10
499.03	37186.43
499.20	37216.86
499.38	37579.64
499.56	37928.38
499.73	37741.14
499.91	37961.15
500.08	37951.79
500.26	38181.16
500.44	37794.97
500.61	38267.76
500.79	38246.69
500.97	38515.86
501.14	38684.37
501.32	38841.19
501.49	39117.37
501.67	38824.81
501.84	39510.58
502.02	38979.28
502.20	39512.92
502.37	39529.31
502.55	39531.65
502.72	39777.40
502.90	39791.45
503.07	39412.28
503.25	40172.96
503.43	40020.82
503.60	40612.98
503.78	40353.18
503.95	40755.75
504.13	41233.22
504.30	40872.78
504.48	41151.30
504.65	40931.29
504.83	41191.09
505.01	41544.51
505.18	41303.43
505.36	41778.56
505.53	41556.21
505.71	42213.90
505.88	41867.50
506.06	42195.18
506.23	42249.01
506.41	42342.63
506.58	42777.97
506.76	43007.34
506.93	43154.80
507.11	42869.25
507.28	43250.76
507.46	42766.27
507.63	43363.11
507.81	43819.51
507.98	43477.79
508.16	43653.33
508.33	44149.53
508.50	43501.20
508.68	44247.83
508.85	44451.45
509.03	44308.68
509.20	44449.11
509.38	45476.61
509.55	45235.53
509.73	44921.90
509.90	45081.06
510.08	44992.12
510.25	44837.64
510.42	45207.45
510.60	45102.12
510.77	45811.31
510.95	45867.48
511.12	45338.52
511.30	45628.74
511.47	45876.84
511.64	45635.77
511.82	46169.41
511.99	46087.49
512.17	46286.43
512.34	46232.60
512.51	46527.51
512.69	46681.98
512.86	46679.64
513.04	47110.30
513.21	47379.46
513.38	47372.44
513.56	47604.16
513.73	47084.56
513.90	47222.65
514.08	47264.78
514.25	47861.61
514.43	47742.25
514.60	47468.40
514.77	47784.38
514.95	48275.89
515.12	48318.02
515.29	48072.26
515.47	48540.37
515.64	48711.23
515.81	48325.04
515.99	48818.89
516.16	48926.56
516.33	48622.29
516.51	49277.64
516.68	48809.53
516.85	48924.22
517.03	49315.09
517.20	49528.08
517.37	49162.95
517.54	49050.61
517.72	49167.63
517.89	49389.98
518.06	49731.70
518.24	49762.13
518.41	49581.91
518.58	49925.97
518.75	49528.08
518.93	49989.16
519.10	50050.02
519.27	49986.82
519.45	50490.04
519.62	50440.89
519.79	50705.37
519.96	50590.68
520.14	50761.54
520.31	50450.25
520.48	50948.78
520.65	50593.02
520.83	50864.52
521.00	51452.00
521.17	50820.05
521.34	50911.33
521.52	51035.38
521.69	51016.66
521.86	51199.22
522.03	51503.49
522.20	51707.12
522.38	52168.20
522.55	51887.34
522.72	51751.59
522.89	51580.73
523.07	52374.17
523.24	51824.14
523.41	52254.80
523.58	51870.95
523.75	52399.91
523.92	52114.37
524.10	52392.89
524.27	52364.81
524.44	52207.99
524.61	52488.85
524.78	52762.70
524.96	52360.12
525.13	52739.29
525.30	52432.68
525.47	52823.55
525.64	53031.86
525.81	53015.47
525.98	52949.94
526.16	52973.34
526.33	53296.34
526.50	53359.53
526.67	53230.80
526.84	53109.10
527.01	53324.43
527.18	53331.45
527.36	53467.20
527.53	53722.32
527.70	53783.17
527.87	53806.58
528.04	53553.80
528.21	53556.14
528.38	53743.38
528.55	53942.33
528.72	53727.00
528.89	54204.47
529.07	53701.25
529.24	53860.41
529.41	54103.82
529.58	54064.03
529.75	53991.48
529.92	54199.79
530.09	54300.43
530.26	54485.33
530.43	54450.22
530.60	54211.49
530.77	53986.80
530.94	54272.34
531.11	54440.86
531.28	54508.74
531.46	54604.70
531.63	54756.83
531.80	54457.24
531.97	54595.34
532.14	54789.60
532.31	55096.21
532.48	54986.21
532.65	55082.17
532.82	55063.44
532.99	54803.64
533.16	54684.28
533.33	55075.15
533.50	54993.23
533.67	55136.00
533.84	54962.80
534.01	55466.02
534.18	55178.13
534.35	55543.25
534.52	55302.18
534.69	55288.13
534.86	55606.45
535.03	55234.30
535.20	55423.89
535.37	55730.50
535.54	55515.17
535.71	55646.24
535.88	55744.54
536.05	55711.77
536.22	55847.52
536.38	55842.84
536.55	55681.34
536.72	55877.95
536.89	56034.77
537.06	56030.08
537.23	56254.78
537.40	56079.24
537.57	56177.54
537.74	56179.88
537.91	56423.29
538.08	56177.54
538.25	56069.87
538.42	56460.74
538.59	56397.55
538.75	56226.69
538.92	56399.89
539.09	56491.17
539.26	56402.23
539.43	56442.02
539.60	56610.54
539.77	56652.67
539.94	56896.08
540.11	56645.65
540.28	56706.50
540.44	56636.28
540.61	56797.78
540.78	56608.20
540.95	56701.82
541.12	56818.84
541.29	56825.87
541.46	56739.27
541.62	56853.95
541.79	56678.41
541.96	56743.95
542.13	56868.00
542.30	56968.64
542.47	57106.73
542.63	57090.35
542.80	57179.29
542.97	57441.43
543.14	57619.31
543.31	57509.30
543.48	57441.43
543.64	57991.45
543.81	57336.10
543.98	57668.46
544.15	57654.42
544.32	57783.15
544.48	57867.40
544.65	57528.03
544.82	57963.37
544.99	57368.87
545.16	57778.46
545.32	57956.35
545.49	57989.11
545.66	58038.26
545.83	57921.24
546.00	57963.37
546.16	57942.30
546.33	57984.43
546.50	57907.19
546.67	58056.99
546.83	57631.01
547.00	58145.93
547.17	57954.00
547.34	58176.36
547.50	58176.36
547.67	58202.10
547.84	58159.97
548.00	58487.65
548.17	58719.36
548.34	58534.46
548.51	58525.10
548.67	58504.03
548.84	58291.04
549.01	58403.39
549.18	58543.82
549.34	58494.67
549.51	58553.18
549.68	58635.10
549.84	58607.01
550.01	58698.30
550.18	58443.18
550.34	58726.38
550.51	58791.92
550.68	58637.44
550.84	58391.68
551.01	59047.04
551.18	58798.94
551.34	58838.73
551.51	58824.68
551.68	59037.67
551.84	58803.62
552.01	58878.52
552.18	59075.12
552.34	58852.77
552.51	59004.91
552.68	58827.02
552.84	59114.91
553.01	59295.13
553.18	59290.45
553.34	59192.15
553.51	59070.44
553.67	58976.82
553.84	59409.82
554.01	59208.53
554.17	59206.19
554.34	59185.13
554.51	59236.62
554.67	59430.88
554.84	59344.28
555.00	59470.67
555.17	59374.71
555.33	59393.43
555.50	59372.37
555.67	59384.07
555.83	59358.33
556.00	59451.95
556.16	59765.58
556.33	59540.89
556.50	59568.97
556.66	59653.23
556.83	59463.65
556.99	59487.06
557.16	59931.76
557.32	59765.58
557.49	59936.44
557.65	59550.25
557.82	59480.03
557.98	59620.47
558.15	59676.64
558.32	59838.14
558.48	59503.44
558.65	59693.02
558.81	59913.03
558.98	59767.92
559.14	60147.09
559.31	59936.44
559.47	59971.55
559.64	59994.95
559.80	59819.41
559.97	60086.23
560.13	60020.70
560.30	60055.81
560.46	59894.31
560.63	60060.49
560.79	60088.57
560.96	60177.51
561.12	60336.67
561.29	60331.99
561.45	60144.75
561.61	60165.81
561.78	60018.36
561.94	59894.31
562.11	60048.78
562.27	60341.35
562.44	60313.26
562.60	60219.64
562.77	60191.56
562.93	60041.76
563.10	60184.54
563.26	60037.08
563.42	60575.40
563.59	60439.65
563.75	60128.36
563.92	60514.55
564.08	60313.26
564.24	60334.33
564.41	60547.32
564.57	60441.99
564.74	60425.61
564.90	60355.39
565.07	60224.32
565.23	60537.96
565.39	60446.68
565.56	60383.48
565.72	60458.38
565.88	60472.42
566.05	60324.97
566.21	60282.84
566.38	60467.74
566.54	60612.85
566.70	60678.39
566.87	60755.63
567.03	60456.04
567.19	60622.22
567.36	60711.16
567.52	60357.74
567.68	60809.46
567.85	60575.40
568.01	60673.71
568.17	60439.65
568.34	60727.54
568.50	60647.96
568.66	60507.53
568.83	60701.79
568.99	60533.28
569.15	60563.70
569.32	60760.31
569.48	60652.64
569.64	60725.20
569.81	60676.05
569.97	60636.26
570.13	60617.53
570.30	60776.69
570.46	60786.05
570.62	60879.67
570.78	60643.28
570.95	60722.86
571.11	60921.80
571.27	60926.49
571.43	60982.66
571.60	60779.03
571.76	60889.04
571.92	61003.72
572.09	60800.10
572.25	60734.56
572.41	60947.55
572.57	60839.89
572.74	60975.64
572.90	60879.67
573.06	61066.92
573.22	60772.01
573.38	60863.29
573.55	61020.11
573.71	61015.43
573.87	60804.78
574.03	60825.84
574.20	61059.90
574.36	60973.30
574.52	61104.37
574.68	60907.76
574.84	61200.33
575.01	61050.53
575.17	61062.24
575.33	60846.91
575.49	61095.00
575.65	60926.49
575.82	60938.19
575.98	60994.36
576.14	61151.18
576.30	61144.16
576.46	60912.44
576.62	61008.40
576.79	61132.45
576.95	61024.79
577.11	61050.53
577.27	61090.32
577.43	61076.28
577.59	61020.11
577.75	60865.63
577.92	60762.65
578.08	61144.16
578.24	61057.56
578.40	61289.27
578.56	61008.40
578.72	61008.40
578.88	61167.56
579.04	61106.71
579.21	61179.26
579.37	61279.91
579.53	61132.45
579.69	61073.94
579.85	61024.79
580.01	61022.45
580.17	61073.94
580.33	61195.65
580.49	61169.90
580.65	61277.57
580.82	61188.63
580.98	61099.68
581.14	60882.02
581.30	61116.07
581.46	61162.88
581.62	61165.22
581.78	61090.32
581.94	61106.71
582.10	61134.79
582.26	61153.52
582.42	61300.97
582.58	61172.24
582.74	61265.86
582.90	61123.09
583.06	61212.03
583.22	61219.05
583.38	61326.72
583.54	61200.33
583.70	61214.37
583.86	61340.76
584.02	61258.84
584.18	61326.72
584.34	61336.08
584.50	61293.95
584.66	61254.16
584.82	60949.89
584.98	61434.38
585.14	61413.32
585.30	61205.01
585.46	61396.93
585.62	61205.01
585.78	61333.74
585.94	61087.98
586.10	61354.80
586.26	61373.53
586.42	61448.42
586.58	61408.64
586.74	61242.46
586.90	61345.44
587.06	61186.28
587.22	61300.97
587.38	61357.14
587.54	61567.79
587.70	61324.38
587.86	61371.19
588.02	61291.61
588.18	61427.36
588.34	61286.93
588.49	61176.92
