SpectraSuite Data File
++++++++++++++++++++++++++++++++++++
Date: Fri Oct 25 11:34:40 EDT 2013
User: price-jones
Dark Spectrum Present: No
Reference Spectrum Present: No
Number of Sampled Component Spectra: 1
Spectrometers: USB2+H05261
Integration Time (usec): 100000 (USB2+H05261)
Spectra Averaged: 1 (USB2+H05261)
Boxcar Smoothing: 0 (USB2+H05261)
Correct for Electrical Dark: No (USB2+H05261)
Strobe/Lamp Enabled: No (USB2+H05261)
Correct for Detector Non-linearity: No (USB2+H05261)
Correct for Stray Light: No (USB2+H05261)
Number of Pixels in Processed Spectrum: 2048
>>>>>Begin Processed Spectral Data<<<<<
365.73	318.31
365.92	318.31
366.12	318.31
366.32	156.82
366.52	149.79
366.72	175.54
366.91	154.48
367.11	145.11
367.31	201.29
367.51	168.52
367.70	180.22
367.90	229.37
368.10	119.37
368.30	147.45
368.49	126.39
368.69	173.20
368.89	234.05
369.09	224.69
369.28	170.86
369.48	224.69
369.68	208.31
369.87	194.26
370.07	194.26
370.27	271.50
370.47	262.14
370.66	430.66
370.86	484.49
371.06	533.64
371.25	571.09
371.45	463.43
371.65	559.39
371.84	547.69
372.04	582.79
372.24	571.09
372.44	535.98
372.63	711.52
372.83	641.31
373.03	650.67
373.22	610.88
373.42	589.82
373.62	601.52
373.81	648.33
374.01	578.11
374.21	627.26
374.40	601.52
374.60	615.56
374.79	631.94
374.99	617.90
375.19	676.41
375.38	629.60
375.58	676.41
375.78	674.07
375.97	592.16
376.17	748.97
376.37	751.31
376.56	741.95
376.76	585.13
376.95	688.12
377.15	711.52
377.35	751.31
377.54	692.80
377.74	690.46
377.93	601.52
378.13	758.33
378.33	697.48
378.52	631.94
378.72	711.52
378.91	723.23
379.11	702.16
379.31	683.44
379.50	688.12
379.70	692.80
379.89	702.16
380.09	695.14
380.28	716.20
380.48	709.18
380.68	763.01
380.87	713.86
381.07	685.78
381.26	720.88
381.46	807.48
381.65	812.17
381.85	744.29
382.04	777.06
382.24	716.20
382.43	753.65
382.63	662.37
382.83	784.08
383.02	772.38
383.22	779.40
383.41	758.33
383.61	772.38
383.80	805.14
384.00	835.57
384.19	763.01
384.39	798.12
384.58	835.57
384.78	812.17
384.97	861.32
385.17	755.99
385.36	760.67
385.56	788.76
385.75	781.74
385.95	819.19
386.14	812.17
386.34	763.01
386.53	830.89
386.72	858.98
386.92	870.68
387.11	929.19
387.31	816.85
387.50	777.06
387.70	755.99
387.89	908.13
388.09	894.08
388.28	830.89
388.48	833.23
388.67	884.72
388.86	870.68
389.06	964.30
389.25	936.21
389.45	868.34
389.64	957.28
389.84	999.41
390.03	903.45
390.22	954.94
390.42	961.96
390.61	915.15
390.81	880.04
391.00	924.51
391.19	1043.88
391.39	1043.88
391.58	968.98
391.78	959.62
391.97	961.96
392.16	1041.54
392.36	1018.13
392.55	1041.54
392.75	1006.43
392.94	1043.88
393.13	1032.18
393.33	1011.11
393.52	1123.46
393.71	1121.12
393.91	1121.12
394.10	992.39
394.29	1034.52
394.49	992.39
394.68	1029.84
394.88	1111.75
395.07	1062.60
395.26	1144.52
395.46	1095.37
395.65	1158.57
395.84	1203.04
396.04	1170.27
396.23	1214.74
396.42	1076.65
396.62	1137.50
396.81	1177.29
397.00	1177.29
397.19	1214.74
397.39	1123.46
397.58	1196.01
397.77	1242.82
397.97	1233.46
398.16	1167.93
398.35	1212.40
398.55	1224.10
398.74	1233.46
398.93	1226.44
399.12	1247.51
399.32	1233.46
399.51	1179.63
399.70	1235.80
399.90	1287.29
400.09	1350.49
400.28	1362.19
400.47	1313.04
400.67	1315.38
400.86	1423.05
401.05	1357.51
401.24	1310.70
401.44	1357.51
401.63	1380.92
401.82	1324.74
402.01	1397.30
402.21	1411.34
402.40	1406.66
402.59	1355.17
402.78	1423.05
402.97	1434.75
403.17	1392.62
403.36	1481.56
403.55	1427.73
403.74	1462.83
403.93	1448.79
404.13	1619.65
404.32	1486.24
404.51	1577.52
404.70	1626.67
404.89	1528.37
405.09	1624.33
405.28	1666.46
405.47	1537.73
405.66	1654.76
405.85	1586.88
406.05	1671.14
406.24	1650.08
406.43	1629.01
406.62	1673.48
406.81	1696.89
407.00	1647.74
407.20	1654.76
407.39	1633.69
407.58	1816.26
407.77	1755.40
407.96	1746.04
408.15	1823.28
408.34	1755.40
408.54	1830.30
408.73	1804.55
408.92	1872.43
409.11	1996.48
409.30	1956.69
409.49	1888.81
409.68	1846.68
409.87	1928.60
410.07	1942.64
410.26	1998.82
410.45	1900.52
410.64	2001.16
410.83	1926.26
411.02	1902.86
411.21	2167.34
411.40	2022.22
411.59	1996.48
411.78	2160.31
411.98	2090.10
412.17	2059.67
412.36	2136.91
412.55	2270.32
412.74	2291.38
412.93	2183.72
413.12	2157.97
413.31	2342.88
413.50	2256.28
413.69	2328.83
413.88	2305.43
414.07	2394.37
414.26	2427.14
414.45	2387.35
414.64	2434.16
414.83	2455.22
415.02	2436.50
415.22	2476.29
415.41	2485.65
415.60	2574.59
415.79	2644.81
415.98	2647.15
416.17	2593.31
416.36	2600.34
416.55	2665.87
416.74	2729.06
416.93	2682.25
417.12	2665.87
417.31	2731.41
417.50	2715.02
417.69	2782.90
417.88	2874.18
418.07	2813.32
418.26	2818.00
418.45	2874.18
418.64	2930.35
418.83	2843.75
419.02	2963.12
419.21	2970.14
419.39	2937.37
419.58	2904.60
419.77	2909.29
419.96	2923.33
420.15	3129.30
420.34	3059.08
420.53	2939.71
420.72	3063.76
420.91	3089.51
421.10	3236.96
421.29	3159.72
421.48	2988.86
421.67	3157.38
421.86	3105.89
422.05	3042.70
422.24	3166.74
422.43	3260.37
422.61	3150.36
422.80	3194.83
422.99	3197.17
423.18	3187.81
423.37	3295.47
423.56	3169.09
423.75	3234.62
423.94	3159.72
424.13	2981.84
424.32	3183.13
424.50	3311.86
424.69	3311.86
424.88	3377.39
425.07	3208.87
425.26	3183.13
425.45	3279.09
425.64	3272.07
425.83	3253.34
426.01	3234.62
426.20	3337.60
426.39	3335.26
426.58	3251.00
426.77	3290.79
426.96	3485.06
427.15	3332.92
427.33	3461.65
427.52	3459.31
427.71	3552.93
427.90	3529.53
428.09	3442.93
428.28	3478.04
428.46	3548.25
428.65	3541.23
428.84	3611.45
429.03	3700.39
429.22	3515.48
429.40	3581.02
429.59	3564.64
429.78	3543.57
429.97	3487.40
430.16	3508.46
430.34	3737.84
430.53	3599.74
430.72	3669.96
430.91	3545.91
431.10	3646.55
431.28	3803.37
431.47	3758.90
431.66	3866.56
431.85	3789.33
432.03	3815.07
432.22	3918.06
432.41	3775.28
432.60	3801.03
432.79	3941.46
432.97	3927.42
433.16	3770.60
433.35	3922.74
433.54	3918.06
433.72	3913.38
433.91	3962.53
434.10	4018.70
434.28	3992.95
434.47	3978.91
434.66	4128.70
434.85	4042.11
435.03	4203.60
435.22	4189.56
435.41	4269.14
435.59	4065.51
435.78	4236.37
435.97	4219.99
436.16	4257.43
436.34	4236.37
436.53	4245.73
436.72	4313.61
436.90	4177.86
437.09	4285.52
437.28	4266.80
437.46	4283.18
437.65	4297.22
437.84	4430.63
438.02	4411.91
438.21	4444.68
438.40	4475.10
438.58	4390.84
438.77	4519.57
438.96	4468.08
439.14	4727.88
439.33	4568.73
439.52	4510.21
439.70	4669.37
439.89	4849.59
440.08	4833.21
440.26	4669.37
440.45	4753.63
440.63	4926.83
440.82	4889.38
441.01	4894.06
441.19	4821.50
441.38	5071.94
441.57	4922.15
441.75	5111.73
441.94	5165.56
442.12	5116.41
442.31	5305.99
442.50	5043.85
442.68	5170.24
442.87	5125.77
443.05	5219.39
443.24	5331.74
443.43	5221.74
443.61	5219.39
443.80	5404.30
443.98	5018.11
444.17	4973.64
444.35	5224.08
444.54	5416.00
444.73	5287.27
444.91	5434.72
445.10	5448.77
445.28	5507.28
445.47	5327.06
445.65	5338.76
445.84	5614.95
446.02	5441.75
446.21	5476.85
446.39	5404.30
446.58	5341.10
446.77	5645.37
446.95	5378.55
447.14	5448.77
447.32	5493.24
447.51	5460.47
447.69	5430.04
447.88	5533.03
448.06	5420.68
448.25	5401.96
448.43	5600.90
448.62	5591.54
448.80	5558.77
448.99	5593.88
449.17	5462.81
449.36	5577.50
449.54	5570.48
449.73	5741.33
449.91	5846.66
450.10	5778.78
450.28	5633.67
450.46	5832.62
450.65	5631.33
450.83	5858.36
451.02	5802.19
451.20	6017.52
451.39	5802.19
451.57	5877.09
451.76	5715.59
451.94	6019.86
452.13	6017.52
452.31	5813.89
452.49	5888.79
452.68	5930.92
452.86	5900.49
453.05	5973.05
453.23	5914.53
453.42	6040.92
453.60	5961.34
453.78	6080.71
453.97	6031.56
454.15	6104.12
454.34	6033.90
454.52	6148.59
454.70	6171.99
454.89	6193.06
455.07	6258.59
455.26	6389.66
455.44	6480.94
455.62	6232.85
455.81	6181.35
455.99	6317.11
456.17	6289.02
456.36	6263.27
456.54	6462.22
456.73	6586.27
456.91	6602.65
457.09	6569.88
457.28	6752.45
457.46	6530.09
457.64	6616.69
457.83	6593.29
458.01	6693.93
458.19	6808.62
458.38	6715.00
458.56	6789.89
458.74	6764.15
458.93	6682.23
459.11	6773.51
459.29	7061.40
459.48	6892.88
459.66	6913.94
459.84	6979.48
460.03	7131.61
460.21	6974.80
460.39	7028.63
460.57	6916.28
460.76	7159.70
460.94	7272.04
461.12	7124.59
461.31	7049.69
461.49	7176.08
461.67	7143.32
461.85	7155.02
462.04	7080.12
462.22	7623.12
462.40	7407.80
462.59	7103.53
462.77	7269.70
462.95	7485.03
463.13	7234.60
463.32	7499.08
463.50	7515.46
463.68	7466.31
463.86	7452.27
464.05	7302.47
464.23	7304.81
464.41	7616.10
464.59	7424.18
464.78	7749.51
464.96	7438.22
465.14	7447.58
465.32	7555.25
465.50	7728.45
465.69	7943.78
465.87	7679.30
466.05	7700.36
466.23	7754.19
466.41	7880.58
466.60	7857.18
466.78	7599.72
466.96	7782.28
467.14	7815.05
467.32	7932.08
467.51	7960.16
467.69	7728.45
467.87	7936.76
468.05	7901.65
468.23	7866.54
468.41	7908.67
468.60	7873.56
468.78	8177.83
468.96	7903.99
469.14	8135.70
469.32	8271.45
469.50	7969.52
469.69	8421.25
469.87	8262.09
470.05	8184.85
470.23	8297.20
470.41	8351.03
470.59	8301.88
470.77	8336.99
470.95	8393.16
471.14	8512.53
471.32	8212.94
471.50	8641.26
471.68	8671.68
471.86	8678.71
472.04	8594.45
472.22	8856.59
472.40	8599.13
472.58	8741.90
472.77	8905.74
472.95	8903.40
473.13	9303.63
473.31	8896.38
473.49	8912.76
473.67	8971.27
473.85	8943.19
474.03	9338.74
474.21	9217.03
474.39	9350.44
474.57	9387.89
474.75	9214.69
474.93	9341.08
475.12	9324.69
475.30	9502.58
475.48	9298.95
475.66	9460.45
475.84	9570.45
476.02	9799.82
476.20	9696.84
476.38	9755.35
476.56	9860.68
476.74	9977.70
476.92	10015.15
477.10	9898.13
477.28	10129.84
477.46	10260.91
477.64	10054.94
477.82	10160.27
478.00	10640.08
478.18	10520.71
478.36	10452.83
478.54	10677.52
478.72	10548.79
478.90	10843.70
479.08	10890.51
479.26	10843.70
479.44	10918.60
479.62	11124.57
479.80	11087.12
479.98	11669.91
480.16	11566.93
480.34	11426.50
480.52	11557.57
480.70	11452.24
480.88	11421.81
481.06	11534.16
481.24	11623.10
481.41	12175.47
481.59	11953.12
481.77	12109.93
481.95	12287.81
482.13	12369.73
482.31	12334.62
482.49	12718.47
482.67	12453.99
482.85	12865.92
483.03	12791.03
483.21	12744.22
483.39	12922.10
483.57	12950.18
483.74	13331.69
483.92	13111.68
484.10	13291.90
484.28	13441.70
484.46	13717.88
484.64	14101.73
484.82	13804.48
485.00	13715.54
485.18	14363.87
485.35	14314.72
485.53	14127.47
485.71	14200.03
485.89	14546.43
486.07	14501.96
486.25	14607.28
486.43	14590.90
486.61	14864.74
486.78	14946.66
486.96	14878.79
487.14	15267.31
487.32	15281.36
487.50	15424.13
487.68	15494.35
487.85	15470.94
488.03	15716.70
488.21	16086.50
488.39	16067.78
488.57	16166.08
488.75	16290.13
488.92	16533.54
489.10	16510.14
489.28	16570.99
489.46	16713.77
489.64	16725.47
489.81	17198.26
489.99	16793.34
490.17	17193.58
490.35	17958.93
490.53	17495.50
490.70	17397.20
490.88	17331.67
491.06	17816.16
491.24	17816.16
491.41	17916.80
491.59	18115.75
491.77	18160.22
491.95	18256.18
492.13	18286.61
492.30	18661.09
492.48	18499.59
492.66	18944.30
492.84	18527.68
493.01	18988.77
493.19	18780.46
493.37	18974.72
493.54	19239.20
493.72	19597.31
493.90	19466.24
494.08	19367.93
494.25	19927.32
494.43	19939.02
494.61	20011.58
494.79	20006.90
494.96	20013.92
495.14	20280.74
495.32	20688.00
495.49	20432.88
495.67	20704.38
495.85	20947.79
496.02	21151.42
496.20	21006.31
496.38	20779.28
496.55	21228.66
496.73	21539.95
496.91	21010.99
497.09	21549.31
497.26	21329.30
497.44	21720.17
497.62	21757.62
497.79	22155.51
497.97	21886.35
498.14	21898.05
498.32	22396.59
498.50	22209.34
498.67	22483.19
498.85	22705.54
499.03	22469.14
499.20	22794.48
499.38	22742.99
499.56	22794.48
499.73	23101.09
499.91	22857.67
500.08	23311.74
500.26	23208.75
500.44	23477.91
500.61	23372.59
500.79	23358.55
500.97	23779.84
501.14	24009.22
501.32	23953.04
501.49	23655.79
501.67	23819.63
501.84	24498.39
502.02	24341.57
502.20	23838.36
502.37	24046.66
502.55	23974.11
502.72	24381.36
502.90	24514.77
503.07	24753.51
503.25	24807.34
503.43	24175.39
503.60	24655.20
503.78	24971.18
503.95	24952.45
504.13	25158.42
504.30	25027.35
504.48	25406.52
504.65	25165.44
504.83	25551.63
505.01	25504.82
505.18	25439.28
505.36	25748.23
505.53	25282.47
505.71	25881.64
505.88	25968.24
506.06	26073.57
506.23	26148.46
506.41	25832.49
506.58	25886.32
506.76	26363.79
506.93	26658.70
507.11	26614.23
507.28	26597.85
507.46	26438.69
507.63	26293.58
507.81	26946.59
507.98	26333.37
508.16	27065.96
508.33	27192.34
508.50	27171.28
508.68	26958.29
508.85	27094.04
509.03	27133.83
509.20	27227.45
509.38	27723.65
509.55	27515.34
509.73	27768.12
509.90	27831.31
510.08	27456.82
510.25	27763.43
510.42	28201.11
510.60	28098.13
510.77	28161.33
510.95	28463.25
511.12	27927.27
511.30	28119.20
511.47	28322.82
511.64	28283.03
511.82	28882.21
511.99	28577.94
512.17	28594.32
512.34	28835.40
512.51	29102.22
512.69	28706.67
512.86	29170.10
513.04	28973.49
513.21	28971.15
513.38	29097.54
513.56	29291.80
513.73	29228.61
513.90	29497.77
514.08	29495.43
514.25	30412.92
514.43	29291.80
514.60	29439.26
514.77	29914.39
514.95	29776.30
515.12	29956.52
515.29	29989.28
515.47	30171.85
515.64	30319.30
515.81	29972.90
515.99	30387.18
516.16	30714.85
516.33	30373.13
516.51	30403.56
516.68	30525.27
516.85	30398.88
517.03	30941.88
517.20	31140.83
517.37	30787.41
517.54	30948.90
517.72	30656.34
517.89	30661.02
518.06	31154.87
518.24	31101.04
518.41	31585.53
518.58	31487.23
518.75	31512.97
518.93	31431.05
519.10	31353.82
519.27	31304.67
519.45	31356.16
519.62	31974.06
519.79	31983.42
519.96	31732.98
520.14	32149.60
520.31	32046.62
520.48	31852.35
520.65	32137.90
520.83	32938.36
521.00	32556.85
521.17	32355.57
521.34	32725.37
521.52	32627.07
521.69	32783.88
521.86	32788.56
522.03	32800.27
522.20	32919.63
522.38	33282.42
522.55	33188.80
522.72	33003.89
522.89	32987.51
523.07	33528.17
523.24	33170.07
523.41	33331.57
523.58	33298.80
523.75	33631.16
523.92	33151.35
524.10	33811.38
524.27	33354.97
524.44	33837.12
524.61	34036.07
524.78	33876.91
524.96	34258.42
525.13	33846.49
525.30	34349.70
525.47	34153.10
525.64	34487.79
525.81	34005.64
525.98	34569.71
526.16	34464.39
526.33	34195.23
526.50	34291.19
526.67	34415.24
526.84	34469.07
527.01	34455.03
527.18	34588.44
527.36	34649.29
527.53	34558.01
527.70	34916.11
527.87	35075.27
528.04	35075.27
528.21	34653.97
528.38	34948.88
528.55	35225.06
528.72	34773.34
528.89	35058.88
529.07	34944.20
529.24	35068.25
529.41	35136.12
529.58	35487.20
529.75	34962.92
529.92	35239.11
530.09	35566.78
530.26	35683.81
530.43	35505.93
530.60	35580.82
530.77	35405.28
530.94	35557.42
531.11	35665.08
531.28	35377.20
531.46	35725.94
531.63	35882.75
531.80	35957.65
531.97	35849.99
532.14	36271.28
532.31	35875.73
532.48	36292.35
532.65	36680.88
532.82	36156.60
532.99	36353.20
533.16	36503.00
533.33	36421.08
533.50	36264.26
533.67	36329.80
533.84	36308.73
534.01	36540.44
534.18	36657.47
534.35	37230.90
534.52	37354.95
534.69	36865.78
534.86	37031.96
535.03	36903.23
535.20	37202.82
535.37	37209.84
535.54	37102.17
535.71	36985.15
535.88	37329.20
536.05	37287.07
536.22	37474.32
536.38	37748.16
536.55	37060.04
536.72	37493.04
536.89	37385.38
537.06	37581.98
537.23	38036.05
537.40	37153.66
537.57	37881.57
537.74	37518.79
537.91	38017.32
538.08	37668.58
538.25	37277.71
538.42	37853.48
538.59	37944.76
538.75	38220.95
538.92	37865.19
539.09	38218.61
539.26	38192.86
539.43	38347.34
539.60	38197.54
539.77	38302.87
539.94	38120.31
540.11	38408.19
540.28	38387.13
540.44	38422.23
540.61	38094.56
540.78	38574.37
540.95	38932.47
541.12	38576.71
541.29	38174.14
541.46	38550.96
541.62	38588.41
541.79	39143.12
541.96	38649.27
542.13	38862.26
542.30	38988.64
542.47	38871.62
542.63	38941.83
542.80	39084.61
542.97	39414.62
543.14	39548.03
543.31	39414.62
543.48	39908.47
543.64	39522.29
543.81	39765.70
543.98	39800.81
544.15	39735.27
544.32	39859.32
544.48	39948.26
544.65	39974.01
544.82	39632.29
544.99	39739.96
545.16	39873.37
545.32	40224.45
545.49	39978.69
545.66	40301.68
545.83	40245.51
546.00	39929.54
546.16	40259.55
546.33	40280.62
546.50	39952.94
546.67	40531.06
546.83	39688.46
547.00	40210.40
547.17	40299.34
547.34	40292.32
547.50	40678.51
547.67	41010.87
547.84	40294.66
548.00	40755.75
548.17	41282.37
548.34	40655.11
548.51	41008.53
548.67	40989.80
548.84	40610.64
549.01	40432.75
549.18	40842.35
549.34	41092.79
549.51	41469.61
549.68	41209.81
549.84	41069.38
550.01	41371.31
550.18	41010.87
550.34	41024.91
550.51	41509.40
550.68	41434.50
550.84	41118.53
551.01	41331.52
551.18	41088.10
551.34	41174.70
551.51	41469.61
551.68	41373.65
551.84	41174.70
552.01	41401.74
552.18	41460.25
552.34	41493.02
552.51	41668.56
552.68	41537.49
552.84	42113.26
553.01	41930.70
553.18	41460.25
553.34	41717.71
553.51	41284.71
553.67	41862.82
553.84	41970.49
554.01	41743.45
554.17	42174.11
554.34	42424.55
554.51	41794.95
554.67	42419.87
554.84	42354.33
555.00	41855.80
555.17	42047.72
555.33	42148.37
555.50	42036.02
555.67	42092.19
555.83	42265.39
556.00	42462.00
556.16	43028.41
556.33	42518.17
556.50	42511.15
556.66	42373.06
556.83	42129.64
556.99	42532.22
557.16	42941.81
557.32	42546.26
557.49	42768.61
557.65	42623.50
557.82	42239.65
557.98	42483.06
558.15	42672.65
558.32	42913.72
558.48	42756.91
558.65	43192.25
558.81	42497.11
558.98	42733.50
559.14	42485.40
559.31	42717.12
559.47	43056.50
559.64	43164.16
559.80	42831.80
559.97	43021.39
560.13	42745.20
560.30	42997.98
560.46	43438.00
560.63	43028.41
560.79	43089.26
560.96	43648.65
561.12	43194.59
561.29	43023.73
561.45	43320.98
561.61	43175.86
561.78	42969.90
561.94	43201.61
562.11	43196.93
562.27	43704.82
562.44	43079.90
562.60	43311.61
562.77	43524.60
562.93	43409.92
563.10	43430.98
563.26	43421.62
563.42	43636.95
563.59	43325.66
563.75	43803.13
563.92	43187.56
564.08	43196.93
564.24	43611.20
564.41	43271.82
564.57	43601.84
564.74	43587.80
564.90	43445.02
565.07	43461.41
565.23	43529.28
565.39	43803.13
565.56	43873.34
565.72	43742.27
565.88	43707.16
566.05	43756.32
566.21	43985.69
566.38	43746.95
566.54	43789.08
566.70	43952.92
566.87	43840.57
567.03	44006.75
567.19	44252.51
567.36	44133.14
567.52	43981.01
567.68	44406.98
567.85	43922.49
568.01	44451.45
568.17	44109.74
568.34	44201.02
568.50	43999.73
568.66	43817.17
568.83	43812.49
568.99	44133.14
569.15	43941.22
569.32	43915.47
569.48	43894.41
569.64	44023.14
569.81	44238.47
569.97	44093.35
570.13	44406.98
570.30	44065.27
570.46	43702.48
570.62	44318.04
570.78	44507.63
570.95	44140.16
571.11	44362.51
571.27	44395.28
571.43	44020.80
571.60	44229.10
571.76	44002.07
571.92	44224.42
572.09	44048.88
572.25	44053.56
572.41	44168.25
572.57	44531.03
572.74	44594.23
572.90	44257.19
573.06	44502.95
573.22	44285.28
573.38	44706.57
573.55	44821.26
573.71	44498.26
573.87	44531.03
574.03	44430.39
574.20	44449.11
574.36	44460.82
574.52	44470.18
574.68	44844.66
574.84	44570.82
575.01	44835.30
575.17	44779.13
575.33	45015.52
575.49	44397.62
575.65	44760.40
575.82	44580.18
575.98	44446.77
576.14	44608.27
576.30	45083.40
576.46	44140.16
576.62	44505.29
576.79	44535.71
576.95	44006.75
577.11	44451.45
577.27	44170.59
577.43	44769.77
577.59	44411.67
577.75	44189.31
577.92	44238.47
578.08	44540.39
578.24	44554.44
578.40	45045.95
578.56	44968.71
578.72	44404.64
578.88	44233.78
579.04	44659.76
579.21	44498.26
579.37	44964.03
579.53	44697.21
579.69	44706.57
579.85	44355.49
580.01	44598.91
580.17	44409.32
580.33	44879.77
580.49	44856.37
580.65	44744.02
580.82	44875.09
580.98	44390.60
581.14	44563.80
581.30	44910.20
581.46	44582.52
581.62	44481.88
581.78	44669.12
581.94	44437.41
582.10	45104.46
582.26	44814.24
582.42	44662.10
582.58	45029.57
582.74	44662.10
582.90	44917.22
583.06	44715.93
583.22	44519.33
583.38	44619.97
583.54	44765.09
583.70	44776.79
583.86	44641.04
584.02	44802.53
584.18	44811.90
584.34	45015.52
584.50	45404.05
584.66	45188.72
584.82	44669.12
584.98	45083.40
585.14	45017.86
585.30	44608.27
585.46	45027.23
585.62	44486.56
585.78	44835.30
585.94	44524.01
586.10	44994.46
586.26	44430.39
586.42	44809.56
586.58	45298.73
586.74	44945.31
586.90	44875.09
587.06	44772.11
587.22	45228.51
587.38	44837.64
587.54	44919.56
587.70	45249.58
587.86	45331.50
588.02	44594.23
588.18	44945.31
588.34	44797.85
588.49	44636.36
588.65	44905.52
588.81	44814.24
588.97	44940.63
589.13	45078.72
589.29	44882.11
589.45	45439.16
589.61	44673.81
589.77	45097.44
589.93	45111.49
590.08	45055.31
