SpectraSuite Data File
++++++++++++++++++++++++++++++++++++
Date: Fri Oct 25 10:48:24 EDT 2013
User: price-jones
Dark Spectrum Present: No
Reference Spectrum Present: No
Number of Sampled Component Spectra: 1
Spectrometers: USB2+H05261
Integration Time (usec): 100000 (USB2+H05261)
Spectra Averaged: 1 (USB2+H05261)
Boxcar Smoothing: 0 (USB2+H05261)
Correct for Electrical Dark: No (USB2+H05261)
Strobe/Lamp Enabled: No (USB2+H05261)
Correct for Detector Non-linearity: No (USB2+H05261)
Correct for Stray Light: No (USB2+H05261)
Number of Pixels in Processed Spectrum: 2048
>>>>>Begin Processed Spectral Data<<<<<
365.73	128.73
365.92	128.73
366.12	128.73
366.32	107.66
366.52	53.83
366.72	39.79
366.91	25.75
367.11	56.17
367.31	58.51
367.51	0.00
367.70	65.54
367.90	100.64
368.10	21.06
368.30	98.30
368.49	37.45
368.69	21.06
368.89	0.00
369.09	16.38
369.28	56.17
369.48	110.01
369.68	95.96
369.87	91.28
370.07	65.54
370.27	56.17
370.47	262.14
370.66	358.10
370.86	435.34
371.06	423.64
371.25	468.11
371.45	514.92
371.65	393.21
371.84	472.79
372.04	552.37
372.24	498.53
372.44	475.13
372.63	479.81
372.83	554.71
373.03	477.47
373.22	585.13
373.42	507.90
373.62	491.51
373.81	580.45
374.01	585.13
374.21	547.69
374.40	559.39
374.60	528.96
374.79	636.63
374.99	566.41
375.19	627.26
375.38	578.11
375.58	603.86
375.78	566.41
375.97	627.26
376.17	641.31
376.37	575.77
376.56	587.47
376.76	631.94
376.95	648.33
377.15	650.67
377.35	688.12
377.54	674.07
377.74	688.12
377.93	624.92
378.13	655.35
378.33	596.84
378.52	669.39
378.72	744.29
378.91	704.50
379.11	582.79
379.31	641.31
379.50	634.29
379.70	723.23
379.89	713.86
380.09	713.86
380.28	727.91
380.48	774.72
380.68	706.84
380.87	692.80
381.07	758.33
381.26	695.14
381.46	711.52
381.65	816.85
381.85	753.65
382.04	753.65
382.24	844.93
382.43	772.38
382.63	716.20
382.83	763.01
383.02	809.83
383.22	692.80
383.41	718.54
383.61	786.42
383.80	777.06
384.00	777.06
384.19	805.14
384.39	847.27
384.58	793.44
384.78	784.08
384.97	777.06
385.17	788.76
385.36	798.12
385.56	767.70
385.75	828.55
385.95	882.38
386.14	753.65
386.34	910.47
386.53	849.61
386.72	849.61
386.92	896.43
387.11	950.26
387.31	828.55
387.50	821.53
387.70	826.21
387.89	875.36
388.09	945.58
388.28	873.02
388.48	854.30
388.67	931.53
388.86	961.96
389.06	940.90
389.25	980.68
389.45	978.34
389.64	952.60
389.84	1020.47
390.03	1032.18
390.22	1088.35
390.42	1055.58
390.61	964.30
390.81	1053.24
391.00	1069.62
391.19	1034.52
391.39	1083.67
391.58	1011.11
391.78	994.73
391.97	968.98
392.16	1069.62
392.36	1020.47
392.55	1006.43
392.75	1081.33
392.94	973.66
393.13	1060.26
393.33	945.58
393.52	1011.11
393.71	1188.99
393.91	1018.13
394.10	1135.16
394.29	1128.14
394.49	1184.31
394.68	1184.31
394.88	1191.33
395.07	1238.14
395.26	1163.25
395.46	1184.31
395.65	1240.48
395.84	1245.16
396.04	1350.49
396.23	1245.16
396.42	1144.52
396.62	1179.63
396.81	1221.76
397.00	1210.06
397.19	1287.29
397.39	1291.98
397.58	1394.96
397.77	1320.06
397.97	1336.45
398.16	1392.62
398.35	1542.41
398.55	1385.60
398.74	1511.99
398.93	1565.82
399.12	1453.47
399.32	1413.68
399.51	1448.79
399.70	1409.00
399.90	1549.43
400.09	1514.33
400.28	1689.87
400.47	1544.75
400.67	1621.99
400.86	1619.65
401.05	1589.22
401.24	1671.14
401.44	1640.72
401.63	1671.14
401.82	1636.03
402.01	1563.48
402.21	1764.76
402.40	1783.49
402.59	1727.32
402.78	1724.97
402.97	1717.95
403.17	1678.16
403.36	1813.92
403.55	1860.73
403.74	1830.30
403.93	1865.41
404.13	1809.23
404.32	1785.83
404.51	1813.92
404.70	1877.11
404.89	1905.20
405.09	1907.54
405.28	1792.85
405.47	1860.73
405.66	1921.58
405.85	1916.90
406.05	1863.07
406.24	1956.69
406.43	1975.41
406.62	1963.71
406.81	1954.35
407.00	2064.35
407.20	2029.24
407.39	2022.22
407.58	1998.82
407.77	2181.38
407.96	2097.12
408.15	2165.00
408.34	2059.67
408.54	2204.78
408.73	2214.15
408.92	2291.38
409.11	2253.94
409.30	2326.49
409.49	2216.49
409.68	2195.42
409.87	2179.04
410.07	2310.11
410.26	2289.04
410.45	2361.60
410.64	2389.69
410.83	2242.23
411.02	2502.03
411.21	2555.86
411.40	2502.03
411.59	2605.02
411.78	2586.29
411.98	2471.61
412.17	2457.56
412.36	2534.80
412.55	2661.19
412.74	2775.88
412.93	2689.28
413.12	2754.81
413.31	2789.92
413.50	2717.36
413.69	2740.77
413.88	2813.32
414.07	2801.62
414.26	2820.35
414.45	2848.43
414.64	2874.18
414.83	2874.18
415.02	2752.47
415.22	3052.06
415.41	3026.31
415.60	3075.46
415.79	3169.09
415.98	3096.53
416.17	3119.93
416.36	3274.41
416.55	3035.67
416.74	3098.87
416.93	3110.57
417.12	3061.42
417.31	3281.43
417.50	3349.31
417.69	3361.01
417.88	3309.52
418.07	3419.52
418.26	3442.93
418.45	3372.71
418.64	3510.80
418.83	3391.44
419.02	3384.41
419.21	3433.57
419.39	3487.40
419.58	3311.86
419.77	3442.93
419.96	3524.85
420.15	3578.68
420.34	3487.40
420.53	3676.98
420.72	3721.45
420.91	3620.81
421.10	3665.28
421.29	3822.09
421.48	3658.26
421.67	3822.09
421.86	3620.81
422.05	3782.31
422.24	3667.62
422.43	3779.97
422.61	3824.44
422.80	3880.61
422.99	3892.31
423.18	3824.44
423.37	3936.78
423.56	3878.27
423.75	3906.35
423.94	3754.22
424.13	3534.21
424.32	3700.39
424.50	4044.45
424.69	4042.11
424.88	3819.75
425.07	3838.48
425.26	3824.44
425.45	3749.54
425.64	3873.59
425.83	3833.80
426.01	4014.02
426.20	3852.52
426.39	3899.33
426.58	3808.05
426.77	3791.67
426.96	3932.10
427.15	3962.53
427.33	4124.02
427.52	4079.55
427.71	4035.08
427.90	4152.11
428.09	3964.87
428.28	4046.79
428.46	4088.92
428.65	4173.18
428.84	4081.89
429.03	4124.02
429.22	3976.57
429.40	4060.83
429.59	4049.13
429.78	3927.42
429.97	3983.59
430.16	3850.18
430.34	4182.54
430.53	4023.38
430.72	4056.15
430.91	4070.19
431.10	4215.30
431.28	4334.67
431.47	4538.30
431.66	4678.73
431.85	4461.06
432.03	4552.34
432.22	4571.07
432.41	4610.86
432.60	4629.58
432.79	4496.17
432.97	4521.92
433.16	4578.09
433.35	4454.04
433.54	4545.32
433.72	4512.55
433.91	4533.62
434.10	4730.22
434.28	4641.28
434.47	4779.37
434.66	4830.87
434.85	4793.42
435.03	4760.65
435.22	4746.61
435.41	5036.83
435.59	5057.90
435.78	4863.63
435.97	4975.98
436.16	5008.75
436.34	5006.41
436.53	5050.88
436.72	5254.50
436.90	5060.24
437.09	4999.38
437.28	4910.44
437.46	5121.09
437.65	5057.90
437.84	5001.72
438.02	5041.51
438.21	5064.92
438.40	5083.64
438.58	5352.81
438.77	5195.99
438.96	5287.27
439.14	5390.25
439.33	5425.36
439.52	5582.18
439.70	5465.15
439.89	5603.24
440.08	5640.69
440.26	5593.88
440.45	5556.43
440.63	5762.40
440.82	5762.40
441.01	5858.36
441.19	5867.72
441.38	6015.18
441.57	5956.66
441.75	6064.33
441.94	6099.44
442.12	6118.16
442.31	6157.95
442.50	6111.14
442.68	6326.47
442.87	6078.37
443.05	6040.92
443.24	6363.92
443.43	6162.63
443.61	6263.27
443.80	6499.67
443.98	6317.11
444.17	6214.12
444.35	6396.68
444.54	6326.47
444.73	6375.62
444.91	6314.77
445.10	6328.81
445.28	6272.64
445.47	6370.94
445.65	6429.45
445.84	6352.21
446.02	6466.90
446.21	6487.96
446.39	6296.04
446.58	6525.41
446.77	6579.25
446.95	6190.72
447.14	6420.09
447.32	6518.39
447.51	6593.29
447.69	6429.45
447.88	6469.24
448.06	6511.37
448.25	6408.39
448.43	6377.96
448.62	6541.80
448.80	6562.86
448.99	6476.26
449.17	6719.68
449.36	6637.76
449.54	6953.73
449.73	6822.66
449.91	6974.80
450.10	7084.80
450.28	6895.22
450.46	7016.93
450.65	7054.37
450.83	7194.81
451.02	6981.82
451.20	6993.52
451.39	6939.69
451.57	7073.10
451.76	7056.72
451.94	7105.87
452.13	7131.61
452.31	6972.46
452.49	7012.24
452.68	7059.06
452.86	7157.36
453.05	7218.21
453.23	7103.53
453.42	7152.68
453.60	7215.87
453.78	7290.77
453.97	7098.84
454.15	7232.26
454.34	7066.08
454.52	7360.98
454.70	7276.73
454.89	7485.03
455.07	7316.51
455.26	7414.82
455.44	7363.33
455.62	7548.23
455.81	7360.98
455.99	7527.16
456.17	7688.66
456.36	7644.19
456.54	7660.57
456.73	7679.30
456.91	7847.82
457.09	7957.82
457.28	7978.89
457.46	7845.48
457.64	8013.99
457.83	8030.38
458.01	7714.41
458.19	8156.77
458.38	8032.72
458.56	8067.83
458.74	7838.45
458.93	7962.50
459.11	7899.31
459.29	8128.68
459.48	7929.74
459.66	8105.28
459.84	8362.73
460.03	8339.33
460.21	8414.23
460.39	8299.54
460.57	8428.27
460.76	8449.33
460.94	8456.36
461.12	8432.95
461.31	8383.80
461.49	8416.57
461.67	8430.61
461.85	8341.67
462.04	8627.21
462.22	9160.86
462.40	8688.07
462.59	8564.02
462.77	8713.81
462.95	8760.63
463.13	8730.20
463.32	8683.39
463.50	8755.94
463.68	8772.33
463.86	8861.27
464.05	8702.11
464.23	8828.50
464.41	8919.78
464.59	8624.87
464.78	8901.06
464.96	8762.97
465.14	8917.44
465.32	9069.58
465.50	8879.99
465.69	8964.25
465.87	8992.34
466.05	9039.15
466.23	9100.00
466.41	9011.06
466.60	9165.54
466.78	8812.12
466.96	9025.11
467.14	9034.47
467.32	9294.27
467.51	9266.18
467.69	8849.57
467.87	9383.21
468.05	9266.18
468.23	9071.92
468.41	9247.46
468.60	9481.51
468.78	9219.37
468.96	9252.14
469.14	9303.63
469.32	9511.94
469.50	9224.05
469.69	9483.85
469.87	9507.26
470.05	9706.20
470.23	9745.99
470.41	9589.17
470.59	9813.87
470.77	9762.37
470.95	9671.09
471.14	9820.89
471.32	9888.76
471.50	10176.65
471.68	9891.10
471.86	10012.81
472.04	10139.20
472.22	10274.95
472.40	10038.56
472.58	10068.98
472.77	10235.16
472.95	10569.86
473.13	10724.33
473.31	10321.76
473.49	10106.43
473.67	10122.82
473.85	10621.35
474.03	10759.44
474.21	10637.73
474.39	10822.64
474.57	10775.83
474.75	10902.22
474.93	10857.75
475.12	10951.37
475.30	11124.57
475.48	10925.62
475.66	10796.89
475.84	11117.54
476.02	11049.67
476.20	11403.09
476.38	11459.26
476.56	11740.13
476.74	11737.79
476.92	11681.61
477.10	11552.88
477.28	11705.02
477.46	11971.84
477.64	12053.76
477.82	12037.38
478.00	12325.26
478.18	12245.68
478.36	12341.64
478.54	12325.26
478.72	12435.27
478.90	12589.74
479.08	12711.45
479.26	12835.50
479.44	13062.53
479.62	13032.10
479.80	13004.02
479.98	13186.58
480.16	13315.31
480.34	13135.09
480.52	13516.59
480.70	13589.15
480.88	13371.48
481.06	13551.70
481.24	13451.06
481.41	13757.67
481.59	14122.79
481.77	13848.95
481.95	14078.32
482.13	14305.35
482.31	14214.07
482.49	14670.48
482.67	14677.50
482.85	14794.53
483.03	14778.14
483.21	14920.92
483.39	15105.82
483.57	15122.20
483.74	15197.10
483.92	15250.93
484.10	15150.29
484.28	15295.40
484.46	15915.64
484.64	15990.54
484.82	15700.31
485.00	15690.95
485.18	16240.98
485.35	15957.77
485.53	16245.66
485.71	16140.33
485.89	16023.31
486.07	16161.40
486.25	16180.12
486.43	16716.11
486.61	16720.79
486.78	16908.03
486.96	17289.54
487.14	17301.24
487.32	17664.02
487.50	17694.45
487.68	17820.84
487.85	18015.10
488.03	18160.22
488.21	18038.51
488.39	18317.03
488.57	18218.73
488.75	18218.73
488.92	18717.26
489.10	18888.12
489.28	19400.70
489.46	19487.30
489.64	19304.74
489.81	19648.80
489.99	19761.14
490.17	19695.61
490.35	19969.45
490.53	20013.92
490.70	20030.30
490.88	20409.47
491.06	20182.44
491.24	20304.15
491.41	20439.90
491.59	20425.86
491.77	20467.98
491.95	20648.21
492.13	20915.03
492.30	21366.75
492.48	21362.07
492.66	21401.86
492.84	21245.04
493.01	21942.52
493.19	21460.37
493.37	21876.99
493.54	22214.02
493.72	22176.58
493.90	22263.18
494.08	22429.35
494.25	22672.77
494.43	22546.38
494.61	22934.91
494.79	22724.26
494.96	22904.48
495.14	23091.73
495.32	23297.69
495.49	23098.75
495.67	23433.44
495.85	23552.81
496.02	23927.30
496.20	23723.67
496.38	24175.39
496.55	24072.41
496.73	24507.75
496.91	24184.76
497.09	24315.83
497.26	24676.27
497.44	24542.86
497.62	24999.26
497.79	25230.98
497.97	25001.60
498.14	25219.27
498.32	25118.63
498.50	25270.76
498.67	25427.58
498.85	25961.22
499.03	25659.29
499.20	25659.29
499.38	25755.26
499.56	26174.21
499.73	25783.34
499.91	26052.50
500.08	26293.58
500.26	26043.14
500.44	26490.18
500.61	26529.97
500.79	26113.36
500.97	26513.59
501.14	26920.84
501.32	26855.31
501.49	27082.34
501.67	26904.46
501.84	27407.67
502.02	26721.90
502.20	27718.96
502.37	27566.83
502.55	27536.40
502.72	27564.49
502.90	27772.80
503.07	27583.21
503.25	27564.49
503.43	27901.53
503.60	27548.11
503.78	28079.41
503.95	28252.61
504.13	28142.60
504.30	28233.88
504.48	28020.89
504.65	28606.03
504.83	28704.33
505.01	29160.73
505.18	28364.95
505.36	28835.40
505.53	28701.99
505.71	29771.61
505.88	29111.58
506.06	29034.35
506.23	29340.96
506.41	29099.88
506.58	29273.08
506.76	29411.17
506.93	29827.79
507.11	29474.37
507.28	29736.51
507.46	29460.32
507.63	29661.61
507.81	30118.01
507.98	29537.56
508.16	29813.74
508.33	30174.19
508.50	30237.38
508.68	30522.93
508.85	30368.45
509.03	30810.81
509.20	30923.16
509.38	30766.34
509.55	30731.23
509.73	31007.42
509.90	31049.55
510.08	31014.44
510.25	31154.87
510.42	31229.77
510.60	31463.82
510.77	31234.45
510.95	31489.57
511.12	31363.18
511.30	31761.07
511.47	31775.11
511.64	32107.47
511.82	31721.28
511.99	31962.36
512.17	31988.10
512.34	31938.95
512.51	32353.23
512.69	32355.57
512.86	32325.14
513.04	32622.39
513.21	32627.07
513.38	32479.61
513.56	32856.44
513.73	32360.25
513.90	32556.85
514.08	32697.28
514.25	33001.55
514.43	32828.35
514.60	32823.67
514.77	33343.27
514.95	33582.01
515.12	33165.39
515.29	33158.37
515.47	33596.05
515.64	33809.04
515.81	33364.34
515.99	33097.52
516.16	33432.21
516.33	33479.02
516.51	33415.83
516.68	33507.11
516.85	33748.18
517.03	33226.24
517.20	33352.63
517.37	33862.87
517.54	34321.62
517.72	34012.66
517.89	33881.60
518.06	33825.42
518.24	33940.11
518.41	34017.35
518.58	33785.63
518.75	34438.64
518.93	34558.01
519.10	34370.77
519.27	34829.51
519.45	34682.06
519.62	34768.66
519.79	34904.41
519.96	35225.06
520.14	35318.68
520.31	34976.97
520.48	35377.20
520.65	35070.59
520.83	35679.13
521.00	35337.41
521.17	35409.96
521.34	35445.07
521.52	35452.09
521.69	35810.20
521.86	35943.61
522.03	36079.36
522.20	36058.29
522.38	36280.64
522.55	36346.18
522.72	35929.56
522.89	36250.22
523.07	36458.52
523.24	36142.55
523.41	36762.79
523.58	36584.91
523.75	37067.06
523.92	36435.12
524.10	36620.02
524.27	36767.48
524.44	37127.92
524.61	37060.04
524.78	36905.57
524.96	36931.31
525.13	37603.05
525.30	37556.24
525.47	37677.94
525.64	37500.06
525.81	37315.16
525.98	37170.05
526.16	37160.69
526.33	37340.91
526.50	37610.07
526.67	37015.57
526.84	37474.32
527.01	36973.44
527.18	37680.28
527.36	37771.57
527.53	38038.39
527.70	38785.02
527.87	38263.08
528.04	38174.14
528.21	38429.26
528.38	38234.99
528.55	38220.95
528.72	37928.38
528.89	38761.61
529.07	38829.49
529.24	38431.60
529.41	38733.53
529.58	38513.52
529.75	38625.86
529.92	38260.74
530.09	38539.26
530.26	38466.70
530.43	38934.81
530.60	38827.15
530.77	38536.92
530.94	39131.42
531.11	38852.89
531.28	39552.71
531.46	39124.40
531.63	39335.04
531.80	39049.50
531.97	39601.86
532.14	39414.62
532.31	38710.12
532.48	39129.08
532.65	39372.49
532.82	39983.37
532.99	39679.10
533.16	39143.12
533.33	39838.26
533.50	39723.57
533.67	39646.33
533.84	39262.49
534.01	39665.06
534.18	39840.60
534.35	40184.66
534.52	39913.16
534.69	40439.78
534.86	40594.25
535.03	40184.66
535.20	40224.45
535.37	40383.60
535.54	40683.19
535.71	40259.55
535.88	40458.50
536.05	40341.47
536.22	40802.56
536.38	40528.72
536.55	40458.50
536.72	40336.79
536.89	40369.56
537.06	40781.49
537.23	40580.21
537.40	40683.19
537.57	40610.64
537.74	41055.34
537.91	41464.93
538.08	41504.72
538.25	40861.07
538.42	41130.23
538.59	41092.79
538.75	40512.33
538.92	41273.01
539.09	41205.13
539.26	40921.93
539.43	40840.01
539.60	41352.58
539.77	41160.66
539.94	41134.92
540.11	41139.60
540.28	41127.89
540.44	41043.63
540.61	40938.31
540.78	41551.53
540.95	41591.32
541.12	41528.13
541.29	41294.07
541.46	41544.51
541.62	41823.03
541.79	42321.57
541.96	41511.74
542.13	41511.74
542.30	41778.56
542.47	41881.55
542.63	41696.64
542.80	41661.54
542.97	42597.75
543.14	42749.88
543.31	42108.58
543.48	42223.26
543.64	42759.25
543.81	43194.59
543.98	42885.64
544.15	42356.67
544.32	42993.30
544.48	42960.53
544.65	42644.56
544.82	42623.50
544.99	42440.93
545.16	42780.31
545.32	42368.38
545.49	42871.59
545.66	43110.33
545.83	42691.37
546.00	43522.26
546.16	42993.30
546.33	43222.67
546.50	42476.04
546.67	43086.92
546.83	42850.53
547.00	42799.04
547.17	43061.18
547.34	43356.08
547.50	43388.85
547.67	43313.95
547.84	43426.30
548.00	43721.21
548.17	43793.76
548.34	43028.41
548.51	43505.88
548.67	43634.61
548.84	43728.23
549.01	43772.70
549.18	43927.17
549.34	43943.56
549.51	43395.87
549.68	43796.10
549.84	43906.11
550.01	43943.56
550.18	43962.28
550.34	44013.77
550.51	44018.46
550.68	43449.70
550.84	43391.19
551.01	43983.35
551.18	44147.18
551.34	43842.92
551.51	43934.20
551.68	44041.86
551.84	44322.72
552.01	44147.18
552.18	44016.11
552.34	44168.25
552.51	44388.26
552.68	44182.29
552.84	44399.96
553.01	44800.19
553.18	44285.28
553.34	44306.34
553.51	44299.32
553.67	44456.14
553.84	44418.69
554.01	44854.03
554.17	44587.21
554.34	44643.38
554.51	44744.02
554.67	44596.57
554.84	44631.68
555.00	44769.77
555.17	44479.54
555.33	44884.45
555.50	44488.90
555.67	44868.07
555.83	44575.50
556.00	44919.56
556.16	45102.12
556.33	44825.94
556.50	44989.78
556.66	45272.98
556.83	44491.24
556.99	44816.58
557.16	45350.22
557.32	45132.55
557.49	45174.68
557.65	44870.41
557.82	44905.52
557.98	44800.19
558.15	45085.74
558.32	45329.16
558.48	45097.44
558.65	44982.76
558.81	45160.64
558.98	45092.76
559.14	44839.98
559.31	45036.59
559.47	44966.37
559.64	45801.94
559.80	45448.52
559.97	45319.79
560.13	45240.21
560.30	45476.61
560.46	44971.05
560.63	45177.02
560.79	45476.61
560.96	45500.01
561.12	45111.49
561.29	45249.58
561.45	45249.58
561.61	45298.73
561.78	45404.05
561.94	45425.12
562.11	45373.63
562.27	45326.81
562.44	45556.19
562.60	45492.99
562.77	45418.10
562.93	45305.75
563.10	45956.42
563.26	45319.79
563.42	45951.74
563.59	45230.85
563.75	45567.89
563.92	45972.80
564.08	45968.12
564.24	45825.35
564.41	45811.31
564.57	45890.88
564.74	45778.54
564.90	46075.79
565.07	45682.58
565.23	45418.10
565.39	45523.42
565.56	45970.46
565.72	45925.99
565.88	46019.61
566.05	45750.45
566.21	46033.66
566.38	45598.32
566.54	45911.95
566.70	45694.28
566.87	46167.07
567.03	45415.76
567.19	46038.34
567.36	45996.21
567.52	45815.99
567.68	45970.46
567.85	45869.82
568.01	45757.47
568.17	45249.58
568.34	45895.56
568.50	46059.40
568.66	45914.29
568.83	45883.86
568.99	45467.25
569.15	45773.86
569.32	45495.33
569.48	45750.45
569.64	46007.91
569.81	45762.15
569.97	46000.89
570.13	45869.82
570.30	45776.20
570.46	45324.47
570.62	45626.40
570.78	45783.22
570.95	45542.14
571.11	46185.79
571.27	46038.34
571.43	46162.39
571.60	46625.81
571.76	46216.22
571.92	46057.06
572.09	46078.13
572.25	46043.02
572.41	45872.16
572.57	46047.70
572.74	46951.15
572.90	46740.50
573.06	46150.68
573.22	46258.35
573.38	46110.89
573.55	46220.90
573.71	46696.03
573.87	46000.89
574.03	45738.75
574.20	46167.07
574.36	45902.59
574.52	45993.87
574.68	46270.05
574.84	46241.96
575.01	46248.99
575.17	46443.25
575.33	45935.35
575.49	45977.48
575.65	46424.53
575.82	46553.26
575.98	45984.51
576.14	46340.27
576.30	46150.68
576.46	46117.92
576.62	46192.81
576.79	46138.98
576.95	46101.53
577.11	46171.75
577.27	46286.43
577.43	46115.58
577.59	45521.08
577.75	46291.12
577.92	45909.61
578.08	45930.67
578.24	45724.71
578.40	46256.01
578.56	46071.10
578.72	46043.02
578.88	46309.84
579.04	46316.86
579.21	46293.46
579.37	46546.23
579.53	46263.03
579.69	46148.34
579.85	46277.07
580.01	46382.40
580.17	46457.29
580.33	46670.28
580.49	46199.83
580.65	46660.92
580.82	46232.60
580.98	46232.60
581.14	45865.14
581.30	46604.75
581.46	46153.02
581.62	46197.49
581.78	46450.27
581.94	46534.53
582.10	46597.73
582.26	46344.95
582.42	46232.60
582.58	46487.72
582.74	46459.63
582.90	46059.40
583.06	46487.72
583.22	46597.73
583.38	46660.92
583.54	46394.10
583.70	46457.29
583.86	46225.58
584.02	45958.76
584.18	46000.89
584.34	46305.16
584.50	46256.01
584.66	45989.19
584.82	46122.60
584.98	46616.45
585.14	46604.75
585.30	46450.27
585.46	46513.47
585.62	46412.82
585.78	45986.85
585.94	45804.28
586.10	46143.66
586.26	46309.84
586.42	46784.97
586.58	46241.96
586.74	46410.48
586.90	45776.20
587.06	46560.28
587.22	46791.99
587.38	46256.01
587.54	46637.51
587.70	46532.19
587.86	46323.88
588.02	46253.67
588.18	46583.68
588.34	46174.09
588.49	46176.43
588.65	46169.41
588.81	46005.57
588.97	46377.72
589.13	45780.88
589.29	45759.81
589.45	45750.45
589.61	46443.25
589.77	46230.26
589.93	46153.02
