SpectraSuite Data File
++++++++++++++++++++++++++++++++++++
Date: Fri Oct 25 11:23:03 EDT 2013
User: price-jones
Dark Spectrum Present: No
Reference Spectrum Present: No
Number of Sampled Component Spectra: 1
Spectrometers: USB2+H05261
Integration Time (usec): 100000 (USB2+H05261)
Spectra Averaged: 1 (USB2+H05261)
Boxcar Smoothing: 0 (USB2+H05261)
Correct for Electrical Dark: No (USB2+H05261)
Strobe/Lamp Enabled: No (USB2+H05261)
Correct for Detector Non-linearity: No (USB2+H05261)
Correct for Stray Light: No (USB2+H05261)
Number of Pixels in Processed Spectrum: 2048
>>>>>Begin Processed Spectral Data<<<<<
365.73	264.48
365.92	264.48
366.12	264.48
366.32	138.09
366.52	72.56
366.72	166.18
366.91	39.79
367.11	91.28
367.31	145.11
367.51	140.43
367.70	56.17
367.90	156.82
368.10	154.48
368.30	128.73
368.49	135.75
368.69	177.88
368.89	126.39
369.09	95.96
369.28	227.03
369.48	112.35
369.68	173.20
369.87	194.26
370.07	147.45
370.27	196.60
370.47	327.68
370.66	566.41
370.86	603.86
371.06	709.18
371.25	737.27
371.45	732.59
371.65	765.36
371.84	650.67
372.04	711.52
372.24	683.44
372.44	793.44
372.63	746.63
372.83	744.29
373.03	706.84
373.22	734.93
373.42	744.29
373.62	760.67
373.81	805.14
374.01	849.61
374.21	847.27
374.40	844.93
374.60	781.74
374.79	800.46
374.99	875.36
375.19	741.95
375.38	826.21
375.58	877.70
375.78	849.61
375.97	880.04
376.17	863.66
376.37	840.25
376.56	922.17
376.76	891.74
376.95	873.02
377.15	943.24
377.35	924.51
377.54	936.21
377.74	898.77
377.93	863.66
378.13	868.34
378.33	826.21
378.52	910.47
378.72	978.34
378.91	983.02
379.11	849.61
379.31	884.72
379.50	971.32
379.70	976.00
379.89	1041.54
380.09	1006.43
380.28	1029.84
380.48	1032.18
380.68	954.94
380.87	950.26
381.07	1001.75
381.26	1060.26
381.46	1062.60
381.65	1015.79
381.85	1022.81
382.04	1081.33
382.24	1029.84
382.43	1018.13
382.63	1060.26
382.83	1053.24
383.02	1104.73
383.22	1062.60
383.41	1107.07
383.61	1118.78
383.80	1034.52
384.00	1146.86
384.19	1135.16
384.39	1104.73
384.58	1111.75
384.78	1093.03
384.97	1165.59
385.17	1184.31
385.36	1188.99
385.56	1104.73
385.75	1224.10
385.95	1233.46
386.14	1235.80
386.34	1191.33
386.53	1132.82
386.72	1181.97
386.92	1247.51
387.11	1219.42
387.31	1273.25
387.50	1181.97
387.70	1228.78
387.89	1287.29
388.09	1324.74
388.28	1282.61
388.48	1259.21
388.67	1371.55
388.86	1322.40
389.06	1284.95
389.25	1308.36
389.45	1362.19
389.64	1261.55
389.84	1308.36
390.03	1397.30
390.22	1350.49
390.42	1366.87
390.61	1371.55
390.81	1359.85
391.00	1380.92
391.19	1455.81
391.39	1530.71
391.58	1437.09
391.78	1495.60
391.97	1481.56
392.16	1406.66
392.36	1589.22
392.55	1605.61
392.75	1710.93
392.94	1458.15
393.13	1544.75
393.33	1596.25
393.52	1544.75
393.71	1593.90
393.91	1657.10
394.10	1558.80
394.29	1710.93
394.49	1591.56
394.68	1692.21
394.88	1614.97
395.07	1732.00
395.26	1689.87
395.46	1629.01
395.65	1724.97
395.84	1710.93
396.04	1963.71
396.23	1708.59
396.42	1736.68
396.62	1706.25
396.81	1849.02
397.00	1739.02
397.19	1888.81
397.39	1783.49
397.58	1933.28
397.77	1851.36
397.97	1802.21
398.16	1778.81
398.35	1886.47
398.55	1916.90
398.74	1811.57
398.93	1933.28
399.12	1959.03
399.32	1785.83
399.51	1923.92
399.70	2078.40
399.90	1933.28
400.09	1907.54
400.28	2008.18
400.47	2132.23
400.67	2085.42
400.86	2052.65
401.05	2090.10
401.24	2258.62
401.44	2179.04
401.63	2026.90
401.82	2120.53
402.01	2050.31
402.21	2120.53
402.40	2155.63
402.59	2244.57
402.78	2218.83
402.97	2265.64
403.17	2326.49
403.36	2356.92
403.55	2291.38
403.74	2368.62
403.93	2434.16
404.13	2366.28
404.32	2462.24
404.51	2349.90
404.70	2455.22
404.89	2345.22
405.09	2478.63
405.28	2569.91
405.47	2548.84
405.66	2525.44
405.85	2567.57
406.05	2499.69
406.24	2626.08
406.43	2574.59
406.62	2609.70
406.81	2682.25
407.00	2574.59
407.20	2677.57
407.39	2635.44
407.58	2757.15
407.77	2630.76
407.96	2712.68
408.15	2789.92
408.34	2672.89
408.54	2888.22
408.73	2815.66
408.92	2724.38
409.11	2736.09
409.30	2913.97
409.49	2920.99
409.68	2953.76
409.87	3028.65
410.07	3030.99
410.26	3019.29
410.45	3061.42
410.64	3124.62
410.83	3141.00
411.02	3222.92
411.21	3194.83
411.40	3112.91
411.59	3363.35
411.78	3253.34
411.98	3208.87
412.17	3358.67
412.36	3398.46
412.55	3452.29
412.74	3463.99
412.93	3349.31
413.12	3471.01
413.31	3550.59
413.50	3417.18
413.69	3356.33
413.88	3564.64
414.07	3606.77
414.26	3728.47
414.45	3679.32
414.64	3688.68
414.83	3784.65
415.02	3768.26
415.22	3644.21
415.41	3901.67
415.60	3866.56
415.79	3913.38
415.98	3995.29
416.17	3997.64
416.36	3932.10
416.55	3918.06
416.74	4147.43
416.93	4025.72
417.12	4133.39
417.31	4189.56
417.50	4205.94
417.69	4458.72
417.88	4358.08
418.07	4351.06
418.26	4315.95
418.45	4322.97
418.64	4456.38
418.83	4493.83
419.02	4592.13
419.21	4489.15
419.39	4449.36
419.58	4489.15
419.77	4507.87
419.96	4744.27
420.15	4774.69
420.34	4641.28
420.53	4681.07
420.72	4634.26
420.91	4716.18
421.10	4758.31
421.29	4870.65
421.48	4837.89
421.67	4800.44
421.86	4786.40
422.05	4800.44
422.24	4961.94
422.43	4877.68
422.61	4826.18
422.80	5146.84
422.99	4983.00
423.18	5160.88
423.37	5121.09
423.56	5020.45
423.75	4919.81
423.94	4910.44
424.13	4816.82
424.32	4901.08
424.50	5064.92
424.69	5254.50
424.88	5111.73
425.07	5011.09
425.26	4933.85
425.45	5093.01
425.64	4983.00
425.83	4945.55
426.01	5156.20
426.20	5109.39
426.39	4891.72
426.58	5008.75
426.77	5146.84
426.96	5200.67
427.15	5205.35
427.33	5441.75
427.52	5210.03
427.71	5266.21
427.90	5324.72
428.09	5301.31
428.28	5369.19
428.46	5533.03
428.65	5247.48
428.84	5540.05
429.03	5439.40
429.22	5305.99
429.40	5605.58
429.59	5533.03
429.78	5408.98
429.97	5373.87
430.16	5467.49
430.34	5675.80
430.53	5668.78
430.72	5774.10
430.91	5778.78
431.10	5596.22
431.28	5804.53
431.47	5797.51
431.66	5884.11
431.85	5804.53
432.03	5919.21
432.22	6080.71
432.41	5991.77
432.60	5944.96
432.79	6003.47
432.97	5996.45
433.16	6059.65
433.35	6038.58
433.54	5975.39
433.72	6127.52
433.91	6061.99
434.10	6256.25
434.28	6125.18
434.47	6136.88
434.66	6370.94
434.85	6427.11
435.03	6497.33
435.22	6246.89
435.41	6614.35
435.59	6499.67
435.78	6633.08
435.97	6462.22
436.16	6347.53
436.34	6473.92
436.53	6551.16
436.72	6820.32
436.90	6487.96
437.09	6731.38
437.28	6506.69
437.46	6771.17
437.65	6668.19
437.84	6541.80
438.02	6541.80
438.21	6766.49
438.40	6719.68
438.58	7159.70
438.77	7140.97
438.96	6981.82
439.14	7274.38
439.33	7241.62
439.52	7274.38
439.70	7253.32
439.89	7482.69
440.08	7576.31
440.26	7351.62
440.45	7524.82
440.63	7463.97
440.82	7588.02
441.01	7595.04
441.19	7758.88
441.38	7618.44
441.57	7812.71
441.75	7875.90
441.94	8067.83
442.12	8058.46
442.31	8009.31
442.50	8124.00
442.68	7838.45
442.87	8065.49
443.05	8313.58
443.24	8369.76
443.43	8142.72
443.61	8238.69
443.80	8617.85
443.98	8035.06
444.17	7925.05
444.35	8004.63
444.54	8425.93
444.73	8428.27
444.91	8439.97
445.10	8292.52
445.28	8407.20
445.47	8320.60
445.65	8367.42
445.84	8540.61
446.02	8542.96
446.21	8629.56
446.39	8344.01
446.58	8475.08
446.77	8573.38
446.95	8365.07
447.14	8344.01
447.32	8603.81
447.51	8463.38
447.69	8685.73
447.88	8489.12
448.06	8849.57
448.25	8568.70
448.43	8479.76
448.62	8713.81
448.80	8561.68
448.99	8702.11
449.17	8702.11
449.36	8774.67
449.54	8884.67
449.73	9156.18
449.91	9076.60
450.10	8882.33
450.28	9174.90
450.46	9114.05
450.65	9252.14
450.83	9156.18
451.02	9291.93
451.20	9275.54
451.39	9151.49
451.57	9280.22
451.76	9324.69
451.94	9362.14
452.13	9404.27
452.31	9444.06
452.49	9125.75
452.68	9509.60
452.86	9441.72
453.05	9593.86
453.23	9591.52
453.42	9345.76
453.60	9343.42
453.78	9584.49
453.97	9458.10
454.15	9511.94
454.34	9511.94
454.52	9635.99
454.70	9727.27
454.89	9898.13
455.07	9820.89
455.26	9961.32
455.44	10125.16
455.62	10015.15
455.81	10008.13
455.99	9991.75
456.17	10218.78
456.36	10204.74
456.54	10052.60
456.73	10279.63
456.91	10703.27
457.09	10537.09
457.28	10712.63
457.46	10464.54
457.64	10504.32
457.83	10576.88
458.01	10466.88
458.19	11023.92
458.38	10525.39
458.56	10972.43
458.74	10942.00
458.93	10824.98
459.11	10604.97
459.29	10792.21
459.48	10773.49
459.66	11005.20
459.84	10932.64
460.03	11276.70
460.21	11021.58
460.39	11138.61
460.57	11145.63
460.76	11199.46
460.94	11157.33
461.12	11330.53
461.31	11253.30
461.49	11346.92
461.67	11468.62
461.85	11564.59
462.04	11456.92
462.22	11817.36
462.40	11770.55
462.59	11733.11
462.77	11578.63
462.95	11543.52
463.13	11529.48
463.32	11831.41
463.50	11936.73
463.68	11730.76
463.86	11808.00
464.05	11899.28
464.23	11817.36
464.41	12070.14
464.59	11793.96
464.78	12308.88
464.96	12098.23
465.14	12035.03
465.32	12102.91
465.50	12215.26
465.69	12271.43
465.87	12257.39
466.05	12210.57
466.23	12173.13
466.41	12500.80
466.60	12650.60
466.78	12241.00
466.96	12222.28
467.14	12348.67
467.32	12519.53
467.51	12800.39
467.69	12182.49
467.87	12807.41
468.05	12542.93
468.23	12645.91
468.41	12507.82
468.60	12676.34
468.78	12917.42
468.96	12659.96
469.14	13001.68
469.32	13312.97
469.50	12739.54
469.69	13153.81
469.87	13055.51
470.05	13198.28
470.23	13343.39
470.41	13233.39
470.59	13577.45
470.77	13348.08
470.95	13397.23
471.14	13703.84
471.32	13254.45
471.50	13668.73
471.68	13483.83
471.86	13926.19
472.04	13809.16
472.22	14036.19
472.40	13664.05
472.58	13933.21
472.77	14008.11
472.95	14272.59
473.13	14590.90
473.31	14195.35
473.49	14326.42
473.67	14335.78
473.85	14534.73
474.03	14518.34
474.21	14743.03
474.39	14750.06
474.57	15040.28
474.75	14927.94
474.93	15220.50
475.12	15260.29
475.30	15386.68
475.48	15241.57
475.66	15328.17
475.84	15321.15
476.02	15372.64
476.20	15407.75
476.38	15700.31
476.56	16294.81
476.74	16196.51
476.92	15852.45
477.10	16079.48
477.28	16245.66
477.46	16498.44
477.64	16460.99
477.82	16704.40
478.00	17057.82
478.18	17055.48
478.36	16865.90
478.54	17441.67
478.72	17348.05
478.90	17675.73
479.08	17818.50
479.26	17975.31
479.44	17898.08
479.62	17881.69
479.80	18012.76
479.98	18373.21
480.16	18600.24
480.34	18317.03
480.52	19023.87
480.70	18822.59
480.88	18494.91
481.06	18995.79
481.24	19070.68
481.41	19147.92
481.59	19735.40
481.77	19618.37
481.95	19653.48
482.13	19955.41
482.31	19866.47
482.49	20428.20
482.67	20334.57
482.85	20493.73
483.03	20929.07
483.21	21163.12
483.39	21191.21
483.57	20999.29
483.74	21247.38
483.92	21914.44
484.10	21341.00
484.28	21891.03
484.46	22251.47
484.64	22345.09
484.82	22270.20
485.00	22712.56
485.18	22958.31
485.35	23241.52
485.53	23168.96
485.71	23456.85
485.89	23981.13
486.07	23536.43
486.25	23580.90
486.43	23969.43
486.61	23927.30
486.78	24446.90
486.96	24528.81
487.14	24755.85
487.32	24861.17
487.50	24973.52
487.68	25235.66
487.85	25394.81
488.03	26008.03
488.21	25902.71
488.39	25844.20
488.57	26356.77
488.75	26544.02
488.92	26696.15
489.10	26892.76
489.28	26890.41
489.46	27419.38
489.64	27384.27
489.81	28591.98
489.99	27789.18
490.17	28355.59
490.35	28346.23
490.53	28418.78
490.70	28634.11
490.88	28524.11
491.06	29207.55
491.24	29027.32
491.41	29495.43
491.59	29752.89
491.77	29474.37
491.95	29802.04
492.13	29912.05
492.30	30293.55
492.48	30478.46
492.66	30541.65
492.84	30574.42
493.01	30630.59
493.19	30937.20
493.37	31648.72
493.54	31454.46
493.72	31828.95
493.90	31775.11
494.08	32109.81
494.25	32378.97
494.43	32187.05
494.61	32746.44
494.79	32177.68
494.96	32821.33
495.14	33233.27
495.32	34017.35
495.49	33303.48
495.67	33509.45
495.85	33825.42
496.02	33706.05
496.20	34572.05
496.38	34309.91
496.55	34323.96
496.73	35269.53
496.91	34775.68
497.09	34995.69
497.26	35594.87
497.44	35412.31
497.62	35445.07
497.79	36182.34
497.97	35819.56
498.14	36786.20
498.32	36664.49
498.50	36301.71
498.67	36690.24
498.85	36870.46
499.03	36835.35
499.20	37258.99
499.38	37085.79
499.56	37539.85
499.73	37600.71
499.91	37701.35
500.08	38115.62
500.26	37799.65
500.44	38197.54
500.61	38026.68
500.79	38160.09
500.97	38897.36
501.14	38572.03
501.32	38792.04
501.49	39271.85
501.67	39077.58
501.84	39276.53
502.02	39321.00
502.20	39983.37
502.37	39981.03
502.55	39810.17
502.72	39725.91
502.90	39606.55
503.07	39950.60
503.25	39866.34
503.43	39756.34
503.60	40582.55
503.78	40547.44
503.95	40781.49
504.13	40964.06
504.30	41017.89
504.48	41043.63
504.65	40875.12
504.83	41134.92
505.01	41666.22
505.18	41497.70
505.36	41839.42
505.53	41425.14
505.71	41883.89
505.88	42817.76
506.06	41804.31
506.23	41933.04
506.41	42232.63
506.58	42473.70
506.76	42429.23
506.93	43316.29
507.11	42937.13
507.28	43042.45
507.46	42960.53
507.63	43398.21
507.81	43171.18
507.98	43587.80
508.16	43765.68
508.33	44140.16
508.50	43765.68
508.68	43887.39
508.85	44402.30
509.03	44114.42
509.20	44392.94
509.38	44737.00
509.55	44851.69
509.73	44416.35
509.90	45162.98
510.08	45038.93
510.25	44793.17
510.42	45170.00
510.60	45354.90
510.77	45191.06
510.95	45530.44
511.12	45361.92
511.30	45734.07
511.47	45478.95
511.64	45876.84
511.82	46017.27
511.99	46192.81
512.17	46087.49
512.34	45794.92
512.51	46597.73
512.69	46740.50
512.86	46934.76
513.04	46871.57
513.21	47185.20
513.38	47065.83
513.56	47365.42
513.73	47232.01
513.90	47107.96
514.08	46930.08
514.25	47601.82
514.43	48060.56
514.60	47775.02
514.77	47908.43
514.95	48299.30
515.12	47716.50
515.29	47999.71
515.47	48423.34
515.64	48332.06
515.81	48264.19
515.99	48065.24
516.16	48818.89
516.33	48809.53
516.51	49059.97
516.68	48797.83
516.85	48582.50
517.03	49338.49
517.20	49450.84
517.37	49188.70
517.54	49062.31
517.72	49530.42
517.89	49251.89
518.06	49663.83
518.24	49574.89
518.41	49907.24
518.58	49909.58
518.75	49598.29
518.93	50071.08
519.10	49673.19
519.27	49972.78
519.45	49586.59
519.62	50244.28
519.79	50501.74
519.96	50101.51
520.14	50468.97
520.31	50499.40
520.48	50908.99
520.65	50916.01
520.83	50843.46
521.00	51084.53
521.17	50890.27
521.34	51117.30
521.52	51353.69
521.69	51028.36
521.86	51290.50
522.03	51751.59
522.20	51524.55
522.38	51966.91
522.55	51917.76
522.72	51873.29
522.89	51573.70
523.07	51814.78
523.24	52030.11
523.41	52182.24
523.58	51779.67
523.75	51952.87
523.92	52301.61
524.10	52397.57
524.27	52446.72
524.44	52446.72
524.61	52151.82
524.78	52521.62
524.96	52664.39
525.13	52844.62
525.30	52727.59
525.47	52603.54
525.64	52603.54
525.81	52797.80
525.98	53188.67
526.16	53202.72
526.33	53090.37
526.50	53556.14
526.67	53116.12
526.84	53043.56
527.01	53240.17
527.18	53146.54
527.36	53132.50
527.53	53303.36
527.70	53488.26
527.87	53551.46
528.04	53467.20
528.21	53722.32
528.38	53727.00
528.55	53914.24
528.72	53680.19
528.89	53715.29
529.07	53895.52
529.24	53886.15
529.41	53982.12
529.58	53834.66
529.75	53968.07
529.92	54169.36
530.09	54274.68
530.26	54270.00
530.43	54157.66
530.60	54057.01
530.77	53984.46
530.94	54387.03
531.11	54365.96
531.28	54351.92
531.46	54567.25
531.63	54621.08
531.80	54646.83
531.97	54719.38
532.14	54796.62
532.31	54915.99
532.48	54822.37
532.65	54845.77
532.82	54738.11
532.99	55220.26
533.16	54904.29
533.33	55096.21
533.50	55304.52
533.67	55341.97
533.84	55030.68
534.01	55033.02
534.18	55201.53
534.35	55414.52
534.52	55402.82
534.69	55517.51
534.86	55421.55
535.03	55391.12
535.20	55332.60
535.37	55716.45
535.54	55664.96
535.71	55718.79
535.88	55590.06
536.05	56009.02
536.22	55636.87
536.38	55840.50
536.55	56100.30
536.72	55744.54
536.89	55763.26
537.06	56051.15
537.23	56097.96
537.40	55793.69
537.57	55875.61
537.74	55950.51
537.91	56278.18
538.08	56177.54
538.25	56030.08
538.42	56114.34
538.59	56324.99
538.75	56034.77
538.92	56112.00
539.09	56610.54
539.26	56413.93
539.43	56329.67
539.60	56523.94
539.77	56580.11
539.94	56451.38
540.11	56853.95
540.28	56816.50
540.44	56633.94
540.61	56708.84
540.78	56846.93
540.95	56949.92
541.12	56683.09
541.29	56863.32
541.46	56889.06
541.62	56928.85
541.79	56868.00
541.96	56601.18
542.13	56814.16
542.30	56870.34
542.47	57148.86
542.63	57301.00
542.80	57172.27
542.97	57411.00
543.14	57418.02
543.31	57567.82
543.48	57209.71
543.64	57778.46
543.81	57682.50
543.98	57403.98
544.15	57581.86
544.32	57579.52
544.48	58064.01
544.65	57595.90
544.82	57638.03
544.99	57701.23
545.16	57605.26
545.32	57694.21
545.49	57946.98
545.66	58143.59
545.83	57921.24
546.00	57755.06
546.16	58047.63
546.33	57808.89
546.50	57848.68
546.67	57989.11
546.83	57591.22
547.00	57968.05
547.17	58010.18
547.34	58026.56
547.50	58166.99
547.67	58459.56
547.84	58218.49
548.00	58316.79
548.17	58389.34
548.34	58326.15
548.51	58508.71
548.67	58454.88
548.84	58436.16
549.01	58382.32
549.18	58508.71
549.34	58482.97
549.51	58525.10
549.68	58646.80
549.84	58574.25
550.01	58710.00
550.18	58553.18
550.34	58791.92
550.51	58686.59
550.68	58834.05
550.84	58754.47
551.01	58712.34
551.18	58777.87
551.34	58815.32
551.51	58810.64
551.68	58796.60
551.84	58763.83
552.01	58642.12
552.18	58944.05
552.34	58710.00
552.51	59152.36
552.68	58862.13
552.84	59093.85
553.01	59255.34
553.18	59054.06
553.34	59180.45
553.51	58791.92
553.67	59096.19
553.84	59201.51
554.01	59222.58
554.17	59363.01
554.34	59208.53
554.51	59032.99
554.67	59086.82
554.84	59215.55
555.00	59297.47
555.17	59334.92
555.33	59260.02
555.50	59157.04
555.67	59166.40
555.83	59358.33
556.00	59496.42
556.16	59671.96
556.33	59648.55
556.50	59461.31
556.66	59543.23
556.83	59358.33
556.99	59671.96
557.16	59746.86
557.32	59852.18
557.49	59941.12
557.65	59674.30
557.82	59838.14
557.98	59505.78
558.15	59622.81
558.32	60030.06
558.48	59547.91
558.65	59898.99
558.81	59648.55
558.98	59718.77
559.14	59917.71
559.31	59753.88
559.47	60013.68
559.64	60076.87
559.80	59697.70
559.97	60053.47
560.13	59896.65
560.30	60023.04
560.46	60034.74
560.63	59959.84
560.79	60086.23
560.96	60109.64
561.12	60133.04
561.29	60088.57
561.45	60163.47
561.61	60172.83
561.78	59966.87
561.94	59917.71
562.11	60121.34
562.27	60315.61
562.44	60135.38
562.60	60175.17
562.77	60238.37
562.93	59906.01
563.10	60336.67
563.26	60231.35
563.42	60486.46
563.59	60317.95
563.75	60317.95
563.92	60156.45
564.08	60207.94
564.24	60512.21
564.41	60308.58
564.57	60350.71
564.74	60259.43
564.90	60460.72
565.07	60500.51
565.23	60385.82
565.39	60310.92
565.56	60383.48
565.72	60404.55
565.88	60495.83
566.05	60271.14
566.21	60273.48
566.38	60734.56
566.54	60509.87
566.70	60519.23
566.87	60434.97
567.03	60357.74
567.19	60746.26
567.36	60699.45
567.52	60357.74
567.68	60549.66
567.85	60610.51
568.01	60776.69
568.17	60575.40
568.34	60523.91
568.50	60437.31
568.66	60605.83
568.83	60713.50
568.99	60591.79
569.15	60708.82
569.32	60418.59
569.48	60704.13
569.64	60980.32
569.81	60795.42
569.97	60575.40
570.13	60786.05
570.30	60603.49
570.46	60818.82
570.62	60825.84
570.78	60704.13
570.95	60680.73
571.11	60874.99
571.27	60741.58
571.43	60781.37
571.60	60786.05
571.76	60879.67
571.92	60814.14
572.09	60500.51
572.25	60959.25
572.41	60755.63
572.57	60928.83
572.74	61024.79
572.90	60846.91
573.06	60842.23
573.22	60818.82
573.38	60856.27
573.55	60884.36
573.71	61118.41
573.87	60989.68
574.03	60774.35
574.20	60963.93
574.36	60910.10
574.52	61020.11
574.68	60835.20
574.84	60982.66
575.01	60999.04
575.17	60856.27
575.33	60889.04
575.49	60917.12
575.65	61066.92
575.82	60867.97
575.98	61095.00
576.14	61200.33
576.30	61109.05
576.46	60865.63
576.62	61085.64
576.79	60889.04
576.95	60914.78
577.11	61120.75
577.27	61022.45
577.43	61006.06
577.59	60823.50
577.75	60896.06
577.92	60992.02
578.08	61059.90
578.24	61165.22
578.40	61090.32
578.56	61038.83
578.72	61038.83
578.88	61176.92
579.04	61193.31
579.21	61153.52
579.37	61123.09
579.53	61258.84
579.69	61167.56
579.85	61193.31
580.01	61158.20
580.17	61109.05
580.33	61013.08
580.49	61251.82
580.65	61132.45
580.82	61069.26
580.98	61078.62
581.14	60977.98
581.30	61230.75
581.46	61059.90
581.62	61291.61
581.78	61237.78
581.94	61050.53
582.10	61207.35
582.26	61111.39
582.42	61078.62
582.58	61242.46
582.74	60999.04
582.90	61076.28
583.06	61251.82
583.22	60996.70
583.38	61174.58
583.54	61366.51
583.70	61207.35
583.86	61303.31
584.02	61186.28
584.18	61375.87
584.34	61111.39
584.50	61240.12
584.66	61141.81
584.82	60966.27
584.98	61385.23
585.14	61172.24
585.30	61109.05
585.46	61172.24
585.62	61118.41
585.78	61223.73
585.94	61083.30
586.10	61160.54
586.26	61399.27
586.42	61478.85
586.58	61188.63
586.74	61141.81
586.90	61036.49
587.06	61247.14
587.22	61354.80
587.38	61132.45
587.54	61492.89
587.70	61347.78
587.86	61394.59
588.02	61139.47
588.18	61448.42
588.34	61483.53
588.49	61275.22
