SpectraSuite Data File
++++++++++++++++++++++++++++++++++++
Date: Fri Oct 25 10:47:14 EDT 2013
User: price-jones
Dark Spectrum Present: No
Reference Spectrum Present: No
Number of Sampled Component Spectra: 1
Spectrometers: USB2+H05261
Integration Time (usec): 100000 (USB2+H05261)
Spectra Averaged: 1 (USB2+H05261)
Boxcar Smoothing: 0 (USB2+H05261)
Correct for Electrical Dark: No (USB2+H05261)
Strobe/Lamp Enabled: No (USB2+H05261)
Correct for Detector Non-linearity: No (USB2+H05261)
Correct for Stray Light: No (USB2+H05261)
Number of Pixels in Processed Spectrum: 2048
>>>>>Begin Processed Spectral Data<<<<<
365.73	117.03
365.92	117.03
366.12	117.03
366.32	110.01
366.52	98.30
366.72	112.35
366.91	7.02
367.11	79.58
367.31	79.58
367.51	70.22
367.70	25.75
367.90	7.02
368.10	11.70
368.30	18.72
368.49	74.90
368.69	56.17
368.89	21.06
369.09	0.00
369.28	35.11
369.48	44.47
369.68	60.85
369.87	119.37
370.07	105.32
370.27	135.75
370.47	154.48
370.66	397.89
370.86	362.78
371.06	383.85
371.25	440.02
371.45	440.02
371.65	458.74
371.84	393.21
372.04	344.06
372.24	437.68
372.44	475.13
372.63	416.62
372.83	456.40
373.03	510.24
373.22	456.40
373.42	498.53
373.62	482.15
373.81	535.98
374.01	538.32
374.21	545.34
374.40	528.96
374.60	566.41
374.79	528.96
374.99	557.05
375.19	540.66
375.38	589.82
375.58	535.98
375.78	629.60
375.97	503.22
376.17	578.11
376.37	645.99
376.56	550.03
376.76	589.82
376.95	638.97
377.15	538.32
377.35	528.96
377.54	571.09
377.74	540.66
377.93	631.94
378.13	622.58
378.33	676.41
378.52	599.18
378.72	653.01
378.91	554.71
379.11	695.14
379.31	606.20
379.50	608.54
379.70	683.44
379.89	580.45
380.09	643.65
380.28	603.86
380.48	620.24
380.68	552.37
380.87	615.56
381.07	683.44
381.26	664.71
381.46	641.31
381.65	610.88
381.85	706.84
382.04	655.35
382.24	678.76
382.43	657.69
382.63	674.07
382.83	685.78
383.02	671.73
383.22	739.61
383.41	674.07
383.61	690.46
383.80	744.29
384.00	578.11
384.19	774.72
384.39	791.10
384.58	739.61
384.78	699.82
384.97	683.44
385.17	730.25
385.36	660.03
385.56	798.12
385.75	720.88
385.95	692.80
386.14	805.14
386.34	791.10
386.53	774.72
386.72	760.67
386.92	760.67
387.11	727.91
387.31	851.96
387.50	793.44
387.70	744.29
387.89	835.57
388.09	802.80
388.28	849.61
388.48	739.61
388.67	784.08
388.86	847.27
389.06	842.59
389.25	788.76
389.45	802.80
389.64	889.40
389.84	887.06
390.03	880.04
390.22	800.46
390.42	828.55
390.61	847.27
390.81	957.28
391.00	917.49
391.19	922.17
391.39	954.94
391.58	973.66
391.78	884.72
391.97	933.87
392.16	915.15
392.36	954.94
392.55	912.81
392.75	990.05
392.94	919.83
393.13	940.90
393.33	880.04
393.52	961.96
393.71	959.62
393.91	1025.15
394.10	990.05
394.29	952.60
394.49	997.07
394.68	1121.12
394.88	961.96
395.07	1090.69
395.26	1118.78
395.46	1067.28
395.65	1095.37
395.84	1020.47
396.04	1200.69
396.23	1078.99
396.42	1111.75
396.62	1057.92
396.81	1081.33
397.00	1048.56
397.19	1081.33
397.39	1231.12
397.58	1212.40
397.77	1210.06
397.97	1261.55
398.16	1200.69
398.35	1277.93
398.55	1198.35
398.74	1156.22
398.93	1315.38
399.12	1226.44
399.32	1308.36
399.51	1240.48
399.70	1348.15
399.90	1268.57
400.09	1259.21
400.28	1380.92
400.47	1331.76
400.67	1355.17
400.86	1352.83
401.05	1385.60
401.24	1460.49
401.44	1425.39
401.63	1446.45
401.82	1519.01
402.01	1434.75
402.21	1472.20
402.40	1432.41
402.59	1420.71
402.78	1444.11
402.97	1511.99
403.17	1497.94
403.36	1453.47
403.55	1544.75
403.74	1521.35
403.93	1509.65
404.13	1617.31
404.32	1528.37
404.51	1689.87
404.70	1629.01
404.89	1568.16
405.09	1605.61
405.28	1605.61
405.47	1661.78
405.66	1703.91
405.85	1746.04
406.05	1682.85
406.24	1724.97
406.43	1682.85
406.62	1753.06
406.81	1830.30
407.00	1774.13
407.20	1792.85
407.39	1823.28
407.58	1830.30
407.77	1851.36
407.96	1743.70
408.15	1898.17
408.34	1935.62
408.54	1928.60
408.73	1916.90
408.92	2029.24
409.11	1898.17
409.30	1844.34
409.49	1989.46
409.68	1984.77
409.87	2127.55
410.07	1980.09
410.26	2038.61
410.45	2069.03
410.64	2083.08
410.83	2052.65
411.02	2036.27
411.21	2162.66
411.40	2122.87
411.59	2291.38
411.78	2106.48
411.98	2223.51
412.17	2179.04
412.36	2225.85
412.55	2260.96
412.74	2242.23
412.93	2338.20
413.12	2249.25
413.31	2443.52
413.50	2363.94
413.69	2328.83
413.88	2455.22
414.07	2457.56
414.26	2480.97
414.45	2436.50
414.64	2628.42
414.83	2518.42
415.02	2506.71
415.22	2705.66
415.41	2710.34
415.60	2708.00
415.79	2813.32
415.98	2752.47
416.17	2860.13
416.36	2754.81
416.55	2670.55
416.74	2818.00
416.93	2839.07
417.12	2813.32
417.31	2731.41
417.50	2829.71
417.69	2935.03
417.88	2953.76
418.07	3030.99
418.26	2923.33
418.45	2925.67
418.64	2979.50
418.83	3105.89
419.02	3077.80
419.21	3061.42
419.39	3136.32
419.58	3063.76
419.77	3124.62
419.96	3141.00
420.15	3213.56
420.34	3096.53
420.53	3141.00
420.72	3290.79
420.91	3166.74
421.10	3255.69
421.29	3318.88
421.48	3255.69
421.67	3239.30
421.86	3197.17
422.05	3199.51
422.24	3337.60
422.43	3307.18
422.61	3293.13
422.80	3431.23
422.99	3447.61
423.18	3370.37
423.37	3452.29
423.56	3403.14
423.75	3421.86
423.94	3265.05
424.13	3141.00
424.32	3258.03
424.50	3302.50
424.69	3545.91
424.88	3529.53
425.07	3389.10
425.26	3361.01
425.45	3440.59
425.64	3424.20
425.83	3424.20
426.01	3410.16
426.20	3562.30
426.39	3410.16
426.58	3527.19
426.77	3459.31
426.96	3485.06
427.15	3557.61
427.33	3702.73
427.52	3571.66
427.71	3485.06
427.90	3414.84
428.09	3719.11
428.28	3707.41
428.46	3728.47
428.65	3819.75
428.84	3765.92
429.03	3810.39
429.22	3485.06
429.40	3660.60
429.59	3695.71
429.78	3576.34
429.97	3548.25
430.16	3684.00
430.34	3749.54
430.53	3824.44
430.72	3777.62
430.91	3754.22
431.10	3871.25
431.28	3850.18
431.47	3899.33
431.66	3831.46
431.85	3852.52
432.03	4067.85
432.22	4287.86
432.41	4145.09
432.60	4028.06
432.79	4025.72
432.97	4184.88
433.16	4114.66
433.35	4198.92
433.54	4067.85
433.72	4283.18
433.91	4084.23
434.10	4121.68
434.28	4124.02
434.47	4177.86
434.66	4301.90
434.85	4454.04
435.03	4358.08
435.22	4191.90
435.41	4365.10
435.59	4397.87
435.78	4341.69
435.97	4440.00
436.16	4374.46
436.34	4297.22
436.53	4402.55
436.72	4461.06
436.90	4411.91
437.09	4575.75
437.28	4409.57
437.46	4404.89
437.65	4587.45
437.84	4383.82
438.02	4631.92
438.21	4554.68
438.40	4587.45
438.58	4793.42
438.77	4594.47
438.96	4723.20
439.14	4777.03
439.33	4884.70
439.52	5027.47
439.70	4985.34
439.89	4903.42
440.08	4985.34
440.26	5050.88
440.45	4791.08
440.63	5088.32
440.82	5245.14
441.01	5296.63
441.19	5188.97
441.38	5123.43
441.57	5153.86
441.75	5298.97
441.94	5359.83
442.12	5467.49
442.31	5507.28
442.50	5390.25
442.68	5432.38
442.87	5446.43
443.05	5366.85
443.24	5352.81
443.43	5607.92
443.61	5474.51
443.80	5781.12
443.98	5488.56
444.17	5446.43
444.35	5631.33
444.54	5708.57
444.73	5619.63
444.91	5514.30
445.10	5575.16
445.28	5549.41
445.47	5645.37
445.65	5518.98
445.84	5696.86
446.02	5783.46
446.21	5715.59
446.39	5659.42
446.58	5799.85
446.77	5802.19
446.95	5806.87
447.14	5755.38
447.32	5809.21
447.51	5612.60
447.69	5746.02
447.88	5664.10
448.06	5738.99
448.25	5781.12
448.43	5771.76
448.62	5762.40
448.80	5879.43
448.99	5785.80
449.17	5811.55
449.36	5706.23
449.54	6029.22
449.73	6099.44
449.91	6139.23
450.10	6148.59
450.28	6146.25
450.46	6066.67
450.65	6200.08
450.83	6326.47
451.02	6207.10
451.20	6345.19
451.39	6099.44
451.57	6113.48
451.76	6183.70
451.94	6218.80
452.13	6289.02
452.31	6256.25
452.49	5996.45
452.68	6272.64
452.86	6108.80
453.05	6506.69
453.23	6403.71
453.42	6352.21
453.60	6125.18
453.78	6310.08
453.97	6457.54
454.15	6441.15
454.34	6422.43
454.52	6300.72
454.70	6560.52
454.89	6555.84
455.07	6494.99
455.26	6583.93
455.44	6658.82
455.62	6747.76
455.81	6534.78
455.99	6841.39
456.17	6817.98
456.36	6686.91
456.54	7063.74
456.73	6946.71
456.91	7005.22
457.09	6998.20
457.28	7110.55
457.46	6974.80
457.64	7159.70
457.83	7063.74
458.01	7009.90
458.19	7180.76
458.38	7155.02
458.56	7059.06
458.74	7002.88
458.93	7183.10
459.11	7297.79
459.29	7283.75
459.48	7185.44
459.66	7176.08
459.84	7428.86
460.03	7454.61
460.21	7325.88
460.39	7398.43
460.57	7545.89
460.76	7461.63
460.94	7473.33
461.12	7440.56
461.31	7557.59
461.49	7515.46
461.67	7583.34
461.85	7569.29
462.04	7405.46
462.22	8072.51
462.40	7639.51
462.59	7880.58
462.77	7751.85
462.95	7700.36
463.13	7648.87
463.32	7770.58
463.50	7854.84
463.68	7929.74
463.86	7892.29
464.05	7861.86
464.23	7625.47
464.41	7943.78
464.59	8004.63
464.78	8025.70
464.96	7878.24
465.14	7866.54
465.32	7838.45
465.50	7829.09
465.69	8175.49
465.87	8077.19
466.05	8138.04
466.23	8194.22
466.41	7875.90
466.60	8224.64
466.78	8107.62
466.96	8016.33
467.14	8072.51
467.32	8208.26
467.51	8271.45
467.69	8166.13
467.87	8056.12
468.05	8332.31
468.23	8346.35
468.41	8180.17
468.60	8372.10
468.78	8320.60
468.96	8140.38
469.14	8353.37
469.32	8575.72
469.50	8252.73
469.69	8636.58
469.87	8575.72
470.05	8571.04
470.23	8578.06
470.41	8561.68
470.59	8730.20
470.77	8540.61
470.95	8695.09
471.14	8940.85
471.32	8475.08
471.50	8950.21
471.68	9032.13
471.86	9083.62
472.04	8940.85
472.22	9142.13
472.40	9048.51
472.58	9046.17
472.77	9083.62
472.95	9224.05
473.13	9533.00
473.31	9125.75
473.49	9263.84
473.67	9245.12
473.85	9200.65
474.03	9582.15
474.21	9633.64
474.39	9666.41
474.57	9762.37
474.75	9568.11
474.93	9933.23
475.12	9832.59
475.30	9998.77
475.48	9731.95
475.66	9998.77
475.84	9984.73
476.02	10115.80
476.20	10214.10
476.38	10300.70
476.56	10586.24
476.74	10289.00
476.92	10483.26
477.10	10389.64
477.28	10707.95
477.46	10595.61
477.64	10792.21
477.82	10600.29
478.00	10750.08
478.18	10937.32
478.36	11077.76
478.54	11248.61
478.72	11119.89
478.90	11246.27
479.08	11520.12
479.26	11655.87
479.44	11377.34
479.62	11716.72
479.80	11742.47
479.98	11817.36
480.16	11875.88
480.34	11908.65
480.52	11962.48
480.70	12238.66
480.88	11864.18
481.06	12327.60
481.24	12262.07
481.41	12582.72
481.59	12519.53
481.77	12704.43
481.95	12369.73
482.13	12776.98
482.31	12805.07
482.49	13266.16
482.67	13022.74
482.85	13212.32
483.03	13453.40
483.21	13476.80
483.39	13757.67
483.57	13434.68
483.74	13734.26
483.92	13762.35
484.10	13731.92
484.28	14193.01
484.46	14406.00
484.64	14483.24
484.82	14288.97
485.00	14459.83
485.18	14689.20
485.35	14743.03
485.53	14705.59
485.71	14663.46
485.89	15000.49
486.07	14923.26
486.25	15068.37
486.43	15066.03
486.61	15059.01
486.78	15466.26
486.96	15524.77
487.14	15735.42
487.32	16046.71
487.50	15861.81
487.68	16116.93
487.85	16477.37
488.03	16327.58
488.21	16552.27
488.39	16498.44
488.57	16662.27
488.75	16711.42
488.92	17245.07
489.10	17336.35
489.28	17472.10
489.46	17664.02
489.64	17619.55
489.81	17575.08
489.99	18008.08
490.17	17858.29
490.35	18111.07
490.53	18312.35
490.70	18363.84
490.88	18389.59
491.06	18438.74
491.24	18750.03
491.41	18567.47
491.59	18857.70
491.77	18539.38
491.95	18956.00
492.13	19110.47
492.30	19564.54
492.48	19637.09
492.66	19433.47
492.84	19295.38
493.01	19569.22
493.19	19576.24
493.37	19974.13
493.54	20306.49
493.72	20240.95
493.90	20191.80
494.08	20503.09
494.25	20657.57
494.43	20830.77
494.61	20652.89
494.79	20690.34
494.96	20664.59
495.14	21020.35
495.32	21418.24
495.49	21163.12
495.67	21252.06
495.85	21596.12
496.02	21736.56
496.20	21783.37
496.38	21972.95
496.55	21731.87
496.73	22122.74
496.91	22469.14
497.09	22139.13
497.26	22366.16
497.44	22504.25
497.62	22324.03
497.79	22532.34
497.97	22607.23
498.14	22974.70
498.32	22916.19
498.50	22874.06
498.67	23267.27
498.85	23342.16
499.03	23405.36
499.20	23618.35
499.38	23648.77
499.56	23765.80
499.73	23838.36
499.91	24067.73
500.08	23976.45
500.26	23690.90
500.44	24182.42
500.61	24264.33
500.79	24123.90
500.97	24381.36
501.14	24444.56
501.32	24346.25
501.49	24533.50
501.67	24540.52
501.84	25034.37
502.02	24837.76
502.20	25008.62
502.37	25252.04
502.55	25113.95
502.72	25273.10
502.90	25186.50
503.07	25429.92
503.25	25406.52
503.43	25177.14
503.60	25645.25
503.78	25703.76
503.95	25713.13
504.13	25795.04
504.30	25682.70
504.48	26129.74
504.65	26174.21
504.83	26209.32
505.01	26321.66
505.18	26183.57
505.36	26654.02
505.53	26246.77
505.71	26410.60
505.88	26862.33
506.06	26436.35
506.23	26707.85
506.41	26394.22
506.58	26988.72
506.76	26757.00
506.93	26946.59
507.11	27349.16
507.28	27262.56
507.46	27342.14
507.63	27545.76
507.81	27377.25
507.98	27468.53
508.16	27466.19
508.33	27648.75
508.50	27798.54
508.68	27669.81
508.85	28280.69
509.03	27700.24
509.20	28081.75
509.38	28187.07
509.55	28402.40
509.73	28320.48
509.90	28435.17
510.08	28325.16
510.25	28577.94
510.42	28772.21
510.60	28945.41
510.77	28676.24
510.95	29003.92
511.12	28577.94
511.30	28992.22
511.47	29589.05
511.64	29048.39
511.82	29600.76
511.99	28989.88
512.17	28996.90
512.34	29202.86
512.51	29575.01
512.69	29710.76
512.86	29553.94
513.04	30010.35
513.21	30012.69
513.38	30305.26
513.56	30008.01
513.73	30134.40
513.90	30122.69
514.08	30206.95
514.25	30160.14
514.43	30230.36
514.60	30368.45
514.77	30239.72
514.95	30525.27
515.12	30642.29
515.29	30654.00
515.47	31164.23
515.64	30934.86
515.81	30682.08
515.99	30478.46
516.16	31185.30
516.33	31445.10
516.51	31047.21
516.68	31187.64
516.85	31147.85
517.03	31082.31
517.20	31140.83
517.37	31424.03
517.54	31730.64
517.72	31585.53
517.89	31370.20
518.06	31597.23
518.24	31386.58
518.41	31618.30
518.58	31438.08
518.75	31477.86
518.93	32236.20
519.10	31782.13
519.27	32198.75
519.45	32247.90
519.62	32102.79
519.79	32671.54
519.96	32657.49
520.14	32931.34
520.31	32753.46
520.48	32781.54
520.65	32367.27
520.83	32891.55
521.00	32973.47
521.17	32760.48
521.34	33261.35
521.52	33460.30
521.69	33020.28
521.86	33174.75
522.03	33305.82
522.20	33340.93
522.38	33184.12
522.55	33790.31
522.72	33230.93
522.89	33614.77
523.07	34178.84
523.24	33724.78
523.41	33825.42
523.58	33670.95
523.75	34185.86
523.92	33809.04
524.10	34082.88
524.27	34349.70
524.44	34675.04
524.61	34277.15
524.78	34335.66
524.96	34342.68
525.13	34923.13
525.30	34642.27
525.47	34698.44
525.64	34850.58
525.81	34731.21
525.98	34988.67
526.16	34572.05
526.33	34700.78
526.50	35026.12
526.67	34981.65
526.84	34988.67
527.01	34637.59
527.18	34927.81
527.36	35218.04
527.53	35302.30
527.70	35669.76
527.87	35416.99
528.04	35578.48
528.21	35363.15
528.38	35400.60
528.55	35716.58
528.72	35711.89
528.89	35936.59
529.07	35690.83
529.24	35424.01
529.41	35983.40
529.58	35416.99
529.75	35948.29
529.92	35784.45
530.09	36233.83
530.26	36112.13
530.43	36013.82
530.60	35950.63
530.77	36247.88
530.94	36194.04
531.11	36343.84
531.28	36575.55
531.46	36788.54
531.63	36561.51
531.80	36531.08
531.97	36273.62
532.14	37010.89
532.31	36231.49
532.48	36825.99
532.65	36538.10
532.82	36772.16
532.99	36568.53
533.16	36498.31
533.33	36882.16
533.50	37029.62
533.67	37015.57
533.84	36783.86
534.01	36877.48
534.18	37261.33
534.35	37649.86
534.52	37188.77
534.69	37329.20
534.86	37163.03
535.03	37804.33
535.20	37883.91
535.37	37816.04
535.54	37699.01
535.71	37780.93
535.88	37364.31
536.05	37979.87
536.22	37752.84
536.38	37872.21
536.55	37912.00
536.72	37699.01
536.89	37053.02
537.06	37586.66
537.23	38202.22
537.40	38293.50
537.57	37862.85
537.74	38110.94
537.91	38185.84
538.08	38314.57
538.25	38143.71
538.42	38174.14
538.59	38408.19
538.75	38330.95
538.92	38342.66
539.09	38660.97
539.26	38494.79
539.43	38265.42
539.60	38785.02
539.77	38522.88
539.94	38621.18
540.11	38686.71
540.28	38796.72
540.44	38770.97
540.61	38672.67
540.78	38920.77
540.95	38836.51
541.12	38803.74
541.29	39086.95
541.46	39353.77
541.62	38574.37
541.79	39419.30
541.96	38665.65
542.13	39093.97
542.30	39192.27
542.47	39342.06
542.63	39290.57
542.80	39477.82
542.97	39672.08
543.14	39592.50
543.31	39761.02
543.48	39739.96
543.64	39990.39
543.81	40105.08
543.98	39555.05
544.15	39583.14
544.32	39824.22
544.48	40439.78
544.65	39821.87
544.82	40182.32
544.99	39941.24
545.16	40020.82
545.32	39966.99
545.49	40540.42
545.66	40196.36
545.83	40208.06
546.00	40437.44
546.16	40224.45
546.33	40034.86
546.50	40187.00
546.67	40453.82
546.83	40025.50
547.00	40011.46
547.17	40264.24
547.34	40306.37
547.50	40697.24
547.67	41305.77
547.84	40589.57
548.00	41055.34
548.17	40865.75
548.34	40926.61
548.51	41324.50
548.67	40999.16
548.84	40919.59
549.01	41303.43
549.18	41308.11
549.34	41053.00
549.51	41064.70
549.68	41172.36
549.84	41102.15
550.01	41392.37
550.18	41223.86
550.34	41354.93
550.51	41177.04
550.68	40851.71
550.84	41045.97
551.01	41446.21
551.18	41621.75
551.34	41570.25
551.51	41549.19
551.68	41338.54
551.84	41710.69
552.01	41305.77
552.18	40945.33
552.34	41179.39
552.51	41443.87
552.68	41837.08
552.84	42005.59
553.01	41872.18
553.18	41638.13
553.34	42066.45
553.51	41500.04
553.67	41619.41
553.84	42241.99
554.01	41778.56
554.17	42249.01
554.34	42192.84
554.51	42389.44
554.67	42389.44
554.84	41944.74
555.00	41984.53
555.17	42206.88
555.33	42244.33
555.50	42218.58
555.67	42103.90
555.83	42457.32
556.00	42309.86
556.16	42705.41
556.33	42417.53
556.50	42457.32
556.66	42366.04
556.83	42506.47
556.99	42600.09
557.16	42670.31
557.32	42454.98
557.49	42852.87
557.65	42398.80
557.82	42176.45
557.98	42464.34
558.15	42658.60
558.32	42873.93
558.48	42834.14
558.65	42293.48
558.81	42464.34
558.98	42667.97
559.14	42485.40
559.31	42508.81
559.47	42930.11
559.64	42965.21
559.80	42663.28
559.97	43159.48
560.13	42981.60
560.30	42799.04
560.46	43189.91
560.63	42822.44
560.79	43122.03
560.96	43173.52
561.12	42923.08
561.29	42810.74
561.45	43138.41
561.61	42920.74
561.78	42689.03
561.94	42869.25
562.11	42927.77
562.27	42948.83
562.44	42946.49
562.60	43159.48
562.77	43253.10
562.93	42937.13
563.10	43122.03
563.26	42852.87
563.42	43625.25
563.59	43250.76
563.75	43562.05
563.92	43484.81
564.08	43091.60
564.24	43023.73
564.41	43208.63
564.57	43002.66
564.74	43510.56
564.90	43328.00
565.07	43438.00
565.23	43363.11
565.39	43086.92
565.56	43271.82
565.72	43168.84
565.88	43456.73
566.05	43435.66
566.21	43255.44
566.38	43615.88
566.54	43501.20
566.70	43604.18
566.87	43964.62
567.03	43337.36
567.19	43889.73
567.36	43716.53
567.52	43328.00
567.68	43901.43
567.85	43409.92
568.01	43716.53
568.17	43250.76
568.34	43571.41
568.50	43838.23
568.66	43477.79
568.83	43653.33
568.99	43395.87
569.15	43398.21
569.32	43449.70
569.48	43075.22
569.64	43964.62
569.81	43650.99
569.97	43627.59
570.13	43650.99
570.30	43512.90
570.46	43517.58
570.62	43510.56
570.78	43512.90
570.95	43503.54
571.11	43578.43
571.27	43524.60
571.43	44048.88
571.60	43545.67
571.76	43906.11
571.92	43562.05
572.09	43789.08
572.25	43234.38
572.41	43643.97
572.57	43950.58
572.74	44215.06
572.90	43929.51
573.06	43924.83
573.22	44062.93
573.38	44095.69
573.55	43379.49
573.71	43849.94
573.87	43973.98
574.03	43775.04
574.20	43405.23
574.36	43613.54
574.52	44264.21
574.68	44390.60
574.84	43812.49
575.01	43297.57
575.17	43826.53
575.33	43868.66
575.49	43892.07
575.65	44425.71
575.82	44217.40
575.98	44233.78
576.14	43770.36
576.30	44175.27
576.46	43838.23
576.62	43723.55
576.79	43599.50
576.95	43466.09
577.11	43639.29
577.27	43871.00
577.43	43992.71
577.59	43842.92
577.75	43971.64
577.92	43938.88
578.08	44210.38
578.24	43655.67
578.40	43838.23
578.56	44086.33
578.72	44046.54
578.88	43966.96
579.04	44208.04
579.21	43959.94
579.37	43908.45
579.53	43543.33
579.69	43681.42
579.85	43950.58
580.01	43964.62
580.17	44039.52
580.33	44753.38
580.49	44299.32
580.65	44254.85
580.82	44130.80
580.98	43915.47
581.14	43952.92
581.30	44325.07
581.46	43894.41
581.62	44140.16
581.78	43742.27
581.94	44278.25
582.10	43931.86
582.26	43950.58
582.42	44320.38
582.58	44091.01
582.74	43889.73
582.90	43629.93
583.06	44184.63
583.22	44238.47
583.38	44390.60
583.54	44414.01
583.70	44168.25
583.86	43775.04
584.02	43285.87
584.18	43800.79
584.34	43964.62
584.50	44189.31
584.66	44140.16
584.82	43817.17
584.98	43917.81
585.14	43868.66
585.30	43819.51
585.46	43725.89
585.62	43725.89
585.78	43971.64
585.94	44081.65
586.10	43938.88
586.26	44027.82
586.42	44027.82
586.58	44369.54
586.74	44315.70
586.90	43878.02
587.06	43786.74
587.22	44210.38
587.38	43728.23
587.54	44456.14
587.70	44446.77
587.86	44479.54
588.02	44069.95
588.18	44512.31
588.34	44334.43
588.49	44130.80
588.65	43807.81
588.81	44119.10
588.97	44062.93
589.13	44296.98
589.29	44137.82
589.45	44114.42
589.61	44231.44
589.77	44378.90
589.93	44236.12
590.08	44341.45
590.24	44666.78
590.40	44432.73
