SpectraSuite Data File
++++++++++++++++++++++++++++++++++++
Date: Fri Oct 25 10:47:31 EDT 2013
User: price-jones
Dark Spectrum Present: No
Reference Spectrum Present: No
Number of Sampled Component Spectra: 1
Spectrometers: USB2+H05261
Integration Time (usec): 100000 (USB2+H05261)
Spectra Averaged: 1 (USB2+H05261)
Boxcar Smoothing: 0 (USB2+H05261)
Correct for Electrical Dark: No (USB2+H05261)
Strobe/Lamp Enabled: No (USB2+H05261)
Correct for Detector Non-linearity: No (USB2+H05261)
Correct for Stray Light: No (USB2+H05261)
Number of Pixels in Processed Spectrum: 2048
>>>>>Begin Processed Spectral Data<<<<<
365.73	147.45
365.92	147.45
366.12	147.45
366.32	58.51
366.52	42.13
366.72	84.26
366.91	0.00
367.11	63.19
367.31	14.04
367.51	14.04
367.70	65.54
367.90	67.88
368.10	23.41
368.30	2.34
368.49	28.09
368.69	128.73
368.89	110.01
369.09	63.19
369.28	44.47
369.48	131.07
369.68	77.24
369.87	142.77
370.07	170.86
370.27	177.88
370.47	196.60
370.66	388.53
370.86	351.08
371.06	404.91
371.25	521.94
371.45	437.68
371.65	449.38
371.84	379.17
372.04	437.68
372.24	421.30
372.44	486.83
372.63	440.02
372.83	449.38
373.03	437.68
373.22	533.64
373.42	489.17
373.62	484.49
373.81	472.79
374.01	545.34
374.21	512.58
374.40	517.26
374.60	521.94
374.79	557.05
374.99	545.34
375.19	507.90
375.38	578.11
375.58	662.37
375.78	550.03
375.97	606.20
376.17	533.64
376.37	634.29
376.56	699.82
376.76	608.54
376.95	587.47
377.15	554.71
377.35	580.45
377.54	653.01
377.74	550.03
377.93	580.45
378.13	535.98
378.33	631.94
378.52	582.79
378.72	582.79
378.91	627.26
379.11	631.94
379.31	653.01
379.50	608.54
379.70	573.43
379.89	631.94
380.09	737.27
380.28	706.84
380.48	711.52
380.68	622.58
380.87	643.65
381.07	627.26
381.26	634.29
381.46	662.37
381.65	678.76
381.85	662.37
382.04	655.35
382.24	660.03
382.43	636.63
382.63	636.63
382.83	615.56
383.02	676.41
383.22	629.60
383.41	706.84
383.61	744.29
383.80	777.06
384.00	629.60
384.19	709.18
384.39	758.33
384.58	748.97
384.78	753.65
384.97	695.14
385.17	788.76
385.36	709.18
385.56	723.23
385.75	802.80
385.95	725.57
386.14	772.38
386.34	760.67
386.53	748.97
386.72	791.10
386.92	765.36
387.11	884.72
387.31	779.40
387.50	791.10
387.70	758.33
387.89	828.55
388.09	723.23
388.28	875.36
388.48	826.21
388.67	858.98
388.86	882.38
389.06	795.78
389.25	833.23
389.45	891.74
389.64	894.08
389.84	828.55
390.03	837.91
390.22	898.77
390.42	873.02
390.61	901.11
390.81	950.26
391.00	936.21
391.19	931.53
391.39	870.68
391.58	894.08
391.78	910.47
391.97	894.08
392.16	1034.52
392.36	964.30
392.55	952.60
392.75	854.30
392.94	889.40
393.13	954.94
393.33	858.98
393.52	917.49
393.71	954.94
393.91	1029.84
394.10	985.37
394.29	1067.28
394.49	922.17
394.68	1067.28
394.88	1088.35
395.07	1086.01
395.26	1118.78
395.46	1125.80
395.65	1181.97
395.84	1109.41
396.04	1109.41
396.23	1104.73
396.42	1102.39
396.62	1128.14
396.81	1188.99
397.00	1118.78
397.19	1121.12
397.39	1231.12
397.58	1207.72
397.77	1238.14
397.97	1233.46
398.16	1270.91
398.35	1249.85
398.55	1203.04
398.74	1306.02
398.93	1289.64
399.12	1259.21
399.32	1226.44
399.51	1317.72
399.70	1299.00
399.90	1294.32
400.09	1406.66
400.28	1350.49
400.47	1306.02
400.67	1385.60
400.86	1336.45
401.05	1465.18
401.24	1423.05
401.44	1472.20
401.63	1488.58
401.82	1455.81
402.01	1399.64
402.21	1437.09
402.40	1453.47
402.59	1446.45
402.78	1544.75
402.97	1474.54
403.17	1523.69
403.36	1516.67
403.55	1437.09
403.74	1636.03
403.93	1537.73
404.13	1579.86
404.32	1589.22
404.51	1554.12
404.70	1701.57
404.89	1675.82
405.09	1668.80
405.28	1636.03
405.47	1689.87
405.66	1673.48
405.85	1626.67
406.05	1701.57
406.24	1696.89
406.43	1753.06
406.62	1650.08
406.81	1764.76
407.00	1804.55
407.20	1762.42
407.39	1750.72
407.58	1891.15
407.77	1895.83
407.96	1846.68
408.15	1963.71
408.34	1968.39
408.54	1959.03
408.73	1933.28
408.92	1947.33
409.11	2015.20
409.30	2033.93
409.49	1998.82
409.68	1919.24
409.87	1853.70
410.07	1961.37
410.26	1994.14
410.45	1961.37
410.64	2097.12
410.83	2113.50
411.02	2111.16
411.21	2230.53
411.40	2214.15
411.59	2221.17
411.78	2143.93
411.98	2209.47
412.17	2146.27
412.36	2361.60
412.55	2333.51
412.74	2375.64
412.93	2511.39
413.12	2303.09
413.31	2431.82
413.50	2389.69
413.69	2359.26
413.88	2483.31
414.07	2541.82
414.26	2520.76
414.45	2495.01
414.64	2487.99
414.83	2663.53
415.02	2541.82
415.22	2637.78
415.41	2818.00
415.60	2691.62
415.79	2715.02
415.98	2773.53
416.17	2832.05
416.36	2682.25
416.55	2935.03
416.74	2871.84
416.93	2836.73
417.12	2883.54
417.31	2850.77
417.50	2883.54
417.69	2937.37
417.88	2974.82
418.07	2918.65
418.26	2956.10
418.45	3019.29
418.64	3049.72
418.83	2991.20
419.02	3098.87
419.21	3199.51
419.39	3063.76
419.58	3073.12
419.77	3049.72
419.96	3110.57
420.15	3262.71
420.34	3225.26
420.53	3204.19
420.72	3248.66
420.91	3232.28
421.10	3272.07
421.29	3304.84
421.48	3211.22
421.67	3241.64
421.86	3332.92
422.05	3419.52
422.24	3204.19
422.43	3325.90
422.61	3382.07
422.80	3480.38
422.99	3412.50
423.18	3419.52
423.37	3527.19
423.56	3440.59
423.75	3410.16
423.94	3382.07
424.13	3124.62
424.32	3190.15
424.50	3410.16
424.69	3496.76
424.88	3435.91
425.07	3421.86
425.26	3351.65
425.45	3452.29
425.64	3379.73
425.83	3368.03
426.01	3468.67
426.20	3459.31
426.39	3405.48
426.58	3492.08
426.77	3478.04
426.96	3527.19
427.15	3480.38
427.33	3595.06
427.52	3456.97
427.71	3637.19
427.90	3660.60
428.09	3655.92
428.28	3583.36
428.46	3676.98
428.65	3719.11
428.84	3817.41
429.03	3707.41
429.22	3712.09
429.40	3721.45
429.59	3681.66
429.78	3588.04
429.97	3606.77
430.16	3707.41
430.34	3796.35
430.53	3857.20
430.72	3768.26
430.91	3705.07
431.10	3953.16
431.28	4067.85
431.47	3943.80
431.66	4046.79
431.85	3943.80
432.03	4067.85
432.22	4133.39
432.41	3950.82
432.60	4198.92
432.79	3978.91
432.97	4166.15
433.16	4112.32
433.35	3974.23
433.54	4117.00
433.72	4152.11
433.91	4065.51
434.10	4119.34
434.28	4198.92
434.47	4131.05
434.66	4423.61
434.85	4196.58
435.03	4397.87
435.22	4348.72
435.41	4484.47
435.59	4388.50
435.78	4203.60
435.97	4594.47
436.16	4407.23
436.34	4587.45
436.53	4535.96
436.72	4667.03
436.90	4524.26
437.09	4545.32
437.28	4496.17
437.46	4599.15
437.65	4535.96
437.84	4571.07
438.02	4606.17
438.21	4620.22
438.40	4550.00
438.58	4681.07
438.77	4840.23
438.96	4683.41
439.14	4835.55
439.33	4814.48
439.52	4919.81
439.70	4891.72
439.89	5020.45
440.08	5083.64
440.26	5156.20
440.45	4968.96
440.63	5181.95
440.82	5221.74
441.01	5165.56
441.19	5341.10
441.38	5195.99
441.57	5275.57
441.75	5427.70
441.94	5418.34
442.12	5418.34
442.31	5472.17
442.50	5432.38
442.68	5486.22
442.87	5411.32
443.05	5554.09
443.24	5680.48
443.43	5547.07
443.61	5804.53
443.80	5727.29
443.98	5521.32
444.17	5315.36
444.35	5708.57
444.54	5851.34
444.73	5734.31
444.91	5673.46
445.10	5619.63
445.28	5657.07
445.47	5551.75
445.65	5640.69
445.84	5753.04
446.02	5671.12
446.21	5727.29
446.39	5774.10
446.58	5799.85
446.77	5741.33
446.95	5755.38
447.14	5776.44
447.32	6026.88
447.51	5809.21
447.69	5856.02
447.88	5844.32
448.06	5935.60
448.25	5956.66
448.43	5776.44
448.62	5778.78
448.80	5668.78
448.99	5795.17
449.17	6057.31
449.36	5834.96
449.54	6141.57
449.73	6155.61
449.91	6066.67
450.10	6118.16
450.28	6267.95
450.46	6244.55
450.65	6059.65
450.83	6207.10
451.02	6352.21
451.20	6382.64
451.39	6181.35
451.57	6289.02
451.76	6122.84
451.94	6361.58
452.13	6413.07
452.31	6333.49
452.49	6160.29
452.68	6394.34
452.86	6296.04
453.05	6553.50
453.23	6541.80
453.42	6326.47
453.60	6253.91
453.78	6504.35
453.97	6298.38
454.15	6457.54
454.34	6516.05
454.52	6684.57
454.70	6715.00
454.89	6502.01
455.07	6715.00
455.26	6658.82
455.44	6771.17
455.62	6703.29
455.81	6698.61
455.99	6778.19
456.17	6595.63
456.36	6869.47
456.54	6867.13
456.73	6998.20
456.91	7098.84
457.09	7030.97
457.28	6981.82
457.46	7012.24
457.64	7016.93
457.83	7042.67
458.01	6909.26
458.19	7265.02
458.38	7180.76
458.56	7311.83
458.74	7143.32
458.93	7176.08
459.11	7323.54
459.29	7286.09
459.48	7412.48
459.66	7194.81
459.84	7475.67
460.03	7459.29
460.21	7485.03
460.39	7466.31
460.57	7562.27
460.76	7492.05
460.94	7501.42
461.12	7389.07
461.31	7595.04
461.49	7550.57
461.67	7583.34
461.85	7681.64
462.04	7581.00
462.22	8194.22
462.40	7882.92
462.59	7714.41
462.77	7906.33
462.95	7796.32
463.13	7590.36
463.32	7845.48
463.50	7936.76
463.68	7866.54
463.86	7838.45
464.05	7889.95
464.23	7763.56
464.41	8112.30
464.59	7819.73
464.78	8140.38
464.96	8002.29
465.14	7964.84
465.32	8124.00
465.50	8161.45
465.69	8124.00
465.87	8152.09
466.05	8159.11
466.23	8084.21
466.41	7995.27
466.60	8283.16
466.78	7999.95
466.96	8039.74
467.14	8234.00
467.32	8250.39
467.51	8564.02
467.69	7882.92
467.87	8437.63
468.05	8500.83
468.23	8325.29
468.41	8304.22
468.60	8234.00
468.78	8409.54
468.96	8355.71
469.14	8542.96
469.32	8807.44
469.50	8318.26
469.69	8645.94
469.87	8697.43
470.05	8613.17
470.23	8870.63
470.41	8636.58
470.59	8837.86
470.77	8903.40
470.95	9015.74
471.14	8954.89
471.32	8833.18
471.50	8919.78
471.68	9081.28
471.86	9020.42
472.04	9153.84
472.22	9324.69
472.40	8954.89
472.58	9048.51
472.77	9107.02
472.95	9476.83
473.13	9659.39
473.31	9380.87
473.49	9298.95
473.67	9235.75
473.85	9439.38
474.03	9781.10
474.21	9654.71
474.39	9701.52
474.57	9701.52
474.75	9713.22
474.93	9813.87
475.12	9731.95
475.30	9947.28
475.48	9980.04
475.66	10076.01
475.84	9757.69
476.02	9921.53
476.20	10040.90
476.38	10289.00
476.56	10630.71
476.74	10525.39
476.92	10523.05
477.10	10707.95
477.28	10871.79
477.46	10469.22
477.64	10902.22
477.82	10984.13
478.00	11253.30
478.18	11061.37
478.36	11192.44
478.54	11314.15
478.72	11236.91
478.90	11501.39
479.08	11363.30
479.26	11676.93
479.44	11606.72
479.62	11997.59
479.80	11864.18
479.98	11747.15
480.16	12306.54
480.34	11859.49
480.52	12273.77
480.70	12016.31
480.88	12018.65
481.06	12248.02
481.24	12210.57
481.41	12519.53
481.59	12573.36
481.77	12889.33
481.95	12748.90
482.13	12812.09
482.31	13001.68
482.49	13128.06
482.67	12931.46
482.85	13359.78
483.03	13563.40
483.21	13437.02
483.39	13633.62
483.57	13862.99
483.74	13689.79
483.92	14057.26
484.10	13764.69
484.28	14054.92
484.46	14256.20
484.64	14408.34
484.82	14253.86
485.00	14494.94
485.18	14717.29
485.35	14932.62
485.53	14710.27
485.71	14731.33
485.89	15236.89
486.07	14930.28
486.25	15063.69
486.43	15033.26
486.61	15639.46
486.78	15583.29
486.96	15618.39
487.14	15868.83
487.32	15822.02
487.50	16177.78
487.68	16297.15
487.85	16556.95
488.03	16601.42
488.21	16465.67
488.39	16570.99
488.57	16737.17
488.75	16929.09
488.92	17252.09
489.10	17256.77
489.28	17034.42
489.46	17502.53
489.64	17514.23
489.81	18057.23
489.99	17919.14
490.17	17963.61
490.35	18167.24
490.53	18373.21
490.70	18415.34
490.88	18429.38
491.06	18888.12
491.24	18548.75
491.41	18845.99
491.59	18691.52
491.77	18677.48
491.95	19087.07
492.13	19239.20
492.30	19637.09
492.48	19171.33
492.66	19482.62
492.84	19461.55
493.01	19829.02
493.19	20023.28
493.37	19932.00
493.54	20147.33
493.72	20046.69
493.90	20205.84
494.08	20350.96
494.25	20751.19
494.43	20664.59
494.61	21020.35
494.79	20865.88
494.96	20673.95
495.14	20933.75
495.32	21472.07
495.49	21223.98
495.67	21170.15
495.85	21596.12
496.02	21933.16
496.20	22057.21
496.38	21706.13
496.55	22162.53
496.73	22387.22
496.91	21982.31
497.09	22438.72
497.26	22724.26
497.44	22574.47
497.62	22719.58
497.79	23028.53
497.97	22768.73
498.14	23101.09
498.32	23248.54
498.50	23101.09
498.67	23145.56
498.85	23335.14
499.03	23594.94
499.20	23604.30
499.38	23784.52
499.56	23784.52
499.73	23843.04
499.91	24088.79
500.08	24493.71
500.26	24065.39
500.44	24418.81
500.61	24587.33
500.79	23833.68
500.97	24442.21
501.14	24788.61
501.32	24753.51
501.49	24945.43
501.67	24758.19
501.84	24627.12
502.02	24826.06
502.20	25067.14
502.37	25064.80
502.55	25275.45
502.72	25371.41
502.90	25025.01
503.07	25003.94
503.25	25467.37
503.43	25432.26
503.60	25954.20
503.78	25935.48
503.95	25528.22
504.13	26075.91
504.30	25963.56
504.48	26171.87
504.65	26132.08
504.83	26352.09
505.01	26438.69
505.18	26391.88
505.36	26527.63
505.53	26441.03
505.71	26483.16
505.88	26803.82
506.06	26487.84
506.23	26595.51
506.41	26913.82
506.58	26874.03
506.76	27405.33
506.93	27337.46
507.11	27440.44
507.28	27014.46
507.46	27178.30
507.63	27592.58
507.81	27377.25
507.98	27524.70
508.16	27908.55
508.33	27761.09
508.50	28135.58
508.68	27920.25
508.85	28268.99
509.03	28041.96
509.20	28386.02
509.38	28601.35
509.55	28479.64
509.73	28606.03
509.90	28577.94
510.08	28304.10
510.25	28460.91
510.42	29069.45
510.60	29013.28
510.77	29226.27
510.95	29116.26
511.12	28886.89
511.30	29429.90
511.47	29858.21
511.64	29369.04
511.82	29586.71
511.99	29336.27
512.17	29429.90
512.34	29422.87
512.51	29495.43
512.69	29755.23
512.86	29584.37
513.04	30331.00
513.21	29785.66
513.38	29848.85
513.56	30125.04
513.73	30157.80
513.90	30110.99
514.08	30274.83
514.25	30118.01
514.43	30202.27
514.60	30569.74
514.77	30639.95
514.95	30457.39
515.12	30703.15
515.29	30869.33
515.47	31101.04
515.64	30937.20
515.81	30951.24
515.99	31154.87
516.16	31197.00
516.33	31164.23
516.51	31314.03
516.68	30878.69
516.85	31098.70
517.03	31140.83
517.20	31356.16
517.37	31358.50
517.54	31791.50
517.72	31875.76
517.89	31480.21
518.06	32180.03
518.24	31838.31
518.41	31826.60
518.58	31842.99
518.75	31576.17
518.93	32135.56
519.10	32219.81
519.27	32566.21
519.45	32135.56
519.62	32247.90
519.79	32954.74
519.96	32664.52
520.14	33050.70
520.31	32744.09
520.48	32826.01
520.65	32816.65
520.83	32835.38
521.00	33179.43
521.17	33118.58
521.34	32982.83
521.52	33450.94
521.69	33481.36
521.86	33418.17
522.03	33125.60
522.20	33195.82
522.38	33116.24
522.55	34235.02
522.72	33558.60
522.89	33507.11
523.07	33567.96
523.24	33486.04
523.41	33965.85
523.58	33668.61
523.75	34288.85
523.92	34279.49
524.10	34471.41
524.27	34398.85
524.44	34553.33
524.61	34478.43
524.78	35070.59
524.96	34583.76
525.13	34609.50
525.30	35166.55
525.47	34913.77
525.64	34600.14
525.81	34920.79
525.98	34679.72
526.16	34878.66
526.33	34944.20
526.50	34857.60
526.67	34890.37
526.84	34885.68
527.01	35428.69
527.18	35108.04
527.36	35426.35
527.53	35147.82
527.70	35765.73
527.87	35910.84
528.04	35400.60
528.21	35807.86
528.38	35480.18
528.55	35615.93
528.72	35784.45
528.89	36098.08
529.07	36062.97
529.24	35964.67
529.41	36133.19
529.58	35791.47
529.75	35807.86
529.92	36149.57
530.09	35936.59
530.26	36151.91
530.43	36378.95
530.60	36198.73
530.77	36240.86
530.94	36577.89
531.11	36334.48
531.28	36264.26
531.46	37048.34
531.63	36662.15
531.80	36512.36
531.97	36306.39
532.14	36172.98
532.31	36215.11
532.48	36587.25
532.65	37191.11
532.82	37198.13
532.99	37095.15
533.16	36514.70
533.33	36992.17
533.50	37378.36
533.67	37263.67
533.84	36947.70
534.01	37448.57
534.18	37137.28
534.35	37670.92
534.52	37736.46
534.69	37317.50
534.86	37413.46
535.03	37453.25
535.20	37794.97
535.37	37982.21
535.54	37799.65
535.71	37471.98
535.88	37673.26
536.05	37853.48
536.22	37963.49
536.38	38087.54
536.55	38071.15
536.72	38447.98
536.89	37865.19
537.06	37846.46
537.23	38171.80
537.40	38148.39
537.57	38316.91
537.74	38242.01
537.91	38370.74
538.08	38710.12
538.25	38190.52
538.42	38412.87
538.59	38623.52
538.75	38265.42
538.92	38579.05
539.09	38756.93
539.26	38759.27
539.43	38707.78
539.60	38820.13
539.77	38295.85
539.94	38782.68
540.11	38354.36
540.28	38986.30
540.44	38965.24
540.61	38665.65
540.78	39206.31
540.95	38782.68
541.12	38792.04
541.29	39281.21
541.46	38888.00
541.62	38983.96
541.79	39496.54
541.96	39122.05
542.13	39349.09
542.30	39379.51
542.47	39746.98
542.63	39164.18
542.80	39374.83
542.97	39920.18
543.14	40275.94
543.31	39697.83
543.48	39805.49
543.64	40322.75
543.81	39775.06
543.98	40149.55
544.15	39974.01
544.32	40065.29
544.48	40456.16
544.65	40299.34
544.82	40287.64
544.99	40212.74
545.16	40472.54
545.32	40142.53
545.49	40266.58
545.66	40645.74
545.83	40470.20
546.00	40568.51
546.16	40336.79
546.33	40336.79
546.50	40182.32
546.67	40730.00
546.83	40500.63
547.00	40575.53
547.17	40517.01
547.34	40556.80
547.50	40767.45
547.67	41062.36
547.84	40786.18
548.00	41277.69
548.17	41181.73
548.34	41141.94
548.51	41308.11
548.67	41258.96
548.84	41172.36
549.01	41109.17
549.18	40996.82
549.34	41324.50
549.51	41476.63
549.68	41113.85
549.84	41071.72
550.01	41523.44
550.18	41397.06
550.34	41895.59
550.51	40921.93
550.68	41471.95
550.84	40725.32
551.01	41284.71
551.18	41469.61
551.34	41024.91
551.51	41471.95
551.68	41057.68
551.84	41331.52
552.01	41579.62
552.18	41923.68
552.34	41471.95
552.51	41764.52
552.68	41666.22
552.84	42260.71
553.01	42408.17
553.18	42206.88
553.34	41743.45
553.51	41752.82
553.67	42012.62
553.84	42274.76
554.01	42450.30
554.17	42464.34
554.34	42281.78
554.51	42124.96
554.67	42291.14
554.84	42330.93
555.00	41963.46
555.17	42014.96
555.33	42241.99
555.50	42110.92
555.67	42227.95
555.83	42724.14
556.00	42176.45
556.16	42677.33
556.33	42719.46
556.50	42878.61
556.66	42937.13
556.83	42876.27
556.99	42337.95
557.16	42417.53
557.32	42644.56
557.49	42972.24
557.65	42223.26
557.82	42508.81
557.98	42279.44
558.15	42583.71
558.32	42878.61
558.48	42855.21
558.65	42909.04
558.81	43072.88
558.98	42969.90
559.14	42344.97
559.31	42930.11
559.47	42995.64
559.64	43136.07
559.80	43445.02
559.97	43274.16
560.13	42768.61
560.30	42855.21
560.46	42777.97
560.63	43098.62
560.79	43103.31
560.96	42763.93
561.12	43370.13
561.29	43302.25
561.45	42960.53
561.61	42740.52
561.78	43203.95
561.94	43180.54
562.11	43023.73
562.27	43246.08
562.44	43377.15
562.60	43372.47
562.77	43669.72
562.93	43330.34
563.10	43124.37
563.26	42976.92
563.42	43433.32
563.59	43063.52
563.75	43248.42
563.92	43639.29
564.08	43461.41
564.24	43737.59
564.41	43697.80
564.57	43524.60
564.74	43393.53
564.90	43356.08
565.07	43576.09
565.23	43328.00
565.39	43412.26
565.56	43550.35
565.72	43021.39
565.88	43557.37
566.05	43571.41
566.21	43154.80
566.38	43763.34
566.54	43517.58
566.70	43253.10
566.87	43634.61
567.03	43496.52
567.19	43744.61
567.36	43618.22
567.52	43665.03
567.68	44074.63
567.85	43533.96
568.01	43990.37
568.17	43702.48
568.34	43971.64
568.50	43466.09
568.66	43260.12
568.83	43374.81
568.99	43917.81
569.15	43761.00
569.32	43648.65
569.48	43512.90
569.64	43653.33
569.81	44170.59
569.97	43599.50
570.13	44182.29
570.30	43658.01
570.46	43770.36
570.62	43533.96
570.78	43648.65
570.95	43519.92
571.11	44353.15
571.27	43910.79
571.43	43824.19
571.60	43620.56
571.76	43634.61
571.92	43786.74
572.09	44027.82
572.25	43959.94
572.41	44140.16
572.57	43950.58
572.74	44467.84
572.90	44170.59
573.06	44378.90
573.22	44114.42
573.38	44144.84
573.55	43470.77
573.71	44203.36
573.87	43962.28
574.03	43627.59
574.20	43672.06
574.36	43679.08
574.52	44245.49
574.68	44362.51
574.84	44058.24
575.01	43931.86
575.17	43725.89
575.33	43901.43
575.49	43819.51
575.65	44177.61
575.82	44428.05
575.98	44144.84
576.14	44215.06
576.30	44130.80
576.46	44208.04
576.62	43751.63
576.79	43988.03
576.95	43690.78
577.11	44140.16
577.27	44151.87
577.43	43990.37
577.59	44189.31
577.75	44086.33
577.92	44055.90
578.08	43543.33
578.24	43938.88
578.40	44133.14
578.56	44154.21
578.72	44107.40
578.88	44091.01
579.04	43906.11
579.21	44168.25
579.37	44081.65
579.53	43833.55
579.69	43494.18
579.85	44210.38
580.01	44282.94
580.17	44416.35
580.33	44289.96
580.49	44210.38
580.65	44257.19
580.82	44563.80
580.98	44275.91
581.14	43786.74
581.30	44339.11
581.46	44037.18
581.62	43903.77
581.78	44322.72
581.94	44428.05
582.10	44416.35
582.26	43683.76
582.42	44219.74
582.58	44500.61
582.74	43812.49
582.90	44308.68
583.06	44191.65
583.22	44212.72
583.38	44409.32
583.54	44212.72
583.70	44442.09
583.86	44044.20
584.02	43885.04
584.18	43941.22
584.34	44320.38
584.50	44088.67
584.66	43742.27
584.82	44336.77
584.98	44247.83
585.14	44493.58
585.30	44301.66
585.46	44299.32
585.62	44006.75
585.78	44402.30
585.94	44086.33
586.10	44128.46
586.26	43786.74
586.42	44795.51
586.58	44165.91
586.74	44364.85
586.90	44339.11
587.06	44039.52
587.22	44512.31
587.38	43936.54
587.54	44381.24
587.70	44507.63
587.86	44832.96
588.02	44605.93
588.18	44142.50
588.34	43997.39
588.49	44119.10
588.65	44144.84
588.81	43948.24
588.97	43889.73
589.13	43768.02
589.29	44437.41
589.45	44458.48
589.61	44367.20
589.77	44619.97
589.93	44332.09
590.08	44201.02
590.24	44669.12
590.40	45090.42
