SpectraSuite Data File
++++++++++++++++++++++++++++++++++++
Date: Fri Oct 25 11:33:49 EDT 2013
User: price-jones
Dark Spectrum Present: No
Reference Spectrum Present: No
Number of Sampled Component Spectra: 1
Spectrometers: USB2+H05261
Integration Time (usec): 100000 (USB2+H05261)
Spectra Averaged: 1 (USB2+H05261)
Boxcar Smoothing: 0 (USB2+H05261)
Correct for Electrical Dark: No (USB2+H05261)
Strobe/Lamp Enabled: No (USB2+H05261)
Correct for Detector Non-linearity: No (USB2+H05261)
Correct for Stray Light: No (USB2+H05261)
Number of Pixels in Processed Spectrum: 2048
>>>>>Begin Processed Spectral Data<<<<<
365.73	355.76
365.92	355.76
366.12	355.76
366.32	280.86
366.52	198.95
366.72	203.63
366.91	156.82
367.11	145.11
367.31	196.60
367.51	156.82
367.70	79.58
367.90	184.90
368.10	140.43
368.30	114.69
368.49	138.09
368.69	163.84
368.89	175.54
369.09	227.03
369.28	161.50
369.48	236.39
369.68	187.24
369.87	264.48
370.07	234.05
370.27	322.99
370.47	294.91
370.66	524.28
370.86	447.04
371.06	561.73
371.25	622.58
371.45	564.07
371.65	538.32
371.84	514.92
372.04	568.75
372.24	601.52
372.44	587.47
372.63	601.52
372.83	571.09
373.03	613.22
373.22	608.54
373.42	571.09
373.62	631.94
373.81	641.31
374.01	627.26
374.21	671.73
374.40	641.31
374.60	648.33
374.79	660.03
374.99	610.88
375.19	692.80
375.38	578.11
375.58	737.27
375.78	657.69
375.97	718.54
376.17	676.41
376.37	697.48
376.56	643.65
376.76	683.44
376.95	634.29
377.15	720.88
377.35	653.01
377.54	657.69
377.74	671.73
377.93	638.97
378.13	711.52
378.33	653.01
378.52	594.50
378.72	702.16
378.91	692.80
379.11	704.50
379.31	657.69
379.50	624.92
379.70	741.95
379.89	732.59
380.09	760.67
380.28	734.93
380.48	751.31
380.68	716.20
380.87	732.59
381.07	720.88
381.26	779.40
381.46	723.23
381.65	739.61
381.85	704.50
382.04	667.05
382.24	828.55
382.43	763.01
382.63	812.17
382.83	837.91
383.02	833.23
383.22	898.77
383.41	781.74
383.61	788.76
383.80	856.64
384.00	898.77
384.19	837.91
384.39	786.42
384.58	854.30
384.78	816.85
384.97	748.97
385.17	741.95
385.36	763.01
385.56	781.74
385.75	849.61
385.95	849.61
386.14	894.08
386.34	842.59
386.53	887.06
386.72	795.78
386.92	964.30
387.11	877.70
387.31	924.51
387.50	882.38
387.70	856.64
387.89	826.21
388.09	882.38
388.28	889.40
388.48	915.15
388.67	950.26
388.86	1011.11
389.06	898.77
389.25	954.94
389.45	1018.13
389.64	912.81
389.84	985.37
390.03	992.39
390.22	968.98
390.42	1022.81
390.61	968.98
390.81	915.15
391.00	945.58
391.19	1060.26
391.39	1029.84
391.58	1034.52
391.78	976.00
391.97	999.41
392.16	1020.47
392.36	1078.99
392.55	1055.58
392.75	976.00
392.94	1078.99
393.13	1043.88
393.33	1074.31
393.52	1055.58
393.71	1121.12
393.91	1071.97
394.10	1118.78
394.29	1046.22
394.49	1128.14
394.68	1128.14
394.88	1160.91
395.07	1196.01
395.26	1142.18
395.46	1160.91
395.65	1179.63
395.84	1193.67
396.04	1268.57
396.23	1203.04
396.42	1184.31
396.62	1167.93
396.81	1186.65
397.00	1284.95
397.19	1167.93
397.39	1170.27
397.58	1261.55
397.77	1238.14
397.97	1275.59
398.16	1256.87
398.35	1322.40
398.55	1275.59
398.74	1362.19
398.93	1315.38
399.12	1282.61
399.32	1303.68
399.51	1299.00
399.70	1373.89
399.90	1217.08
400.09	1394.96
400.28	1430.07
400.47	1404.32
400.67	1315.38
400.86	1432.41
401.05	1336.45
401.24	1458.15
401.44	1350.49
401.63	1483.90
401.82	1474.54
402.01	1444.11
402.21	1516.67
402.40	1455.81
402.59	1556.46
402.78	1493.26
402.97	1469.86
403.17	1519.01
403.36	1650.08
403.55	1575.18
403.74	1619.65
403.93	1633.69
404.13	1577.52
404.32	1516.67
404.51	1631.35
404.70	1696.89
404.89	1605.61
405.09	1710.93
405.28	1626.67
405.47	1727.32
405.66	1699.23
405.85	1750.72
406.05	1727.32
406.24	1816.26
406.43	1783.49
406.62	1724.97
406.81	1912.22
407.00	1757.74
407.20	1900.52
407.39	1769.44
407.58	1858.39
407.77	1825.62
407.96	1795.19
408.15	1858.39
408.34	1839.66
408.54	1952.01
408.73	1884.13
408.92	1870.09
409.11	1940.30
409.30	1959.03
409.49	1914.56
409.68	1944.99
409.87	1933.28
410.07	1998.82
410.26	2050.31
410.45	2038.61
410.64	2040.95
410.83	2106.48
411.02	2099.46
411.21	2076.06
411.40	2162.66
411.59	2162.66
411.78	2263.30
411.98	2165.00
412.17	2235.21
412.36	2270.32
412.55	2373.30
412.74	2253.94
412.93	2263.30
413.12	2396.71
413.31	2464.58
413.50	2300.75
413.69	2289.04
413.88	2441.18
414.07	2504.37
414.26	2495.01
414.45	2572.25
414.64	2431.82
414.83	2537.14
415.02	2574.59
415.22	2670.55
415.41	2626.08
415.60	2658.85
415.79	2605.02
415.98	2818.00
416.17	2766.51
416.36	2780.56
416.55	2757.15
416.74	2715.02
416.93	2700.98
417.12	2818.00
417.31	2768.85
417.50	2822.69
417.69	2939.71
417.88	2909.29
418.07	2991.20
418.26	3012.27
418.45	2960.78
418.64	3122.27
418.83	3049.72
419.02	3033.33
419.21	3014.61
419.39	3164.40
419.58	3028.65
419.77	2986.52
419.96	3262.71
420.15	3122.27
420.34	3229.94
420.53	3197.17
420.72	3183.13
420.91	3169.09
421.10	3346.97
421.29	3335.26
421.48	3335.26
421.67	3302.50
421.86	3206.53
422.05	3398.46
422.24	3363.35
422.43	3276.75
422.61	3438.25
422.80	3386.76
422.99	3361.01
423.18	3309.52
423.37	3405.48
423.56	3389.10
423.75	3461.65
423.94	3255.69
424.13	3180.79
424.32	3391.44
424.50	3562.30
424.69	3550.59
424.88	3414.84
425.07	3506.12
425.26	3459.31
425.45	3377.39
425.64	3396.12
425.83	3463.99
426.01	3667.62
426.20	3454.63
426.39	3489.74
426.58	3501.44
426.77	3564.64
426.96	3536.55
427.15	3517.83
427.33	3559.95
427.52	3648.90
427.71	3555.27
427.90	3747.20
428.09	3569.32
428.28	3700.39
428.46	3611.45
428.65	3627.83
428.84	3756.56
429.03	3751.88
429.22	3716.77
429.40	3763.58
429.59	3735.50
429.78	3569.32
429.97	3648.90
430.16	3864.22
430.34	3819.75
430.53	3873.59
430.72	3927.42
430.91	3969.55
431.10	4014.02
431.28	3850.18
431.47	4035.08
431.66	4009.34
431.85	4032.74
432.03	4147.43
432.22	4133.39
432.41	4152.11
432.60	4145.09
432.79	4018.70
432.97	4180.20
433.16	4088.92
433.35	4086.58
433.54	4065.51
433.72	4088.92
433.91	4248.07
434.10	4219.99
434.28	4135.73
434.47	4292.54
434.66	4196.58
434.85	4297.22
435.03	4393.19
435.22	4301.90
435.41	4479.79
435.59	4332.33
435.78	4407.23
435.97	4376.80
436.16	4393.19
436.34	4325.31
436.53	4636.60
436.72	4585.11
436.90	4454.04
437.09	4395.53
437.28	4514.89
437.46	4608.51
437.65	4566.39
437.84	4526.60
438.02	4521.92
438.21	4772.35
438.40	4442.34
438.58	4608.51
438.77	4777.03
438.96	4739.58
439.14	4760.65
439.33	4950.23
439.52	4961.94
439.70	4777.03
439.89	4983.00
440.08	4901.08
440.26	5057.90
440.45	4938.53
440.63	5039.17
440.82	5057.90
441.01	5015.77
441.19	5156.20
441.38	5341.10
441.57	5280.25
441.75	5350.46
441.94	5397.28
442.12	5320.04
442.31	5605.58
442.50	5460.47
442.68	5523.66
442.87	5451.11
443.05	5460.47
443.24	5444.09
443.43	5504.94
443.61	5598.56
443.80	5804.53
443.98	5514.30
444.17	5399.62
444.35	5577.50
444.54	5675.80
444.73	5612.60
444.91	5706.23
445.10	5628.99
445.28	5621.97
445.47	5570.48
445.65	5636.01
445.84	5659.42
446.02	5717.93
446.21	5886.45
446.39	5774.10
446.58	5743.67
446.77	5661.76
446.95	5582.18
447.14	5614.95
447.32	5806.87
447.51	5870.06
447.69	5853.68
447.88	5790.49
448.06	5706.23
448.25	5818.57
448.43	5851.34
448.62	5774.10
448.80	5849.00
448.99	5893.47
449.17	5947.30
449.36	5689.84
449.54	6019.86
449.73	6031.56
449.91	6097.10
450.10	6139.23
450.28	6181.35
450.46	6171.99
450.65	6080.71
450.83	6146.25
451.02	6087.73
451.20	6188.38
451.39	6157.95
451.57	6164.97
451.76	6157.95
451.94	6090.07
452.13	6352.21
452.31	6282.00
452.49	6122.84
452.68	6441.15
452.86	6272.64
453.05	6312.42
453.23	6363.92
453.42	6267.95
453.60	6328.81
453.78	6527.75
453.97	6396.68
454.15	6408.39
454.34	6509.03
454.52	6434.13
454.70	6649.46
454.89	6406.05
455.07	6719.68
455.26	6607.33
455.44	6658.82
455.62	6719.68
455.81	6715.00
455.99	6839.05
456.17	6876.49
456.36	6792.23
456.54	6825.00
456.73	6972.46
456.91	6956.07
457.09	6951.39
457.28	7070.76
457.46	6883.52
457.64	7012.24
457.83	7103.53
458.01	6883.52
458.19	7119.91
458.38	7021.61
458.56	7173.74
458.74	7073.10
458.93	7272.04
459.11	7166.72
459.29	7236.94
459.48	7332.90
459.66	7295.45
459.84	7260.34
460.03	7562.27
460.21	7618.44
460.39	7393.75
460.57	7405.46
460.76	7534.18
460.94	7581.00
461.12	7658.23
461.31	7492.05
461.49	7581.00
461.67	7592.70
461.85	7702.70
462.04	7658.23
462.22	7967.18
462.40	7779.94
462.59	7784.62
462.77	7714.41
462.95	7770.58
463.13	7838.45
463.32	7786.96
463.50	7894.63
463.68	7669.94
463.86	7988.25
464.05	7782.28
464.23	7974.21
464.41	7999.95
464.59	8039.74
464.78	8301.88
464.96	8028.04
465.14	8105.28
465.32	7932.08
465.50	8074.85
465.69	8086.55
465.87	8006.97
466.05	7962.50
466.23	8161.45
466.41	7985.91
466.60	8404.86
466.78	8273.79
466.96	8086.55
467.14	8423.59
467.32	8163.79
467.51	8512.53
467.69	8149.75
467.87	8060.80
468.05	8477.42
468.23	8142.72
468.41	8173.15
468.60	8353.37
468.78	8500.83
468.96	8362.73
469.14	8692.75
469.32	8676.37
469.50	8603.81
469.69	8650.62
469.87	8816.80
470.05	8755.94
470.23	8887.01
470.41	8777.01
470.59	8994.68
470.77	8678.71
470.95	8765.31
471.14	8964.25
471.32	8690.41
471.50	8947.87
471.68	8926.80
471.86	9057.87
472.04	9329.38
472.22	9224.05
472.40	9291.93
472.58	9284.91
472.77	9212.35
472.95	9336.40
473.13	9638.33
473.31	9465.13
473.49	9371.50
473.67	9430.02
473.85	9570.45
474.03	9853.66
474.21	9694.50
474.39	9678.12
474.57	9605.56
474.75	9790.46
474.93	9923.87
475.12	9980.04
475.30	9987.07
475.48	9963.66
475.66	10099.41
475.84	10157.92
476.02	10324.10
476.20	10223.46
476.38	10651.78
476.56	10616.67
476.74	10441.13
476.92	10305.38
477.10	10478.58
477.28	10792.21
477.46	10696.25
477.64	10757.10
477.82	10864.77
478.00	11241.59
478.18	11052.01
478.36	11178.40
478.54	11307.13
478.72	11410.11
478.90	11328.19
479.08	11557.57
479.26	11520.12
479.44	11796.30
479.62	11887.58
479.80	11730.76
479.98	11983.54
480.16	12482.08
480.34	12051.42
480.52	12222.28
480.70	12255.04
480.88	12119.29
481.06	12491.44
481.24	12418.88
481.41	12608.47
481.59	12695.07
481.77	12854.22
481.95	12868.27
482.13	13041.46
482.31	12760.60
482.49	13540.00
482.67	13376.16
482.85	13231.05
483.03	13781.07
483.21	13715.54
483.39	13689.79
483.57	13680.43
483.74	13837.25
483.92	13944.91
484.10	13865.33
484.28	14338.12
484.46	14361.53
484.64	14761.76
484.82	14380.25
485.00	14707.93
485.18	15073.05
485.35	14902.19
485.53	15005.17
485.71	15257.95
485.89	15438.17
486.07	15353.91
486.25	15307.10
486.43	15428.81
486.61	15524.77
486.78	15772.87
486.96	15712.02
487.14	16102.89
487.32	15929.69
487.50	16311.19
487.68	16563.97
487.85	16704.40
488.03	16795.68
488.21	17137.40
488.39	16816.75
488.57	17132.72
488.75	17476.78
488.92	17167.83
489.10	17273.15
489.28	17500.19
489.46	17774.03
489.64	17649.98
489.81	17975.31
489.99	18122.77
490.17	18452.78
490.35	18450.44
490.53	18452.78
490.70	18539.38
490.88	18382.57
491.06	18986.43
491.24	18876.42
491.41	19206.44
491.59	19187.71
491.77	19054.30
491.95	19363.25
492.13	19936.68
492.30	19513.05
492.48	19665.18
492.66	19824.34
492.84	19859.45
493.01	20002.22
493.19	20304.15
493.37	20163.72
493.54	20278.40
493.72	20830.77
493.90	20519.48
494.08	20512.46
494.25	21043.76
494.43	20968.86
494.61	21025.03
494.79	21266.11
494.96	20919.71
495.14	21191.21
495.32	21586.76
495.49	21841.88
495.67	22043.17
495.85	22017.42
496.02	22239.77
496.20	22155.51
496.38	22317.01
496.55	22604.89
496.73	23056.62
496.91	22593.19
497.09	22820.22
497.26	22813.20
497.44	22988.74
497.62	23187.69
497.79	23552.81
497.97	23264.92
498.14	23531.75
498.32	23861.76
498.50	23805.59
498.67	23763.46
498.85	23955.38
499.03	24023.26
499.20	24348.59
499.38	24203.48
499.56	24575.62
499.73	24283.06
499.91	24306.46
500.08	24907.98
500.26	24404.77
500.44	24816.70
500.61	24945.43
500.79	24559.24
500.97	25214.59
501.14	25132.67
501.32	25127.99
501.49	24999.26
501.67	25689.72
501.84	25626.53
502.02	25528.22
502.20	25666.31
502.37	25443.96
502.55	25628.87
502.72	25947.18
502.90	26183.57
503.07	26019.74
503.25	26188.25
503.43	25837.17
503.60	26286.56
503.78	26487.84
503.95	26408.26
504.13	26920.84
504.30	26593.17
504.48	26852.97
504.65	26579.12
504.83	27110.43
505.01	27232.13
505.18	27030.85
505.36	27351.50
505.53	27257.88
505.71	27414.69
505.88	27498.95
506.06	27662.79
506.23	27798.54
506.41	27377.25
506.58	27763.43
506.76	27819.61
506.93	27964.72
507.11	28189.41
507.28	28056.00
507.46	28112.17
507.63	28268.99
507.81	28753.48
507.98	28070.04
508.16	28676.24
508.33	28591.98
508.50	28535.81
508.68	28460.91
508.85	29032.00
509.03	29228.61
509.20	28849.44
509.38	29418.19
509.55	29242.65
509.73	29305.85
509.90	29460.32
510.08	29345.64
510.25	29523.52
510.42	29397.13
510.60	29816.08
510.77	29830.13
510.95	30515.90
511.12	29958.86
511.30	29954.18
511.47	30176.53
511.64	29799.70
511.82	30253.76
511.99	30331.00
512.17	30110.99
512.34	30490.16
512.51	30974.65
512.69	30749.96
512.86	30712.51
513.04	31218.07
513.21	31007.42
513.38	31283.60
513.56	31398.29
513.73	30824.86
513.90	31171.25
514.08	31304.67
514.25	31323.39
514.43	31651.06
514.60	31655.75
514.77	31871.07
514.95	31587.87
515.12	31475.52
515.29	31515.31
515.47	31927.25
515.64	32088.74
515.81	31700.22
515.99	32128.53
516.16	32329.82
516.33	32308.76
516.51	32568.55
516.68	32449.19
516.85	32238.54
517.03	32945.38
517.20	32776.86
517.37	33001.55
517.54	32732.39
517.72	32666.86
517.89	32680.90
518.06	32931.34
518.24	32879.85
518.41	32786.22
518.58	33177.09
518.75	32659.84
518.93	33649.88
519.10	33167.73
519.27	33284.76
519.45	33464.98
519.62	33551.58
519.79	33380.72
519.96	33460.30
520.14	33813.72
520.31	33598.39
520.48	34174.16
520.65	34047.77
520.83	34120.33
521.00	34295.87
521.17	34422.26
521.34	34586.10
521.52	34658.65
521.69	33979.90
521.86	34382.47
522.03	35096.33
522.20	34740.57
522.38	35119.74
522.55	34614.18
522.72	34581.42
522.89	34726.53
523.07	35257.83
523.24	34965.26
523.41	35133.78
523.58	35185.27
523.75	35732.96
523.92	35304.64
524.10	35374.86
524.27	35842.96
524.44	35510.61
524.61	35395.92
524.78	35857.01
524.96	35756.36
525.13	36016.16
525.30	36292.35
525.47	35985.74
525.64	35924.88
525.81	36238.51
525.98	36240.86
526.16	36318.09
526.33	36158.94
526.50	36425.76
526.67	36390.65
526.84	36797.90
527.01	36479.59
527.18	36163.62
527.36	36971.10
527.53	36669.17
527.70	37055.36
527.87	37490.70
528.04	36994.51
528.21	37228.56
528.38	36931.31
528.55	37261.33
528.72	37158.34
528.89	37333.89
529.07	36926.63
529.24	36975.78
529.41	37132.60
529.58	37600.71
529.75	37591.34
529.92	37507.08
530.09	37170.05
530.26	37511.77
530.43	37933.06
530.60	37511.77
530.77	37783.27
530.94	37804.33
531.11	37748.16
531.28	37790.29
531.46	38197.54
531.63	38246.69
531.80	38316.91
531.97	38237.33
532.14	38401.17
532.31	38003.28
532.48	38256.06
532.65	38689.06
532.82	38199.88
532.99	38834.17
533.16	38667.99
533.33	38885.66
533.50	39194.61
533.67	38534.58
533.84	38600.12
534.01	38740.55
534.18	38391.81
534.35	39143.12
534.52	38770.97
534.69	39199.29
534.86	39676.76
535.03	38911.41
535.20	39325.68
535.37	39587.82
535.54	39344.41
535.71	38794.38
535.88	39407.60
536.05	39761.02
536.22	39931.88
536.38	39412.28
536.55	39737.62
536.72	39756.34
536.89	39784.43
537.06	39487.18
537.23	39768.04
537.40	39828.90
537.57	39487.18
537.74	39978.69
537.91	40112.10
538.08	40362.54
538.25	39845.28
538.42	39999.76
538.59	40261.90
538.75	39835.92
538.92	40339.13
539.09	40655.11
539.26	40325.09
539.43	40334.45
539.60	40250.19
539.77	40683.19
539.94	40428.07
540.11	40699.58
540.28	40566.16
540.44	40851.71
540.61	40825.96
540.78	40435.10
540.95	41053.00
541.12	40514.67
541.29	40725.32
541.46	40938.31
541.62	40832.99
541.79	41200.45
541.96	41027.25
542.13	40985.12
542.30	41020.23
542.47	41249.60
542.63	40982.78
542.80	41172.36
542.97	41916.65
543.14	41907.29
543.31	41780.90
543.48	41989.21
543.64	41879.21
543.81	42080.49
543.98	41942.40
544.15	41593.66
544.32	42176.45
544.48	42237.31
544.65	42188.16
544.82	41825.37
544.99	42082.83
545.16	41916.65
545.32	42068.79
545.49	42527.53
545.66	42146.03
545.83	42438.59
546.00	42583.71
546.16	42234.97
546.33	42445.62
546.50	42300.50
546.67	42859.89
546.83	42263.05
547.00	42384.76
547.17	42593.07
547.34	42719.46
547.50	43033.09
547.67	43239.06
547.84	42904.36
548.00	43210.97
548.17	43365.45
548.34	42902.02
548.51	43358.42
548.67	43150.12
548.84	43248.42
549.01	43182.88
549.18	43318.64
549.34	43363.11
549.51	43611.20
549.68	43182.88
549.84	42925.42
550.01	43330.34
550.18	43058.84
550.34	43381.83
550.51	43894.41
550.68	43531.62
550.84	43489.49
551.01	44023.14
551.18	43812.49
551.34	43606.52
551.51	43908.45
551.68	43856.96
551.84	43531.62
552.01	43871.00
552.18	43901.43
552.34	43763.34
552.51	43660.35
552.68	43796.10
552.84	43660.35
553.01	43985.69
553.18	44201.02
553.34	44542.74
553.51	43782.06
553.67	44100.37
553.84	44184.63
554.01	44533.37
554.17	44058.24
554.34	44292.30
554.51	44779.13
554.67	44659.76
554.84	44718.28
555.00	44322.72
555.17	44135.48
555.33	44931.26
555.50	44315.70
555.67	44411.67
555.83	44275.91
556.00	44552.10
556.16	44842.32
556.33	45357.24
556.50	44748.70
556.66	44959.35
556.83	44385.92
556.99	44879.77
557.16	45322.13
557.32	45078.72
557.49	45090.42
557.65	44680.83
557.82	45048.29
557.98	45174.68
558.15	44657.42
558.32	45219.15
558.48	44898.50
558.65	45071.70
558.81	45282.34
558.98	45081.06
559.14	45345.54
559.31	45537.46
559.47	45052.97
559.64	45177.02
559.80	45705.98
559.97	45759.81
560.13	45450.86
560.30	45291.71
560.46	45577.25
560.63	45907.27
560.79	45322.13
560.96	45666.19
561.12	45467.25
561.29	45993.87
561.45	45382.99
561.61	45797.26
561.78	45186.38
561.94	45261.28
562.11	45525.76
562.27	45429.80
562.44	45230.85
562.60	45677.90
562.77	45354.90
562.93	45603.00
563.10	45944.72
563.26	45916.63
563.42	46206.86
563.59	46050.04
563.75	45975.14
563.92	46040.68
564.08	46024.29
564.24	45879.18
564.41	45713.00
564.57	45897.91
564.74	46256.01
564.90	46024.29
565.07	46169.41
565.23	45925.99
565.39	46239.62
565.56	46342.61
565.72	46260.69
565.88	46190.47
566.05	45921.31
566.21	46078.13
566.38	46136.64
566.54	46267.71
566.70	46419.84
566.87	46265.37
567.03	46124.94
567.19	46326.22
567.36	46089.83
567.52	46230.26
567.68	46440.91
567.85	46358.99
568.01	46670.28
568.17	46590.70
568.34	46181.11
568.50	46384.74
568.66	46478.36
568.83	46574.32
568.99	46342.61
569.15	46653.90
569.32	46387.08
569.48	46321.54
569.64	46529.85
569.81	46527.51
569.97	46520.49
570.13	46527.51
570.30	46143.66
570.46	46227.92
570.62	46972.21
570.78	46408.14
570.95	46354.31
571.11	47196.90
571.27	46375.37
571.43	46754.54
571.60	46735.82
571.76	46391.76
571.92	46831.78
572.09	46518.15
572.25	46492.40
572.41	46927.74
572.57	46667.94
572.74	46932.42
572.90	46616.45
573.06	46803.69
573.22	46916.04
573.38	46955.83
573.55	47077.54
573.71	47194.56
573.87	47140.73
574.03	47002.64
574.20	46635.17
574.36	46976.89
574.52	46398.78
574.68	47117.32
574.84	47145.41
575.01	47049.45
575.17	47131.37
575.33	46801.35
575.49	46883.27
575.65	46939.44
575.82	46897.31
575.98	46859.87
576.14	47334.99
576.30	47026.04
576.46	46642.20
576.62	47054.13
576.79	47019.02
576.95	46321.54
577.11	46766.24
577.27	46990.94
577.43	46997.96
577.59	46843.48
577.75	47061.15
577.92	46543.89
578.08	46845.82
578.24	46941.78
578.40	46913.70
578.56	46934.76
578.72	47377.12
578.88	47543.30
579.04	46979.23
579.21	47236.69
579.37	47349.04
579.53	47206.26
579.69	46553.26
579.85	46810.71
580.01	47058.81
580.17	46656.24
580.33	47110.30
580.49	47091.58
580.65	47524.58
580.82	46941.78
580.98	46569.64
581.14	46707.73
581.30	47206.26
581.46	47079.88
581.62	47234.35
581.78	47042.43
581.94	47517.56
582.10	47145.41
582.26	47217.97
582.42	47232.01
582.58	47508.19
582.74	47428.62
582.90	47250.74
583.06	47517.56
583.22	47255.42
583.38	47447.34
583.54	47056.47
583.70	47196.90
583.86	47393.51
584.02	47131.37
584.18	47468.40
584.34	47320.95
584.50	47416.91
584.66	47632.24
584.82	47367.76
584.98	47585.43
585.14	47632.24
585.30	47632.24
585.46	46927.74
585.62	47253.08
585.78	47318.61
585.94	47555.00
586.10	47304.57
586.26	47540.96
586.42	47456.70
586.58	47370.10
586.74	47339.68
586.90	47098.60
587.06	47206.26
587.22	47388.83
587.38	47157.11
587.54	47683.73
587.70	47697.78
587.86	47377.12
588.02	46990.94
588.18	47529.26
588.34	47379.46
588.49	47409.89
588.65	47433.30
588.81	47442.66
588.97	47777.36
589.13	47234.35
589.29	47445.00
589.45	47978.64
589.61	47531.60
589.77	47395.85
589.93	47220.31
590.08	47693.10
