SpectraSuite Data File
++++++++++++++++++++++++++++++++++++
Date: Fri Oct 25 11:23:29 EDT 2013
User: price-jones
Dark Spectrum Present: No
Reference Spectrum Present: No
Number of Sampled Component Spectra: 1
Spectrometers: USB2+H05261
Integration Time (usec): 100000 (USB2+H05261)
Spectra Averaged: 1 (USB2+H05261)
Boxcar Smoothing: 0 (USB2+H05261)
Correct for Electrical Dark: No (USB2+H05261)
Strobe/Lamp Enabled: No (USB2+H05261)
Correct for Detector Non-linearity: No (USB2+H05261)
Correct for Stray Light: No (USB2+H05261)
Number of Pixels in Processed Spectrum: 2048
>>>>>Begin Processed Spectral Data<<<<<
365.73	170.86
365.92	170.86
366.12	170.86
366.32	163.84
366.52	72.56
366.72	152.13
366.91	107.66
367.11	152.13
367.31	119.37
367.51	44.47
367.70	156.82
367.90	114.69
368.10	74.90
368.30	107.66
368.49	128.73
368.69	168.52
368.89	112.35
369.09	168.52
369.28	131.07
369.48	159.16
369.68	220.01
369.87	184.90
370.07	189.58
370.27	227.03
370.47	360.44
370.66	521.94
370.86	697.48
371.06	559.39
371.25	748.97
371.45	638.97
371.65	671.73
371.84	706.84
372.04	683.44
372.24	674.07
372.44	718.54
372.63	702.16
372.83	699.82
373.03	760.67
373.22	725.57
373.42	842.59
373.62	737.27
373.81	774.72
374.01	795.78
374.21	837.91
374.40	760.67
374.60	842.59
374.79	847.27
374.99	835.57
375.19	819.19
375.38	814.51
375.58	915.15
375.78	807.48
375.97	915.15
376.17	901.11
376.37	875.36
376.56	840.25
376.76	997.07
376.95	931.53
377.15	983.02
377.35	947.92
377.54	926.85
377.74	880.04
377.93	833.23
378.13	924.51
378.33	931.53
378.52	947.92
378.72	917.49
378.91	983.02
379.11	903.45
379.31	980.68
379.50	851.96
379.70	945.58
379.89	985.37
380.09	997.07
380.28	997.07
380.48	985.37
380.68	987.71
380.87	894.08
381.07	990.05
381.26	1015.79
381.46	1020.47
381.65	1039.20
381.85	1069.62
382.04	1027.50
382.24	1086.01
382.43	1107.07
382.63	1004.09
382.83	1025.15
383.02	1100.05
383.22	1069.62
383.41	1090.69
383.61	1170.27
383.80	1125.80
384.00	1109.41
384.19	1078.99
384.39	1118.78
384.58	1207.72
384.78	1109.41
384.97	1212.40
385.17	1114.10
385.36	1235.80
385.56	1118.78
385.75	1078.99
385.95	1109.41
386.14	1245.16
386.34	1137.50
386.53	1231.12
386.72	1233.46
386.92	1188.99
387.11	1242.82
387.31	1254.53
387.50	1270.91
387.70	1203.04
387.89	1198.35
388.09	1294.32
388.28	1254.53
388.48	1212.40
388.67	1317.72
388.86	1224.10
389.06	1317.72
389.25	1273.25
389.45	1256.87
389.64	1296.66
389.84	1446.45
390.03	1378.58
390.22	1451.13
390.42	1406.66
390.61	1275.59
390.81	1364.53
391.00	1413.68
391.19	1439.43
391.39	1451.13
391.58	1373.89
391.78	1390.28
391.97	1495.60
392.16	1437.09
392.36	1600.93
392.55	1614.97
392.75	1488.58
392.94	1500.28
393.13	1488.58
393.33	1514.33
393.52	1479.22
393.71	1682.85
393.91	1586.88
394.10	1579.86
394.29	1703.91
394.49	1579.86
394.68	1708.59
394.88	1554.12
395.07	1631.35
395.26	1675.82
395.46	1710.93
395.65	1678.16
395.84	1886.47
396.04	1729.66
396.23	1785.83
396.42	1717.95
396.62	1909.88
396.81	1844.34
397.00	1741.36
397.19	1806.89
397.39	1823.28
397.58	1881.79
397.77	1886.47
397.97	1856.04
398.16	1923.92
398.35	1849.02
398.55	1811.57
398.74	1937.96
398.93	1905.20
399.12	1900.52
399.32	1977.75
399.51	1935.62
399.70	2017.54
399.90	1923.92
400.09	2026.90
400.28	2076.06
400.47	2026.90
400.67	2101.80
400.86	2036.27
401.05	2052.65
401.24	2073.71
401.44	2040.95
401.63	2167.34
401.82	2209.47
402.01	2054.99
402.21	2193.08
402.40	2197.76
402.59	2160.31
402.78	2211.81
402.97	2169.68
403.17	2204.78
403.36	2232.87
403.55	2307.77
403.74	2403.73
403.93	2361.60
404.13	2314.79
404.32	2483.31
404.51	2366.28
404.70	2389.69
404.89	2408.41
405.09	2436.50
405.28	2492.67
405.47	2452.88
405.66	2457.56
405.85	2562.89
406.05	2483.31
406.24	2485.65
406.43	2644.81
406.62	2576.93
406.81	2663.53
407.00	2579.27
407.20	2619.06
407.39	2586.29
407.58	2691.62
407.77	2724.38
407.96	2691.62
408.15	2792.26
408.34	2796.94
408.54	2801.62
408.73	2862.48
408.92	2883.54
409.11	2829.71
409.30	2993.55
409.49	2986.52
409.68	2946.73
409.87	2986.52
410.07	2939.71
410.26	2993.55
410.45	3070.78
410.64	3030.99
410.83	3054.40
411.02	3148.02
411.21	3183.13
411.40	3293.13
411.59	3389.10
411.78	3199.51
411.98	3183.13
412.17	3248.66
412.36	3290.79
412.55	3330.58
412.74	3386.76
412.93	3417.18
413.12	3438.25
413.31	3566.98
413.50	3478.04
413.69	3510.80
413.88	3630.17
414.07	3620.81
414.26	3571.66
414.45	3808.05
414.64	3679.32
414.83	3765.92
415.02	3833.80
415.22	3847.84
415.41	3786.99
415.60	3962.53
415.79	3997.64
415.98	4028.06
416.17	4035.08
416.36	3988.27
416.55	3967.21
416.74	3932.10
416.93	3978.91
417.12	4177.86
417.31	4140.41
417.50	4166.15
417.69	4332.33
417.88	4273.82
418.07	4332.33
418.26	4285.52
418.45	4301.90
418.64	4388.50
418.83	4489.15
419.02	4475.10
419.21	4528.94
419.39	4533.62
419.58	4493.83
419.77	4327.65
419.96	4730.22
420.15	4667.03
420.34	4615.54
420.53	4662.35
420.72	4868.31
420.91	4805.12
421.10	4723.20
421.29	4798.10
421.48	4692.77
421.67	4711.50
421.86	4842.57
422.05	4856.61
422.24	4840.23
422.43	4865.97
422.61	4861.29
422.80	4975.98
422.99	5060.24
423.18	4978.32
423.37	4952.57
423.56	4922.15
423.75	5067.26
423.94	4957.25
424.13	4662.35
424.32	4781.71
424.50	5027.47
424.69	5027.47
424.88	5034.49
425.07	5006.41
425.26	4873.00
425.45	5107.05
425.64	5036.83
425.83	4966.62
426.01	5055.56
426.20	5015.77
426.39	4868.31
426.58	5011.09
426.77	5053.22
426.96	5153.86
427.15	5149.18
427.33	5235.78
427.52	5125.77
427.71	5142.16
427.90	5261.52
428.09	5266.21
428.28	5296.63
428.46	5296.63
428.65	5324.72
428.84	5458.13
429.03	5420.68
429.22	5413.66
429.40	5607.92
429.59	5568.13
429.78	5235.78
429.97	5336.42
430.16	5432.38
430.34	5731.97
430.53	5806.87
430.72	5827.93
430.91	5717.93
431.10	5699.20
431.28	5818.57
431.47	5778.78
431.66	6066.67
431.85	5633.67
432.03	5900.49
432.22	5928.58
432.41	5926.24
432.60	6050.28
432.79	5905.17
432.97	5977.73
433.16	6036.24
433.35	6022.20
433.54	5975.39
433.72	6017.52
433.91	6083.05
434.10	6073.69
434.28	6127.52
434.47	6125.18
434.66	6263.27
434.85	6347.53
435.03	6298.38
435.22	6207.10
435.41	6548.82
435.59	6541.80
435.78	6483.28
435.97	6572.22
436.16	6511.37
436.34	6499.67
436.53	6560.52
436.72	6647.12
436.90	6375.62
437.09	6553.50
437.28	6567.54
437.46	6546.48
437.65	6438.81
437.84	6813.30
438.02	6825.00
438.21	6949.05
438.40	6799.26
438.58	7049.69
438.77	7192.47
438.96	6913.94
439.14	6920.96
439.33	7232.26
439.52	7375.03
439.70	7382.05
439.89	7356.30
440.08	7515.46
440.26	7368.01
440.45	7288.43
440.63	7379.71
440.82	7646.53
441.01	7651.21
441.19	7796.32
441.38	7831.43
441.57	7845.48
441.75	7786.96
441.94	8042.08
442.12	8088.89
442.31	8109.96
442.50	8229.32
442.68	8102.93
442.87	8114.64
443.05	8271.45
443.24	8222.30
443.43	8149.75
443.61	8205.92
443.80	8374.44
443.98	8044.42
444.17	7775.26
444.35	8203.58
444.54	8344.01
444.73	8292.52
444.91	8285.50
445.10	8458.70
445.28	8351.03
445.47	8308.90
445.65	8208.26
445.84	8557.00
446.02	8617.85
446.21	8439.97
446.39	8538.27
446.58	8498.49
446.77	8557.00
446.95	8294.86
447.14	8329.97
447.32	8664.66
447.51	8423.59
447.69	8482.10
447.88	8718.50
448.06	8365.07
448.25	8435.29
448.43	8634.24
448.62	8826.16
448.80	8674.03
448.99	8683.39
449.17	8692.75
449.36	8727.86
449.54	8847.22
449.73	8952.55
449.91	9057.87
450.10	9046.17
450.28	9118.73
450.46	9135.11
450.65	9149.15
450.83	9116.39
451.02	9041.49
451.20	9263.84
451.39	9128.09
451.57	9128.09
451.76	9041.49
451.94	9392.57
452.13	9254.48
452.31	9434.70
452.49	9305.97
452.68	9336.40
452.86	9345.76
453.05	9490.87
453.23	9411.29
453.42	9607.90
453.60	9483.85
453.78	9586.83
453.97	9345.76
454.15	9448.74
454.34	9741.31
454.52	9671.09
454.70	9713.22
454.89	9919.19
455.07	9834.93
455.26	9834.93
455.44	10085.37
455.62	9886.42
455.81	9825.57
455.99	10083.03
456.17	10064.30
456.36	10106.43
456.54	10314.74
456.73	10314.74
456.91	10567.52
457.09	10551.14
457.28	10714.97
457.46	10408.36
457.64	10509.01
457.83	10347.51
458.01	10408.36
458.19	10801.57
458.38	10534.75
458.56	10731.36
458.74	10675.18
458.93	10607.31
459.11	10466.88
459.29	10796.89
459.48	11059.03
459.66	10857.75
459.84	11049.67
460.03	11075.42
460.21	11052.01
460.39	11342.24
460.57	10998.18
460.76	11082.44
460.94	11300.11
461.12	11272.02
461.31	11283.72
461.49	11030.94
461.67	11286.06
461.85	11405.43
462.04	11389.05
462.22	11929.71
462.40	11747.15
462.59	11693.32
462.77	11524.80
462.95	11632.46
463.13	11808.00
463.32	11625.44
463.50	11910.99
463.68	11786.94
463.86	11910.99
464.05	11538.84
464.23	11501.39
464.41	11929.71
464.59	11817.36
464.78	12032.69
464.96	12215.26
465.14	11913.33
465.32	12091.21
465.50	12233.98
465.69	12355.69
465.87	12116.95
466.05	11896.94
466.23	12243.34
466.41	12306.54
466.60	12512.50
466.78	12025.67
466.96	12264.41
467.14	12311.22
467.32	12334.62
467.51	12582.72
467.69	12292.49
467.87	12542.93
468.05	12615.49
468.23	12578.04
468.41	12573.36
468.60	12564.00
468.78	12821.45
468.96	12535.91
469.14	12898.69
469.32	12851.88
469.50	12631.87
469.69	13083.59
469.87	13235.73
470.05	13104.66
470.23	13128.06
470.41	13144.45
470.59	13439.36
470.77	13284.88
470.95	13418.29
471.14	13635.96
471.32	13200.62
471.50	13647.66
471.68	13628.94
471.86	13881.72
472.04	13556.38
472.22	14183.65
472.40	13547.02
472.58	13895.76
472.77	13973.00
472.95	14267.91
473.13	14644.73
473.31	14331.10
473.49	14310.04
473.67	14068.96
473.85	14420.04
474.03	14820.27
474.21	14787.50
474.39	14808.57
474.57	14738.35
474.75	15026.24
474.93	15190.08
475.12	14864.74
475.30	15131.56
475.48	15173.69
475.66	14998.15
475.84	15180.71
476.02	15447.54
476.20	15447.54
476.38	15611.37
476.56	16077.14
476.74	16315.87
476.92	15831.38
477.10	16042.03
477.28	16189.49
477.46	16463.33
477.64	16395.45
477.82	16872.92
478.00	16767.60
478.18	16681.00
478.36	16868.24
478.54	17235.70
478.72	17453.37
478.90	17479.12
479.08	17659.34
479.26	17736.58
479.44	17600.83
479.62	17778.71
479.80	18281.92
479.98	18260.86
480.16	18335.76
480.34	18436.40
480.52	18530.02
480.70	18714.92
480.88	18464.49
481.06	18867.06
481.24	18920.89
481.41	19234.52
481.59	19293.04
481.77	19337.51
481.95	19564.54
482.13	19805.61
482.31	20063.07
482.49	20421.17
482.67	20114.56
482.85	20397.77
483.03	20947.79
483.21	21116.31
483.39	20947.79
483.57	21064.82
483.74	21116.31
483.92	21345.69
484.10	21610.17
484.28	21795.07
484.46	22040.82
484.64	22373.18
484.82	22026.78
485.00	22143.81
485.18	22808.52
485.35	23147.90
485.53	23000.44
485.71	23314.08
485.89	23590.26
486.07	23669.84
486.25	23573.88
486.43	23892.19
486.61	24140.29
486.78	24348.59
486.96	24320.51
487.14	24900.96
487.32	24767.55
487.50	24999.26
487.68	24924.36
487.85	25495.46
488.03	25731.85
488.21	26089.95
488.39	25823.13
488.57	26389.54
488.75	26050.16
488.92	26890.41
489.10	27007.44
489.28	26845.94
489.46	27484.91
489.64	27250.86
489.81	27798.54
489.99	27831.31
490.17	28247.93
490.35	28556.88
490.53	28360.27
490.70	28753.48
490.88	28142.60
491.06	28819.02
491.24	28669.22
491.41	29226.27
491.59	29443.94
491.77	29862.90
491.95	29577.35
492.13	29907.37
492.30	30164.82
492.48	30174.19
492.66	30059.50
492.84	30621.23
493.01	30852.94
493.19	30831.88
493.37	31089.34
493.54	31405.31
493.72	31426.37
493.90	31901.50
494.08	31782.13
494.25	32348.54
494.43	32287.69
494.61	32622.39
494.79	32826.01
494.96	32811.97
495.14	32479.61
495.32	33275.40
495.49	33479.02
495.67	33612.43
495.85	33818.40
496.02	33743.50
496.20	34398.85
496.38	34478.43
496.55	34003.30
496.73	35206.34
496.91	34930.16
497.09	35157.19
497.26	35056.54
497.44	35285.92
497.62	35416.99
497.79	35878.07
497.97	36137.87
498.14	36275.96
498.32	36226.81
498.50	36477.25
498.67	36825.99
498.85	36596.62
499.03	36858.76
499.20	36723.01
499.38	37010.89
499.56	37020.25
499.73	37420.48
499.91	37567.94
500.08	37652.20
500.26	37462.61
500.44	37888.59
500.61	37701.35
500.79	37942.42
500.97	38092.22
501.14	38873.96
501.32	38880.98
501.49	38862.26
501.67	38855.23
501.84	39569.10
502.02	39189.93
502.20	39360.79
502.37	39728.25
502.55	39519.95
502.72	39433.35
502.90	40140.19
503.07	39665.06
503.25	40037.20
503.43	40013.80
503.60	40172.96
503.78	40540.42
503.95	40163.59
504.13	40367.22
504.30	41003.85
504.48	40657.45
504.65	41263.64
504.83	41141.94
505.01	41722.39
505.18	41411.10
505.36	41645.15
505.53	41600.68
505.71	41876.86
505.88	42206.88
506.06	41855.80
506.23	42199.86
506.41	42075.81
506.58	42344.97
506.76	42789.67
506.93	42941.81
507.11	42508.81
507.28	42768.61
507.46	43091.60
507.63	43255.44
507.81	43526.94
507.98	42983.94
508.16	43533.96
508.33	43552.69
508.50	43880.36
508.68	43765.68
508.85	43952.92
509.03	44004.41
509.20	43660.35
509.38	44900.84
509.55	44493.58
509.73	44699.55
509.90	44711.25
510.08	45010.84
510.25	44556.78
510.42	45179.36
510.60	44994.46
510.77	45191.06
510.95	45532.78
511.12	45153.62
511.30	45148.93
511.47	45633.42
511.64	46031.32
511.82	46335.59
511.99	45680.24
512.17	46148.34
512.34	46211.54
512.51	46440.91
512.69	46958.17
512.86	46057.06
513.04	47241.37
513.21	46822.42
513.38	46707.73
513.56	47189.88
513.73	46995.62
513.90	47641.60
514.08	46848.16
514.25	47459.04
514.43	47309.25
514.60	47746.93
514.77	47426.28
514.95	48165.88
515.12	48172.91
515.29	47667.35
515.47	48215.04
515.64	48229.08
515.81	47983.32
515.99	48245.46
516.16	48430.36
516.33	48404.62
516.51	48952.30
516.68	48793.15
516.85	48795.49
517.03	49169.97
517.20	49057.63
517.37	48851.66
517.54	49305.73
517.72	49223.81
517.89	49258.91
518.06	49530.42
518.24	49301.04
518.41	49694.25
518.58	49364.24
518.75	49827.66
518.93	49530.42
519.10	49743.41
519.27	50061.72
519.45	49790.22
519.62	50272.37
519.79	50452.59
519.96	50270.03
520.14	50356.63
520.31	50131.93
520.48	50728.77
520.65	50499.40
520.83	51049.42
521.00	51107.94
521.17	50979.21
521.34	50974.53
521.52	50693.66
521.69	51077.51
521.86	51278.80
522.03	51297.52
522.20	51466.04
522.38	51622.86
522.55	51578.39
522.72	51447.32
522.89	51681.37
523.07	51798.40
523.24	51695.41
523.41	51676.69
523.58	51669.67
523.75	51877.97
523.92	52107.35
524.10	51978.62
524.27	52378.85
524.44	52322.68
524.61	52095.64
524.78	52395.23
524.96	52444.38
525.13	52542.69
525.30	52884.40
525.47	52640.99
525.64	52861.00
525.81	52753.33
525.98	53034.20
526.16	52825.89
526.33	52720.57
526.50	53188.67
526.67	52872.70
526.84	52982.71
527.01	52851.64
527.18	53134.84
527.36	53298.68
527.53	53193.36
527.70	53504.65
527.87	53691.89
528.04	53495.28
528.21	53666.14
528.38	53525.71
528.55	53670.82
528.72	53411.02
528.89	53841.68
529.07	53691.89
529.24	53855.73
529.41	53883.81
529.58	54028.93
529.75	53727.00
529.92	53879.13
530.09	54209.15
530.26	53986.80
530.43	54068.72
530.60	53907.22
530.77	53776.15
530.94	54092.12
531.11	53937.65
531.28	54394.05
531.46	54410.43
531.63	54536.82
531.80	54485.33
531.97	54712.36
532.14	54693.64
532.31	54593.00
532.48	54841.09
532.65	54712.36
532.82	54401.07
532.99	54897.27
533.16	54780.24
533.33	54780.24
533.50	54990.89
533.67	55049.40
533.84	54831.73
534.01	54944.08
534.18	55042.38
534.35	55608.79
534.52	55356.01
534.69	55400.48
534.86	55299.84
535.03	55154.72
535.20	55330.26
535.37	55473.04
535.54	55554.96
535.71	55428.57
535.88	55522.19
536.05	55423.89
536.22	55751.56
536.38	55693.05
536.55	55758.58
536.72	55936.46
536.89	55620.49
537.06	55976.25
537.23	55913.06
537.40	55627.51
537.57	55950.51
537.74	55922.42
537.91	56095.62
538.08	55880.29
538.25	55973.91
538.42	55863.91
538.59	56261.80
538.75	55889.65
538.92	56002.00
539.09	56308.61
539.26	56509.89
539.43	56268.82
539.60	56212.65
539.77	56285.20
539.94	56526.28
540.11	56399.89
540.28	56617.56
540.44	56561.39
540.61	56479.47
540.78	56495.85
540.95	56570.75
541.12	56463.08
541.29	56509.89
541.46	56601.18
541.62	56547.34
541.79	56762.67
541.96	56481.81
542.13	56687.78
542.30	56917.15
542.47	56905.44
542.63	56765.01
542.80	56980.34
542.97	57172.27
543.14	57162.90
543.31	57221.42
543.48	57233.12
543.64	57478.88
543.81	57364.19
543.98	57282.27
544.15	57563.14
544.32	57701.23
544.48	57708.25
544.65	57499.94
544.82	57413.34
544.99	57399.30
545.16	57719.95
545.32	57460.15
545.49	57776.12
545.66	57841.66
545.83	57787.83
546.00	57869.75
546.16	57804.21
546.33	57673.14
546.50	57595.90
546.67	58064.01
546.83	57495.26
547.00	57825.28
547.17	57939.96
547.34	57982.09
547.50	58052.31
547.67	58328.49
547.84	58302.74
548.00	58197.42
548.17	58295.72
548.34	58202.10
548.51	58293.38
548.67	58298.06
548.84	58389.34
549.01	58234.87
549.18	58344.87
549.34	58415.09
549.51	58649.14
549.68	58637.44
549.84	58487.65
550.01	58387.00
550.18	58260.62
550.34	58529.78
550.51	58672.55
550.68	58454.88
550.84	58354.24
551.01	58710.00
551.18	58768.51
551.34	58740.42
551.51	58569.57
551.68	58663.19
551.84	58876.18
552.01	58794.26
552.18	58787.24
552.34	58602.33
552.51	58876.18
552.68	58756.81
552.84	58787.24
553.01	59196.83
553.18	59051.72
553.34	59119.59
553.51	59014.27
553.67	59061.08
553.84	59084.48
554.01	58997.88
554.17	59196.83
554.34	59250.66
554.51	59147.68
554.67	59098.53
554.84	59068.10
555.00	59131.29
555.17	59220.23
555.33	59054.06
555.50	59192.15
555.67	59079.80
555.83	59269.39
556.00	59316.20
556.16	59515.14
556.33	59433.22
556.50	59377.05
556.66	59568.97
556.83	59253.00
556.99	59573.66
557.16	59650.89
557.32	59611.10
557.49	59737.49
557.65	59348.96
557.82	59650.89
557.98	59475.35
558.15	59613.44
558.32	59440.24
558.48	59465.99
558.65	59583.02
558.81	59573.66
558.98	59807.71
559.14	59917.71
559.31	60009.00
559.47	59788.98
559.64	59833.46
559.80	59831.11
559.97	59737.49
560.13	59662.60
560.30	59786.64
560.46	59765.58
560.63	59760.90
560.79	59866.22
560.96	59943.46
561.12	59971.55
561.29	59959.84
561.45	60027.72
561.61	60034.74
561.78	59894.31
561.94	60058.15
562.11	59793.67
562.27	60016.02
562.44	60065.17
562.60	60158.79
562.77	60172.83
562.93	59948.14
563.10	60093.25
563.26	59962.18
563.42	60324.97
563.59	60130.70
563.75	59978.57
563.92	60140.07
564.08	60142.41
564.24	60100.28
564.41	60172.83
564.57	60243.05
564.74	60165.81
564.90	60254.75
565.07	60266.45
565.23	60308.58
565.39	60224.32
565.56	60275.82
565.72	60285.18
565.88	60149.43
566.05	60144.75
566.21	60346.03
566.38	60252.41
566.54	60395.18
566.70	60495.83
566.87	60404.55
567.03	60151.77
567.19	60537.96
567.36	60598.81
567.52	60434.97
567.68	60528.59
567.85	60441.99
568.01	60704.13
568.17	60425.61
568.34	60516.89
568.50	60467.74
568.66	60526.25
568.83	60779.03
568.99	60638.60
569.15	60544.98
569.32	60645.62
569.48	60561.36
569.64	60659.66
569.81	60521.57
569.97	60491.15
570.13	60582.43
570.30	60481.78
570.46	60554.34
570.62	60509.87
570.78	60692.43
570.95	60786.05
571.11	60561.36
571.27	60853.93
571.43	60654.98
571.60	60708.82
571.76	60608.17
571.92	60954.57
572.09	60477.10
572.25	60580.09
572.41	60615.19
572.57	60720.52
572.74	61027.13
572.90	60673.71
573.06	60786.05
573.22	60781.37
573.38	60748.60
573.55	60687.75
573.71	60788.39
573.87	60701.79
574.03	60647.96
574.20	60970.96
574.36	60886.70
574.52	60889.04
574.68	60741.58
574.84	61076.28
575.01	60961.59
575.17	60945.21
575.33	60741.58
575.49	60680.73
575.65	60860.95
575.82	61041.17
575.98	60893.72
576.14	61064.58
576.30	60924.14
576.46	60860.95
576.62	60882.02
576.79	60910.10
576.95	60832.86
577.11	61050.53
577.27	60912.44
577.43	60769.67
577.59	60896.06
577.75	60676.05
577.92	60844.57
578.08	60921.80
578.24	60874.99
578.40	61193.31
578.56	61120.75
578.72	61193.31
578.88	60989.68
579.04	61148.84
579.21	61141.81
579.37	61057.56
579.53	61214.37
579.69	60987.34
579.85	60982.66
580.01	60942.87
580.17	60804.78
580.33	61176.92
580.49	61141.81
580.65	60938.19
580.82	61158.20
580.98	60919.46
581.14	60797.76
581.30	60926.49
581.46	61024.79
581.62	60985.00
581.78	61118.41
581.94	61062.24
582.10	61127.77
582.26	60914.78
582.42	61010.74
582.58	60949.89
582.74	61141.81
582.90	61066.92
583.06	60905.42
583.22	61144.16
583.38	60900.74
583.54	61282.25
583.70	60942.87
583.86	61141.81
584.02	61188.63
584.18	61158.20
584.34	61052.87
584.50	61291.61
584.66	60938.19
584.82	60802.44
584.98	61378.21
585.14	61174.58
585.30	61080.96
585.46	61134.79
585.62	61120.75
585.78	61282.25
585.94	60851.59
586.10	61249.48
586.26	61216.71
586.42	61095.00
586.58	61223.73
586.74	61256.50
586.90	61139.47
587.06	61085.64
587.22	61284.59
587.38	61162.88
587.54	61413.32
587.70	61361.82
587.86	61076.28
588.02	61228.41
588.18	61317.35
588.34	61148.84
588.49	61083.30
