SpectraSuite Data File
++++++++++++++++++++++++++++++++++++
Date: Fri Oct 25 11:33:17 EDT 2013
User: price-jones
Dark Spectrum Present: No
Reference Spectrum Present: No
Number of Sampled Component Spectra: 1
Spectrometers: USB2+H05261
Integration Time (usec): 100000 (USB2+H05261)
Spectra Averaged: 1 (USB2+H05261)
Boxcar Smoothing: 0 (USB2+H05261)
Correct for Electrical Dark: No (USB2+H05261)
Strobe/Lamp Enabled: No (USB2+H05261)
Correct for Detector Non-linearity: No (USB2+H05261)
Correct for Stray Light: No (USB2+H05261)
Number of Pixels in Processed Spectrum: 2048
>>>>>Begin Processed Spectral Data<<<<<
365.73	290.23
365.92	290.23
366.12	290.23
366.32	241.08
366.52	168.52
366.72	203.63
366.91	147.45
367.11	203.63
367.31	182.56
367.51	194.26
367.70	208.31
367.90	114.69
368.10	196.60
368.30	220.01
368.49	145.11
368.69	128.73
368.89	142.77
369.09	140.43
369.28	182.56
369.48	236.39
369.68	229.37
369.87	259.80
370.07	273.84
370.27	294.91
370.47	248.10
370.66	454.06
370.86	521.94
371.06	489.17
371.25	573.43
371.45	416.62
371.65	514.92
371.84	456.40
372.04	561.73
372.24	528.96
372.44	601.52
372.63	568.75
372.83	589.82
373.03	608.54
373.22	580.45
373.42	641.31
373.62	624.92
373.81	690.46
374.01	699.82
374.21	643.65
374.40	669.39
374.60	669.39
374.79	543.00
374.99	683.44
375.19	613.22
375.38	650.67
375.58	690.46
375.78	695.14
375.97	624.92
376.17	709.18
376.37	692.80
376.56	685.78
376.76	725.57
376.95	706.84
377.15	704.50
377.35	634.29
377.54	718.54
377.74	613.22
377.93	667.05
378.13	674.07
378.33	720.88
378.52	699.82
378.72	699.82
378.91	713.86
379.11	791.10
379.31	781.74
379.50	744.29
379.70	819.19
379.89	741.95
380.09	791.10
380.28	744.29
380.48	709.18
380.68	713.86
380.87	760.67
381.07	725.57
381.26	751.31
381.46	788.76
381.65	795.78
381.85	800.46
382.04	786.42
382.24	767.70
382.43	777.06
382.63	760.67
382.83	828.55
383.02	720.88
383.22	772.38
383.41	772.38
383.61	791.10
383.80	833.23
384.00	809.83
384.19	866.00
384.39	791.10
384.58	856.64
384.78	873.02
384.97	833.23
385.17	809.83
385.36	873.02
385.56	882.38
385.75	788.76
385.95	898.77
386.14	847.27
386.34	842.59
386.53	858.98
386.72	812.17
386.92	866.00
387.11	849.61
387.31	933.87
387.50	847.27
387.70	891.74
387.89	908.13
388.09	915.15
388.28	952.60
388.48	919.83
388.67	929.19
388.86	868.34
389.06	896.43
389.25	954.94
389.45	912.81
389.64	992.39
389.84	1006.43
390.03	1013.45
390.22	903.45
390.42	1036.86
390.61	868.34
390.81	985.37
391.00	936.21
391.19	1043.88
391.39	1100.05
391.58	1074.31
391.78	1074.31
391.97	1011.11
392.16	1055.58
392.36	1029.84
392.55	1006.43
392.75	1020.47
392.94	964.30
393.13	1015.79
393.33	1001.75
393.52	1090.69
393.71	1139.84
393.91	1018.13
394.10	1128.14
394.29	1144.52
394.49	1074.31
394.68	1071.97
394.88	1158.57
395.07	1193.67
395.26	1102.39
395.46	1160.91
395.65	1111.75
395.84	1203.04
396.04	1249.85
396.23	1191.33
396.42	1231.12
396.62	1179.63
396.81	1207.72
397.00	1263.89
397.19	1179.63
397.39	1156.22
397.58	1221.76
397.77	1247.51
397.97	1294.32
398.16	1287.29
398.35	1299.00
398.55	1261.55
398.74	1327.08
398.93	1383.26
399.12	1249.85
399.32	1348.15
399.51	1226.44
399.70	1399.64
399.90	1516.67
400.09	1315.38
400.28	1366.87
400.47	1322.40
400.67	1352.83
400.86	1373.89
401.05	1387.94
401.24	1406.66
401.44	1465.18
401.63	1483.90
401.82	1556.46
402.01	1474.54
402.21	1455.81
402.40	1423.05
402.59	1465.18
402.78	1526.03
402.97	1509.65
403.17	1497.94
403.36	1497.94
403.55	1441.77
403.74	1509.65
403.93	1526.03
404.13	1645.40
404.32	1577.52
404.51	1673.48
404.70	1687.53
404.89	1629.01
405.09	1636.03
405.28	1577.52
405.47	1696.89
405.66	1767.10
405.85	1689.87
406.05	1755.40
406.24	1797.53
406.43	1701.57
406.62	1851.36
406.81	1834.98
407.00	1806.89
407.20	1823.28
407.39	1776.47
407.58	1961.37
407.77	1825.62
407.96	1968.39
408.15	1968.39
408.34	1893.49
408.54	1998.82
408.73	1994.14
408.92	1966.05
409.11	1877.11
409.30	1952.01
409.49	2005.84
409.68	1923.92
409.87	1935.62
410.07	2085.42
410.26	1947.33
410.45	2085.42
410.64	2153.29
410.83	2129.89
411.02	2054.99
411.21	2237.55
411.40	2125.21
411.59	2160.31
411.78	2265.64
411.98	2113.50
412.17	2277.34
412.36	2289.04
412.55	2246.91
412.74	2417.77
412.93	2305.43
413.12	2338.20
413.31	2448.20
413.50	2310.11
413.69	2436.50
413.88	2502.03
414.07	2464.58
414.26	2497.35
414.45	2569.91
414.64	2459.90
414.83	2574.59
415.02	2518.42
415.22	2586.29
415.41	2689.28
415.60	2689.28
415.79	2626.08
415.98	2874.18
416.17	2743.11
416.36	2705.66
416.55	2752.47
416.74	2895.24
416.93	2726.72
417.12	2822.69
417.31	2780.56
417.50	2916.31
417.69	2881.20
417.88	3007.59
418.07	2918.65
418.26	2977.16
418.45	2998.23
418.64	3136.32
418.83	3068.44
419.02	3084.83
419.21	3197.17
419.39	3119.93
419.58	3136.32
419.77	3126.96
419.96	3234.62
420.15	3225.26
420.34	3283.77
420.53	3141.00
420.72	3084.83
420.91	3302.50
421.10	3382.07
421.29	3293.13
421.48	3283.77
421.67	3267.39
421.86	3405.48
422.05	3297.81
422.24	3286.11
422.43	3431.23
422.61	3375.05
422.80	3499.10
422.99	3440.59
423.18	3452.29
423.37	3618.47
423.56	3508.46
423.75	3414.84
423.94	3419.52
424.13	3297.81
424.32	3344.63
424.50	3482.72
424.69	3508.46
424.88	3405.48
425.07	3522.51
425.26	3426.54
425.45	3370.37
425.64	3377.39
425.83	3323.56
426.01	3302.50
426.20	3616.13
426.39	3492.08
426.58	3513.14
426.77	3492.08
426.96	3630.17
427.15	3562.30
427.33	3721.45
427.52	3609.11
427.71	3552.93
427.90	3559.95
428.09	3581.02
428.28	3812.73
428.46	3761.24
428.65	3662.94
428.84	3868.91
429.03	3721.45
429.22	3740.18
429.40	3803.37
429.59	3918.06
429.78	3712.09
429.97	3749.54
430.16	3854.86
430.34	3798.69
430.53	3873.59
430.72	3838.48
430.91	3861.88
431.10	3815.07
431.28	3861.88
431.47	4077.21
431.66	3974.23
431.85	4131.05
432.03	4074.87
432.22	4198.92
432.41	4262.12
432.60	4156.79
432.79	4002.32
432.97	4093.60
433.16	4203.60
433.35	4067.85
433.54	4131.05
433.72	4234.03
433.91	4100.62
434.10	4194.24
434.28	4088.92
434.47	4360.42
434.66	4248.07
434.85	4444.68
435.03	4334.67
435.22	4442.34
435.41	4437.66
435.59	4423.61
435.78	4423.61
435.97	4346.37
436.16	4540.64
436.34	4442.34
436.53	4475.10
436.72	4486.81
436.90	4447.02
437.09	4521.92
437.28	4376.80
437.46	4393.19
437.65	4578.09
437.84	4578.09
438.02	4573.41
438.21	4767.67
438.40	4566.39
438.58	4840.23
438.77	4805.12
438.96	4751.29
439.14	4880.02
439.33	4814.48
439.52	5022.79
439.70	4973.64
439.89	5027.47
440.08	5041.51
440.26	5001.72
440.45	5179.61
440.63	5142.16
440.82	5139.82
441.01	5233.44
441.19	5172.58
441.38	5334.08
441.57	5217.05
441.75	5151.52
441.94	5336.42
442.12	5530.69
442.31	5483.88
442.50	5528.35
442.68	5418.34
442.87	5516.64
443.05	5437.06
443.24	5713.25
443.43	5692.18
443.61	5626.65
443.80	5710.91
443.98	5666.44
444.17	5305.99
444.35	5549.41
444.54	5928.58
444.73	5750.70
444.91	5666.44
445.10	5636.01
445.28	5657.07
445.47	5584.52
445.65	5741.33
445.84	5877.09
446.02	5764.74
446.21	5837.30
446.39	5750.70
446.58	5743.67
446.77	5694.52
446.95	5549.41
447.14	5783.46
447.32	5858.36
447.51	5701.54
447.69	5895.81
447.88	5877.09
448.06	5731.97
448.25	5844.32
448.43	5867.72
448.62	5907.51
448.80	5799.85
448.99	6047.94
449.17	5853.68
449.36	5757.72
449.54	5956.66
449.73	6059.65
449.91	6080.71
450.10	6132.20
450.28	6122.84
450.46	6207.10
450.65	6321.79
450.83	6321.79
451.02	6167.31
451.20	6092.41
451.39	6171.99
451.57	6160.29
451.76	6183.70
451.94	6282.00
452.13	6277.32
452.31	6265.61
452.49	6235.19
452.68	6487.96
452.86	6401.37
453.05	6359.24
453.23	6469.24
453.42	6401.37
453.60	6480.94
453.78	6464.56
453.97	6328.81
454.15	6534.78
454.34	6534.78
454.52	6740.74
454.70	6700.95
454.89	6492.65
455.07	6729.04
455.26	6815.64
455.44	6679.89
455.62	6773.51
455.81	6848.41
455.99	6855.43
456.17	6719.68
456.36	6820.32
456.54	6932.67
456.73	6958.41
456.91	7138.63
457.09	7002.88
457.28	7243.96
457.46	6993.52
457.64	7279.07
457.83	7045.01
458.01	7157.36
458.19	7332.90
458.38	7082.46
458.56	7192.47
458.74	7152.68
458.93	7204.17
459.11	7241.62
459.29	7330.56
459.48	7372.69
459.66	7353.96
459.84	7499.08
460.03	7613.76
460.21	7501.42
460.39	7311.83
460.57	7456.95
460.76	7620.78
460.94	7428.86
461.12	7634.83
461.31	7524.82
461.49	7527.16
461.67	7564.61
461.85	7681.64
462.04	7688.66
462.22	8280.82
462.40	8025.70
462.59	7880.58
462.77	7676.96
462.95	7819.73
463.13	7733.13
463.32	7681.64
463.50	7878.24
463.68	8016.33
463.86	7955.48
464.05	7936.76
464.23	7967.18
464.41	8102.93
464.59	7688.66
464.78	8168.47
464.96	8079.53
465.14	8081.87
465.32	8187.19
465.50	8184.85
465.69	8152.09
465.87	8081.87
466.05	8133.36
466.23	8234.00
466.41	7976.55
466.60	8571.04
466.78	8229.32
466.96	8238.69
467.14	8458.70
467.32	8339.33
467.51	8297.20
467.69	8301.88
467.87	8311.24
468.05	8341.67
468.23	8533.59
468.41	8334.65
468.60	8542.96
468.78	8482.10
468.96	8568.70
469.14	8802.75
469.32	8692.75
469.50	8390.82
469.69	8484.44
469.87	8940.85
470.05	9036.81
470.23	8950.21
470.41	8791.05
470.59	8847.22
470.77	8992.34
470.95	9036.81
471.14	9043.83
471.32	8833.18
471.50	9359.80
471.68	9160.86
471.86	9036.81
472.04	9200.65
472.22	9561.09
472.40	9329.38
472.58	9446.40
472.77	9277.88
472.95	9376.19
473.13	9748.33
473.31	9345.76
473.49	9640.67
473.67	9516.62
473.85	9556.41
474.03	9825.57
474.21	9699.18
474.39	9802.16
474.57	9956.64
474.75	9977.70
474.93	10129.84
475.12	9848.97
475.30	10193.03
475.48	10143.88
475.66	10237.50
475.84	9921.53
476.02	10324.10
476.20	10459.85
476.38	10745.40
476.56	10684.55
476.74	10747.74
476.92	10597.95
477.10	10768.80
477.28	10995.84
477.46	10813.28
477.64	10829.66
477.82	11068.39
478.00	11138.61
478.18	11094.14
478.36	11157.33
478.54	11492.03
478.72	11445.22
478.90	11793.96
479.08	11698.00
479.26	11578.63
479.44	11595.01
479.62	11946.09
479.80	11843.11
479.98	12079.50
480.16	12372.07
480.34	12168.45
480.52	12400.16
480.70	12629.53
480.88	12163.76
481.06	12505.48
481.24	12631.87
481.41	12603.78
481.59	12924.44
481.77	12954.87
481.95	12905.71
482.13	13137.43
482.31	12975.93
482.49	13404.25
482.67	13774.05
482.85	13514.25
483.03	13774.05
483.21	13617.24
483.39	13834.91
483.57	13575.11
483.74	14176.62
483.92	14291.31
484.10	14202.37
484.28	14228.12
484.46	14651.75
484.64	14609.62
484.82	14834.32
485.00	14951.34
485.18	14979.43
485.35	15281.36
485.53	15131.56
485.71	15180.71
485.89	15578.61
486.07	15449.88
486.25	15665.21
486.43	15798.62
486.61	16020.97
486.78	16011.60
486.96	16238.64
487.14	16329.92
487.32	16152.04
487.50	16594.40
487.68	16362.69
487.85	16627.17
488.03	16788.66
488.21	17312.94
488.39	17008.67
488.57	17469.76
488.75	17514.23
488.92	17425.29
489.10	18073.62
489.28	17839.56
489.46	18122.77
489.64	17621.89
489.81	18148.51
489.99	18225.75
490.17	18202.35
490.35	18553.43
490.53	18925.57
490.70	18853.02
490.88	18815.57
491.06	19166.65
491.24	18845.99
491.41	19225.16
491.59	19236.86
491.77	19744.76
491.95	19414.74
492.13	19665.18
492.30	19775.19
492.48	19557.52
492.66	19728.38
492.84	20079.46
493.01	20187.12
493.19	20575.65
493.37	20659.91
493.54	20688.00
493.72	20638.84
493.90	20666.93
494.08	20706.72
494.25	21151.42
494.43	21291.85
494.61	21397.18
494.79	21448.67
494.96	21163.12
495.14	21465.05
495.32	22040.82
495.49	21935.50
495.67	21879.33
495.85	22424.67
496.02	22302.96
496.20	22305.31
496.38	22679.79
496.55	22597.87
496.73	22874.06
496.91	22717.24
497.09	23197.05
497.26	23133.86
497.44	22995.76
497.62	23456.85
497.79	23543.45
497.97	23475.57
498.14	23814.95
498.32	23772.82
498.50	23962.40
498.67	24177.73
498.85	24304.12
499.03	24622.44
499.20	24009.22
499.38	24594.35
499.56	24655.20
499.73	24837.76
499.91	24907.98
500.08	24882.24
500.26	24912.66
500.44	24929.05
500.61	25226.29
500.79	25132.67
500.97	25415.88
501.14	25467.37
501.32	25689.72
501.49	25727.17
501.67	25766.96
501.84	25954.20
502.02	25678.02
502.20	25902.71
502.37	26085.27
502.55	25869.94
502.72	25954.20
502.90	25804.41
503.07	26319.32
503.25	26291.24
503.43	26029.10
503.60	26569.76
503.78	26775.73
503.95	26742.96
504.13	26843.60
504.30	26958.29
504.48	26937.23
504.65	26813.18
504.83	27248.52
505.01	27274.26
505.18	27711.94
505.36	27601.94
505.53	27194.68
505.71	27693.22
505.88	27892.16
506.06	27505.98
506.23	27931.95
506.41	27697.90
506.58	28114.52
506.76	28198.77
506.93	28568.58
507.11	28268.99
507.28	27976.42
507.46	29001.58
507.63	28620.07
507.81	28933.70
507.98	28474.96
508.16	28793.27
508.33	28821.36
508.50	28882.21
508.68	28907.96
508.85	28980.51
509.03	28809.65
509.20	29378.40
509.38	29614.80
509.55	29696.72
509.73	29481.39
509.90	29345.64
510.08	29626.50
510.25	29773.95
510.42	29603.10
510.60	29645.23
510.77	29879.28
510.95	30429.30
511.12	30169.51
511.30	30284.19
511.47	30326.32
511.64	30424.62
511.82	30546.33
511.99	30518.25
512.17	30492.50
512.34	30635.27
512.51	31115.08
512.69	31175.94
512.86	30843.58
513.04	31164.23
513.21	31295.30
513.38	31826.60
513.56	31447.44
513.73	31407.65
513.90	31417.01
514.08	31477.86
514.25	31871.07
514.43	32219.81
514.60	31978.74
514.77	31894.48
514.95	32233.86
515.12	31798.52
515.29	32095.77
515.47	32126.19
515.64	32512.38
515.81	32416.42
515.99	32481.95
516.16	32596.64
516.33	32716.01
516.51	32830.69
516.68	32549.83
516.85	32856.44
517.03	32978.15
517.20	33102.20
517.37	33060.07
517.54	33287.10
517.72	33275.40
517.89	32989.85
518.06	33301.14
518.24	33584.35
518.41	33425.19
518.58	33310.50
518.75	33593.71
518.93	33778.61
519.10	33708.40
519.27	33846.49
519.45	33551.58
519.62	34068.84
519.79	34045.43
519.96	34160.12
520.14	33830.10
520.31	34012.66
520.48	33883.94
520.65	34508.86
520.83	34850.58
521.00	34771.00
521.17	34508.86
521.34	34855.26
521.52	34747.59
521.69	35234.42
521.86	34899.73
522.03	34866.96
522.20	35639.34
522.38	35044.84
522.55	35782.11
522.72	35754.02
522.89	35079.95
523.07	35840.62
523.24	35732.96
523.41	35634.66
523.58	35330.39
523.75	36095.74
523.92	35761.05
524.10	35864.03
524.27	36116.81
524.44	35796.15
524.61	35952.97
524.78	35864.03
524.96	36685.56
525.13	36659.81
525.30	36561.51
525.47	36800.24
525.64	36669.17
525.81	37031.96
525.98	36264.26
526.16	36570.87
526.33	36678.54
526.50	36989.83
526.67	36409.37
526.84	36744.07
527.01	36921.95
527.18	36935.99
527.36	36748.75
527.53	37612.41
527.70	37481.34
527.87	37820.72
528.04	37378.36
528.21	37497.72
528.38	37467.30
528.55	37827.74
528.72	37818.38
528.89	37762.20
529.07	37694.33
529.24	37628.79
529.41	37689.65
529.58	37493.04
529.75	37621.77
529.92	37827.74
530.09	38108.60
530.26	38375.42
530.43	38204.56
530.60	37996.26
530.77	38143.71
530.94	38272.44
531.11	38272.44
531.28	38412.87
531.46	38588.41
531.63	38129.67
531.80	38092.22
531.97	38787.36
532.14	38766.29
532.31	38417.55
532.48	39093.97
532.65	38625.86
532.82	38799.06
532.99	38644.59
533.16	38242.01
533.33	39065.88
533.50	39234.40
533.67	39342.06
533.84	38679.69
534.01	39337.38
534.18	39189.93
534.35	39634.63
534.52	39274.19
534.69	39431.01
534.86	39674.42
535.03	39482.50
535.20	39763.36
535.37	40147.21
535.54	39824.22
535.71	39789.11
535.88	39545.69
536.05	39728.25
536.22	40135.51
536.38	40381.26
536.55	40357.86
536.72	39913.16
536.89	40055.93
537.06	40187.00
537.23	40432.75
537.40	40657.45
537.57	40278.28
537.74	40243.17
537.91	40725.32
538.08	40624.68
538.25	40116.78
538.42	40512.33
538.59	40753.41
538.75	40465.52
538.92	40914.90
539.09	40744.05
539.26	41153.64
539.43	40858.73
539.60	41048.32
539.77	40678.51
539.94	41542.17
540.11	41439.18
540.28	41151.30
540.44	41556.21
540.61	40919.59
540.78	40961.72
540.95	41507.06
541.12	40966.40
541.29	41221.52
541.46	41352.58
541.62	41432.16
541.79	41282.37
541.96	41186.41
542.13	41752.82
542.30	41153.64
542.47	42024.32
542.63	42223.26
542.80	42047.72
542.97	42705.41
543.14	42321.57
543.31	42038.36
543.48	42129.64
543.64	42735.84
543.81	42419.87
543.98	42356.67
544.15	42075.81
544.32	42443.27
544.48	42930.11
544.65	42555.62
544.82	42930.11
544.99	42691.37
545.16	42895.00
545.32	42777.97
545.49	42813.08
545.66	42948.83
545.83	43129.05
546.00	42871.59
546.16	43077.56
546.33	42436.25
546.50	42871.59
546.67	43423.96
546.83	42660.94
547.00	43016.71
547.17	43316.29
547.34	43524.60
547.50	43213.31
547.67	43704.82
547.84	43737.59
548.00	43405.23
548.17	43632.27
548.34	43604.18
548.51	43576.09
548.67	43489.49
548.84	43337.36
549.01	43449.70
549.18	43833.55
549.34	43952.92
549.51	43992.71
549.68	43861.64
549.84	44027.82
550.01	44301.66
550.18	43903.77
550.34	44266.55
550.51	44210.38
550.68	44233.78
550.84	44315.70
551.01	44170.59
551.18	44184.63
551.34	44048.88
551.51	44266.55
551.68	44299.32
551.84	44053.56
552.01	44402.30
552.18	44374.22
552.34	44266.55
552.51	44758.06
552.68	44252.51
552.84	44491.24
553.01	44940.63
553.18	44128.46
553.34	44411.67
553.51	44542.74
553.67	44610.61
553.84	44893.82
554.01	44711.25
554.17	44718.28
554.34	44856.37
554.51	44804.88
554.67	45074.04
554.84	45111.49
555.00	44727.64
555.17	45041.27
555.33	45258.94
555.50	44877.43
555.67	45069.36
555.83	45247.24
556.00	45106.80
556.16	45509.38
556.33	45109.14
556.50	44933.60
556.66	44889.13
556.83	44776.79
556.99	45464.91
557.16	45586.61
557.32	45565.55
557.49	45621.72
557.65	44935.95
557.82	45270.64
557.98	45296.39
558.15	45734.07
558.32	45294.05
558.48	45148.93
558.65	45621.72
558.81	45698.96
558.98	45881.52
559.14	45336.18
559.31	45350.22
559.47	45586.61
559.64	45823.01
559.80	45724.71
559.97	46059.40
560.13	45684.92
560.30	45972.80
560.46	45811.31
560.63	45975.14
560.79	46134.30
560.96	46305.16
561.12	45893.22
561.29	45925.99
561.45	45909.61
561.61	46323.88
561.78	46504.10
561.94	45928.33
562.11	46234.94
562.27	46036.00
562.44	45972.80
562.60	46536.87
562.77	46258.35
562.93	46153.02
563.10	46532.19
563.26	46454.95
563.42	46728.80
563.59	46382.40
563.75	46234.94
563.92	46234.94
564.08	46103.87
564.24	46356.65
564.41	46483.04
564.57	45879.18
564.74	46010.25
564.90	46174.09
565.07	46897.31
565.23	46515.81
565.39	46227.92
565.56	46553.26
565.72	46277.07
565.88	47042.43
566.05	46447.93
566.21	46649.22
566.38	46689.01
566.54	46536.87
566.70	46745.18
566.87	46501.76
567.03	45963.44
567.19	46579.00
567.36	46429.21
567.52	46780.29
567.68	46899.65
567.85	46831.78
568.01	46859.87
568.17	46768.58
568.34	46836.46
568.50	46859.87
568.66	47058.81
568.83	46614.11
568.99	46745.18
569.15	46871.57
569.32	46827.10
569.48	46791.99
569.64	47344.36
569.81	47257.76
569.97	47103.28
570.13	47573.73
570.30	46836.46
570.46	46876.25
570.62	47194.56
570.78	47290.52
570.95	46997.96
571.11	47227.33
571.27	46923.06
571.43	46784.97
571.60	47026.04
571.76	46817.74
571.92	47276.48
572.09	47318.61
572.25	46911.36
572.41	47470.75
572.57	46906.68
572.74	47519.90
572.90	47405.21
573.06	47215.63
573.22	47538.62
573.38	47662.67
573.55	47342.02
573.71	47770.33
573.87	47767.99
574.03	47344.36
574.20	47578.41
574.36	46951.15
574.52	47049.45
574.68	47236.69
574.84	47456.70
575.01	47236.69
575.17	47271.80
575.33	47622.88
575.49	47086.90
575.65	47330.31
575.82	47681.39
575.98	47342.02
576.14	47543.30
576.30	47842.89
576.46	47229.67
576.62	47508.19
576.79	47552.66
576.95	47033.07
577.11	47297.55
577.27	47309.25
577.43	47274.14
577.59	47683.73
577.75	47342.02
577.92	47466.06
578.08	47356.06
578.24	47650.97
578.40	47435.64
578.56	47601.82
578.72	47257.76
578.88	47704.80
579.04	47512.88
579.21	47262.44
579.37	47187.54
579.53	47672.03
579.69	47208.61
579.85	47461.38
580.01	47672.03
580.17	47292.86
580.33	47976.30
580.49	47590.11
580.65	47615.86
580.82	47234.35
580.98	47334.99
581.14	46983.91
581.30	47845.23
581.46	47468.40
581.62	47522.24
581.78	47676.71
581.94	47477.77
582.10	47770.33
582.26	47608.84
582.42	47840.55
582.58	47997.37
582.74	47634.58
582.90	47716.50
583.06	48343.77
583.22	47250.74
583.38	47849.91
583.54	47613.52
583.70	47606.50
583.86	47461.38
584.02	47753.95
584.18	48144.82
584.34	47835.87
584.50	48027.79
584.66	47992.68
584.82	47714.16
584.98	47990.34
585.14	47721.18
585.30	47599.47
585.46	48016.09
585.62	47737.57
585.78	47777.36
585.94	47732.89
586.10	47819.49
586.26	47613.52
586.42	47700.12
586.58	48247.80
586.74	47482.45
586.90	47672.03
587.06	47782.04
587.22	47941.19
587.38	47545.64
587.54	48121.41
587.70	48435.05
587.86	47812.46
588.02	47646.29
588.18	47870.98
588.34	47711.82
588.49	47934.17
588.65	47620.54
588.81	47721.18
588.97	47931.83
589.13	47976.30
589.29	47702.46
589.45	48320.36
589.61	48191.63
589.77	48294.61
589.93	48378.87
