SpectraSuite Data File
++++++++++++++++++++++++++++++++++++
Date: Fri Oct 25 10:48:00 EDT 2013
User: price-jones
Dark Spectrum Present: No
Reference Spectrum Present: No
Number of Sampled Component Spectra: 1
Spectrometers: USB2+H05261
Integration Time (usec): 100000 (USB2+H05261)
Spectra Averaged: 1 (USB2+H05261)
Boxcar Smoothing: 0 (USB2+H05261)
Correct for Electrical Dark: No (USB2+H05261)
Strobe/Lamp Enabled: No (USB2+H05261)
Correct for Detector Non-linearity: No (USB2+H05261)
Correct for Stray Light: No (USB2+H05261)
Number of Pixels in Processed Spectrum: 2048
>>>>>Begin Processed Spectral Data<<<<<
365.73	189.58
365.92	189.58
366.12	189.58
366.32	72.56
366.52	0.00
366.72	0.00
366.91	49.15
367.11	23.41
367.31	37.45
367.51	60.85
367.70	11.70
367.90	44.47
368.10	51.49
368.30	32.77
368.49	37.45
368.69	0.00
368.89	58.51
369.09	105.32
369.28	100.64
369.48	65.54
369.68	46.81
369.87	145.11
370.07	135.75
370.27	161.50
370.47	201.29
370.66	379.17
370.86	425.98
371.06	465.77
371.25	430.66
371.45	414.27
371.65	547.69
371.84	442.36
372.04	456.40
372.24	440.02
372.44	482.15
372.63	552.37
372.83	468.11
373.03	465.77
373.22	425.98
373.42	552.37
373.62	470.45
373.81	568.75
374.01	564.07
374.21	631.94
374.40	571.09
374.60	599.18
374.79	610.88
374.99	531.30
375.19	638.97
375.38	599.18
375.58	531.30
375.78	575.77
375.97	627.26
376.17	683.44
376.37	629.60
376.56	606.20
376.76	557.05
376.95	594.50
377.15	599.18
377.35	622.58
377.54	655.35
377.74	601.52
377.93	660.03
378.13	669.39
378.33	571.09
378.52	610.88
378.72	718.54
378.91	622.58
379.11	645.99
379.31	585.13
379.50	643.65
379.70	683.44
379.89	657.69
380.09	634.29
380.28	669.39
380.48	695.14
380.68	631.94
380.87	671.73
381.07	636.63
381.26	645.99
381.46	641.31
381.65	641.31
381.85	667.05
382.04	697.48
382.24	671.73
382.43	702.16
382.63	669.39
382.83	641.31
383.02	727.91
383.22	748.97
383.41	645.99
383.61	685.78
383.80	655.35
384.00	709.18
384.19	772.38
384.39	732.59
384.58	744.29
384.78	805.14
384.97	734.93
385.17	781.74
385.36	704.50
385.56	734.93
385.75	697.48
385.95	763.01
386.14	784.08
386.34	833.23
386.53	802.80
386.72	744.29
386.92	854.30
387.11	847.27
387.31	807.48
387.50	793.44
387.70	791.10
387.89	737.27
388.09	772.38
388.28	800.46
388.48	809.83
388.67	840.25
388.86	849.61
389.06	854.30
389.25	889.40
389.45	924.51
389.64	912.81
389.84	912.81
390.03	933.87
390.22	887.06
390.42	924.51
390.61	903.45
390.81	896.43
391.00	858.98
391.19	950.26
391.39	940.90
391.58	987.71
391.78	940.90
391.97	976.00
392.16	933.87
392.36	1025.15
392.55	1050.90
392.75	954.94
392.94	952.60
393.13	961.96
393.33	983.02
393.52	1062.60
393.71	1008.77
393.91	1034.52
394.10	1022.81
394.29	1055.58
394.49	1046.22
394.68	1043.88
394.88	1137.50
395.07	1137.50
395.26	1043.88
395.46	1090.69
395.65	1123.46
395.84	1116.44
396.04	1116.44
396.23	1081.33
396.42	1050.90
396.62	1144.52
396.81	1235.80
397.00	1188.99
397.19	1256.87
397.39	1245.16
397.58	1200.69
397.77	1235.80
397.97	1181.97
398.16	1245.16
398.35	1324.74
398.55	1362.19
398.74	1261.55
398.93	1369.21
399.12	1343.47
399.32	1233.46
399.51	1254.53
399.70	1380.92
399.90	1310.70
400.09	1394.96
400.28	1451.13
400.47	1359.85
400.67	1409.00
400.86	1359.85
401.05	1455.81
401.24	1460.49
401.44	1451.13
401.63	1528.37
401.82	1514.33
402.01	1490.92
402.21	1432.41
402.40	1556.46
402.59	1451.13
402.78	1469.86
402.97	1476.88
403.17	1458.15
403.36	1556.46
403.55	1629.01
403.74	1675.82
403.93	1652.42
404.13	1645.40
404.32	1598.59
404.51	1645.40
404.70	1645.40
404.89	1533.05
405.09	1689.87
405.28	1671.14
405.47	1713.27
405.66	1652.42
405.85	1678.16
406.05	1736.68
406.24	1809.23
406.43	1769.44
406.62	1741.36
406.81	1839.66
407.00	1769.44
407.20	1755.40
407.39	1764.76
407.58	1849.02
407.77	1933.28
407.96	2005.84
408.15	1949.67
408.34	2038.61
408.54	1879.45
408.73	2059.67
408.92	1954.35
409.11	2069.03
409.30	2008.18
409.49	2052.65
409.68	2043.29
409.87	2022.22
410.07	2057.33
410.26	2059.67
410.45	2162.66
410.64	2026.90
410.83	2155.63
411.02	2183.72
411.21	2207.13
411.40	2209.47
411.59	2230.53
411.78	2242.23
411.98	2214.15
412.17	2403.73
412.36	2263.30
412.55	2361.60
412.74	2361.60
412.93	2368.62
413.12	2352.24
413.31	2429.48
413.50	2551.18
413.69	2497.35
413.88	2406.07
414.07	2495.01
414.26	2609.70
414.45	2616.72
414.64	2555.86
414.83	2691.62
415.02	2607.36
415.22	2715.02
415.41	2738.43
415.60	2764.17
415.79	2705.66
415.98	2787.58
416.17	2834.39
416.36	2715.02
416.55	2759.49
416.74	2747.79
416.93	2930.35
417.12	2920.99
417.31	2820.35
417.50	2916.31
417.69	2974.82
417.88	3094.19
418.07	2977.16
418.26	2946.73
418.45	3026.31
418.64	3213.56
418.83	3187.81
419.02	3192.49
419.21	3176.11
419.39	3197.17
419.58	3150.36
419.77	3155.04
419.96	3272.07
420.15	3262.71
420.34	3262.71
420.53	3225.26
420.72	3286.11
420.91	3302.50
421.10	3206.53
421.29	3454.63
421.48	3419.52
421.67	3304.84
421.86	3344.63
422.05	3473.36
422.24	3375.05
422.43	3414.84
422.61	3566.98
422.80	3503.78
422.99	3386.76
423.18	3442.93
423.37	3520.17
423.56	3445.27
423.75	3419.52
423.94	3297.81
424.13	3246.32
424.32	3375.05
424.50	3550.59
424.69	3391.44
424.88	3571.66
425.07	3566.98
425.26	3386.76
425.45	3489.74
425.64	3538.89
425.83	3559.95
426.01	3510.80
426.20	3590.38
426.39	3604.42
426.58	3522.51
426.77	3611.45
426.96	3637.19
427.15	3581.02
427.33	3527.19
427.52	3634.85
427.71	3599.74
427.90	3674.64
428.09	3784.65
428.28	3786.99
428.46	3730.81
428.65	3688.68
428.84	3836.14
429.03	3882.95
429.22	3702.73
429.40	3791.67
429.59	3751.88
429.78	3716.77
429.97	3597.40
430.16	3653.58
430.34	3875.93
430.53	3808.05
430.72	3733.15
430.91	3845.50
431.10	3840.82
431.28	3971.89
431.47	4037.42
431.66	4060.83
431.85	4016.36
432.03	4051.47
432.22	4159.13
432.41	4271.48
432.60	4194.24
432.79	4205.94
432.97	4236.37
433.16	4168.49
433.35	4032.74
433.54	4212.96
433.72	4325.31
433.91	4325.31
434.10	4217.65
434.28	4198.92
434.47	4332.33
434.66	4341.69
434.85	4327.65
435.03	4351.06
435.22	4372.12
435.41	4592.13
435.59	4407.23
435.78	4388.50
435.97	4451.70
436.16	4580.43
436.34	4564.04
436.53	4526.60
436.72	4606.17
436.90	4437.66
437.09	4610.86
437.28	4388.50
437.46	4606.17
437.65	4652.98
437.84	4760.65
438.02	4652.98
438.21	4571.07
438.40	4758.31
438.58	4823.84
438.77	4762.99
438.96	4873.00
439.14	4933.85
439.33	4929.17
439.52	5001.72
439.70	5118.75
439.89	5057.90
440.08	5057.90
440.26	5174.92
440.45	4971.30
440.63	5128.11
440.82	5177.26
441.01	5376.21
441.19	5284.93
441.38	5392.59
441.57	5427.70
441.75	5432.38
441.94	5572.82
442.12	5715.59
442.31	5575.16
442.50	5523.66
442.68	5713.25
442.87	5659.42
443.05	5614.95
443.24	5907.51
443.43	5633.67
443.61	5673.46
443.80	5769.42
443.98	5586.86
444.17	5430.04
444.35	5671.12
444.54	5905.17
444.73	5804.53
444.91	5778.78
445.10	5675.80
445.28	5687.50
445.47	5851.34
445.65	5853.68
445.84	5839.64
446.02	5813.89
446.21	5907.51
446.39	5886.45
446.58	6031.56
446.77	6076.03
446.95	5797.51
447.14	5792.83
447.32	5982.41
447.51	5846.66
447.69	5874.74
447.88	5944.96
448.06	5959.00
448.25	5895.81
448.43	5970.71
448.62	5940.28
448.80	6043.26
448.99	5951.98
449.17	6059.65
449.36	6087.73
449.54	6143.91
449.73	6319.45
449.91	6274.98
450.10	6394.34
450.28	6260.93
450.46	6394.34
450.65	6408.39
450.83	6389.66
451.02	6431.79
451.20	6340.51
451.39	6349.87
451.57	6406.05
451.76	6417.75
451.94	6366.26
452.13	6478.60
452.31	6457.54
452.49	6305.40
452.68	6473.92
452.86	6469.24
453.05	6642.44
453.23	6530.09
453.42	6480.94
453.60	6406.05
453.78	6579.25
453.97	6429.45
454.15	6354.55
454.34	6455.20
454.52	6689.25
454.70	6612.01
454.89	6668.19
455.07	6700.95
455.26	6895.22
455.44	6839.05
455.62	6789.89
455.81	6825.00
455.99	6810.96
456.17	6764.15
456.36	6860.11
456.54	7019.27
456.73	7073.10
456.91	7126.93
457.09	7040.33
457.28	7314.17
457.46	7227.57
457.64	7316.51
457.83	7136.29
458.01	7164.38
458.19	7410.14
458.38	7262.68
458.56	7382.05
458.74	7262.68
458.93	7293.11
459.11	7265.02
459.29	7286.09
459.48	7316.51
459.66	7370.35
459.84	7489.71
460.03	7613.76
460.21	7726.11
460.39	7606.74
460.57	7447.58
460.76	7630.15
460.94	7686.32
461.12	7723.77
461.31	7665.25
461.49	7742.49
461.67	7653.55
461.85	7819.73
462.04	7887.61
462.22	8367.42
462.40	8004.63
462.59	8004.63
462.77	7847.82
462.95	7988.25
463.13	7859.52
463.32	7859.52
463.50	8091.23
463.68	7985.91
463.86	7953.14
464.05	7990.59
464.23	7995.27
464.41	8056.12
464.59	8023.36
464.78	8091.23
464.96	8009.31
465.14	8109.96
465.32	8231.66
465.50	8287.84
465.69	8102.93
465.87	8105.28
466.05	8194.22
466.23	8189.53
466.41	8351.03
466.60	8336.99
466.78	8053.78
466.96	8278.47
467.14	8241.03
467.32	8489.12
467.51	8549.98
467.69	8170.81
467.87	8418.91
468.05	8603.81
468.23	8367.42
468.41	8468.06
468.60	8596.79
468.78	8671.68
468.96	8451.67
469.14	8758.28
469.32	8851.91
469.50	8533.59
469.69	8905.74
469.87	8819.14
470.05	8947.87
470.23	8950.21
470.41	8795.73
470.59	9022.77
470.77	8847.22
470.95	9071.92
471.14	9198.31
471.32	8982.98
471.50	9123.41
471.68	9130.43
471.86	9261.50
472.04	9341.08
472.22	9348.10
472.40	9266.18
472.58	9249.80
472.77	9420.66
472.95	9415.98
473.13	9865.36
473.31	9549.39
473.49	9364.48
473.67	9551.73
473.85	9434.70
474.03	9638.33
474.21	9633.64
474.39	9886.42
474.57	9958.98
474.75	10085.37
474.93	9851.31
475.12	9968.34
475.30	10153.24
475.48	10097.07
475.66	10195.37
475.84	10328.78
476.02	10169.63
476.20	10274.95
476.38	10352.19
476.56	10822.64
476.74	10672.84
476.92	10565.18
477.10	10509.01
477.28	10789.87
477.46	10714.97
477.64	11009.88
477.82	11119.89
478.00	11337.56
478.18	11073.07
478.36	11126.91
478.54	11566.93
478.72	11499.05
478.90	11309.47
479.08	11805.66
479.26	11777.58
479.44	11925.03
479.62	11690.98
479.80	12037.38
479.98	12079.50
480.16	12259.73
480.34	12194.19
480.52	12379.09
480.70	12257.39
480.88	12145.04
481.06	12552.29
481.24	12650.60
481.41	12652.94
481.59	12837.84
481.77	13156.15
481.95	12709.11
482.13	13256.79
482.31	13165.51
482.49	13444.04
482.67	13523.62
482.85	13453.40
483.03	13554.04
483.21	13767.03
483.39	13839.59
483.57	13680.43
483.74	13902.78
483.92	14221.10
484.10	14122.79
484.28	14239.82
484.46	14630.69
484.64	14764.10
484.82	14668.14
485.00	14618.99
485.18	15103.48
485.35	14899.85
485.53	15000.49
485.71	15016.88
485.89	15059.01
486.07	14953.68
486.25	15412.43
486.43	15421.79
486.61	15400.72
486.78	15328.17
486.96	15946.07
487.14	16287.79
487.32	16067.78
487.50	16161.40
487.68	16449.28
487.85	16697.38
488.03	16940.80
488.21	16809.73
488.39	16791.00
488.57	17245.07
488.75	17214.64
488.92	17209.96
489.10	17322.30
489.28	17554.02
489.46	17972.97
489.64	17881.69
489.81	18684.50
489.99	18452.78
490.17	18260.86
490.35	18579.17
490.53	18279.58
490.70	18590.88
490.88	18349.80
491.06	19021.53
491.24	18920.89
491.41	18944.30
491.59	19178.35
491.77	18836.63
491.95	19349.21
492.13	19470.92
492.30	19606.67
492.48	19861.79
492.66	19807.95
492.84	19604.33
493.01	19913.28
493.19	19990.52
493.37	20243.29
493.54	20360.32
493.72	20669.27
493.90	20615.44
494.08	20666.93
494.25	20713.74
494.43	20922.05
494.61	20966.52
494.79	21298.88
494.96	21397.18
495.14	21128.02
495.32	21666.34
495.49	21511.86
495.67	21598.46
495.85	21818.47
496.02	21998.70
496.20	22207.00
496.38	22176.58
496.55	22434.03
496.73	22485.53
496.91	22497.23
497.09	22801.50
497.26	22780.43
497.44	22593.19
497.62	22817.88
497.79	23445.15
497.97	22785.12
498.14	23075.34
498.32	23323.44
498.50	23754.10
498.67	23421.74
498.85	23899.21
499.03	23845.38
499.20	23906.23
499.38	24177.73
499.56	24273.70
499.73	23747.08
499.91	24149.65
500.08	24599.03
500.26	24027.94
500.44	24280.72
500.61	24664.57
500.79	24367.32
500.97	24645.84
501.14	25146.72
501.32	25127.99
501.49	24842.45
501.67	24929.05
501.84	25242.68
502.02	25013.31
502.20	25666.31
502.37	25357.36
502.55	25605.46
502.72	25879.30
502.90	25933.14
503.07	25500.14
503.25	25507.16
503.43	25940.16
503.60	25724.83
503.78	26075.91
503.95	25736.53
504.13	26436.35
504.30	26017.40
504.48	26251.45
504.65	26555.72
504.83	26464.44
505.01	26689.13
505.18	26820.20
505.36	27051.91
505.53	26806.16
505.71	27393.63
505.88	27302.35
506.06	26778.07
506.23	27171.28
506.41	26965.31
506.58	27058.93
506.76	27613.64
506.93	27711.94
507.11	27391.29
507.28	27536.40
507.46	27454.48
507.63	27538.74
507.81	27819.61
507.98	27725.99
508.16	27983.44
508.33	28538.15
508.50	27845.35
508.68	28479.64
508.85	28423.47
509.03	28203.46
509.20	28606.03
509.38	28870.51
509.55	28751.14
509.73	28734.76
509.90	28732.42
510.08	28886.89
510.25	29116.26
510.42	29277.76
510.60	28781.57
510.77	29441.60
510.95	29436.92
511.12	29802.04
511.30	29738.85
511.47	29947.15
511.64	29497.77
511.82	30178.87
511.99	29624.16
512.17	29961.20
512.34	30136.74
512.51	30129.72
512.69	30178.87
512.86	29986.94
513.04	30387.18
513.21	30703.15
513.38	30122.69
513.56	30370.79
513.73	30579.10
513.90	30389.52
514.08	30611.87
514.25	30567.40
514.43	30686.76
514.60	30815.49
514.77	30958.27
514.95	30946.56
515.12	30995.71
515.29	31370.20
515.47	31372.54
515.64	31585.53
515.81	31248.49
515.99	31653.40
516.16	31412.33
516.33	31562.12
516.51	31503.61
516.68	30974.65
516.85	31218.07
517.03	31840.65
517.20	31927.25
517.37	31658.09
517.54	31995.12
517.72	32208.11
517.89	31473.18
518.06	31997.46
518.24	31945.97
518.41	31901.50
518.58	32212.79
518.75	31943.63
518.93	32336.84
519.10	32479.61
519.27	32573.24
519.45	32430.46
519.62	32856.44
519.79	32664.52
519.96	32793.25
520.14	32957.08
520.31	33092.83
520.48	32755.80
520.65	32917.29
520.83	33109.22
521.00	33191.14
521.17	33741.16
521.34	33490.73
521.52	33694.35
521.69	33628.82
521.86	33682.65
522.03	33881.60
522.20	33802.02
522.38	33757.55
522.55	33883.94
522.72	34012.66
522.89	33476.68
523.07	34586.10
523.24	33977.56
523.41	34220.97
523.58	33830.10
523.75	35248.47
523.92	34426.94
524.10	34902.07
524.27	35187.61
524.44	34668.02
524.61	34459.71
524.78	34873.98
524.96	35283.58
525.13	34993.35
525.30	35178.25
525.47	35316.34
525.64	35309.32
525.81	35335.07
525.98	35012.07
526.16	34864.62
526.33	34930.16
526.50	35529.33
526.67	35576.14
526.84	35571.46
527.01	35239.11
527.18	35517.63
527.36	35704.87
527.53	35803.17
527.70	35810.20
527.87	36030.21
528.04	35906.16
528.21	35959.99
528.38	36240.86
528.55	36294.69
528.72	35805.52
528.89	36353.20
529.07	35875.73
529.24	36184.68
529.41	36315.75
529.58	36030.21
529.75	36070.00
529.92	36165.96
530.09	36205.75
530.26	36591.94
530.43	36657.47
530.60	36488.95
530.77	36816.63
530.94	36889.18
531.11	36657.47
531.28	36917.27
531.46	37223.88
531.63	37202.82
531.80	36786.20
531.97	37071.75
532.14	36940.68
532.31	36900.89
532.48	37139.62
532.65	37123.24
532.82	37544.53
532.99	37816.04
533.16	37464.96
533.33	37722.41
533.50	37654.54
533.67	37373.67
533.84	37221.54
534.01	37415.80
534.18	37565.60
534.35	38106.26
534.52	37497.72
534.69	37832.42
534.86	38246.69
535.03	37919.02
535.20	38429.26
535.37	38246.69
535.54	38485.43
535.71	37923.70
535.88	38082.86
536.05	38012.64
536.22	38218.61
536.38	38234.99
536.55	38574.37
536.72	38595.43
536.89	37916.68
537.06	38483.09
537.23	38260.74
537.40	38300.53
537.57	38445.64
537.74	38436.28
537.91	38892.68
538.08	38438.62
538.25	38263.08
538.42	38682.03
538.59	38906.73
538.75	38326.27
538.92	39161.84
539.09	39281.21
539.26	39168.87
539.43	38869.28
539.60	38904.38
539.77	38635.22
539.94	39147.80
540.11	39213.34
540.28	39533.99
540.44	38944.17
540.61	39030.77
540.78	39321.00
540.95	39154.82
541.12	39339.72
541.29	39178.23
541.46	39543.35
541.62	39466.11
541.79	39725.91
541.96	39548.03
542.13	39470.79
542.30	39566.76
542.47	40065.29
542.63	39442.71
542.80	40229.13
542.97	40116.78
543.14	40416.37
543.31	39959.97
543.48	40231.47
543.64	40762.77
543.81	40423.39
543.98	40172.96
544.15	40463.18
544.32	40509.99
544.48	40807.24
544.65	40748.73
544.82	40156.57
544.99	40292.32
545.16	40589.57
545.32	40624.68
545.49	40315.73
545.66	40854.05
545.83	40655.11
546.00	40954.69
546.16	40612.98
546.33	40966.40
546.50	40776.81
546.67	40938.31
546.83	40847.03
547.00	41083.42
547.17	41235.56
547.34	40947.67
547.50	41546.85
547.67	41518.76
547.84	41263.64
548.00	41127.89
548.17	41415.78
548.34	41153.64
548.51	41584.30
548.67	41181.73
548.84	41359.61
549.01	41319.82
549.18	41509.40
549.34	41387.69
549.51	41612.38
549.68	42066.45
549.84	41645.15
550.01	41631.11
550.18	41481.31
550.34	41743.45
550.51	41537.49
550.68	41647.49
550.84	41310.46
551.01	42160.07
551.18	41780.90
551.34	42066.45
551.51	41759.84
551.68	41827.71
551.84	42190.50
552.01	41830.05
552.18	42188.16
552.34	42031.34
552.51	42038.36
552.68	42309.86
552.84	41886.23
553.01	42586.05
553.18	41947.08
553.34	42670.31
553.51	42089.85
553.67	42143.69
553.84	43051.81
554.01	42637.54
554.17	42663.28
554.34	42412.85
554.51	42607.11
554.67	42632.86
554.84	42351.99
555.00	42433.91
555.17	42384.76
555.33	42546.26
555.50	42293.48
555.67	42658.60
555.83	42192.84
556.00	42534.56
556.16	43243.74
556.33	42841.17
556.50	43115.01
556.66	43154.80
556.83	42682.01
556.99	43147.78
557.16	43309.27
557.32	43084.58
557.49	43042.45
557.65	43112.67
557.82	42796.70
557.98	42609.45
558.15	42792.01
558.32	42967.55
558.48	43056.50
558.65	43241.40
558.81	42717.12
558.98	42974.58
559.14	43264.80
559.31	42997.98
559.47	43016.71
559.64	43283.53
559.80	43655.67
559.97	42831.80
560.13	43061.18
560.30	43264.80
560.46	43522.26
560.63	42967.55
560.79	43615.88
560.96	43650.99
561.12	43201.61
561.29	43555.03
561.45	43367.79
561.61	43093.94
561.78	43662.69
561.94	42948.83
562.11	43484.81
562.27	43187.56
562.44	43592.48
562.60	43276.51
562.77	43903.77
562.93	43667.37
563.10	44004.41
563.26	42682.01
563.42	43196.93
563.59	43791.42
563.75	43643.97
563.92	43695.46
564.08	43709.50
564.24	44020.80
564.41	43798.44
564.57	43496.52
564.74	43456.73
564.90	43051.81
565.07	43337.36
565.23	43817.17
565.39	43892.07
565.56	43688.44
565.72	44147.18
565.88	43423.96
566.05	43686.10
566.21	44128.46
566.38	43728.23
566.54	43779.72
566.70	44280.60
566.87	44371.88
567.03	43768.02
567.19	44339.11
567.36	43793.76
567.52	43667.37
567.68	43910.79
567.85	43957.60
568.01	44016.11
568.17	43866.32
568.34	44100.37
568.50	43833.55
568.66	43665.03
568.83	44058.24
568.99	43798.44
569.15	44069.95
569.32	44196.34
569.48	43812.49
569.64	44137.82
569.81	44231.44
569.97	44079.31
570.13	43592.48
570.30	43964.62
570.46	43655.67
570.62	43594.82
570.78	43826.53
570.95	43732.91
571.11	44397.62
571.27	44020.80
571.43	44149.53
571.60	44306.34
571.76	44126.12
571.92	44304.00
572.09	44224.42
572.25	44044.20
572.41	44175.27
572.57	44177.61
572.74	44957.01
572.90	43873.34
573.06	44610.61
573.22	44170.59
573.38	44383.58
573.55	44002.07
573.71	44313.36
573.87	44172.93
574.03	43924.83
574.20	44023.14
574.36	44390.60
574.52	44079.31
574.68	44601.25
574.84	44697.21
575.01	44435.07
575.17	44364.85
575.33	44657.42
575.49	44133.14
575.65	44526.35
575.82	44502.95
575.98	44502.95
576.14	44465.50
576.30	44381.24
576.46	44182.29
576.62	44406.98
576.79	44449.11
576.95	43934.20
577.11	44137.82
577.27	44547.42
577.43	44561.46
577.59	44292.30
577.75	44119.10
577.92	44069.95
578.08	44100.37
578.24	44240.81
578.40	44421.03
578.56	44411.67
578.72	44182.29
578.88	44538.05
579.04	44837.64
579.21	44179.95
579.37	44439.75
579.53	44172.93
579.69	44088.67
579.85	44311.02
580.01	44194.00
580.17	44404.64
580.33	44687.85
580.49	44458.48
580.65	44673.81
580.82	44765.09
580.98	44313.36
581.14	44392.94
581.30	44198.68
581.46	44465.50
581.62	44886.79
581.78	44704.23
581.94	44701.89
582.10	44516.99
582.26	44432.73
582.42	44549.76
582.58	44428.05
582.74	44402.30
582.90	44619.97
583.06	44535.71
583.22	44341.45
583.38	44575.50
583.54	44341.45
583.70	44371.88
583.86	44313.36
584.02	43779.72
584.18	44549.76
584.34	44664.44
584.50	44769.77
584.66	44713.59
584.82	44477.20
584.98	44832.96
585.14	44856.37
585.30	44273.57
585.46	44889.13
585.62	44406.98
585.78	44238.47
585.94	43985.69
586.10	44343.79
586.26	44500.61
586.42	44355.49
586.58	44919.56
586.74	44669.12
586.90	44444.43
587.06	44177.61
587.22	44996.80
587.38	44367.20
587.54	45270.64
587.70	44701.89
587.86	44697.21
588.02	44811.90
588.18	44849.35
588.34	44329.75
588.49	44163.57
588.65	44060.58
588.81	44088.67
588.97	44488.90
589.13	44217.40
589.29	44404.64
589.45	44800.19
589.61	44924.24
589.77	44966.37
589.93	44725.30
590.08	45244.90
590.24	44875.09
