SpectraSuite Data File
++++++++++++++++++++++++++++++++++++
Date: Fri Oct 25 11:26:03 EDT 2013
User: price-jones
Dark Spectrum Present: No
Reference Spectrum Present: No
Number of Sampled Component Spectra: 1
Spectrometers: USB2+H05261
Integration Time (usec): 100000 (USB2+H05261)
Spectra Averaged: 1 (USB2+H05261)
Boxcar Smoothing: 0 (USB2+H05261)
Correct for Electrical Dark: No (USB2+H05261)
Strobe/Lamp Enabled: No (USB2+H05261)
Correct for Detector Non-linearity: No (USB2+H05261)
Correct for Stray Light: No (USB2+H05261)
Number of Pixels in Processed Spectrum: 2048
>>>>>Begin Processed Spectral Data<<<<<
365.73	278.52
365.92	278.52
366.12	278.52
366.32	182.56
366.52	138.09
366.72	112.35
366.91	51.49
367.11	159.16
367.31	145.11
367.51	177.88
367.70	154.48
367.90	79.58
368.10	93.62
368.30	77.24
368.49	145.11
368.69	140.43
368.89	119.37
369.09	135.75
369.28	133.41
369.48	196.60
369.68	245.76
369.87	208.31
370.07	212.99
370.27	191.92
370.47	332.36
370.66	540.66
370.86	615.56
371.06	690.46
371.25	676.41
371.45	697.48
371.65	662.37
371.84	723.23
372.04	669.39
372.24	727.91
372.44	770.04
372.63	812.17
372.83	725.57
373.03	720.88
373.22	774.72
373.42	809.83
373.62	751.31
373.81	774.72
374.01	755.99
374.21	753.65
374.40	847.27
374.60	784.08
374.79	870.68
374.99	908.13
375.19	837.91
375.38	844.93
375.58	912.81
375.78	800.46
375.97	873.02
376.17	924.51
376.37	908.13
376.56	896.43
376.76	760.67
376.95	788.76
377.15	924.51
377.35	917.49
377.54	884.72
377.74	931.53
377.93	924.51
378.13	940.90
378.33	961.96
378.52	908.13
378.72	884.72
378.91	1034.52
379.11	1025.15
379.31	873.02
379.50	919.83
379.70	1116.44
379.89	968.98
380.09	971.32
380.28	976.00
380.48	990.05
380.68	964.30
380.87	997.07
381.07	964.30
381.26	1039.20
381.46	1046.22
381.65	1004.09
381.85	999.41
382.04	1137.50
382.24	1067.28
382.43	1041.54
382.63	990.05
382.83	1100.05
383.02	1160.91
383.22	1193.67
383.41	1057.92
383.61	1142.18
383.80	1160.91
384.00	1095.37
384.19	1074.31
384.39	1144.52
384.58	1130.48
384.78	1123.46
384.97	1153.88
385.17	1156.22
385.36	1125.80
385.56	1174.95
385.75	1137.50
385.95	1177.29
386.14	1149.20
386.34	1142.18
386.53	1193.67
386.72	1186.65
386.92	1238.14
387.11	1254.53
387.31	1186.65
387.50	1231.12
387.70	1238.14
387.89	1266.23
388.09	1306.02
388.28	1231.12
388.48	1238.14
388.67	1277.93
388.86	1390.28
389.06	1334.11
389.25	1322.40
389.45	1355.17
389.64	1294.32
389.84	1373.89
390.03	1380.92
390.22	1432.41
390.42	1434.75
390.61	1385.60
390.81	1425.39
391.00	1479.22
391.19	1441.77
391.39	1420.71
391.58	1483.90
391.78	1446.45
391.97	1394.96
392.16	1383.26
392.36	1523.69
392.55	1544.75
392.75	1481.56
392.94	1469.86
393.13	1614.97
393.33	1507.30
393.52	1586.88
393.71	1551.78
393.91	1561.14
394.10	1497.94
394.29	1509.65
394.49	1584.54
394.68	1629.01
394.88	1675.82
395.07	1687.53
395.26	1636.03
395.46	1717.95
395.65	1659.44
395.84	1685.19
396.04	1734.34
396.23	1823.28
396.42	1844.34
396.62	1722.63
396.81	1755.40
397.00	1834.98
397.19	1846.68
397.39	1736.68
397.58	1865.41
397.77	1760.08
397.97	1860.73
398.16	1823.28
398.35	1818.60
398.55	1888.81
398.74	1930.94
398.93	1977.75
399.12	1902.86
399.32	1949.67
399.51	1858.39
399.70	2038.61
399.90	1872.43
400.09	1989.46
400.28	2132.23
400.47	2040.95
400.67	2174.36
400.86	2108.82
401.05	2024.56
401.24	2064.35
401.44	2087.76
401.63	2235.21
401.82	2120.53
402.01	2150.95
402.21	2108.82
402.40	2244.57
402.59	2146.27
402.78	2298.41
402.97	2146.27
403.17	2251.60
403.36	2317.13
403.55	2352.24
403.74	2328.83
403.93	2377.98
404.13	2319.47
404.32	2438.84
404.51	2415.43
404.70	2429.48
404.89	2415.43
405.09	2476.29
405.28	2565.23
405.47	2420.11
405.66	2389.69
405.85	2544.16
406.05	2511.39
406.24	2572.25
406.43	2527.78
406.62	2623.74
406.81	2665.87
407.00	2567.57
407.20	2551.18
407.39	2670.55
407.58	2682.25
407.77	2750.13
407.96	2703.32
408.15	2607.36
408.34	2754.81
408.54	2864.82
408.73	2977.16
408.92	2731.41
409.11	2843.75
409.30	2928.01
409.49	2904.60
409.68	2909.29
409.87	2946.73
410.07	3045.04
410.26	2904.60
410.45	3042.70
410.64	2913.97
410.83	3009.93
411.02	3066.10
411.21	3119.93
411.40	3087.17
411.59	3225.26
411.78	3173.77
411.98	3199.51
412.17	3243.98
412.36	3346.97
412.55	3229.94
412.74	3361.01
412.93	3304.84
413.12	3293.13
413.31	3632.51
413.50	3562.30
413.69	3475.70
413.88	3365.69
414.07	3627.83
414.26	3637.19
414.45	3634.85
414.64	3812.73
414.83	3763.58
415.02	3808.05
415.22	3688.68
415.41	3852.52
415.60	3962.53
415.79	3962.53
415.98	3868.91
416.17	3866.56
416.36	3997.64
416.55	4053.81
416.74	4276.16
416.93	4023.38
417.12	4100.62
417.31	4098.28
417.50	4152.11
417.69	4208.28
417.88	4278.50
418.07	4135.73
418.26	4325.31
418.45	4234.03
418.64	4447.02
418.83	4285.52
419.02	4409.57
419.21	4484.47
419.39	4482.13
419.58	4571.07
419.77	4578.09
419.96	4535.96
420.15	4589.79
420.34	4634.26
420.53	4709.16
420.72	4774.69
420.91	4657.67
421.10	4547.66
421.29	4716.18
421.48	4770.01
421.67	4753.63
421.86	4781.71
422.05	4863.63
422.24	4774.69
422.43	4765.33
422.61	5064.92
422.80	4926.83
422.99	4985.34
423.18	5015.77
423.37	4887.04
423.56	4938.53
423.75	4950.23
423.94	4835.55
424.13	4606.17
424.32	4805.12
424.50	4938.53
424.69	5144.50
424.88	5179.61
425.07	4908.10
425.26	4980.66
425.45	4889.38
425.64	4980.66
425.83	4957.25
426.01	5043.85
426.20	4975.98
426.39	5163.22
426.58	4957.25
426.77	4983.00
426.96	5029.81
427.15	5179.61
427.33	5273.23
427.52	5130.45
427.71	5181.95
427.90	5198.33
428.09	5217.05
428.28	5254.50
428.46	5305.99
428.65	5284.93
428.84	5219.39
429.03	5416.00
429.22	5423.02
429.40	5483.88
429.59	5423.02
429.78	5282.59
429.97	5156.20
430.16	5371.53
430.34	5523.66
430.53	5579.84
430.72	5631.33
430.91	5640.69
431.10	5509.62
431.28	5640.69
431.47	5837.30
431.66	5837.30
431.85	5898.15
432.03	6122.84
432.22	6017.52
432.41	5870.06
432.60	5921.56
432.79	5912.19
432.97	6045.60
433.16	6047.94
433.35	5996.45
433.54	6003.47
433.72	6183.70
433.91	6139.23
434.10	6171.99
434.28	6127.52
434.47	6155.61
434.66	6441.15
434.85	6179.01
435.03	6293.70
435.22	6303.06
435.41	6492.65
435.59	6335.83
435.78	6424.77
435.97	6354.55
436.16	6434.13
436.34	6274.98
436.53	6370.94
436.72	6623.72
436.90	6494.99
437.09	6654.14
437.28	6595.63
437.46	6539.46
437.65	6534.78
437.84	6810.96
438.02	6740.74
438.21	6857.77
438.40	6785.21
438.58	6986.50
438.77	7138.63
438.96	7143.32
439.14	7152.68
439.33	7087.14
439.52	7014.59
439.70	7157.36
439.89	7382.05
440.08	7421.84
440.26	7417.16
440.45	7417.16
440.63	7417.16
440.82	7592.70
441.01	7515.46
441.19	7602.06
441.38	7545.89
441.57	7843.14
441.75	7819.73
441.94	7948.46
442.12	7915.69
442.31	7859.52
442.50	7946.12
442.68	8032.72
442.87	7992.93
443.05	8168.47
443.24	8397.84
443.43	8093.57
443.61	8124.00
443.80	8425.93
443.98	7946.12
444.17	7782.28
444.35	8170.81
444.54	8376.78
444.73	8276.13
444.91	8271.45
445.10	8287.84
445.28	8196.56
445.47	8278.47
445.65	8416.57
445.84	8374.44
446.02	8477.42
446.21	8358.05
446.39	8390.82
446.58	8634.24
446.77	8465.72
446.95	8170.81
447.14	8435.29
447.32	8482.10
447.51	8542.96
447.69	8479.76
447.88	8395.50
448.06	8472.74
448.25	8500.83
448.43	8692.75
448.62	8585.08
448.80	8456.36
448.99	8720.84
449.17	8851.91
449.36	8599.13
449.54	8657.64
449.73	8950.21
449.91	8872.97
450.10	8926.80
450.28	8933.82
450.46	8961.91
450.65	9004.04
450.83	9123.41
451.02	9057.87
451.20	9151.49
451.39	9107.02
451.57	9125.75
451.76	8940.85
451.94	9146.81
452.13	9212.35
452.31	9289.59
452.49	9254.48
452.68	9097.66
452.86	9259.16
453.05	9343.42
453.23	9467.47
453.42	9371.50
453.60	9268.52
453.78	9507.26
453.97	9242.78
454.15	9621.94
454.34	9465.13
454.52	9736.63
454.70	9605.56
454.89	9486.19
455.07	9816.21
455.26	9713.22
455.44	9666.41
455.62	9776.42
455.81	9729.61
455.99	9926.21
456.17	10122.82
456.36	10115.80
456.54	10209.42
456.73	10155.58
456.91	10289.00
457.09	10427.09
457.28	10459.85
457.46	10401.34
457.64	10487.94
457.83	10548.79
458.01	10286.65
458.19	10553.48
458.38	10441.13
458.56	10546.45
458.74	10619.01
458.93	10644.76
459.11	10710.29
459.29	10717.31
459.48	11028.60
459.66	10932.64
459.84	10806.25
460.03	11040.31
460.21	10937.32
460.39	10740.72
460.57	10967.75
460.76	10864.77
460.94	11096.48
461.12	11201.80
461.31	11218.19
461.49	11199.46
461.67	11396.07
461.85	11442.88
462.04	11281.38
462.22	11744.81
462.40	11309.47
462.59	11433.52
462.77	11239.25
462.95	11236.91
463.13	11538.84
463.32	11618.42
463.50	11632.46
463.68	11602.04
463.86	12067.80
464.05	11873.54
464.23	11613.74
464.41	11751.83
464.59	11662.89
464.78	12020.99
464.96	11885.24
465.14	11880.56
465.32	11847.79
465.50	12184.83
465.69	12189.51
465.87	12315.90
466.05	12077.16
466.23	11999.93
466.41	12273.77
466.60	12456.33
466.78	12217.60
466.96	12355.69
467.14	12627.19
467.32	12423.56
467.51	12423.56
467.69	11953.12
467.87	12629.53
468.05	12681.02
468.23	12250.36
468.41	12278.45
468.60	12411.86
468.78	12816.77
468.96	12697.41
469.14	12690.38
469.32	12905.71
469.50	12376.75
469.69	12854.22
469.87	13011.04
470.05	13011.04
470.23	13039.12
470.41	13053.17
470.59	13270.84
470.77	13095.30
470.95	13111.68
471.14	13305.95
471.32	13259.13
471.50	13554.04
471.68	13488.51
471.86	13500.21
472.04	13722.56
472.22	13895.76
472.40	13453.40
472.58	13954.27
472.77	14019.81
472.95	14326.42
473.13	14270.25
473.31	14181.31
473.49	14202.37
473.67	14244.50
473.85	14080.66
474.03	14693.88
474.21	14459.83
474.39	14855.38
474.57	15255.61
474.75	15087.09
474.93	14803.89
475.12	15054.33
475.30	15040.28
475.48	14853.04
475.66	15169.01
475.84	15049.64
476.02	15412.43
476.20	15253.27
476.38	15587.97
476.56	15955.43
476.74	16004.58
476.92	15686.27
477.10	15861.81
477.28	16137.99
477.46	16184.80
477.64	16250.34
477.82	16519.50
478.00	16713.77
478.18	16585.04
478.36	16854.20
478.54	17174.85
478.72	17011.01
478.90	17067.19
479.08	17404.22
479.26	17596.15
479.44	17399.54
479.62	17900.42
479.80	18075.96
479.98	17958.93
480.16	18518.32
480.34	18134.47
480.52	18499.59
480.70	18555.77
480.88	18171.92
481.06	18792.16
481.24	18916.21
481.41	19122.18
481.59	19108.13
481.77	19623.05
481.95	19335.17
482.13	19770.51
482.31	19625.39
482.49	20166.06
482.67	20353.30
482.85	20278.40
483.03	20702.04
483.21	20587.35
483.39	20886.94
483.57	20769.91
483.74	21401.86
483.92	21090.57
484.10	21008.65
484.28	21813.79
484.46	21905.07
484.64	22164.87
484.82	22047.85
485.00	22005.72
485.18	22731.28
485.35	22780.43
485.53	22574.47
485.71	22981.72
485.89	23548.13
486.07	22923.21
486.25	23679.20
486.43	23255.56
486.61	23552.81
486.78	24065.39
486.96	24067.73
487.14	24641.16
487.32	24322.85
487.50	24634.14
487.68	25139.69
487.85	25062.46
488.03	25689.72
488.21	25874.62
488.39	25647.59
488.57	26073.57
488.75	26108.68
488.92	26045.48
489.10	26888.07
489.28	26565.08
489.46	27000.42
489.64	27112.77
489.81	27431.08
489.99	27344.48
490.17	27995.15
490.35	28144.94
490.53	27920.25
490.70	28411.76
490.88	28486.66
491.06	28868.17
491.24	28638.80
491.41	29123.29
491.59	29450.96
491.77	29411.17
491.95	29432.24
492.13	29546.92
492.30	29750.55
492.48	29846.51
492.66	30197.59
492.84	29820.77
493.01	30668.04
493.19	30794.43
493.37	30824.86
493.54	31023.80
493.72	31386.58
493.90	31302.32
494.08	31442.76
494.25	32023.21
494.43	32016.19
494.61	32252.58
494.79	32297.05
494.96	32236.20
495.14	32683.24
495.32	32727.71
495.49	32701.96
495.67	33191.14
495.85	33376.04
496.02	34047.77
496.20	33869.89
496.38	33715.42
496.55	34000.96
496.73	34794.40
496.91	34513.54
497.09	34424.60
497.26	34541.63
497.44	34852.92
497.62	35248.47
497.79	35667.42
497.97	35515.29
498.14	35669.76
498.32	35789.13
498.50	36495.97
498.67	36500.65
498.85	35901.48
499.03	36673.85
499.20	36627.04
499.38	36643.43
499.56	37036.64
499.73	37209.84
499.91	37062.38
500.08	37219.20
500.26	37071.75
500.44	37687.31
500.61	37736.46
500.79	37708.37
500.97	37979.87
501.14	38565.01
501.32	38452.66
501.49	38153.07
501.67	38410.53
501.84	39208.65
502.02	38794.38
502.20	38986.30
502.37	39100.99
502.55	39122.05
502.72	39674.42
502.90	39590.16
503.07	39187.59
503.25	39583.14
503.43	39463.77
503.60	39648.68
503.78	40299.34
503.95	39906.13
504.13	41038.95
504.30	40865.75
504.48	40390.62
504.65	40463.18
504.83	41083.42
505.01	41144.28
505.18	41258.96
505.36	41607.70
505.53	41350.24
505.71	41481.31
505.88	41691.96
506.06	41291.73
506.23	41993.89
506.41	41879.21
506.58	42218.58
506.76	41993.89
506.93	42614.13
507.11	42253.69
507.28	42251.35
507.46	42492.43
507.63	42665.63
507.81	43229.69
507.98	42696.05
508.16	42862.23
508.33	42883.30
508.50	43711.84
508.68	43669.72
508.85	43466.09
509.03	43580.78
509.20	43929.51
509.38	44261.87
509.55	43985.69
509.73	44383.58
509.90	44472.52
510.08	44219.74
510.25	44783.81
510.42	44486.56
510.60	45020.20
510.77	45078.72
510.95	45588.95
511.12	44751.04
511.30	44999.14
511.47	45228.51
511.64	45109.14
511.82	45888.54
511.99	45310.43
512.17	46050.04
512.34	46038.34
512.51	46108.55
512.69	46337.93
512.86	46312.18
513.04	46518.15
513.21	46429.21
513.38	46848.16
513.56	46349.63
513.73	46628.15
513.90	46752.20
514.08	46740.50
514.25	47374.78
514.43	47437.98
514.60	47208.61
514.77	47480.11
514.95	47353.72
515.12	47517.56
515.29	47426.28
515.47	47676.71
515.64	47997.37
515.81	47470.75
515.99	48093.33
516.16	48006.73
516.33	48231.42
516.51	48016.09
516.68	48549.73
516.85	48355.47
517.03	48736.98
517.20	48708.89
517.37	48547.39
517.54	48760.38
517.72	48610.59
517.89	48959.33
518.06	49244.87
518.24	49177.00
518.41	49059.97
518.58	49130.19
518.75	49139.55
518.93	49499.99
519.10	49401.69
519.27	49633.40
519.45	49404.03
519.62	49677.87
519.79	49883.84
519.96	50012.57
520.14	50223.22
520.31	50293.43
520.48	50312.16
520.65	49940.01
520.83	50202.15
521.00	50742.81
521.17	50251.30
521.34	50564.93
521.52	50511.10
521.69	50403.44
521.86	50714.73
522.03	50995.59
522.20	51276.46
522.38	51241.35
522.55	51409.87
522.72	51227.31
522.89	51054.11
523.07	51297.52
523.24	51463.70
523.41	51334.97
523.58	51540.94
523.75	51910.74
523.92	51817.12
524.10	51856.91
524.27	52004.36
524.44	51870.95
524.61	51835.84
524.78	52002.02
524.96	51976.28
525.13	52109.69
525.30	52404.59
525.47	52577.79
525.64	52282.89
525.81	52203.31
525.98	52659.71
526.16	52442.04
526.33	52699.50
526.50	52985.05
526.67	52659.71
526.84	52959.30
527.01	52790.78
527.18	52938.24
527.36	52779.08
527.53	52896.11
527.70	53415.71
527.87	53003.77
528.04	53090.37
528.21	53308.04
528.38	53467.20
528.55	53429.75
528.72	53212.08
528.89	53528.05
529.07	53361.87
529.24	53331.45
529.41	53598.27
529.58	53591.25
529.75	53483.58
529.92	53794.87
530.09	53787.85
530.26	53769.13
530.43	53750.40
530.60	53689.55
530.77	53724.66
530.94	54017.22
531.11	53858.07
531.28	54005.52
531.46	54155.32
531.63	53902.54
531.80	53961.05
531.97	53970.41
532.14	54417.46
532.31	54326.17
532.48	54515.76
532.65	54770.88
532.82	54270.00
532.99	54770.88
533.16	54433.84
533.33	54761.51
533.50	54728.75
533.67	54871.52
533.84	54593.00
534.01	54705.34
534.18	54801.30
534.35	55157.06
534.52	54911.31
534.69	55222.60
534.86	55143.02
535.03	54911.31
535.20	54986.21
535.37	55250.69
535.54	55292.82
535.71	55391.12
535.88	55363.03
536.05	55304.52
536.22	55414.52
536.38	55798.37
536.55	55594.74
536.72	55587.72
536.89	55393.46
537.06	55704.75
537.23	55632.19
537.40	55473.04
537.57	55653.26
537.74	55370.05
537.91	55845.18
538.08	55604.11
538.25	55863.91
538.42	55667.30
538.59	55920.08
538.75	56114.34
538.92	56130.73
539.09	56247.75
539.26	56037.11
539.43	56053.49
539.60	56133.07
539.77	56226.69
539.94	56442.02
540.11	56306.27
540.28	56285.20
540.44	56301.59
540.61	56594.15
540.78	56154.13
540.95	56271.16
541.12	56219.67
541.29	56247.75
541.46	56364.78
541.62	56425.64
541.79	56530.96
541.96	56268.82
542.13	56296.91
542.30	56580.11
542.47	56914.81
542.63	56825.87
542.80	56814.16
542.97	56980.34
543.14	57113.75
543.31	57083.33
543.48	57179.29
543.64	57368.87
543.81	57340.78
543.98	57380.57
544.15	57352.49
544.32	57350.15
544.48	57495.26
544.65	57015.45
544.82	57626.33
544.99	57223.76
545.16	57432.07
545.32	57338.44
545.49	57689.52
545.66	57553.77
545.83	57572.50
546.00	57649.74
546.16	57661.44
546.33	57532.71
546.50	57420.36
546.67	57687.18
546.83	57621.65
547.00	57567.82
547.17	57790.17
547.34	57560.79
547.50	57750.38
547.67	58021.88
547.84	57806.55
548.00	58082.73
548.17	58075.71
548.34	57958.69
548.51	58117.84
548.67	58089.76
548.84	58223.17
549.01	58176.36
549.18	58019.54
549.34	58291.04
549.51	58396.37
549.68	58216.14
549.84	58216.14
550.01	58398.71
550.18	58073.37
550.34	58468.92
550.51	58284.02
550.68	58384.66
550.84	58237.21
551.01	58480.63
551.18	58316.79
551.34	58475.94
551.51	58447.86
551.68	58497.01
551.84	58541.48
552.01	58410.41
552.18	58574.25
552.34	58433.81
552.51	58663.19
552.68	58438.50
552.84	58920.65
553.01	58927.67
553.18	58595.31
553.34	58752.13
553.51	58632.76
553.67	58679.57
553.84	58878.52
554.01	58777.87
554.17	58941.71
554.34	59152.36
554.51	58871.49
554.67	58862.13
554.84	58880.86
555.00	58939.37
555.17	58871.49
555.33	58960.44
555.50	58965.12
555.67	58698.30
555.83	58794.26
556.00	58841.07
556.16	59470.67
556.33	59096.19
556.50	59145.34
556.66	59166.40
556.83	59068.10
556.99	59351.30
557.16	59559.61
557.32	59339.60
557.49	59194.49
557.65	59047.04
557.82	59295.13
557.98	59412.16
558.15	59332.58
558.32	59512.80
558.48	59370.03
558.65	59437.90
558.81	59510.46
558.98	59564.29
559.14	59461.31
559.31	59501.10
559.47	59447.27
559.64	59494.08
559.80	59657.91
559.97	59374.71
560.13	59442.59
560.30	59641.53
560.46	59512.80
560.63	59578.34
560.79	59608.76
560.96	59683.66
561.12	59739.83
561.29	59856.86
561.45	59781.96
561.61	59821.75
561.78	59606.42
561.94	59714.09
562.11	59840.48
562.27	59807.71
562.44	59847.50
562.60	59952.82
562.77	59908.35
562.93	59812.39
563.10	60116.66
563.26	59880.27
563.42	60231.35
563.59	59992.61
563.75	59950.48
563.92	59922.40
564.08	60006.65
564.24	60060.49
564.41	60170.49
564.57	59952.82
564.74	60081.55
564.90	60086.23
565.07	59990.27
565.23	60041.76
565.39	60013.68
565.56	60062.83
565.72	60252.41
565.88	60163.47
566.05	59880.27
566.21	59941.12
566.38	60004.31
566.54	60278.16
566.70	60507.53
566.87	60341.35
567.03	60074.53
567.19	60250.07
567.36	60109.64
567.52	60224.32
567.68	60481.78
567.85	60271.14
568.01	60388.16
568.17	60360.08
568.34	60390.50
568.50	60285.18
568.66	60271.14
568.83	60275.82
568.99	60243.05
569.15	60271.14
569.32	60486.46
569.48	60336.67
569.64	60467.74
569.81	60355.39
569.97	60362.42
570.13	60336.67
570.30	60250.07
570.46	60472.42
570.62	60322.63
570.78	60299.22
570.95	60500.51
571.11	60729.88
571.27	60456.04
571.43	60348.37
571.60	60638.60
571.76	60514.55
571.92	60516.89
572.09	60434.97
572.25	60584.77
572.41	60437.31
572.57	60554.34
572.74	60622.22
572.90	60594.13
573.06	60493.49
573.22	60552.00
573.38	60388.16
573.55	60582.43
573.71	60676.05
573.87	60640.94
574.03	60432.63
574.20	60671.37
574.36	60547.32
574.52	60748.60
574.68	60690.09
574.84	60711.16
575.01	60680.73
575.17	60725.20
575.33	60652.64
575.49	60559.02
575.65	60853.93
575.82	60764.99
575.98	60832.86
576.14	60846.91
576.30	60582.43
576.46	60701.79
576.62	60781.37
576.79	60601.15
576.95	60444.33
577.11	60720.52
577.27	60563.70
577.43	60741.58
577.59	60715.84
577.75	60694.77
577.92	60519.23
578.08	60598.81
578.24	60757.97
578.40	60933.51
578.56	60867.97
578.72	60933.51
578.88	60975.64
579.04	61064.58
579.21	60835.20
579.37	60977.98
579.53	60746.26
579.69	60685.41
579.85	60706.47
580.01	60776.69
580.17	60559.02
580.33	60938.19
580.49	61052.87
580.65	60830.52
580.82	60718.18
580.98	60919.46
581.14	60790.73
581.30	61071.60
581.46	60680.73
581.62	60882.02
581.78	60678.39
581.94	60697.11
582.10	60699.45
582.26	60786.05
582.42	60851.59
582.58	60839.89
582.74	60678.39
582.90	60662.00
583.06	60837.54
583.22	60659.66
583.38	60715.84
583.54	60811.80
583.70	60977.98
583.86	60844.57
584.02	60879.67
584.18	60938.19
584.34	60903.08
584.50	60912.44
584.66	60816.48
584.82	60931.17
584.98	61120.75
585.14	60982.66
585.30	61015.43
585.46	61155.86
585.62	60935.85
585.78	61109.05
585.94	60779.03
586.10	60956.91
586.26	61024.79
586.42	61099.68
586.58	61200.33
586.74	60942.87
586.90	60835.20
587.06	60884.36
587.22	60856.27
587.38	60898.40
587.54	61083.30
587.70	61183.94
587.86	61111.39
588.02	60849.25
588.18	61057.56
588.34	60917.12
588.49	60816.48
