SpectraSuite Data File
++++++++++++++++++++++++++++++++++++
Date: Fri Oct 25 10:43:46 EDT 2013
User: price-jones
Dark Spectrum Present: No
Reference Spectrum Present: No
Number of Sampled Component Spectra: 1
Spectrometers: USB2+H05261
Integration Time (usec): 100000 (USB2+H05261)
Spectra Averaged: 1 (USB2+H05261)
Boxcar Smoothing: 0 (USB2+H05261)
Correct for Electrical Dark: No (USB2+H05261)
Strobe/Lamp Enabled: No (USB2+H05261)
Correct for Detector Non-linearity: No (USB2+H05261)
Correct for Stray Light: No (USB2+H05261)
Number of Pixels in Processed Spectrum: 2048
>>>>>Begin Processed Spectral Data<<<<<
365.73	135.75
365.92	135.75
366.12	135.75
366.32	18.72
366.52	7.02
366.72	77.24
366.91	14.04
367.11	0.00
367.31	30.43
367.51	79.58
367.70	44.47
367.90	11.70
368.10	0.00
368.30	0.00
368.49	0.00
368.69	77.24
368.89	35.11
369.09	63.19
369.28	77.24
369.48	25.75
369.68	67.88
369.87	23.41
370.07	81.92
370.27	105.32
370.47	180.22
370.66	344.06
370.86	442.36
371.06	351.08
371.25	510.24
371.45	428.32
371.65	500.87
371.84	454.06
372.04	365.12
372.24	484.49
372.44	442.36
372.63	521.94
372.83	568.75
373.03	512.58
373.22	456.40
373.42	528.96
373.62	484.49
373.81	606.20
374.01	573.43
374.21	519.60
374.40	585.13
374.60	624.92
374.79	519.60
374.99	575.77
375.19	510.24
375.38	603.86
375.58	601.52
375.78	610.88
375.97	636.63
376.17	610.88
376.37	552.37
376.56	545.34
376.76	479.81
376.95	554.71
377.15	545.34
377.35	594.50
377.54	606.20
377.74	688.12
377.93	669.39
378.13	669.39
378.33	641.31
378.52	655.35
378.72	688.12
378.91	613.22
379.11	674.07
379.31	650.67
379.50	664.71
379.70	683.44
379.89	711.52
380.09	645.99
380.28	746.63
380.48	711.52
380.68	685.78
380.87	753.65
381.07	713.86
381.26	657.69
381.46	748.97
381.65	704.50
381.85	627.26
382.04	601.52
382.24	805.14
382.43	755.99
382.63	657.69
382.83	676.41
383.02	674.07
383.22	732.59
383.41	732.59
383.61	697.48
383.80	723.23
384.00	755.99
384.19	812.17
384.39	744.29
384.58	753.65
384.78	819.19
384.97	812.17
385.17	758.33
385.36	786.42
385.56	770.04
385.75	734.93
385.95	884.72
386.14	830.89
386.34	830.89
386.53	751.31
386.72	760.67
386.92	814.51
387.11	940.90
387.31	983.02
387.50	830.89
387.70	861.32
387.89	887.06
388.09	833.23
388.28	957.28
388.48	844.93
388.67	976.00
388.86	830.89
389.06	819.19
389.25	1022.81
389.45	933.87
389.64	940.90
389.84	915.15
390.03	961.96
390.22	1043.88
390.42	931.53
390.61	961.96
390.81	945.58
391.00	1020.47
391.19	1043.88
391.39	978.34
391.58	1053.24
391.78	992.39
391.97	1039.20
392.16	1018.13
392.36	1004.09
392.55	868.34
392.75	1050.90
392.94	936.21
393.13	1018.13
393.33	1008.77
393.52	1001.75
393.71	1081.33
393.91	1081.33
394.10	1090.69
394.29	1130.48
394.49	1186.65
394.68	1193.67
394.88	1170.27
395.07	1284.95
395.26	1275.59
395.46	1177.29
395.65	1256.87
395.84	1135.16
396.04	1277.93
396.23	1095.37
396.42	1142.18
396.62	1102.39
396.81	1093.03
397.00	1198.35
397.19	1151.54
397.39	1315.38
397.58	1380.92
397.77	1345.81
397.97	1418.36
398.16	1320.06
398.35	1387.94
398.55	1479.22
398.74	1401.98
398.93	1455.81
399.12	1432.41
399.32	1401.98
399.51	1451.13
399.70	1614.97
399.90	1575.18
400.09	1551.78
400.28	1474.54
400.47	1551.78
400.67	1570.50
400.86	1654.76
401.05	1561.14
401.24	1647.74
401.44	1643.06
401.63	1678.16
401.82	1668.80
402.01	1708.59
402.21	1710.93
402.40	1746.04
402.59	1748.38
402.78	1736.68
402.97	1682.85
403.17	1687.53
403.36	1734.34
403.55	1792.85
403.74	1795.19
403.93	1757.74
404.13	1811.57
404.32	1767.10
404.51	1844.34
404.70	1933.28
404.89	1785.83
405.09	1949.67
405.28	1851.36
405.47	1937.96
405.66	1785.83
405.85	1837.32
406.05	1963.71
406.24	1933.28
406.43	1947.33
406.62	2099.46
406.81	2069.03
407.00	2036.27
407.20	1994.14
407.39	2038.61
407.58	2169.68
407.77	2078.40
407.96	2129.89
408.15	2265.64
408.34	2235.21
408.54	2172.02
408.73	2214.15
408.92	2356.92
409.11	2338.20
409.30	2293.72
409.49	2263.30
409.68	2270.32
409.87	2225.85
410.07	2338.20
410.26	2251.60
410.45	2399.05
410.64	2422.45
410.83	2455.22
411.02	2525.44
411.21	2565.23
411.40	2401.39
411.59	2544.16
411.78	2555.86
411.98	2576.93
412.17	2675.23
412.36	2576.93
412.55	2677.57
412.74	2637.78
412.93	2684.59
413.12	2675.23
413.31	2761.83
413.50	2775.88
413.69	2773.53
413.88	2853.11
414.07	2813.32
414.26	2902.26
414.45	2979.50
414.64	2967.80
414.83	2902.26
415.02	2935.03
415.22	2946.73
415.41	3096.53
415.60	3089.51
415.79	3211.22
415.98	3206.53
416.17	3124.62
416.36	3164.40
416.55	3108.23
416.74	3225.26
416.93	3199.51
417.12	3248.66
417.31	3243.98
417.50	3356.33
417.69	3372.71
417.88	3361.01
418.07	3328.24
418.26	3473.36
418.45	3417.18
418.64	3536.55
418.83	3466.33
419.02	3468.67
419.21	3527.19
419.39	3527.19
419.58	3531.87
419.77	3424.20
419.96	3466.33
420.15	3545.91
420.34	3616.13
420.53	3698.05
420.72	3630.17
420.91	3674.64
421.10	3822.09
421.29	3726.13
421.48	3618.47
421.67	3812.73
421.86	3707.41
422.05	3742.52
422.24	3719.11
422.43	3761.24
422.61	3684.00
422.80	3789.33
422.99	3824.44
423.18	3878.27
423.37	3939.12
423.56	3768.26
423.75	3852.52
423.94	3981.25
424.13	3609.11
424.32	3826.78
424.50	3896.99
424.69	3997.64
424.88	4039.76
425.07	3716.77
425.26	3899.33
425.45	3906.35
425.64	3705.07
425.83	3829.12
426.01	3974.23
426.20	3948.48
426.39	3824.44
426.58	3882.95
426.77	3833.80
426.96	3829.12
427.15	3936.78
427.33	3934.44
427.52	3803.37
427.71	3927.42
427.90	3962.53
428.09	4119.34
428.28	4007.00
428.46	3950.82
428.65	4044.45
428.84	4140.41
429.03	4315.95
429.22	4021.04
429.40	4065.51
429.59	4081.89
429.78	4044.45
429.97	3847.84
430.16	3981.25
430.34	4046.79
430.53	4149.77
430.72	4173.18
430.91	4138.07
431.10	4128.70
431.28	4575.75
431.47	4564.04
431.66	4545.32
431.85	4580.43
432.03	4512.55
432.22	4695.11
432.41	4643.62
432.60	4559.36
432.79	4650.64
432.97	4744.27
433.16	4685.75
433.35	4681.07
433.54	4606.17
433.72	4631.92
433.91	4622.56
434.10	4723.20
434.28	4802.78
434.47	4734.90
434.66	4805.12
434.85	4767.67
435.03	4854.27
435.22	4936.19
435.41	5097.69
435.59	5025.13
435.78	5046.20
435.97	4943.21
436.16	5085.98
436.34	4894.06
436.53	5144.50
436.72	5177.26
436.90	4917.47
437.09	5015.77
437.28	4990.02
437.46	5020.45
437.65	5104.71
437.84	5135.14
438.02	5064.92
438.21	5069.60
438.40	4868.31
438.58	5303.65
438.77	5331.74
438.96	5362.17
439.14	5502.60
439.33	5547.07
439.52	5437.06
439.70	5528.35
439.89	5582.18
440.08	5547.07
440.26	5589.20
440.45	5596.22
440.63	5771.76
440.82	5856.02
441.01	5792.83
441.19	5771.76
441.38	5879.43
441.57	5933.26
441.75	6092.41
441.94	6186.04
442.12	6059.65
442.31	6445.84
442.50	6244.55
442.68	6141.57
442.87	6312.42
443.05	6104.12
443.24	6410.73
443.43	6450.52
443.61	6534.78
443.80	6436.47
443.98	6188.38
444.17	6097.10
444.35	6274.98
444.54	6525.41
444.73	6546.48
444.91	6427.11
445.10	6249.23
445.28	6399.02
445.47	6258.59
445.65	6122.84
445.84	6310.08
446.02	6520.73
446.21	6452.86
446.39	6387.32
446.58	6455.20
446.77	6424.77
446.95	6340.51
447.14	6415.41
447.32	6473.92
447.51	6560.52
447.69	6602.65
447.88	6581.59
448.06	6644.78
448.25	6586.27
448.43	6525.41
448.62	6502.01
448.80	6513.71
448.99	6731.38
449.17	6651.80
449.36	6562.86
449.54	6806.28
449.73	6881.18
449.91	6834.36
450.10	6937.35
450.28	7201.83
450.46	7080.12
450.65	7087.14
450.83	7000.54
451.02	6857.77
451.20	6963.09
451.39	7213.53
451.57	7054.37
451.76	7187.79
451.94	6927.99
452.13	7243.96
452.31	7103.53
452.49	6958.41
452.68	7162.04
452.86	7075.44
453.05	7091.82
453.23	7290.77
453.42	7176.08
453.60	7337.58
453.78	7250.98
453.97	7157.36
454.15	7325.88
454.34	7159.70
454.52	7396.09
454.70	7375.03
454.89	7360.98
455.07	7325.88
455.26	7559.93
455.44	7585.68
455.62	7513.12
455.81	7658.23
455.99	7637.17
456.17	7639.51
456.36	7742.49
456.54	7536.52
456.73	7971.86
456.91	8159.11
457.09	7929.74
457.28	7903.99
457.46	8023.36
457.64	8159.11
457.83	7873.56
458.01	7896.97
458.19	8006.97
458.38	7934.42
458.56	8280.82
458.74	8084.21
458.93	7999.95
459.11	8126.34
459.29	8168.47
459.48	8278.47
459.66	7999.95
459.84	8318.26
460.03	8243.37
460.21	8454.02
460.39	8238.69
460.57	8332.31
460.76	8554.66
460.94	8451.67
461.12	8718.50
461.31	8533.59
461.49	8566.36
461.67	8528.91
461.85	8671.68
462.04	8580.40
462.22	8945.53
462.40	8580.40
462.59	8631.90
462.77	8739.56
462.95	8809.78
463.13	8624.87
463.32	8685.73
463.50	8887.01
463.68	8912.76
463.86	8952.55
464.05	8681.05
464.23	8758.28
464.41	8959.57
464.59	8638.92
464.78	9081.28
464.96	8982.98
465.14	8875.31
465.32	9128.09
465.50	9095.32
465.69	9170.22
465.87	9062.55
466.05	9071.92
466.23	8919.78
466.41	9095.32
466.60	9132.77
466.78	8966.59
466.96	9139.79
467.14	9158.52
467.32	9177.24
467.51	9235.75
467.69	9104.68
467.87	9273.20
468.05	9259.16
468.23	9336.40
468.41	9228.73
468.60	9401.93
468.78	9460.45
468.96	9350.44
469.14	9465.13
469.32	9638.33
469.50	9151.49
469.69	9467.47
469.87	9713.22
470.05	9692.16
470.23	9638.33
470.41	9799.82
470.59	9731.95
470.77	9668.75
470.95	9792.80
471.14	9919.19
471.32	9584.49
471.50	10015.15
471.68	10078.35
471.86	10045.58
472.04	10176.65
472.22	10485.60
472.40	10113.45
472.58	10122.82
472.77	10066.64
472.95	10464.54
473.13	10576.88
473.31	10296.02
473.49	10321.76
473.67	10506.66
473.85	10518.37
474.03	10876.47
474.21	10623.69
474.39	10876.47
474.57	10927.96
474.75	10934.98
474.93	11318.83
475.12	11056.69
475.30	11005.20
475.48	11044.99
475.66	11089.46
475.84	11094.14
476.02	11250.96
476.20	11068.39
476.38	11452.24
476.56	11552.88
476.74	11632.46
476.92	11632.46
477.10	11728.42
477.28	11723.74
477.46	12002.27
477.64	11873.54
477.82	12243.34
478.00	12430.59
478.18	12439.95
478.36	12533.57
478.54	12437.61
478.72	12362.71
478.90	12800.39
479.08	12863.58
479.26	12879.97
479.44	12966.57
479.62	12992.31
479.80	13048.49
479.98	13130.41
480.16	13383.18
480.34	13256.79
480.52	13490.85
480.70	13240.41
480.88	13413.61
481.06	13762.35
481.24	13881.72
481.41	14015.13
481.59	14050.24
481.77	14059.60
481.95	14153.22
482.13	14293.65
482.31	14314.72
482.49	14595.58
482.67	14555.79
482.85	14686.86
483.03	15066.03
483.21	15115.18
483.39	15080.07
483.57	15150.29
483.74	15325.83
483.92	15419.45
484.10	15288.38
484.28	15541.16
484.46	15899.26
484.64	16170.76
484.82	15676.91
485.00	16060.76
485.18	16231.62
485.35	16205.87
485.53	16109.91
485.71	15953.09
485.89	16217.57
486.07	16063.10
486.25	16329.92
486.43	16821.43
486.61	16989.95
486.78	16959.52
486.96	16837.81
487.14	17149.11
487.32	17427.63
487.50	17654.66
487.68	17930.84
487.85	18122.77
488.03	18132.13
488.21	18286.61
488.39	17984.68
488.57	18757.05
488.75	18504.28
488.92	18831.95
489.10	19005.15
489.28	19000.47
489.46	19318.78
489.64	19398.36
489.81	19733.06
489.99	19878.17
490.17	19906.26
490.35	20156.69
490.53	20336.91
490.70	20449.26
490.88	20114.56
491.06	20449.26
491.24	20240.95
491.41	20753.53
491.59	20559.27
491.77	20266.70
491.95	20751.19
492.13	20809.70
492.30	21315.26
492.48	21329.30
492.66	21612.51
492.84	21638.25
493.01	21902.73
493.19	21909.75
493.37	22071.25
493.54	21881.67
493.72	22155.51
493.90	22050.19
494.08	22295.94
494.25	22635.32
494.43	22438.72
494.61	22857.67
494.79	23124.49
494.96	23222.80
495.14	22916.19
495.32	23206.41
495.49	23534.09
495.67	23702.61
495.85	23459.19
496.02	23920.28
496.20	23847.72
496.38	24170.71
496.55	23964.75
496.73	24465.62
496.91	24627.12
497.09	24627.12
497.26	24283.06
497.44	24915.00
497.62	24854.15
497.79	24840.11
497.97	24938.41
498.14	25294.17
498.32	25170.12
498.50	25558.65
498.67	25675.68
498.85	25542.27
499.03	25851.22
499.20	25511.84
499.38	25778.66
499.56	25881.64
499.73	25883.98
499.91	26141.44
500.08	26089.95
500.26	26108.68
500.44	26214.00
500.61	26464.44
500.79	26176.55
500.97	26398.90
501.14	26813.18
501.32	26841.26
501.49	26686.79
501.67	26742.96
501.84	27133.83
502.02	27288.31
502.20	27381.93
502.37	27274.26
502.55	27204.05
502.72	27709.60
502.90	27592.58
503.07	27335.12
503.25	27828.97
503.43	27630.02
503.60	27587.89
503.78	27651.09
503.95	28037.28
504.13	28056.00
504.30	27969.40
504.48	28327.50
504.65	28575.60
504.83	28807.31
505.01	28786.25
505.18	28751.14
505.36	29289.46
505.53	29151.37
505.71	29113.92
505.88	29104.56
506.06	28898.59
506.23	29102.22
506.41	29212.23
506.58	29090.52
506.76	29301.17
506.93	29359.68
507.11	29560.97
507.28	29586.71
507.46	29509.47
507.63	29780.98
507.81	29963.54
507.98	29797.36
508.16	30029.07
508.33	30237.38
508.50	30412.92
508.68	30679.74
508.85	30806.13
509.03	30534.63
509.20	30354.41
509.38	30810.81
509.55	31150.19
509.73	31402.97
509.90	30754.64
510.08	30623.57
510.25	31173.60
510.42	31321.05
510.60	31187.64
510.77	31140.83
510.95	30897.41
511.12	31803.20
511.30	31791.50
511.47	31981.08
511.64	32170.66
511.82	31655.75
511.99	31562.12
512.17	31964.70
512.34	31962.36
512.51	31641.70
512.69	32102.79
512.86	32112.15
513.04	32416.42
513.21	32149.60
513.38	32741.75
513.56	31952.99
513.73	32428.12
513.90	33120.92
514.08	32500.68
514.25	32573.24
514.43	32837.72
514.60	32690.26
514.77	32940.70
514.95	33127.94
515.12	32804.95
515.29	33259.01
515.47	33558.60
515.64	33509.45
515.81	33425.19
515.99	33111.56
516.16	33347.95
516.33	33392.42
516.51	33205.18
516.68	32800.27
516.85	32950.06
517.03	33022.62
517.20	33450.94
517.37	33518.81
517.54	33914.36
517.72	33703.71
517.89	33493.07
518.06	33762.23
518.24	33778.61
518.41	33841.81
518.58	34075.86
518.75	34370.77
518.93	34225.65
519.10	34366.09
519.27	34340.34
519.45	34426.94
519.62	34899.73
519.79	34684.40
519.96	35105.70
520.14	34724.19
520.31	34934.84
520.48	35035.48
520.65	35084.63
520.83	35222.72
521.00	35185.27
521.17	35690.83
521.34	35529.33
521.52	35751.68
521.69	35735.30
521.86	35931.90
522.03	35791.47
522.20	35910.84
522.38	35693.17
522.55	35718.92
522.72	35707.21
522.89	36416.40
523.07	36201.07
523.24	36128.51
523.41	36168.30
523.58	36549.81
523.75	37038.98
523.92	36362.56
524.10	37003.87
524.27	36652.79
524.44	36985.15
524.61	36577.89
524.78	36783.86
524.96	37125.58
525.13	37074.09
525.30	37184.09
525.47	37621.77
525.64	37022.59
525.81	37528.15
525.98	36666.83
526.16	37069.40
526.33	36524.06
526.50	37357.29
526.67	36690.24
526.84	36823.65
527.01	37055.36
527.18	37598.37
527.36	37310.48
527.53	37579.64
527.70	38092.22
527.87	37792.63
528.04	37628.79
528.21	38286.48
528.38	37560.92
528.55	38583.73
528.72	38611.82
528.89	38192.86
529.07	38181.16
529.24	38134.35
529.41	38452.66
529.58	38291.16
529.75	38342.66
529.92	38394.15
530.09	38693.74
530.26	38588.41
530.43	39023.75
530.60	38476.07
530.77	38246.69
530.94	38955.88
531.11	38927.79
531.28	39182.91
531.46	39115.03
531.63	39063.54
531.80	38993.32
531.97	39035.45
532.14	38707.78
532.31	38618.84
532.48	39065.88
532.65	39199.29
532.82	39248.44
532.99	39276.53
533.16	39016.73
533.33	39290.57
533.50	39559.73
533.67	39456.75
533.84	39686.12
534.01	39702.51
534.18	39487.18
534.35	39730.59
534.52	39597.18
534.69	39756.34
534.86	39903.79
535.03	39716.55
535.20	40311.05
535.37	40292.32
535.54	40636.38
535.71	40128.48
535.88	40259.55
536.05	40575.53
536.22	40329.77
536.38	40088.70
536.55	40004.44
536.72	40163.59
536.89	40268.92
537.06	40210.40
537.23	40299.34
537.40	40292.32
537.57	40676.17
537.74	40727.66
537.91	40762.77
538.08	40282.96
538.25	40575.53
538.42	40950.01
538.59	40659.79
538.75	40533.40
538.92	40957.03
539.09	40835.33
539.26	40849.37
539.43	41043.63
539.60	41214.49
539.77	40957.03
539.94	41193.43
540.11	40950.01
540.28	40950.01
540.44	40741.71
540.61	41184.07
540.78	40779.15
540.95	40945.33
541.12	41191.09
541.29	41008.53
541.46	41392.37
541.62	41509.40
541.79	41497.70
541.96	41048.32
542.13	41280.03
542.30	41574.94
542.47	41546.85
542.63	41631.11
542.80	41790.27
542.97	41787.92
543.14	42129.64
543.31	42106.24
543.48	41471.95
543.64	42555.62
543.81	42085.17
543.98	42431.57
544.15	42136.66
544.32	42511.15
544.48	42866.91
544.65	42436.25
544.82	42913.72
544.99	41858.14
545.16	42143.69
545.32	41865.16
545.49	42953.51
545.66	42813.08
545.83	43023.73
546.00	42829.46
546.16	42831.80
546.33	42188.16
546.50	42115.60
546.67	42653.92
546.83	42319.23
547.00	42906.70
547.17	42635.20
547.34	43093.94
547.50	42806.06
547.67	42946.49
547.84	42684.35
548.00	43227.35
548.17	43012.02
548.34	43447.36
548.51	43636.95
548.67	43248.42
548.84	43182.88
549.01	43208.63
549.18	43358.42
549.34	43438.00
549.51	43381.83
549.68	43564.39
549.84	43552.69
550.01	43665.03
550.18	43618.22
550.34	43548.01
550.51	43522.26
550.68	43377.15
550.84	42735.84
551.01	43601.84
551.18	43381.83
551.34	43576.09
551.51	43576.09
551.68	43915.47
551.84	43992.71
552.01	43936.54
552.18	43552.69
552.34	43686.10
552.51	43650.99
552.68	43646.31
552.84	43913.13
553.01	43718.87
553.18	44175.27
553.34	44020.80
553.51	43564.39
553.67	44245.49
553.84	44346.13
554.01	44112.08
554.17	44596.57
554.34	44524.01
554.51	44128.46
554.67	44842.32
554.84	43798.44
555.00	44147.18
555.17	44549.76
555.33	44074.63
555.50	44425.71
555.67	44542.74
555.83	44105.06
556.00	44325.07
556.16	44329.75
556.33	44531.03
556.50	44294.64
556.66	44573.16
556.83	43899.09
556.99	44495.92
557.16	44435.07
557.32	44617.63
557.49	44694.87
557.65	44308.68
557.82	44648.06
557.98	44673.81
558.15	44727.64
558.32	44772.11
558.48	44332.09
558.65	44165.91
558.81	44325.07
558.98	44779.13
559.14	44687.85
559.31	44818.92
559.47	44821.26
559.64	44875.09
559.80	44598.91
559.97	44823.60
560.13	44259.53
560.30	44875.09
560.46	44891.48
560.63	45127.87
560.79	44903.18
560.96	45043.61
561.12	44652.74
561.29	44898.50
561.45	44751.04
561.61	45191.06
561.78	44774.45
561.94	44933.60
562.11	44666.78
562.27	44942.97
562.44	44905.52
562.60	45256.60
562.77	45162.98
562.93	45118.51
563.10	45200.43
563.26	44793.17
563.42	45436.82
563.59	44994.46
563.75	45202.77
563.92	45331.50
564.08	45214.47
564.24	45729.39
564.41	45280.00
564.57	45247.24
564.74	45200.43
564.90	45057.65
565.07	45095.10
565.23	45411.07
565.39	44985.10
565.56	45312.77
565.72	45057.65
565.88	45249.58
566.05	44844.66
566.21	44940.63
566.38	45539.80
566.54	45345.54
566.70	45825.35
566.87	45631.08
567.03	45647.47
567.19	45874.50
567.36	45221.49
567.52	45729.39
567.68	45474.27
567.85	45256.60
568.01	45216.81
568.17	45500.01
568.34	46122.60
568.50	45027.23
568.66	45083.40
568.83	45757.47
568.99	45277.66
569.15	45542.14
569.32	45460.23
569.48	45434.48
569.64	45485.97
569.81	45455.54
569.97	45567.89
570.13	45249.58
570.30	44844.66
570.46	45275.32
570.62	45184.04
570.78	45284.68
570.95	45057.65
571.11	45535.12
571.27	45209.79
571.43	45352.56
571.60	45497.67
571.76	45612.36
571.92	45661.51
572.09	45354.90
572.25	45158.30
572.41	45418.10
572.57	45893.22
572.74	45858.12
572.90	45492.99
573.06	45715.34
573.22	45792.58
573.38	45818.33
573.55	45123.19
573.71	46075.79
573.87	45769.18
574.03	45581.93
574.20	45872.16
574.36	45872.16
574.52	45518.74
574.68	45448.52
574.84	45514.06
575.01	45832.37
575.17	45893.22
575.33	45048.29
575.49	45783.22
575.65	45792.58
575.82	45581.93
575.98	45804.28
576.14	45708.32
576.30	45731.73
576.46	45670.87
576.62	45347.88
576.79	45717.68
576.95	45577.25
577.11	45858.12
577.27	45790.24
577.43	45153.62
577.59	45610.02
577.75	44999.14
577.92	45322.13
578.08	45413.41
578.24	45563.21
578.40	45251.92
578.56	45951.74
578.72	45818.33
578.88	45595.98
579.04	46244.30
579.21	45727.05
579.37	45476.61
579.53	45832.37
579.69	45467.25
579.85	45794.92
580.01	45769.18
580.17	45680.24
580.33	45890.88
580.49	45792.58
580.65	45757.47
580.82	45492.99
580.98	45818.33
581.14	45610.02
581.30	45958.76
581.46	45661.51
581.62	45705.98
581.78	45717.68
581.94	45890.88
582.10	45642.79
582.26	45860.46
582.42	45474.27
582.58	45858.12
582.74	45925.99
582.90	45914.29
583.06	45897.91
583.22	46057.06
583.38	46183.45
583.54	45977.48
583.70	45993.87
583.86	46021.95
584.02	46087.49
584.18	46080.47
584.34	45668.53
584.50	45907.27
584.66	45675.55
584.82	45670.87
584.98	45752.79
585.14	46000.89
585.30	45469.59
585.46	45460.23
585.62	45322.13
585.78	45727.05
585.94	45581.93
586.10	45530.44
586.26	45413.41
586.42	46045.36
586.58	45977.48
586.74	45879.18
586.90	45722.37
587.06	45741.09
587.22	45940.04
587.38	45797.26
587.54	45886.20
587.70	46146.00
587.86	46024.29
588.02	45979.82
588.18	46405.80
588.34	45771.52
588.49	45645.13
588.65	45373.63
588.81	45378.31
588.97	45488.31
589.13	45317.45
589.29	45408.73
589.45	45535.12
589.61	45773.86
589.77	45537.46
589.93	45652.15
590.08	46033.66
