SpectraSuite Data File
++++++++++++++++++++++++++++++++++++
Date: Fri Oct 25 10:48:13 EDT 2013
User: price-jones
Dark Spectrum Present: No
Reference Spectrum Present: No
Number of Sampled Component Spectra: 1
Spectrometers: USB2+H05261
Integration Time (usec): 100000 (USB2+H05261)
Spectra Averaged: 1 (USB2+H05261)
Boxcar Smoothing: 0 (USB2+H05261)
Correct for Electrical Dark: No (USB2+H05261)
Strobe/Lamp Enabled: No (USB2+H05261)
Correct for Detector Non-linearity: No (USB2+H05261)
Correct for Stray Light: No (USB2+H05261)
Number of Pixels in Processed Spectrum: 2048
>>>>>Begin Processed Spectral Data<<<<<
365.73	74.90
365.92	74.90
366.12	74.90
366.32	124.05
366.52	79.58
366.72	86.60
366.91	65.54
367.11	126.39
367.31	23.41
367.51	39.79
367.70	39.79
367.90	67.88
368.10	95.96
368.30	67.88
368.49	56.17
368.69	93.62
368.89	35.11
369.09	88.94
369.28	84.26
369.48	65.54
369.68	60.85
369.87	135.75
370.07	46.81
370.27	131.07
370.47	191.92
370.66	327.68
370.86	383.85
371.06	458.74
371.25	470.45
371.45	535.98
371.65	472.79
371.84	465.77
372.04	463.43
372.24	435.34
372.44	463.43
372.63	484.49
372.83	435.34
373.03	521.94
373.22	521.94
373.42	580.45
373.62	592.16
373.81	566.41
374.01	486.83
374.21	599.18
374.40	519.60
374.60	566.41
374.79	587.47
374.99	557.05
375.19	613.22
375.38	660.03
375.58	580.45
375.78	545.34
375.97	631.94
376.17	634.29
376.37	564.07
376.56	592.16
376.76	606.20
376.95	571.09
377.15	617.90
377.35	606.20
377.54	650.67
377.74	624.92
377.93	608.54
378.13	631.94
378.33	678.76
378.52	594.50
378.72	688.12
378.91	587.47
379.11	648.33
379.31	692.80
379.50	561.73
379.70	688.12
379.89	664.71
380.09	631.94
380.28	603.86
380.48	688.12
380.68	636.63
380.87	678.76
381.07	678.76
381.26	634.29
381.46	617.90
381.65	702.16
381.85	713.86
382.04	770.04
382.24	777.06
382.43	798.12
382.63	631.94
382.83	702.16
383.02	727.91
383.22	676.41
383.41	711.52
383.61	784.08
383.80	727.91
384.00	758.33
384.19	718.54
384.39	795.78
384.58	849.61
384.78	870.68
384.97	791.10
385.17	798.12
385.36	718.54
385.56	802.80
385.75	758.33
385.95	777.06
386.14	809.83
386.34	805.14
386.53	741.95
386.72	807.48
386.92	873.02
387.11	837.91
387.31	851.96
387.50	793.44
387.70	781.74
387.89	814.51
388.09	882.38
388.28	840.25
388.48	821.53
388.67	968.98
388.86	919.83
389.06	851.96
389.25	929.19
389.45	954.94
389.64	912.81
389.84	840.25
390.03	950.26
390.22	971.32
390.42	938.55
390.61	889.40
390.81	931.53
391.00	912.81
391.19	992.39
391.39	922.17
391.58	973.66
391.78	1046.22
391.97	1022.81
392.16	990.05
392.36	985.37
392.55	968.98
392.75	971.32
392.94	978.34
393.13	922.17
393.33	947.92
393.52	1060.26
393.71	1022.81
393.91	1043.88
394.10	978.34
394.29	1050.90
394.49	1022.81
394.68	1093.03
394.88	1149.20
395.07	1151.54
395.26	1158.57
395.46	1060.26
395.65	1177.29
395.84	1109.41
396.04	1100.05
396.23	1179.63
396.42	1041.54
396.62	1057.92
396.81	1179.63
397.00	1144.52
397.19	1095.37
397.39	1214.74
397.58	1196.01
397.77	1219.42
397.97	1329.42
398.16	1294.32
398.35	1301.34
398.55	1273.25
398.74	1320.06
398.93	1373.89
399.12	1308.36
399.32	1284.95
399.51	1277.93
399.70	1320.06
399.90	1397.30
400.09	1444.11
400.28	1451.13
400.47	1469.86
400.67	1394.96
400.86	1500.28
401.05	1387.94
401.24	1434.75
401.44	1537.73
401.63	1535.39
401.82	1472.20
402.01	1420.71
402.21	1544.75
402.40	1533.05
402.59	1596.25
402.78	1514.33
402.97	1614.97
403.17	1689.87
403.36	1509.65
403.55	1650.08
403.74	1636.03
403.93	1729.66
404.13	1699.23
404.32	1659.44
404.51	1760.08
404.70	1694.55
404.89	1715.61
405.09	1797.53
405.28	1732.00
405.47	1717.95
405.66	1818.60
405.85	1783.49
406.05	1767.10
406.24	1767.10
406.43	1785.83
406.62	1872.43
406.81	1860.73
407.00	1783.49
407.20	1823.28
407.39	1877.11
407.58	1879.45
407.77	1834.98
407.96	1961.37
408.15	2008.18
408.34	1905.20
408.54	2010.52
408.73	2080.74
408.92	2078.40
409.11	2092.44
409.30	2172.02
409.49	2073.71
409.68	2026.90
409.87	1977.75
410.07	2143.93
410.26	2165.00
410.45	2083.08
410.64	2101.80
410.83	2223.51
411.02	2246.91
411.21	2296.07
411.40	2298.41
411.59	2258.62
411.78	2263.30
411.98	2282.02
412.17	2347.56
412.36	2331.17
412.55	2448.20
412.74	2340.54
412.93	2509.05
413.12	2518.42
413.31	2567.57
413.50	2527.78
413.69	2457.56
413.88	2633.10
414.07	2544.16
414.26	2558.21
414.45	2708.00
414.64	2532.46
414.83	2649.49
415.02	2640.12
415.22	2752.47
415.41	2733.75
415.60	2846.09
415.79	2810.98
415.98	2841.41
416.17	2918.65
416.36	2827.37
416.55	2864.82
416.74	2888.22
416.93	2867.16
417.12	2951.42
417.31	2944.39
417.50	3119.93
417.69	3002.91
417.88	3045.04
418.07	2974.82
418.26	3063.76
418.45	3185.47
418.64	3241.64
418.83	3084.83
419.02	3187.81
419.21	3269.73
419.39	3194.83
419.58	3236.96
419.77	3169.09
419.96	3225.26
420.15	3276.75
420.34	3258.03
420.53	3372.71
420.72	3361.01
420.91	3311.86
421.10	3471.01
421.29	3438.25
421.48	3344.63
421.67	3445.27
421.86	3295.47
422.05	3485.06
422.24	3538.89
422.43	3375.05
422.61	3543.57
422.80	3482.72
422.99	3658.26
423.18	3564.64
423.37	3576.34
423.56	3494.42
423.75	3524.85
423.94	3557.61
424.13	3417.18
424.32	3363.35
424.50	3653.58
424.69	3588.04
424.88	3630.17
425.07	3534.21
425.26	3508.46
425.45	3456.97
425.64	3431.23
425.83	3653.58
426.01	3632.51
426.20	3620.81
426.39	3681.66
426.58	3634.85
426.77	3534.21
426.96	3702.73
427.15	3566.98
427.33	3815.07
427.52	3728.47
427.71	3709.75
427.90	3852.52
428.09	3803.37
428.28	3847.84
428.46	3866.56
428.65	3871.25
428.84	3939.12
429.03	3918.06
429.22	3796.35
429.40	3775.28
429.59	3747.20
429.78	3578.68
429.97	3660.60
430.16	3772.94
430.34	3852.52
430.53	3812.73
430.72	3901.67
430.91	3817.41
431.10	3955.51
431.28	4170.83
431.47	4095.94
431.66	4180.20
431.85	4196.58
432.03	4180.20
432.22	4119.34
432.41	4234.03
432.60	4269.14
432.79	4248.07
432.97	4278.50
433.16	4255.09
433.35	4095.94
433.54	4311.27
433.72	4351.06
433.91	4222.33
434.10	4304.25
434.28	4404.89
434.47	4500.85
434.66	4402.55
434.85	4372.12
435.03	4479.79
435.22	4510.21
435.41	4739.58
435.59	4650.64
435.78	4564.04
435.97	4613.20
436.16	4514.89
436.34	4652.98
436.53	4592.13
436.72	4725.54
436.90	4561.70
437.09	4566.39
437.28	4727.88
437.46	4643.62
437.65	4812.14
437.84	4702.14
438.02	4767.67
438.21	4908.10
438.40	4706.82
438.58	4772.35
438.77	5062.58
438.96	4990.02
439.14	4994.70
439.33	5032.15
439.52	4983.00
439.70	5041.51
439.89	5088.32
440.08	5320.04
440.26	5320.04
440.45	5111.73
440.63	5207.69
440.82	5479.19
441.01	5313.02
441.19	5490.90
441.38	5444.09
441.57	5462.81
441.75	5568.13
441.94	5654.73
442.12	5633.67
442.31	5762.40
442.50	5678.14
442.68	5710.91
442.87	5776.44
443.05	5589.20
443.24	5809.21
443.43	5776.44
443.61	5764.74
443.80	5830.27
443.98	5832.62
444.17	5731.97
444.35	5846.66
444.54	6010.50
444.73	5853.68
444.91	5947.30
445.10	5870.06
445.28	5994.11
445.47	5764.74
445.65	5858.36
445.84	6064.33
446.02	6120.50
446.21	5795.17
446.39	6022.20
446.58	6019.86
446.77	6033.90
446.95	5895.81
447.14	6113.48
447.32	6052.63
447.51	5989.43
447.69	5937.94
447.88	5998.79
448.06	6167.31
448.25	5935.60
448.43	6017.52
448.62	6094.76
448.80	6050.28
448.99	6148.59
449.17	6328.81
449.36	6052.63
449.54	6132.20
449.73	6317.11
449.91	6284.34
450.10	6485.62
450.28	6504.35
450.46	6558.18
450.65	6565.20
450.83	6579.25
451.02	6506.69
451.20	6513.71
451.39	6518.39
451.57	6455.20
451.76	6504.35
451.94	6637.76
452.13	6562.86
452.31	6562.86
452.49	6457.54
452.68	6640.10
452.86	6597.97
453.05	6654.14
453.23	6574.56
453.42	6466.90
453.60	6626.06
453.78	6644.78
453.97	6509.03
454.15	6628.40
454.34	6686.91
454.52	6853.09
454.70	6801.60
454.89	6817.98
455.07	6984.16
455.26	6991.18
455.44	6988.84
455.62	7126.93
455.81	7037.99
455.99	7016.93
456.17	7087.14
456.36	7157.36
456.54	7283.75
456.73	7077.78
456.91	7265.02
457.09	7424.18
457.28	7276.73
457.46	7307.15
457.64	7480.35
457.83	7087.14
458.01	7311.83
458.19	7431.20
458.38	7274.38
458.56	7529.50
458.74	7756.54
458.93	7435.88
459.11	7447.58
459.29	7634.83
459.48	7377.37
459.66	7456.95
459.84	7602.06
460.03	7791.64
460.21	7822.07
460.39	7712.07
460.57	7639.51
460.76	7761.22
460.94	7943.78
461.12	7660.57
461.31	7918.03
461.49	7934.42
461.67	7805.69
461.85	8166.13
462.04	7831.43
462.22	8428.27
462.40	7981.23
462.59	8016.33
462.77	8046.76
462.95	8224.64
463.13	8159.11
463.32	8065.49
463.50	8212.94
463.68	8320.60
463.86	8402.52
464.05	7964.84
464.23	8042.08
464.41	8210.60
464.59	8002.29
464.78	8248.05
464.96	8297.20
465.14	8311.24
465.32	8465.72
465.50	8397.84
465.69	8442.31
465.87	8458.70
466.05	8397.84
466.23	8290.18
466.41	8346.35
466.60	8533.59
466.78	8353.37
466.96	8437.63
467.14	8402.52
467.32	8683.39
467.51	8748.92
467.69	8292.52
467.87	8599.13
468.05	8571.04
468.23	8603.81
468.41	8603.81
468.60	8739.56
468.78	8791.05
468.96	8446.99
469.14	8971.27
469.32	8849.57
469.50	8730.20
469.69	8830.84
469.87	9027.45
470.05	8912.76
470.23	9039.15
470.41	8765.31
470.59	9074.26
470.77	9125.75
470.95	9177.24
471.14	9188.94
471.32	9020.42
471.50	9324.69
471.68	9280.22
471.86	9404.27
472.04	9401.93
472.22	9743.65
472.40	9308.31
472.58	9432.36
472.77	9598.54
472.95	9647.69
473.13	10183.67
473.31	9640.67
473.49	9600.88
473.67	9542.36
473.85	9708.54
474.03	9853.66
474.21	10008.13
474.39	10104.09
474.57	9958.98
474.75	10228.14
474.93	10136.86
475.12	10258.57
475.30	10263.25
475.48	10513.69
475.66	10150.90
475.84	10310.06
476.02	10307.72
476.20	10672.84
476.38	10441.13
476.56	10771.15
476.74	10640.08
476.92	10581.56
477.10	10766.46
477.28	11047.33
477.46	10923.28
477.64	11318.83
477.82	11145.63
478.00	11655.87
478.18	11433.52
478.36	11595.01
478.54	11695.66
478.72	11566.93
478.90	11779.92
479.08	11805.66
479.26	12173.13
479.44	12051.42
479.62	12159.08
479.80	12252.70
479.98	12226.96
480.16	12437.61
480.34	12414.20
480.52	12402.50
480.70	12585.06
480.88	12374.41
481.06	12636.55
481.24	12884.65
481.41	12926.78
481.59	13163.17
481.77	13046.15
481.95	13231.05
482.13	13343.39
482.31	13401.91
482.49	13572.77
482.67	13509.57
482.85	13748.31
483.03	14104.07
483.21	13795.12
483.39	14031.51
483.57	13886.40
483.74	14279.61
483.92	14469.19
484.10	14312.38
484.28	14415.36
484.46	14764.10
484.64	14991.13
484.82	14707.93
485.00	14988.79
485.18	15131.56
485.35	15253.27
485.53	14764.10
485.71	15374.98
485.89	15236.89
486.07	15405.41
486.25	15620.74
486.43	15632.44
486.61	15765.85
486.78	15887.56
486.96	16418.86
487.14	16294.81
487.32	16414.18
487.50	16301.83
487.68	16535.88
487.85	16861.22
488.03	17062.51
488.21	17156.13
488.39	17209.96
488.57	16968.88
488.75	17467.42
488.92	17422.95
489.10	18059.57
489.28	18087.66
489.46	18073.62
489.64	18113.41
489.81	18593.22
489.99	18375.55
490.17	18855.36
490.35	18874.08
490.53	18787.48
490.70	18876.42
490.88	18567.47
491.06	19372.61
491.24	19171.33
491.41	19173.67
491.59	19274.31
491.77	19417.08
491.95	19510.71
492.13	19711.99
492.30	19707.31
492.48	19915.62
492.66	19721.35
492.84	20224.57
493.01	20264.36
493.19	20662.25
493.37	20760.55
493.54	20772.25
493.72	20821.41
493.90	20858.85
494.08	21205.25
494.25	21263.77
494.43	21188.87
494.61	21572.72
494.79	21621.87
494.96	21556.33
495.14	21804.43
495.32	21610.17
495.49	21874.65
495.67	22094.66
495.85	22068.91
496.02	22382.54
496.20	22658.73
496.38	22225.73
496.55	22565.10
496.73	23201.73
496.91	22539.36
497.09	23075.34
497.26	23047.26
497.44	23447.49
497.62	23374.93
497.79	23414.72
497.97	23351.52
498.14	23480.25
498.32	23843.04
498.50	23819.63
498.67	24121.56
498.85	23962.40
499.03	24350.93
499.20	24142.63
499.38	24329.87
499.56	24386.04
499.73	24414.13
499.91	24439.87
500.08	24840.11
500.26	24751.17
500.44	24826.06
500.61	24582.65
500.79	24634.14
500.97	25207.57
501.14	25394.81
501.32	25305.87
501.49	25308.21
501.67	25149.06
501.84	25502.48
502.02	25359.70
502.20	25743.55
502.37	25902.71
502.55	26146.12
502.72	26064.21
502.90	26195.28
503.07	25989.31
503.25	25975.27
503.43	26183.57
503.60	26412.95
503.78	26363.79
503.95	26455.08
504.13	26492.52
504.30	26813.18
504.48	26693.81
504.65	26656.36
504.83	26979.36
505.01	26874.03
505.18	27309.37
505.36	27285.97
505.53	27227.45
505.71	27749.39
505.88	27850.03
506.06	27311.71
506.23	27445.12
506.41	27845.35
506.58	27711.94
506.76	27889.82
506.93	28095.79
507.11	28184.73
507.28	27747.05
507.46	28180.05
507.63	28360.27
507.81	28224.52
507.98	28126.22
508.16	28163.67
508.33	28393.04
508.50	28648.16
508.68	28636.45
508.85	28650.50
509.03	28952.43
509.20	29083.50
509.38	28924.34
509.55	29291.80
509.73	29432.24
509.90	29392.45
510.08	29418.19
510.25	29345.64
510.42	29434.58
510.60	29350.32
510.77	30122.69
510.95	29895.66
511.12	30015.03
511.30	29860.55
511.47	29956.52
511.64	30356.75
511.82	30429.30
511.99	30146.10
512.17	30735.92
512.34	30206.95
512.51	30417.60
512.69	30806.13
512.86	30466.75
513.04	31033.16
513.21	30871.67
513.38	30611.87
513.56	30815.49
513.73	30614.21
513.90	31180.62
514.08	31063.59
514.25	30871.67
514.43	31754.05
514.60	31283.60
514.77	31323.39
514.95	31283.60
515.12	31201.68
515.29	31335.09
515.47	31999.80
515.64	32432.80
515.81	31868.73
515.99	31667.45
516.16	31634.68
516.33	31604.25
516.51	31903.84
516.68	31461.48
516.85	31873.42
517.03	32231.52
517.20	32425.78
517.37	31903.84
517.54	32491.32
517.72	32308.76
517.89	32428.12
518.06	32266.63
518.24	32521.74
518.41	32198.75
518.58	32636.43
518.75	32617.71
518.93	32980.49
519.10	32800.27
519.27	33116.24
519.45	32655.15
519.62	33474.34
519.79	33310.50
519.96	33291.78
520.14	33565.62
520.31	33181.77
520.48	33354.97
520.65	33785.63
520.83	33930.75
521.00	33649.88
521.17	33586.69
521.34	33663.93
521.52	34155.44
521.69	34195.23
521.86	34185.86
522.03	34071.18
522.20	34410.56
522.38	34459.71
522.55	34684.40
522.72	34387.15
522.89	34508.86
523.07	34719.51
523.24	34110.97
523.41	34639.93
523.58	34916.11
523.75	34920.79
523.92	34937.18
524.10	35157.19
524.27	35161.87
524.44	35456.78
524.61	35306.98
524.78	35222.72
524.96	35229.74
525.13	35463.80
525.30	35564.44
525.47	35641.68
525.64	35531.67
525.81	35758.70
525.98	35512.95
526.16	35257.83
526.33	34845.90
526.50	35864.03
526.67	35218.04
526.84	35576.14
527.01	35639.34
527.18	35995.10
527.36	36079.36
527.53	36240.86
527.70	36641.09
527.87	36673.85
528.04	36299.37
528.21	36610.66
528.38	36149.57
528.55	36638.75
528.72	36467.89
528.89	36907.91
529.07	36219.79
529.24	36500.65
529.41	36645.77
529.58	36547.47
529.75	36854.08
529.92	36802.58
530.09	36900.89
530.26	36868.12
530.43	36847.05
530.60	36807.26
530.77	37359.63
530.94	37090.47
531.11	37219.20
531.28	37273.03
531.46	37600.71
531.63	37900.29
531.80	37336.23
531.97	37383.04
532.14	37422.83
532.31	37315.16
532.48	37722.41
532.65	37881.57
532.82	37530.49
532.99	38246.69
533.16	37165.37
533.33	37968.17
533.50	38363.72
533.67	37853.48
533.84	37720.07
534.01	38033.71
534.18	38024.34
534.35	38677.35
534.52	37998.60
534.69	38497.13
534.86	38450.32
535.03	37897.95
535.20	38822.47
535.37	38342.66
535.54	38817.78
535.71	38391.81
535.88	38536.92
536.05	38487.77
536.22	38543.94
536.38	38794.38
536.55	38499.47
536.72	38831.83
536.89	38658.63
537.06	39042.48
537.23	38930.13
537.40	38958.22
537.57	39274.19
537.74	39175.89
537.91	39297.59
538.08	39379.51
538.25	38972.26
538.42	39143.12
538.59	39632.29
538.75	39309.30
538.92	39306.96
539.09	39526.97
539.26	39215.68
539.43	39161.84
539.60	39093.97
539.77	39431.01
539.94	39538.67
540.11	39337.38
540.28	39768.04
540.44	39889.75
540.61	39381.85
540.78	39372.49
540.95	39321.00
541.12	39323.34
541.29	39058.86
541.46	39824.22
541.62	40088.70
541.79	40205.72
541.96	39974.01
542.13	39765.70
542.30	40060.61
542.47	39913.16
542.63	39871.03
542.80	40563.82
542.97	40507.65
543.14	40858.73
543.31	40662.13
543.48	40699.58
543.64	41265.99
543.81	40577.87
543.98	41008.53
544.15	41305.77
544.32	40755.75
544.48	41090.44
544.65	40844.69
544.82	40910.22
544.99	40903.20
545.16	41172.36
545.32	40643.40
545.49	41544.51
545.66	41003.85
545.83	41460.25
546.00	41092.79
546.16	41462.59
546.33	41329.18
546.50	41022.57
546.67	40835.33
546.83	40882.14
547.00	41273.01
547.17	41518.76
547.34	41345.56
547.50	41886.23
547.67	41743.45
547.84	41724.73
548.00	41862.82
548.17	41993.89
548.34	41567.91
548.51	41846.44
548.67	41713.03
548.84	42192.84
549.01	41813.67
549.18	41439.18
549.34	41979.85
549.51	42284.12
549.68	42071.13
549.84	41961.12
550.01	41734.09
550.18	42036.02
550.34	42464.34
550.51	41921.34
550.68	41975.17
550.84	42038.36
551.01	42087.51
551.18	42270.08
551.34	42052.41
551.51	42012.62
551.68	42644.56
551.84	42522.85
552.01	42433.91
552.18	42674.99
552.34	42176.45
552.51	42660.94
552.68	42635.20
552.84	42511.15
553.01	42801.38
553.18	42623.50
553.34	42466.68
553.51	42108.58
553.67	42555.62
553.84	43304.59
554.01	43065.86
554.17	43215.65
554.34	43524.60
554.51	43023.73
554.67	43150.12
554.84	42719.46
555.00	42635.20
555.17	42770.95
555.33	43196.93
555.50	43178.20
555.67	43185.22
555.83	43065.86
556.00	43636.95
556.16	43526.94
556.33	43388.85
556.50	43168.84
556.66	43164.16
556.83	43042.45
556.99	43412.26
557.16	43100.97
557.32	43290.55
557.49	43393.53
557.65	43246.08
557.82	43147.78
557.98	43653.33
558.15	43381.83
558.32	43548.01
558.48	43274.16
558.65	43545.67
558.81	43005.00
558.98	43629.93
559.14	43620.56
559.31	43634.61
559.47	43438.00
559.64	43941.22
559.80	43749.29
559.97	43777.38
560.13	43852.28
560.30	43323.32
560.46	43765.68
560.63	43555.03
560.79	43824.19
560.96	43536.30
561.12	43641.63
561.29	43807.81
561.45	44095.69
561.61	43833.55
561.78	43665.03
561.94	43550.35
562.11	43971.64
562.27	43452.05
562.44	44105.06
562.60	43828.87
562.77	44268.89
562.93	43768.02
563.10	44133.14
563.26	44154.21
563.42	44203.36
563.59	44114.42
563.75	43955.26
563.92	44432.73
564.08	44322.72
564.24	44179.95
564.41	44364.85
564.57	43828.87
564.74	43901.43
564.90	44378.90
565.07	44175.27
565.23	43583.12
565.39	43751.63
565.56	44357.83
565.72	44161.23
565.88	44334.43
566.05	44238.47
566.21	44044.20
566.38	44264.21
566.54	44147.18
566.70	44715.93
566.87	44708.91
567.03	44186.97
567.19	44378.90
567.36	44250.17
567.52	44229.10
567.68	44346.13
567.85	44580.18
568.01	44243.15
568.17	44177.61
568.34	44287.62
568.50	44430.39
568.66	44198.68
568.83	44545.08
568.99	44140.16
569.15	44051.22
569.32	44339.11
569.48	44292.30
569.64	44430.39
569.81	44886.79
569.97	44217.40
570.13	44339.11
570.30	44231.44
570.46	44294.64
570.62	44245.49
570.78	44264.21
570.95	44201.02
571.11	44821.26
571.27	44783.81
571.43	44577.84
571.60	44603.59
571.76	44603.59
571.92	44004.41
572.09	44470.18
572.25	44245.49
572.41	44294.64
572.57	44608.27
572.74	44980.42
572.90	44949.99
573.06	44631.68
573.22	44715.93
573.38	44542.74
573.55	44250.17
573.71	44652.74
573.87	44126.12
574.03	44741.68
574.20	44526.35
574.36	44694.87
574.52	44465.50
574.68	44680.83
574.84	44814.24
575.01	44589.55
575.17	44779.13
575.33	44222.08
575.49	44563.80
575.65	44994.46
575.82	44926.58
575.98	44690.19
576.14	44662.10
576.30	44390.60
576.46	44364.85
576.62	44552.10
576.79	44460.82
576.95	44259.53
577.11	44882.11
577.27	44680.83
577.43	45085.74
577.59	44343.79
577.75	44802.53
577.92	44847.00
578.08	44032.50
578.24	44329.75
578.40	44720.62
578.56	44603.59
578.72	44718.28
578.88	44744.02
579.04	44868.07
579.21	44526.35
579.37	44636.36
579.53	44479.54
579.69	44425.71
579.85	44474.86
580.01	45132.55
580.17	44697.21
580.33	45263.62
580.49	45106.80
580.65	44608.27
580.82	44945.31
580.98	44816.58
581.14	44442.09
581.30	44837.64
581.46	44673.81
581.62	44793.17
581.78	44701.89
581.94	44858.71
582.10	45064.67
582.26	45153.62
582.42	44875.09
582.58	44973.39
582.74	45029.57
582.90	44931.26
583.06	45532.78
583.22	44978.07
583.38	45099.78
583.54	44856.37
583.70	44865.73
583.86	45172.34
584.02	44446.77
584.18	44624.65
584.34	45052.97
584.50	44788.49
584.66	45092.76
584.82	44673.81
584.98	45034.25
585.14	45179.36
585.30	44800.19
585.46	44870.41
585.62	44779.13
585.78	44367.20
585.94	44692.53
586.10	44875.09
586.26	44594.23
586.42	44928.92
586.58	44842.32
586.74	44987.44
586.90	44612.95
587.06	44573.16
587.22	45200.43
587.38	44516.99
587.54	45333.84
587.70	45022.54
587.86	45081.06
588.02	44996.80
588.18	45177.02
588.34	44535.71
588.49	44369.54
588.65	44470.18
588.81	44933.60
588.97	44837.64
589.13	44325.07
589.29	44252.51
589.45	44610.61
589.61	44959.35
589.77	45242.56
589.93	44987.44
590.08	45237.87
590.24	45038.93
