SpectraSuite Data File
++++++++++++++++++++++++++++++++++++
Date: Fri Oct 25 10:44:24 EDT 2013
User: price-jones
Dark Spectrum Present: No
Reference Spectrum Present: No
Number of Sampled Component Spectra: 1
Spectrometers: USB2+H05261
Integration Time (usec): 100000 (USB2+H05261)
Spectra Averaged: 1 (USB2+H05261)
Boxcar Smoothing: 0 (USB2+H05261)
Correct for Electrical Dark: No (USB2+H05261)
Strobe/Lamp Enabled: No (USB2+H05261)
Correct for Detector Non-linearity: No (USB2+H05261)
Correct for Stray Light: No (USB2+H05261)
Number of Pixels in Processed Spectrum: 2048
>>>>>Begin Processed Spectral Data<<<<<
365.73	95.96
365.92	95.96
366.12	95.96
366.32	63.19
366.52	0.00
366.72	60.85
366.91	0.00
367.11	4.68
367.31	35.11
367.51	37.45
367.70	63.19
367.90	9.36
368.10	0.00
368.30	37.45
368.49	30.43
368.69	0.00
368.89	74.90
369.09	77.24
369.28	93.62
369.48	95.96
369.68	98.30
369.87	124.05
370.07	74.90
370.27	88.94
370.47	187.24
370.66	421.30
370.86	435.34
371.06	409.59
371.25	458.74
371.45	554.71
371.65	456.40
371.84	416.62
372.04	430.66
372.24	559.39
372.44	437.68
372.63	433.00
372.83	528.96
373.03	510.24
373.22	557.05
373.42	624.92
373.62	613.22
373.81	517.26
374.01	503.22
374.21	599.18
374.40	589.82
374.60	531.30
374.79	601.52
374.99	550.03
375.19	554.71
375.38	585.13
375.58	634.29
375.78	622.58
375.97	681.10
376.17	617.90
376.37	599.18
376.56	676.41
376.76	678.76
376.95	645.99
377.15	685.78
377.35	636.63
377.54	627.26
377.74	660.03
377.93	667.05
378.13	671.73
378.33	709.18
378.52	638.97
378.72	664.71
378.91	596.84
379.11	578.11
379.31	676.41
379.50	650.67
379.70	648.33
379.89	711.52
380.09	660.03
380.28	723.23
380.48	770.04
380.68	720.88
380.87	765.36
381.07	737.27
381.26	699.82
381.46	725.57
381.65	725.57
381.85	702.16
382.04	720.88
382.24	706.84
382.43	667.05
382.63	741.95
382.83	746.63
383.02	748.97
383.22	727.91
383.41	767.70
383.61	786.42
383.80	844.93
384.00	781.74
384.19	823.87
384.39	753.65
384.58	744.29
384.78	912.81
384.97	800.46
385.17	833.23
385.36	786.42
385.56	877.70
385.75	748.97
385.95	795.78
386.14	807.48
386.34	814.51
386.53	800.46
386.72	882.38
386.92	873.02
387.11	823.87
387.31	924.51
387.50	835.57
387.70	943.24
387.89	905.79
388.09	873.02
388.28	849.61
388.48	929.19
388.67	945.58
388.86	980.68
389.06	1015.79
389.25	1048.56
389.45	959.62
389.64	1036.86
389.84	992.39
390.03	1060.26
390.22	1004.09
390.42	1081.33
390.61	1046.22
390.81	1088.35
391.00	1046.22
391.19	1118.78
391.39	1062.60
391.58	1039.20
391.78	1165.59
391.97	1069.62
392.16	1121.12
392.36	1004.09
392.55	1090.69
392.75	1053.24
392.94	957.28
393.13	1027.50
393.33	1036.86
393.52	1029.84
393.71	1111.75
393.91	1172.61
394.10	1167.93
394.29	1177.29
394.49	1256.87
394.68	1233.46
394.88	1172.61
395.07	1294.32
395.26	1263.89
395.46	1308.36
395.65	1299.00
395.84	1252.19
396.04	1235.80
396.23	1174.95
396.42	1165.59
396.62	1235.80
396.81	1280.27
397.00	1345.81
397.19	1329.42
397.39	1334.11
397.58	1441.77
397.77	1322.40
397.97	1446.45
398.16	1511.99
398.35	1455.81
398.55	1423.05
398.74	1535.39
398.93	1671.14
399.12	1556.46
399.32	1591.56
399.51	1490.92
399.70	1600.93
399.90	1561.14
400.09	1701.57
400.28	1558.80
400.47	1678.16
400.67	1706.25
400.86	1818.60
401.05	1734.34
401.24	1671.14
401.44	1771.79
401.63	1755.40
401.82	1806.89
402.01	1659.44
402.21	1762.42
402.40	1783.49
402.59	1818.60
402.78	1678.16
402.97	1753.06
403.17	1874.77
403.36	1867.75
403.55	1902.86
403.74	1984.77
403.93	1839.66
404.13	1874.77
404.32	1980.09
404.51	1980.09
404.70	1984.77
404.89	1970.73
405.09	1977.75
405.28	2038.61
405.47	2031.58
405.66	1973.07
405.85	2108.82
406.05	2036.27
406.24	1952.01
406.43	2083.08
406.62	2186.06
406.81	2242.23
407.00	2085.42
407.20	2200.10
407.39	2176.70
407.58	2303.09
407.77	2230.53
407.96	2244.57
408.15	2333.51
408.34	2289.04
408.54	2314.79
408.73	2284.36
408.92	2342.88
409.11	2272.66
409.30	2413.09
409.49	2359.26
409.68	2298.41
409.87	2317.13
410.07	2321.81
410.26	2464.58
410.45	2441.18
410.64	2492.67
410.83	2499.69
411.02	2558.21
411.21	2651.83
411.40	2675.23
411.59	2757.15
411.78	2689.28
411.98	2661.19
412.17	2649.49
412.36	2780.56
412.55	2637.78
412.74	2813.32
412.93	2818.00
413.12	2909.29
413.31	2843.75
413.50	2881.20
413.69	2909.29
413.88	3047.38
414.07	2998.23
414.26	3009.93
414.45	3187.81
414.64	3002.91
414.83	3248.66
415.02	3108.23
415.22	3096.53
415.41	3173.77
415.60	3304.84
415.79	3136.32
415.98	3267.39
416.17	3412.50
416.36	3316.54
416.55	3456.97
416.74	3421.86
416.93	3335.26
417.12	3452.29
417.31	3485.06
417.50	3447.61
417.69	3552.93
417.88	3552.93
418.07	3548.25
418.26	3485.06
418.45	3438.25
418.64	3749.54
418.83	3772.94
419.02	3723.79
419.21	3770.60
419.39	3695.71
419.58	3719.11
419.77	3758.90
419.96	3609.11
420.15	3932.10
420.34	3791.67
420.53	3857.20
420.72	3908.69
420.91	3950.82
421.10	4095.94
421.29	3969.55
421.48	3925.08
421.67	3955.51
421.86	3878.27
422.05	3922.74
422.24	3852.52
422.43	3840.82
422.61	4084.23
422.80	4175.52
422.99	4030.40
423.18	3999.98
423.37	4121.68
423.56	4142.75
423.75	4194.24
423.94	4004.66
424.13	3815.07
424.32	3971.89
424.50	3995.29
424.69	4056.15
424.88	4154.45
425.07	4042.11
425.26	3981.25
425.45	4042.11
425.64	4088.92
425.83	4077.21
426.01	4259.78
426.20	4182.54
426.39	4140.41
426.58	4072.53
426.77	4229.35
426.96	4224.67
427.15	4257.43
427.33	4299.56
427.52	4198.92
427.71	4135.73
427.90	4337.01
428.09	4224.67
428.28	4248.07
428.46	4245.73
428.65	4283.18
428.84	4430.63
429.03	4224.67
429.22	4306.59
429.40	4212.96
429.59	4264.46
429.78	4095.94
429.97	3971.89
430.16	4063.17
430.34	4234.03
430.53	4252.75
430.72	4248.07
430.91	4301.90
431.10	4594.47
431.28	4608.51
431.47	4725.54
431.66	4873.00
431.85	4697.46
432.03	4840.23
432.22	4695.11
432.41	4734.90
432.60	4732.56
432.79	4931.51
432.97	4884.70
433.16	4905.76
433.35	4835.55
433.54	4816.82
433.72	4762.99
433.91	4723.20
434.10	4933.85
434.28	4858.95
434.47	5041.51
434.66	5191.31
434.85	5074.28
435.03	5233.44
435.22	5167.90
435.41	5430.04
435.59	5053.22
435.78	5472.17
435.97	5406.64
436.16	5273.23
436.34	5320.04
436.53	5287.27
436.72	5437.06
436.90	5313.02
437.09	5423.02
437.28	5207.69
437.46	5376.21
437.65	5343.44
437.84	5200.67
438.02	5298.97
438.21	5387.91
438.40	5219.39
438.58	5458.13
438.77	5628.99
438.96	5486.22
439.14	5809.21
439.33	6029.22
439.52	5877.09
439.70	5856.02
439.89	5874.74
440.08	5980.07
440.26	5788.14
440.45	5905.17
440.63	6157.95
440.82	6326.47
441.01	6005.81
441.19	6289.02
441.38	6279.66
441.57	6211.78
441.75	6303.06
441.94	6504.35
442.12	6387.32
442.31	6595.63
442.50	6551.16
442.68	6581.59
442.87	6483.28
443.05	6560.52
443.24	6595.63
443.43	6703.29
443.61	6710.32
443.80	6670.53
443.98	6656.48
444.17	6478.60
444.35	6546.48
444.54	6825.00
444.73	6726.70
444.91	6752.45
445.10	6633.08
445.28	6579.25
445.47	6679.89
445.65	6621.38
445.84	6707.98
446.02	6726.70
446.21	6846.07
446.39	6679.89
446.58	6787.55
446.77	6998.20
446.95	6808.62
447.14	6967.77
447.32	7070.76
447.51	6923.30
447.69	6740.74
447.88	6801.60
448.06	6883.52
448.25	6850.75
448.43	7002.88
448.62	6869.47
448.80	6984.16
448.99	7096.50
449.17	7066.08
449.36	6965.43
449.54	7105.87
449.73	7241.62
449.91	7260.34
450.10	7368.01
450.28	7389.07
450.46	7496.74
450.65	7363.33
450.83	7499.08
451.02	7288.43
451.20	7536.52
451.39	7449.93
451.57	7323.54
451.76	7552.91
451.94	7496.74
452.13	7522.48
452.31	7496.74
452.49	7288.43
452.68	7309.49
452.86	7473.33
453.05	7541.21
453.23	7478.01
453.42	7363.33
453.60	7751.85
453.78	7676.96
453.97	7676.96
454.15	7571.63
454.34	7681.64
454.52	7831.43
454.70	7676.96
454.89	7723.77
455.07	7723.77
455.26	7864.20
455.44	8032.72
455.62	7943.78
455.81	8116.98
455.99	8030.38
456.17	8056.12
456.36	8245.71
456.54	8271.45
456.73	8290.18
456.91	8521.89
457.09	8318.26
457.28	8557.00
457.46	8299.54
457.64	8491.46
457.83	8273.79
458.01	8346.35
458.19	8533.59
458.38	8351.03
458.56	8510.19
458.74	8617.85
458.93	8631.90
459.11	8479.76
459.29	8662.32
459.48	8549.98
459.66	8571.04
459.84	8493.80
460.03	8631.90
460.21	8720.84
460.39	8814.46
460.57	8905.74
460.76	8704.45
460.94	8945.53
461.12	8767.65
461.31	8912.76
461.49	8940.85
461.67	8858.93
461.85	9156.18
462.04	9022.77
462.22	9263.84
462.40	9104.68
462.59	9156.18
462.77	9041.49
462.95	9123.41
463.13	9121.07
463.32	9397.25
463.50	9303.63
463.68	9338.74
463.86	9317.67
464.05	9146.81
464.23	9224.05
464.41	9305.97
464.59	9268.52
464.78	9378.53
464.96	9336.40
465.14	9336.40
465.32	9563.43
465.50	9593.86
465.69	9376.19
465.87	9425.34
466.05	9411.29
466.23	9392.57
466.41	9554.07
466.60	9863.02
466.78	9394.91
466.96	9710.88
467.14	9661.73
467.32	9745.99
467.51	9741.31
467.69	9341.08
467.87	9547.05
468.05	9694.50
468.23	9720.24
468.41	9696.84
468.60	9963.66
468.78	10029.20
468.96	9980.04
469.14	9745.99
469.32	10146.22
469.50	9895.78
469.69	9996.43
469.87	9968.34
470.05	9991.75
470.23	10188.35
470.41	10265.59
470.59	10174.31
470.77	10157.92
470.95	10228.14
471.14	10310.06
471.32	10115.80
471.50	10630.71
471.68	10600.29
471.86	10476.24
472.04	10834.34
472.22	11028.60
472.40	10656.46
472.58	10621.35
472.77	10878.81
472.95	10778.17
473.13	11206.48
473.31	10855.40
473.49	10832.00
473.67	10892.85
473.85	10951.37
474.03	11248.61
474.21	11190.10
474.39	11344.58
474.57	11377.34
474.75	11236.91
474.93	11358.62
475.12	11644.17
475.30	11744.81
475.48	11562.25
475.66	11660.55
475.84	11400.75
476.02	11623.10
476.20	11751.83
476.38	12156.74
476.56	12166.10
476.74	12086.53
476.92	12278.45
477.10	12301.86
477.28	12486.76
477.46	12503.14
477.64	12655.28
477.82	12786.35
478.00	13004.02
478.18	13067.21
478.36	13029.76
478.54	13273.18
478.72	13142.11
478.90	13352.76
479.08	13422.97
479.26	13628.94
479.44	13465.10
479.62	13532.98
479.80	13654.69
479.98	13963.64
480.16	14150.88
480.34	13811.50
480.52	14193.01
480.70	14061.94
480.88	13991.72
481.06	14490.26
481.24	14452.81
481.41	14710.27
481.59	14841.34
481.77	14759.42
481.95	14764.10
482.13	15084.75
482.31	14988.79
482.49	15438.17
482.67	15529.45
482.85	15384.34
483.03	15578.61
483.21	15843.09
483.39	15578.61
483.57	15791.59
483.74	16018.63
483.92	15929.69
484.10	15822.02
484.28	16395.45
484.46	16652.91
484.64	16760.58
484.82	16594.40
485.00	16692.70
485.18	16917.39
485.35	16957.18
485.53	16367.37
485.71	16477.37
485.89	16699.72
486.07	16844.84
486.25	17041.44
486.43	17163.15
486.61	17490.82
486.78	17631.26
486.96	18101.70
487.14	18019.78
487.32	18244.48
487.50	18579.17
487.68	18853.02
487.85	19103.45
488.03	19087.07
488.21	18923.23
488.39	18941.96
488.57	19154.94
488.75	19482.62
488.92	19403.04
489.10	19943.70
489.28	20191.80
489.46	20236.27
489.64	19992.86
489.81	20702.04
489.99	20723.10
490.17	20624.80
490.35	20816.72
490.53	20919.71
490.70	21102.27
490.88	20912.69
491.06	21397.18
491.24	21345.69
491.41	21436.97
491.59	21432.29
491.77	21451.01
491.95	21668.68
492.13	21673.36
492.30	21947.20
492.48	22059.55
492.66	22190.62
492.84	22581.49
493.01	22707.88
493.19	22544.04
493.37	22717.24
493.54	23098.75
493.72	23122.15
493.90	23335.14
494.08	23594.94
494.25	23770.48
494.43	24016.24
494.61	23990.49
494.79	23995.17
494.96	24112.20
495.14	24105.18
495.32	24180.07
495.49	24491.37
495.67	24559.24
495.85	24673.93
496.02	24992.24
496.20	25010.96
496.38	25132.67
496.55	24966.49
496.73	25645.25
496.91	25575.03
497.09	25626.53
497.26	25881.64
497.44	25724.83
497.62	25907.39
497.79	25977.61
497.97	25624.18
498.14	26050.16
498.32	26560.40
498.50	26260.81
498.67	26623.59
498.85	26551.04
499.03	27063.61
499.20	26944.25
499.38	27178.30
499.56	27213.41
499.73	27314.05
499.91	27344.48
500.08	27220.43
500.26	26946.59
500.44	27627.68
500.61	27473.21
500.79	27353.84
500.97	27541.08
501.14	27885.14
501.32	27824.29
501.49	27899.19
501.67	27768.12
501.84	27978.76
502.02	27995.15
502.20	28379.00
502.37	28304.10
502.55	28327.50
502.72	28662.20
502.90	28568.58
503.07	28882.21
503.25	29184.14
503.43	28781.57
503.60	28727.74
503.78	28739.44
503.95	29024.98
504.13	29139.67
504.30	29188.82
504.48	29212.23
504.65	29778.64
504.83	30031.41
505.01	29582.03
505.18	29865.24
505.36	30389.52
505.53	30057.16
505.71	30459.73
505.88	30075.88
506.06	30125.04
506.23	30558.03
506.41	30169.51
506.58	31180.62
506.76	30897.41
506.93	30522.93
507.11	30932.52
507.28	31075.29
507.46	30831.88
507.63	30457.39
507.81	30937.20
507.98	30787.41
508.16	30815.49
508.33	31419.35
508.50	30941.88
508.68	31887.46
508.85	32130.87
509.03	31721.28
509.20	31999.80
509.38	31496.59
509.55	32011.51
509.73	31845.33
509.90	32189.39
510.08	31922.57
510.25	31931.93
510.42	32025.55
510.60	32397.70
510.77	32856.44
510.95	32711.33
511.12	32521.74
511.30	32933.68
511.47	33013.26
511.64	32992.19
511.82	33493.07
511.99	33022.62
512.17	33397.10
512.34	33013.26
512.51	33394.76
512.69	33488.38
512.86	33928.41
513.04	33865.21
513.21	33186.46
513.38	33659.24
513.56	33188.80
513.73	33930.75
513.90	34073.52
514.08	33830.10
514.25	34192.89
514.43	34188.21
514.60	33991.60
514.77	34277.15
514.95	34546.31
515.12	34326.30
515.29	34593.12
515.47	35117.40
515.64	34848.24
515.81	34459.71
515.99	34742.91
516.16	34782.70
516.33	34251.40
516.51	34218.63
516.68	33720.10
516.85	33928.41
517.03	34473.75
517.20	34827.17
517.37	34621.20
517.54	35122.08
517.72	34902.07
517.89	34789.72
518.06	34476.09
518.24	34656.31
518.41	34785.04
518.58	35175.91
518.75	35152.51
518.93	35716.58
519.10	35449.75
519.27	36025.53
519.45	36025.53
519.62	35997.44
519.79	35913.18
519.96	36332.14
520.14	36233.83
520.31	36105.10
520.48	36273.62
520.65	36254.90
520.83	36814.29
521.00	37116.22
521.17	36708.96
521.34	36671.51
521.52	36704.28
521.69	37148.98
521.86	37256.65
522.03	37258.99
522.20	37067.06
522.38	37081.11
522.55	37397.08
522.72	37322.18
522.89	37219.20
523.07	37654.54
523.24	37329.20
523.41	37806.67
523.58	37523.47
523.75	38143.71
523.92	38246.69
524.10	38373.08
524.27	37998.60
524.44	38150.73
524.61	37972.85
524.78	38651.61
524.96	38333.29
525.13	38394.15
525.30	38649.27
525.47	38724.16
525.64	38735.87
525.81	38548.62
525.98	37951.79
526.16	38031.36
526.33	38274.78
526.50	38396.49
526.67	37986.89
526.84	38218.61
527.01	38312.23
527.18	38569.69
527.36	38782.68
527.53	39274.19
527.70	39510.58
527.87	39391.22
528.04	38981.62
528.21	38972.26
528.38	39531.65
528.55	39716.55
528.72	39538.67
528.89	39777.40
529.07	39786.77
529.24	39103.33
529.41	39924.86
529.58	39704.85
529.75	39723.57
529.92	39817.19
530.09	39812.51
530.26	40210.40
530.43	40428.07
530.60	40397.65
530.77	40098.06
530.94	40069.97
531.11	39899.11
531.28	40201.04
531.46	40566.16
531.63	40734.68
531.80	40425.73
531.97	40325.09
532.14	40198.70
532.31	40222.11
532.48	40486.59
532.65	40722.98
532.82	40718.30
532.99	40297.00
533.16	40835.33
533.33	40737.02
533.50	41375.99
533.67	41127.89
533.84	40575.53
534.01	41048.32
534.18	41053.00
534.35	41373.65
534.52	40989.80
534.69	41078.74
534.86	41137.26
535.03	41139.60
535.20	41228.54
535.37	42174.11
535.54	41947.08
535.71	41394.71
535.88	41551.53
536.05	41560.89
536.22	42014.96
536.38	41493.02
536.55	41298.75
536.72	41441.53
536.89	41773.88
537.06	41593.66
537.23	41874.52
537.40	41839.42
537.57	41860.48
537.74	42333.27
537.91	42253.69
538.08	41841.76
538.25	42253.69
538.42	42134.32
538.59	42038.36
538.75	41762.18
538.92	42272.42
539.09	42258.37
539.26	42249.01
539.43	41956.44
539.60	42089.85
539.77	42087.51
539.94	42635.20
540.11	42167.09
540.28	42204.54
540.44	42314.55
540.61	42136.66
540.78	42443.27
540.95	42237.31
541.12	42279.44
541.29	42916.06
541.46	42801.38
541.62	42768.61
541.79	43332.68
541.96	42639.88
542.13	43082.24
542.30	42770.95
542.47	43065.86
542.63	43093.94
542.80	42906.70
542.97	43185.22
543.14	43374.81
543.31	43454.39
543.48	43227.35
543.64	44067.61
543.81	43796.10
543.98	43440.34
544.15	43716.53
544.32	43480.13
544.48	44114.42
544.65	43725.89
544.82	43688.44
544.99	43583.12
545.16	43852.28
545.32	43416.94
545.49	44079.31
545.66	44133.14
545.83	43995.05
546.00	44781.47
546.16	44011.43
546.33	43564.39
546.50	43601.84
546.67	44058.24
546.83	43676.74
547.00	43761.00
547.17	43894.41
547.34	44151.87
547.50	44009.09
547.67	44069.95
547.84	44039.52
548.00	44346.13
548.17	44769.77
548.34	44435.07
548.51	44844.66
548.67	44774.45
548.84	44500.61
549.01	44729.98
549.18	44369.54
549.34	44435.07
549.51	44989.78
549.68	44697.21
549.84	44961.69
550.01	44999.14
550.18	44638.70
550.34	45008.50
550.51	44540.39
550.68	45113.83
550.84	44790.83
551.01	45090.42
551.18	44538.05
551.34	44802.53
551.51	45041.27
551.68	45062.33
551.84	45404.05
552.01	45057.65
552.18	44634.02
552.34	45010.84
552.51	45390.01
552.68	45076.38
552.84	45352.56
553.01	45546.82
553.18	45254.26
553.34	45483.63
553.51	45031.91
553.67	44811.90
553.84	45436.82
554.01	45647.47
554.17	45581.93
554.34	45504.70
554.51	45563.21
554.67	45572.57
554.84	45436.82
555.00	45392.35
555.17	45748.11
555.33	45392.35
555.50	45165.32
555.67	45413.41
555.83	45794.92
556.00	45619.38
556.16	46157.70
556.33	45626.40
556.50	46089.83
556.66	45815.99
556.83	45642.79
556.99	45797.26
557.16	46108.55
557.32	45769.18
557.49	45907.27
557.65	45680.24
557.82	45883.86
557.98	45841.73
558.15	45797.26
558.32	45558.53
558.48	46031.32
558.65	45897.91
558.81	45492.99
558.98	45670.87
559.14	45888.54
559.31	46026.63
559.47	46206.86
559.64	46274.73
559.80	46337.93
559.97	46293.46
560.13	45500.01
560.30	45979.82
560.46	46515.81
560.63	46195.15
560.79	46796.67
560.96	46323.88
561.12	46717.09
561.29	46288.77
561.45	46036.00
561.61	46108.55
561.78	46358.99
561.94	46010.25
562.11	46426.87
562.27	46103.87
562.44	46286.43
562.60	46522.83
562.77	46546.23
562.93	46466.66
563.10	46642.20
563.26	46110.89
563.42	46497.08
563.59	46520.49
563.75	45914.29
563.92	46513.47
564.08	46859.87
564.24	46710.07
564.41	46644.54
564.57	46277.07
564.74	46230.26
564.90	46340.27
565.07	46705.39
565.23	46305.16
565.39	46169.41
565.56	46639.86
565.72	46396.44
565.88	46454.95
566.05	46611.77
566.21	46438.57
566.38	46520.49
566.54	46714.75
566.70	46637.51
566.87	46604.75
567.03	46609.43
567.19	47035.41
567.36	46623.47
567.52	46574.32
567.68	46614.11
567.85	46813.05
568.01	46651.56
568.17	46642.20
568.34	47084.56
568.50	46534.53
568.66	46436.23
568.83	46873.91
568.99	46274.73
569.15	46309.84
569.32	46705.39
569.48	46326.22
569.64	46770.93
569.81	46401.12
569.97	46440.91
570.13	46637.51
570.30	46021.95
570.46	46340.27
570.62	46380.06
570.78	46230.26
570.95	46665.60
571.11	46391.76
571.27	46501.76
571.43	46251.33
571.60	46939.44
571.76	46501.76
571.92	46426.87
572.09	46918.38
572.25	46674.96
572.41	46770.93
572.57	46948.81
572.74	47175.84
572.90	46777.95
573.06	46749.86
573.22	46920.72
573.38	46684.33
573.55	46515.81
573.71	47044.77
573.87	46810.71
574.03	46775.61
574.20	46925.40
574.36	46590.70
574.52	47192.22
574.68	46677.30
574.84	46176.43
575.01	46911.36
575.17	46532.19
575.33	46518.15
575.49	46546.23
575.65	46672.62
575.82	46906.68
575.98	46534.53
576.14	47201.58
576.30	47124.35
576.46	46714.75
576.62	46686.67
576.79	46511.13
576.95	46955.83
577.11	46569.64
577.27	46803.69
577.43	46820.08
577.59	46639.86
577.75	46887.95
577.92	46532.19
578.08	46644.54
578.24	46209.20
578.40	46422.19
578.56	46796.67
578.72	46939.44
578.88	46749.86
579.04	46712.41
579.21	46728.80
579.37	46738.16
579.53	46990.94
579.69	47054.13
579.85	46686.67
580.01	46864.55
580.17	46822.42
580.33	47075.19
580.49	47393.51
580.65	46560.28
580.82	46822.42
580.98	46660.92
581.14	46607.09
581.30	47215.63
581.46	47288.18
581.62	47126.69
581.78	47131.37
581.94	46810.71
582.10	47164.14
582.26	47461.38
582.42	46894.97
582.58	46438.57
582.74	46904.34
582.90	47014.34
583.06	46850.50
583.22	46820.08
583.38	47278.82
583.54	47175.84
583.70	46625.81
583.86	46939.44
584.02	46464.32
584.18	47152.43
584.34	46852.84
584.50	47110.30
584.66	46906.68
584.82	46567.30
584.98	47133.71
585.14	47344.36
585.30	46927.74
585.46	47222.65
585.62	46787.31
585.78	47098.60
585.94	46508.79
586.10	46986.25
586.26	46897.31
586.42	47171.16
586.58	47007.32
586.74	47206.26
586.90	46766.24
587.06	46822.42
587.22	46993.28
587.38	46703.05
587.54	47400.53
587.70	46930.08
587.86	46681.98
588.02	47129.03
588.18	47316.27
588.34	46810.71
588.49	46567.30
588.65	46190.47
588.81	46553.26
588.97	47112.64
589.13	46684.33
589.29	46429.21
589.45	46342.61
589.61	46752.20
589.77	46916.04
589.93	46801.35
