SpectraSuite Data File
++++++++++++++++++++++++++++++++++++
Date: Fri Oct 25 11:23:34 EDT 2013
User: price-jones
Dark Spectrum Present: No
Reference Spectrum Present: No
Number of Sampled Component Spectra: 1
Spectrometers: USB2+H05261
Integration Time (usec): 100000 (USB2+H05261)
Spectra Averaged: 1 (USB2+H05261)
Boxcar Smoothing: 0 (USB2+H05261)
Correct for Electrical Dark: No (USB2+H05261)
Strobe/Lamp Enabled: No (USB2+H05261)
Correct for Detector Non-linearity: No (USB2+H05261)
Correct for Stray Light: No (USB2+H05261)
Number of Pixels in Processed Spectrum: 2048
>>>>>Begin Processed Spectral Data<<<<<
365.73	229.37
365.92	229.37
366.12	229.37
366.32	166.18
366.52	110.01
366.72	142.77
366.91	149.79
367.11	117.03
367.31	98.30
367.51	74.90
367.70	93.62
367.90	128.73
368.10	131.07
368.30	119.37
368.49	107.66
368.69	79.58
368.89	149.79
369.09	156.82
369.28	84.26
369.48	81.92
369.68	114.69
369.87	152.13
370.07	215.33
370.27	210.65
370.47	299.59
370.66	608.54
370.86	631.94
371.06	732.59
371.25	660.03
371.45	650.67
371.65	650.67
371.84	608.54
372.04	746.63
372.24	770.04
372.44	814.51
372.63	737.27
372.83	683.44
373.03	671.73
373.22	739.61
373.42	676.41
373.62	753.65
373.81	786.42
374.01	884.72
374.21	779.40
374.40	770.04
374.60	781.74
374.79	835.57
374.99	840.25
375.19	791.10
375.38	840.25
375.58	880.04
375.78	873.02
375.97	854.30
376.17	957.28
376.37	917.49
376.56	786.42
376.76	880.04
376.95	770.04
377.15	837.91
377.35	887.06
377.54	835.57
377.74	938.55
377.93	917.49
378.13	973.66
378.33	924.51
378.52	950.26
378.72	943.24
378.91	887.06
379.11	945.58
379.31	1020.47
379.50	835.57
379.70	861.32
379.89	999.41
380.09	999.41
380.28	950.26
380.48	868.34
380.68	961.96
380.87	1004.09
381.07	940.90
381.26	1039.20
381.46	980.68
381.65	985.37
381.85	980.68
382.04	1043.88
382.24	1090.69
382.43	1060.26
382.63	1060.26
382.83	1104.73
383.02	1163.25
383.22	1043.88
383.41	1130.48
383.61	1048.56
383.80	1144.52
384.00	1167.93
384.19	1135.16
384.39	1086.01
384.58	1109.41
384.78	1125.80
384.97	1207.72
385.17	1081.33
385.36	1123.46
385.56	1172.61
385.75	1104.73
385.95	1233.46
386.14	1163.25
386.34	1191.33
386.53	1238.14
386.72	1163.25
386.92	1228.78
387.11	1212.40
387.31	1266.23
387.50	1221.76
387.70	1219.42
387.89	1273.25
388.09	1212.40
388.28	1299.00
388.48	1242.82
388.67	1294.32
388.86	1371.55
389.06	1212.40
389.25	1338.79
389.45	1324.74
389.64	1291.98
389.84	1366.87
390.03	1385.60
390.22	1465.18
390.42	1390.28
390.61	1263.89
390.81	1423.05
391.00	1343.47
391.19	1465.18
391.39	1439.43
391.58	1446.45
391.78	1481.56
391.97	1497.94
392.16	1439.43
392.36	1598.59
392.55	1474.54
392.75	1497.94
392.94	1549.43
393.13	1547.09
393.33	1474.54
393.52	1596.25
393.71	1570.50
393.91	1584.54
394.10	1600.93
394.29	1652.42
394.49	1542.41
394.68	1680.50
394.88	1612.63
395.07	1734.34
395.26	1755.40
395.46	1636.03
395.65	1638.38
395.84	1549.43
396.04	1865.41
396.23	1685.19
396.42	1757.74
396.62	1806.89
396.81	1724.97
397.00	1832.64
397.19	1760.08
397.39	1734.34
397.58	1764.76
397.77	1790.51
397.97	1853.70
398.16	1771.79
398.35	1813.92
398.55	1743.70
398.74	1884.13
398.93	1914.56
399.12	1952.01
399.32	1842.00
399.51	1977.75
399.70	1970.73
399.90	1849.02
400.09	2015.20
400.28	2019.88
400.47	1940.30
400.67	2003.50
400.86	1966.05
401.05	2090.10
401.24	2062.01
401.44	2111.16
401.63	2197.76
401.82	2136.91
402.01	1989.46
402.21	2207.13
402.40	2155.63
402.59	2172.02
402.78	2256.28
402.97	2214.15
403.17	2237.55
403.36	2223.51
403.55	2373.30
403.74	2394.37
403.93	2373.30
404.13	2361.60
404.32	2417.77
404.51	2314.79
404.70	2291.38
404.89	2401.39
405.09	2490.33
405.28	2497.35
405.47	2457.56
405.66	2476.29
405.85	2513.74
406.05	2523.10
406.24	2466.92
406.43	2490.33
406.62	2555.86
406.81	2619.06
407.00	2523.10
407.20	2586.29
407.39	2752.47
407.58	2754.81
407.77	2719.70
407.96	2670.55
408.15	2754.81
408.34	2773.53
408.54	2771.19
408.73	2761.83
408.92	2928.01
409.11	2937.37
409.30	2930.35
409.49	2935.03
409.68	2839.07
409.87	2827.37
410.07	3019.29
410.26	3061.42
410.45	3002.91
410.64	3087.17
410.83	3094.19
411.02	3030.99
411.21	3201.85
411.40	3166.74
411.59	3281.43
411.78	3159.72
411.98	3272.07
412.17	3358.67
412.36	3337.60
412.55	3501.44
412.74	3396.12
412.93	3398.46
413.12	3239.30
413.31	3475.70
413.50	3492.08
413.69	3510.80
413.88	3691.02
414.07	3714.43
414.26	3634.85
414.45	3630.17
414.64	3658.26
414.83	3791.67
415.02	3871.25
415.22	3786.99
415.41	3845.50
415.60	3878.27
415.79	3866.56
415.98	4030.40
416.17	4065.51
416.36	3950.82
416.55	3918.06
416.74	4119.34
416.93	4112.32
417.12	4053.81
417.31	4227.01
417.50	4189.56
417.69	4292.54
417.88	4306.59
418.07	4329.99
418.26	4355.74
418.45	4322.97
418.64	4557.02
418.83	4547.66
419.02	4533.62
419.21	4662.35
419.39	4561.70
419.58	4484.47
419.77	4456.38
419.96	4634.26
420.15	4582.77
420.34	4610.86
420.53	4627.24
420.72	4643.62
420.91	4608.51
421.10	4798.10
421.29	4844.91
421.48	4695.11
421.67	4875.34
421.86	4835.55
422.05	4873.00
422.24	4699.80
422.43	4933.85
422.61	4889.38
422.80	4947.89
422.99	4985.34
423.18	5067.26
423.37	5015.77
423.56	4924.49
423.75	4964.28
423.94	4709.16
424.13	4582.77
424.32	4863.63
424.50	5004.07
424.69	5043.85
424.88	5057.90
425.07	5013.43
425.26	4901.08
425.45	5104.71
425.64	5018.11
425.83	5015.77
426.01	5132.79
426.20	5123.43
426.39	4926.83
426.58	5081.30
426.77	5160.88
426.96	5057.90
427.15	5118.75
427.33	5083.64
427.52	5046.20
427.71	5146.84
427.90	5245.14
428.09	5179.61
428.28	5399.62
428.46	5359.83
428.65	5394.93
428.84	5605.58
429.03	5523.66
429.22	5245.14
429.40	5399.62
429.59	5617.29
429.78	5280.25
429.97	5203.01
430.16	5408.98
430.34	5687.50
430.53	5767.08
430.72	5607.92
430.91	5687.50
431.10	5755.38
431.28	5682.82
431.47	5820.91
431.66	5715.59
431.85	5767.08
432.03	6022.20
432.22	5900.49
432.41	5966.03
432.60	5839.64
432.79	5954.32
432.97	6052.63
433.16	6118.16
433.35	6010.50
433.54	6050.28
433.72	6176.67
433.91	6019.86
434.10	6314.77
434.28	6087.73
434.47	6186.04
434.66	6127.52
434.85	6207.10
435.03	6305.40
435.22	6291.36
435.41	6445.84
435.59	6499.67
435.78	6441.15
435.97	6499.67
436.16	6490.31
436.34	6380.30
436.53	6532.44
436.72	6684.57
436.90	6356.90
437.09	6551.16
437.28	6408.39
437.46	6649.46
437.65	6443.49
437.84	6717.34
438.02	6796.92
438.21	6892.88
438.40	6602.65
438.58	6927.99
438.77	7112.89
438.96	7026.29
439.14	7342.26
439.33	7213.53
439.52	7192.47
439.70	7157.36
439.89	7410.14
440.08	7384.39
440.26	7431.20
440.45	7492.05
440.63	7400.77
440.82	7513.12
441.01	7536.52
441.19	7592.70
441.38	7824.41
441.57	7726.11
441.75	7948.46
441.94	7971.86
442.12	7911.01
442.31	7906.33
442.50	8187.19
442.68	8035.06
442.87	7922.71
443.05	8154.43
443.24	8346.35
443.43	8131.02
443.61	8222.30
443.80	8540.61
443.98	8025.70
444.17	7845.48
444.35	8226.98
444.54	8437.63
444.73	8180.17
444.91	8187.19
445.10	8166.13
445.28	8311.24
445.47	8163.79
445.65	8278.47
445.84	8430.61
446.02	8615.51
446.21	8428.27
446.39	8439.97
446.58	8709.13
446.77	8636.58
446.95	8458.70
447.14	8390.82
447.32	8734.88
447.51	8643.60
447.69	8524.23
447.88	8748.92
448.06	8566.36
448.25	8554.66
448.43	8739.56
448.62	8592.11
448.80	8751.26
448.99	8657.64
449.17	8807.44
449.36	8685.73
449.54	8840.20
449.73	8877.65
449.91	8994.68
450.10	8924.46
450.28	9210.01
450.46	8929.14
450.65	9123.41
450.83	9071.92
451.02	9011.06
451.20	9294.27
451.39	9294.27
451.57	9160.86
451.76	9064.89
451.94	9207.67
452.13	9359.80
452.31	9289.59
452.49	9338.74
452.68	9350.44
452.86	9371.50
453.05	9369.16
453.23	9401.93
453.42	9483.85
453.60	9378.53
453.78	9631.30
453.97	9465.13
454.15	9523.64
454.34	9399.59
454.52	9825.57
454.70	9792.80
454.89	9659.39
455.07	9621.94
455.26	9839.61
455.44	9919.19
455.62	9757.69
455.81	10101.75
455.99	9977.70
456.17	10146.22
456.36	10085.37
456.54	10200.05
456.73	10319.42
456.91	10246.87
457.09	10485.60
457.28	10619.01
457.46	10370.91
457.64	10518.37
457.83	10356.87
458.01	10272.61
458.19	10696.25
458.38	10661.14
458.56	10527.73
458.74	10588.58
458.93	10951.37
459.11	10682.20
459.29	10796.89
459.48	10892.85
459.66	10808.59
459.84	10937.32
460.03	11122.23
460.21	11150.31
460.39	11052.01
460.57	11094.14
460.76	11052.01
460.94	11286.06
461.12	11208.83
461.31	11098.82
461.49	11213.51
461.67	11393.73
461.85	11552.88
462.04	11419.47
462.22	11777.58
462.40	11630.12
462.59	11379.68
462.77	11735.45
462.95	11573.95
463.13	11634.80
463.32	11824.39
463.50	11768.21
463.68	11864.18
463.86	11999.93
464.05	11695.66
464.23	11569.27
464.41	11861.84
464.59	11644.17
464.78	11997.59
464.96	12114.61
465.14	12112.27
465.32	11946.09
465.50	12168.45
465.69	12334.62
465.87	12283.13
466.05	12161.42
466.23	12402.50
466.41	12269.09
466.60	12578.04
466.78	12374.41
466.96	12498.46
467.14	12081.85
467.32	12238.66
467.51	12571.02
467.69	12336.96
467.87	12613.15
468.05	12545.27
468.23	12552.29
468.41	12470.37
468.60	12395.48
468.78	12805.07
468.96	12713.79
469.14	12816.77
469.32	12886.99
469.50	12793.37
469.69	12877.63
469.87	13102.32
470.05	12877.63
470.23	13095.30
470.41	13287.22
470.59	13242.75
470.77	13334.03
470.95	13219.35
471.14	13671.07
471.32	13263.82
471.50	13652.34
471.68	13617.24
471.86	13760.01
472.04	13689.79
472.22	14050.24
472.40	13689.79
472.58	13867.67
472.77	13935.55
472.95	14204.71
473.13	14391.95
473.31	14136.84
473.49	14225.78
473.67	14139.18
473.85	14340.46
474.03	14469.19
474.21	14691.54
474.39	14733.67
474.57	14661.12
474.75	14787.50
474.93	15101.14
475.12	15009.86
475.30	15206.46
475.48	15124.54
475.66	15073.05
475.84	15468.60
476.02	15592.65
476.20	15515.41
476.38	15709.68
476.56	16107.57
476.74	15962.45
476.92	15915.64
477.10	15960.11
477.28	16215.23
477.46	16245.66
477.64	16346.30
477.82	16774.62
478.00	16809.73
478.18	17116.34
478.36	16769.94
478.54	17261.45
478.72	17233.36
478.90	17163.15
479.08	17563.38
479.26	17715.51
479.44	17951.91
479.62	17729.56
479.80	17965.95
479.98	18230.43
480.16	18515.98
480.34	18387.25
480.52	18731.31
480.70	18909.19
480.88	18761.73
481.06	19112.81
481.24	18817.91
481.41	19264.95
481.59	19449.85
481.77	19431.13
481.95	19630.07
482.13	19735.40
482.31	19468.58
482.49	20439.90
482.67	20353.30
482.85	20491.39
483.03	20755.87
483.21	21034.39
483.39	21125.68
483.57	20744.17
483.74	21214.62
483.92	21427.60
484.10	21270.79
484.28	21848.90
484.46	22115.72
484.64	22321.69
484.82	22228.07
485.00	22260.84
485.18	22895.12
485.35	22932.57
485.53	23077.68
485.71	22920.87
485.89	23379.61
486.07	23548.13
486.25	23349.18
486.43	23850.06
486.61	23608.98
486.78	23941.34
486.96	24191.78
487.14	24692.65
487.32	24645.84
487.50	24652.86
487.68	25167.78
487.85	25523.54
488.03	25593.76
488.21	26073.57
488.39	25399.49
488.57	26176.55
488.75	26202.30
488.92	26389.54
489.10	26661.04
489.28	26869.35
489.46	27075.32
489.64	27026.17
489.81	27667.47
489.99	27873.44
490.17	28023.23
490.35	28229.20
490.53	28329.84
490.70	28374.31
490.88	28472.62
491.06	29041.37
491.24	28795.61
491.41	29221.59
491.59	29247.33
491.77	29284.78
491.95	29497.77
492.13	29867.58
492.30	30342.70
492.48	30197.59
492.66	30106.31
492.84	30897.41
493.01	30581.44
493.19	30370.79
493.37	31225.09
493.54	31419.35
493.72	31583.19
493.90	31550.42
494.08	31990.44
494.25	32184.71
494.43	32013.85
494.61	32226.84
494.79	32938.36
494.96	32767.50
495.14	32734.73
495.32	33046.02
495.49	33596.05
495.67	33514.13
495.85	33694.35
496.02	34033.73
496.20	34405.88
496.38	34125.01
496.55	34295.87
496.73	35042.50
496.91	34852.92
497.09	34569.71
497.26	35021.44
497.44	34965.26
497.62	35295.28
497.79	35857.01
497.97	35545.72
498.14	35969.35
498.32	36091.06
498.50	36140.21
498.67	36870.46
498.85	36320.43
499.03	36552.15
499.20	36891.52
499.38	37130.26
499.56	37322.18
499.73	37546.87
499.91	37106.85
500.08	37806.67
500.26	37544.53
500.44	37469.64
500.61	38038.39
500.79	37862.85
500.97	38366.06
501.14	38703.10
501.32	38883.32
501.49	38827.15
501.67	39002.69
501.84	38724.16
502.02	39033.11
502.20	39218.02
502.37	39379.51
502.55	39330.36
502.72	39798.47
502.90	39531.65
503.07	39449.73
503.25	39873.37
503.43	39861.66
503.60	40486.59
503.78	40002.10
503.95	40320.41
504.13	40535.74
504.30	40669.15
504.48	40481.91
504.65	40900.86
504.83	41319.82
505.01	41640.47
505.18	41308.11
505.36	41546.85
505.53	41071.72
505.71	42094.53
505.88	41825.37
506.06	41820.69
506.23	41816.01
506.41	42342.63
506.58	42218.58
506.76	41940.06
506.93	42471.36
507.11	42586.05
507.28	42478.38
507.46	42927.77
507.63	43234.38
507.81	43548.01
507.98	43122.03
508.16	43157.14
508.33	43414.60
508.50	43833.55
508.68	44027.82
508.85	44177.61
509.03	43777.38
509.20	44177.61
509.38	44739.34
509.55	44402.30
509.73	44704.23
509.90	44671.46
510.08	44868.07
510.25	44891.48
510.42	44825.94
510.60	45088.08
510.77	44968.71
510.95	45453.20
511.12	45469.59
511.30	45579.59
511.47	45799.60
511.64	45940.04
511.82	45961.10
511.99	45834.71
512.17	46019.61
512.34	46148.34
512.51	46789.65
512.69	46277.07
512.86	45979.82
513.04	46677.30
513.21	46742.84
513.38	46728.80
513.56	47217.97
513.73	46951.15
513.90	47241.37
514.08	47346.70
514.25	47494.15
514.43	47756.29
514.60	47421.59
514.77	47344.36
514.95	47892.04
515.12	48090.99
515.29	47800.76
515.47	48350.79
515.64	48158.86
515.81	47887.36
515.99	48531.01
516.16	48437.39
516.33	48762.72
516.51	48893.79
516.68	48996.77
516.85	48788.47
517.03	49216.78
517.20	49169.97
517.37	48783.79
517.54	49116.14
517.72	49174.66
517.89	48996.77
518.06	49380.62
518.24	49347.86
518.41	49291.68
518.58	49907.24
518.75	49235.51
518.93	49724.68
519.10	49366.58
519.27	49785.54
519.45	49904.90
519.62	50131.93
519.79	49780.85
519.96	49907.24
520.14	50148.32
520.31	50026.61
520.48	50443.23
520.65	50387.05
520.83	50532.17
521.00	50791.97
521.17	50696.00
521.34	50754.52
521.52	50892.61
521.69	50890.27
521.86	51159.43
522.03	51491.79
522.20	51508.17
522.38	51442.63
522.55	51297.52
522.72	51428.59
522.89	51246.03
523.07	51810.10
523.24	51360.72
523.41	52236.08
523.58	51547.96
523.75	52086.28
523.92	51803.08
524.10	52144.80
524.27	52009.04
524.44	52097.98
524.61	52186.92
524.78	52257.14
524.96	52456.09
525.13	52313.31
525.30	52472.47
525.47	52755.68
525.64	52591.84
525.81	52804.83
525.98	52575.45
526.16	52638.65
526.33	53057.60
526.50	52942.92
526.67	52809.51
526.84	53113.78
527.01	52919.51
527.18	53109.10
527.36	53221.44
527.53	53240.17
527.70	53506.99
527.87	53542.10
528.04	53396.98
528.21	53434.43
528.38	53455.50
528.55	53476.56
528.72	53422.73
528.89	53624.01
529.07	53457.84
529.24	53471.88
529.41	53553.80
529.58	53851.05
529.75	53717.64
529.92	54068.72
530.09	54150.63
530.26	54274.68
530.43	54021.90
530.60	53909.56
530.77	54162.34
530.94	54117.87
531.11	54169.36
531.28	54129.57
531.46	54377.67
531.63	54358.94
531.80	54106.16
531.97	54557.89
532.14	54710.02
532.31	54415.11
532.48	54593.00
532.65	54623.42
532.82	54490.01
532.99	54944.08
533.16	54698.32
533.33	55128.98
533.50	55051.74
533.67	55009.61
533.84	54703.00
534.01	55011.95
534.18	54948.76
534.35	55243.66
534.52	55203.88
534.69	55442.61
534.86	55128.98
535.03	55004.93
535.20	55379.42
535.37	55391.12
535.54	55547.93
535.71	55304.52
535.88	55398.14
536.05	55529.21
536.22	55779.65
536.38	55716.45
536.55	55866.25
536.72	55531.55
536.89	55643.90
537.06	55819.44
537.23	55842.84
537.40	55449.63
537.57	55955.19
537.74	56006.68
537.91	56041.79
538.08	55941.14
538.25	56053.49
538.42	55983.27
538.59	56294.56
538.75	55863.91
538.92	56114.34
539.09	56416.27
539.26	56126.05
539.43	56158.81
539.60	56093.28
539.77	56231.37
539.94	56655.01
540.11	56505.21
540.28	56458.40
540.44	56708.84
540.61	56458.40
540.78	56287.54
540.95	56442.02
541.12	56638.62
541.29	56446.70
541.46	56657.35
541.62	56657.35
541.79	56659.69
541.96	56540.32
542.13	56736.93
542.30	56743.95
542.47	56786.08
542.63	56748.63
542.80	56853.95
542.97	56973.32
543.14	57403.98
543.31	57181.63
543.48	57214.40
543.64	57394.62
543.81	57326.74
543.98	57471.85
544.15	57406.32
544.32	57495.26
544.48	57595.90
544.65	57352.49
544.82	57457.81
544.99	57450.79
545.16	57591.22
545.32	57649.74
545.49	57656.76
545.66	57860.38
545.83	57551.43
546.00	57954.00
546.16	57621.65
546.33	57764.42
546.50	57675.48
546.67	57759.74
546.83	57408.66
547.00	57977.41
547.17	57841.66
547.34	57989.11
547.50	58239.55
547.67	58288.70
547.84	58024.22
548.00	58227.85
548.17	58195.08
548.34	58110.82
548.51	58277.00
548.67	58604.67
548.84	58190.40
549.01	58197.42
549.18	58532.12
549.34	58326.15
549.51	58515.73
549.68	58539.14
549.84	58616.38
550.01	58635.10
550.18	58319.13
550.34	58759.15
550.51	58604.67
550.68	58454.88
550.84	58312.11
551.01	58614.04
551.18	58569.57
551.34	58789.58
551.51	58599.99
551.68	58738.08
551.84	58649.14
552.01	58440.84
552.18	58944.05
552.34	58564.88
552.51	58843.41
552.68	58705.32
552.84	58990.86
553.01	59182.79
553.18	58941.71
553.34	58885.54
553.51	58810.64
553.67	58955.75
553.84	58901.92
554.01	59037.67
554.17	59009.59
554.34	59178.10
554.51	59091.51
554.67	59302.15
554.84	59098.53
555.00	59154.70
555.17	58997.88
555.33	59409.82
555.50	59079.80
555.67	59178.10
555.83	58857.45
556.00	59339.60
556.16	59554.93
556.33	59271.73
556.50	59208.53
556.66	59576.00
556.83	59274.07
556.99	59547.91
557.16	59592.38
557.32	59613.44
557.49	59688.34
557.65	59655.57
557.82	59688.34
557.98	59489.40
558.15	59545.57
558.32	59470.67
558.48	59702.38
558.65	59440.24
558.81	59449.61
558.98	59599.40
559.14	59639.19
559.31	59674.30
559.47	59503.44
559.64	59807.71
559.80	59845.16
559.97	59987.93
560.13	59391.09
560.30	59833.46
560.46	59840.48
560.63	59807.71
560.79	59833.46
560.96	60058.15
561.12	59798.35
561.29	59931.76
561.45	59817.07
561.61	59838.14
561.78	60006.65
561.94	59934.10
562.11	59945.80
562.27	59910.69
562.44	60018.36
562.60	59971.55
562.77	60079.21
562.93	59936.44
563.10	60154.11
563.26	59966.87
563.42	60353.05
563.59	60025.38
563.75	60086.23
563.92	60037.08
564.08	60100.28
564.24	60261.77
564.41	60175.17
564.57	60074.53
564.74	60336.67
564.90	60285.18
565.07	60163.47
565.23	60331.99
565.39	60135.38
565.56	60158.79
565.72	60088.57
565.88	60334.33
566.05	60264.11
566.21	60271.14
566.38	60168.15
566.54	60273.48
566.70	60498.17
566.87	60460.72
567.03	60149.43
567.19	60474.76
567.36	60484.12
567.52	60360.08
567.68	60584.77
567.85	60320.29
568.01	60275.82
568.17	60320.29
568.34	60460.72
568.50	60392.84
568.66	60378.80
568.83	60542.64
568.99	60456.04
569.15	60533.28
569.32	60371.78
569.48	60441.99
569.64	60662.00
569.81	60465.40
569.97	60346.03
570.13	60451.36
570.30	60348.37
570.46	60631.58
570.62	60743.92
570.78	60725.20
570.95	60439.65
571.11	60629.24
571.27	60528.59
571.43	60542.64
571.60	60977.98
571.76	60767.33
571.92	60601.15
572.09	60647.96
572.25	60669.03
572.41	60783.71
572.57	60732.22
572.74	60842.23
572.90	60687.75
573.06	60783.71
573.22	60633.92
573.38	60757.97
573.55	60828.18
573.71	60935.85
573.87	61029.47
574.03	60559.02
574.20	60982.66
574.36	60666.69
574.52	60619.88
574.68	60673.71
574.84	60942.87
575.01	60835.20
575.17	60846.91
575.33	60912.44
575.49	60896.06
575.65	60797.76
575.82	60942.87
575.98	60793.07
576.14	61013.08
576.30	60928.83
576.46	60640.94
576.62	60844.57
576.79	60896.06
576.95	60851.59
577.11	60776.69
577.27	60867.97
577.43	60842.23
577.59	60713.50
577.75	60746.26
577.92	60842.23
578.08	60928.83
578.24	60977.98
578.40	60945.21
578.56	61095.00
578.72	60842.23
578.88	61113.73
579.04	61116.07
579.21	60882.02
579.37	61118.41
579.53	61024.79
579.69	60853.93
579.85	60879.67
580.01	60863.29
580.17	60757.97
580.33	60959.25
580.49	61076.28
580.65	61151.18
580.82	60956.91
580.98	60832.86
581.14	60954.57
581.30	61155.86
581.46	60802.44
581.62	60985.00
581.78	61055.21
581.94	61120.75
582.10	60928.83
582.26	61146.50
582.42	60867.97
582.58	61017.77
582.74	61029.47
582.90	60973.30
583.06	60954.57
583.22	60968.61
583.38	61064.58
583.54	60975.64
583.70	60994.36
583.86	61062.24
584.02	61020.11
584.18	61092.66
584.34	61022.45
584.50	61055.21
584.66	60800.10
584.82	60790.73
584.98	61261.18
585.14	61165.22
585.30	61029.47
585.46	61116.07
585.62	61106.71
585.78	61228.41
585.94	61036.49
586.10	61010.74
586.26	61197.99
586.42	61010.74
586.58	61090.32
586.74	61207.35
586.90	61092.66
587.06	61055.21
587.22	61277.57
587.38	61261.18
587.54	61329.06
587.70	61209.69
587.86	61197.99
588.02	61048.19
588.18	61296.29
588.34	60924.14
588.49	61174.58
