SpectraSuite Data File
++++++++++++++++++++++++++++++++++++
Date: Fri Oct 25 11:23:59 EDT 2013
User: price-jones
Dark Spectrum Present: No
Reference Spectrum Present: No
Number of Sampled Component Spectra: 1
Spectrometers: USB2+H05261
Integration Time (usec): 100000 (USB2+H05261)
Spectra Averaged: 1 (USB2+H05261)
Boxcar Smoothing: 0 (USB2+H05261)
Correct for Electrical Dark: No (USB2+H05261)
Strobe/Lamp Enabled: No (USB2+H05261)
Correct for Detector Non-linearity: No (USB2+H05261)
Correct for Stray Light: No (USB2+H05261)
Number of Pixels in Processed Spectrum: 2048
>>>>>Begin Processed Spectral Data<<<<<
365.73	205.97
365.92	205.97
366.12	205.97
366.32	95.96
366.52	102.98
366.72	152.13
366.91	124.05
367.11	224.69
367.31	180.22
367.51	147.45
367.70	168.52
367.90	163.84
368.10	102.98
368.30	161.50
368.49	124.05
368.69	201.29
368.89	194.26
369.09	154.48
369.28	175.54
369.48	140.43
369.68	189.58
369.87	217.67
370.07	191.92
370.27	245.76
370.47	315.97
370.66	547.69
370.86	613.22
371.06	683.44
371.25	638.97
371.45	603.86
371.65	711.52
371.84	667.05
372.04	770.04
372.24	777.06
372.44	692.80
372.63	751.31
372.83	685.78
373.03	758.33
373.22	690.46
373.42	763.01
373.62	713.86
373.81	781.74
374.01	788.76
374.21	758.33
374.40	763.01
374.60	819.19
374.79	861.32
374.99	830.89
375.19	821.53
375.38	828.55
375.58	875.36
375.78	849.61
375.97	802.80
376.17	844.93
376.37	938.55
376.56	894.08
376.76	877.70
376.95	837.91
377.15	919.83
377.35	828.55
377.54	929.19
377.74	861.32
377.93	835.57
378.13	945.58
378.33	931.53
378.52	973.66
378.72	936.21
378.91	894.08
379.11	908.13
379.31	936.21
379.50	987.71
379.70	976.00
379.89	983.02
380.09	1032.18
380.28	1027.50
380.48	1057.92
380.68	1020.47
380.87	976.00
381.07	1057.92
381.26	1053.24
381.46	931.53
381.65	1032.18
381.85	1083.67
382.04	1034.52
382.24	976.00
382.43	1071.97
382.63	1036.86
382.83	1048.56
383.02	1062.60
383.22	1186.65
383.41	980.68
383.61	1053.24
383.80	1111.75
384.00	1172.61
384.19	1071.97
384.39	1170.27
384.58	1226.44
384.78	1135.16
384.97	1172.61
385.17	1151.54
385.36	1212.40
385.56	1139.84
385.75	1160.91
385.95	1184.31
386.14	1224.10
386.34	1200.69
386.53	1284.95
386.72	1275.59
386.92	1228.78
387.11	1240.48
387.31	1170.27
387.50	1238.14
387.70	1249.85
387.89	1238.14
388.09	1336.45
388.28	1247.51
388.48	1280.27
388.67	1277.93
388.86	1306.02
389.06	1284.95
389.25	1329.42
389.45	1366.87
389.64	1315.38
389.84	1355.17
390.03	1474.54
390.22	1352.83
390.42	1406.66
390.61	1507.30
390.81	1385.60
391.00	1401.98
391.19	1479.22
391.39	1362.19
391.58	1427.73
391.78	1479.22
391.97	1437.09
392.16	1481.56
392.36	1535.39
392.55	1502.62
392.75	1495.60
392.94	1535.39
393.13	1565.82
393.33	1610.29
393.52	1631.35
393.71	1647.74
393.91	1682.85
394.10	1624.33
394.29	1633.69
394.49	1643.06
394.68	1638.38
394.88	1685.19
395.07	1647.74
395.26	1629.01
395.46	1584.54
395.65	1715.61
395.84	1708.59
396.04	1727.32
396.23	1696.89
396.42	1682.85
396.62	1750.72
396.81	1736.68
397.00	1720.29
397.19	1757.74
397.39	1825.62
397.58	1858.39
397.77	1923.92
397.97	1839.66
398.16	1806.89
398.35	1926.26
398.55	1827.96
398.74	1865.41
398.93	1935.62
399.12	1886.47
399.32	1909.88
399.51	1970.73
399.70	2017.54
399.90	1900.52
400.09	1877.11
400.28	1975.41
400.47	2005.84
400.67	1980.09
400.86	2143.93
401.05	2047.97
401.24	2101.80
401.44	2216.49
401.63	2275.00
401.82	2101.80
402.01	2113.50
402.21	2150.95
402.40	2204.78
402.59	2143.93
402.78	2237.55
402.97	2314.79
403.17	2314.79
403.36	2328.83
403.55	2326.49
403.74	2359.26
403.93	2434.16
404.13	2361.60
404.32	2356.92
404.51	2272.66
404.70	2466.92
404.89	2345.22
405.09	2455.22
405.28	2602.68
405.47	2499.69
405.66	2525.44
405.85	2530.12
406.05	2565.23
406.24	2689.28
406.43	2616.72
406.62	2738.43
406.81	2654.17
407.00	2574.59
407.20	2619.06
407.39	2712.68
407.58	2640.12
407.77	2778.22
407.96	2780.56
408.15	2827.37
408.34	2813.32
408.54	2885.88
408.73	2806.30
408.92	2820.35
409.11	2951.42
409.30	2885.88
409.49	2815.66
409.68	2925.67
409.87	2991.20
410.07	2960.78
410.26	2979.50
410.45	2970.14
410.64	3023.97
410.83	3183.13
411.02	3047.38
411.21	3173.77
411.40	3178.45
411.59	3176.11
411.78	3143.34
411.98	3129.30
412.17	3414.84
412.36	3300.16
412.55	3405.48
412.74	3335.26
412.93	3447.61
413.12	3344.63
413.31	3543.57
413.50	3449.95
413.69	3520.17
413.88	3613.79
414.07	3543.57
414.26	3651.24
414.45	3693.37
414.64	3772.94
414.83	3873.59
415.02	3801.03
415.22	3920.40
415.41	3857.20
415.60	3885.29
415.79	3901.67
415.98	4039.76
416.17	3896.99
416.36	3988.27
416.55	4126.36
416.74	4077.21
416.93	4018.70
417.12	4044.45
417.31	4170.83
417.50	4180.20
417.69	4269.14
417.88	4250.41
418.07	4212.96
418.26	4250.41
418.45	4454.04
418.64	4430.63
418.83	4451.70
419.02	4353.40
419.21	4627.24
419.39	4512.55
419.58	4610.86
419.77	4449.36
419.96	4472.76
420.15	4587.45
420.34	4580.43
420.53	4582.77
420.72	4777.03
420.91	4650.64
421.10	4800.44
421.29	4844.91
421.48	4624.90
421.67	4737.24
421.86	4798.10
422.05	4814.48
422.24	4823.84
422.43	4924.49
422.61	4945.55
422.80	4947.89
422.99	4973.64
423.18	4875.34
423.37	5167.90
423.56	5100.03
423.75	4915.12
423.94	4826.18
424.13	4833.21
424.32	4945.55
424.50	5071.94
424.69	5191.31
424.88	5146.84
425.07	4994.70
425.26	4964.28
425.45	5076.62
425.64	4964.28
425.83	4975.98
426.01	5008.75
426.20	5327.06
426.39	5188.97
426.58	5195.99
426.77	4997.04
426.96	5303.65
427.15	5088.32
427.33	5256.84
427.52	5275.57
427.71	5327.06
427.90	5324.72
428.09	5392.59
428.28	5308.34
428.46	5486.22
428.65	5549.41
428.84	5568.13
429.03	5685.16
429.22	5535.37
429.40	5357.49
429.59	5425.36
429.78	5245.14
429.97	5432.38
430.16	5551.75
430.34	5605.58
430.53	5633.67
430.72	5612.60
430.91	5673.46
431.10	5755.38
431.28	5809.21
431.47	5720.27
431.66	5863.04
431.85	5783.46
432.03	5919.21
432.22	5982.41
432.41	5898.15
432.60	6214.12
432.79	6073.69
432.97	6094.76
433.16	6193.06
433.35	5951.98
433.54	6010.50
433.72	6150.93
433.91	6043.26
434.10	6132.20
434.28	6174.33
434.47	6230.51
434.66	6267.95
434.85	6363.92
435.03	6232.85
435.22	6284.34
435.41	6478.60
435.59	6406.05
435.78	6527.75
435.97	6445.84
436.16	6548.82
436.34	6590.95
436.53	6478.60
436.72	6836.70
436.90	6485.62
437.09	6565.20
437.28	6506.69
437.46	6745.42
437.65	6726.70
437.84	6738.40
438.02	6895.22
438.21	6768.83
438.40	6747.76
438.58	7052.03
438.77	6967.77
438.96	6883.52
439.14	6951.39
439.33	7091.82
439.52	7349.28
439.70	7356.30
439.89	7344.60
440.08	7349.28
440.26	7229.91
440.45	7548.23
440.63	7644.19
440.82	7763.56
441.01	7639.51
441.19	7639.51
441.38	7819.73
441.57	7908.67
441.75	7744.83
441.94	7866.54
442.12	7875.90
442.31	8037.40
442.50	8072.51
442.68	8056.12
442.87	8044.42
443.05	8292.52
443.24	8346.35
443.43	8196.56
443.61	8161.45
443.80	8437.63
443.98	8124.00
444.17	7817.39
444.35	8355.71
444.54	8407.20
444.73	8517.21
444.91	8423.59
445.10	8362.73
445.28	8266.77
445.47	8397.84
445.65	8336.99
445.84	8533.59
446.02	8425.93
446.21	8325.29
446.39	8491.46
446.58	8592.11
446.77	8336.99
446.95	8264.43
447.14	8559.34
447.32	8587.43
447.51	8514.87
447.69	8683.39
447.88	8512.53
448.06	8491.46
448.25	8875.31
448.43	8589.77
448.62	8641.26
448.80	8643.60
448.99	8725.52
449.17	8739.56
449.36	8678.71
449.54	9022.77
449.73	9097.66
449.91	9046.17
450.10	9060.21
450.28	9029.79
450.46	9116.39
450.65	9067.24
450.83	9188.94
451.02	9287.25
451.20	9174.90
451.39	9226.39
451.57	9303.63
451.76	9291.93
451.94	9467.47
452.13	9373.85
452.31	9296.61
452.49	9006.38
452.68	9504.92
452.86	9371.50
453.05	9352.78
453.23	9322.35
453.42	9324.69
453.60	9341.08
453.78	9715.56
453.97	9633.64
454.15	9614.92
454.34	9397.25
454.52	9582.15
454.70	9619.60
454.89	9813.87
455.07	9844.29
455.26	10157.92
455.44	10071.33
455.62	9809.19
455.81	9940.26
455.99	10183.67
456.17	10155.58
456.36	10064.30
456.54	10380.28
456.73	10204.74
456.91	10476.24
457.09	10501.98
457.28	10707.95
457.46	10413.04
457.64	10544.11
457.83	10750.08
458.01	10609.65
458.19	10719.65
458.38	10574.54
458.56	10832.00
458.74	10684.55
458.93	10721.99
459.11	10780.51
459.29	10698.59
459.48	10909.24
459.66	10808.59
459.84	10817.96
460.03	11410.11
460.21	11049.67
460.39	11077.76
460.57	10995.84
460.76	10956.05
460.94	11428.84
461.12	11239.25
461.31	11105.84
461.49	11150.31
461.67	11353.94
461.85	11485.01
462.04	11330.53
462.22	11389.05
462.40	11693.32
462.59	11520.12
462.77	11800.98
462.95	11634.80
463.13	11597.35
463.32	11843.11
463.50	11805.66
463.68	11953.12
463.86	11871.20
464.05	11679.27
464.23	11831.41
464.41	12002.27
464.59	11798.64
464.78	12177.81
464.96	12018.65
465.14	12065.46
465.32	12259.73
465.50	12107.59
465.69	12107.59
465.87	12278.45
466.05	12304.20
466.23	12205.89
466.41	12102.91
466.60	12617.83
466.78	12446.97
466.96	12484.42
467.14	12638.89
467.32	12463.35
467.51	12521.87
467.69	12128.66
467.87	12409.52
468.05	12629.53
468.23	12627.19
468.41	12664.64
468.60	12629.53
468.78	12903.37
468.96	12779.32
469.14	12610.81
469.32	13034.44
469.50	12414.20
469.69	13184.24
469.87	13249.77
470.05	13327.01
470.23	13263.82
470.41	13429.99
470.59	13231.05
470.77	13296.58
470.95	13537.66
471.14	13654.69
471.32	13221.69
471.50	13654.69
471.68	13809.16
471.86	13713.20
472.04	14061.94
472.22	14478.55
472.40	13942.57
472.58	14003.43
472.77	14167.26
472.95	14029.17
473.13	14721.97
473.31	14108.75
473.49	14415.36
473.67	14132.15
473.85	14134.50
474.03	14609.62
474.21	14609.62
474.39	14267.91
474.57	14504.30
474.75	14897.51
474.93	14841.34
475.12	15016.88
475.30	15066.03
475.48	14972.41
475.66	15248.59
475.84	15225.18
476.02	15510.73
476.20	15396.04
476.38	15950.75
476.56	16503.12
476.74	15999.90
476.92	15948.41
477.10	15887.56
477.28	16423.54
477.46	15995.22
477.64	16510.14
477.82	16664.61
478.00	17078.89
478.18	16835.47
478.36	17083.57
478.54	17319.96
478.72	17397.20
478.90	17373.80
479.08	17680.41
479.26	17671.04
479.44	17799.77
479.62	18031.49
479.80	18415.34
479.98	18354.48
480.16	18658.75
480.34	18265.54
480.52	18726.63
480.70	18979.40
480.88	18759.39
481.06	18684.50
481.24	19126.86
481.41	18991.11
481.59	19459.21
481.77	19669.86
481.95	19562.20
482.13	19997.54
482.31	20173.08
482.49	20304.15
482.67	20313.51
482.85	20449.26
483.03	20755.87
483.21	20875.24
483.39	20926.73
483.57	20985.24
483.74	21280.15
483.92	21762.30
484.10	21305.90
484.28	21788.05
484.46	22071.25
484.64	22384.88
484.82	22036.14
485.00	22511.27
485.18	22906.82
485.35	22977.04
485.53	23140.88
485.71	23166.62
485.89	23564.51
486.07	23969.43
486.25	23494.30
486.43	23461.53
486.61	23782.18
486.78	24224.54
486.96	24266.67
487.14	24533.50
487.32	25001.60
487.50	24996.92
487.68	25378.43
487.85	25411.20
488.03	25685.04
488.21	26300.60
488.39	26106.34
488.57	26059.52
488.75	26239.75
488.92	26293.58
489.10	26672.74
489.28	26789.77
489.46	27477.89
489.64	27501.29
489.81	27985.79
489.99	28140.26
490.17	27835.99
490.35	28339.21
490.53	28624.75
490.70	28746.46
490.88	28648.16
491.06	28783.91
491.24	29127.97
491.41	28919.66
491.59	29397.13
491.77	29582.03
491.95	29656.93
492.13	29914.39
492.30	30103.97
492.48	29977.58
492.66	30569.74
492.84	30441.01
493.01	30883.37
493.19	30745.28
493.37	31311.69
493.54	31033.16
493.72	31943.63
493.90	31644.04
494.08	31967.04
494.25	32411.74
494.43	32030.23
494.61	32678.56
494.79	32613.02
494.96	32524.08
495.14	32940.70
495.32	33027.30
495.49	33333.91
495.67	33479.02
495.85	33832.44
496.02	33928.41
496.20	34415.24
496.38	34401.19
496.55	34010.32
496.73	35019.10
496.91	34859.94
497.09	34972.28
497.26	34892.71
497.44	35196.98
497.62	35316.34
497.79	35587.85
497.97	35644.02
498.14	35929.56
498.32	36493.63
498.50	36280.64
498.67	37111.53
498.85	36968.76
499.03	36833.01
499.20	36655.13
499.38	36741.73
499.56	37132.60
499.73	37851.14
499.91	37954.13
500.08	37778.59
500.26	37617.09
500.44	37799.65
500.61	37804.33
500.79	37907.32
500.97	38679.69
501.14	39171.21
501.32	39007.37
501.49	38550.96
501.67	39262.49
501.84	39613.57
502.02	39269.51
502.20	39634.63
502.37	39643.99
502.55	39133.76
502.72	39526.97
502.90	39732.93
503.07	39723.57
503.25	40439.78
503.43	40240.83
503.60	40556.80
503.78	40687.87
503.95	41050.66
504.13	41099.81
504.30	41312.80
504.48	40624.68
504.65	40730.00
504.83	41284.71
505.01	41387.69
505.18	41673.24
505.36	41703.67
505.53	41448.55
505.71	41720.05
505.88	42185.82
506.06	41839.42
506.23	41984.53
506.41	41668.56
506.58	42726.48
506.76	42726.48
506.93	42979.26
507.11	42618.81
507.28	42747.54
507.46	43178.20
507.63	43489.49
507.81	43419.28
507.98	43019.05
508.16	43274.16
508.33	43873.34
508.50	43814.83
508.68	43983.35
508.85	44177.61
509.03	43910.79
509.20	44348.47
509.38	44619.97
509.55	44428.05
509.73	44828.28
509.90	44856.37
510.08	44636.36
510.25	44847.00
510.42	45188.72
510.60	45663.85
510.77	45509.38
510.95	45553.85
511.12	45680.24
511.30	45443.84
511.47	45933.01
511.64	45715.34
511.82	45989.19
511.99	45984.51
512.17	46260.69
512.34	45834.71
512.51	46522.83
512.69	46986.25
512.86	46871.57
513.04	47290.52
513.21	46883.27
513.38	46916.04
513.56	47070.51
513.73	47166.48
513.90	47056.47
514.08	47229.67
514.25	47381.80
514.43	47573.73
514.60	47819.49
514.77	47562.03
514.95	47880.34
515.12	47571.39
515.29	48151.84
515.47	47962.26
515.64	48608.25
515.81	48172.91
515.99	48467.81
516.16	48973.37
516.33	48523.99
516.51	49097.42
516.68	48751.02
516.85	48720.59
517.03	49359.56
517.20	48854.00
517.37	49027.20
517.54	49282.32
517.72	49139.55
517.89	49343.17
518.06	49476.58
518.24	49373.60
518.41	49680.21
518.58	49556.16
518.75	49736.38
518.93	50019.59
519.10	49951.71
519.27	50167.04
519.45	49680.21
519.62	50005.55
519.79	50138.96
519.96	49977.46
520.14	50351.94
520.31	50387.05
520.48	50773.24
520.65	50543.87
520.83	50719.41
521.00	50974.53
521.17	51058.79
521.34	51164.11
521.52	51021.34
521.69	50775.58
521.86	51147.73
522.03	50995.59
522.20	51786.69
522.38	51601.79
522.55	51646.26
522.72	51641.58
522.89	51784.35
523.07	51779.67
523.24	51697.75
523.41	51751.59
523.58	51840.53
523.75	51943.51
523.92	52390.55
524.10	52428.00
524.27	52179.90
524.44	52266.50
524.61	52402.25
524.78	52458.43
524.96	52673.76
525.13	52261.82
525.30	52376.51
525.47	52767.38
525.64	52722.91
525.81	52816.53
525.98	52940.58
526.16	52928.87
526.33	52540.35
526.50	53123.14
526.67	52830.57
526.84	53169.95
527.01	53247.19
527.18	53221.44
527.36	53268.25
527.53	52961.64
527.70	53532.73
527.87	53371.24
528.04	53165.27
528.21	53394.64
528.38	53223.78
528.55	53822.96
528.72	53544.44
528.89	54047.65
529.07	53586.57
529.24	53455.50
529.41	53783.17
529.58	53876.79
529.75	53670.82
529.92	54038.29
530.09	54129.57
530.26	54195.10
530.43	54092.12
530.60	54038.29
530.77	54358.94
530.94	54183.40
531.11	54188.08
531.28	54347.24
531.46	54550.87
531.63	54358.94
531.80	54721.72
531.97	54740.45
532.14	54681.94
532.31	54593.00
532.48	54731.09
532.65	54972.16
532.82	54684.28
532.99	55068.12
533.16	54798.96
533.33	55051.74
533.50	55126.64
533.67	55136.00
533.84	54913.65
534.01	54822.37
534.18	55332.60
534.35	55238.98
534.52	55372.39
534.69	55283.45
534.86	55423.89
535.03	55281.11
535.20	55302.18
535.37	55456.65
535.54	55480.06
535.71	55278.77
535.88	55487.08
536.05	55732.84
536.22	55793.69
536.38	55873.27
536.55	55812.41
536.72	55838.16
536.89	55569.00
537.06	55955.19
537.23	55798.37
537.40	55629.85
537.57	56032.42
537.74	55908.38
537.91	55952.85
538.08	56144.77
538.25	55994.98
538.42	56226.69
538.59	56278.18
538.75	56257.12
538.92	56320.31
539.09	56545.00
539.26	56348.40
539.43	56184.56
539.60	56537.98
539.77	56371.80
539.94	56959.28
540.11	56697.14
540.28	56423.29
540.44	56451.38
540.61	56755.65
540.78	56612.88
540.95	56561.39
541.12	56296.91
541.29	56535.64
541.46	56713.52
541.62	56512.23
541.79	56790.76
541.96	56601.18
542.13	56809.48
542.30	56893.74
542.47	57179.29
542.63	56952.26
542.80	57092.69
542.97	57284.61
543.14	57375.89
543.31	57188.65
543.48	57333.76
543.64	57621.65
543.81	57602.92
543.98	57640.37
544.15	57415.68
544.32	57579.52
544.48	57778.46
544.65	57354.83
544.82	57595.90
544.99	57371.21
545.16	57631.01
545.32	57392.28
545.49	57790.17
545.66	57808.89
545.83	57792.51
546.00	57867.40
546.16	57867.40
546.33	57567.82
546.50	57434.41
546.67	58054.65
546.83	57577.18
547.00	57972.73
547.17	57853.36
547.34	58099.12
547.50	58124.86
547.67	58230.19
547.84	58211.46
548.00	58202.10
548.17	58122.52
548.34	58223.17
548.51	58272.32
548.67	58679.57
548.84	58253.59
549.01	58307.43
549.18	58279.34
549.34	58466.58
549.51	58515.73
549.68	58597.65
549.84	58555.52
550.01	58497.01
550.18	58499.35
550.34	58473.60
550.51	58677.23
550.68	58660.85
550.84	58431.47
551.01	58656.17
551.18	58504.03
551.34	58644.46
551.51	58768.51
551.68	58632.76
551.84	58768.51
552.01	58564.88
552.18	58894.90
552.34	58871.49
552.51	58904.26
552.68	58836.39
552.84	58731.06
553.01	59021.29
553.18	58946.39
553.34	59049.38
553.51	58974.48
553.67	58976.82
553.84	59257.68
554.01	59070.44
554.17	59004.91
554.34	59107.89
554.51	59072.78
554.67	59318.54
554.84	59370.03
555.00	59238.96
555.17	59189.81
555.33	59175.76
555.50	59152.36
555.67	59154.70
555.83	59192.15
556.00	59353.65
556.16	59512.80
556.33	59477.69
556.50	59473.01
556.66	59683.66
556.83	59213.21
556.99	59494.08
557.16	59765.58
557.32	59501.10
557.49	59742.17
557.65	59512.80
557.82	59524.50
557.98	59547.91
558.15	59590.04
558.32	59615.79
558.48	59601.74
558.65	59531.53
558.81	59793.67
558.98	59568.97
559.14	59625.15
559.31	59824.09
559.47	59873.24
559.64	59863.88
559.80	59854.52
559.97	60097.94
560.13	59700.04
560.30	59786.64
560.46	59934.10
560.63	59847.50
560.79	59852.18
560.96	60163.47
561.12	60074.53
561.29	59990.27
561.45	60243.05
561.61	59948.14
561.78	60102.62
561.94	60051.12
562.11	60100.28
562.27	60034.74
562.44	60053.47
562.60	60226.66
562.77	60168.15
562.93	60013.68
563.10	60275.82
563.26	60123.68
563.42	60498.17
563.59	60182.19
563.75	60172.83
563.92	60186.88
564.08	60104.96
564.24	60116.66
564.41	60331.99
564.57	60294.54
564.74	60479.44
564.90	60491.15
565.07	60111.98
565.23	60413.91
565.39	60432.63
565.56	60409.23
565.72	60514.55
565.88	60353.05
566.05	60308.58
566.21	60385.82
566.38	60423.27
566.54	60542.64
566.70	60453.70
566.87	60474.76
567.03	60474.76
567.19	60898.40
567.36	60369.44
567.52	60456.04
567.68	60568.38
567.85	60456.04
568.01	60708.82
568.17	60507.53
568.34	60711.16
568.50	60498.17
568.66	60514.55
568.83	60647.96
568.99	60516.89
569.15	60547.32
569.32	60584.77
569.48	60477.10
569.64	60505.19
569.81	60481.78
569.97	60523.91
570.13	60484.12
570.30	60570.72
570.46	60807.12
570.62	60624.56
570.78	60776.69
570.95	60615.19
571.11	60725.20
571.27	60626.90
571.43	60671.37
571.60	60821.16
571.76	60598.81
571.92	60697.11
572.09	60748.60
572.25	60807.12
572.41	60692.43
572.57	60867.97
572.74	61125.43
572.90	60729.88
573.06	60879.67
573.22	60589.45
573.38	60612.85
573.55	60772.01
573.71	60879.67
573.87	60746.26
574.03	60786.05
574.20	60757.97
574.36	60802.44
574.52	60898.40
574.68	60849.25
574.84	60963.93
575.01	61006.06
575.17	60914.78
575.33	60973.30
575.49	60788.39
575.65	60921.80
575.82	60842.23
575.98	61125.43
576.14	60994.36
576.30	60891.38
576.46	60727.54
576.62	60935.85
576.79	60947.55
576.95	60884.36
577.11	60931.17
577.27	61270.54
577.43	60935.85
577.59	60856.27
577.75	60839.89
577.92	60835.20
578.08	60818.82
578.24	60963.93
578.40	61237.78
578.56	60966.27
578.72	60879.67
578.88	61038.83
579.04	61167.56
579.21	61001.38
579.37	61258.84
579.53	61289.27
579.69	60914.78
579.85	60940.53
580.01	60874.99
580.17	60767.33
580.33	61095.00
580.49	60966.27
580.65	61050.53
580.82	61066.92
580.98	61001.38
581.14	60884.36
581.30	61317.35
581.46	60977.98
581.62	61186.28
581.78	61102.03
581.94	61197.99
582.10	61050.53
582.26	61183.94
582.42	61120.75
582.58	61169.90
582.74	61123.09
582.90	61106.71
583.06	60970.96
583.22	61148.84
583.38	60992.02
583.54	60942.87
583.70	60945.21
583.86	61193.31
584.02	61137.13
584.18	61244.80
584.34	61111.39
584.50	61160.54
584.66	61024.79
584.82	60926.49
584.98	61457.79
585.14	61202.67
585.30	61109.05
585.46	61256.50
585.62	61127.77
585.78	61331.40
585.94	60898.40
586.10	61307.99
586.26	61085.64
586.42	61165.22
586.58	61338.42
586.74	61226.07
586.90	61127.77
587.06	61233.10
587.22	61385.23
587.38	61045.85
587.54	61378.21
587.70	61563.11
587.86	61443.74
588.02	61228.41
588.18	61368.85
588.34	61167.56
