SpectraSuite Data File
++++++++++++++++++++++++++++++++++++
Date: Fri Oct 25 10:44:40 EDT 2013
User: price-jones
Dark Spectrum Present: No
Reference Spectrum Present: No
Number of Sampled Component Spectra: 1
Spectrometers: USB2+H05261
Integration Time (usec): 100000 (USB2+H05261)
Spectra Averaged: 1 (USB2+H05261)
Boxcar Smoothing: 0 (USB2+H05261)
Correct for Electrical Dark: No (USB2+H05261)
Strobe/Lamp Enabled: No (USB2+H05261)
Correct for Detector Non-linearity: No (USB2+H05261)
Correct for Stray Light: No (USB2+H05261)
Number of Pixels in Processed Spectrum: 2048
>>>>>Begin Processed Spectral Data<<<<<
365.73	126.39
365.92	126.39
366.12	126.39
366.32	70.22
366.52	44.47
366.72	23.41
366.91	56.17
367.11	0.00
367.31	0.00
367.51	28.09
367.70	2.34
367.90	46.81
368.10	37.45
368.30	39.79
368.49	49.15
368.69	102.98
368.89	51.49
369.09	0.00
369.28	23.41
369.48	86.60
369.68	177.88
369.87	93.62
370.07	72.56
370.27	88.94
370.47	100.64
370.66	332.36
370.86	395.55
371.06	496.19
371.25	395.55
371.45	280.86
371.65	435.34
371.84	442.36
372.04	444.70
372.24	547.69
372.44	428.32
372.63	458.74
372.83	454.06
373.03	489.17
373.22	390.87
373.42	564.07
373.62	484.49
373.81	608.54
374.01	524.28
374.21	552.37
374.40	510.24
374.60	496.19
374.79	521.94
374.99	505.56
375.19	538.32
375.38	533.64
375.58	538.32
375.78	559.39
375.97	561.73
376.17	568.75
376.37	557.05
376.56	552.37
376.76	573.43
376.95	561.73
377.15	561.73
377.35	636.63
377.54	519.60
377.74	688.12
377.93	521.94
378.13	603.86
378.33	627.26
378.52	662.37
378.72	650.67
378.91	631.94
379.11	681.10
379.31	648.33
379.50	535.98
379.70	662.37
379.89	617.90
380.09	660.03
380.28	582.79
380.48	552.37
380.68	645.99
380.87	578.11
381.07	641.31
381.26	648.33
381.46	631.94
381.65	660.03
381.85	648.33
382.04	662.37
382.24	685.78
382.43	638.97
382.63	627.26
382.83	554.71
383.02	685.78
383.22	741.95
383.41	784.08
383.61	648.33
383.80	847.27
384.00	732.59
384.19	702.16
384.39	758.33
384.58	755.99
384.78	781.74
384.97	788.76
385.17	812.17
385.36	777.06
385.56	772.38
385.75	720.88
385.95	770.04
386.14	847.27
386.34	723.23
386.53	784.08
386.72	847.27
386.92	814.51
387.11	837.91
387.31	887.06
387.50	765.36
387.70	791.10
387.89	821.53
388.09	854.30
388.28	856.64
388.48	880.04
388.67	858.98
388.86	823.87
389.06	844.93
389.25	877.70
389.45	851.96
389.64	866.00
389.84	912.81
390.03	891.74
390.22	901.11
390.42	952.60
390.61	816.85
390.81	875.36
391.00	936.21
391.19	933.87
391.39	1001.75
391.58	816.85
391.78	952.60
391.97	985.37
392.16	936.21
392.36	1015.79
392.55	1011.11
392.75	915.15
392.94	912.81
393.13	950.26
393.33	901.11
393.52	971.32
393.71	1018.13
393.91	1004.09
394.10	1071.97
394.29	938.55
394.49	1078.99
394.68	1125.80
394.88	1046.22
395.07	1102.39
395.26	1090.69
395.46	1086.01
395.65	1116.44
395.84	1144.52
396.04	1181.97
396.23	1090.69
396.42	1088.35
396.62	1095.37
396.81	1088.35
397.00	1097.71
397.19	1184.31
397.39	1212.40
397.58	1212.40
397.77	1228.78
397.97	1252.19
398.16	1263.89
398.35	1226.44
398.55	1299.00
398.74	1294.32
398.93	1369.21
399.12	1310.70
399.32	1301.34
399.51	1348.15
399.70	1338.79
399.90	1289.64
400.09	1394.96
400.28	1409.00
400.47	1420.71
400.67	1394.96
400.86	1362.19
401.05	1528.37
401.24	1380.92
401.44	1526.03
401.63	1439.43
401.82	1514.33
402.01	1446.45
402.21	1500.28
402.40	1497.94
402.59	1490.92
402.78	1516.67
402.97	1600.93
403.17	1556.46
403.36	1577.52
403.55	1643.06
403.74	1474.54
403.93	1563.48
404.13	1640.72
404.32	1640.72
404.51	1687.53
404.70	1685.19
404.89	1668.80
405.09	1717.95
405.28	1699.23
405.47	1654.76
405.66	1694.55
405.85	1713.27
406.05	1813.92
406.24	1771.79
406.43	1689.87
406.62	1788.17
406.81	1790.51
407.00	1739.02
407.20	1844.34
407.39	1832.64
407.58	1900.52
407.77	1975.41
407.96	1884.13
408.15	1961.37
408.34	1919.24
408.54	2003.50
408.73	2073.71
408.92	2031.58
409.11	2172.02
409.30	2059.67
409.49	2125.21
409.68	2038.61
409.87	1984.77
410.07	2087.76
410.26	2073.71
410.45	2076.06
410.64	2122.87
410.83	2101.80
411.02	2223.51
411.21	2277.34
411.40	2225.85
411.59	2207.13
411.78	2118.18
411.98	2176.70
412.17	2263.30
412.36	2373.30
412.55	2401.39
412.74	2401.39
412.93	2427.14
413.12	2324.15
413.31	2544.16
413.50	2516.08
413.69	2431.82
413.88	2539.48
414.07	2506.71
414.26	2523.10
414.45	2553.52
414.64	2602.68
414.83	2679.91
415.02	2658.85
415.22	2698.64
415.41	2745.45
415.60	2754.81
415.79	2715.02
415.98	2930.35
416.17	2794.60
416.36	2918.65
416.55	2818.00
416.74	2932.69
416.93	2904.60
417.12	2986.52
417.31	2932.69
417.50	2986.52
417.69	3115.25
417.88	2988.86
418.07	3005.25
418.26	3054.40
418.45	3035.67
418.64	3150.36
418.83	3119.93
419.02	3145.68
419.21	3133.98
419.39	3293.13
419.58	3115.25
419.77	3073.12
419.96	3218.24
420.15	3201.85
420.34	3239.30
420.53	3318.88
420.72	3414.84
420.91	3330.58
421.10	3328.24
421.29	3482.72
421.48	3375.05
421.67	3534.21
421.86	3353.99
422.05	3438.25
422.24	3389.10
422.43	3405.48
422.61	3300.16
422.80	3442.93
422.99	3475.70
423.18	3379.73
423.37	3466.33
423.56	3377.39
423.75	3466.33
423.94	3459.31
424.13	3243.98
424.32	3461.65
424.50	3571.66
424.69	3630.17
424.88	3520.17
425.07	3414.84
425.26	3578.68
425.45	3503.78
425.64	3463.99
425.83	3527.19
426.01	3576.34
426.20	3510.80
426.39	3618.47
426.58	3611.45
426.77	3501.44
426.96	3559.95
427.15	3599.74
427.33	3786.99
427.52	3590.38
427.71	3655.92
427.90	3557.61
428.09	3646.55
428.28	3850.18
428.46	3691.02
428.65	3705.07
428.84	3899.33
429.03	3871.25
429.22	3871.25
429.40	3826.78
429.59	3674.64
429.78	3536.55
429.97	3620.81
430.16	3644.21
430.34	3705.07
430.53	3880.61
430.72	3758.90
430.91	3950.82
431.10	3934.44
431.28	4070.19
431.47	4060.83
431.66	4065.51
431.85	4128.70
432.03	4241.05
432.22	4126.36
432.41	4182.54
432.60	4217.65
432.79	4191.90
432.97	4285.52
433.16	4159.13
433.35	4170.83
433.54	4329.99
433.72	4212.96
433.91	4138.07
434.10	4299.56
434.28	4339.35
434.47	4133.39
434.66	4451.70
434.85	4430.63
435.03	4510.21
435.22	4386.16
435.41	4545.32
435.59	4493.83
435.78	4470.42
435.97	4620.22
436.16	4526.60
436.34	4685.75
436.53	4610.86
436.72	4734.90
436.90	4624.90
437.09	4713.84
437.28	4606.17
437.46	4519.57
437.65	4634.26
437.84	4739.58
438.02	4575.75
438.21	4781.71
438.40	4557.02
438.58	4798.10
438.77	4788.74
438.96	4849.59
439.14	4865.97
439.33	5020.45
439.52	5205.35
439.70	5046.20
439.89	5067.26
440.08	5193.65
440.26	4999.38
440.45	5060.24
440.63	5193.65
440.82	5245.14
441.01	5238.12
441.19	5336.42
441.38	5549.41
441.57	5575.16
441.75	5462.81
441.94	5540.05
442.12	5614.95
442.31	5638.35
442.50	5570.48
442.68	5652.39
442.87	5633.67
443.05	5685.16
443.24	5870.06
443.43	5776.44
443.61	5834.96
443.80	5860.70
443.98	5832.62
444.17	5612.60
444.35	5928.58
444.54	5914.53
444.73	5799.85
444.91	5802.19
445.10	5785.80
445.28	5724.95
445.47	5710.91
445.65	5790.49
445.84	5867.72
446.02	5851.34
446.21	5940.28
446.39	5879.43
446.58	5877.09
446.77	5884.11
446.95	5846.66
447.14	5851.34
447.32	5937.94
447.51	5954.32
447.69	5975.39
447.88	5933.26
448.06	5949.64
448.25	5902.83
448.43	5984.75
448.62	5977.73
448.80	5991.77
448.99	6045.60
449.17	5973.05
449.36	6052.63
449.54	6232.85
449.73	6108.80
449.91	6197.74
450.10	6445.84
450.28	6441.15
450.46	6265.61
450.65	6455.20
450.83	6469.24
451.02	6246.89
451.20	6516.05
451.39	6513.71
451.57	6604.99
451.76	6354.55
451.94	6445.84
452.13	6424.77
452.31	6469.24
452.49	6321.79
452.68	6506.69
452.86	6612.01
453.05	6604.99
453.23	6583.93
453.42	6516.05
453.60	6555.84
453.78	6647.12
453.97	6335.83
454.15	6576.91
454.34	6558.18
454.52	6771.17
454.70	6576.91
454.89	6630.74
455.07	6691.59
455.26	6766.49
455.44	6832.02
455.62	6899.90
455.81	6822.66
455.99	6876.49
456.17	6942.03
456.36	6864.79
456.54	7063.74
456.73	7023.95
456.91	7180.76
457.09	7293.11
457.28	7372.69
457.46	7052.03
457.64	7115.23
457.83	7220.55
458.01	7211.19
458.19	7335.24
458.38	6970.12
458.56	7501.42
458.74	7328.22
458.93	7396.09
459.11	7578.65
459.29	7468.65
459.48	7396.09
459.66	7337.58
459.84	7545.89
460.03	7555.25
460.21	7454.61
460.39	7618.44
460.57	7562.27
460.76	7583.34
460.94	7772.92
461.12	7847.82
461.31	7805.69
461.49	7611.42
461.67	7871.22
461.85	7915.69
462.04	7801.01
462.22	8058.46
462.40	7927.39
462.59	8168.47
462.77	7728.45
462.95	8060.80
463.13	7995.27
463.32	7918.03
463.50	8088.89
463.68	8138.04
463.86	7999.95
464.05	7997.61
464.23	7950.80
464.41	8210.60
464.59	7932.08
464.78	8292.52
464.96	8105.28
465.14	8021.02
465.32	8315.92
465.50	8086.55
465.69	8409.54
465.87	8248.05
466.05	8109.96
466.23	8149.75
466.41	8215.28
466.60	8379.12
466.78	8203.58
466.96	8344.01
467.14	8449.33
467.32	8355.71
467.51	8652.96
467.69	8369.76
467.87	8439.97
468.05	8465.72
468.23	8510.19
468.41	8416.57
468.60	8706.79
468.78	8751.26
468.96	8669.34
469.14	8720.84
469.32	8905.74
469.50	8454.02
469.69	8814.46
469.87	8863.61
470.05	8917.44
470.23	8922.12
470.41	8861.27
470.59	9013.40
470.77	8992.34
470.95	9034.47
471.14	8968.93
471.32	8821.48
471.50	9240.44
471.68	9212.35
471.86	9310.65
472.04	9249.80
472.22	9540.02
472.40	9320.01
472.58	9413.63
472.77	9324.69
472.95	9441.72
473.13	9654.71
473.31	9469.81
473.49	9500.23
473.67	9542.36
473.85	9724.93
474.03	9937.91
474.21	10057.28
474.39	9994.09
474.57	9834.93
474.75	10097.07
474.93	10125.16
475.12	10186.01
475.30	10160.27
475.48	10066.64
475.66	10183.67
475.84	10178.99
476.02	10415.38
476.20	10354.53
476.38	10513.69
476.56	10574.54
476.74	10651.78
476.92	10614.33
477.10	10700.93
477.28	10801.57
477.46	10803.91
477.64	11087.12
477.82	11157.33
478.00	11089.46
478.18	11213.51
478.36	11281.38
478.54	11438.20
478.72	11536.50
478.90	11627.78
479.08	11618.42
479.26	11831.41
479.44	11822.05
479.62	11749.49
479.80	12093.55
479.98	12142.70
480.16	12360.37
480.34	12159.08
480.52	12500.80
480.70	12451.65
480.88	12292.49
481.06	12620.17
481.24	12622.51
481.41	12917.42
481.59	13015.72
481.77	13025.08
481.95	12961.89
482.13	13369.14
482.31	13207.64
482.49	13511.91
482.67	13390.20
482.85	13561.06
483.03	13818.52
483.21	13441.70
483.39	14024.49
483.57	13802.14
483.74	14162.58
483.92	14331.10
484.10	14104.07
484.28	14525.36
484.46	14670.48
484.64	14738.35
484.82	14754.74
485.00	14780.48
485.18	14839.00
485.35	15059.01
485.53	14841.34
485.71	14764.10
485.89	15398.38
486.07	15215.82
486.25	15124.54
486.43	15456.90
486.61	15538.82
486.78	15829.04
486.96	15803.30
487.14	15908.62
487.32	16287.79
487.50	16578.01
487.68	16449.28
487.85	16767.60
488.03	16730.15
488.21	16947.82
488.39	16872.92
488.57	16980.59
488.75	17116.34
488.92	17532.95
489.10	17752.96
489.28	17673.39
489.46	18087.66
489.64	17806.80
489.81	18057.23
489.99	18228.09
490.17	18300.65
490.35	18513.64
490.53	18396.61
490.70	18771.10
490.88	18633.00
491.06	19147.92
491.24	18981.74
491.41	19051.96
491.59	18923.23
491.77	19147.92
491.95	19456.87
492.13	19644.12
492.30	19786.89
492.48	19791.57
492.66	19941.36
492.84	19669.86
493.01	20042.01
493.19	20205.84
493.37	20231.59
493.54	20088.82
493.72	20252.66
493.90	20725.44
494.08	20816.72
494.25	21156.10
494.43	21099.93
494.61	21268.45
494.79	21422.92
494.96	21177.17
495.14	21319.94
495.32	21479.10
495.49	21582.08
495.67	22068.91
495.85	21867.63
496.02	22202.32
496.20	22001.04
496.38	22302.96
496.55	22424.67
496.73	23126.83
496.91	22511.27
497.09	22632.98
497.26	22890.44
497.44	22817.88
497.62	23021.51
497.79	23222.80
497.97	23068.32
498.14	23271.95
498.32	23534.09
498.50	23480.25
498.67	23892.19
498.85	23679.20
499.03	23971.77
499.20	23850.06
499.38	24093.47
499.56	24002.19
499.73	24482.00
499.91	24517.11
500.08	24437.53
500.26	24168.37
500.44	24584.99
500.61	24489.03
500.79	24739.46
500.97	24994.58
501.14	25153.74
501.32	24889.26
501.49	24554.56
501.67	25069.48
501.84	25413.54
502.02	24994.58
502.20	25532.90
502.37	25731.85
502.55	25703.76
502.72	26054.84
502.90	25846.54
503.07	25371.41
503.25	26045.48
503.43	26162.51
503.60	25668.66
503.78	25895.69
503.95	26082.93
504.13	26567.42
504.30	26183.57
504.48	26476.14
504.65	26471.46
504.83	26616.57
505.01	26778.07
505.18	26562.74
505.36	27058.93
505.53	26761.69
505.71	27349.16
505.88	27283.62
506.06	27248.52
506.23	27222.77
506.41	27182.98
506.58	27786.84
506.76	27335.12
506.93	27679.18
507.11	27695.56
507.28	27648.75
507.46	27679.18
507.63	27835.99
507.81	27634.71
507.98	27917.91
508.16	27775.14
508.33	28395.38
508.50	28088.77
508.68	28655.18
508.85	28559.22
509.03	28474.96
509.20	28641.14
509.38	28772.21
509.55	28666.88
509.73	29172.44
509.90	29022.64
510.08	29008.60
510.25	28973.49
510.42	29373.72
510.60	29612.46
510.77	29160.73
510.95	29673.31
511.12	29319.89
511.30	29350.32
511.47	29942.47
511.64	30017.37
511.82	29724.80
511.99	29612.46
512.17	29729.48
512.34	29544.58
512.51	30125.04
512.69	30441.01
512.86	30590.80
513.04	30766.34
513.21	30621.23
513.38	30394.20
513.56	30216.32
513.73	30223.34
513.90	31030.82
514.08	30487.82
514.25	30651.66
514.43	30630.59
514.60	30810.81
514.77	30761.66
514.95	31037.84
515.12	31236.79
515.29	31412.33
515.47	31543.40
515.64	31747.03
515.81	31566.81
515.99	31276.58
516.16	31622.98
516.33	31590.21
516.51	31433.39
516.68	31124.44
516.85	31257.85
517.03	31730.64
517.20	31604.25
517.37	32299.39
517.54	32400.04
517.72	31943.63
517.89	32084.06
518.06	32439.82
518.24	31655.75
518.41	32381.31
518.58	32154.28
518.75	32332.16
518.93	32587.28
519.10	32229.18
519.27	32570.90
519.45	32285.35
519.62	32701.96
519.79	33055.39
519.96	32781.54
520.14	33050.70
520.31	33017.94
520.48	33127.94
520.65	33067.09
520.83	33493.07
521.00	33905.00
521.17	33219.22
521.34	33483.70
521.52	32964.10
521.69	34007.98
521.86	34026.71
522.03	33909.68
522.20	33771.59
522.38	34115.65
522.55	34157.78
522.72	33935.43
522.89	33902.66
523.07	34387.15
523.24	34099.26
523.41	34265.44
523.58	34017.35
523.75	34731.21
523.92	35002.71
524.10	34883.34
524.27	35084.63
524.44	34885.68
524.61	34756.96
524.78	35211.02
524.96	35206.34
525.13	35157.19
525.30	35166.55
525.47	35285.92
525.64	35407.62
525.81	35494.22
525.98	35075.27
526.16	34892.71
526.33	34824.83
526.50	35541.03
526.67	34719.51
526.84	35346.77
527.01	35257.83
527.18	34888.03
527.36	35566.78
527.53	35814.88
527.70	36006.80
527.87	36282.98
528.04	35983.40
528.21	36360.22
528.38	35943.61
528.55	36346.18
528.72	36194.04
528.89	36226.81
529.07	36039.57
529.24	36210.43
529.41	36313.41
529.58	36282.98
529.75	36184.68
529.92	36353.20
530.09	36533.42
530.26	36687.90
530.43	36872.80
530.60	36240.86
530.77	36889.18
530.94	36659.81
531.11	36905.57
531.28	37022.59
531.46	36999.19
531.63	37022.59
531.80	36840.03
531.97	36790.88
532.14	36865.78
532.31	37078.77
532.48	37186.43
532.65	37261.33
532.82	37214.52
532.99	37263.67
533.16	36992.17
533.33	37736.46
533.50	37579.64
533.67	37450.91
533.84	37258.99
534.01	37390.06
534.18	37677.94
534.35	37565.60
534.52	37769.22
534.69	37926.04
534.86	37752.84
535.03	37928.38
535.20	38220.95
535.37	38438.62
535.54	37954.13
535.71	37996.26
535.88	38377.76
536.05	38003.28
536.22	38024.34
536.38	38352.02
536.55	38415.21
536.72	37907.32
536.89	38153.07
537.06	38618.84
537.23	38679.69
537.40	38630.54
537.57	38593.09
537.74	38501.81
537.91	38871.62
538.08	38511.17
538.25	38490.11
538.42	38628.20
538.59	39054.18
538.75	38326.27
538.92	38843.53
539.09	39103.33
539.26	38944.17
539.43	38806.08
539.60	39037.80
539.77	38752.25
539.94	39140.78
540.11	38604.80
540.28	39213.34
540.44	39325.68
540.61	39393.56
540.78	39388.88
540.95	38965.24
541.12	39157.16
541.29	38911.41
541.46	39402.92
541.62	39349.09
541.79	39599.52
541.96	39431.01
542.13	39431.01
542.30	39346.75
542.47	39761.02
542.63	39655.70
542.80	39646.33
542.97	40027.84
543.14	40334.45
543.31	39952.94
543.48	40006.78
543.64	40650.42
543.81	40046.57
543.98	40299.34
544.15	40495.95
544.32	40711.28
544.48	40685.53
544.65	40533.40
544.82	40210.40
544.99	40252.53
545.16	40725.32
545.32	40615.32
545.49	40037.20
545.66	40856.39
545.83	40725.32
546.00	40907.88
546.16	40575.53
546.33	40840.01
546.50	40329.77
546.67	40795.54
546.83	40189.34
547.00	41284.71
547.17	40701.92
547.34	40816.60
547.50	41116.19
547.67	41401.74
547.84	41411.10
548.00	41303.43
548.17	41193.43
548.34	41565.57
548.51	41670.90
548.67	41013.21
548.84	41518.76
549.01	41361.95
549.18	41380.67
549.34	41481.31
549.51	41783.24
549.68	41603.02
549.84	41514.08
550.01	41549.19
550.18	41525.78
550.34	41600.68
550.51	41888.57
550.68	42153.05
550.84	41584.30
551.01	41694.30
551.18	41621.75
551.34	41656.85
551.51	41832.39
551.68	41998.57
551.84	42057.09
552.01	42206.88
552.18	41942.40
552.34	41902.61
552.51	42066.45
552.68	41727.07
552.84	42239.65
553.01	42253.69
553.18	42206.88
553.34	41759.84
553.51	41546.85
553.67	42096.88
553.84	42593.07
554.01	42611.79
554.17	42206.88
554.34	41977.51
554.51	42740.52
554.67	42848.19
554.84	42314.55
555.00	42139.00
555.17	41940.06
555.33	42644.56
555.50	42724.14
555.67	42309.86
555.83	42375.40
556.00	42721.80
556.16	43124.37
556.33	42597.75
556.50	42445.62
556.66	43016.71
556.83	42672.65
556.99	42712.44
557.16	42974.58
557.32	43124.37
557.49	43220.33
557.65	42742.86
557.82	42721.80
557.98	43274.16
558.15	43164.16
558.32	43225.01
558.48	42630.52
558.65	42714.78
558.81	43019.05
558.98	42895.00
559.14	43070.54
559.31	43070.54
559.47	43105.65
559.64	43269.48
559.80	43136.07
559.97	43248.42
560.13	42993.30
560.30	43173.52
560.46	43178.20
560.63	43246.08
560.79	43377.15
560.96	43423.96
561.12	43000.32
561.29	43182.88
561.45	43342.04
561.61	43180.54
561.78	43150.12
561.94	43257.78
562.11	43187.56
562.27	43473.11
562.44	43316.29
562.60	43716.53
562.77	43454.39
562.93	43543.33
563.10	43889.73
563.26	42981.60
563.42	43295.23
563.59	43276.51
563.75	43442.68
563.92	43744.61
564.08	43662.69
564.24	43887.39
564.41	43805.47
564.57	43409.92
564.74	43606.52
564.90	43695.46
565.07	43665.03
565.23	43704.82
565.39	43423.96
565.56	43653.33
565.72	43452.05
565.88	43983.35
566.05	43288.21
566.21	43660.35
566.38	43882.70
566.54	43384.17
566.70	44065.27
566.87	44484.22
567.03	44067.61
567.19	44224.42
567.36	44002.07
567.52	43695.46
567.68	44058.24
567.85	43328.00
568.01	43594.82
568.17	43529.28
568.34	43533.96
568.50	43969.30
568.66	43770.36
568.83	43931.86
568.99	43115.01
569.15	43482.47
569.32	43833.55
569.48	43419.28
569.64	44107.40
569.81	44257.19
569.97	43775.04
570.13	44215.06
570.30	44037.18
570.46	43793.76
570.62	43557.37
570.78	43566.73
570.95	43765.68
571.11	44091.01
571.27	43849.94
571.43	43920.15
571.60	44144.84
571.76	43805.47
571.92	43997.39
572.09	43854.62
572.25	43669.72
572.41	44002.07
572.57	43871.00
572.74	44388.26
572.90	44479.54
573.06	44224.42
573.22	43981.01
573.38	43889.73
573.55	43707.16
573.71	43845.26
573.87	44191.65
574.03	43859.30
574.20	43835.89
574.36	44619.97
574.52	43871.00
574.68	43976.33
574.84	43676.74
575.01	44149.53
575.17	44151.87
575.33	43683.76
575.49	43702.48
575.65	44514.65
575.82	44250.17
575.98	44016.11
576.14	44299.32
576.30	43971.64
576.46	44034.84
576.62	44079.31
576.79	44266.55
576.95	44069.95
577.11	43952.92
577.27	44109.74
577.43	43917.81
577.59	43962.28
577.75	43922.49
577.92	43569.07
578.08	43676.74
578.24	43990.37
578.40	44046.54
578.56	44353.15
578.72	43873.34
578.88	44636.36
579.04	44416.35
579.21	44081.65
579.37	44254.85
579.53	43924.83
579.69	44041.86
579.85	44102.71
580.01	44086.33
580.17	44346.13
580.33	44313.36
580.49	43920.15
580.65	44322.72
580.82	44149.53
580.98	43861.64
581.14	44121.44
581.30	44547.42
581.46	44165.91
581.62	44439.75
581.78	44343.79
581.94	44582.52
582.10	44156.55
582.26	44531.03
582.42	44109.74
582.58	44371.88
582.74	44254.85
582.90	44406.98
583.06	44259.53
583.22	44554.44
583.38	44708.91
583.54	44711.25
583.70	44556.78
583.86	44348.47
584.02	43903.77
584.18	44198.68
584.34	43789.08
584.50	44456.14
584.66	44629.34
584.82	43871.00
584.98	44360.17
585.14	44301.66
585.30	44378.90
585.46	44409.32
585.62	44320.38
585.78	44252.51
585.94	44278.25
586.10	44130.80
586.26	44371.88
586.42	44643.38
586.58	44208.04
586.74	44170.59
586.90	44081.65
587.06	44339.11
587.22	44369.54
587.38	43796.10
587.54	44594.23
587.70	44423.37
587.86	44439.75
588.02	44336.77
588.18	44526.35
588.34	44332.09
588.49	44189.31
588.65	43775.04
588.81	43856.96
588.97	43988.03
589.13	43873.34
589.29	44208.04
589.45	44617.63
589.61	44545.08
589.77	44811.90
589.93	44582.52
590.08	44430.39
590.24	44437.41
