SpectraSuite Data File
++++++++++++++++++++++++++++++++++++
Date: Fri Oct 25 11:23:37 EDT 2013
User: price-jones
Dark Spectrum Present: No
Reference Spectrum Present: No
Number of Sampled Component Spectra: 1
Spectrometers: USB2+H05261
Integration Time (usec): 100000 (USB2+H05261)
Spectra Averaged: 1 (USB2+H05261)
Boxcar Smoothing: 0 (USB2+H05261)
Correct for Electrical Dark: No (USB2+H05261)
Strobe/Lamp Enabled: No (USB2+H05261)
Correct for Detector Non-linearity: No (USB2+H05261)
Correct for Stray Light: No (USB2+H05261)
Number of Pixels in Processed Spectrum: 2048
>>>>>Begin Processed Spectral Data<<<<<
365.73	222.35
365.92	222.35
366.12	222.35
366.32	119.37
366.52	135.75
366.72	145.11
366.91	100.64
367.11	142.77
367.31	152.13
367.51	135.75
367.70	93.62
367.90	168.52
368.10	159.16
368.30	77.24
368.49	142.77
368.69	131.07
368.89	107.66
369.09	194.26
369.28	124.05
369.48	159.16
369.68	159.16
369.87	191.92
370.07	173.20
370.27	231.71
370.47	318.31
370.66	624.92
370.86	606.20
371.06	751.31
371.25	669.39
371.45	653.01
371.65	723.23
371.84	683.44
372.04	709.18
372.24	645.99
372.44	667.05
372.63	648.33
372.83	763.01
373.03	755.99
373.22	730.25
373.42	791.10
373.62	798.12
373.81	795.78
374.01	791.10
374.21	791.10
374.40	828.55
374.60	849.61
374.79	791.10
374.99	816.85
375.19	835.57
375.38	919.83
375.58	858.98
375.78	826.21
375.97	931.53
376.17	894.08
376.37	851.96
376.56	910.47
376.76	755.99
376.95	870.68
377.15	898.77
377.35	915.15
377.54	823.87
377.74	905.79
377.93	898.77
378.13	908.13
378.33	933.87
378.52	903.45
378.72	898.77
378.91	894.08
379.11	945.58
379.31	898.77
379.50	891.74
379.70	978.34
379.89	915.15
380.09	997.07
380.28	954.94
380.48	992.39
380.68	940.90
380.87	990.05
381.07	1111.75
381.26	966.64
381.46	964.30
381.65	1043.88
381.85	1013.45
382.04	1053.24
382.24	1060.26
382.43	1055.58
382.63	973.66
382.83	1032.18
383.02	1142.18
383.22	1062.60
383.41	1097.71
383.61	1104.73
383.80	1151.54
384.00	1104.73
384.19	1130.48
384.39	1100.05
384.58	1121.12
384.78	1128.14
384.97	1191.33
385.17	1186.65
385.36	1181.97
385.56	1174.95
385.75	1198.35
385.95	1144.52
386.14	1153.88
386.34	1188.99
386.53	1177.29
386.72	1214.74
386.92	1238.14
387.11	1207.72
387.31	1308.36
387.50	1210.06
387.70	1282.61
387.89	1252.19
388.09	1210.06
388.28	1284.95
388.48	1249.85
388.67	1261.55
388.86	1362.19
389.06	1366.87
389.25	1343.47
389.45	1385.60
389.64	1364.53
389.84	1303.68
390.03	1376.24
390.22	1322.40
390.42	1401.98
390.61	1355.17
390.81	1341.13
391.00	1373.89
391.19	1523.69
391.39	1416.02
391.58	1460.49
391.78	1514.33
391.97	1416.02
392.16	1486.24
392.36	1495.60
392.55	1493.26
392.75	1561.14
392.94	1533.05
393.13	1607.95
393.33	1519.01
393.52	1507.30
393.71	1645.40
393.91	1593.90
394.10	1554.12
394.29	1614.97
394.49	1528.37
394.68	1584.54
394.88	1577.52
395.07	1753.06
395.26	1710.93
395.46	1596.25
395.65	1724.97
395.84	1717.95
396.04	1764.76
396.23	1832.64
396.42	1607.95
396.62	1722.63
396.81	1748.38
397.00	1682.85
397.19	1809.23
397.39	1792.85
397.58	1827.96
397.77	1776.47
397.97	1830.30
398.16	1851.36
398.35	1942.64
398.55	1839.66
398.74	1984.77
398.93	1940.30
399.12	1949.67
399.32	2001.16
399.51	1839.66
399.70	2012.86
399.90	1942.64
400.09	1952.01
400.28	2008.18
400.47	1989.46
400.67	2040.95
400.86	2057.33
401.05	2001.16
401.24	2146.27
401.44	2167.34
401.63	2218.83
401.82	2155.63
402.01	2090.10
402.21	2214.15
402.40	2218.83
402.59	2270.32
402.78	2230.53
402.97	2328.83
403.17	2225.85
403.36	2305.43
403.55	2298.41
403.74	2392.03
403.93	2345.22
404.13	2403.73
404.32	2478.63
404.51	2450.54
404.70	2466.92
404.89	2389.69
405.09	2513.74
405.28	2396.71
405.47	2459.90
405.66	2396.71
405.85	2614.38
406.05	2480.97
406.24	2649.49
406.43	2572.25
406.62	2562.89
406.81	2628.42
407.00	2469.27
407.20	2495.01
407.39	2640.12
407.58	2782.90
407.77	2787.58
407.96	2792.26
408.15	2750.13
408.34	2654.17
408.54	2832.05
408.73	2843.75
408.92	2839.07
409.11	2984.18
409.30	2878.86
409.49	2916.31
409.68	2984.18
409.87	2890.56
410.07	2960.78
410.26	3056.74
410.45	2958.44
410.64	3101.21
410.83	3131.64
411.02	2998.23
411.21	3045.04
411.40	3084.83
411.59	3225.26
411.78	3145.68
411.98	3166.74
412.17	3192.49
412.36	3281.43
412.55	3485.06
412.74	3583.36
412.93	3309.52
413.12	3255.69
413.31	3456.97
413.50	3599.74
413.69	3583.36
413.88	3611.45
414.07	3557.61
414.26	3747.20
414.45	3747.20
414.64	3758.90
414.83	3712.09
415.02	3751.88
415.22	3927.42
415.41	3885.29
415.60	3782.31
415.79	3964.87
415.98	3955.51
416.17	3904.01
416.36	3859.54
416.55	4149.77
416.74	4014.02
416.93	4084.23
417.12	4149.77
417.31	4084.23
417.50	4243.39
417.69	4374.46
417.88	4318.29
418.07	4215.30
418.26	4414.25
418.45	4327.65
418.64	4400.21
418.83	4437.66
419.02	4472.76
419.21	4585.11
419.39	4498.51
419.58	4615.54
419.77	4631.92
419.96	4510.21
420.15	4622.56
420.34	4538.30
420.53	4533.62
420.72	4674.05
420.91	4781.71
421.10	4713.84
421.29	4777.03
421.48	4690.43
421.67	4891.72
421.86	4751.29
422.05	4786.40
422.24	4903.42
422.43	4910.44
422.61	4908.10
422.80	4873.00
422.99	4837.89
423.18	4887.04
423.37	4826.18
423.56	4961.94
423.75	5041.51
423.94	4819.16
424.13	4610.86
424.32	4823.84
424.50	4994.70
424.69	5210.03
424.88	5071.94
425.07	4903.42
425.26	4746.61
425.45	5144.50
425.64	4966.62
425.83	4968.96
426.01	5107.05
426.20	5114.07
426.39	5011.09
426.58	4987.68
426.77	5006.41
426.96	5184.29
427.15	5069.60
427.33	5252.16
427.52	5338.76
427.71	5298.97
427.90	5500.26
428.09	5439.40
428.28	5275.57
428.46	5357.49
428.65	5383.23
428.84	5631.33
429.03	5493.24
429.22	5320.04
429.40	5467.49
429.59	5605.58
429.78	5247.48
429.97	5357.49
430.16	5586.86
430.34	5584.52
430.53	5722.61
430.72	5771.76
430.91	5708.57
431.10	5706.23
431.28	5879.43
431.47	5771.76
431.66	5776.44
431.85	5694.52
432.03	5914.53
432.22	6052.63
432.41	5851.34
432.60	5870.06
432.79	5914.53
432.97	5994.11
433.16	6036.24
433.35	5921.56
433.54	5984.75
433.72	6153.27
433.91	6125.18
434.10	6188.38
434.28	6143.91
434.47	6169.65
434.66	6380.30
434.85	6401.37
435.03	6359.24
435.22	6242.21
435.41	6485.62
435.59	6331.15
435.78	6436.47
435.97	6604.99
436.16	6239.87
436.34	6420.09
436.53	6560.52
436.72	6602.65
436.90	6443.49
437.09	6602.65
437.28	6455.20
437.46	6637.76
437.65	6586.27
437.84	6696.27
438.02	6848.41
438.21	6925.65
438.40	6700.95
438.58	6775.85
438.77	6853.09
438.96	6974.80
439.14	6869.47
439.33	7215.87
439.52	7248.64
439.70	7337.58
439.89	7272.04
440.08	7351.62
440.26	7389.07
440.45	7384.39
440.63	7470.99
440.82	7747.17
441.01	7494.40
441.19	7466.31
441.38	7709.72
441.57	7667.60
441.75	7798.66
441.94	7999.95
442.12	7754.19
442.31	8116.98
442.50	7971.86
442.68	7955.48
442.87	7997.61
443.05	8105.28
443.24	8168.47
443.43	8252.73
443.61	8184.85
443.80	8592.11
443.98	8077.19
444.17	7992.93
444.35	8091.23
444.54	8475.08
444.73	8409.54
444.91	8278.47
445.10	8388.48
445.28	8475.08
445.47	8205.92
445.65	8372.10
445.84	8271.45
446.02	8533.59
446.21	8138.04
446.39	8313.58
446.58	8470.40
446.77	8393.16
446.95	8379.12
447.14	8479.76
447.32	8507.85
447.51	8540.61
447.69	8507.85
447.88	8676.37
448.06	8547.64
448.25	8674.03
448.43	8608.49
448.62	8685.73
448.80	8641.26
448.99	8659.98
449.17	8997.02
449.36	8751.26
449.54	8908.08
449.73	8968.93
449.91	9095.32
450.10	8868.29
450.28	8973.61
450.46	9111.71
450.65	8959.57
450.83	9057.87
451.02	9142.13
451.20	9144.47
451.39	9296.61
451.57	9060.21
451.76	9135.11
451.94	9312.99
452.13	9387.89
452.31	9270.86
452.49	9153.84
452.68	9350.44
452.86	9364.48
453.05	9418.32
453.23	9577.47
453.42	9476.83
453.60	9523.64
453.78	9631.30
453.97	9486.19
454.15	9453.42
454.34	9408.95
454.52	9783.44
454.70	9582.15
454.89	9809.19
455.07	9907.49
455.26	9764.72
455.44	9928.55
455.62	10022.17
455.81	9823.23
455.99	9970.68
456.17	10281.97
456.36	10141.54
456.54	10160.27
456.73	10157.92
456.91	10457.51
457.09	10399.00
457.28	10272.61
457.46	10389.64
457.64	10527.73
457.83	10478.58
458.01	10520.71
458.19	10583.90
458.38	10436.45
458.56	10750.08
458.74	10509.01
458.93	10525.39
459.11	10689.23
459.29	10595.61
459.48	10759.44
459.66	10780.51
459.84	11002.86
460.03	11061.37
460.21	11143.29
460.39	10918.60
460.57	11033.29
460.76	10876.47
460.94	11136.27
461.12	11215.85
461.31	11166.70
461.49	11229.89
461.67	11075.42
461.85	11473.31
462.04	11283.72
462.22	11618.42
462.40	11641.82
462.59	11599.70
462.77	11625.44
462.95	11552.88
463.13	11651.19
463.32	11477.99
463.50	11637.14
463.68	12114.61
463.86	11831.41
464.05	11653.53
464.23	11829.07
464.41	11929.71
464.59	11735.45
464.78	12269.09
464.96	12044.40
465.14	11901.62
465.32	12170.79
465.50	12360.37
465.69	12100.57
465.87	12252.70
466.05	12238.66
466.23	12135.68
466.41	12135.68
466.60	12397.82
466.78	12365.05
466.96	12198.87
467.14	12362.71
467.32	12566.34
467.51	12524.21
467.69	12276.11
467.87	12446.97
468.05	12615.49
468.23	12233.98
468.41	12152.06
468.60	12615.49
468.78	12959.55
468.96	12666.98
469.14	12706.77
469.32	13139.77
469.50	12421.22
469.69	13069.55
469.87	13067.21
470.05	12840.18
470.23	13128.06
470.41	13263.82
470.59	13605.53
470.77	13338.71
470.95	13305.95
471.14	13652.34
471.32	13177.22
471.50	13495.53
471.68	13563.40
471.86	13771.71
472.04	13865.33
472.22	14193.01
472.40	13907.46
472.58	13556.38
472.77	13823.20
472.95	14249.18
473.13	14513.66
473.31	14122.79
473.49	14181.31
473.67	14160.24
473.85	14298.33
474.03	14555.79
474.21	14546.43
474.39	14906.87
474.57	14649.41
474.75	15105.82
474.93	14963.04
475.12	14778.14
475.30	14663.46
475.48	14960.70
475.66	15145.61
475.84	15300.08
476.02	15459.24
476.20	15330.51
476.38	15985.86
476.56	16032.67
476.74	16077.14
476.92	15976.50
477.10	15910.96
477.28	16205.87
477.46	16372.05
477.64	16425.88
477.82	16786.32
478.00	17025.06
478.18	16798.02
478.36	16648.23
478.54	17015.69
478.72	17165.49
478.90	17518.91
479.08	17575.08
479.26	17902.76
479.44	17654.66
479.62	18059.57
479.80	18066.60
479.98	18244.48
480.16	18452.78
480.34	18654.07
480.52	18649.39
480.70	18405.97
480.88	18555.77
481.06	18703.22
481.24	18845.99
481.41	19124.52
481.59	19407.72
481.77	19431.13
481.95	19740.08
482.13	19777.53
482.31	19583.26
482.49	20217.55
482.67	20219.89
482.85	20552.24
483.03	20765.23
483.21	20786.30
483.39	21085.89
483.57	20629.48
483.74	20992.26
483.92	21451.01
484.10	21188.87
484.28	21745.92
484.46	22155.51
484.64	22253.81
484.82	22134.45
485.00	22003.38
485.18	22932.57
485.35	23164.28
485.53	22970.02
485.71	23154.92
485.89	23590.26
486.07	23211.09
486.25	23543.45
486.43	23679.20
486.61	23763.46
486.78	24027.94
486.96	24070.07
487.14	24725.42
487.32	24491.37
487.50	24907.98
487.68	25223.95
487.85	25376.09
488.03	25427.58
488.21	25795.04
488.39	25769.30
488.57	26195.28
488.75	25989.31
488.92	26553.38
489.10	27115.11
489.28	26712.53
489.46	27005.10
489.64	27157.24
489.81	27885.14
489.99	27665.13
490.17	27880.46
490.35	28208.14
490.53	28070.04
490.70	28470.28
490.88	28299.42
491.06	28835.40
491.24	28797.95
491.41	29008.60
491.59	29366.70
491.77	29287.12
491.95	29633.52
492.13	29495.43
492.30	30209.29
492.48	30508.88
492.66	30253.76
492.84	30478.46
493.01	30675.06
493.19	30834.22
493.37	31087.00
493.54	31351.48
493.72	31669.79
493.90	31377.22
494.08	31985.76
494.25	32182.37
494.43	32163.64
494.61	32570.90
494.79	32446.85
494.96	32818.99
495.14	32627.07
495.32	33371.36
495.49	33345.61
495.67	33174.75
495.85	33776.27
496.02	33500.09
496.20	33516.47
496.38	34284.17
496.55	34281.83
496.73	34778.02
496.91	34574.39
497.09	34862.28
497.26	35386.56
497.44	35103.35
497.62	35335.07
497.79	35849.99
497.97	35534.01
498.14	35999.78
498.32	36343.84
498.50	36329.80
498.67	36528.74
498.85	36608.32
499.03	36844.71
499.20	36549.81
499.38	36914.93
499.56	37034.30
499.73	37411.12
499.91	37792.63
500.08	37743.48
500.26	37542.19
500.44	37666.24
500.61	37581.98
500.79	37600.71
500.97	38167.12
501.14	38635.22
501.32	38888.00
501.49	39138.44
501.67	38829.49
501.84	39021.41
502.02	39110.35
502.20	39208.65
502.37	39241.42
502.55	39358.45
502.72	39622.93
502.90	39697.83
503.07	39777.40
503.25	39679.10
503.43	40074.65
503.60	40065.29
503.78	39966.99
503.95	40369.56
504.13	40428.07
504.30	40671.49
504.48	40580.21
504.65	40622.34
504.83	41027.25
505.01	41418.12
505.18	41170.02
505.36	41551.53
505.53	41556.21
505.71	41565.57
505.88	41645.15
506.06	41148.96
506.23	41954.10
506.41	41743.45
506.58	42120.28
506.76	42265.39
506.93	42710.10
507.11	42426.89
507.28	42693.71
507.46	42691.37
507.63	42607.11
507.81	43241.40
507.98	43262.46
508.16	43311.61
508.33	43498.86
508.50	43697.80
508.68	43487.15
508.85	44273.57
509.03	43868.66
509.20	44079.31
509.38	44161.23
509.55	44634.02
509.73	44257.19
509.90	44952.33
510.08	44545.08
510.25	44601.25
510.42	44858.71
510.60	44928.92
510.77	45471.93
510.95	45570.23
511.12	45481.29
511.30	45420.44
511.47	45675.55
511.64	45659.17
511.82	46043.02
511.99	46038.34
512.17	45944.72
512.34	46096.85
512.51	46410.48
512.69	46906.68
512.86	46258.35
513.04	46689.01
513.21	46885.61
513.38	46784.97
513.56	47112.64
513.73	46635.17
513.90	47047.11
514.08	46986.25
514.25	47210.95
514.43	47505.85
514.60	47660.33
514.77	47639.26
514.95	47976.30
515.12	47435.64
515.29	47533.94
515.47	47966.94
515.64	47943.53
515.81	48303.98
515.99	48208.01
516.16	48474.84
516.33	48334.40
516.51	48582.50
516.68	48465.47
516.85	48437.39
517.03	49106.78
517.20	48947.62
517.37	49059.97
517.54	48800.17
517.72	49069.33
517.89	49329.13
518.06	49118.48
518.24	49453.18
518.41	49221.47
518.58	49223.81
518.75	49237.85
518.93	49602.97
519.10	49331.47
519.27	49811.28
519.45	49858.09
519.62	50162.36
519.79	49841.71
519.96	50068.74
520.14	50487.70
520.31	50106.19
520.48	50590.68
520.65	50293.43
520.83	50497.06
521.00	50944.10
521.17	50639.83
521.34	50944.10
521.52	50843.46
521.69	50988.57
521.86	51227.31
522.03	51267.09
522.20	51428.59
522.38	51779.67
522.55	51496.47
522.72	51334.97
522.89	51419.23
523.07	51786.69
523.24	51590.09
523.41	51655.62
523.58	51428.59
523.75	52130.75
523.92	52156.50
524.10	51856.91
524.27	51973.94
524.44	52004.36
524.61	52498.22
524.78	52016.07
524.96	52486.51
525.13	52369.49
525.30	52453.75
525.47	52676.10
525.64	52355.44
525.81	52727.59
525.98	52982.71
526.16	52725.25
526.33	52638.65
526.50	53099.73
526.67	52821.21
526.84	52917.17
527.01	52905.47
527.18	52935.90
527.36	53057.60
527.53	53088.03
527.70	53301.02
527.87	53097.39
528.04	52973.34
528.21	53427.41
528.38	53488.26
528.55	53537.41
528.72	53352.51
528.89	53584.22
529.07	53322.08
529.24	53436.77
529.41	53382.94
529.58	53626.35
529.75	53734.02
529.92	53862.75
530.09	53825.30
530.26	54054.67
530.43	53975.09
530.60	53975.09
530.77	54019.56
530.94	54003.18
531.11	54019.56
531.28	53890.83
531.46	54260.64
531.63	54461.93
531.80	54356.60
531.97	54183.40
532.14	54532.14
532.31	54513.42
532.48	54480.65
532.65	54766.20
532.82	54784.92
532.99	54822.37
533.16	54405.75
533.33	54705.34
533.50	55030.68
533.67	54707.68
533.84	54644.49
534.01	54887.90
534.18	55000.25
534.35	55267.07
534.52	55185.15
534.69	54976.84
534.86	55407.50
535.03	55140.68
535.20	55447.29
535.37	55297.50
535.54	55517.51
535.71	55477.72
535.88	55365.37
536.05	55320.90
536.22	55583.04
536.38	55669.64
536.55	55461.33
536.72	55730.50
536.89	55519.85
537.06	55611.13
537.23	56037.11
537.40	55604.11
537.57	56137.75
537.74	56044.13
537.91	56102.64
538.08	56147.11
538.25	55835.82
538.42	55983.27
538.59	56170.52
538.75	55896.67
538.92	56179.88
539.09	56336.69
539.26	56114.34
539.43	56116.68
539.60	56254.78
539.77	56336.69
539.94	56456.06
540.11	56439.68
540.28	56212.65
540.44	56296.91
540.61	56388.19
540.78	56624.58
540.95	56629.26
541.12	56493.51
541.29	56591.81
541.46	56568.41
541.62	56647.99
541.79	56870.34
541.96	56729.90
542.13	56676.07
542.30	56746.29
542.47	56872.68
542.63	56898.42
542.80	56903.10
542.97	57123.11
543.14	57347.81
543.31	57291.63
543.48	56985.02
543.64	57411.00
543.81	57364.19
543.98	57415.68
544.15	57333.76
544.32	57551.43
544.48	57616.97
544.65	57509.30
544.82	57586.54
544.99	57240.14
545.16	57785.49
545.32	57523.35
545.49	57687.18
545.66	57581.86
545.83	57759.74
546.00	57703.57
546.16	57776.12
546.33	57652.08
546.50	57542.07
546.67	57876.77
546.83	57413.34
547.00	57846.34
547.17	57862.72
547.34	57792.51
547.50	58061.67
547.67	58157.63
547.84	58038.26
548.00	58258.27
548.17	58244.23
548.34	58234.87
548.51	58314.45
548.67	58211.46
548.84	58255.93
549.01	57982.09
549.18	58185.72
549.34	58363.60
549.51	58328.49
549.68	58410.41
549.84	58489.99
550.01	58288.70
550.18	58379.98
550.34	58464.24
550.51	58646.80
550.68	58485.31
550.84	58164.65
551.01	58539.14
551.18	58738.08
551.34	58632.76
551.51	58677.23
551.68	58529.78
551.84	58464.24
552.01	58354.24
552.18	58670.21
552.34	58735.74
552.51	59054.06
552.68	58501.69
552.84	58782.55
553.01	58845.75
553.18	58857.45
553.34	59110.23
553.51	58834.05
553.67	59054.06
553.84	59147.68
554.01	58834.05
554.17	59068.10
554.34	59140.66
554.51	59009.59
554.67	59070.44
554.84	59133.63
555.00	59145.34
555.17	58939.37
555.33	59236.62
555.50	59128.95
555.67	59058.74
555.83	58857.45
556.00	59178.10
556.16	59271.73
556.33	59433.22
556.50	59140.66
556.66	59267.05
556.83	59077.46
556.99	59608.76
557.16	59433.22
557.32	59449.61
557.49	59683.66
557.65	59519.82
557.82	59568.97
557.98	59496.42
558.15	59384.07
558.32	59421.52
558.48	59547.91
558.65	59512.80
558.81	59627.49
558.98	59590.04
559.14	59395.77
559.31	59744.51
559.47	59678.98
559.64	59861.54
559.80	59660.26
559.97	59737.49
560.13	59711.75
560.30	59896.65
560.46	59877.93
560.63	59758.56
560.79	59786.64
560.96	59962.18
561.12	59901.33
561.29	60076.87
561.45	59927.08
561.61	60009.00
561.78	59948.14
561.94	59913.03
562.11	59924.74
562.27	60001.97
562.44	60119.00
562.60	60111.98
562.77	60058.15
562.93	59784.30
563.10	60140.07
563.26	60055.81
563.42	60236.03
563.59	60001.97
563.75	59934.10
563.92	59966.87
564.08	59952.82
564.24	60123.68
564.41	60221.98
564.57	60149.43
564.74	60097.94
564.90	60020.70
565.07	60046.44
565.23	60060.49
565.39	60111.98
565.56	60369.44
565.72	60491.15
565.88	60259.43
566.05	60163.47
566.21	60156.45
566.38	60184.54
566.54	60367.10
566.70	60285.18
566.87	60617.53
567.03	60308.58
567.19	60519.23
567.36	60404.55
567.52	60285.18
567.68	60664.35
567.85	60399.86
568.01	60533.28
568.17	60336.67
568.34	60605.83
568.50	60444.33
568.66	60179.85
568.83	60460.72
568.99	60624.56
569.15	60449.02
569.32	60495.83
569.48	60341.35
569.64	60392.84
569.81	60486.46
569.97	60385.82
570.13	60458.38
570.30	60355.39
570.46	60739.24
570.62	60629.24
570.78	60477.10
570.95	60451.36
571.11	60622.22
571.27	60594.13
571.43	60767.33
571.60	60603.49
571.76	60697.11
571.92	60657.32
572.09	60561.36
572.25	60793.07
572.41	60617.53
572.57	60783.71
572.74	60924.14
572.90	60526.25
573.06	60587.11
573.22	60542.64
573.38	60764.99
573.55	60673.71
573.71	60877.33
573.87	60631.58
574.03	60399.86
574.20	60844.57
574.36	60760.31
574.52	60793.07
574.68	60811.80
574.84	60837.54
575.01	60949.89
575.17	60643.28
575.33	60654.98
575.49	60776.69
575.65	60811.80
575.82	60846.91
575.98	61006.06
576.14	60977.98
576.30	60879.67
576.46	60837.54
576.62	60856.27
576.79	60849.25
576.95	60795.42
577.11	60521.57
577.27	60795.42
577.43	60699.45
577.59	60886.70
577.75	60715.84
577.92	60851.59
578.08	60877.33
578.24	60697.11
578.40	60931.17
578.56	61116.07
578.72	60858.61
578.88	61120.75
579.04	60994.36
579.21	60779.03
579.37	60966.27
579.53	60938.19
579.69	60748.60
579.85	60764.99
580.01	61036.49
580.17	60898.40
580.33	60985.00
580.49	61113.73
580.65	61043.51
580.82	60584.77
580.98	61043.51
581.14	60912.44
581.30	60963.93
581.46	60945.21
581.62	60907.76
581.78	61006.06
581.94	60872.65
582.10	61022.45
582.26	60907.76
582.42	60987.34
582.58	60928.83
582.74	60891.38
582.90	61001.38
583.06	61043.51
583.22	60851.59
583.38	60973.30
583.54	60980.32
583.70	61020.11
583.86	60992.02
584.02	61013.08
584.18	61169.90
584.34	61099.68
584.50	60940.53
584.66	61106.71
584.82	60945.21
584.98	61029.47
585.14	61193.31
585.30	60938.19
585.46	61097.34
585.62	60940.53
585.78	61193.31
585.94	60907.76
586.10	61153.52
586.26	61013.08
586.42	61226.07
586.58	61125.43
586.74	61141.81
586.90	61186.28
587.06	60985.00
587.22	61249.48
587.38	61261.18
587.54	61553.75
587.70	61268.20
587.86	60982.66
588.02	61137.13
588.18	61291.61
588.34	60977.98
588.49	61205.01
