SpectraSuite Data File
++++++++++++++++++++++++++++++++++++
Date: Fri Oct 25 11:25:55 EDT 2013
User: price-jones
Dark Spectrum Present: No
Reference Spectrum Present: No
Number of Sampled Component Spectra: 1
Spectrometers: USB2+H05261
Integration Time (usec): 100000 (USB2+H05261)
Spectra Averaged: 1 (USB2+H05261)
Boxcar Smoothing: 0 (USB2+H05261)
Correct for Electrical Dark: No (USB2+H05261)
Strobe/Lamp Enabled: No (USB2+H05261)
Correct for Detector Non-linearity: No (USB2+H05261)
Correct for Stray Light: No (USB2+H05261)
Number of Pixels in Processed Spectrum: 2048
>>>>>Begin Processed Spectral Data<<<<<
365.73	285.55
365.92	285.55
366.12	285.55
366.32	156.82
366.52	119.37
366.72	175.54
366.91	131.07
367.11	138.09
367.31	98.30
367.51	173.20
367.70	100.64
367.90	177.88
368.10	93.62
368.30	159.16
368.49	65.54
368.69	229.37
368.89	112.35
369.09	135.75
369.28	203.63
369.48	182.56
369.68	154.48
369.87	205.97
370.07	182.56
370.27	255.12
370.47	271.50
370.66	514.92
370.86	603.86
371.06	669.39
371.25	683.44
371.45	716.20
371.65	662.37
371.84	727.91
372.04	695.14
372.24	697.48
372.44	704.50
372.63	837.91
372.83	732.59
373.03	709.18
373.22	858.98
373.42	748.97
373.62	908.13
373.81	699.82
374.01	779.40
374.21	755.99
374.40	823.87
374.60	851.96
374.79	823.87
374.99	873.02
375.19	889.40
375.38	840.25
375.58	791.10
375.78	830.89
375.97	816.85
376.17	917.49
376.37	954.94
376.56	896.43
376.76	807.48
376.95	957.28
377.15	926.85
377.35	924.51
377.54	952.60
377.74	856.64
377.93	903.45
378.13	964.30
378.33	938.55
378.52	903.45
378.72	985.37
378.91	889.40
379.11	863.66
379.31	940.90
379.50	1001.75
379.70	990.05
379.89	994.73
380.09	968.98
380.28	976.00
380.48	1008.77
380.68	987.71
380.87	966.64
381.07	976.00
381.26	1078.99
381.46	938.55
381.65	1097.71
381.85	1029.84
382.04	1053.24
382.24	1086.01
382.43	1029.84
382.63	1053.24
382.83	1071.97
383.02	1074.31
383.22	1135.16
383.41	1095.37
383.61	1149.20
383.80	1160.91
384.00	1102.39
384.19	1069.62
384.39	1163.25
384.58	1186.65
384.78	1074.31
384.97	1198.35
385.17	1238.14
385.36	1125.80
385.56	1165.59
385.75	1214.74
385.95	1132.82
386.14	1221.76
386.34	1144.52
386.53	1196.01
386.72	1172.61
386.92	1263.89
387.11	1217.08
387.31	1256.87
387.50	1277.93
387.70	1217.08
387.89	1324.74
388.09	1259.21
388.28	1210.06
388.48	1238.14
388.67	1350.49
388.86	1270.91
389.06	1324.74
389.25	1315.38
389.45	1275.59
389.64	1392.62
389.84	1420.71
390.03	1416.02
390.22	1427.73
390.42	1345.81
390.61	1383.26
390.81	1418.36
391.00	1362.19
391.19	1371.55
391.39	1453.47
391.58	1418.36
391.78	1432.41
391.97	1453.47
392.16	1345.81
392.36	1542.41
392.55	1479.22
392.75	1551.78
392.94	1511.99
393.13	1558.80
393.33	1526.03
393.52	1488.58
393.71	1556.46
393.91	1554.12
394.10	1603.27
394.29	1467.52
394.49	1607.95
394.68	1593.90
394.88	1647.74
395.07	1661.78
395.26	1696.89
395.46	1549.43
395.65	1692.21
395.84	1769.44
396.04	1764.76
396.23	1776.47
396.42	1633.69
396.62	1694.55
396.81	1636.03
397.00	1778.81
397.19	1813.92
397.39	1774.13
397.58	1792.85
397.77	1778.81
397.97	1825.62
398.16	1914.56
398.35	1884.13
398.55	1905.20
398.74	1867.75
398.93	1982.43
399.12	1942.64
399.32	1858.39
399.51	1893.49
399.70	2008.18
399.90	1905.20
400.09	1956.69
400.28	1982.43
400.47	1994.14
400.67	1998.82
400.86	2069.03
401.05	2069.03
401.24	2029.24
401.44	2104.14
401.63	2127.55
401.82	2122.87
402.01	2092.44
402.21	2118.18
402.40	2235.21
402.59	2169.68
402.78	2176.70
402.97	2270.32
403.17	2207.13
403.36	2258.62
403.55	2223.51
403.74	2420.11
403.93	2333.51
404.13	2431.82
404.32	2345.22
404.51	2399.05
404.70	2396.71
404.89	2438.84
405.09	2513.74
405.28	2445.86
405.47	2452.88
405.66	2586.29
405.85	2560.55
406.05	2382.67
406.24	2600.34
406.43	2518.42
406.62	2693.96
406.81	2609.70
407.00	2579.27
407.20	2410.75
407.39	2637.78
407.58	2752.47
407.77	2731.41
407.96	2623.74
408.15	2731.41
408.34	2668.21
408.54	2836.73
408.73	2895.24
408.92	2853.11
409.11	2853.11
409.30	2815.66
409.49	2874.18
409.68	2902.26
409.87	2895.24
410.07	3077.80
410.26	3070.78
410.45	2981.84
410.64	2899.92
410.83	3117.59
411.02	3042.70
411.21	3201.85
411.40	3119.93
411.59	3150.36
411.78	3089.51
411.98	3145.68
412.17	3215.90
412.36	3302.50
412.55	3290.79
412.74	3379.73
412.93	3489.74
413.12	3279.09
413.31	3536.55
413.50	3487.40
413.69	3468.67
413.88	3566.98
414.07	3569.32
414.26	3712.09
414.45	3648.90
414.64	3754.22
414.83	3606.77
415.02	3714.43
415.22	3906.35
415.41	3761.24
415.60	3904.01
415.79	3922.74
415.98	3892.31
416.17	3932.10
416.36	3878.27
416.55	3969.55
416.74	3997.64
416.93	4121.68
417.12	4098.28
417.31	4124.02
417.50	4044.45
417.69	4278.50
417.88	4369.78
418.07	4297.22
418.26	4334.67
418.45	4255.09
418.64	4512.55
418.83	4390.84
419.02	4388.50
419.21	4573.41
419.39	4449.36
419.58	4514.89
419.77	4638.94
419.96	4730.22
420.15	4676.39
420.34	4561.70
420.53	4636.60
420.72	4669.37
420.91	4697.46
421.10	4833.21
421.29	4674.05
421.48	4596.81
421.67	4734.90
421.86	4805.12
422.05	4812.14
422.24	4671.71
422.43	4737.24
422.61	4968.96
422.80	4830.87
422.99	4961.94
423.18	4922.15
423.37	4933.85
423.56	5025.13
423.75	4894.06
423.94	4863.63
424.13	4667.03
424.32	4762.99
424.50	5032.15
424.69	4985.34
424.88	5036.83
425.07	4957.25
425.26	4905.76
425.45	4856.61
425.64	4917.47
425.83	4737.24
426.01	5013.43
426.20	4990.02
426.39	5029.81
426.58	4919.81
426.77	5114.07
426.96	5048.54
427.15	5022.79
427.33	5165.56
427.52	4994.70
427.71	5352.81
427.90	5167.90
428.09	5423.02
428.28	5317.70
428.46	5378.55
428.65	5451.11
428.84	5617.29
429.03	5572.82
429.22	5387.91
429.40	5444.09
429.59	5437.06
429.78	5249.82
429.97	5369.19
430.16	5612.60
430.34	5738.99
430.53	5746.02
430.72	5785.80
430.91	5554.09
431.10	5514.30
431.28	5853.68
431.47	6008.16
431.66	5799.85
431.85	5710.91
432.03	5849.00
432.22	6012.84
432.41	5996.45
432.60	5937.94
432.79	5827.93
432.97	5996.45
433.16	6003.47
433.35	5991.77
433.54	6031.56
433.72	6139.23
433.91	6235.19
434.10	6171.99
434.28	6223.48
434.47	6104.12
434.66	6312.42
434.85	6171.99
435.03	6221.14
435.22	6298.38
435.41	6328.81
435.59	6408.39
435.78	6321.79
435.97	6499.67
436.16	6490.31
436.34	6274.98
436.53	6654.14
436.72	6726.70
436.90	6429.45
437.09	6888.20
437.28	6525.41
437.46	6464.56
437.65	6569.88
437.84	6820.32
438.02	6626.06
438.21	6710.32
438.40	6717.34
438.58	6836.70
438.77	7054.37
438.96	7009.90
439.14	7014.59
439.33	7272.04
439.52	7208.85
439.70	7148.00
439.89	7536.52
440.08	7248.64
440.26	7510.78
440.45	7323.54
440.63	7473.33
440.82	7618.44
441.01	7618.44
441.19	7506.10
441.38	7723.77
441.57	7688.66
441.75	7552.91
441.94	7843.14
442.12	7913.35
442.31	7822.07
442.50	8060.80
442.68	8088.89
442.87	7822.07
443.05	8100.59
443.24	8128.68
443.43	8299.54
443.61	8341.67
443.80	8358.05
443.98	8119.32
444.17	7971.86
444.35	8039.74
444.54	8299.54
444.73	8280.82
444.91	8334.65
445.10	8358.05
445.28	8264.43
445.47	8226.98
445.65	8290.18
445.84	8517.21
446.02	8362.73
446.21	8407.20
446.39	8292.52
446.58	8374.44
446.77	8514.87
446.95	8152.09
447.14	8475.08
447.32	8514.87
447.51	8514.87
447.69	8304.22
447.88	8643.60
448.06	8514.87
448.25	8432.95
448.43	8479.76
448.62	8734.88
448.80	8547.64
448.99	8667.00
449.17	8746.58
449.36	8463.38
449.54	8961.91
449.73	8922.12
449.91	9081.28
450.10	8926.80
450.28	9046.17
450.46	9259.16
450.65	9102.34
450.83	8971.27
451.02	8826.16
451.20	9231.07
451.39	9277.88
451.57	9034.47
451.76	9034.47
451.94	9280.22
452.13	9252.14
452.31	9235.75
452.49	9132.77
452.68	9453.42
452.86	9369.16
453.05	9427.68
453.23	9437.04
453.42	9338.74
453.60	9228.73
453.78	9631.30
453.97	9479.17
454.15	9516.62
454.34	9525.98
454.52	9895.78
454.70	9514.28
454.89	9664.07
455.07	9760.03
455.26	9811.53
455.44	9834.93
455.62	9902.81
455.81	9879.40
455.99	9900.47
456.17	10061.96
456.36	10214.10
456.54	10171.97
456.73	10139.20
456.91	10186.01
457.09	10363.89
457.28	10523.05
457.46	10160.27
457.64	10597.95
457.83	10438.79
458.01	10523.05
458.19	10611.99
458.38	10609.65
458.56	10698.59
458.74	10679.86
458.93	10546.45
459.11	10665.82
459.29	10654.12
459.48	10841.36
459.66	10626.03
459.84	10846.04
460.03	10895.19
460.21	11077.76
460.39	11052.01
460.57	10876.47
460.76	11173.72
460.94	11075.42
461.12	11044.99
461.31	11162.01
461.49	11105.84
461.67	10970.09
461.85	11342.24
462.04	11262.66
462.22	11789.28
462.40	11679.27
462.59	11382.03
462.77	11566.93
462.95	11737.79
463.13	11688.64
463.32	11749.49
463.50	11690.98
463.68	11707.36
463.86	11859.49
464.05	11599.70
464.23	11634.80
464.41	11749.49
464.59	11709.70
464.78	12039.72
464.96	11845.45
465.14	11812.68
465.32	11918.01
465.50	12152.06
465.69	12058.44
465.87	12154.40
466.05	12093.55
466.23	12037.38
466.41	12365.05
466.60	12367.39
466.78	12086.53
466.96	12194.19
467.14	12285.47
467.32	12273.77
467.51	12507.82
467.69	11908.65
467.87	12428.24
468.05	12505.48
468.23	12556.97
468.41	12374.41
468.60	12697.41
468.78	12554.63
468.96	12521.87
469.14	12788.69
469.32	12842.52
469.50	12498.46
469.69	12894.01
469.87	12945.50
470.05	13181.90
470.23	13205.30
470.41	13111.68
470.59	13240.41
470.77	13006.36
470.95	13277.86
471.14	13621.92
471.32	13146.79
471.50	13247.43
471.68	13591.49
471.86	13472.12
472.04	13848.95
472.22	13654.69
472.40	13692.13
472.58	13844.27
472.77	13970.66
472.95	13989.38
473.13	14523.02
473.31	14033.85
473.49	14272.59
473.67	14139.18
473.85	14312.38
474.03	14410.68
474.21	14663.46
474.39	14841.34
474.57	14668.14
474.75	14778.14
474.93	14899.85
475.12	14927.94
475.30	14981.77
475.48	14974.75
475.66	15241.57
475.84	15059.01
476.02	15276.68
476.20	15360.94
476.38	15644.14
476.56	15810.32
476.74	15786.91
476.92	15875.85
477.10	15967.13
477.28	16201.19
477.46	16222.25
477.64	16414.18
477.82	16489.07
478.00	16854.20
478.18	16943.14
478.36	16954.84
478.54	16987.61
478.72	17139.74
478.90	17280.18
479.08	17596.15
479.26	17394.86
479.44	18001.06
479.62	17809.14
479.80	17715.51
479.98	18185.96
480.16	18752.37
480.34	18068.94
480.52	18637.69
480.70	18508.96
480.88	18513.64
481.06	18682.16
481.24	18757.05
481.41	19026.21
481.59	19171.33
481.77	19454.53
481.95	19332.82
482.13	19740.08
482.31	19609.01
482.49	20018.60
482.67	20051.37
482.85	20123.93
483.03	20690.34
483.21	20959.50
483.39	20765.23
483.57	20329.89
483.74	20924.39
483.92	21256.75
484.10	21350.37
484.28	21179.51
484.46	22089.98
484.64	22178.92
484.82	22057.21
485.00	22080.61
485.18	22724.26
485.35	23276.63
485.53	22419.99
485.71	22998.10
485.89	23349.18
486.07	23227.48
486.25	23281.31
486.43	23391.31
486.61	23878.15
486.78	24170.71
486.96	24191.78
487.14	24386.04
487.32	24926.71
487.50	24730.10
487.68	24877.55
487.85	24891.60
488.03	25245.02
488.21	25603.12
488.39	25685.04
488.57	26206.98
488.75	25834.83
488.92	26328.69
489.10	26693.81
489.28	26513.59
489.46	26834.24
489.64	26874.03
489.81	27751.73
489.99	27660.45
490.17	27662.79
490.35	28350.91
490.53	28109.83
490.70	28219.84
490.88	28329.84
491.06	28877.53
491.24	28613.05
491.41	28922.00
491.59	29102.22
491.77	29001.58
491.95	29516.50
492.13	29205.20
492.30	29956.52
492.48	30036.09
492.66	30033.75
492.84	30370.79
493.01	30782.73
493.19	30576.76
493.37	31065.93
493.54	31042.53
493.72	31402.97
493.90	31367.86
494.08	31630.00
494.25	31903.84
494.43	32203.43
494.61	31842.99
494.79	32112.15
494.96	32222.16
495.14	32751.12
495.32	32975.81
495.49	33001.55
495.67	32940.70
495.85	33310.50
496.02	33778.61
496.20	33757.55
496.38	34022.03
496.55	33947.13
496.73	34869.30
496.91	34359.06
497.09	34843.56
497.26	35246.13
497.44	34911.43
497.62	35189.95
497.79	35913.18
497.97	35147.82
498.14	35634.66
498.32	35793.81
498.50	35889.77
498.67	36187.02
498.85	36339.16
499.03	36938.33
499.20	36385.97
499.38	36765.14
499.56	37036.64
499.73	36804.92
499.91	37090.47
500.08	37247.29
500.26	37125.58
500.44	37841.78
500.61	37738.80
500.79	37673.26
500.97	37626.45
501.14	38529.90
501.32	38281.80
501.49	38653.95
501.67	38712.46
501.84	38780.34
502.02	38506.49
502.20	38745.23
502.37	39138.44
502.55	39225.04
502.72	39512.92
502.90	39196.95
503.07	39660.38
503.25	39772.72
503.43	39725.91
503.60	39950.60
503.78	39835.92
503.95	40346.15
504.13	40231.47
504.30	40488.93
504.48	40322.75
504.65	40484.25
504.83	41139.60
505.01	41223.86
505.18	41155.98
505.36	41521.10
505.53	41212.15
505.71	41301.09
505.88	41294.07
506.06	41425.14
506.23	41748.14
506.41	41518.76
506.58	41886.23
506.76	42150.71
506.93	42462.00
507.11	42103.90
507.28	42429.23
507.46	42618.81
507.63	43065.86
507.81	42752.23
507.98	43243.74
508.16	42738.18
508.33	43356.08
508.50	43419.28
508.68	43704.82
508.85	43889.73
509.03	43784.40
509.20	43824.19
509.38	44158.89
509.55	44016.11
509.73	43945.90
509.90	44624.65
510.08	44186.97
510.25	44914.88
510.42	44582.52
510.60	45104.46
510.77	45462.57
510.95	45158.30
511.12	45031.91
511.30	44987.44
511.47	45265.96
511.64	45413.41
511.82	45619.38
511.99	45675.55
512.17	45621.72
512.34	45539.80
512.51	46349.63
512.69	46122.60
512.86	46300.48
513.04	46309.84
513.21	46272.39
513.38	46972.21
513.56	46855.18
513.73	46375.37
513.90	46710.07
514.08	46958.17
514.25	46838.80
514.43	47367.76
514.60	47117.32
514.77	47292.86
514.95	47744.59
515.12	47466.06
515.29	47805.44
515.47	47665.01
515.64	47688.42
515.81	47716.50
515.99	48086.31
516.16	48343.77
516.33	48257.17
516.51	48699.53
516.68	48266.53
516.85	48205.67
517.03	48486.54
517.20	48886.77
517.37	48814.21
517.54	48697.19
517.72	48781.45
517.89	48505.26
518.06	49256.57
518.24	49422.75
518.41	49123.16
518.58	49148.91
518.75	49022.52
518.93	49076.35
519.10	49205.08
519.27	49703.62
519.45	49509.35
519.62	50047.68
519.79	49771.49
519.96	49645.10
520.14	50028.95
520.31	50176.40
520.48	50085.12
520.65	49991.50
520.83	50328.54
521.00	50468.97
521.17	50401.10
521.34	50305.13
521.52	50721.75
521.69	50583.66
521.86	50944.10
522.03	50789.62
522.20	51529.23
522.38	51222.62
522.55	51267.09
522.72	51168.79
522.89	51370.08
523.07	51391.14
523.24	51243.69
523.41	51615.83
523.58	51550.30
523.75	51557.32
523.92	51545.62
524.10	51973.94
524.27	51693.07
524.44	51821.80
524.61	51950.53
524.78	52051.17
524.96	52289.91
525.13	52058.20
525.30	52451.41
525.47	52631.63
525.64	52416.30
525.81	52486.51
525.98	52456.09
526.16	52631.63
526.33	52353.10
526.50	52750.99
526.67	52388.21
526.84	52886.74
527.01	53031.86
527.18	52460.77
527.36	53010.79
527.53	53081.01
527.70	53298.68
527.87	53006.11
528.04	53176.97
528.21	53364.21
528.38	53111.44
528.55	53602.95
528.72	53270.59
528.89	53338.47
529.07	53202.72
529.24	53352.51
529.41	53469.54
529.58	53478.90
529.75	53535.07
529.92	53448.47
530.09	53867.43
530.26	53942.33
530.43	53921.26
530.60	53565.50
530.77	53591.25
530.94	54014.88
531.11	54021.90
531.28	54167.02
531.46	54167.02
531.63	54134.25
531.80	53886.15
531.97	54415.11
532.14	54536.82
532.31	54225.53
532.48	54204.47
532.65	54433.84
532.82	54459.58
532.99	54527.46
533.16	54492.35
533.33	54759.17
533.50	54941.74
533.67	54693.64
533.84	54611.72
534.01	55021.31
534.18	54899.61
534.35	55030.68
534.52	54897.27
534.69	55189.83
534.86	54953.44
535.03	54981.52
535.20	55061.10
535.37	55423.89
535.54	55227.28
535.71	55386.44
535.88	55428.57
536.05	55601.77
536.22	55634.53
536.38	55552.62
536.55	55150.04
536.72	55175.79
536.89	55377.08
537.06	55531.55
537.23	55676.66
537.40	55543.25
537.57	55625.17
537.74	55576.02
537.91	56069.87
538.08	55725.81
538.25	55791.35
538.42	55990.30
538.59	56086.26
538.75	55735.18
538.92	56069.87
539.09	56233.71
539.26	56095.62
539.43	56018.38
539.60	56296.91
539.77	56243.07
539.94	56629.26
540.11	56229.03
540.28	56453.72
540.44	56217.33
540.61	56537.98
540.78	56374.14
540.95	56238.39
541.12	56292.22
541.29	56329.67
541.46	56388.19
541.62	56467.76
541.79	56704.16
541.96	56287.54
542.13	56655.01
542.30	56416.27
542.47	56823.53
542.63	57050.56
542.80	56774.37
542.97	57036.51
543.14	57183.97
543.31	56982.68
543.48	57120.77
543.64	57488.24
543.81	57073.96
543.98	57073.96
544.15	57411.00
544.32	57195.67
544.48	57429.72
544.65	57380.57
544.82	57251.84
544.99	57190.99
545.16	57403.98
545.32	57209.71
545.49	57626.33
545.66	57736.34
545.83	57628.67
546.00	57701.23
546.16	57609.95
546.33	57546.75
546.50	57373.55
546.67	57525.69
546.83	57425.04
547.00	57539.73
547.17	57656.76
547.34	57907.19
547.50	57925.92
547.67	58164.65
547.84	57888.47
548.00	57869.75
548.17	58099.12
548.34	57904.85
548.51	57993.79
548.67	57982.09
548.84	58131.89
549.01	57928.26
549.18	58159.97
549.34	58192.74
549.51	58108.48
549.68	58293.38
549.84	58209.12
550.01	58309.77
550.18	58131.89
550.34	58309.77
550.51	58585.95
550.68	58288.70
550.84	58321.47
551.01	58445.52
551.18	58405.73
551.34	58450.20
551.51	58351.90
551.68	58534.46
551.84	58539.14
552.01	58618.72
552.18	58595.31
552.34	58478.28
552.51	58466.58
552.68	58501.69
552.84	58599.99
553.01	58944.05
553.18	58735.74
553.34	58756.81
553.51	58515.73
553.67	58944.05
553.84	58899.58
554.01	58918.31
554.17	58824.68
554.34	58742.77
554.51	58834.05
554.67	59161.72
554.84	58953.41
555.00	58995.54
555.17	58794.26
555.33	58993.20
555.50	58721.70
555.67	58838.73
555.83	58941.71
556.00	59135.98
556.16	59159.38
556.33	59131.29
556.50	58960.44
556.66	59334.92
556.83	59110.23
556.99	59175.76
557.16	59323.22
557.32	59498.76
557.49	59346.62
557.65	59100.87
557.82	59208.53
557.98	59157.04
558.15	59297.47
558.32	59491.74
558.48	59299.81
558.65	59449.61
558.81	59159.38
558.98	59348.96
559.14	59629.83
559.31	59618.13
559.47	59627.49
559.64	59545.57
559.80	59718.77
559.97	59545.57
560.13	59564.29
560.30	59725.79
560.46	59702.38
560.63	59772.60
560.79	59739.83
560.96	59751.54
561.12	59732.81
561.29	59934.10
561.45	59929.42
561.61	59707.07
561.78	59695.36
561.94	59667.28
562.11	59800.69
562.27	59835.80
562.44	59800.69
562.60	60051.12
562.77	59742.17
562.93	59494.08
563.10	60076.87
563.26	59891.97
563.42	60111.98
563.59	59903.67
563.75	59980.91
563.92	59952.82
564.08	59950.48
564.24	60053.47
564.41	60046.44
564.57	59931.76
564.74	59817.07
564.90	59838.14
565.07	60207.94
565.23	60102.62
565.39	59908.35
565.56	60034.74
565.72	60051.12
565.88	60034.74
566.05	59934.10
566.21	60053.47
566.38	60076.87
566.54	60266.45
566.70	60252.41
566.87	60350.71
567.03	60186.88
567.19	60374.12
567.36	60163.47
567.52	60140.07
567.68	60650.30
567.85	60329.65
568.01	60406.89
568.17	60107.30
568.34	60367.10
568.50	60126.02
568.66	60240.71
568.83	60341.35
568.99	60243.05
569.15	60233.69
569.32	60355.39
569.48	60406.89
569.64	60404.55
569.81	60324.97
569.97	60268.79
570.13	60343.69
570.30	60376.46
570.46	60383.48
570.62	60470.08
570.78	60479.44
570.95	60406.89
571.11	60423.27
571.27	60441.99
571.43	60512.21
571.60	60563.70
571.76	60219.64
571.92	60484.12
572.09	60453.70
572.25	60563.70
572.41	60591.79
572.57	60357.74
572.74	60629.24
572.90	60563.70
573.06	60603.49
573.22	60617.53
573.38	60542.64
573.55	60381.14
573.71	60767.33
573.87	60776.69
574.03	60467.74
574.20	60694.77
574.36	60542.64
574.52	60757.97
574.68	60624.56
574.84	60818.82
575.01	60701.79
575.17	60669.03
575.33	60603.49
575.49	60507.53
575.65	60608.17
575.82	60814.14
575.98	60809.46
576.14	60886.70
576.30	60715.84
576.46	60566.04
576.62	60416.25
576.79	60650.30
576.95	60523.91
577.11	60786.05
577.27	60797.76
577.43	60781.37
577.59	60757.97
577.75	60626.90
577.92	60685.41
578.08	60631.58
578.24	60626.90
578.40	61010.74
578.56	60954.57
578.72	60774.35
578.88	60879.67
579.04	60830.52
579.21	60762.65
579.37	60884.36
579.53	60804.78
579.69	60608.17
579.85	60633.92
580.01	60830.52
580.17	60491.15
580.33	60938.19
580.49	60645.62
580.65	60706.47
580.82	60844.57
580.98	60715.84
581.14	60566.04
581.30	61006.06
581.46	60776.69
581.62	60963.93
581.78	60750.94
581.94	60942.87
582.10	60788.39
582.26	60870.31
582.42	60772.01
582.58	60928.83
582.74	60802.44
582.90	60743.92
583.06	60790.73
583.22	60837.54
583.38	60907.76
583.54	60760.31
583.70	60860.95
583.86	60963.93
584.02	60835.20
584.18	61020.11
584.34	60762.65
584.50	60811.80
584.66	60949.89
584.82	60619.88
584.98	60992.02
585.14	60949.89
585.30	60968.61
585.46	60931.17
585.62	60769.67
585.78	60959.25
585.94	60793.07
586.10	60952.23
586.26	60858.61
586.42	61001.38
586.58	60996.70
586.74	60757.97
586.90	60966.27
587.06	61006.06
587.22	61020.11
587.38	60931.17
587.54	60963.93
587.70	61137.13
587.86	60746.26
588.02	60828.18
588.18	61123.09
588.34	60797.76
588.49	61020.11
