SpectraSuite Data File
++++++++++++++++++++++++++++++++++++
Date: Fri Oct 25 10:44:20 EDT 2013
User: price-jones
Dark Spectrum Present: No
Reference Spectrum Present: No
Number of Sampled Component Spectra: 1
Spectrometers: USB2+H05261
Integration Time (usec): 100000 (USB2+H05261)
Spectra Averaged: 1 (USB2+H05261)
Boxcar Smoothing: 0 (USB2+H05261)
Correct for Electrical Dark: No (USB2+H05261)
Strobe/Lamp Enabled: No (USB2+H05261)
Correct for Detector Non-linearity: No (USB2+H05261)
Correct for Stray Light: No (USB2+H05261)
Number of Pixels in Processed Spectrum: 2048
>>>>>Begin Processed Spectral Data<<<<<
365.73	145.11
365.92	145.11
366.12	145.11
366.32	28.09
366.52	0.00
366.72	60.85
366.91	25.75
367.11	58.51
367.31	14.04
367.51	0.00
367.70	0.00
367.90	77.24
368.10	70.22
368.30	18.72
368.49	9.36
368.69	37.45
368.89	7.02
369.09	58.51
369.28	74.90
369.48	42.13
369.68	70.22
369.87	70.22
370.07	110.01
370.27	184.90
370.47	208.31
370.66	383.85
370.86	360.44
371.06	486.83
371.25	582.79
371.45	505.56
371.65	486.83
371.84	493.85
372.04	498.53
372.24	531.30
372.44	507.90
372.63	507.90
372.83	449.38
373.03	566.41
373.22	444.70
373.42	538.32
373.62	535.98
373.81	592.16
374.01	575.77
374.21	557.05
374.40	514.92
374.60	582.79
374.79	624.92
374.99	601.52
375.19	613.22
375.38	599.18
375.58	589.82
375.78	559.39
375.97	620.24
376.17	650.67
376.37	533.64
376.56	650.67
376.76	655.35
376.95	624.92
377.15	641.31
377.35	683.44
377.54	634.29
377.74	681.10
377.93	688.12
378.13	692.80
378.33	650.67
378.52	678.76
378.72	624.92
378.91	697.48
379.11	638.97
379.31	685.78
379.50	695.14
379.70	751.31
379.89	741.95
380.09	725.57
380.28	660.03
380.48	734.93
380.68	648.33
380.87	702.16
381.07	697.48
381.26	744.29
381.46	786.42
381.65	720.88
381.85	753.65
382.04	671.73
382.24	638.97
382.43	690.46
382.63	720.88
382.83	641.31
383.02	788.76
383.22	758.33
383.41	784.08
383.61	767.70
383.80	816.85
384.00	837.91
384.19	748.97
384.39	805.14
384.58	830.89
384.78	851.96
384.97	863.66
385.17	772.38
385.36	788.76
385.56	844.93
385.75	812.17
385.95	779.40
386.14	891.74
386.34	894.08
386.53	840.25
386.72	889.40
386.92	842.59
387.11	868.34
387.31	851.96
387.50	868.34
387.70	919.83
387.89	922.17
388.09	858.98
388.28	896.43
388.48	992.39
388.67	987.71
388.86	924.51
389.06	985.37
389.25	1008.77
389.45	1025.15
389.64	990.05
389.84	1008.77
390.03	1074.31
390.22	976.00
390.42	1046.22
390.61	1020.47
390.81	985.37
391.00	1036.86
391.19	1011.11
391.39	1130.48
391.58	1064.94
391.78	1046.22
391.97	1062.60
392.16	1090.69
392.36	1067.28
392.55	1004.09
392.75	1090.69
392.94	964.30
393.13	1008.77
393.33	1097.71
393.52	1064.94
393.71	1093.03
393.91	1153.88
394.10	1137.50
394.29	1235.80
394.49	1231.12
394.68	1273.25
394.88	1249.85
395.07	1324.74
395.26	1240.48
395.46	1287.29
395.65	1336.45
395.84	1355.17
396.04	1296.66
396.23	1200.69
396.42	1245.16
396.62	1231.12
396.81	1359.85
397.00	1254.53
397.19	1299.00
397.39	1336.45
397.58	1493.26
397.77	1448.79
397.97	1458.15
398.16	1521.35
398.35	1528.37
398.55	1565.82
398.74	1509.65
398.93	1603.27
399.12	1493.26
399.32	1643.06
399.51	1533.05
399.70	1629.01
399.90	1640.72
400.09	1687.53
400.28	1732.00
400.47	1687.53
400.67	1710.93
400.86	1736.68
401.05	1783.49
401.24	1769.44
401.44	1659.44
401.63	1743.70
401.82	1802.21
402.01	1748.38
402.21	1795.19
402.40	1952.01
402.59	1816.26
402.78	1860.73
402.97	1954.35
403.17	1956.69
403.36	1884.13
403.55	1820.94
403.74	1860.73
403.93	1956.69
404.13	2015.20
404.32	1823.28
404.51	1870.09
404.70	2003.50
404.89	1949.67
405.09	2040.95
405.28	1998.82
405.47	2052.65
405.66	2188.40
405.85	2043.29
406.05	2059.67
406.24	2125.21
406.43	2101.80
406.62	2209.47
406.81	2150.95
407.00	2193.08
407.20	2165.00
407.39	2052.65
407.58	2225.85
407.77	2272.66
407.96	2366.28
408.15	2427.14
408.34	2282.02
408.54	2396.71
408.73	2392.03
408.92	2380.32
409.11	2438.84
409.30	2321.81
409.49	2394.37
409.68	2340.54
409.87	2347.56
410.07	2368.62
410.26	2401.39
410.45	2450.54
410.64	2497.35
410.83	2626.08
411.02	2541.82
411.21	2597.99
411.40	2745.45
411.59	2588.63
411.78	2605.02
411.98	2754.81
412.17	2679.91
412.36	2876.52
412.55	2810.98
412.74	2846.09
412.93	2789.92
413.12	2836.73
413.31	2925.67
413.50	2897.58
413.69	2958.44
413.88	2904.60
414.07	3133.98
414.26	3101.21
414.45	3094.19
414.64	3110.57
414.83	3150.36
415.02	3169.09
415.22	3206.53
415.41	3124.62
415.60	3344.63
415.79	3332.92
415.98	3353.99
416.17	3485.06
416.36	3330.58
416.55	3353.99
416.74	3344.63
416.93	3435.91
417.12	3421.86
417.31	3321.22
417.50	3428.88
417.69	3562.30
417.88	3597.40
418.07	3557.61
418.26	3494.42
418.45	3618.47
418.64	3684.00
418.83	3763.58
419.02	3735.50
419.21	3646.55
419.39	3770.60
419.58	3625.49
419.77	3686.34
419.96	3777.62
420.15	3707.41
420.34	3854.86
420.53	3911.04
420.72	3999.98
420.91	4086.58
421.10	4049.13
421.29	4049.13
421.48	3899.33
421.67	4044.45
421.86	3962.53
422.05	3845.50
422.24	3756.56
422.43	3901.67
422.61	4056.15
422.80	4098.28
422.99	4074.87
423.18	4086.58
423.37	4135.73
423.56	4016.36
423.75	3971.89
423.94	3988.27
424.13	3684.00
424.32	3763.58
424.50	4098.28
424.69	4079.55
424.88	4201.26
425.07	3990.61
425.26	4037.42
425.45	4063.17
425.64	4030.40
425.83	3985.93
426.01	4037.42
426.20	4098.28
426.39	4060.83
426.58	3957.85
426.77	4053.81
426.96	4112.32
427.15	4145.09
427.33	4264.46
427.52	4145.09
427.71	4262.12
427.90	4344.03
428.09	4145.09
428.28	4243.39
428.46	4334.67
428.65	4161.47
428.84	4561.70
429.03	4334.67
429.22	4177.86
429.40	4320.63
429.59	4278.50
429.78	4217.65
429.97	4030.40
430.16	4166.15
430.34	4234.03
430.53	4329.99
430.72	4325.31
430.91	4374.46
431.10	4468.08
431.28	4552.34
431.47	4762.99
431.66	4713.84
431.85	4865.97
432.03	4875.34
432.22	4837.89
432.41	4908.10
432.60	4863.63
432.79	4851.93
432.97	4851.93
433.16	4849.59
433.35	4746.61
433.54	4807.46
433.72	4755.97
433.91	4788.74
434.10	4868.31
434.28	4802.78
434.47	4924.49
434.66	5001.72
434.85	5001.72
435.03	4945.55
435.22	5165.56
435.41	5404.30
435.59	5224.08
435.78	5158.54
435.97	5350.46
436.16	5345.78
436.34	5301.31
436.53	5350.46
436.72	5502.60
436.90	5224.08
437.09	5287.27
437.28	5308.34
437.46	5423.02
437.65	5362.17
437.84	5371.53
438.02	5247.48
438.21	5350.46
438.40	5296.63
438.58	5406.64
438.77	5729.63
438.96	5678.14
439.14	5881.77
439.33	5678.14
439.52	5818.57
439.70	5851.34
439.89	5877.09
440.08	5916.87
440.26	5998.79
440.45	5778.78
440.63	6029.22
440.82	5959.00
441.01	6164.97
441.19	6193.06
441.38	6338.17
441.57	6331.15
441.75	6413.07
441.94	6380.30
442.12	6394.34
442.31	6604.99
442.50	6637.76
442.68	6637.76
442.87	6487.96
443.05	6569.88
443.24	6722.02
443.43	6576.91
443.61	6686.91
443.80	6841.39
443.98	6717.34
444.17	6448.18
444.35	6736.06
444.54	6803.94
444.73	6827.34
444.91	6789.89
445.10	6736.06
445.28	6628.40
445.47	6586.27
445.65	6502.01
445.84	6803.94
446.02	6801.60
446.21	6862.45
446.39	6874.15
446.58	6860.11
446.77	6904.58
446.95	6848.41
447.14	6724.36
447.32	6902.24
447.51	6942.03
447.69	6981.82
447.88	6984.16
448.06	7054.37
448.25	6942.03
448.43	7056.72
448.62	6904.58
448.80	7145.66
448.99	7063.74
449.17	7194.81
449.36	6942.03
449.54	7180.76
449.73	7386.73
449.91	7389.07
450.10	7339.92
450.28	7358.64
450.46	7452.27
450.65	7283.75
450.83	7627.81
451.02	7335.24
451.20	7592.70
451.39	7435.88
451.57	7426.52
451.76	7269.70
451.94	7426.52
452.13	7379.71
452.31	7627.81
452.49	7197.15
452.68	7452.27
452.86	7316.51
453.05	7386.73
453.23	7679.30
453.42	7545.89
453.60	7588.02
453.78	7641.85
453.97	7777.60
454.15	7562.27
454.34	7634.83
454.52	7679.30
454.70	7803.35
454.89	7669.94
455.07	7709.72
455.26	7997.61
455.44	7894.63
455.62	7988.25
455.81	8145.06
455.99	7845.48
456.17	8018.68
456.36	8194.22
456.54	8159.11
456.73	8264.43
456.91	8325.29
457.09	8294.86
457.28	8526.57
457.46	8060.80
457.64	8496.14
457.83	8365.07
458.01	8315.92
458.19	8493.80
458.38	8526.57
458.56	8451.67
458.74	8592.11
458.93	8643.60
459.11	8528.91
459.29	8564.02
459.48	8435.29
459.66	8685.73
459.84	8697.43
460.03	8957.23
460.21	8854.25
460.39	8695.09
460.57	8659.98
460.76	9001.70
460.94	8931.48
461.12	8894.04
461.31	8952.55
461.49	8823.82
461.67	8896.38
461.85	9060.21
462.04	9083.62
462.22	9188.94
462.40	9074.26
462.59	9097.66
462.77	9188.94
462.95	9320.01
463.13	9062.55
463.32	9195.96
463.50	9270.86
463.68	9437.04
463.86	9301.29
464.05	9095.32
464.23	9224.05
464.41	9392.57
464.59	9111.71
464.78	9437.04
464.96	9413.63
465.14	9329.38
465.32	9600.88
465.50	9680.46
465.69	9776.42
465.87	9533.00
466.05	9423.00
466.23	9425.34
466.41	9521.30
466.60	9528.32
466.78	9352.78
466.96	9366.82
467.14	9558.75
467.32	9720.24
467.51	9731.95
467.69	9575.13
467.87	9563.43
468.05	9778.76
468.23	9549.39
468.41	9645.35
468.60	9837.27
468.78	9788.12
468.96	9764.72
469.14	9998.77
469.32	10068.98
469.50	9851.31
469.69	10097.07
469.87	10118.14
470.05	10076.01
470.23	10003.45
470.41	10097.07
470.59	10387.30
470.77	10279.63
470.95	10228.14
471.14	10457.51
471.32	10211.76
471.50	10560.50
471.68	10436.45
471.86	10633.05
472.04	10939.66
472.22	10920.94
472.40	10415.38
472.58	10930.30
472.77	10752.42
472.95	11073.07
473.13	11265.00
473.31	10609.65
473.49	10799.23
473.67	11002.86
473.85	11033.29
474.03	11328.19
474.21	11480.33
474.39	11250.96
474.57	11463.94
474.75	11648.85
474.93	11246.27
475.12	11641.82
475.30	11618.42
475.48	11501.39
475.66	11426.50
475.84	11765.87
476.02	11920.35
476.20	11468.62
476.38	11896.94
476.56	12318.24
476.74	12238.66
476.92	12105.25
477.10	12294.83
477.28	12409.52
477.46	12446.97
477.64	12725.49
477.82	12823.80
478.00	13146.79
478.18	12884.65
478.36	12823.80
478.54	13011.04
478.72	12973.59
478.90	13334.03
479.08	13509.57
479.26	13476.80
479.44	13563.40
479.62	13710.86
479.80	13628.94
479.98	13624.26
480.16	14244.50
480.34	13858.31
480.52	14169.60
480.70	14368.55
480.88	13841.93
481.06	14281.95
481.24	14494.94
481.41	14586.22
481.59	14949.00
481.77	14916.23
481.95	14719.63
482.13	15007.52
482.31	15274.34
482.49	15169.01
482.67	15321.15
482.85	15597.33
483.03	15594.99
483.21	15915.64
483.39	15679.25
483.57	15985.86
483.74	16215.23
483.92	16250.34
484.10	16222.25
484.28	16512.48
484.46	16554.61
484.64	16851.86
484.82	16386.09
485.00	16734.83
485.18	16842.50
485.35	16830.79
485.53	16624.83
485.71	16620.14
485.89	16926.75
486.07	16879.94
486.25	17242.73
486.43	17289.54
486.61	17565.72
486.78	17724.88
486.96	17858.29
487.14	18115.75
487.32	18492.57
487.50	18326.39
487.68	18551.09
487.85	18700.88
488.03	18883.44
488.21	18761.73
488.39	18759.39
488.57	19035.58
488.75	19267.29
488.92	19791.57
489.10	19810.29
489.28	20039.67
489.46	20308.83
489.64	20177.76
489.81	20524.16
489.99	20978.22
490.17	21050.78
490.35	20823.75
490.53	20851.83
490.70	20849.49
490.88	21301.22
491.06	21270.79
491.24	21254.40
491.41	21160.78
491.59	21593.78
491.77	21596.12
491.95	21441.65
492.13	21900.39
492.30	21895.71
492.48	22284.24
492.66	22604.89
492.84	22307.65
493.01	22581.49
493.19	22750.01
493.37	22761.71
493.54	23349.18
493.72	23194.71
493.90	23190.03
494.08	23660.48
494.25	23845.38
494.43	23854.74
494.61	23779.84
494.79	23967.09
494.96	23908.57
495.14	23873.46
495.32	24184.76
495.49	24336.89
495.67	24247.95
495.85	24748.82
496.02	24999.26
496.20	24980.54
496.38	24900.96
496.55	25242.68
496.73	25785.68
496.91	25607.80
497.09	25860.58
497.26	25563.33
497.44	25734.19
497.62	25778.66
497.79	25766.96
497.97	25603.12
498.14	26300.60
498.32	26331.03
498.50	26103.99
498.67	26478.48
498.85	26876.37
499.03	26799.13
499.20	27005.10
499.38	26930.20
499.56	27236.81
499.73	26962.97
499.91	27292.99
500.08	27281.28
500.26	27229.79
500.44	27426.40
500.61	27363.20
500.79	27384.27
500.97	27550.45
501.14	27962.38
501.32	27899.19
501.49	28020.89
501.67	27564.49
501.84	28376.66
502.02	27896.85
502.20	28535.81
502.37	28613.05
502.55	28666.88
502.72	28872.85
502.90	29043.71
503.07	28432.83
503.25	28884.55
503.43	28725.39
503.60	29090.52
503.78	28617.73
503.95	28790.93
504.13	29186.48
504.30	29214.57
504.48	29563.31
504.65	29619.48
504.83	29860.55
505.01	30211.64
505.18	29898.00
505.36	30094.61
505.53	30258.45
505.71	30256.11
505.88	30740.60
506.06	30232.70
506.23	30335.68
506.41	30354.41
506.58	30539.31
506.76	30361.43
506.93	30799.11
507.11	30916.14
507.28	31096.36
507.46	31154.87
507.63	30874.01
507.81	31255.51
507.98	30466.75
508.16	30792.09
508.33	31732.98
508.50	31531.70
508.68	31704.90
508.85	31824.26
509.03	31740.00
509.20	31655.75
509.38	31908.52
509.55	31894.48
509.73	32055.98
509.90	31842.99
510.08	31763.41
510.25	31763.41
510.42	32156.62
510.60	32692.60
510.77	32477.27
510.95	32961.76
511.12	32634.09
511.30	32374.29
511.47	33191.14
511.64	33198.16
511.82	33120.92
511.99	33174.75
512.17	33338.59
512.34	33394.76
512.51	33158.37
512.69	33535.20
512.86	33411.15
513.04	33645.20
513.21	33055.39
513.38	33589.03
513.56	33715.42
513.73	33378.38
513.90	33968.19
514.08	33860.53
514.25	34036.07
514.43	33954.15
514.60	33848.83
514.77	34026.71
514.95	34253.74
515.12	34520.56
515.29	34705.46
515.47	34726.53
515.64	35051.86
515.81	34274.80
515.99	34726.53
516.16	34632.91
516.33	34272.46
516.51	34440.98
516.68	33998.62
516.85	34003.30
517.03	34054.79
517.20	34677.38
517.37	34906.75
517.54	35243.79
517.72	35063.57
517.89	34792.06
518.06	34895.05
518.24	34679.72
518.41	35047.18
518.58	35447.41
518.75	35374.86
518.93	35732.96
519.10	35512.95
519.27	36311.07
519.45	35826.58
519.62	36112.13
519.79	35978.72
519.96	35812.54
520.14	36404.69
520.31	35824.24
520.48	36208.09
520.65	36545.12
520.83	36842.37
521.00	36840.03
521.17	36442.14
521.34	36659.81
521.52	37195.79
521.69	37029.62
521.86	37376.01
522.03	37308.14
522.20	37464.96
522.38	37137.28
522.55	36879.82
522.72	37378.36
522.89	37193.45
523.07	37443.89
523.24	37591.34
523.41	37940.08
523.58	37102.17
523.75	37912.00
523.92	37633.47
524.10	38169.46
524.27	38300.53
524.44	38225.63
524.61	38630.54
524.78	38410.53
524.96	38132.01
525.13	38471.39
525.30	39049.50
525.47	39290.57
525.64	38492.45
525.81	38438.62
525.98	38342.66
526.16	37755.18
526.33	38293.50
526.50	38029.02
526.67	37621.77
526.84	38162.43
527.01	38202.22
527.18	38906.73
527.36	39150.14
527.53	39112.69
527.70	39145.46
527.87	39192.27
528.04	39311.64
528.21	39189.93
528.38	39557.39
528.55	39646.33
528.72	39463.77
528.89	40133.17
529.07	39379.51
529.24	39337.38
529.41	39920.18
529.58	39789.11
529.75	39220.36
529.92	39796.13
530.09	40397.65
530.26	39784.43
530.43	40175.30
530.60	40055.93
530.77	40620.00
530.94	40526.38
531.11	40486.59
531.28	39718.89
531.46	40893.84
531.63	40348.50
531.80	40507.65
531.97	40203.38
532.14	39838.26
532.31	40119.12
532.48	40009.12
532.65	40179.98
532.82	40627.02
532.99	40620.00
533.16	40566.16
533.33	40362.54
533.50	40870.43
533.67	41186.41
533.84	40753.41
534.01	40863.41
534.18	40732.34
534.35	40811.92
534.52	40952.35
534.69	41303.43
534.86	41263.64
535.03	40935.97
535.20	41673.24
535.37	41684.94
535.54	41982.19
535.71	41827.71
535.88	41717.71
536.05	41516.42
536.22	41495.36
536.38	41336.20
536.55	41364.29
536.72	41301.09
536.89	41064.70
537.06	41902.61
537.23	41792.61
537.40	41698.98
537.57	41855.80
537.74	41860.48
537.91	41818.35
538.08	41848.78
538.25	41598.34
538.42	42024.32
538.59	42356.67
538.75	41865.16
538.92	41668.56
539.09	42291.14
539.26	41918.99
539.43	42288.80
539.60	42288.80
539.77	41631.11
539.94	42155.39
540.11	41949.42
540.28	42333.27
540.44	41816.01
540.61	42270.08
540.78	42515.83
540.95	41940.06
541.12	42422.21
541.29	42405.83
541.46	42553.28
541.62	42607.11
541.79	43103.31
541.96	42108.58
542.13	42822.44
542.30	43103.31
542.47	42658.60
542.63	42742.86
542.80	43005.00
542.97	43597.16
543.14	43714.19
543.31	43400.55
543.48	43772.70
543.64	43983.35
543.81	44182.29
543.98	43358.42
544.15	43625.25
544.32	43709.50
544.48	44154.21
544.65	43845.26
544.82	43863.98
544.99	43807.81
545.16	43845.26
545.32	43613.54
545.49	44093.35
545.66	43931.86
545.83	44051.22
546.00	44170.59
546.16	43992.71
546.33	43688.44
546.50	43789.08
546.67	44149.53
546.83	44065.27
547.00	44041.86
547.17	43988.03
547.34	44470.18
547.50	43800.79
547.67	44296.98
547.84	44149.53
548.00	44659.76
548.17	44371.88
548.34	44512.31
548.51	44509.97
548.67	44519.33
548.84	44589.55
549.01	44495.92
549.18	44535.71
549.34	44425.71
549.51	45118.51
549.68	44648.06
549.84	44327.41
550.01	44758.06
550.18	44343.79
550.34	44421.03
550.51	44910.20
550.68	44882.11
550.84	44320.38
551.01	45095.10
551.18	44877.43
551.34	44676.15
551.51	44858.71
551.68	44741.68
551.84	45492.99
552.01	44753.38
552.18	45420.44
552.34	44739.34
552.51	44905.52
552.68	45064.67
552.84	45200.43
553.01	45394.69
553.18	44875.09
553.34	45001.48
553.51	45345.54
553.67	45481.29
553.84	45546.82
554.01	45619.38
554.17	45563.21
554.34	45558.53
554.51	45586.61
554.67	45420.44
554.84	45687.26
555.00	45261.28
555.17	45062.33
555.33	45588.95
555.50	45530.44
555.67	46005.57
555.83	45312.77
556.00	45509.38
556.16	45947.06
556.33	46031.32
556.50	45551.51
556.66	45858.12
556.83	45350.22
556.99	45476.61
557.16	46073.45
557.32	46169.41
557.49	45923.65
557.65	45556.19
557.82	45565.55
557.98	46286.43
558.15	45687.26
558.32	45839.39
558.48	45525.76
558.65	45911.95
558.81	45635.77
558.98	45930.67
559.14	45769.18
559.31	45832.37
559.47	46110.89
559.64	46059.40
559.80	45815.99
559.97	46309.84
560.13	45968.12
560.30	45495.33
560.46	45797.26
560.63	46370.69
560.79	46670.28
560.96	46302.82
561.12	46075.79
561.29	46504.10
561.45	45921.31
561.61	46342.61
561.78	46347.29
561.94	45879.18
562.11	45907.27
562.27	46066.42
562.44	46012.59
562.60	46653.90
562.77	46333.24
562.93	46480.70
563.10	45799.60
563.26	45930.67
563.42	46623.47
563.59	46150.68
563.75	46298.14
563.92	46677.30
564.08	46190.47
564.24	46422.19
564.41	46557.94
564.57	46263.03
564.74	46478.36
564.90	46401.12
565.07	46553.26
565.23	46256.01
565.39	46466.66
565.56	46571.98
565.72	46092.17
565.88	46396.44
566.05	46223.24
566.21	46358.99
566.38	45879.18
566.54	46550.91
566.70	46579.00
566.87	46686.67
567.03	46529.85
567.19	46780.29
567.36	46738.16
567.52	46555.60
567.68	46705.39
567.85	46597.73
568.01	46972.21
568.17	46501.76
568.34	46583.68
568.50	46438.57
568.66	45982.16
568.83	46698.37
568.99	46302.82
569.15	46373.03
569.32	46607.09
569.48	46504.10
569.64	46885.61
569.81	47002.64
569.97	46726.46
570.13	46309.84
570.30	45947.06
570.46	46555.60
570.62	46052.38
570.78	46267.71
570.95	45918.97
571.11	46499.42
571.27	46569.64
571.43	46284.09
571.60	46377.72
571.76	46436.23
571.92	46590.70
572.09	46534.53
572.25	46581.34
572.41	46672.62
572.57	46836.46
572.74	47253.08
572.90	46564.96
573.06	46787.31
573.22	46986.25
573.38	46742.84
573.55	46571.98
573.71	46754.54
573.87	46997.96
574.03	47033.07
574.20	46689.01
574.36	46738.16
574.52	46471.34
574.68	46588.36
574.84	46738.16
575.01	46670.28
575.17	46616.45
575.33	46653.90
575.49	46316.86
575.65	46679.64
575.82	47014.34
575.98	46499.42
576.14	47152.43
576.30	46625.81
576.46	46726.46
576.62	46473.68
576.79	46801.35
576.95	46684.33
577.11	46871.57
577.27	46555.60
577.43	46628.15
577.59	46361.33
577.75	46405.80
577.92	46082.81
578.08	46548.57
578.24	46721.77
578.40	46869.23
578.56	46824.76
578.72	46604.75
578.88	46639.86
579.04	47180.52
579.21	46579.00
579.37	46808.37
579.53	46883.27
579.69	46806.03
579.85	46101.53
580.01	46487.72
580.17	46770.93
580.33	46742.84
580.49	47042.43
580.65	46902.00
580.82	47070.51
580.98	46707.73
581.14	46691.35
581.30	47035.41
581.46	47086.90
581.62	46461.97
581.78	46944.12
581.94	47330.31
582.10	46939.44
582.26	46824.76
582.42	46955.83
582.58	46878.59
582.74	46911.36
582.90	46770.93
583.06	46925.40
583.22	46827.10
583.38	47283.50
583.54	46880.93
583.70	46925.40
583.86	47047.11
584.02	46642.20
584.18	47143.07
584.34	47182.86
584.50	46904.34
584.66	46607.09
584.82	46497.08
584.98	47295.21
585.14	47007.32
585.30	46857.52
585.46	47040.09
585.62	46810.71
585.78	47063.49
585.94	46670.28
586.10	46651.56
586.26	46562.62
586.42	47257.76
586.58	47019.02
586.74	47276.48
586.90	46997.96
587.06	46602.41
587.22	47105.62
587.38	46719.43
587.54	46911.36
587.70	47002.64
587.86	46754.54
588.02	46768.58
588.18	47037.75
588.34	46447.93
588.49	46103.87
588.65	45904.93
588.81	46253.67
588.97	46653.90
589.13	46185.79
589.29	46508.79
589.45	46564.96
589.61	46983.91
589.77	46958.17
589.93	46988.60
