SpectraSuite Data File
++++++++++++++++++++++++++++++++++++
Date: Fri Oct 25 10:47:20 EDT 2013
User: price-jones
Dark Spectrum Present: No
Reference Spectrum Present: No
Number of Sampled Component Spectra: 1
Spectrometers: USB2+H05261
Integration Time (usec): 100000 (USB2+H05261)
Spectra Averaged: 1 (USB2+H05261)
Boxcar Smoothing: 0 (USB2+H05261)
Correct for Electrical Dark: No (USB2+H05261)
Strobe/Lamp Enabled: No (USB2+H05261)
Correct for Detector Non-linearity: No (USB2+H05261)
Correct for Stray Light: No (USB2+H05261)
Number of Pixels in Processed Spectrum: 2048
>>>>>Begin Processed Spectral Data<<<<<
365.73	107.66
365.92	107.66
366.12	107.66
366.32	0.00
366.52	18.72
366.72	95.96
366.91	32.77
367.11	11.70
367.31	0.00
367.51	16.38
367.70	42.13
367.90	25.75
368.10	28.09
368.30	70.22
368.49	0.00
368.69	79.58
368.89	49.15
369.09	0.00
369.28	72.56
369.48	0.00
369.68	32.77
369.87	131.07
370.07	112.35
370.27	175.54
370.47	217.67
370.66	409.59
370.86	353.42
371.06	444.70
371.25	470.45
371.45	496.19
371.65	463.43
371.84	428.32
372.04	507.90
372.24	456.40
372.44	451.72
372.63	414.27
372.83	550.03
373.03	402.57
373.22	493.85
373.42	479.81
373.62	543.00
373.81	557.05
374.01	519.60
374.21	521.94
374.40	521.94
374.60	519.60
374.79	547.69
374.99	521.94
375.19	571.09
375.38	596.84
375.58	564.07
375.78	603.86
375.97	578.11
376.17	681.10
376.37	568.75
376.56	498.53
376.76	615.56
376.95	645.99
377.15	681.10
377.35	645.99
377.54	601.52
377.74	667.05
377.93	580.45
378.13	564.07
378.33	638.97
378.52	594.50
378.72	688.12
378.91	650.67
379.11	667.05
379.31	695.14
379.50	503.22
379.70	622.58
379.89	723.23
380.09	599.18
380.28	704.50
380.48	692.80
380.68	683.44
380.87	631.94
381.07	685.78
381.26	608.54
381.46	669.39
381.65	645.99
381.85	697.48
382.04	664.71
382.24	643.65
382.43	631.94
382.63	681.10
382.83	571.09
383.02	716.20
383.22	664.71
383.41	709.18
383.61	748.97
383.80	763.01
384.00	655.35
384.19	697.48
384.39	744.29
384.58	809.83
384.78	734.93
384.97	784.08
385.17	784.08
385.36	800.46
385.56	786.42
385.75	758.33
385.95	809.83
386.14	774.72
386.34	788.76
386.53	798.12
386.72	844.93
386.92	772.38
387.11	821.53
387.31	746.63
387.50	788.76
387.70	891.74
387.89	861.32
388.09	800.46
388.28	854.30
388.48	809.83
388.67	807.48
388.86	849.61
389.06	901.11
389.25	926.85
389.45	873.02
389.64	847.27
389.84	968.98
390.03	887.06
390.22	847.27
390.42	922.17
390.61	898.77
390.81	929.19
391.00	868.34
391.19	910.47
391.39	992.39
391.58	908.13
391.78	898.77
391.97	933.87
392.16	901.11
392.36	959.62
392.55	905.79
392.75	940.90
392.94	938.55
393.13	990.05
393.33	891.74
393.52	994.73
393.71	1022.81
393.91	1093.03
394.10	1011.11
394.29	1196.01
394.49	1027.50
394.68	1132.82
394.88	1121.12
395.07	1132.82
395.26	1097.71
395.46	1078.99
395.65	1135.16
395.84	1039.20
396.04	1184.31
396.23	1170.27
396.42	1170.27
396.62	1093.03
396.81	1116.44
397.00	1121.12
397.19	1095.37
397.39	1158.57
397.58	1268.57
397.77	1172.61
397.97	1275.59
398.16	1252.19
398.35	1240.48
398.55	1233.46
398.74	1207.72
398.93	1163.25
399.12	1245.16
399.32	1196.01
399.51	1275.59
399.70	1324.74
399.90	1378.58
400.09	1259.21
400.28	1341.13
400.47	1418.36
400.67	1357.51
400.86	1383.26
401.05	1465.18
401.24	1434.75
401.44	1451.13
401.63	1460.49
401.82	1467.52
402.01	1411.34
402.21	1462.83
402.40	1563.48
402.59	1427.73
402.78	1575.18
402.97	1371.55
403.17	1500.28
403.36	1551.78
403.55	1598.59
403.74	1589.22
403.93	1504.96
404.13	1619.65
404.32	1600.93
404.51	1612.63
404.70	1692.21
404.89	1605.61
405.09	1750.72
405.28	1678.16
405.47	1650.08
405.66	1657.10
405.85	1678.16
406.05	1680.50
406.24	1706.25
406.43	1785.83
406.62	1762.42
406.81	1781.15
407.00	1788.17
407.20	1706.25
407.39	1865.41
407.58	1853.70
407.77	1914.56
407.96	1846.68
408.15	1966.05
408.34	1977.75
408.54	1998.82
408.73	1935.62
408.92	1937.96
409.11	2010.52
409.30	1996.48
409.49	1930.94
409.68	1935.62
409.87	2033.93
410.07	2071.37
410.26	2031.58
410.45	2043.29
410.64	2047.97
410.83	2148.61
411.02	2204.78
411.21	2275.00
411.40	2200.10
411.59	2267.98
411.78	2237.55
411.98	2359.26
412.17	2314.79
412.36	2296.07
412.55	2368.62
412.74	2291.38
412.93	2300.75
413.12	2317.13
413.31	2513.74
413.50	2382.67
413.69	2504.37
413.88	2504.37
414.07	2551.18
414.26	2532.46
414.45	2576.93
414.64	2605.02
414.83	2691.62
415.02	2663.53
415.22	2684.59
415.41	2668.21
415.60	2733.75
415.79	2693.96
415.98	2768.85
416.17	2846.09
416.36	2745.45
416.55	2818.00
416.74	2782.90
416.93	2803.96
417.12	2998.23
417.31	2846.09
417.50	2841.41
417.69	3028.65
417.88	3068.44
418.07	3023.97
418.26	3075.46
418.45	3059.08
418.64	3045.04
418.83	3138.66
419.02	3108.23
419.21	3145.68
419.39	3080.14
419.58	3019.29
419.77	3068.44
419.96	3251.00
420.15	3239.30
420.34	3176.11
420.53	3152.70
420.72	3332.92
420.91	3351.65
421.10	3337.60
421.29	3295.47
421.48	3187.81
421.67	3435.91
421.86	3311.86
422.05	3440.59
422.24	3239.30
422.43	3414.84
422.61	3356.33
422.80	3438.25
422.99	3435.91
423.18	3456.97
423.37	3445.27
423.56	3501.44
423.75	3440.59
423.94	3363.35
424.13	3227.60
424.32	3274.41
424.50	3520.17
424.69	3459.31
424.88	3548.25
425.07	3487.40
425.26	3297.81
425.45	3473.36
425.64	3438.25
425.83	3522.51
426.01	3517.83
426.20	3428.88
426.39	3489.74
426.58	3545.91
426.77	3599.74
426.96	3658.26
427.15	3421.86
427.33	3637.19
427.52	3597.40
427.71	3646.55
427.90	3653.58
428.09	3737.84
428.28	3681.66
428.46	3733.15
428.65	3794.01
428.84	3679.32
429.03	3700.39
429.22	3716.77
429.40	3754.22
429.59	3721.45
429.78	3613.79
429.97	3531.87
430.16	3728.47
430.34	3761.24
430.53	3822.09
430.72	3929.76
430.91	3915.72
431.10	3885.29
431.28	4091.26
431.47	3983.59
431.66	4067.85
431.85	4042.11
432.03	4100.62
432.22	4140.41
432.41	4149.77
432.60	4184.88
432.79	4105.30
432.97	4219.99
433.16	4088.92
433.35	4124.02
433.54	4217.65
433.72	4114.66
433.91	4203.60
434.10	4222.33
434.28	4271.48
434.47	4271.48
434.66	4484.47
434.85	4264.46
435.03	4418.93
435.22	4367.44
435.41	4585.11
435.59	4610.86
435.78	4561.70
435.97	4519.57
436.16	4624.90
436.34	4468.08
436.53	4414.25
436.72	4510.21
436.90	4358.08
437.09	4552.34
437.28	4531.28
437.46	4484.47
437.65	4528.94
437.84	4702.14
438.02	4718.52
438.21	4727.88
438.40	4802.78
438.58	4685.75
438.77	4800.44
438.96	4755.97
439.14	4908.10
439.33	4851.93
439.52	5020.45
439.70	4905.76
439.89	4809.80
440.08	5053.22
440.26	4959.60
440.45	5025.13
440.63	4999.38
440.82	5345.78
441.01	5167.90
441.19	5411.32
441.38	5425.36
441.57	5474.51
441.75	5280.25
441.94	5507.28
442.12	5614.95
442.31	5577.50
442.50	5561.11
442.68	5533.03
442.87	5479.19
443.05	5495.58
443.24	5720.27
443.43	5607.92
443.61	5753.04
443.80	5989.43
443.98	5453.45
444.17	5509.62
444.35	5738.99
444.54	5973.05
444.73	5643.03
444.91	5675.80
445.10	5834.96
445.28	5799.85
445.47	5687.50
445.65	5785.80
445.84	5753.04
446.02	5834.96
446.21	5687.50
446.39	5792.83
446.58	5975.39
446.77	5870.06
446.95	5797.51
447.14	5919.21
447.32	5912.19
447.51	5727.29
447.69	5839.64
447.88	6001.13
448.06	5942.62
448.25	5762.40
448.43	5884.11
448.62	5851.34
448.80	5895.81
448.99	5912.19
449.17	5949.64
449.36	6001.13
449.54	5982.41
449.73	6232.85
449.91	6122.84
450.10	6207.10
450.28	6223.48
450.46	6300.72
450.65	6403.71
450.83	6298.38
451.02	6263.27
451.20	6282.00
451.39	6401.37
451.57	6317.11
451.76	6218.80
451.94	6328.81
452.13	6349.87
452.31	6476.26
452.49	6403.71
452.68	6392.00
452.86	6420.09
453.05	6349.87
453.23	6614.35
453.42	6466.90
453.60	6289.02
453.78	6375.62
453.97	6562.86
454.15	6677.55
454.34	6651.80
454.52	6715.00
454.70	6534.78
454.89	6572.22
455.07	6729.04
455.26	6839.05
455.44	6794.58
455.62	6616.69
455.81	6729.04
455.99	6839.05
456.17	7007.56
456.36	6902.24
456.54	6930.33
456.73	7045.01
456.91	7206.51
457.09	7000.54
457.28	7300.13
457.46	7035.65
457.64	7337.58
457.83	7269.70
458.01	7087.14
458.19	7360.98
458.38	7234.60
458.56	7281.41
458.74	7250.98
458.93	7236.94
459.11	7222.89
459.29	7353.96
459.48	7576.31
459.66	7346.94
459.84	7386.73
460.03	7407.80
460.21	7592.70
460.39	7552.91
460.57	7571.63
460.76	7733.13
460.94	7695.68
461.12	7602.06
461.31	7749.51
461.49	7672.28
461.67	7569.29
461.85	7700.36
462.04	7826.75
462.22	8205.92
462.40	7896.97
462.59	7962.50
462.77	7927.39
462.95	7990.59
463.13	8107.62
463.32	7747.17
463.50	8088.89
463.68	8131.02
463.86	8114.64
464.05	7803.35
464.23	7854.84
464.41	8248.05
464.59	8168.47
464.78	8280.82
464.96	8051.44
465.14	8231.66
465.32	8168.47
465.50	8215.28
465.69	8348.69
465.87	8238.69
466.05	8248.05
466.23	8091.23
466.41	8163.79
466.60	8360.39
466.78	8184.85
466.96	8229.32
467.14	8285.50
467.32	8510.19
467.51	8685.73
467.69	8219.96
467.87	8416.57
468.05	8456.36
468.23	8255.07
468.41	8428.27
468.60	8479.76
468.78	8641.26
468.96	8301.88
469.14	8425.93
469.32	8739.56
469.50	8535.93
469.69	8774.67
469.87	8835.52
470.05	8608.49
470.23	8802.75
470.41	8793.39
470.59	8863.61
470.77	8631.90
470.95	8692.75
471.14	8912.76
471.32	9043.83
471.50	8959.57
471.68	9165.54
471.86	9373.85
472.04	9252.14
472.22	9362.14
472.40	9116.39
472.58	9399.59
472.77	9415.98
472.95	9352.78
473.13	9816.21
473.31	9462.79
473.49	9549.39
473.67	9355.12
473.85	9584.49
474.03	9802.16
474.21	9907.49
474.39	9844.29
474.57	9884.08
474.75	10064.30
474.93	9916.85
475.12	9966.00
475.30	10115.80
475.48	9881.74
475.66	10347.51
475.84	9961.32
476.02	10274.95
476.20	10281.97
476.38	10415.38
476.56	10576.88
476.74	10473.90
476.92	10441.13
477.10	10499.64
477.28	10761.78
477.46	10780.51
477.64	11026.26
477.82	10916.26
478.00	11225.21
478.18	11229.89
478.36	11194.78
478.54	11342.24
478.72	11351.60
478.90	11559.91
479.08	11726.08
479.26	11754.17
479.44	11693.32
479.62	11829.07
479.80	11800.98
479.98	12063.12
480.16	12351.01
480.34	12210.57
480.52	12379.09
480.70	12248.02
480.88	12142.70
481.06	12606.13
481.24	12313.56
481.41	12753.58
481.59	12814.43
481.77	13142.11
481.95	12781.67
482.13	13156.15
482.31	13032.10
482.49	13408.93
482.67	13369.14
482.85	13563.40
483.03	13607.87
483.21	13949.59
483.39	13703.84
483.57	13839.59
483.74	13837.25
483.92	14073.64
484.10	14087.68
484.28	14174.28
484.46	14242.16
484.64	14721.97
484.82	14413.02
485.00	14672.82
485.18	14895.17
485.35	15089.43
485.53	14586.22
485.71	14750.06
485.89	15527.11
486.07	15157.31
486.25	15269.66
486.43	15346.89
486.61	15555.20
486.78	15763.51
486.96	15906.28
487.14	16112.25
487.32	15854.79
487.50	16329.92
487.68	16418.86
487.85	16706.74
488.03	16805.05
488.21	16945.48
488.39	16858.88
488.57	17214.64
488.75	16943.14
488.92	17071.87
489.10	17341.03
489.28	17434.65
489.46	17797.43
489.64	17596.15
489.81	17926.16
489.99	18026.81
490.17	18279.58
490.35	18427.04
490.53	18178.94
490.70	18574.49
490.88	18539.38
491.06	18993.45
491.24	18633.00
491.41	18848.33
491.59	18850.67
491.77	18750.03
491.95	19517.73
492.13	19606.67
492.30	19810.29
492.48	19765.82
492.66	19892.21
492.84	19665.18
493.01	19969.45
493.19	19887.53
493.37	20367.34
493.54	20091.16
493.72	20463.30
493.90	20435.22
494.08	20779.28
494.25	20734.81
494.43	21233.34
494.61	21289.51
494.79	21612.51
494.96	21350.37
495.14	21167.80
495.32	21296.53
495.49	21561.02
495.67	21799.75
495.85	21914.44
496.02	22059.55
496.20	21865.28
496.38	22134.45
496.55	22258.49
496.73	22714.90
496.91	22244.45
497.09	22679.79
497.26	22682.13
497.44	22717.24
497.62	22951.29
497.79	23026.19
497.97	23131.51
498.14	23229.82
498.32	23281.31
498.50	23475.57
498.67	23742.39
498.85	23564.51
499.03	23906.23
499.20	23756.44
499.38	23917.93
499.56	24159.01
499.73	24257.31
499.91	24325.19
500.08	24446.90
500.26	24474.98
500.44	24168.37
500.61	24568.60
500.79	24236.25
500.97	24599.03
501.14	24975.86
501.32	24992.24
501.49	25013.31
501.67	24900.96
501.84	25336.30
502.02	25422.90
502.20	25340.98
502.37	25717.81
502.55	25397.15
502.72	25577.37
502.90	25909.73
503.07	25436.94
503.25	25813.77
503.43	25762.28
503.60	25776.32
503.78	25619.50
503.95	26047.82
504.13	26092.29
504.30	26497.20
504.48	26052.50
504.65	26527.63
504.83	26522.95
505.01	26642.32
505.18	26665.72
505.36	26857.65
505.53	26885.73
505.71	27068.30
505.88	27016.80
506.06	26719.56
506.23	26773.39
506.41	26925.52
506.58	27454.48
506.76	27080.00
506.93	27768.12
507.11	27730.67
507.28	27613.64
507.46	27559.81
507.63	27536.40
507.81	27702.58
507.98	27754.07
508.16	28095.79
508.33	28252.61
508.50	28355.59
508.68	28070.04
508.85	28526.45
509.03	28676.24
509.20	28980.51
509.38	28680.92
509.55	28701.99
509.73	28620.07
509.90	28730.08
510.08	28648.16
510.25	28856.46
510.42	29137.33
510.60	29493.09
510.77	29034.35
510.95	29411.17
511.12	29406.49
511.30	29319.89
511.47	29490.75
511.64	29535.22
511.82	29490.75
511.99	29415.85
512.17	29502.45
512.34	30026.73
512.51	30162.48
512.69	30398.88
512.86	30408.24
513.04	30679.74
513.21	30363.77
513.38	30370.79
513.56	30323.98
513.73	30120.35
513.90	30452.71
514.08	30869.33
514.25	30897.41
514.43	30796.77
514.60	30764.00
514.77	30354.41
514.95	31337.43
515.12	31051.89
515.29	31330.41
515.47	31391.26
515.64	31143.17
515.81	31126.78
515.99	31676.81
516.16	31285.94
516.33	31393.61
516.51	31714.26
516.68	31728.30
516.85	31737.66
517.03	31449.78
517.20	31515.31
517.37	31548.08
517.54	31894.48
517.72	31985.76
517.89	31927.25
518.06	31922.57
518.24	32030.23
518.41	31983.42
518.58	31896.82
518.75	31983.42
518.93	32577.92
519.10	32306.41
519.27	32465.57
519.45	32456.21
519.62	32687.92
519.79	32725.37
519.96	32797.93
520.14	32879.85
520.31	32814.31
520.48	33006.23
520.65	33106.88
520.83	33612.43
521.00	33537.54
521.17	33727.12
521.34	34015.01
521.52	33523.49
521.69	33481.36
521.86	33771.59
522.03	33984.58
522.20	33652.22
522.38	34054.79
522.55	34244.38
522.72	33804.36
522.89	33764.57
523.07	34043.09
523.24	33743.50
523.41	34305.23
523.58	34567.37
523.75	34490.13
523.92	34588.44
524.10	34469.07
524.27	34937.18
524.44	34733.55
524.61	34763.98
524.78	35023.78
524.96	35065.91
525.13	34831.85
525.30	35302.30
525.47	35012.07
525.64	35072.93
525.81	35496.56
525.98	35180.59
526.16	35098.67
526.33	34969.94
526.50	35639.34
526.67	35206.34
526.84	35040.16
527.01	35021.44
527.18	35639.34
527.36	35763.39
527.53	35655.72
527.70	36128.51
527.87	36013.82
528.04	35646.36
528.21	35967.01
528.38	35878.07
528.55	35945.95
528.72	36147.23
528.89	36121.49
529.07	36343.84
529.24	36128.51
529.41	36306.39
529.58	36353.20
529.75	36203.41
529.92	36587.25
530.09	36547.47
530.26	36378.95
530.43	36891.52
530.60	36318.09
530.77	36364.90
530.94	37013.23
531.11	36465.55
531.28	36884.50
531.46	36914.93
531.63	36884.50
531.80	36605.98
531.97	37170.05
532.14	36697.26
532.31	36662.15
532.48	37258.99
532.65	37544.53
532.82	37109.19
532.99	37560.92
533.16	36957.06
533.33	37095.15
533.50	37675.60
533.67	37706.03
533.84	37200.47
534.01	37837.10
534.18	37392.40
534.35	38139.03
534.52	37619.43
534.69	37942.42
534.86	38085.20
535.03	37434.53
535.20	38010.30
535.37	37968.17
535.54	38352.02
535.71	38143.71
535.88	38103.92
536.05	38127.33
536.22	38630.54
536.38	37921.36
536.55	37923.70
536.72	38162.43
536.89	38363.72
537.06	38326.27
537.23	38277.12
537.40	38436.28
537.57	38665.65
537.74	39140.78
537.91	38962.90
538.08	38705.44
538.25	38455.00
538.42	38513.52
538.59	39103.33
538.75	38618.84
538.92	39072.90
539.09	38780.34
539.26	38841.19
539.43	38932.47
539.60	39084.61
539.77	39203.97
539.94	38822.47
540.11	39332.70
540.28	38761.61
540.44	39173.55
540.61	39557.39
540.78	39201.63
540.95	39440.37
541.12	39140.78
541.29	39241.42
541.46	39316.32
541.62	39538.67
541.79	39395.90
541.96	39447.39
542.13	39379.51
542.30	39739.96
542.47	39789.11
542.63	39393.56
542.80	39789.11
542.97	40079.33
543.14	40488.93
543.31	40294.66
543.48	40486.59
543.64	40620.00
543.81	40505.31
543.98	40128.48
544.15	40226.79
544.32	40816.60
544.48	40774.47
544.65	40294.66
544.82	40751.07
544.99	40149.55
545.16	40790.86
545.32	39920.18
545.49	40388.28
545.66	40470.20
545.83	40638.72
546.00	41001.50
546.16	40971.08
546.33	40601.27
546.50	40870.43
546.67	40690.21
546.83	40816.60
547.00	40898.52
547.17	40940.65
547.34	40858.73
547.50	40875.12
547.67	41315.14
547.84	40999.16
548.00	41441.53
548.17	41631.11
548.34	41326.84
548.51	42057.09
548.67	41446.21
548.84	41460.25
549.01	41017.89
549.18	41188.75
549.34	41853.46
549.51	41675.58
549.68	41942.40
549.84	41701.32
550.01	41734.09
550.18	41727.07
550.34	41598.34
550.51	41844.10
550.68	41464.93
550.84	41598.34
551.01	42153.05
551.18	41986.87
551.34	41816.01
551.51	41731.75
551.68	42085.17
551.84	42106.24
552.01	41717.71
552.18	41984.53
552.34	41769.20
552.51	42127.30
552.68	41923.68
552.84	42232.63
553.01	42536.90
553.18	42230.29
553.34	42469.02
553.51	42176.45
553.67	42380.08
553.84	42452.64
554.01	42085.17
554.17	42485.40
554.34	42831.80
554.51	42389.44
554.67	42579.03
554.84	42820.10
555.00	42431.57
555.17	42740.52
555.33	42960.53
555.50	42508.81
555.67	42712.44
555.83	42735.84
556.00	42883.30
556.16	43058.84
556.33	42763.93
556.50	42831.80
556.66	42979.26
556.83	42602.43
556.99	42960.53
557.16	43180.54
557.32	43033.09
557.49	42944.15
557.65	42667.97
557.82	42880.95
557.98	42955.85
558.15	42777.97
558.32	43086.92
558.48	42995.64
558.65	43089.26
558.81	43119.69
558.98	42880.95
559.14	43012.02
559.31	43110.33
559.47	43225.01
559.64	43583.12
559.80	43260.12
559.97	43494.18
560.13	43168.84
560.30	43302.25
560.46	43145.44
560.63	43318.64
560.79	43360.76
560.96	43674.40
561.12	43311.61
561.29	42930.11
561.45	43037.77
561.61	43587.80
561.78	43157.14
561.94	43435.66
562.11	43442.68
562.27	43466.09
562.44	43522.26
562.60	43622.90
562.77	43665.03
562.93	43459.07
563.10	43840.57
563.26	43435.66
563.42	43625.25
563.59	43330.34
563.75	43737.59
563.92	43826.53
564.08	43655.67
564.24	43887.39
564.41	43753.97
564.57	43646.31
564.74	43711.84
564.90	44002.07
565.07	43828.87
565.23	43906.11
565.39	43400.55
565.56	43732.91
565.72	43566.73
565.88	43756.32
566.05	43761.00
566.21	43681.42
566.38	43646.31
566.54	43683.76
566.70	43442.68
566.87	44460.82
567.03	43966.96
567.19	44205.70
567.36	43950.58
567.52	44275.91
567.68	43838.23
567.85	43681.42
568.01	43901.43
568.17	43810.15
568.34	44156.55
568.50	43805.47
568.66	43899.09
568.83	44266.55
568.99	43721.21
569.15	43955.26
569.32	44179.95
569.48	44100.37
569.64	44329.75
569.81	44465.50
569.97	44334.43
570.13	44025.48
570.30	43370.13
570.46	43690.78
570.62	43711.84
570.78	43587.80
570.95	44062.93
571.11	44411.67
571.27	44383.58
571.43	43784.40
571.60	44336.77
571.76	44149.53
571.92	44479.54
572.09	44196.34
572.25	44332.09
572.41	44292.30
572.57	44533.37
572.74	44346.13
572.90	44416.35
573.06	44142.50
573.22	44360.17
573.38	44186.97
573.55	44076.97
573.71	44339.11
573.87	43992.71
574.03	44116.76
574.20	44048.88
574.36	44304.00
574.52	44299.32
574.68	44268.89
574.84	44201.02
575.01	44161.23
575.17	43819.51
575.33	44149.53
575.49	43950.58
575.65	44507.63
575.82	44753.38
575.98	44502.95
576.14	44954.67
576.30	44580.18
576.46	44390.60
576.62	43952.92
576.79	44498.26
576.95	44126.12
577.11	44304.00
577.27	44229.10
577.43	44772.11
577.59	44467.84
577.75	44601.25
577.92	44336.77
578.08	44245.49
578.24	43943.56
578.40	43924.83
578.56	44261.87
578.72	44201.02
578.88	44619.97
579.04	44556.78
579.21	44849.35
579.37	44514.65
579.53	44608.27
579.69	43793.76
579.85	44339.11
580.01	44425.71
580.17	44626.99
580.33	44458.48
580.49	44367.20
580.65	44076.97
580.82	44854.03
580.98	44652.74
581.14	44275.91
581.30	44584.86
581.46	44467.84
581.62	44421.03
581.78	44718.28
581.94	44414.01
582.10	44343.79
582.26	44767.43
582.42	44449.11
582.58	44395.28
582.74	44135.48
582.90	44484.22
583.06	44524.01
583.22	44933.60
583.38	44385.92
583.54	44575.50
583.70	44556.78
583.86	44556.78
584.02	43910.79
584.18	44678.49
584.34	44769.77
584.50	44739.34
584.66	44449.11
584.82	44261.87
584.98	44720.62
585.14	44367.20
585.30	44535.71
585.46	44224.42
585.62	44217.40
585.78	44296.98
585.94	44055.90
586.10	44378.90
586.26	44404.64
586.42	44701.89
586.58	44509.97
586.74	44376.56
586.90	44201.02
587.06	44453.79
587.22	44594.23
587.38	44481.88
587.54	44807.22
587.70	44598.91
587.86	44737.00
588.02	44804.88
588.18	44741.68
588.34	44212.72
588.49	44163.57
588.65	44465.50
588.81	44795.51
588.97	44538.05
589.13	44399.96
589.29	44414.01
589.45	44837.64
589.61	44575.50
589.77	44938.29
589.93	44753.38
590.08	45312.77
590.24	45151.27
590.40	44655.08
