SpectraSuite Data File
++++++++++++++++++++++++++++++++++++
Date: Fri Oct 25 11:23:29 EDT 2013
User: price-jones
Dark Spectrum Present: No
Reference Spectrum Present: No
Number of Sampled Component Spectra: 1
Spectrometers: USB2+H05261
Integration Time (usec): 100000 (USB2+H05261)
Spectra Averaged: 1 (USB2+H05261)
Boxcar Smoothing: 0 (USB2+H05261)
Correct for Electrical Dark: No (USB2+H05261)
Strobe/Lamp Enabled: No (USB2+H05261)
Correct for Detector Non-linearity: No (USB2+H05261)
Correct for Stray Light: No (USB2+H05261)
Number of Pixels in Processed Spectrum: 2048
>>>>>Begin Processed Spectral Data<<<<<
365.73	205.97
365.92	205.97
366.12	205.97
366.32	121.71
366.52	128.73
366.72	98.30
366.91	133.41
367.11	100.64
367.31	145.11
367.51	138.09
367.70	135.75
367.90	107.66
368.10	95.96
368.30	149.79
368.49	133.41
368.69	241.08
368.89	184.90
369.09	93.62
369.28	145.11
369.48	159.16
369.68	180.22
369.87	220.01
370.07	215.33
370.27	217.67
370.47	322.99
370.66	592.16
370.86	664.71
371.06	617.90
371.25	615.56
371.45	594.50
371.65	653.01
371.84	725.57
372.04	608.54
372.24	692.80
372.44	695.14
372.63	723.23
372.83	681.10
373.03	716.20
373.22	765.36
373.42	725.57
373.62	793.44
373.81	744.29
374.01	781.74
374.21	805.14
374.40	821.53
374.60	880.04
374.79	809.83
374.99	730.25
375.19	931.53
375.38	891.74
375.58	889.40
375.78	823.87
375.97	894.08
376.17	940.90
376.37	826.21
376.56	931.53
376.76	915.15
376.95	849.61
377.15	861.32
377.35	940.90
377.54	882.38
377.74	851.96
377.93	880.04
378.13	926.85
378.33	898.77
378.52	856.64
378.72	854.30
378.91	912.81
379.11	863.66
379.31	887.06
379.50	976.00
379.70	978.34
379.89	1069.62
380.09	990.05
380.28	1001.75
380.48	959.62
380.68	1008.77
380.87	915.15
381.07	952.60
381.26	983.02
381.46	1067.28
381.65	1083.67
381.85	1020.47
382.04	1041.54
382.24	1083.67
382.43	1060.26
382.63	1093.03
382.83	1086.01
383.02	1086.01
383.22	1139.84
383.41	1020.47
383.61	1090.69
383.80	1116.44
384.00	999.41
384.19	1118.78
384.39	1078.99
384.58	1142.18
384.78	1149.20
384.97	1317.72
385.17	1160.91
385.36	1160.91
385.56	1174.95
385.75	1205.38
385.95	1177.29
386.14	1228.78
386.34	1261.55
386.53	1207.72
386.72	1268.57
386.92	1315.38
387.11	1219.42
387.31	1287.29
387.50	1238.14
387.70	1254.53
387.89	1289.64
388.09	1362.19
388.28	1207.72
388.48	1310.70
388.67	1296.66
388.86	1306.02
389.06	1296.66
389.25	1434.75
389.45	1322.40
389.64	1322.40
389.84	1301.34
390.03	1411.34
390.22	1390.28
390.42	1303.68
390.61	1371.55
390.81	1254.53
391.00	1352.83
391.19	1369.21
391.39	1474.54
391.58	1519.01
391.78	1343.47
391.97	1409.00
392.16	1441.77
392.36	1497.94
392.55	1490.92
392.75	1439.43
392.94	1530.71
393.13	1629.01
393.33	1500.28
393.52	1561.14
393.71	1636.03
393.91	1575.18
394.10	1664.12
394.29	1605.61
394.49	1469.86
394.68	1619.65
394.88	1668.80
395.07	1671.14
395.26	1570.50
395.46	1692.21
395.65	1671.14
395.84	1739.02
396.04	1804.55
396.23	1724.97
396.42	1774.13
396.62	1647.74
396.81	1781.15
397.00	1823.28
397.19	1811.57
397.39	1760.08
397.58	1767.10
397.77	1804.55
397.97	1891.15
398.16	1886.47
398.35	1963.71
398.55	1877.11
398.74	1874.77
398.93	1952.01
399.12	1944.99
399.32	1797.53
399.51	1888.81
399.70	1940.30
399.90	1872.43
400.09	1991.80
400.28	2047.97
400.47	2036.27
400.67	2085.42
400.86	1980.09
401.05	2143.93
401.24	2099.46
401.44	2153.29
401.63	2115.84
401.82	2108.82
402.01	2099.46
402.21	2223.51
402.40	2207.13
402.59	2176.70
402.78	2099.46
402.97	2251.60
403.17	2321.81
403.36	2284.36
403.55	2415.43
403.74	2356.92
403.93	2338.20
404.13	2361.60
404.32	2345.22
404.51	2466.92
404.70	2399.05
404.89	2410.75
405.09	2537.14
405.28	2476.29
405.47	2541.82
405.66	2583.95
405.85	2579.27
406.05	2532.46
406.24	2602.68
406.43	2511.39
406.62	2640.12
406.81	2619.06
407.00	2661.19
407.20	2654.17
407.39	2689.28
407.58	2696.30
407.77	2794.60
407.96	2731.41
408.15	2719.70
408.34	2717.36
408.54	2825.03
408.73	2803.96
408.92	2775.88
409.11	2841.41
409.30	2946.73
409.49	2864.82
409.68	2928.01
409.87	2895.24
410.07	3101.21
410.26	2963.12
410.45	2876.52
410.64	3023.97
410.83	3035.67
411.02	3061.42
411.21	3206.53
411.40	3122.27
411.59	3201.85
411.78	3173.77
411.98	3178.45
412.17	3304.84
412.36	3307.18
412.55	3351.65
412.74	3431.23
412.93	3454.63
413.12	3496.76
413.31	3562.30
413.50	3515.48
413.69	3522.51
413.88	3597.40
414.07	3644.21
414.26	3625.49
414.45	3672.30
414.64	3707.41
414.83	3782.31
415.02	3705.07
415.22	3754.22
415.41	3901.67
415.60	3925.08
415.79	4030.40
415.98	4070.19
416.17	3915.72
416.36	3964.87
416.55	4023.38
416.74	4126.36
416.93	4004.66
417.12	4133.39
417.31	4222.33
417.50	4152.11
417.69	4241.05
417.88	4308.93
418.07	4283.18
418.26	4219.99
418.45	4348.72
418.64	4374.46
418.83	4442.34
419.02	4407.23
419.21	4533.62
419.39	4526.60
419.58	4667.03
419.77	4622.56
419.96	4634.26
420.15	4755.97
420.34	4655.33
420.53	4603.83
420.72	4732.56
420.91	4688.09
421.10	4861.29
421.29	4819.16
421.48	4681.07
421.67	4814.48
421.86	4793.42
422.05	4894.06
422.24	4828.53
422.43	4908.10
422.61	4990.02
422.80	4873.00
422.99	5001.72
423.18	4945.55
423.37	4929.17
423.56	5107.05
423.75	4887.04
423.94	4830.87
424.13	4627.24
424.32	4615.54
424.50	4999.38
424.69	4957.25
424.88	5062.58
425.07	4865.97
425.26	4919.81
425.45	5041.51
425.64	4959.60
425.83	4990.02
426.01	5060.24
426.20	5020.45
426.39	5046.20
426.58	5043.85
426.77	5011.09
426.96	5242.80
427.15	5071.94
427.33	5125.77
427.52	5224.08
427.71	5221.74
427.90	5247.48
428.09	5298.97
428.28	5322.38
428.46	5441.75
428.65	5334.08
428.84	5628.99
429.03	5467.49
429.22	5291.95
429.40	5535.37
429.59	5502.60
429.78	5261.52
429.97	5570.48
430.16	5549.41
430.34	5547.07
430.53	5675.80
430.72	5785.80
430.91	5523.66
431.10	5640.69
431.28	5844.32
431.47	5720.27
431.66	5813.89
431.85	5799.85
432.03	5799.85
432.22	6008.16
432.41	6085.39
432.60	5844.32
432.79	5994.11
432.97	5888.79
433.16	6169.65
433.35	5996.45
433.54	6092.41
433.72	6073.69
433.91	5996.45
434.10	6066.67
434.28	6005.81
434.47	6232.85
434.66	6164.97
434.85	6204.76
435.03	6406.05
435.22	6314.77
435.41	6633.08
435.59	6384.98
435.78	6534.78
435.97	6551.16
436.16	6525.41
436.34	6368.60
436.53	6483.28
436.72	6558.18
436.90	6562.86
437.09	6633.08
437.28	6586.27
437.46	6590.95
437.65	6672.87
437.84	6792.23
438.02	6794.58
438.21	6736.06
438.40	6684.57
438.58	7028.63
438.77	7101.19
438.96	6963.09
439.14	7225.23
439.33	7185.44
439.52	7122.25
439.70	7164.38
439.89	7482.69
440.08	7286.09
440.26	7386.73
440.45	7386.73
440.63	7545.89
440.82	7599.72
441.01	7456.95
441.19	7683.98
441.38	7777.60
441.57	7892.29
441.75	7779.94
441.94	8121.66
442.12	7971.86
442.31	7892.29
442.50	8128.68
442.68	7962.50
442.87	8147.40
443.05	8070.17
443.24	8301.88
443.43	8135.70
443.61	8280.82
443.80	8521.89
443.98	8205.92
444.17	7864.20
444.35	8241.03
444.54	8489.12
444.73	8308.90
444.91	8297.20
445.10	8458.70
445.28	8161.45
445.47	8360.39
445.65	8273.79
445.84	8547.64
446.02	8437.63
446.21	8292.52
446.39	8360.39
446.58	8716.16
446.77	8496.14
446.95	8241.03
447.14	8329.97
447.32	8603.81
447.51	8430.61
447.69	8344.01
447.88	8486.78
448.06	8348.69
448.25	8489.12
448.43	8699.77
448.62	8765.31
448.80	8631.90
448.99	8788.71
449.17	8840.20
449.36	8725.52
449.54	8887.01
449.73	8896.38
449.91	9174.90
450.10	8879.99
450.28	9277.88
450.46	9343.42
450.65	8917.44
450.83	9057.87
451.02	8999.36
451.20	9226.39
451.39	9153.84
451.57	9200.65
451.76	9092.98
451.94	9174.90
452.13	9158.52
452.31	9249.80
452.49	9247.46
452.68	9488.53
452.86	9439.38
453.05	9486.19
453.23	9528.32
453.42	9483.85
453.60	9631.30
453.78	9596.20
453.97	9610.24
454.15	9518.96
454.34	9544.70
454.52	9528.32
454.70	9771.74
454.89	9806.84
455.07	9607.90
455.26	9905.15
455.44	9973.02
455.62	9956.64
455.81	10005.79
455.99	10146.22
456.17	10160.27
456.36	10296.02
456.54	10265.59
456.73	10284.31
456.91	10640.08
457.09	10340.49
457.28	10710.29
457.46	10361.55
457.64	10623.69
457.83	10569.86
458.01	10469.22
458.19	10619.01
458.38	10546.45
458.56	10761.78
458.74	10717.31
458.93	10726.68
459.11	10778.17
459.29	10731.36
459.48	10850.72
459.66	11000.52
459.84	10876.47
460.03	11042.65
460.21	10960.73
460.39	11143.29
460.57	10925.62
460.76	11288.40
460.94	11122.23
461.12	11267.34
461.31	11021.58
461.49	11180.74
461.67	11332.87
461.85	11662.89
462.04	11382.03
462.22	12100.57
462.40	11740.13
462.59	11492.03
462.77	11751.83
462.95	11754.17
463.13	11744.81
463.32	11791.62
463.50	11803.32
463.68	11770.55
463.86	11878.22
464.05	11733.11
464.23	11634.80
464.41	11936.73
464.59	11613.74
464.78	12201.21
464.96	11850.13
465.14	11866.52
465.32	11913.33
465.50	12243.34
465.69	12421.22
465.87	12208.23
466.05	12224.62
466.23	12224.62
466.41	12379.09
466.60	12587.40
466.78	12072.48
466.96	12262.07
467.14	12498.46
467.32	12470.37
467.51	12578.04
467.69	12367.39
467.87	12519.53
468.05	12800.39
468.23	12484.42
468.41	12416.54
468.60	12659.96
468.78	12702.09
468.96	12655.28
469.14	12875.29
469.32	12917.42
469.50	12805.07
469.69	13125.72
469.87	13209.98
470.05	13022.74
470.23	13291.90
470.41	13188.92
470.59	13415.95
470.77	13053.17
470.95	13415.95
471.14	13589.15
471.32	13261.48
471.50	13600.85
471.68	13659.37
471.86	13605.53
472.04	13563.40
472.22	14038.53
472.40	13696.82
472.58	13973.00
472.77	13905.12
472.95	14277.27
473.13	14750.06
473.31	14059.60
473.49	14548.77
473.67	14106.41
473.85	14513.66
474.03	14422.38
474.21	14565.15
474.39	14497.28
474.57	15117.52
474.75	15176.03
474.93	15040.28
475.12	14871.76
475.30	15101.14
475.48	15098.80
475.66	15314.13
475.84	15295.40
476.02	15192.42
476.20	15389.02
476.38	15709.68
476.56	16002.24
476.74	16252.68
476.92	16065.44
477.10	15922.66
477.28	16219.91
477.46	16343.96
477.64	16617.80
477.82	16465.67
478.00	17205.28
478.18	16835.47
478.36	16915.05
478.54	17373.80
478.72	17312.94
478.90	17352.73
479.08	17532.95
479.26	17539.97
479.44	17743.60
479.62	17788.07
479.80	17891.06
479.98	18036.17
480.16	18640.03
480.34	18607.26
480.52	18691.52
480.70	18803.86
480.88	18230.43
481.06	18806.20
481.24	18654.07
481.41	19604.33
481.59	19690.93
481.77	19824.34
481.95	19714.33
482.13	19861.79
482.31	19817.32
482.49	20336.91
482.67	20175.42
482.85	20521.82
483.03	20802.68
483.21	20952.48
483.39	21097.59
483.57	20992.26
483.74	21509.52
483.92	21270.79
484.10	21322.28
484.28	21963.59
484.46	22171.89
484.64	22417.65
484.82	21867.63
485.00	22647.02
485.18	22754.69
485.35	23084.70
485.53	22822.56
485.71	23255.56
485.89	23543.45
486.07	23421.74
486.25	23906.23
486.43	23953.04
486.61	24126.24
486.78	24168.37
486.96	24350.93
487.14	24938.41
487.32	24470.30
487.50	25060.12
487.68	25181.82
487.85	25565.67
488.03	25986.97
488.21	26057.18
488.39	26246.77
488.57	26581.46
488.75	26508.91
488.92	26738.28
489.10	26630.62
489.28	26888.07
489.46	27056.59
489.64	27527.04
489.81	27831.31
489.99	27648.75
490.17	28018.55
490.35	28442.19
490.53	28215.16
490.70	28833.06
490.88	28325.16
491.06	29003.92
491.24	29013.28
491.41	28961.79
491.59	29369.04
491.77	29244.99
491.95	29766.93
492.13	29907.37
492.30	30120.35
492.48	30270.15
492.66	30113.33
492.84	30527.61
493.01	30855.28
493.19	30859.96
493.37	31225.09
493.54	31578.51
493.72	31688.51
493.90	31732.98
494.08	31931.93
494.25	31772.77
494.43	32198.75
494.61	32479.61
494.79	31810.22
494.96	32620.05
495.14	32804.95
495.32	33453.28
495.49	33474.34
495.67	33677.97
495.85	33832.44
496.02	34160.12
496.20	34185.86
496.38	34050.11
496.55	34237.36
496.73	34567.37
496.91	35040.16
497.09	35311.66
497.26	35517.63
497.44	34808.45
497.62	35356.13
497.79	36077.02
497.97	35470.82
498.14	36074.68
498.32	36397.67
498.50	36208.09
498.67	36816.63
498.85	36793.22
499.03	36605.98
499.20	37102.17
499.38	37207.50
499.56	37085.79
499.73	37586.66
499.91	37666.24
500.08	37764.54
500.26	37565.60
500.44	38017.32
500.61	37949.45
500.79	37825.40
500.97	38136.69
501.14	38731.18
501.32	38707.78
501.49	39126.74
501.67	39044.82
501.84	39012.05
502.02	39372.49
502.20	38918.43
502.37	39264.83
502.55	39452.07
502.72	39955.29
502.90	39934.22
503.07	39564.42
503.25	39896.77
503.43	40020.82
503.60	40643.40
503.78	40531.06
503.95	40390.62
504.13	41067.04
504.30	40921.93
504.48	40849.37
504.65	40596.59
504.83	41027.25
505.01	41570.25
505.18	41392.37
505.36	41509.40
505.53	41572.60
505.71	41696.64
505.88	42043.04
506.06	41626.43
506.23	42777.97
506.41	42256.03
506.58	42483.06
506.76	42164.75
506.93	42916.06
507.11	42335.61
507.28	42588.39
507.46	43349.06
507.63	43452.05
507.81	43328.00
507.98	43325.66
508.16	43297.57
508.33	43360.76
508.50	43578.43
508.68	44069.95
508.85	44149.53
509.03	44208.04
509.20	44556.78
509.38	44542.74
509.55	44385.92
509.73	44575.50
509.90	44842.32
510.08	44739.34
510.25	44903.18
510.42	44865.73
510.60	45038.93
510.77	45195.74
510.95	45654.49
511.12	45244.90
511.30	45406.39
511.47	45815.99
511.64	45698.96
511.82	46241.96
511.99	46185.79
512.17	46115.58
512.34	46169.41
512.51	46611.77
512.69	46553.26
512.86	46621.13
513.04	46862.21
513.21	46485.38
513.38	46932.42
513.56	47344.36
513.73	47030.72
513.90	47360.74
514.08	46988.60
514.25	47569.05
514.43	47550.32
514.60	47679.05
514.77	47887.36
514.95	48151.84
515.12	47634.58
515.29	47878.00
515.47	48526.33
515.64	48418.66
515.81	48287.59
515.99	48423.34
516.16	48666.76
516.33	48336.74
516.51	48697.19
516.68	48664.42
516.85	48846.98
517.03	49048.27
517.20	49516.37
517.37	48949.96
517.54	48975.71
517.72	48783.79
517.89	49223.81
518.06	49148.91
518.24	49600.63
518.41	49432.11
518.58	49322.11
518.75	49642.76
518.93	50293.43
519.10	49523.40
519.27	50094.49
519.45	49776.17
519.62	50082.78
519.79	50115.55
519.96	50167.04
520.14	50543.87
520.31	49876.82
520.48	50288.75
520.65	50391.73
520.83	50614.08
521.00	50908.99
521.17	50850.48
521.34	50937.08
521.52	50932.40
521.69	50941.76
521.86	50955.80
522.03	51503.49
522.20	51550.30
522.38	51524.55
522.55	51281.14
522.72	51821.80
522.89	51494.13
523.07	51817.12
523.24	51573.70
523.41	51763.29
523.58	51873.29
523.75	51976.28
523.92	51604.13
524.10	52126.07
524.27	52376.51
524.44	52006.70
524.61	52060.54
524.78	52325.02
524.96	52196.29
525.13	52446.72
525.30	52846.96
525.47	52605.88
525.64	52486.51
525.81	52772.06
525.98	52645.67
526.16	53052.92
526.33	52685.46
526.50	53336.13
526.67	52978.03
526.84	53191.01
527.01	52926.53
527.18	53223.78
527.36	53015.47
527.53	53160.59
527.70	53577.20
527.87	53481.24
528.04	53132.50
528.21	53455.50
528.38	53425.07
528.55	53872.11
528.72	53607.63
528.89	53478.90
529.07	53434.43
529.24	53811.26
529.41	53813.60
529.58	53783.17
529.75	53965.73
529.92	53853.39
530.09	54291.07
530.26	53886.15
530.43	54096.80
530.60	53937.65
530.77	53808.92
530.94	54347.24
531.11	54073.40
531.28	54295.75
531.46	54417.46
531.63	54667.89
531.80	54557.89
531.97	54356.60
532.14	54703.00
532.31	54593.00
532.48	54915.99
532.65	54981.52
532.82	54714.70
532.99	54876.20
533.16	54693.64
533.33	55042.38
533.50	55157.06
533.67	55004.93
533.84	54820.03
534.01	55014.29
534.18	55388.78
534.35	55337.29
534.52	55210.90
534.69	55374.73
534.86	55515.17
535.03	55206.22
535.20	55271.75
535.37	55484.74
535.54	55444.95
535.71	55356.01
535.88	55444.95
536.05	55671.98
536.22	55749.22
536.38	55585.38
536.55	55613.47
536.72	55561.98
536.89	55519.85
537.06	55700.07
537.23	55781.99
537.40	55695.39
537.57	55948.17
537.74	55718.79
537.91	56198.60
538.08	56104.98
538.25	56060.51
538.42	56109.66
538.59	56254.78
538.75	55969.23
538.92	55938.80
539.09	56294.56
539.26	56170.52
539.43	56280.52
539.60	56287.54
539.77	56385.85
539.94	56498.19
540.11	56594.15
540.28	56406.91
540.44	56650.33
540.61	56659.69
540.78	56671.39
540.95	56453.72
541.12	56629.26
541.29	56617.56
541.46	56694.80
541.62	57045.88
541.79	56603.52
541.96	56715.86
542.13	56673.73
542.30	56776.72
542.47	56947.57
542.63	57160.56
542.80	57366.53
542.97	57382.91
543.14	57389.94
543.31	57181.63
543.48	57202.69
543.64	57490.58
543.81	57535.05
543.98	57497.60
544.15	57460.15
544.32	57572.50
544.48	57701.23
544.65	57509.30
544.82	57577.18
544.99	57387.60
545.16	57567.82
545.32	57532.71
545.49	57839.32
545.66	57925.92
545.83	57572.50
546.00	57844.00
546.16	57822.93
546.33	57680.16
546.50	57710.59
546.67	57731.65
546.83	57474.20
547.00	57808.89
547.17	57874.43
547.34	58021.88
547.50	57717.61
547.67	58244.23
547.84	58131.89
548.00	58141.25
548.17	58295.72
548.34	58293.38
548.51	58401.05
548.67	58473.60
548.84	58246.57
549.01	57914.22
549.18	58094.44
549.34	58403.39
549.51	58562.54
549.68	58272.32
549.84	58527.44
550.01	58747.45
550.18	58363.60
550.34	58604.67
550.51	58550.84
550.68	58450.20
550.84	58424.45
551.01	58710.00
551.18	58656.17
551.34	58599.99
551.51	58791.92
551.68	58665.53
551.84	58642.12
552.01	58679.57
552.18	58969.80
552.34	58663.19
552.51	59002.56
552.68	58679.57
552.84	58782.55
553.01	59290.45
553.18	58894.90
553.34	58815.32
553.51	58922.99
553.67	59098.53
553.84	59147.68
554.01	58990.86
554.17	59133.63
554.34	59126.61
554.51	58993.20
554.67	59143.00
554.84	59107.89
555.00	59068.10
555.17	59135.98
555.33	59241.30
555.50	59222.58
555.67	59238.96
555.83	59049.38
556.00	59454.29
556.16	59540.89
556.33	59629.83
556.50	59367.69
556.66	59585.36
556.83	59388.75
556.99	59583.02
557.16	59564.29
557.32	59704.73
557.49	59655.57
557.65	59496.42
557.82	59421.52
557.98	59587.70
558.15	59625.15
558.32	59423.86
558.48	59688.34
558.65	59454.29
558.81	59615.79
558.98	59774.94
559.14	59793.67
559.31	59781.96
559.47	59737.49
559.64	59990.27
559.80	60076.87
559.97	59744.51
560.13	59749.20
560.30	59833.46
560.46	59866.22
560.63	59866.22
560.79	59821.75
560.96	60158.79
561.12	59980.91
561.29	59948.14
561.45	60107.30
561.61	60065.17
561.78	59971.55
561.94	60149.43
562.11	59922.40
562.27	60240.71
562.44	60229.01
562.60	60140.07
562.77	60287.52
562.93	59870.90
563.10	60013.68
563.26	59873.24
563.42	60254.75
563.59	60037.08
563.75	60163.47
563.92	60238.37
564.08	60221.98
564.24	60189.22
564.41	60301.56
564.57	60100.28
564.74	60271.14
564.90	60285.18
565.07	60177.51
565.23	60210.28
565.39	60313.26
565.56	60310.92
565.72	60334.33
565.88	60226.66
566.05	60020.70
566.21	60189.22
566.38	60561.36
566.54	60339.01
566.70	60486.46
566.87	60685.41
567.03	60273.48
567.19	60484.12
567.36	60507.53
567.52	60582.43
567.68	60643.28
567.85	60493.49
568.01	60552.00
568.17	60601.15
568.34	60472.42
568.50	60479.44
568.66	60388.16
568.83	60369.44
568.99	60441.99
569.15	60617.53
569.32	60456.04
569.48	60458.38
569.64	60498.17
569.81	60699.45
569.97	60488.80
570.13	60533.28
570.30	60451.36
570.46	60654.98
570.62	60680.73
570.78	60846.91
570.95	60537.96
571.11	60781.37
571.27	60582.43
571.43	60842.23
571.60	61029.47
571.76	60795.42
571.92	60671.37
572.09	60776.69
572.25	60764.99
572.41	60622.22
572.57	60650.30
572.74	60821.16
572.90	60626.90
573.06	60975.64
573.22	60762.65
573.38	60568.38
573.55	60729.88
573.71	60821.16
573.87	60664.35
574.03	60769.67
574.20	60706.47
574.36	60720.52
574.52	60938.19
574.68	60802.44
574.84	60865.63
575.01	60872.65
575.17	60985.00
575.33	60851.59
575.49	60704.13
575.65	60882.02
575.82	60933.51
575.98	61034.15
576.14	61113.73
576.30	60921.80
576.46	60839.89
576.62	60788.39
576.79	60891.38
576.95	60804.78
577.11	60961.59
577.27	60977.98
577.43	60853.93
577.59	60809.46
577.75	61062.24
577.92	60676.05
578.08	60863.29
578.24	60940.53
578.40	61087.98
578.56	61120.75
578.72	61076.28
578.88	60982.66
579.04	61300.97
579.21	60867.97
579.37	61275.22
579.53	61043.51
579.69	60788.39
579.85	60877.33
580.01	60835.20
580.17	60823.50
580.33	60912.44
580.49	61052.87
580.65	61207.35
580.82	61041.17
580.98	60804.78
581.14	60811.80
581.30	61076.28
581.46	60790.73
581.62	61148.84
581.78	61010.74
581.94	60968.61
582.10	61001.38
582.26	61078.62
582.42	61001.38
582.58	61073.94
582.74	61008.40
582.90	61113.73
583.06	61069.26
583.22	61102.03
583.38	61162.88
583.54	61137.13
583.70	61102.03
583.86	61132.45
584.02	61153.52
584.18	61132.45
584.34	61064.58
584.50	61188.63
584.66	60959.25
584.82	60844.57
584.98	61275.22
585.14	61109.05
585.30	60783.71
585.46	61020.11
585.62	61249.48
585.78	61235.44
585.94	60907.76
586.10	61169.90
586.26	61087.98
586.42	61097.34
586.58	61256.50
586.74	61244.80
586.90	61137.13
587.06	61015.43
587.22	61319.70
587.38	61296.29
587.54	61258.84
587.70	61460.13
587.86	61153.52
588.02	61284.59
588.18	61097.34
588.34	61055.21
588.49	61186.28
