SpectraSuite Data File
++++++++++++++++++++++++++++++++++++
Date: Fri Oct 25 11:23:21 EDT 2013
User: price-jones
Dark Spectrum Present: No
Reference Spectrum Present: No
Number of Sampled Component Spectra: 1
Spectrometers: USB2+H05261
Integration Time (usec): 100000 (USB2+H05261)
Spectra Averaged: 1 (USB2+H05261)
Boxcar Smoothing: 0 (USB2+H05261)
Correct for Electrical Dark: No (USB2+H05261)
Strobe/Lamp Enabled: No (USB2+H05261)
Correct for Detector Non-linearity: No (USB2+H05261)
Correct for Stray Light: No (USB2+H05261)
Number of Pixels in Processed Spectrum: 2048
>>>>>Begin Processed Spectral Data<<<<<
365.73	217.67
365.92	217.67
366.12	217.67
366.32	117.03
366.52	124.05
366.72	135.75
366.91	95.96
367.11	250.44
367.31	53.83
367.51	152.13
367.70	105.32
367.90	86.60
368.10	184.90
368.30	126.39
368.49	107.66
368.69	131.07
368.89	145.11
369.09	159.16
369.28	163.84
369.48	135.75
369.68	212.99
369.87	161.50
370.07	138.09
370.27	215.33
370.47	337.04
370.66	554.71
370.86	603.86
371.06	702.16
371.25	709.18
371.45	664.71
371.65	688.12
371.84	702.16
372.04	692.80
372.24	713.86
372.44	744.29
372.63	711.52
372.83	678.76
373.03	681.10
373.22	737.27
373.42	732.59
373.62	699.82
373.81	767.70
374.01	781.74
374.21	746.63
374.40	791.10
374.60	891.74
374.79	793.44
374.99	821.53
375.19	786.42
375.38	837.91
375.58	802.80
375.78	858.98
375.97	894.08
376.17	905.79
376.37	856.64
376.56	816.85
376.76	901.11
376.95	844.93
377.15	896.43
377.35	950.26
377.54	954.94
377.74	875.36
377.93	795.78
378.13	898.77
378.33	971.32
378.52	952.60
378.72	905.79
378.91	1015.79
379.11	945.58
379.31	957.28
379.50	971.32
379.70	922.17
379.89	1004.09
380.09	938.55
380.28	1053.24
380.48	978.34
380.68	929.19
380.87	999.41
381.07	994.73
381.26	966.64
381.46	1036.86
381.65	1062.60
381.85	1027.50
382.04	1029.84
382.24	1055.58
382.43	1048.56
382.63	1090.69
382.83	1053.24
383.02	1064.94
383.22	1132.82
383.41	1048.56
383.61	1104.73
383.80	1111.75
384.00	1158.57
384.19	1097.71
384.39	1121.12
384.58	1097.71
384.78	1203.04
384.97	1118.78
385.17	1203.04
385.36	1156.22
385.56	1132.82
385.75	1240.48
385.95	1132.82
386.14	1210.06
386.34	1132.82
386.53	1181.97
386.72	1132.82
386.92	1188.99
387.11	1294.32
387.31	1212.40
387.50	1240.48
387.70	1207.72
387.89	1238.14
388.09	1240.48
388.28	1268.57
388.48	1249.85
388.67	1345.81
388.86	1299.00
389.06	1242.82
389.25	1404.32
389.45	1378.58
389.64	1315.38
389.84	1291.98
390.03	1427.73
390.22	1378.58
390.42	1369.21
390.61	1444.11
390.81	1446.45
391.00	1446.45
391.19	1439.43
391.39	1448.79
391.58	1495.60
391.78	1448.79
391.97	1378.58
392.16	1469.86
392.36	1516.67
392.55	1526.03
392.75	1500.28
392.94	1598.59
393.13	1519.01
393.33	1598.59
393.52	1633.69
393.71	1600.93
393.91	1523.69
394.10	1556.46
394.29	1626.67
394.49	1565.82
394.68	1617.31
394.88	1579.86
395.07	1753.06
395.26	1652.42
395.46	1671.14
395.65	1687.53
395.84	1689.87
396.04	1734.34
396.23	1771.79
396.42	1706.25
396.62	1743.70
396.81	1701.57
397.00	1764.76
397.19	1818.60
397.39	1809.23
397.58	1858.39
397.77	1827.96
397.97	1865.41
398.16	1844.34
398.35	1900.52
398.55	1820.94
398.74	1870.09
398.93	1954.35
399.12	1947.33
399.32	1933.28
399.51	1947.33
399.70	2003.50
399.90	1930.94
400.09	1907.54
400.28	2094.78
400.47	2031.58
400.67	2031.58
400.86	2012.86
401.05	2092.44
401.24	2136.91
401.44	2157.97
401.63	2204.78
401.82	2179.04
402.01	2127.55
402.21	2246.91
402.40	2181.38
402.59	2265.64
402.78	2157.97
402.97	2120.53
403.17	2275.00
403.36	2256.28
403.55	2394.37
403.74	2333.51
403.93	2317.13
404.13	2385.01
404.32	2340.54
404.51	2408.41
404.70	2480.97
404.89	2279.68
405.09	2565.23
405.28	2478.63
405.47	2436.50
405.66	2527.78
405.85	2478.63
406.05	2499.69
406.24	2588.63
406.43	2548.84
406.62	2595.65
406.81	2736.09
407.00	2719.70
407.20	2588.63
407.39	2548.84
407.58	2813.32
407.77	2745.45
407.96	2768.85
408.15	2768.85
408.34	2724.38
408.54	2792.26
408.73	2787.58
408.92	2803.96
409.11	2820.35
409.30	2918.65
409.49	3035.67
409.68	2841.41
409.87	2995.89
410.07	3045.04
410.26	2967.80
410.45	3059.08
410.64	2888.22
410.83	3173.77
411.02	3063.76
411.21	3054.40
411.40	3047.38
411.59	3169.09
411.78	3332.92
411.98	3152.70
412.17	3178.45
412.36	3253.34
412.55	3335.26
412.74	3410.16
412.93	3475.70
413.12	3499.10
413.31	3562.30
413.50	3445.27
413.69	3405.48
413.88	3709.75
414.07	3599.74
414.26	3613.79
414.45	3747.20
414.64	3625.49
414.83	3684.00
415.02	3733.15
415.22	3765.92
415.41	3971.89
415.60	3901.67
415.79	3908.69
415.98	4067.85
416.17	4079.55
416.36	3969.55
416.55	4039.76
416.74	4060.83
416.93	4121.68
417.12	4198.92
417.31	4112.32
417.50	4217.65
417.69	4259.78
417.88	4269.14
418.07	4315.95
418.26	4353.40
418.45	4358.08
418.64	4435.32
418.83	4571.07
419.02	4552.34
419.21	4545.32
419.39	4617.88
419.58	4559.36
419.77	4554.68
419.96	4636.60
420.15	4660.01
420.34	4751.29
420.53	4727.88
420.72	4627.24
420.91	4847.25
421.10	4652.98
421.29	4798.10
421.48	4777.03
421.67	4791.08
421.86	4800.44
422.05	4870.65
422.24	4819.16
422.43	4774.69
422.61	4966.62
422.80	4973.64
422.99	4751.29
423.18	5088.32
423.37	5062.58
423.56	4933.85
423.75	4770.01
423.94	4901.08
424.13	4685.75
424.32	4849.59
424.50	5151.52
424.69	5165.56
424.88	5228.76
425.07	5008.75
425.26	4952.57
425.45	5167.90
425.64	5004.07
425.83	5067.26
426.01	5142.16
426.20	5116.41
426.39	5114.07
426.58	5221.74
426.77	5181.95
426.96	5224.08
427.15	5095.35
427.33	5137.48
427.52	5203.01
427.71	5247.48
427.90	5214.71
428.09	5305.99
428.28	5544.73
428.46	5418.34
428.65	5533.03
428.84	5467.49
429.03	5640.69
429.22	5329.40
429.40	5720.27
429.59	5612.60
429.78	5437.06
429.97	5336.42
430.16	5521.32
430.34	5556.43
430.53	5769.42
430.72	5643.03
430.91	5823.25
431.10	5696.86
431.28	5631.33
431.47	5975.39
431.66	6017.52
431.85	5802.19
432.03	5959.00
432.22	5996.45
432.41	6038.58
432.60	5895.81
432.79	6033.90
432.97	6005.81
433.16	6136.88
433.35	5902.83
433.54	6024.54
433.72	6249.23
433.91	6031.56
434.10	6228.17
434.28	6216.46
434.47	6317.11
434.66	6338.17
434.85	6331.15
435.03	6502.01
435.22	6375.62
435.41	6558.18
435.59	6644.78
435.78	6579.25
435.97	6565.20
436.16	6548.82
436.34	6544.14
436.53	6621.38
436.72	6684.57
436.90	6612.01
437.09	6626.06
437.28	6752.45
437.46	6679.89
437.65	6686.91
437.84	6663.51
438.02	6726.70
438.21	6942.03
438.40	6691.59
438.58	7042.67
438.77	7096.50
438.96	7019.27
439.14	7192.47
439.33	7276.73
439.52	7302.47
439.70	7311.83
439.89	7522.48
440.08	7543.55
440.26	7316.51
440.45	7386.73
440.63	7559.93
440.82	7606.74
441.01	7527.16
441.19	7627.81
441.38	7740.15
441.57	7850.16
441.75	7957.82
441.94	7995.27
442.12	8098.25
442.31	8023.36
442.50	8091.23
442.68	8035.06
442.87	7871.22
443.05	7969.52
443.24	8308.90
443.43	8212.94
443.61	8365.07
443.80	8503.17
443.98	8297.20
444.17	8131.02
444.35	8353.37
444.54	8451.67
444.73	8383.80
444.91	8381.46
445.10	8313.58
445.28	8177.83
445.47	8362.73
445.65	8409.54
445.84	8517.21
446.02	8622.53
446.21	8720.84
446.39	8524.23
446.58	8468.06
446.77	8514.87
446.95	8416.57
447.14	8690.41
447.32	8692.75
447.51	8437.63
447.69	8688.07
447.88	8699.77
448.06	8702.11
448.25	8760.63
448.43	8676.37
448.62	8629.56
448.80	8659.98
448.99	8594.45
449.17	8690.41
449.36	8624.87
449.54	8837.86
449.73	9015.74
449.91	9020.42
450.10	8730.20
450.28	9205.33
450.46	9266.18
450.65	9284.91
450.83	9160.86
451.02	9102.34
451.20	9217.03
451.39	9266.18
451.57	9053.19
451.76	8997.02
451.94	9163.20
452.13	9530.66
452.31	9418.32
452.49	9078.94
452.68	9259.16
452.86	9455.76
453.05	9406.61
453.23	9322.35
453.42	9217.03
453.60	9366.82
453.78	9612.58
453.97	9401.93
454.15	9472.15
454.34	9399.59
454.52	9605.56
454.70	9741.31
454.89	9717.90
455.07	9980.04
455.26	9809.19
455.44	10134.52
455.62	10057.28
455.81	9926.21
455.99	9930.89
456.17	10059.62
456.36	10017.49
456.54	10284.31
456.73	10237.50
456.91	10487.94
457.09	10637.73
457.28	10661.14
457.46	10342.83
457.64	10616.67
457.83	10724.33
458.01	10747.74
458.19	10808.59
458.38	10471.56
458.56	10918.60
458.74	10822.64
458.93	10670.50
459.11	10930.30
459.29	10890.51
459.48	10960.73
459.66	10785.19
459.84	10806.25
460.03	11162.01
460.21	11178.40
460.39	11073.07
460.57	10963.07
460.76	11117.54
460.94	11353.94
461.12	11075.42
461.31	11274.36
461.49	11386.71
461.67	11311.81
461.85	11651.19
462.04	11489.69
462.22	11616.08
462.40	11768.21
462.59	11487.35
462.77	11569.27
462.95	11648.85
463.13	11754.17
463.32	11646.51
463.50	11733.11
463.68	11964.82
463.86	11775.24
464.05	11634.80
464.23	11499.05
464.41	12177.81
464.59	11812.68
464.78	12453.99
464.96	12219.94
465.14	11880.56
465.32	12152.06
465.50	12086.53
465.69	12439.95
465.87	12196.53
466.05	12308.88
466.23	12149.72
466.41	12444.63
466.60	12669.32
466.78	12255.04
466.96	12456.33
467.14	12353.35
467.32	12636.55
467.51	12608.47
467.69	12294.83
467.87	12645.91
468.05	12585.06
468.23	12554.63
468.41	12402.50
468.60	12510.16
468.78	12894.01
468.96	12718.47
469.14	13027.42
469.32	13153.81
469.50	12706.77
469.69	13209.98
469.87	13217.01
470.05	13186.58
470.23	13380.84
470.41	13284.88
470.59	13760.01
470.77	13221.69
470.95	13561.06
471.14	13493.19
471.32	13298.92
471.50	13867.67
471.68	13706.18
471.86	13563.40
472.04	13968.32
472.22	14190.67
472.40	13881.72
472.58	13973.00
472.77	14125.13
472.95	14146.20
473.13	14618.99
473.31	14185.99
473.49	14494.94
473.67	14618.99
473.85	14469.19
474.03	14757.08
474.21	14768.78
474.39	15087.09
474.57	14817.93
474.75	15051.99
474.93	15117.52
475.12	15208.80
475.30	15325.83
475.48	15262.63
475.66	15194.76
475.84	15279.02
476.02	15473.28
476.20	15522.43
476.38	15871.17
476.56	16149.70
476.74	16023.31
476.92	16023.31
477.10	15852.45
477.28	16350.98
477.46	16411.84
477.64	16582.70
477.82	16823.77
478.00	17172.51
478.18	17020.38
478.36	17097.61
478.54	17460.40
478.72	17542.32
478.90	17678.07
479.08	17451.03
479.26	17968.29
479.44	18108.72
479.62	17881.69
479.80	18267.88
479.98	18232.77
480.16	18586.19
480.34	18436.40
480.52	18679.82
480.70	18808.54
480.88	18471.51
481.06	18841.31
481.24	18963.02
481.41	19183.03
481.59	19616.03
481.77	19447.51
481.95	19791.57
482.13	19857.10
482.31	20098.18
482.49	20456.28
482.67	20648.21
482.85	20779.28
483.03	21200.57
483.21	20676.29
483.39	21256.75
483.57	20917.37
483.74	21268.45
483.92	21310.58
484.10	21390.16
484.28	21802.09
484.46	21778.68
484.64	22466.80
484.82	22118.06
485.00	22483.19
485.18	22827.24
485.35	23316.42
485.53	23073.00
485.71	23183.01
485.89	23723.67
486.07	23480.25
486.25	23695.58
486.43	23971.77
486.61	23983.47
486.78	24290.08
486.96	24421.15
487.14	24666.91
487.32	24980.54
487.50	25076.50
487.68	25212.25
487.85	25308.21
488.03	25804.41
488.21	25853.56
488.39	26548.70
488.57	26286.56
488.75	26649.34
488.92	26506.57
489.10	26710.19
489.28	26707.85
489.46	27260.22
489.64	27367.88
489.81	28229.20
489.99	27639.39
490.17	27864.08
490.35	28311.12
490.53	28393.04
490.70	28587.30
490.88	28306.44
491.06	29029.66
491.24	29172.44
491.41	29497.77
491.59	29567.99
491.77	29591.39
491.95	29855.87
492.13	29991.62
492.30	30270.15
492.48	30494.84
492.66	30618.89
492.84	30539.31
493.01	30923.16
493.19	30827.20
493.37	31042.53
493.54	31365.52
493.72	31737.66
493.90	31683.83
494.08	32301.73
494.25	32353.23
494.43	32348.54
494.61	32643.45
494.79	32486.64
494.96	32638.77
495.14	33331.57
495.32	33415.83
495.49	33134.96
495.67	33404.13
495.85	33680.31
496.02	33996.28
496.20	34417.58
496.38	34536.94
496.55	34497.16
496.73	34946.54
496.91	34792.06
497.09	35318.68
497.26	35283.58
497.44	35035.48
497.62	35358.47
497.79	35971.69
497.97	35651.04
498.14	36149.57
498.32	36783.86
498.50	36446.82
498.67	37172.39
498.85	36816.63
499.03	37067.06
499.20	36935.99
499.38	37280.05
499.56	37226.22
499.73	37188.77
499.91	37956.47
500.08	37844.12
500.26	37638.15
500.44	37940.08
500.61	38447.98
500.79	38143.71
500.97	38122.65
501.14	38759.27
501.32	38941.83
501.49	38759.27
501.67	39288.23
501.84	39297.59
502.02	39091.63
502.20	39330.36
502.37	39285.89
502.55	39590.16
502.72	39501.22
502.90	40289.98
503.07	39789.11
503.25	40320.41
503.43	39992.73
503.60	40474.88
503.78	40818.94
503.95	40687.87
504.13	41081.08
504.30	40982.78
504.48	41010.87
504.65	41088.10
504.83	41467.27
505.01	41813.67
505.18	41282.37
505.36	41813.67
505.53	41556.21
505.71	41876.86
505.88	42122.62
506.06	41937.72
506.23	42408.17
506.41	42054.75
506.58	42263.05
506.76	42429.23
506.93	43091.60
507.11	42747.54
507.28	42658.60
507.46	43241.40
507.63	43166.50
507.81	43800.79
507.98	43344.38
508.16	43718.87
508.33	43983.35
508.50	44011.43
508.68	44257.19
508.85	44472.52
509.03	44261.87
509.20	44498.26
509.38	44729.98
509.55	45069.36
509.73	45099.78
509.90	45010.84
510.08	44884.45
510.25	45408.73
510.42	44893.82
510.60	45366.60
510.77	45727.05
510.95	45897.91
511.12	45453.20
511.30	45588.95
511.47	45738.75
511.64	45619.38
511.82	46419.84
511.99	46122.60
512.17	46396.44
512.34	46157.70
512.51	46256.01
512.69	46653.90
512.86	46485.38
513.04	46948.81
513.21	47161.79
513.38	46974.55
513.56	47201.58
513.73	47122.01
513.90	47079.88
514.08	46820.08
514.25	47604.16
514.43	47723.52
514.60	47672.03
514.77	47735.23
514.95	48205.67
515.12	47786.72
515.29	47999.71
515.47	47833.53
515.64	48676.12
515.81	48175.25
515.99	48418.66
516.16	48811.87
516.33	48755.70
516.51	49006.14
516.68	48584.84
516.85	48996.77
517.03	49446.16
517.20	49258.91
517.37	49329.13
517.54	48919.54
517.72	49226.15
517.89	49413.39
518.06	49474.24
518.24	49382.96
518.41	49734.04
518.58	49879.16
518.75	49453.18
518.93	50232.58
519.10	50003.20
519.27	50127.25
519.45	49937.67
519.62	50461.95
519.79	49930.65
519.96	50153.00
520.14	50688.98
520.31	50326.20
520.48	50791.97
520.65	50717.07
520.83	50899.63
521.00	50759.20
521.17	51044.74
521.34	51042.40
521.52	50911.33
521.69	51199.22
521.86	51639.24
522.03	51683.71
522.20	51423.91
522.38	51622.86
522.55	51606.47
522.72	51185.18
522.89	51496.47
523.07	52023.09
523.24	51739.88
523.41	52186.92
523.58	51899.04
523.75	52250.12
523.92	52072.24
524.10	52172.88
524.27	52076.92
524.44	52484.17
524.61	52137.77
524.78	52353.10
524.96	52594.18
525.13	52729.93
525.30	52978.03
525.47	53034.20
525.64	52935.90
525.81	52861.00
525.98	53071.65
526.16	52872.70
526.33	53022.50
526.50	53109.10
526.67	53041.22
526.84	53240.17
527.01	53200.38
527.18	53305.70
527.36	53301.02
527.53	53378.26
527.70	53785.51
527.87	53649.76
528.04	53380.60
528.21	53378.26
528.38	53607.63
528.55	53773.81
528.72	53488.26
528.89	53532.73
529.07	53731.68
529.24	53935.30
529.41	54120.21
529.58	53979.78
529.75	53808.92
529.92	54138.93
530.09	54045.31
530.26	54150.63
530.43	54330.86
530.60	54007.86
530.77	53939.99
530.94	54518.10
531.11	54319.15
531.28	54674.91
531.46	54466.61
531.63	54698.32
531.80	54281.70
531.97	54588.31
532.14	54871.52
532.31	54915.99
532.48	54731.09
532.65	54789.60
532.82	54845.77
532.99	55231.96
533.16	54892.58
533.33	55199.19
533.50	55201.53
533.67	55035.36
533.84	55079.83
534.01	54962.80
534.18	54904.29
534.35	55412.18
534.52	55414.52
534.69	55484.74
534.86	55451.97
535.03	55367.71
535.20	55302.18
535.37	55524.53
535.54	55583.04
535.71	55173.45
535.88	55700.07
536.05	55662.62
536.22	55756.24
536.38	55917.74
536.55	55831.14
536.72	55793.69
536.89	55540.91
537.06	55962.21
537.23	55901.36
537.40	55983.27
537.57	55899.01
537.74	56097.96
537.91	56200.94
538.08	56191.58
538.25	55971.57
538.42	56203.28
538.59	56313.29
538.75	55969.23
538.92	56514.58
539.09	56643.30
539.26	56252.44
539.43	56533.30
539.60	56615.22
539.77	56397.55
539.94	56640.96
540.11	56722.88
540.28	56746.29
540.44	56671.39
540.61	56608.20
540.78	56662.03
540.95	56753.31
541.12	56746.29
541.29	56774.37
541.46	56598.83
541.62	56816.50
541.79	56830.55
541.96	56624.58
542.13	56727.56
542.30	56982.68
542.47	57029.49
542.63	57134.82
542.80	57088.01
542.97	57296.31
543.14	57256.53
543.31	57336.10
543.48	57471.85
543.64	57656.76
543.81	57614.63
543.98	57607.61
544.15	57609.95
544.32	57787.83
544.48	58014.86
544.65	57724.63
544.82	57759.74
544.99	57436.75
545.16	57755.06
545.32	57752.72
545.49	57865.06
545.66	57853.36
545.83	57797.19
546.00	57792.51
546.16	57970.39
546.33	57900.17
546.50	57811.23
546.67	57860.38
546.83	57752.72
547.00	57923.58
547.17	58028.90
547.34	57921.24
547.50	58007.84
547.67	58269.98
547.84	58199.76
548.00	58183.38
548.17	58520.41
548.34	58227.85
548.51	58417.43
548.67	58379.98
548.84	58314.45
549.01	58347.21
549.18	58293.38
549.34	58438.50
549.51	58747.45
549.68	58639.78
549.84	58607.01
550.01	58569.57
550.18	58417.43
550.34	58569.57
550.51	58684.25
550.68	58721.70
550.84	58408.07
551.01	58761.49
551.18	58658.51
551.34	58707.66
551.51	58845.75
551.68	58845.75
551.84	58815.32
552.01	58805.96
552.18	58827.02
552.34	58862.13
552.51	58995.54
552.68	58812.98
552.84	58857.45
553.01	58969.80
553.18	58997.88
553.34	59229.60
553.51	58972.14
553.67	58934.69
553.84	59114.91
554.01	59124.27
554.17	59077.46
554.34	59231.94
554.51	59222.58
554.67	59208.53
554.84	59229.60
555.00	59194.49
555.17	59494.08
555.33	59180.45
555.50	59070.44
555.67	59124.27
555.83	59077.46
556.00	59227.26
556.16	59693.02
556.33	59405.14
556.50	59538.55
556.66	59407.48
556.83	59065.76
556.99	59522.16
557.16	59508.12
557.32	59664.94
557.49	59915.37
557.65	59800.69
557.82	59629.83
557.98	59395.77
558.15	59774.94
558.32	59730.47
558.48	59662.60
558.65	59599.40
558.81	59756.22
558.98	59671.96
559.14	59756.22
559.31	59859.20
559.47	59821.75
559.64	59934.10
559.80	59891.97
559.97	60067.51
560.13	59835.80
560.30	59903.67
560.46	59707.07
560.63	60088.57
560.79	60013.68
560.96	60011.34
561.12	60161.13
561.29	59908.35
561.45	60088.57
561.61	60051.12
561.78	59824.09
561.94	60030.06
562.11	60041.76
562.27	59938.78
562.44	60287.52
562.60	60051.12
562.77	60341.35
562.93	59955.16
563.10	60430.29
563.26	60116.66
563.42	60528.59
563.59	60210.28
563.75	60207.94
563.92	60198.58
564.08	60135.38
564.24	60268.79
564.41	60346.03
564.57	60275.82
564.74	60420.93
564.90	60341.35
565.07	60383.48
565.23	60540.30
565.39	60240.71
565.56	60556.68
565.72	60385.82
565.88	60456.04
566.05	60254.75
566.21	60540.30
566.38	60563.70
566.54	60301.56
566.70	60570.72
566.87	60507.53
567.03	60245.39
567.19	60683.07
567.36	60547.32
567.52	60481.78
567.68	60631.58
567.85	60523.91
568.01	60643.28
568.17	60556.68
568.34	60835.20
568.50	60563.70
568.66	60437.31
568.83	60774.35
568.99	60420.93
569.15	60456.04
569.32	60566.04
569.48	60624.56
569.64	60900.74
569.81	60582.43
569.97	60587.11
570.13	60708.82
570.30	60673.71
570.46	60914.78
570.62	60697.11
570.78	60757.97
570.95	60570.72
571.11	60762.65
571.27	60650.30
571.43	60764.99
571.60	60776.69
571.76	60816.48
571.92	60671.37
572.09	60788.39
572.25	60818.82
572.41	60865.63
572.57	60718.18
572.74	61092.66
572.90	60823.50
573.06	60816.48
573.22	60772.01
573.38	60849.25
573.55	60800.10
573.71	60839.89
573.87	60889.04
574.03	60753.29
574.20	60973.30
574.36	60669.03
574.52	60786.05
574.68	60996.70
574.84	61092.66
575.01	61106.71
575.17	60924.14
575.33	60804.78
575.49	60949.89
575.65	61069.26
575.82	61087.98
575.98	60999.04
576.14	61092.66
576.30	61073.94
576.46	60849.25
576.62	60907.76
576.79	60905.42
576.95	60713.50
577.11	61010.74
577.27	61146.50
577.43	61064.58
577.59	61024.79
577.75	61041.17
577.92	60879.67
578.08	61041.17
578.24	61127.77
578.40	61331.40
578.56	61352.46
578.72	61181.60
578.88	61176.92
579.04	61282.25
579.21	61141.81
579.37	61148.84
579.53	61186.28
579.69	60889.04
579.85	61017.77
580.01	61022.45
580.17	61017.77
580.33	61282.25
580.49	61104.37
580.65	61095.00
580.82	61254.16
580.98	61027.13
581.14	61020.11
581.30	61291.61
581.46	61146.50
581.62	61071.60
581.78	61123.09
581.94	61331.40
582.10	61216.71
582.26	61144.16
582.42	61127.77
582.58	61078.62
582.74	61109.05
582.90	61176.92
583.06	61069.26
583.22	60954.57
583.38	61127.77
583.54	61226.07
583.70	61361.82
583.86	61179.26
584.02	60912.44
584.18	61251.82
584.34	61200.33
584.50	61111.39
584.66	61148.84
584.82	61010.74
584.98	61380.55
585.14	61106.71
585.30	61148.84
585.46	61249.48
585.62	61254.16
585.78	61375.87
585.94	61221.39
586.10	61244.80
586.26	61186.28
586.42	61307.99
586.58	61380.55
586.74	60952.23
586.90	61350.12
587.06	61144.16
587.22	61352.46
587.38	61242.46
587.54	61453.11
587.70	61347.78
587.86	61240.12
588.02	61193.31
588.18	61389.91
588.34	61305.65
588.49	61226.07
