SpectraSuite Data File
++++++++++++++++++++++++++++++++++++
Date: Fri Oct 25 10:48:35 EDT 2013
User: price-jones
Dark Spectrum Present: No
Reference Spectrum Present: No
Number of Sampled Component Spectra: 1
Spectrometers: USB2+H05261
Integration Time (usec): 100000 (USB2+H05261)
Spectra Averaged: 1 (USB2+H05261)
Boxcar Smoothing: 0 (USB2+H05261)
Correct for Electrical Dark: No (USB2+H05261)
Strobe/Lamp Enabled: No (USB2+H05261)
Correct for Detector Non-linearity: No (USB2+H05261)
Correct for Stray Light: No (USB2+H05261)
Number of Pixels in Processed Spectrum: 2048
>>>>>Begin Processed Spectral Data<<<<<
365.73	147.45
365.92	147.45
366.12	147.45
366.32	46.81
366.52	23.41
366.72	58.51
366.91	30.43
367.11	65.54
367.31	0.00
367.51	9.36
367.70	81.92
367.90	23.41
368.10	114.69
368.30	0.00
368.49	56.17
368.69	14.04
368.89	46.81
369.09	84.26
369.28	72.56
369.48	0.00
369.68	124.05
369.87	117.03
370.07	95.96
370.27	149.79
370.47	194.26
370.66	395.55
370.86	486.83
371.06	496.19
371.25	486.83
371.45	475.13
371.65	482.15
371.84	512.58
372.04	454.06
372.24	535.98
372.44	543.00
372.63	578.11
372.83	582.79
373.03	496.19
373.22	498.53
373.42	545.34
373.62	505.56
373.81	533.64
374.01	571.09
374.21	624.92
374.40	496.19
374.60	695.14
374.79	641.31
374.99	610.88
375.19	575.77
375.38	578.11
375.58	620.24
375.78	617.90
375.97	608.54
376.17	678.76
376.37	641.31
376.56	615.56
376.76	709.18
376.95	613.22
377.15	685.78
377.35	627.26
377.54	683.44
377.74	753.65
377.93	681.10
378.13	690.46
378.33	676.41
378.52	683.44
378.72	727.91
378.91	716.20
379.11	706.84
379.31	676.41
379.50	603.86
379.70	660.03
379.89	772.38
380.09	631.94
380.28	748.97
380.48	695.14
380.68	753.65
380.87	760.67
381.07	763.01
381.26	793.44
381.46	748.97
381.65	770.04
381.85	753.65
382.04	781.74
382.24	713.86
382.43	744.29
382.63	667.05
382.83	786.42
383.02	793.44
383.22	870.68
383.41	737.27
383.61	849.61
383.80	833.23
384.00	777.06
384.19	842.59
384.39	863.66
384.58	903.45
384.78	807.48
384.97	833.23
385.17	880.04
385.36	795.78
385.56	807.48
385.75	882.38
385.95	847.27
386.14	849.61
386.34	990.05
386.53	910.47
386.72	854.30
386.92	866.00
387.11	901.11
387.31	943.24
387.50	884.72
387.70	992.39
387.89	905.79
388.09	968.98
388.28	964.30
388.48	992.39
388.67	966.64
388.86	999.41
389.06	1041.54
389.25	938.55
389.45	990.05
389.64	1034.52
389.84	1032.18
390.03	1020.47
390.22	1100.05
390.42	1050.90
390.61	1053.24
390.81	1078.99
391.00	1111.75
391.19	1074.31
391.39	1109.41
391.58	1170.27
391.78	1156.22
391.97	1210.06
392.16	1062.60
392.36	1130.48
392.55	1100.05
392.75	1053.24
392.94	1041.54
393.13	1020.47
393.33	1097.71
393.52	1137.50
393.71	1181.97
393.91	1219.42
394.10	1153.88
394.29	1200.69
394.49	1214.74
394.68	1317.72
394.88	1338.79
395.07	1324.74
395.26	1355.17
395.46	1268.57
395.65	1268.57
395.84	1364.53
396.04	1259.21
396.23	1301.34
396.42	1217.08
396.62	1200.69
396.81	1270.91
397.00	1299.00
397.19	1306.02
397.39	1357.51
397.58	1371.55
397.77	1493.26
397.97	1439.43
398.16	1507.30
398.35	1551.78
398.55	1554.12
398.74	1516.67
398.93	1605.61
399.12	1572.84
399.32	1540.07
399.51	1600.93
399.70	1629.01
399.90	1654.76
400.09	1724.97
400.28	1619.65
400.47	1675.82
400.67	1668.80
400.86	1722.63
401.05	1743.70
401.24	1757.74
401.44	1797.53
401.63	1708.59
401.82	1797.53
402.01	1820.94
402.21	1781.15
402.40	1879.45
402.59	1858.39
402.78	1877.11
402.97	1788.17
403.17	1886.47
403.36	1898.17
403.55	1865.41
403.74	1860.73
403.93	1909.88
404.13	2012.86
404.32	1891.15
404.51	1895.83
404.70	2129.89
404.89	1961.37
405.09	2076.06
405.28	1959.03
405.47	1928.60
405.66	2038.61
405.85	2136.91
406.05	2228.19
406.24	2071.37
406.43	2064.35
406.62	2153.29
406.81	2307.77
407.00	2139.25
407.20	2260.96
407.39	2246.91
407.58	2228.19
407.77	2305.43
407.96	2300.75
408.15	2473.95
408.34	2410.75
408.54	2424.80
408.73	2413.09
408.92	2394.37
409.11	2382.67
409.30	2382.67
409.49	2331.17
409.68	2473.95
409.87	2401.39
410.07	2457.56
410.26	2401.39
410.45	2377.98
410.64	2520.76
410.83	2642.46
411.02	2539.48
411.21	2679.91
411.40	2609.70
411.59	2928.01
411.78	2708.00
411.98	2684.59
412.17	2796.94
412.36	2906.95
412.55	2836.73
412.74	2874.18
412.93	2965.46
413.12	2785.24
413.31	3016.95
413.50	2995.89
413.69	2974.82
413.88	3021.63
414.07	3082.49
414.26	3098.87
414.45	3030.99
414.64	3112.91
414.83	3208.87
415.02	3204.19
415.22	3201.85
415.41	3323.56
415.60	3265.05
415.79	3297.81
415.98	3403.14
416.17	3321.22
416.36	3452.29
416.55	3300.16
416.74	3412.50
416.93	3454.63
417.12	3564.64
417.31	3342.28
417.50	3487.40
417.69	3763.58
417.88	3627.83
418.07	3588.04
418.26	3585.70
418.45	3524.85
418.64	3716.77
418.83	3740.18
419.02	3602.08
419.21	3644.21
419.39	3693.37
419.58	3581.02
419.77	3620.81
419.96	3789.33
420.15	3777.62
420.34	3850.18
420.53	3927.42
420.72	3873.59
420.91	4051.47
421.10	3955.51
421.29	4107.64
421.48	4049.13
421.67	4077.21
421.86	4053.81
422.05	3810.39
422.24	3829.12
422.43	3894.65
422.61	3974.23
422.80	4030.40
422.99	4021.04
423.18	4147.43
423.37	4168.49
423.56	4105.30
423.75	4156.79
423.94	4021.04
424.13	3817.41
424.32	4004.66
424.50	4159.13
424.69	4215.30
424.88	4205.94
425.07	4070.19
425.26	4028.06
425.45	4105.30
425.64	4166.15
425.83	4112.32
426.01	4271.48
426.20	4156.79
426.39	4222.33
426.58	4161.47
426.77	4212.96
426.96	4201.26
427.15	4131.05
427.33	4285.52
427.52	4112.32
427.71	4287.86
427.90	4404.89
428.09	4320.63
428.28	4259.78
428.46	4304.25
428.65	4322.97
428.84	4418.93
429.03	4437.66
429.22	4344.03
429.40	4421.27
429.59	4259.78
429.78	4114.66
429.97	4039.76
430.16	4051.47
430.34	4229.35
430.53	4306.59
430.72	4194.24
430.91	4280.84
431.10	4519.57
431.28	4755.97
431.47	4671.71
431.66	4702.14
431.85	4758.31
432.03	4762.99
432.22	4784.06
432.41	4678.73
432.60	4929.17
432.79	4873.00
432.97	5006.41
433.16	4849.59
433.35	4678.73
433.54	4702.14
433.72	4835.55
433.91	4898.74
434.10	4880.02
434.28	5041.51
434.47	5074.28
434.66	5013.43
434.85	5102.37
435.03	5078.96
435.22	5083.64
435.41	5350.46
435.59	5181.95
435.78	5242.80
435.97	5444.09
436.16	5327.06
436.34	5263.86
436.53	5280.25
436.72	5448.77
436.90	5139.82
437.09	5500.26
437.28	5420.68
437.46	5432.38
437.65	5277.91
437.84	5437.06
438.02	5277.91
438.21	5383.23
438.40	5348.12
438.58	5561.11
438.77	5586.86
438.96	5619.63
439.14	5746.02
439.33	6005.81
439.52	5968.37
439.70	5867.72
439.89	5970.71
440.08	5865.38
440.26	5914.53
440.45	5713.25
440.63	6066.67
440.82	6132.20
441.01	6249.23
441.19	6225.82
441.38	6134.54
441.57	6406.05
441.75	6300.72
441.94	6516.05
442.12	6368.60
442.31	6537.12
442.50	6757.13
442.68	6579.25
442.87	6616.69
443.05	6553.50
443.24	6712.66
443.43	6731.38
443.61	6768.83
443.80	6803.94
443.98	6700.95
444.17	6576.91
444.35	6960.75
444.54	6904.58
444.73	6867.13
444.91	6689.25
445.10	6839.05
445.28	6710.32
445.47	6593.29
445.65	6696.27
445.84	6846.07
446.02	6918.62
446.21	6675.21
446.39	6803.94
446.58	6892.88
446.77	7087.14
446.95	6768.83
447.14	6909.26
447.32	7021.61
447.51	6806.28
447.69	6899.90
447.88	7012.24
448.06	6970.12
448.25	6895.22
448.43	7012.24
448.62	6974.80
448.80	6946.71
448.99	7087.14
449.17	7068.42
449.36	7035.65
449.54	7150.34
449.73	7115.23
449.91	7478.01
450.10	7335.24
450.28	7702.70
450.46	7655.89
450.65	7506.10
450.83	7578.65
451.02	7398.43
451.20	7571.63
451.39	7389.07
451.57	7365.67
451.76	7426.52
451.94	7641.85
452.13	7707.38
452.31	7358.64
452.49	7403.11
452.68	7431.20
452.86	7440.56
453.05	7637.17
453.23	7473.33
453.42	7562.27
453.60	7693.34
453.78	7660.57
453.97	7667.60
454.15	7573.97
454.34	7433.54
454.52	7894.63
454.70	7831.43
454.89	8058.46
455.07	7878.24
455.26	8140.38
455.44	7896.97
455.62	7999.95
455.81	8056.12
455.99	8320.60
456.17	8360.39
456.36	8133.36
456.54	8369.76
456.73	8507.85
456.91	8503.17
457.09	8421.25
457.28	8561.68
457.46	8336.99
457.64	8535.93
457.83	8449.33
458.01	8161.45
458.19	8428.27
458.38	8423.59
458.56	8718.50
458.74	8706.79
458.93	8557.00
459.11	8723.18
459.29	8475.08
459.48	8620.19
459.66	8723.18
459.84	8655.30
460.03	8858.93
460.21	8833.18
460.39	8638.92
460.57	8769.99
460.76	8868.29
460.94	8847.22
461.12	9008.72
461.31	9151.49
461.49	8936.17
461.67	8929.14
461.85	9142.13
462.04	8987.66
462.22	9596.20
462.40	9364.48
462.59	9100.00
462.77	9343.42
462.95	9270.86
463.13	9158.52
463.32	9235.75
463.50	9303.63
463.68	9387.89
463.86	9296.61
464.05	9188.94
464.23	9348.10
464.41	9528.32
464.59	9289.59
464.78	9479.17
464.96	9383.21
465.14	9350.44
465.32	9575.13
465.50	9673.43
465.69	9617.26
465.87	9516.62
466.05	9675.77
466.23	9432.36
466.41	9420.66
466.60	9465.13
466.78	9502.58
466.96	9465.13
467.14	9537.68
467.32	9643.01
467.51	10052.60
467.69	9788.12
467.87	10001.11
468.05	9914.51
468.23	9724.93
468.41	9795.14
468.60	9832.59
468.78	9930.89
468.96	9996.43
469.14	10104.09
469.32	10300.70
469.50	9816.21
469.69	9898.13
469.87	10115.80
470.05	10204.74
470.23	9994.09
470.41	10090.05
470.59	10349.85
470.77	10256.23
470.95	10368.57
471.14	10394.32
471.32	10410.70
471.50	10420.06
471.68	10534.75
471.86	10743.06
472.04	11005.20
472.22	10909.24
472.40	10579.22
472.58	10832.00
472.77	10792.21
472.95	10888.17
473.13	11117.54
473.31	10949.03
473.49	10927.96
473.67	11183.08
473.85	11332.87
474.03	11412.45
474.21	11379.68
474.39	11496.71
474.57	11534.16
474.75	11639.48
474.93	11480.33
475.12	11309.47
475.30	11777.58
475.48	11489.69
475.66	11819.71
475.84	11625.44
476.02	11880.56
476.20	11836.09
476.38	11934.39
476.56	12393.14
476.74	12449.31
476.92	11950.78
477.10	12149.72
477.28	12596.76
477.46	12571.02
477.64	12592.08
477.82	12830.82
478.00	13083.59
478.18	13099.98
478.36	13109.34
478.54	13064.87
478.72	13343.39
478.90	13399.57
479.08	13448.72
479.26	13734.26
479.44	13682.77
479.62	13743.63
479.80	13769.37
479.98	13741.29
480.16	14211.73
480.34	13781.07
480.52	14413.02
480.70	14148.54
480.88	14300.67
481.06	14408.34
481.24	14408.34
481.41	14616.65
481.59	15054.33
481.77	14745.38
481.95	15059.01
482.13	15140.93
482.31	15169.01
482.49	15573.92
482.67	15396.04
482.85	15466.26
483.03	15351.57
483.21	16170.76
483.39	16145.02
483.57	15868.83
483.74	15838.41
483.92	16252.68
484.10	16386.09
484.28	16208.21
484.46	16877.60
484.64	17280.18
484.82	16730.15
485.00	16723.13
485.18	16964.20
485.35	16975.91
485.53	16844.84
485.71	16727.81
485.89	16886.97
486.07	16938.46
486.25	17294.22
486.43	17476.78
486.61	17593.81
486.78	17802.11
486.96	18115.75
487.14	18321.71
487.32	18293.63
487.50	18661.09
487.68	18939.62
487.85	19211.12
488.03	18993.45
488.21	19300.06
488.39	19009.83
488.57	19152.60
488.75	19374.95
488.92	20018.60
489.10	20077.12
489.28	20067.75
489.46	20547.56
489.64	20393.09
489.81	20622.46
489.99	20823.75
490.17	20994.61
490.35	21254.40
490.53	20929.07
490.70	21586.76
490.88	21523.57
491.06	21397.18
491.24	21465.05
491.41	21795.07
491.59	21675.70
491.77	21556.33
491.95	21837.20
492.13	22094.66
492.30	22380.20
492.48	22403.61
492.66	22338.07
492.84	22501.91
493.01	22883.42
493.19	22726.60
493.37	23030.87
493.54	23143.22
493.72	23477.91
493.90	23552.81
494.08	23648.77
494.25	23939.00
494.43	23985.81
494.61	23992.83
494.79	24259.65
494.96	24432.85
495.14	24505.41
495.32	24177.73
495.49	24704.35
495.67	24608.39
495.85	25085.86
496.02	25230.98
496.20	25345.66
496.38	25041.39
496.55	25062.46
496.73	25816.11
496.91	25441.62
497.09	25841.85
497.26	25844.20
497.44	26333.37
497.62	25970.58
497.79	25898.03
497.97	25844.20
498.14	26302.94
498.32	26595.51
498.50	26462.10
498.67	26581.46
498.85	27143.19
499.03	27300.01
499.20	27199.37
499.38	27005.10
499.56	27527.04
499.73	27344.48
499.91	27711.94
500.08	27339.80
500.26	27257.88
500.44	27417.04
500.61	27531.72
500.79	27171.28
500.97	27936.63
501.14	28151.96
501.32	28236.22
501.49	28245.58
501.67	28276.01
501.84	28166.01
502.02	28465.60
502.20	28713.69
502.37	29256.70
502.55	28669.22
502.72	28669.22
502.90	28999.24
503.07	29006.26
503.25	29322.23
503.43	28800.29
503.60	29347.98
503.78	29085.84
503.95	29273.08
504.13	29230.95
504.30	29591.39
504.48	29441.60
504.65	29748.21
504.83	29851.19
505.01	30183.55
505.18	30253.76
505.36	30600.16
505.53	30274.83
505.71	30576.76
505.88	30984.01
506.06	30412.92
506.23	30829.54
506.41	30415.26
506.58	30984.01
506.76	30902.09
506.93	31000.40
507.11	30862.30
507.28	31037.84
507.46	31075.29
507.63	31096.36
507.81	31335.09
507.98	31735.32
508.16	31524.68
508.33	32041.93
508.50	31976.40
508.68	31784.48
508.85	32067.68
509.03	32020.87
509.20	31866.39
509.38	32044.27
509.55	32425.78
509.73	32720.69
509.90	32437.48
510.08	32353.23
510.25	32692.60
510.42	32287.69
510.60	32833.04
510.77	32959.42
510.95	33769.25
511.12	32725.37
511.30	33228.59
511.47	33413.49
511.64	33500.09
511.82	33656.90
511.99	33502.43
512.17	33404.13
512.34	33490.73
512.51	33359.66
512.69	33703.71
512.86	33640.52
513.04	33935.43
513.21	33865.21
513.38	33483.70
513.56	33635.84
513.73	33993.94
513.90	34422.26
514.08	34457.37
514.25	34352.04
514.43	34312.25
514.60	34962.92
514.77	34204.59
514.95	34752.27
515.12	34639.93
515.29	34419.92
515.47	34967.60
515.64	35330.39
515.81	35145.48
515.99	34457.37
516.16	34401.19
516.33	34700.78
516.51	35089.31
516.68	34017.35
516.85	34169.48
517.03	34501.84
517.20	34843.56
517.37	35192.30
517.54	35435.71
517.72	35253.15
517.89	35524.65
518.06	35124.42
518.24	35021.44
518.41	35447.41
518.58	35482.52
518.75	35665.08
518.93	35992.76
519.10	36074.68
519.27	36376.61
519.45	36292.35
519.62	36156.60
519.79	36961.74
519.96	36549.81
520.14	36364.90
520.31	36259.58
520.48	36662.15
520.65	36935.99
520.83	37116.22
521.00	37001.53
521.17	37067.06
521.34	37144.30
521.52	37687.31
521.69	37507.08
521.86	37474.32
522.03	37546.87
522.20	37605.39
522.38	37586.66
522.55	37921.36
522.72	37436.87
522.89	37427.51
523.07	37633.47
523.24	37837.10
523.41	37909.66
523.58	38050.09
523.75	38103.92
523.92	38436.28
524.10	38447.98
524.27	38398.83
524.44	38490.11
524.61	38520.54
524.78	38892.68
524.96	38735.87
525.13	38817.78
525.30	38897.36
525.47	38813.10
525.64	38927.79
525.81	38794.38
525.98	38354.36
526.16	38590.75
526.33	38288.82
526.50	38780.34
526.67	38609.48
526.84	38932.47
527.01	38377.76
527.18	38941.83
527.36	39288.23
527.53	39232.06
527.70	40079.33
527.87	39571.44
528.04	39711.87
528.21	40076.99
528.38	39966.99
528.55	40346.15
528.72	40144.87
528.89	40357.86
529.07	40030.18
529.24	39737.62
529.41	39934.22
529.58	39761.02
529.75	39901.45
529.92	40299.34
530.09	40231.47
530.26	40620.00
530.43	40493.61
530.60	40020.82
530.77	40722.98
530.94	40795.54
531.11	40643.40
531.28	40196.36
531.46	40905.54
531.63	41247.26
531.80	40973.42
531.97	40332.11
532.14	40418.71
532.31	40371.90
532.48	40694.89
532.65	40760.43
532.82	40863.41
532.99	41600.68
533.16	40692.55
533.33	40914.90
533.50	41516.42
533.67	41214.49
533.84	41034.27
534.01	41116.19
534.18	41123.21
534.35	41808.99
534.52	41563.23
534.69	42101.56
534.86	41439.18
535.03	41507.06
535.20	41741.11
535.37	42384.76
535.54	42422.21
535.71	42241.99
535.88	42153.05
536.05	42064.11
536.22	41851.12
536.38	41858.14
536.55	42047.72
536.72	42120.28
536.89	42040.70
537.06	42176.45
537.23	42574.34
537.40	42075.81
537.57	42052.41
537.74	42351.99
537.91	42260.71
538.08	42232.63
538.25	42040.70
538.42	42918.40
538.59	42670.31
538.75	42085.17
538.92	42628.18
539.09	42471.36
539.26	42712.44
539.43	42380.08
539.60	42672.65
539.77	42539.24
539.94	42607.11
540.11	42562.64
540.28	42892.66
540.44	42569.66
540.61	42529.87
540.78	42803.72
540.95	42906.70
541.12	42960.53
541.29	43002.66
541.46	42806.06
541.62	43217.99
541.79	43262.46
541.96	42895.00
542.13	43105.65
542.30	43124.37
542.47	43257.78
542.63	43119.69
542.80	43744.61
542.97	43913.13
543.14	43707.16
543.31	43831.21
543.48	44102.71
543.64	44093.35
543.81	43868.66
543.98	44196.34
544.15	44004.41
544.32	44332.09
544.48	44388.26
544.65	43592.48
544.82	43976.33
544.99	43917.81
545.16	44072.29
545.32	44287.62
545.49	44577.84
545.66	44708.91
545.83	44470.18
546.00	44135.48
546.16	44655.08
546.33	44491.24
546.50	43847.60
546.67	44388.26
546.83	43676.74
547.00	44666.78
547.17	44222.08
547.34	44772.11
547.50	44479.54
547.67	44886.79
547.84	44849.35
548.00	44715.93
548.17	45006.16
548.34	45013.18
548.51	45485.97
548.67	45380.65
548.84	44917.22
549.01	45223.83
549.18	44994.46
549.34	44872.75
549.51	45315.11
549.68	45043.61
549.84	44980.42
550.01	45390.01
550.18	44818.92
550.34	45247.24
550.51	45120.85
550.68	45247.24
550.84	45209.79
551.01	45336.18
551.18	45394.69
551.34	45790.24
551.51	45607.68
551.68	45879.18
551.84	45621.72
552.01	44987.44
552.18	45797.26
552.34	45120.85
552.51	45296.39
552.68	45474.27
552.84	46323.88
553.01	46087.49
553.18	45628.74
553.34	45984.51
553.51	45605.34
553.67	45785.56
553.84	46202.18
554.01	46258.35
554.17	46110.89
554.34	46057.06
554.51	45972.80
554.67	46394.10
554.84	46010.25
555.00	45698.96
555.17	46206.86
555.33	45848.75
555.50	46021.95
555.67	45851.09
555.83	46263.03
556.00	46281.75
556.16	46464.32
556.33	46218.56
556.50	46382.40
556.66	46529.85
556.83	46073.45
556.99	45904.93
557.16	46272.39
557.32	46604.75
557.49	46440.91
557.65	46183.45
557.82	46192.81
557.98	46478.36
558.15	46337.93
558.32	46291.12
558.48	46403.46
558.65	46656.24
558.81	46616.45
558.98	45743.43
559.14	46204.52
559.31	46522.83
559.47	46459.63
559.64	46590.70
559.80	46370.69
559.97	46422.19
560.13	46501.76
560.30	46248.99
560.46	46703.05
560.63	46415.16
560.79	46632.83
560.96	47058.81
561.12	46401.12
561.29	46548.57
561.45	46951.15
561.61	47267.12
561.78	46951.15
561.94	46272.39
562.11	46885.61
562.27	46344.95
562.44	46525.17
562.60	47091.58
562.77	46911.36
562.93	46555.60
563.10	46845.82
563.26	46543.89
563.42	46932.42
563.59	46698.37
563.75	46923.06
563.92	47002.64
564.08	46649.22
564.24	47026.04
564.41	46787.31
564.57	47192.22
564.74	47077.54
564.90	47054.13
565.07	47089.24
565.23	47058.81
565.39	47227.33
565.56	47021.36
565.72	46555.60
565.88	46916.04
566.05	46770.93
566.21	47009.66
566.38	47068.17
566.54	46871.57
566.70	47224.99
566.87	47646.29
567.03	47072.85
567.19	47342.02
567.36	46986.25
567.52	46969.87
567.68	47386.49
567.85	46885.61
568.01	46412.82
568.17	46869.23
568.34	47072.85
568.50	47091.58
568.66	46918.38
568.83	47255.42
568.99	47114.98
569.15	47021.36
569.32	46532.19
569.48	47021.36
569.64	47573.73
569.81	47145.41
569.97	47147.75
570.13	46651.56
570.30	46653.90
570.46	46796.67
570.62	46157.70
570.78	46710.07
570.95	46930.08
571.11	47061.15
571.27	47239.03
571.43	47260.10
571.60	47283.50
571.76	47271.80
571.92	46894.97
572.09	47590.11
572.25	46993.28
572.41	47105.62
572.57	47311.59
572.74	47447.34
572.90	47271.80
573.06	47061.15
573.22	47360.74
573.38	47051.79
573.55	46827.10
573.71	47597.13
573.87	46878.59
574.03	47760.97
574.20	47168.82
574.36	47100.94
574.52	47358.40
574.68	47320.95
574.84	47253.08
575.01	47192.22
575.17	47264.78
575.33	46829.44
575.49	47154.77
575.65	47807.78
575.82	47480.11
575.98	47456.70
576.14	47452.02
576.30	47145.41
576.46	47019.02
576.62	46925.40
576.79	47440.32
576.95	46234.94
577.11	47154.77
577.27	47325.63
577.43	47379.46
577.59	46859.87
577.75	47316.27
577.92	47194.56
578.08	46681.98
578.24	46653.90
578.40	47222.65
578.56	47068.17
578.72	46815.40
578.88	47388.83
579.04	47222.65
579.21	47150.09
579.37	47288.18
579.53	46770.93
579.69	46953.49
579.85	47199.24
580.01	47505.85
580.17	47496.49
580.33	47611.18
580.49	47283.50
580.65	47278.82
580.82	47246.05
580.98	47131.37
581.14	47468.40
581.30	47718.84
581.46	47260.10
581.62	47349.04
581.78	47229.67
581.94	47936.51
582.10	47349.04
582.26	47758.63
582.42	47690.76
582.58	47459.04
582.74	47180.52
582.90	47437.98
583.06	47613.52
583.22	47728.20
583.38	47760.97
583.54	47330.31
583.70	47489.47
583.86	47395.85
584.02	46932.42
584.18	47215.63
584.34	47646.29
584.50	47330.31
584.66	47283.50
584.82	47351.38
584.98	47545.64
585.14	47601.82
585.30	47084.56
585.46	47262.44
585.62	47224.99
585.78	47021.36
585.94	47164.14
586.10	47290.52
586.26	47316.27
586.42	47398.19
586.58	47580.75
586.74	47367.76
586.90	47360.74
587.06	47091.58
587.22	47697.78
587.38	47339.68
587.54	47316.27
587.70	47419.25
587.86	47440.32
588.02	47278.82
588.18	47445.00
588.34	47353.72
588.49	47100.94
588.65	46689.01
588.81	47185.20
588.97	47194.56
589.13	46951.15
589.29	46829.44
589.45	46909.02
589.61	47185.20
589.77	47320.95
