SpectraSuite Data File
++++++++++++++++++++++++++++++++++++
Date: Fri Oct 25 10:48:27 EDT 2013
User: price-jones
Dark Spectrum Present: No
Reference Spectrum Present: No
Number of Sampled Component Spectra: 1
Spectrometers: USB2+H05261
Integration Time (usec): 100000 (USB2+H05261)
Spectra Averaged: 1 (USB2+H05261)
Boxcar Smoothing: 0 (USB2+H05261)
Correct for Electrical Dark: No (USB2+H05261)
Strobe/Lamp Enabled: No (USB2+H05261)
Correct for Detector Non-linearity: No (USB2+H05261)
Correct for Stray Light: No (USB2+H05261)
Number of Pixels in Processed Spectrum: 2048
>>>>>Begin Processed Spectral Data<<<<<
365.73	201.29
365.92	201.29
366.12	201.29
366.32	0.00
366.52	95.96
366.72	70.22
366.91	63.19
367.11	100.64
367.31	28.09
367.51	0.00
367.70	9.36
367.90	46.81
368.10	60.85
368.30	79.58
368.49	0.00
368.69	21.06
368.89	74.90
369.09	0.00
369.28	35.11
369.48	149.79
369.68	114.69
369.87	131.07
370.07	112.35
370.27	184.90
370.47	229.37
370.66	414.27
370.86	454.06
371.06	519.60
371.25	507.90
371.45	416.62
371.65	500.87
371.84	507.90
372.04	519.60
372.24	526.62
372.44	528.96
372.63	517.26
372.83	545.34
373.03	547.69
373.22	507.90
373.42	552.37
373.62	594.50
373.81	580.45
374.01	564.07
374.21	538.32
374.40	655.35
374.60	624.92
374.79	507.90
374.99	617.90
375.19	550.03
375.38	603.86
375.58	601.52
375.78	617.90
375.97	681.10
376.17	681.10
376.37	638.97
376.56	594.50
376.76	613.22
376.95	650.67
377.15	685.78
377.35	685.78
377.54	667.05
377.74	674.07
377.93	697.48
378.13	744.29
378.33	669.39
378.52	723.23
378.72	657.69
378.91	641.31
379.11	681.10
379.31	624.92
379.50	653.01
379.70	629.60
379.89	732.59
380.09	624.92
380.28	788.76
380.48	739.61
380.68	622.58
380.87	725.57
381.07	709.18
381.26	716.20
381.46	676.41
381.65	758.33
381.85	781.74
382.04	744.29
382.24	711.52
382.43	709.18
382.63	777.06
382.83	744.29
383.02	788.76
383.22	758.33
383.41	669.39
383.61	774.72
383.80	753.65
384.00	833.23
384.19	751.31
384.39	835.57
384.58	784.08
384.78	795.78
384.97	774.72
385.17	786.42
385.36	851.96
385.56	791.10
385.75	842.59
385.95	812.17
386.14	837.91
386.34	905.79
386.53	863.66
386.72	821.53
386.92	849.61
387.11	873.02
387.31	912.81
387.50	912.81
387.70	870.68
387.89	887.06
388.09	894.08
388.28	866.00
388.48	903.45
388.67	891.74
388.86	957.28
389.06	924.51
389.25	961.96
389.45	1039.20
389.64	1004.09
389.84	1041.54
390.03	1078.99
390.22	1025.15
390.42	1053.24
390.61	990.05
390.81	1071.97
391.00	1053.24
391.19	1046.22
391.39	1027.50
391.58	1029.84
391.78	987.71
391.97	992.39
392.16	1032.18
392.36	1088.35
392.55	1069.62
392.75	1013.45
392.94	990.05
393.13	1025.15
393.33	1020.47
393.52	1104.73
393.71	1123.46
393.91	1088.35
394.10	1041.54
394.29	1165.59
394.49	1170.27
394.68	1158.57
394.88	1198.35
395.07	1247.51
395.26	1289.64
395.46	1238.14
395.65	1247.51
395.84	1324.74
396.04	1196.01
396.23	1142.18
396.42	1139.84
396.62	1198.35
396.81	1153.88
397.00	1280.27
397.19	1263.89
397.39	1329.42
397.58	1299.00
397.77	1359.85
397.97	1369.21
398.16	1455.81
398.35	1467.52
398.55	1411.34
398.74	1327.08
398.93	1549.43
399.12	1460.49
399.32	1441.77
399.51	1448.79
399.70	1558.80
399.90	1462.83
400.09	1577.52
400.28	1509.65
400.47	1533.05
400.67	1579.86
400.86	1540.07
401.05	1629.01
401.24	1687.53
401.44	1603.27
401.63	1647.74
401.82	1701.57
402.01	1743.70
402.21	1666.46
402.40	1675.82
402.59	1591.56
402.78	1816.26
402.97	1689.87
403.17	1771.79
403.36	1701.57
403.55	1694.55
403.74	1813.92
403.93	1912.22
404.13	1853.70
404.32	1825.62
404.51	1788.17
404.70	1842.00
404.89	1837.32
405.09	1919.24
405.28	1881.79
405.47	1914.56
405.66	1912.22
405.85	2019.88
406.05	1877.11
406.24	1921.58
406.43	1933.28
406.62	1966.05
406.81	2104.14
407.00	2036.27
407.20	2024.56
407.39	2033.93
407.58	1959.03
407.77	2059.67
407.96	2115.84
408.15	2204.78
408.34	2157.97
408.54	2197.76
408.73	2286.70
408.92	2204.78
409.11	2289.04
409.30	2188.40
409.49	2122.87
409.68	2162.66
409.87	2296.07
410.07	2263.30
410.26	2328.83
410.45	2324.15
410.64	2321.81
410.83	2403.73
411.02	2375.64
411.21	2422.45
411.40	2527.78
411.59	2478.63
411.78	2567.57
411.98	2504.37
412.17	2495.01
412.36	2497.35
412.55	2548.84
412.74	2605.02
412.93	2612.04
413.12	2750.13
413.31	2775.88
413.50	2773.53
413.69	2916.31
413.88	2719.70
414.07	2834.39
414.26	2815.66
414.45	2750.13
414.64	2956.10
414.83	3026.31
415.02	2977.16
415.22	2885.88
415.41	3206.53
415.60	3084.83
415.79	3103.55
415.98	3169.09
416.17	3094.19
416.36	3183.13
416.55	3141.00
416.74	3148.02
416.93	3155.04
417.12	3141.00
417.31	3204.19
417.50	3187.81
417.69	3370.37
417.88	3393.78
418.07	3353.99
418.26	3272.07
418.45	3342.28
418.64	3499.10
418.83	3435.91
419.02	3480.38
419.21	3461.65
419.39	3463.99
419.58	3442.93
419.77	3478.04
419.96	3426.54
420.15	3431.23
420.34	3435.91
420.53	3536.55
420.72	3667.62
420.91	3609.11
421.10	3688.68
421.29	3737.84
421.48	3653.58
421.67	3829.12
421.86	3700.39
422.05	3751.88
422.24	3674.64
422.43	3698.05
422.61	3693.37
422.80	3756.56
422.99	3878.27
423.18	3803.37
423.37	3829.12
423.56	3836.14
423.75	3796.35
423.94	3859.54
424.13	3613.79
424.32	3740.18
424.50	3866.56
424.69	3794.01
424.88	3826.78
425.07	3791.67
425.26	3782.31
425.45	3864.22
425.64	3955.51
425.83	3904.01
426.01	3913.38
426.20	3941.46
426.39	3904.01
426.58	3896.99
426.77	3794.01
426.96	3929.76
427.15	3929.76
427.33	3932.10
427.52	3943.80
427.71	4124.02
427.90	3936.78
428.09	3894.65
428.28	3950.82
428.46	3990.61
428.65	4044.45
428.84	4056.15
429.03	4081.89
429.22	4077.21
429.40	4049.13
429.59	4065.51
429.78	3901.67
429.97	3801.03
430.16	3995.29
430.34	4091.26
430.53	4065.51
430.72	4098.28
430.91	4070.19
431.10	4313.61
431.28	4381.48
431.47	4505.53
431.66	4454.04
431.85	4472.76
432.03	4449.36
432.22	4552.34
432.41	4559.36
432.60	4442.34
432.79	4514.89
432.97	4718.52
433.16	4461.06
433.35	4641.28
433.54	4496.17
433.72	4634.26
433.91	4681.07
434.10	4578.09
434.28	4795.76
434.47	4748.95
434.66	4716.18
434.85	4894.06
435.03	4863.63
435.22	4741.93
435.41	5046.20
435.59	4706.82
435.78	4912.78
435.97	4985.34
436.16	4901.08
436.34	4830.87
436.53	5036.83
436.72	5090.67
436.90	5001.72
437.09	5034.49
437.28	5032.15
437.46	5135.14
437.65	5221.74
437.84	5041.51
438.02	5053.22
438.21	5165.56
438.40	5123.43
438.58	5191.31
438.77	5235.78
438.96	5406.64
439.14	5371.53
439.33	5423.02
439.52	5516.64
439.70	5514.30
439.89	5547.07
440.08	5451.11
440.26	5682.82
440.45	5586.86
440.63	5724.95
440.82	5809.21
441.01	5802.19
441.19	5755.38
441.38	5951.98
441.57	5921.56
441.75	5902.83
441.94	5872.40
442.12	6129.86
442.31	6214.12
442.50	6033.90
442.68	6008.16
442.87	6171.99
443.05	6155.61
443.24	6284.34
443.43	6279.66
443.61	6263.27
443.80	6286.68
443.98	6232.85
444.17	6127.52
444.35	6366.26
444.54	6548.82
444.73	6298.38
444.91	6394.34
445.10	6342.85
445.28	6267.95
445.47	6162.63
445.65	6282.00
445.84	6349.87
446.02	6317.11
446.21	6354.55
446.39	6319.45
446.58	6541.80
446.77	6282.00
446.95	6457.54
447.14	6626.06
447.32	6637.76
447.51	6553.50
447.69	6483.28
447.88	6434.13
448.06	6464.56
448.25	6384.98
448.43	6710.32
448.62	6635.42
448.80	6448.18
448.99	6689.25
449.17	6588.61
449.36	6581.59
449.54	6813.30
449.73	6796.92
449.91	6920.96
450.10	6855.43
450.28	7112.89
450.46	7066.08
450.65	7014.59
450.83	7115.23
451.02	6850.75
451.20	7070.76
451.39	6979.48
451.57	6981.82
451.76	6789.89
451.94	7232.26
452.13	7054.37
452.31	6970.12
452.49	6817.98
452.68	7033.31
452.86	7026.29
453.05	7162.04
453.23	7098.84
453.42	7016.93
453.60	7075.44
453.78	7208.85
453.97	7255.66
454.15	7063.74
454.34	7316.51
454.52	7302.47
454.70	7349.28
454.89	7370.35
455.07	7335.24
455.26	7421.84
455.44	7702.70
455.62	7475.67
455.81	7592.70
455.99	7522.48
456.17	7648.87
456.36	7494.40
456.54	7569.29
456.73	7686.32
456.91	7817.39
457.09	7861.86
457.28	8021.02
457.46	7810.37
457.64	8013.99
457.83	7864.20
458.01	7744.83
458.19	8112.30
458.38	7990.59
458.56	8166.13
458.74	8339.33
458.93	7953.14
459.11	8229.32
459.29	8079.53
459.48	8093.57
459.66	8187.19
459.84	8100.59
460.03	8304.22
460.21	8292.52
460.39	8252.73
460.57	8196.56
460.76	8320.60
460.94	8393.16
461.12	8451.67
461.31	8461.04
461.49	8484.44
461.67	8407.20
461.85	8685.73
462.04	8376.78
462.22	9116.39
462.40	8549.98
462.59	8514.87
462.77	8669.34
462.95	8819.14
463.13	8608.49
463.32	8664.66
463.50	8608.49
463.68	8812.12
463.86	8753.60
464.05	8676.37
464.23	8510.19
464.41	8805.10
464.59	8674.03
464.78	9083.62
464.96	9114.05
465.14	8786.37
465.32	9191.28
465.50	8887.01
465.69	9123.41
465.87	9036.81
466.05	9104.68
466.23	8896.38
466.41	8938.51
466.60	9064.89
466.78	8889.35
466.96	8950.21
467.14	9022.77
467.32	9153.84
467.51	9202.99
467.69	9029.79
467.87	9268.52
468.05	9249.80
468.23	9144.47
468.41	9273.20
468.60	9378.53
468.78	9350.44
468.96	9205.33
469.14	9179.58
469.32	9387.89
469.50	9280.22
469.69	9643.01
469.87	9572.79
470.05	9582.15
470.23	9753.01
470.41	9577.47
470.59	9603.22
470.77	9591.52
470.95	9699.18
471.14	9870.04
471.32	9605.56
471.50	10190.69
471.68	9870.04
471.86	10113.45
472.04	10237.50
472.22	10319.42
472.40	10059.62
472.58	10136.86
472.77	10015.15
472.95	10305.38
473.13	10740.72
473.31	10029.20
473.49	10471.56
473.67	10218.78
473.85	10368.57
474.03	10583.90
474.21	10600.29
474.39	10897.53
474.57	10846.04
474.75	11040.31
474.93	10939.66
475.12	11098.82
475.30	11059.03
475.48	10946.69
475.66	10869.45
475.84	10988.82
476.02	11117.54
476.20	10981.79
476.38	11211.17
476.56	11613.74
476.74	11417.13
476.92	11496.71
477.10	11676.93
477.28	11595.01
477.46	11702.68
477.64	12145.04
477.82	11871.20
478.00	12224.62
478.18	12189.51
478.36	12322.92
478.54	12369.73
478.72	12519.53
478.90	12681.02
479.08	12816.77
479.26	12762.94
479.44	13008.70
479.62	12702.09
479.80	13060.19
479.98	13008.70
480.16	13605.53
480.34	12837.84
480.52	13420.63
480.70	13172.54
480.88	13392.55
481.06	13486.17
481.24	13556.38
481.41	13907.46
481.59	14221.10
481.77	14197.69
481.95	13980.02
482.13	14115.77
482.31	13937.89
482.49	14490.26
482.67	14565.15
482.85	14934.96
483.03	14728.99
483.21	14951.34
483.39	15274.34
483.57	15192.42
483.74	15445.20
483.92	15091.77
484.10	14927.94
484.28	15529.45
484.46	15791.59
484.64	16154.38
484.82	15667.55
485.00	15934.37
485.18	15796.28
485.35	16070.12
485.53	15976.50
485.71	16107.57
485.89	16250.34
486.07	16238.64
486.25	16542.91
486.43	16582.70
486.61	16767.60
486.78	17146.76
486.96	17205.28
487.14	17039.10
487.32	17488.48
487.50	17558.70
487.68	17692.11
487.85	17825.52
488.03	18134.47
488.21	18335.76
488.39	18050.21
488.57	18480.87
488.75	18370.86
488.92	18677.48
489.10	18806.20
489.28	19042.60
489.46	19309.42
489.64	19407.72
489.81	19903.92
489.99	19719.01
490.17	19339.85
490.35	20009.24
490.53	19686.25
490.70	20081.80
490.88	20016.26
491.06	20460.96
491.24	20294.79
491.41	20400.11
491.59	20360.32
491.77	20334.57
491.95	20678.63
492.13	20985.24
492.30	20802.68
492.48	21436.97
492.66	21240.36
492.84	21303.56
493.01	21596.12
493.19	21902.73
493.37	22050.19
493.54	22136.79
493.72	22216.36
493.90	22298.28
494.08	22537.02
494.25	22796.82
494.43	22761.71
494.61	22845.97
494.79	22916.19
494.96	22988.74
495.14	23098.75
495.32	23433.44
495.49	23377.27
495.67	23616.01
495.85	23765.80
496.02	23920.28
496.20	24135.60
496.38	23939.00
496.55	24018.58
496.73	24517.11
496.91	24379.02
497.09	24327.53
497.26	24439.87
497.44	24271.36
497.62	24875.21
497.79	25015.65
497.97	24924.36
498.14	25062.46
498.32	25120.97
498.50	24971.18
498.67	25500.14
498.85	25355.02
499.03	25895.69
499.20	25439.28
499.38	25802.07
499.56	26064.21
499.73	26092.29
499.91	26171.87
500.08	26434.01
500.26	25998.67
500.44	26235.06
500.61	26228.04
500.79	26281.88
500.97	26532.31
501.14	26698.49
501.32	26871.69
501.49	26525.29
501.67	27124.47
501.84	26757.00
502.02	26892.76
502.20	27311.71
502.37	27349.16
502.55	27356.18
502.72	27552.79
502.90	27707.26
503.07	27290.65
503.25	27552.79
503.43	27632.36
503.60	27679.18
503.78	27768.12
503.95	27424.06
504.13	28077.07
504.30	28098.13
504.48	27990.47
504.65	28407.08
504.83	28514.75
505.01	28542.83
505.18	28732.42
505.36	28917.32
505.53	28854.12
505.71	29310.53
505.88	29200.52
506.06	28870.51
506.23	29441.60
506.41	29081.16
506.58	29331.59
506.76	29890.98
506.93	29673.31
507.11	29591.39
507.28	29252.02
507.46	29366.70
507.63	29476.71
507.81	29895.66
507.98	29839.49
508.16	29764.59
508.33	30029.07
508.50	30532.29
508.68	30010.35
508.85	30522.93
509.03	30450.37
509.20	30644.63
509.38	31068.27
509.55	30906.77
509.73	30909.11
509.90	31168.91
510.08	30583.78
510.25	31243.81
510.42	31360.84
510.60	31227.43
510.77	31384.24
510.95	31295.30
511.12	31482.55
511.30	31601.91
511.47	31756.39
511.64	31957.67
511.82	32205.77
511.99	31796.18
512.17	31967.04
512.34	31512.97
512.51	32292.37
512.69	32084.06
512.86	32575.58
513.04	32542.81
513.21	32173.00
513.38	32184.71
513.56	32404.72
513.73	32439.82
513.90	32964.10
514.08	32479.61
514.25	32891.55
514.43	32650.47
514.60	32683.24
514.77	32346.20
514.95	33600.73
515.12	33418.17
515.29	33132.62
515.47	33490.73
515.64	33369.02
515.81	33216.88
515.99	33586.69
516.16	33106.88
516.33	33244.97
516.51	33429.87
516.68	33427.53
516.85	33212.20
517.03	33394.76
517.20	33376.04
517.37	33530.51
517.54	34066.50
517.72	34227.99
517.89	34066.50
518.06	33598.39
518.24	34057.14
518.41	34073.52
518.58	34185.86
518.75	34223.31
518.93	34382.47
519.10	34630.57
519.27	34703.12
519.45	34483.11
519.62	35147.82
519.79	35402.94
519.96	35122.08
520.14	34918.45
520.31	34869.30
520.48	35175.91
520.65	35192.30
520.83	35311.66
521.00	35454.44
521.17	35559.76
521.34	35358.47
521.52	35871.05
521.69	35428.69
521.86	36079.36
522.03	35995.10
522.20	36313.41
522.38	35814.88
522.55	36084.04
522.72	35955.31
522.89	35924.88
523.07	35866.37
523.24	36002.12
523.41	36615.34
523.58	36259.58
523.75	36613.00
523.92	36650.45
524.10	37109.19
524.27	36877.48
524.44	36715.98
524.61	36479.59
524.78	36950.04
524.96	37413.46
525.13	37244.94
525.30	37872.21
525.47	37593.68
525.64	37581.98
525.81	37432.19
525.98	37144.30
526.16	36933.65
526.33	37144.30
526.50	37195.79
526.67	37013.23
526.84	37139.62
527.01	37038.98
527.18	37565.60
527.36	37668.58
527.53	37919.02
527.70	38775.66
527.87	37956.47
528.04	37659.22
528.21	37956.47
528.38	37748.16
528.55	38497.13
528.72	38342.66
528.89	38515.86
529.07	38073.49
529.24	38185.84
529.41	38527.56
529.58	38291.16
529.75	38539.26
529.92	38845.87
530.09	38742.89
530.26	38686.71
530.43	39203.97
530.60	38426.92
530.77	39100.99
530.94	38967.58
531.11	38735.87
531.28	38880.98
531.46	38808.42
531.63	39330.36
531.80	39232.06
531.97	39243.76
532.14	39108.01
532.31	38792.04
532.48	39182.91
532.65	39665.06
532.82	39438.03
532.99	39812.51
533.16	39358.45
533.33	39281.21
533.50	39702.51
533.67	39988.05
533.84	39374.83
534.01	39922.52
534.18	39702.51
534.35	39847.62
534.52	40091.04
534.69	39716.55
534.86	39922.52
535.03	39789.11
535.20	40353.18
535.37	40575.53
535.54	40294.66
535.71	40268.92
535.88	40381.26
536.05	40577.87
536.22	40215.08
536.38	40477.22
536.55	40320.41
536.72	40507.65
536.89	40142.53
537.06	40439.78
537.23	40662.13
537.40	40474.88
537.57	40727.66
537.74	40538.08
537.91	40985.12
538.08	40865.75
538.25	40500.63
538.42	40748.73
538.59	41116.19
538.75	40830.65
538.92	40849.37
539.09	40994.48
539.26	40818.94
539.43	41076.40
539.60	41383.01
539.77	41277.69
539.94	40781.49
540.11	40488.93
540.28	41497.70
540.44	41120.87
540.61	40903.20
540.78	41097.47
540.95	41481.31
541.12	41352.58
541.29	41439.18
541.46	41628.77
541.62	41408.76
541.79	41778.56
541.96	41666.22
542.13	41785.58
542.30	41808.99
542.47	42071.13
542.63	41626.43
542.80	41933.04
542.97	42335.61
543.14	42745.20
543.31	42490.09
543.48	42368.38
543.64	42628.18
543.81	42527.53
543.98	42616.47
544.15	42124.96
544.32	42738.18
544.48	42714.78
544.65	42466.68
544.82	42635.20
544.99	41984.53
545.16	42735.84
545.32	42550.94
545.49	42740.52
545.66	43344.38
545.83	42796.70
546.00	43199.27
546.16	43070.54
546.33	43058.84
546.50	42700.73
546.67	42806.06
546.83	42614.13
547.00	43225.01
547.17	42855.21
547.34	42696.05
547.50	43459.07
547.67	43454.39
547.84	43145.44
548.00	43798.44
548.17	43578.43
548.34	43269.48
548.51	43447.36
548.67	43674.40
548.84	44121.44
549.01	43419.28
549.18	43564.39
549.34	43505.88
549.51	44175.27
549.68	43320.98
549.84	44135.48
550.01	43515.24
550.18	43445.02
550.34	43763.34
550.51	43562.05
550.68	43512.90
550.84	43592.48
551.01	43852.28
551.18	43847.60
551.34	44034.84
551.51	43856.96
551.68	44341.45
551.84	44219.74
552.01	43901.43
552.18	44261.87
552.34	44156.55
552.51	44376.56
552.68	44055.90
552.84	44624.65
553.01	44184.63
553.18	44409.32
553.34	44414.01
553.51	43983.35
553.67	44357.83
553.84	44350.81
554.01	44563.80
554.17	44636.36
554.34	44086.33
554.51	44561.46
554.67	44449.11
554.84	44257.19
555.00	44364.85
555.17	44261.87
555.33	44924.24
555.50	44760.40
555.67	44524.01
555.83	44636.36
556.00	44926.58
556.16	45179.36
556.33	44786.15
556.50	44886.79
556.66	45298.73
556.83	44332.09
556.99	44900.84
557.16	44825.94
557.32	45282.34
557.49	44837.64
557.65	44706.57
557.82	44814.24
557.98	44891.48
558.15	45312.77
558.32	45258.94
558.48	44938.29
558.65	45233.19
558.81	45214.47
558.98	45006.16
559.14	45343.20
559.31	44989.78
559.47	45109.14
559.64	45212.13
559.80	45336.18
559.97	45509.38
560.13	45237.87
560.30	44821.26
560.46	45347.88
560.63	45099.78
560.79	45677.90
560.96	44982.76
561.12	45052.97
561.29	45212.13
561.45	45357.24
561.61	45535.12
561.78	45179.36
561.94	45319.79
562.11	45052.97
562.27	45153.62
562.44	45151.27
562.60	45511.72
562.77	45621.72
562.93	45167.66
563.10	45642.79
563.26	45570.23
563.42	46000.89
563.59	45371.28
563.75	45462.57
563.92	45605.34
564.08	45619.38
564.24	45713.00
564.41	45780.88
564.57	45322.13
564.74	45865.14
564.90	45663.85
565.07	45921.31
565.23	45727.05
565.39	45333.84
565.56	45841.73
565.72	45544.48
565.88	45902.59
566.05	45607.68
566.21	45556.19
566.38	45425.12
566.54	45930.67
566.70	46115.58
566.87	46052.38
567.03	45975.14
567.19	46204.52
567.36	45603.00
567.52	46110.89
567.68	46195.15
567.85	45586.61
568.01	45806.62
568.17	45460.23
568.34	45837.05
568.50	45832.37
568.66	45694.28
568.83	45865.14
568.99	45558.53
569.15	45724.71
569.32	45827.69
569.48	45504.70
569.64	46094.51
569.81	45780.88
569.97	46246.65
570.13	45579.59
570.30	45893.22
570.46	45656.83
570.62	45698.96
570.78	45642.79
570.95	45345.54
571.11	45904.93
571.27	46270.05
571.43	45771.52
571.60	46153.02
571.76	46094.51
571.92	46199.83
572.09	45677.90
572.25	46012.59
572.41	46103.87
572.57	46021.95
572.74	46094.51
572.90	45897.91
573.06	46265.37
573.22	46473.68
573.38	46227.92
573.55	45907.27
573.71	46050.04
573.87	45993.87
574.03	45647.47
574.20	45993.87
574.36	45961.10
574.52	45813.65
574.68	46040.68
574.84	46644.54
575.01	46293.46
575.17	46333.24
575.33	45759.81
575.49	45762.15
575.65	46241.96
575.82	46099.19
575.98	46071.10
576.14	46202.18
576.30	46148.34
576.46	45729.39
576.62	45916.63
576.79	46263.03
576.95	45659.17
577.11	45965.78
577.27	46319.20
577.43	46087.49
577.59	46157.70
577.75	46064.08
577.92	45902.59
578.08	45954.08
578.24	45844.07
578.40	45989.19
578.56	46064.08
578.72	45900.25
578.88	45930.67
579.04	46415.16
579.21	45858.12
579.37	46382.40
579.53	46302.82
579.69	45743.43
579.85	46241.96
580.01	46298.14
580.17	45902.59
580.33	45993.87
580.49	46469.00
580.65	45874.50
580.82	46218.56
580.98	46340.27
581.14	46068.76
581.30	45762.15
581.46	46438.57
581.62	46300.48
581.78	46096.85
581.94	46494.74
582.10	46522.83
582.26	46286.43
582.42	46174.09
582.58	46445.59
582.74	46153.02
582.90	46459.63
583.06	46307.50
583.22	46211.54
583.38	46541.55
583.54	46293.46
583.70	46078.13
583.86	46251.33
584.02	46349.63
584.18	46391.76
584.34	46209.20
584.50	46241.96
584.66	46169.41
584.82	46314.52
584.98	46490.06
585.14	46464.32
585.30	46028.98
585.46	45975.14
585.62	45446.18
585.78	46373.03
585.94	45921.31
586.10	46234.94
586.26	46192.81
586.42	46780.29
586.58	46672.62
586.74	45944.72
586.90	46094.51
587.06	46155.36
587.22	46768.58
587.38	46190.47
587.54	46232.60
587.70	46431.55
587.86	46351.97
588.02	46143.66
588.18	46136.64
588.34	46071.10
588.49	46131.96
588.65	45647.47
588.81	46092.17
588.97	45883.86
589.13	45645.13
589.29	46174.09
589.45	46335.59
589.61	46188.13
589.77	46913.70
589.93	46429.21
