SpectraSuite Data File
++++++++++++++++++++++++++++++++++++
Date: Fri Oct 25 11:23:45 EDT 2013
User: price-jones
Dark Spectrum Present: No
Reference Spectrum Present: No
Number of Sampled Component Spectra: 1
Spectrometers: USB2+H05261
Integration Time (usec): 100000 (USB2+H05261)
Spectra Averaged: 1 (USB2+H05261)
Boxcar Smoothing: 0 (USB2+H05261)
Correct for Electrical Dark: No (USB2+H05261)
Strobe/Lamp Enabled: No (USB2+H05261)
Correct for Detector Non-linearity: No (USB2+H05261)
Correct for Stray Light: No (USB2+H05261)
Number of Pixels in Processed Spectrum: 2048
>>>>>Begin Processed Spectral Data<<<<<
365.73	196.60
365.92	196.60
366.12	196.60
366.32	138.09
366.52	119.37
366.72	149.79
366.91	102.98
367.11	119.37
367.31	126.39
367.51	88.94
367.70	88.94
367.90	53.83
368.10	98.30
368.30	133.41
368.49	147.45
368.69	205.97
368.89	159.16
369.09	110.01
369.28	182.56
369.48	217.67
369.68	236.39
369.87	262.14
370.07	131.07
370.27	234.05
370.47	346.40
370.66	573.43
370.86	648.33
371.06	645.99
371.25	737.27
371.45	631.94
371.65	617.90
371.84	603.86
372.04	669.39
372.24	702.16
372.44	744.29
372.63	667.05
372.83	704.50
373.03	720.88
373.22	732.59
373.42	683.44
373.62	800.46
373.81	702.16
374.01	793.44
374.21	844.93
374.40	788.76
374.60	840.25
374.79	849.61
374.99	873.02
375.19	868.34
375.38	891.74
375.58	744.29
375.78	896.43
375.97	933.87
376.17	908.13
376.37	877.70
376.56	870.68
376.76	891.74
376.95	905.79
377.15	877.70
377.35	844.93
377.54	901.11
377.74	882.38
377.93	854.30
378.13	922.17
378.33	978.34
378.52	994.73
378.72	1006.43
378.91	1102.39
379.11	894.08
379.31	938.55
379.50	917.49
379.70	985.37
379.89	1057.92
380.09	931.53
380.28	957.28
380.48	978.34
380.68	861.32
380.87	933.87
381.07	957.28
381.26	954.94
381.46	1034.52
381.65	1034.52
381.85	980.68
382.04	983.02
382.24	1029.84
382.43	1036.86
382.63	1074.31
382.83	1053.24
383.02	1041.54
383.22	1121.12
383.41	985.37
383.61	1217.08
383.80	1102.39
384.00	1135.16
384.19	1135.16
384.39	1163.25
384.58	1057.92
384.78	1090.69
384.97	1149.20
385.17	1107.07
385.36	1217.08
385.56	1139.84
385.75	1107.07
385.95	1203.04
386.14	1160.91
386.34	1273.25
386.53	1261.55
386.72	1156.22
386.92	1254.53
387.11	1287.29
387.31	1282.61
387.50	1207.72
387.70	1165.59
387.89	1238.14
388.09	1280.27
388.28	1322.40
388.48	1313.04
388.67	1334.11
388.86	1252.19
389.06	1233.46
389.25	1327.08
389.45	1366.87
389.64	1366.87
389.84	1399.64
390.03	1317.72
390.22	1420.71
390.42	1458.15
390.61	1352.83
390.81	1474.54
391.00	1313.04
391.19	1383.26
391.39	1465.18
391.58	1558.80
391.78	1401.98
391.97	1409.00
392.16	1430.07
392.36	1507.30
392.55	1458.15
392.75	1645.40
392.94	1535.39
393.13	1514.33
393.33	1387.94
393.52	1533.05
393.71	1584.54
393.91	1537.73
394.10	1579.86
394.29	1643.06
394.49	1551.78
394.68	1579.86
394.88	1591.56
395.07	1664.12
395.26	1652.42
395.46	1678.16
395.65	1722.63
395.84	1732.00
396.04	1736.68
396.23	1650.08
396.42	1722.63
396.62	1867.75
396.81	1823.28
397.00	1724.97
397.19	1722.63
397.39	1771.79
397.58	1870.09
397.77	1877.11
397.97	1872.43
398.16	1884.13
398.35	1928.60
398.55	1834.98
398.74	1820.94
398.93	1825.62
399.12	1902.86
399.32	1863.07
399.51	1863.07
399.70	1940.30
399.90	1867.75
400.09	1940.30
400.28	1998.82
400.47	2050.31
400.67	2092.44
400.86	2113.50
401.05	2141.59
401.24	2050.31
401.44	2069.03
401.63	2146.27
401.82	2230.53
402.01	2174.36
402.21	2153.29
402.40	2125.21
402.59	2134.57
402.78	2408.41
402.97	2200.10
403.17	2333.51
403.36	2289.04
403.55	2275.00
403.74	2373.30
403.93	2349.90
404.13	2347.56
404.32	2410.75
404.51	2408.41
404.70	2424.80
404.89	2368.62
405.09	2424.80
405.28	2326.49
405.47	2495.01
405.66	2558.21
405.85	2527.78
406.05	2574.59
406.24	2576.93
406.43	2656.51
406.62	2626.08
406.81	2822.69
407.00	2719.70
407.20	2703.32
407.39	2588.63
407.58	2700.98
407.77	2693.96
407.96	2759.49
408.15	2703.32
408.34	2775.88
408.54	2752.47
408.73	2731.41
408.92	2836.73
409.11	2871.84
409.30	2883.54
409.49	2904.60
409.68	3000.57
409.87	2904.60
410.07	3122.27
410.26	2925.67
410.45	2935.03
410.64	3131.64
410.83	3098.87
411.02	3194.83
411.21	3190.15
411.40	3110.57
411.59	3276.75
411.78	3164.40
411.98	3239.30
412.17	3183.13
412.36	3166.74
412.55	3302.50
412.74	3452.29
412.93	3473.36
413.12	3314.20
413.31	3384.41
413.50	3421.86
413.69	3492.08
413.88	3651.24
414.07	3529.53
414.26	3618.47
414.45	3735.50
414.64	3609.11
414.83	3908.69
415.02	3808.05
415.22	3850.18
415.41	3819.75
415.60	3918.06
415.79	3880.61
415.98	4051.47
416.17	3967.21
416.36	3929.76
416.55	3913.38
416.74	4021.04
416.93	4063.17
417.12	4278.50
417.31	4182.54
417.50	4133.39
417.69	4243.39
417.88	4311.27
418.07	4269.14
418.26	4329.99
418.45	4421.27
418.64	4528.94
418.83	4430.63
419.02	4397.87
419.21	4475.10
419.39	4557.02
419.58	4554.68
419.77	4461.06
419.96	4645.96
420.15	4631.92
420.34	4559.36
420.53	4702.14
420.72	4681.07
420.91	4620.22
421.10	4786.40
421.29	4744.27
421.48	4819.16
421.67	4826.18
421.86	4613.20
422.05	4854.27
422.24	4884.70
422.43	4842.57
422.61	4959.60
422.80	4947.89
422.99	4961.94
423.18	4915.12
423.37	4994.70
423.56	4894.06
423.75	4980.66
423.94	4889.38
424.13	4629.58
424.32	4758.31
424.50	5102.37
424.69	5151.52
424.88	5242.80
425.07	5055.56
425.26	4922.15
425.45	4830.87
425.64	5011.09
425.83	4924.49
426.01	5097.69
426.20	5104.71
426.39	5188.97
426.58	5022.79
426.77	5130.45
426.96	5043.85
427.15	5111.73
427.33	5170.24
427.52	5149.18
427.71	5341.10
427.90	5233.44
428.09	5383.23
428.28	5324.72
428.46	5317.70
428.65	5310.68
428.84	5432.38
429.03	5446.43
429.22	5371.53
429.40	5575.16
429.59	5488.56
429.78	5467.49
429.97	5430.04
430.16	5598.56
430.34	5675.80
430.53	5767.08
430.72	5671.12
430.91	5575.16
431.10	5657.07
431.28	5764.74
431.47	5834.96
431.66	5846.66
431.85	5879.43
432.03	5846.66
432.22	6125.18
432.41	5984.75
432.60	6111.14
432.79	6054.97
432.97	5991.77
433.16	6090.07
433.35	5923.90
433.54	6108.80
433.72	6155.61
433.91	5942.62
434.10	6064.33
434.28	6024.54
434.47	6244.55
434.66	6389.66
434.85	6572.22
435.03	6415.41
435.22	6338.17
435.41	6443.49
435.59	6396.68
435.78	6413.07
435.97	6464.56
436.16	6436.47
436.34	6619.04
436.53	6333.49
436.72	6787.55
436.90	6406.05
437.09	6752.45
437.28	6471.58
437.46	6644.78
437.65	6644.78
437.84	6726.70
438.02	6698.61
438.21	6782.87
438.40	6829.68
438.58	6988.84
438.77	7007.56
438.96	7152.68
439.14	7218.21
439.33	7262.68
439.52	7265.02
439.70	7318.86
439.89	7218.21
440.08	7339.92
440.26	7531.84
440.45	7309.49
440.63	7478.01
440.82	7627.81
441.01	7538.87
441.19	7763.56
441.38	7641.85
441.57	7559.93
441.75	7733.13
441.94	8098.25
442.12	7908.67
442.31	7995.27
442.50	8161.45
442.68	7974.21
442.87	8114.64
443.05	8112.30
443.24	8173.15
443.43	8271.45
443.61	8245.71
443.80	8458.70
443.98	8091.23
444.17	7751.85
444.35	8177.83
444.54	8383.80
444.73	8390.82
444.91	8383.80
445.10	8318.26
445.28	8505.51
445.47	8386.14
445.65	8423.59
445.84	8439.97
446.02	8374.44
446.21	8369.76
446.39	8390.82
446.58	8645.94
446.77	8664.66
446.95	8500.83
447.14	8329.97
447.32	8685.73
447.51	8402.52
447.69	8575.72
447.88	8622.53
448.06	8688.07
448.25	8610.83
448.43	8585.08
448.62	8683.39
448.80	8676.37
448.99	8966.59
449.17	8798.07
449.36	8641.26
449.54	9018.08
449.73	9123.41
449.91	9078.94
450.10	9069.58
450.28	9296.61
450.46	9273.20
450.65	8980.64
450.83	9013.40
451.02	9165.54
451.20	9205.33
451.39	9006.38
451.57	9430.02
451.76	9097.66
451.94	9329.38
452.13	9366.82
452.31	9397.25
452.49	9231.07
452.68	9289.59
452.86	9415.98
453.05	9423.00
453.23	9682.80
453.42	9404.27
453.60	9540.02
453.78	9720.24
453.97	9441.72
454.15	9366.82
454.34	9584.49
454.52	9729.61
454.70	9778.76
454.89	9802.16
455.07	9961.32
455.26	9788.12
455.44	9942.60
455.62	9923.87
455.81	9940.26
455.99	10087.71
456.17	10022.17
456.36	10104.09
456.54	10293.68
456.73	10291.34
456.91	10406.02
457.09	10298.36
457.28	10628.37
457.46	10403.68
457.64	10574.54
457.83	10546.45
458.01	10317.08
458.19	10698.59
458.38	10574.54
458.56	10534.75
458.74	10750.08
458.93	10822.64
459.11	10700.93
459.29	10820.30
459.48	10890.51
459.66	10899.87
459.84	11089.46
460.03	11159.67
460.21	10916.26
460.39	10895.19
460.57	11166.70
460.76	11220.53
460.94	11267.34
461.12	11225.21
461.31	11239.25
461.49	11452.24
461.67	11414.79
461.85	11737.79
462.04	11328.19
462.22	11424.15
462.40	11641.82
462.59	11569.27
462.77	11311.81
462.95	11768.21
463.13	11679.27
463.32	11545.86
463.50	11899.28
463.68	11623.10
463.86	11819.71
464.05	11929.71
464.23	11552.88
464.41	12013.97
464.59	11719.06
464.78	12231.64
464.96	12135.68
465.14	11934.39
465.32	12037.38
465.50	12128.66
465.69	11995.25
465.87	12224.62
466.05	12140.36
466.23	12353.35
466.41	12393.14
466.60	12351.01
466.78	12395.48
466.96	12475.06
467.14	12545.27
467.32	12615.49
467.51	12690.38
467.69	12196.53
467.87	12486.76
468.05	12341.64
468.23	12472.71
468.41	12386.12
468.60	12575.70
468.78	12905.71
468.96	12849.54
469.14	12734.85
469.32	13146.79
469.50	12716.13
469.69	12858.90
469.87	13266.16
470.05	13153.81
470.23	12994.65
470.41	13331.69
470.59	13376.16
470.77	13327.01
470.95	13359.78
471.14	13628.94
471.32	13132.75
471.50	13385.52
471.68	13678.09
471.86	13483.83
472.04	13647.66
472.22	14265.57
472.40	13781.07
472.58	14319.40
472.77	13987.04
472.95	14071.30
473.13	14759.42
473.31	14115.77
473.49	14174.28
473.67	14314.72
473.85	14508.98
474.03	14574.52
474.21	14672.82
474.39	14956.02
474.57	14565.15
474.75	14988.79
474.93	15084.75
475.12	15030.92
475.30	15253.27
475.48	15236.89
475.66	15157.31
475.84	15101.14
476.02	15346.89
476.20	15377.32
476.38	15714.36
476.56	16025.65
476.74	16100.55
476.92	16105.23
477.10	15751.81
477.28	16091.18
477.46	16388.43
477.64	16301.83
477.82	16711.42
478.00	17188.89
478.18	16952.50
478.36	17001.65
478.54	17043.78
478.72	17378.48
478.90	17549.34
479.08	17434.65
479.26	17689.77
479.44	17701.47
479.62	17652.32
479.80	18246.82
479.98	18370.86
480.16	18768.76
480.34	18408.31
480.52	18593.22
480.70	18728.97
480.88	18595.56
481.06	19002.81
481.24	19119.84
481.41	19304.74
481.59	19269.63
481.77	19784.55
481.95	19393.68
482.13	19707.31
482.31	19941.36
482.49	20507.77
482.67	20329.89
482.85	20631.82
483.03	20741.83
483.21	21160.78
483.39	21214.62
483.57	21298.88
483.74	21249.72
483.92	21465.05
484.10	21443.99
484.28	21731.87
484.46	21881.67
484.64	22480.85
484.82	22082.95
485.00	22551.06
485.18	22761.71
485.35	22878.74
485.53	23014.49
485.71	23417.06
485.89	23695.58
486.07	23140.88
486.25	23524.72
486.43	23770.48
486.61	23967.09
486.78	24215.18
486.96	24058.37
487.14	24584.99
487.32	24755.85
487.50	25266.08
487.68	25104.59
487.85	25528.22
488.03	25865.26
488.21	26181.23
488.39	25837.17
488.57	26370.82
488.75	26602.53
488.92	26815.52
489.10	26749.98
489.28	26888.07
489.46	27070.64
489.64	27122.13
489.81	27950.68
489.99	27651.09
490.17	27896.85
490.35	28219.84
490.53	28479.64
490.70	28549.85
490.88	28624.75
491.06	28765.18
491.24	28907.96
491.41	29205.20
491.59	29443.94
491.77	29771.61
491.95	30064.18
492.13	29963.54
492.30	30225.68
492.48	30494.84
492.66	30724.21
492.84	30396.54
493.01	30677.40
493.19	30874.01
493.37	31009.76
493.54	31180.62
493.72	31608.93
493.90	31908.52
494.08	32222.16
494.25	32573.24
494.43	32006.83
494.61	32196.41
494.79	32748.78
494.96	32498.34
495.14	32973.47
495.32	33436.89
495.49	33289.44
495.67	33298.80
495.85	33886.28
496.02	34017.35
496.20	34143.74
496.38	34216.29
496.55	34335.66
496.73	34707.80
496.91	34298.21
497.09	34796.74
497.26	35264.85
497.44	35262.51
497.62	35332.73
497.79	35817.22
497.97	35501.25
498.14	36016.16
498.32	36287.67
498.50	36451.50
498.67	37099.83
498.85	36634.06
499.03	36996.85
499.20	36825.99
499.38	36837.69
499.56	37141.96
499.73	37525.81
499.91	37766.88
500.08	37638.15
500.26	37394.74
500.44	37764.54
500.61	38330.95
500.79	37993.92
500.97	38511.17
501.14	38845.87
501.32	38869.28
501.49	38726.50
501.67	39115.03
501.84	39056.52
502.02	39040.14
502.20	39187.59
502.37	39241.42
502.55	39615.91
502.72	39821.87
502.90	39922.52
503.07	39686.12
503.25	40133.17
503.43	39871.03
503.60	40025.50
503.78	40458.50
503.95	40472.54
504.13	40348.50
504.30	40631.70
504.48	40722.98
504.65	40971.08
504.83	41233.22
505.01	41553.87
505.18	41312.80
505.36	41846.44
505.53	41415.78
505.71	41706.01
505.88	41652.17
506.06	41483.66
506.23	42052.41
506.41	41799.63
506.58	42415.19
506.76	42452.64
506.93	42777.97
507.11	42630.52
507.28	42979.26
507.46	42937.13
507.63	42927.77
507.81	43367.79
507.98	42815.42
508.16	43349.06
508.33	43669.72
508.50	43171.18
508.68	43489.49
508.85	44421.03
509.03	44205.70
509.20	44182.29
509.38	44659.76
509.55	44121.44
509.73	44622.31
509.90	45085.74
510.08	44800.19
510.25	44699.55
510.42	44877.43
510.60	45296.39
510.77	45090.42
510.95	45858.12
511.12	45605.34
511.30	45095.10
511.47	45537.46
511.64	45579.59
511.82	46080.47
511.99	45549.17
512.17	46131.96
512.34	46162.39
512.51	46101.53
512.69	47117.32
512.86	46972.21
513.04	46660.92
513.21	47353.72
513.38	46923.06
513.56	46918.38
513.73	46693.69
513.90	47377.12
514.08	47016.68
514.25	47498.83
514.43	47407.55
514.60	47742.25
514.77	47374.78
514.95	48032.47
515.12	47924.81
515.29	47782.04
515.47	47880.34
515.64	48409.30
515.81	48210.35
515.99	48500.58
516.16	48594.20
516.33	48516.96
516.51	48664.42
516.68	48591.86
516.85	48325.04
517.03	49078.69
517.20	49198.06
517.37	48961.67
517.54	48875.07
517.72	49326.79
517.89	49366.58
518.06	49282.32
518.24	49581.91
518.41	49439.14
518.58	49495.31
518.75	49436.80
518.93	49766.81
519.10	49581.91
519.27	50012.57
519.45	50220.87
519.62	50145.98
519.79	50216.19
519.96	50024.27
520.14	50188.11
520.31	50071.08
520.48	50728.77
520.65	50979.21
520.83	50937.08
521.00	50665.58
521.17	50808.35
521.34	50862.18
521.52	51051.76
521.69	51021.34
521.86	51332.63
522.03	51414.55
522.20	51632.22
522.38	51950.53
522.55	51526.89
522.72	51468.38
522.89	51522.21
523.07	51798.40
523.24	51686.05
523.41	51840.53
523.58	51440.29
523.75	51936.49
523.92	51882.66
524.10	52161.18
524.27	52088.62
524.44	52252.46
524.61	52121.39
524.78	52137.77
524.96	52442.04
525.13	52336.72
525.30	52669.08
525.47	52762.70
525.64	52648.01
525.81	52835.25
525.98	52872.70
526.16	52933.56
526.33	52872.70
526.50	52978.03
526.67	52982.71
526.84	53202.72
527.01	53015.47
527.18	53317.40
527.36	53017.82
527.53	53347.83
527.70	53705.93
527.87	53425.07
528.04	53368.90
528.21	53525.71
528.38	53429.75
528.55	53666.14
528.72	53626.35
528.89	53521.03
529.07	53565.50
529.24	53935.30
529.41	53797.21
529.58	53722.32
529.75	53483.58
529.92	53895.52
530.09	54178.72
530.26	53844.02
530.43	54040.63
530.60	53895.52
530.77	53757.42
530.94	54293.41
531.11	54141.27
531.28	54380.01
531.46	54817.69
531.63	54585.97
531.80	54520.44
531.97	54642.15
532.14	54614.06
532.31	54639.81
532.48	54883.22
532.65	54787.26
532.82	54707.68
532.99	54930.03
533.16	54749.81
533.33	54932.37
533.50	55119.62
533.67	54955.78
533.84	55025.99
534.01	55070.46
534.18	55124.30
534.35	55255.37
534.52	55262.39
534.69	55554.96
534.86	55412.18
535.03	54990.89
535.20	55318.56
535.37	55522.19
535.54	55458.99
535.71	55330.26
535.88	55686.03
536.05	55690.71
536.22	55810.07
536.38	55735.18
536.55	55669.64
536.72	55746.88
536.89	55896.67
537.06	55693.05
537.23	56006.68
537.40	55569.00
537.57	56074.55
537.74	56030.08
537.91	56177.54
538.08	56011.36
538.25	55777.31
538.42	56203.28
538.59	56385.85
538.75	55931.78
538.92	56193.92
539.09	56367.12
539.26	56107.32
539.43	56243.07
539.60	56299.25
539.77	56364.78
539.94	56652.67
540.11	56680.75
540.28	56430.32
540.44	56685.43
540.61	56547.34
540.78	56601.18
540.95	56502.87
541.12	56530.96
541.29	56451.38
541.46	56638.62
541.62	56769.69
541.79	56907.79
541.96	56533.30
542.13	56612.88
542.30	56865.66
542.47	57055.24
542.63	56907.79
542.80	57125.46
542.97	57127.80
543.14	57324.40
543.31	57396.96
543.48	57411.00
543.64	57595.90
543.81	57481.22
543.98	57509.30
544.15	57399.30
544.32	57628.67
544.48	57766.76
544.65	57427.38
544.82	57403.98
544.99	57455.47
545.16	57539.73
545.32	57385.25
545.49	58087.42
545.66	57839.32
545.83	57904.85
546.00	57855.70
546.16	57729.31
546.33	57616.97
546.50	57612.29
546.67	57797.19
546.83	57825.28
547.00	57832.30
547.17	57752.72
547.34	57827.62
547.50	57876.77
547.67	58361.26
547.84	58279.34
548.00	58216.14
548.17	58382.32
548.34	58241.89
548.51	58351.90
548.67	58485.31
548.84	58258.27
549.01	58475.94
549.18	58473.60
549.34	58192.74
549.51	58501.69
549.68	58391.68
549.84	58543.82
550.01	58688.93
550.18	58529.78
550.34	58595.31
550.51	58595.31
550.68	58377.64
550.84	58508.71
551.01	58873.84
551.18	58567.23
551.34	58752.13
551.51	58717.02
551.68	58803.62
551.84	58787.24
552.01	58548.50
552.18	58688.93
552.34	58824.68
552.51	58808.30
552.68	58667.87
552.84	58892.56
553.01	58871.49
553.18	59145.34
553.34	59051.72
553.51	58824.68
553.67	59037.67
553.84	59262.36
554.01	59143.00
554.17	59241.30
554.34	59117.25
554.51	59119.59
554.67	59234.28
554.84	59154.70
555.00	59011.93
555.17	59227.26
555.33	59107.89
555.50	58869.15
555.67	59128.95
555.83	59068.10
556.00	59154.70
556.16	59587.70
556.33	59351.30
556.50	59264.70
556.66	59463.65
556.83	59250.66
556.99	59423.86
557.16	59681.32
557.32	59627.49
557.49	59821.75
557.65	59215.55
557.82	59601.74
557.98	59475.35
558.15	59512.80
558.32	59730.47
558.48	59643.87
558.65	59543.23
558.81	59688.34
558.98	59566.63
559.14	59653.23
559.31	59786.64
559.47	59594.72
559.64	59929.42
559.80	59728.13
559.97	59936.44
560.13	59798.35
560.30	59751.54
560.46	60069.85
560.63	59922.40
560.79	60060.49
560.96	60219.64
561.12	60144.75
561.29	59964.52
561.45	59973.89
561.61	60058.15
561.78	59845.16
561.94	60001.97
562.11	59964.52
562.27	60135.38
562.44	60065.17
562.60	60144.75
562.77	60287.52
562.93	59784.30
563.10	60250.07
563.26	59973.89
563.42	60374.12
563.59	60137.72
563.75	60030.06
563.92	59992.61
564.08	60069.85
564.24	60327.31
564.41	60205.60
564.57	60294.54
564.74	60416.25
564.90	60179.85
565.07	60268.79
565.23	60175.17
565.39	60224.32
565.56	60402.21
565.72	60395.18
565.88	60355.39
566.05	60107.30
566.21	60360.08
566.38	60406.89
566.54	60413.91
566.70	60544.98
566.87	60594.13
567.03	60238.37
567.19	60502.85
567.36	60327.31
567.52	60271.14
567.68	60654.98
567.85	60523.91
568.01	60631.58
568.17	60495.83
568.34	60392.84
568.50	60453.70
568.66	60376.46
568.83	60439.65
568.99	60420.93
569.15	60629.24
569.32	60498.17
569.48	60430.29
569.64	60516.89
569.81	60544.98
569.97	60378.80
570.13	60544.98
570.30	60444.33
570.46	60753.29
570.62	60364.76
570.78	60755.63
570.95	60638.60
571.11	60905.42
571.27	60643.28
571.43	60615.19
571.60	60692.43
571.76	60697.11
571.92	60804.78
572.09	60643.28
572.25	60741.58
572.41	60760.31
572.57	60699.45
572.74	60989.68
572.90	60772.01
573.06	60800.10
573.22	60788.39
573.38	60779.03
573.55	60846.91
573.71	61013.08
573.87	60678.39
574.03	60640.94
574.20	61055.21
574.36	60835.20
574.52	60938.19
574.68	60947.55
574.84	60867.97
575.01	60882.02
575.17	60821.16
575.33	60748.60
575.49	60828.18
575.65	60764.99
575.82	60767.33
575.98	60982.66
576.14	60959.25
576.30	60917.12
576.46	60886.70
576.62	60914.78
576.79	60999.04
576.95	60823.50
577.11	60769.67
577.27	60867.97
577.43	60886.70
577.59	60814.14
577.75	60837.54
577.92	60919.46
578.08	60802.44
578.24	60844.57
578.40	61034.15
578.56	60949.89
578.72	61055.21
578.88	61132.45
579.04	61186.28
579.21	61200.33
579.37	61118.41
579.53	61249.48
579.69	60818.82
579.85	60931.17
580.01	60814.14
580.17	60828.18
580.33	61013.08
580.49	61083.30
580.65	61055.21
580.82	61080.96
580.98	61151.18
581.14	60891.38
581.30	61169.90
581.46	61158.20
581.62	61209.69
581.78	60893.72
581.94	61120.75
582.10	61066.92
582.26	61240.12
582.42	60973.30
582.58	61249.48
582.74	60987.34
582.90	60980.32
583.06	61113.73
583.22	60968.61
583.38	61099.68
583.54	61167.56
583.70	61097.34
583.86	61207.35
584.02	61240.12
584.18	61038.83
584.34	60999.04
584.50	61151.18
584.66	60968.61
584.82	60898.40
584.98	61160.54
585.14	61020.11
585.30	60945.21
585.46	61392.25
585.62	61155.86
585.78	61174.58
585.94	60963.93
586.10	61190.97
586.26	61015.43
586.42	61188.63
586.58	61354.80
586.74	60961.59
586.90	61183.94
587.06	61022.45
587.22	61336.08
587.38	61176.92
587.54	61460.13
587.70	61403.95
587.86	61233.10
588.02	61256.50
588.18	61448.42
588.34	61237.78
588.49	61214.37
