SpectraSuite Data File
++++++++++++++++++++++++++++++++++++
Date: Fri Oct 25 11:23:02 EDT 2013
User: price-jones
Dark Spectrum Present: No
Reference Spectrum Present: No
Number of Sampled Component Spectra: 1
Spectrometers: USB2+H05261
Integration Time (usec): 100000 (USB2+H05261)
Spectra Averaged: 1 (USB2+H05261)
Boxcar Smoothing: 0 (USB2+H05261)
Correct for Electrical Dark: No (USB2+H05261)
Strobe/Lamp Enabled: No (USB2+H05261)
Correct for Detector Non-linearity: No (USB2+H05261)
Correct for Stray Light: No (USB2+H05261)
Number of Pixels in Processed Spectrum: 2048
>>>>>Begin Processed Spectral Data<<<<<
365.73	245.76
365.92	245.76
366.12	245.76
366.32	70.22
366.52	112.35
366.72	154.48
366.91	77.24
367.11	67.88
367.31	128.73
367.51	114.69
367.70	60.85
367.90	234.05
368.10	145.11
368.30	124.05
368.49	35.11
368.69	168.52
368.89	100.64
369.09	159.16
369.28	126.39
369.48	215.33
369.68	128.73
369.87	161.50
370.07	182.56
370.27	222.35
370.47	299.59
370.66	564.07
370.86	547.69
371.06	697.48
371.25	669.39
371.45	613.22
371.65	641.31
371.84	674.07
372.04	678.76
372.24	655.35
372.44	732.59
372.63	786.42
372.83	781.74
373.03	788.76
373.22	788.76
373.42	826.21
373.62	791.10
373.81	833.23
374.01	791.10
374.21	830.89
374.40	737.27
374.60	919.83
374.79	812.17
374.99	868.34
375.19	774.72
375.38	870.68
375.58	830.89
375.78	847.27
375.97	866.00
376.17	840.25
376.37	870.68
376.56	793.44
376.76	915.15
376.95	826.21
377.15	823.87
377.35	912.81
377.54	847.27
377.74	809.83
377.93	844.93
378.13	915.15
378.33	961.96
378.52	877.70
378.72	912.81
378.91	938.55
379.11	961.96
379.31	908.13
379.50	908.13
379.70	971.32
379.89	1008.77
380.09	929.19
380.28	905.79
380.48	959.62
380.68	894.08
380.87	968.98
381.07	1027.50
381.26	1039.20
381.46	1036.86
381.65	1011.11
381.85	1020.47
382.04	1083.67
382.24	1081.33
382.43	1050.90
382.63	1029.84
382.83	1078.99
383.02	1081.33
383.22	1111.75
383.41	1034.52
383.61	1001.75
383.80	1174.95
384.00	1083.67
384.19	1196.01
384.39	1076.65
384.58	1198.35
384.78	1144.52
384.97	1228.78
385.17	1102.39
385.36	1179.63
385.56	1196.01
385.75	1149.20
385.95	1128.14
386.14	1249.85
386.34	1188.99
386.53	1179.63
386.72	1165.59
386.92	1238.14
387.11	1249.85
387.31	1341.13
387.50	1224.10
387.70	1203.04
387.89	1252.19
388.09	1249.85
388.28	1177.29
388.48	1233.46
388.67	1313.04
388.86	1317.72
389.06	1294.32
389.25	1348.15
389.45	1331.76
389.64	1336.45
389.84	1458.15
390.03	1364.53
390.22	1329.42
390.42	1446.45
390.61	1345.81
390.81	1390.28
391.00	1380.92
391.19	1378.58
391.39	1437.09
391.58	1439.43
391.78	1390.28
391.97	1366.87
392.16	1504.96
392.36	1528.37
392.55	1423.05
392.75	1444.11
392.94	1542.41
393.13	1540.07
393.33	1521.35
393.52	1549.43
393.71	1558.80
393.91	1577.52
394.10	1673.48
394.29	1565.82
394.49	1619.65
394.68	1621.99
394.88	1556.46
395.07	1664.12
395.26	1678.16
395.46	1736.68
395.65	1769.44
395.84	1755.40
396.04	1813.92
396.23	1645.40
396.42	1687.53
396.62	1757.74
396.81	1781.15
397.00	1781.15
397.19	1732.00
397.39	1753.06
397.58	1811.57
397.77	1844.34
397.97	1837.32
398.16	1851.36
398.35	1968.39
398.55	1973.07
398.74	1954.35
398.93	1921.58
399.12	1919.24
399.32	1856.04
399.51	1856.04
399.70	1975.41
399.90	2036.27
400.09	1994.14
400.28	2132.23
400.47	2115.84
400.67	2129.89
400.86	2104.14
401.05	2099.46
401.24	2120.53
401.44	2127.55
401.63	2069.03
401.82	2094.78
402.01	2125.21
402.21	2289.04
402.40	2354.58
402.59	2218.83
402.78	2179.04
402.97	2251.60
403.17	2221.17
403.36	2218.83
403.55	2200.10
403.74	2436.50
403.93	2307.77
404.13	2380.32
404.32	2326.49
404.51	2317.13
404.70	2392.03
404.89	2321.81
405.09	2473.95
405.28	2457.56
405.47	2387.35
405.66	2609.70
405.85	2448.20
406.05	2544.16
406.24	2656.51
406.43	2691.62
406.62	2700.98
406.81	2635.44
407.00	2562.89
407.20	2668.21
407.39	2679.91
407.58	2792.26
407.77	2675.23
407.96	2766.51
408.15	2745.45
408.34	2745.45
408.54	2855.45
408.73	2808.64
408.92	2766.51
409.11	2841.41
409.30	2897.58
409.49	2818.00
409.68	2986.52
409.87	2953.76
410.07	3070.78
410.26	3068.44
410.45	2998.23
410.64	2960.78
410.83	3108.23
411.02	3035.67
411.21	3253.34
411.40	3145.68
411.59	3187.81
411.78	3206.53
411.98	3246.32
412.17	3232.28
412.36	3379.73
412.55	3379.73
412.74	3286.11
412.93	3379.73
413.12	3344.63
413.31	3522.51
413.50	3548.25
413.69	3426.54
413.88	3686.34
414.07	3637.19
414.26	3559.95
414.45	3684.00
414.64	3719.11
414.83	3889.97
415.02	3786.99
415.22	3955.51
415.41	3976.57
415.60	3896.99
415.79	3941.46
415.98	3974.23
416.17	3997.64
416.36	4044.45
416.55	4070.19
416.74	4095.94
416.93	4072.53
417.12	4011.68
417.31	4187.22
417.50	4133.39
417.69	4320.63
417.88	4348.72
418.07	4437.66
418.26	4388.50
418.45	4365.10
418.64	4542.98
418.83	4390.84
419.02	4550.00
419.21	4383.82
419.39	4491.49
419.58	4524.26
419.77	4564.04
419.96	4627.24
420.15	4645.96
420.34	4699.80
420.53	4692.77
420.72	4809.80
420.91	4723.20
421.10	4727.88
421.29	4858.95
421.48	4596.81
421.67	4805.12
421.86	4727.88
422.05	4739.58
422.24	4695.11
422.43	4966.62
422.61	4919.81
422.80	4924.49
422.99	4901.08
423.18	4966.62
423.37	5062.58
423.56	4952.57
423.75	4971.30
423.94	4877.68
424.13	4578.09
424.32	4835.55
424.50	4973.64
424.69	5121.09
424.88	5181.95
425.07	4973.64
425.26	4959.60
425.45	4971.30
425.64	5132.79
425.83	5109.39
426.01	5144.50
426.20	5076.62
426.39	5109.39
426.58	5053.22
426.77	5032.15
426.96	5224.08
427.15	5111.73
427.33	5212.37
427.52	5057.90
427.71	5406.64
427.90	5383.23
428.09	5277.91
428.28	5401.96
428.46	5226.42
428.65	5383.23
428.84	5425.36
429.03	5537.71
429.22	5425.36
429.40	5612.60
429.59	5502.60
429.78	5205.35
429.97	5385.57
430.16	5561.11
430.34	5678.14
430.53	5603.24
430.72	5640.69
430.91	5540.05
431.10	5565.79
431.28	5731.97
431.47	5797.51
431.66	5949.64
431.85	5895.81
432.03	5956.66
432.22	6061.99
432.41	6045.60
432.60	6003.47
432.79	5982.41
432.97	6134.54
433.16	6087.73
433.35	5916.87
433.54	6169.65
433.72	6164.97
433.91	6164.97
434.10	6092.41
434.28	6282.00
434.47	6139.23
434.66	6342.85
434.85	6256.25
435.03	6431.79
435.22	6328.81
435.41	6565.20
435.59	6457.54
435.78	6415.41
435.97	6450.52
436.16	6539.46
436.34	6546.48
436.53	6736.06
436.72	6693.93
436.90	6490.31
437.09	6684.57
437.28	6670.53
437.46	6768.83
437.65	6658.82
437.84	6668.19
438.02	6822.66
438.21	6869.47
438.40	6820.32
438.58	7056.72
438.77	7197.15
438.96	7049.69
439.14	7164.38
439.33	7246.30
439.52	7187.79
439.70	7150.34
439.89	7276.73
440.08	7344.60
440.26	7321.20
440.45	7318.86
440.63	7541.21
440.82	7595.04
441.01	7473.33
441.19	7644.19
441.38	7906.33
441.57	7885.26
441.75	7803.35
441.94	8100.59
442.12	7854.84
442.31	8002.29
442.50	8006.97
442.68	8021.02
442.87	8201.24
443.05	8142.72
443.24	8088.89
443.43	8072.51
443.61	8383.80
443.80	8430.61
443.98	8042.08
444.17	7995.27
444.35	8262.09
444.54	8329.97
444.73	8381.46
444.91	8428.27
445.10	8299.54
445.28	8402.52
445.47	8294.86
445.65	8297.20
445.84	8381.46
446.02	8517.21
446.21	8498.49
446.39	8365.07
446.58	8566.36
446.77	8528.91
446.95	8402.52
447.14	8439.97
447.32	8491.46
447.51	8568.70
447.69	8439.97
447.88	8535.93
448.06	8580.40
448.25	8531.25
448.43	8716.16
448.62	8594.45
448.80	8615.51
448.99	8821.48
449.17	8791.05
449.36	8720.84
449.54	9036.81
449.73	8819.14
449.91	9123.41
450.10	8840.20
450.28	9298.95
450.46	9135.11
450.65	9015.74
450.83	9062.55
451.02	9064.89
451.20	9291.93
451.39	9177.24
451.57	9334.06
451.76	9282.56
451.94	9338.74
452.13	9439.38
452.31	9390.23
452.49	9371.50
452.68	9518.96
452.86	9284.91
453.05	9301.29
453.23	9659.39
453.42	9348.10
453.60	9469.81
453.78	9617.26
453.97	9640.67
454.15	9633.64
454.34	9451.08
454.52	9760.03
454.70	9563.43
454.89	9745.99
455.07	9734.29
455.26	9841.95
455.44	9872.38
455.62	9951.96
455.81	10090.05
455.99	10029.20
456.17	10293.68
456.36	10143.88
456.54	10176.65
456.73	10345.17
456.91	10551.14
457.09	10305.38
457.28	10590.92
457.46	10403.68
457.64	10413.04
457.83	10649.44
458.01	10492.62
458.19	10698.59
458.38	10642.42
458.56	10611.99
458.74	10724.33
458.93	10658.80
459.11	10958.39
459.29	10920.94
459.48	10934.98
459.66	10834.34
459.84	10960.73
460.03	11052.01
460.21	11112.86
460.39	10803.91
460.57	10906.90
460.76	11234.57
460.94	11283.72
461.12	11456.92
461.31	11403.09
461.49	11250.96
461.67	11281.38
461.85	11662.89
462.04	11527.14
462.22	11646.51
462.40	11445.22
462.59	11477.99
462.77	11482.67
462.95	11803.32
463.13	11648.85
463.32	11880.56
463.50	11700.34
463.68	11756.51
463.86	12086.53
464.05	11782.26
464.23	11721.40
464.41	12189.51
464.59	11768.21
464.78	12224.62
464.96	12051.42
465.14	11679.27
465.32	12252.70
465.50	12018.65
465.69	12322.92
465.87	12264.41
466.05	12297.17
466.23	12524.21
466.41	12437.61
466.60	12468.03
466.78	12107.59
466.96	12470.37
467.14	12393.14
467.32	12482.08
467.51	12730.17
467.69	12194.19
467.87	12650.60
468.05	12791.03
468.23	12390.80
468.41	12613.15
468.60	12596.76
468.78	12760.60
468.96	12383.77
469.14	12898.69
469.32	13001.68
469.50	12769.96
469.69	13116.36
469.87	13277.86
470.05	13179.56
470.23	13322.33
470.41	13289.56
470.59	13408.93
470.77	13254.45
470.95	13401.91
471.14	13558.72
471.32	13224.03
471.50	13900.44
471.68	13544.68
471.86	13977.68
472.04	13811.50
472.22	14094.71
472.40	13734.26
472.58	13867.67
472.77	14265.57
472.95	14415.36
473.13	14384.93
473.31	14169.60
473.49	14431.74
473.67	14134.50
473.85	14342.80
474.03	14703.25
474.21	14864.74
474.39	14951.34
474.57	15002.83
474.75	14836.66
474.93	14902.19
475.12	15040.28
475.30	15215.82
475.48	15068.37
475.66	15417.11
475.84	15096.46
476.02	15211.14
476.20	15403.07
476.38	15852.45
476.56	16112.25
476.74	15840.75
476.92	15751.81
477.10	16140.33
477.28	16203.53
477.46	16360.34
477.64	16409.50
477.82	16758.24
478.00	17121.02
478.18	16814.41
478.36	17032.08
478.54	17170.17
478.72	17324.65
478.90	17350.39
479.08	17551.68
479.26	17743.60
479.44	17926.16
479.62	17820.84
479.80	17996.38
479.98	18113.41
480.16	18885.78
480.34	18384.91
480.52	18647.05
480.70	18864.72
480.88	18604.92
481.06	18888.12
481.24	19274.31
481.41	19360.91
481.59	19571.56
481.77	19810.29
481.95	19805.61
482.13	19915.62
482.31	19807.95
482.49	20404.79
482.67	20341.60
482.85	20704.38
483.03	20863.54
483.21	20982.90
483.39	21010.99
483.57	21128.02
483.74	21266.11
483.92	21474.42
484.10	20966.52
484.28	22038.48
484.46	21869.97
484.64	22347.44
484.82	22029.12
485.00	22424.67
485.18	22888.10
485.35	22920.87
485.53	22986.40
485.71	23065.98
485.89	23800.91
486.07	23449.83
486.25	24030.28
486.43	24198.80
486.61	24049.00
486.78	24259.65
486.96	24615.41
487.14	24994.58
487.32	24702.01
487.50	24755.85
487.68	25308.21
487.85	25434.60
488.03	25656.95
488.21	25785.68
488.39	25930.80
488.57	26504.23
488.75	26291.24
488.92	26588.49
489.10	27145.53
489.28	26944.25
489.46	27491.93
489.64	27218.09
489.81	27487.25
489.99	27908.55
490.17	28074.73
490.35	28458.57
490.53	28376.66
490.70	28613.05
490.88	28467.94
491.06	28844.76
491.24	29020.30
491.41	29095.20
491.59	29249.67
491.77	29539.90
491.95	29820.77
492.13	30235.04
492.30	30078.22
492.48	30136.74
492.66	30361.43
492.84	30668.04
493.01	31136.15
493.19	30632.93
493.37	31061.25
493.54	31295.30
493.72	31627.66
493.90	31400.63
494.08	31796.18
494.25	32236.20
494.43	32088.74
494.61	32290.03
494.79	32779.20
494.96	32659.84
495.14	33104.54
495.32	33556.26
495.49	33406.47
495.67	33343.27
495.85	33619.46
496.02	33839.47
496.20	34010.32
496.38	34419.92
496.55	34363.75
496.73	35328.05
496.91	35274.21
497.09	35192.30
497.26	35342.09
497.44	35065.91
497.62	35402.94
497.79	36423.42
497.97	35967.01
498.14	36072.34
498.32	36353.20
498.50	36446.82
498.67	36760.45
498.85	37010.89
499.03	36938.33
499.20	37380.70
499.38	37134.94
499.56	37448.57
499.73	37221.54
499.91	37383.04
500.08	37537.51
500.26	37771.57
500.44	37956.47
500.61	38506.49
500.79	38272.44
500.97	38251.38
501.14	38871.62
501.32	38761.61
501.49	38721.82
501.67	38871.62
501.84	39718.89
502.02	39159.50
502.20	39243.76
502.37	39892.09
502.55	39651.02
502.72	40076.99
502.90	39899.11
503.07	39402.92
503.25	40133.17
503.43	40091.04
503.60	40591.91
503.78	40631.70
503.95	40463.18
504.13	40428.07
504.30	40842.35
504.48	40786.18
504.65	40961.72
504.83	41134.92
505.01	41574.94
505.18	41500.04
505.36	42054.75
505.53	41808.99
505.71	42078.15
505.88	42029.00
506.06	41996.23
506.23	41930.70
506.41	41874.52
506.58	42309.86
506.76	42560.30
506.93	42822.44
507.11	42653.92
507.28	43000.32
507.46	42937.13
507.63	43196.93
507.81	43526.94
507.98	43524.60
508.16	43674.40
508.33	43573.75
508.50	43997.39
508.68	44004.41
508.85	44612.95
509.03	43943.56
509.20	44194.00
509.38	44662.10
509.55	44390.60
509.73	44481.88
509.90	44701.89
510.08	44966.37
510.25	44978.07
510.42	45186.38
510.60	45272.98
510.77	45507.04
510.95	45698.96
511.12	45336.18
511.30	45560.87
511.47	46031.32
511.64	46115.58
511.82	46316.86
511.99	45958.76
512.17	46120.26
512.34	46429.21
512.51	46639.86
512.69	46761.56
512.86	46707.73
513.04	47143.07
513.21	47026.04
513.38	47082.22
513.56	47381.80
513.73	46773.27
513.90	47054.13
514.08	47437.98
514.25	48098.01
514.43	47985.66
514.60	47892.04
514.77	47870.98
514.95	48154.18
515.12	47868.64
515.29	47866.30
515.47	48189.29
515.64	48339.08
515.81	48126.10
515.99	48596.54
516.16	48545.05
516.33	48776.76
516.51	48844.64
516.68	48839.96
516.85	48549.73
517.03	48858.68
517.20	49272.96
517.37	49230.83
517.54	49495.31
517.72	49308.07
517.89	49406.37
518.06	49483.61
518.24	49191.04
518.41	49659.15
518.58	49708.30
518.75	49378.28
518.93	49968.10
519.10	49668.51
519.27	50106.19
519.45	49895.54
519.62	50101.51
519.79	50270.03
519.96	50272.37
520.14	50679.62
520.31	50377.69
520.48	50543.87
520.65	50480.67
520.83	51093.89
521.00	50848.14
521.17	50796.65
521.34	51035.38
521.52	50983.89
521.69	50965.17
521.86	51365.40
522.03	51838.18
522.20	51756.27
522.38	51824.14
522.55	51885.00
522.72	51517.53
522.89	51615.83
523.07	51908.40
523.24	51681.37
523.41	52013.73
523.58	51501.15
523.75	52002.02
523.92	51987.98
524.10	52266.50
524.27	52093.30
524.44	52418.64
524.61	52552.05
524.78	52470.13
524.96	52404.59
525.13	52671.42
525.30	52704.18
525.47	53073.99
525.64	52369.49
525.81	52978.03
525.98	52839.93
526.16	52856.32
526.33	52727.59
526.50	53062.29
526.67	52924.19
526.84	53336.13
527.01	53186.33
527.18	53092.71
527.36	53354.85
527.53	53478.90
527.70	53621.67
527.87	53675.51
528.04	53427.41
528.21	53441.45
528.38	53783.17
528.55	53741.04
528.72	53638.06
528.89	53380.60
529.07	53598.27
529.24	53429.75
529.41	53993.82
529.58	53801.89
529.75	53874.45
529.92	54047.65
530.09	54014.88
530.26	54031.27
530.43	53975.09
530.60	54138.93
530.77	54312.13
530.94	54302.77
531.11	54394.05
531.28	54237.23
531.46	54377.67
531.63	54733.43
531.80	54457.24
531.97	54663.21
532.14	54857.48
532.31	54925.35
532.48	54670.23
532.65	54969.82
532.82	54653.85
532.99	55196.85
533.16	54798.96
533.33	54878.54
533.50	55103.23
533.67	55056.42
533.84	54834.07
534.01	55126.64
534.18	54913.65
534.35	55435.59
534.52	55360.69
534.69	55363.03
534.86	55320.90
535.03	55379.42
535.20	55421.55
535.37	55569.00
535.54	55510.49
535.71	55444.95
535.88	55618.15
536.05	55522.19
536.22	55763.26
536.38	55667.30
536.55	55831.14
536.72	55849.86
536.89	55786.67
537.06	55959.87
537.23	56006.68
537.40	55552.62
537.57	55686.03
537.74	55971.57
537.91	56229.03
538.08	55955.19
538.25	55990.30
538.42	56053.49
538.59	56346.06
538.75	55842.84
538.92	56074.55
539.09	56259.46
539.26	56294.56
539.43	56416.27
539.60	56259.46
539.77	56493.51
539.94	56470.11
540.11	56603.52
540.28	56535.64
540.44	56786.08
540.61	56568.41
540.78	56568.41
540.95	56521.60
541.12	56741.61
541.29	56795.44
541.46	56615.22
541.62	56545.00
541.79	56856.29
541.96	56699.48
542.13	56767.35
542.30	56891.40
542.47	57176.95
542.63	57137.16
542.80	57244.82
542.97	57284.61
543.14	57530.37
543.31	57640.37
543.48	57509.30
543.64	57687.18
543.81	57530.37
543.98	57588.88
544.15	57565.48
544.32	57631.01
544.48	57783.15
544.65	57560.79
544.82	57635.69
544.99	57598.24
545.16	57633.35
545.32	57626.33
545.49	57757.40
545.66	58026.56
545.83	57684.84
546.00	58143.59
546.16	57764.42
546.33	57628.67
546.50	57867.40
546.67	58094.44
546.83	57666.12
547.00	57834.64
547.17	58000.82
547.34	57993.79
547.50	58232.53
547.67	58262.96
547.84	58047.63
548.00	58143.59
548.17	58616.38
548.34	58387.00
548.51	58396.37
548.67	58361.26
548.84	58279.34
549.01	58164.65
549.18	58607.01
549.34	58494.67
549.51	58391.68
549.68	58637.44
549.84	58445.52
550.01	58438.50
550.18	58534.46
550.34	58445.52
550.51	58808.30
550.68	58534.46
550.84	58543.82
551.01	58866.81
551.18	58841.07
551.34	58583.61
551.51	58988.52
551.68	58901.92
551.84	58740.42
552.01	58684.25
552.18	58927.67
552.34	58583.61
552.51	58864.47
552.68	58773.19
552.84	58829.37
553.01	59138.32
553.18	59124.27
553.34	58859.79
553.51	58958.09
553.67	59213.21
553.84	58885.54
554.01	59135.98
554.17	59150.02
554.34	59131.29
554.51	59040.01
554.67	59269.39
554.84	59093.85
555.00	59119.59
555.17	58997.88
555.33	59398.12
555.50	59180.45
555.67	59306.83
555.83	59299.81
556.00	59236.62
556.16	59585.36
556.33	59484.72
556.50	59536.21
556.66	59627.49
556.83	59250.66
556.99	59531.53
557.16	59606.42
557.32	59552.59
557.49	59997.29
557.65	59398.12
557.82	59498.76
557.98	59538.55
558.15	59433.22
558.32	59945.80
558.48	59379.39
558.65	59723.45
558.81	59568.97
558.98	59550.25
559.14	59903.67
559.31	59849.84
559.47	60004.31
559.64	59835.80
559.80	60032.40
559.97	59929.42
560.13	59756.22
560.30	59826.43
560.46	59987.93
560.63	60074.53
560.79	59800.69
560.96	59945.80
561.12	60011.34
561.29	59985.59
561.45	59997.29
561.61	59959.84
561.78	60214.96
561.94	59945.80
562.11	59971.55
562.27	60086.23
562.44	59861.54
562.60	60086.23
562.77	60186.88
562.93	59732.81
563.10	60264.11
563.26	60069.85
563.42	60289.86
563.59	60168.15
563.75	60205.60
563.92	60079.21
564.08	60137.72
564.24	60090.91
564.41	60292.20
564.57	60324.97
564.74	60261.77
564.90	60200.92
565.07	60439.65
565.23	60430.29
565.39	60315.61
565.56	60477.10
565.72	60217.30
565.88	60430.29
566.05	60240.71
566.21	60219.64
566.38	60547.32
566.54	60530.93
566.70	60629.24
566.87	60458.38
567.03	60240.71
567.19	60512.21
567.36	60788.39
567.52	60458.38
567.68	60559.02
567.85	60547.32
568.01	60619.88
568.17	60418.59
568.34	60568.38
568.50	60371.78
568.66	60488.80
568.83	60596.47
568.99	60385.82
569.15	60528.59
569.32	60706.47
569.48	60451.36
569.64	60823.50
569.81	60514.55
569.97	60449.02
570.13	60776.69
570.30	60547.32
570.46	60612.85
570.62	60669.03
570.78	60664.35
570.95	60755.63
571.11	60795.42
571.27	60640.94
571.43	60631.58
571.60	60942.87
571.76	60858.61
571.92	60753.29
572.09	60954.57
572.25	60800.10
572.41	60631.58
572.57	60750.94
572.74	60952.23
572.90	60933.51
573.06	60762.65
573.22	60804.78
573.38	60807.12
573.55	60903.08
573.71	60977.98
573.87	60853.93
574.03	60816.48
574.20	60832.86
574.36	60835.20
574.52	60910.10
574.68	60818.82
574.84	61038.83
575.01	60851.59
575.17	60975.64
575.33	60853.93
575.49	60839.89
575.65	61160.54
575.82	60954.57
575.98	60985.00
576.14	61247.14
576.30	61064.58
576.46	60889.04
576.62	60886.70
576.79	60886.70
576.95	60823.50
577.11	61125.43
577.27	61024.79
577.43	61080.96
577.59	60879.67
577.75	60912.44
577.92	60963.93
578.08	60849.25
578.24	60975.64
578.40	61200.33
578.56	61080.96
578.72	61055.21
578.88	61183.94
579.04	61228.41
579.21	61223.73
579.37	61305.65
579.53	61233.10
579.69	60907.76
579.85	60928.83
580.01	61197.99
580.17	60860.95
580.33	61230.75
580.49	61130.11
580.65	60980.32
580.82	61099.68
580.98	60970.96
581.14	60912.44
581.30	61106.71
581.46	61151.18
581.62	61242.46
581.78	61118.41
581.94	61361.82
582.10	61139.47
582.26	60933.51
582.42	61087.98
582.58	61083.30
582.74	61059.90
582.90	61174.58
583.06	61031.81
583.22	60921.80
583.38	61092.66
583.54	61146.50
583.70	61322.04
583.86	61207.35
584.02	61036.49
584.18	61092.66
584.34	61172.24
584.50	61090.32
584.66	61008.40
584.82	60996.70
584.98	61331.40
585.14	61230.75
585.30	60985.00
585.46	61226.07
585.62	61006.06
585.78	61434.38
585.94	61155.86
586.10	61120.75
586.26	61317.35
586.42	61134.79
586.58	61368.85
586.74	61200.33
586.90	61127.77
587.06	61326.72
587.22	61291.61
587.38	61249.48
587.54	61371.19
587.70	61490.55
587.86	61200.33
588.02	61357.14
588.18	61453.11
588.34	61197.99
588.49	61212.03
