SpectraSuite Data File
++++++++++++++++++++++++++++++++++++
Date: Fri Oct 25 10:44:54 EDT 2013
User: price-jones
Dark Spectrum Present: No
Reference Spectrum Present: No
Number of Sampled Component Spectra: 1
Spectrometers: USB2+H05261
Integration Time (usec): 100000 (USB2+H05261)
Spectra Averaged: 1 (USB2+H05261)
Boxcar Smoothing: 0 (USB2+H05261)
Correct for Electrical Dark: No (USB2+H05261)
Strobe/Lamp Enabled: No (USB2+H05261)
Correct for Detector Non-linearity: No (USB2+H05261)
Correct for Stray Light: No (USB2+H05261)
Number of Pixels in Processed Spectrum: 2048
>>>>>Begin Processed Spectral Data<<<<<
365.73	56.17
365.92	56.17
366.12	56.17
366.32	0.00
366.52	21.06
366.72	102.98
366.91	30.43
367.11	67.88
367.31	58.51
367.51	98.30
367.70	37.45
367.90	23.41
368.10	0.00
368.30	0.00
368.49	4.68
368.69	74.90
368.89	49.15
369.09	18.72
369.28	0.00
369.48	0.00
369.68	168.52
369.87	135.75
370.07	100.64
370.27	177.88
370.47	262.14
370.66	313.63
370.86	400.23
371.06	454.06
371.25	451.72
371.45	414.27
371.65	482.15
371.84	472.79
372.04	409.59
372.24	526.62
372.44	468.11
372.63	409.59
372.83	428.32
373.03	585.13
373.22	402.57
373.42	472.79
373.62	533.64
373.81	571.09
374.01	575.77
374.21	470.45
374.40	521.94
374.60	571.09
374.79	554.71
374.99	543.00
375.19	519.60
375.38	568.75
375.58	608.54
375.78	564.07
375.97	571.09
376.17	650.67
376.37	587.47
376.56	582.79
376.76	526.62
376.95	582.79
377.15	538.32
377.35	592.16
377.54	641.31
377.74	634.29
377.93	592.16
378.13	667.05
378.33	550.03
378.52	564.07
378.72	676.41
378.91	615.56
379.11	657.69
379.31	643.65
379.50	510.24
379.70	655.35
379.89	655.35
380.09	620.24
380.28	622.58
380.48	667.05
380.68	594.50
380.87	631.94
381.07	660.03
381.26	667.05
381.46	662.37
381.65	629.60
381.85	631.94
382.04	603.86
382.24	655.35
382.43	620.24
382.63	706.84
382.83	695.14
383.02	720.88
383.22	699.82
383.41	669.39
383.61	676.41
383.80	704.50
384.00	681.10
384.19	688.12
384.39	690.46
384.58	706.84
384.78	755.99
384.97	734.93
385.17	763.01
385.36	758.33
385.56	739.61
385.75	688.12
385.95	784.08
386.14	826.21
386.34	678.76
386.53	784.08
386.72	779.40
386.92	854.30
387.11	741.95
387.31	861.32
387.50	856.64
387.70	807.48
387.89	800.46
388.09	858.98
388.28	751.31
388.48	854.30
388.67	898.77
388.86	952.60
389.06	847.27
389.25	901.11
389.45	922.17
389.64	938.55
389.84	866.00
390.03	957.28
390.22	952.60
390.42	856.64
390.61	889.40
390.81	922.17
391.00	908.13
391.19	952.60
391.39	945.58
391.58	987.71
391.78	954.94
391.97	1043.88
392.16	898.77
392.36	1015.79
392.55	1006.43
392.75	980.68
392.94	882.38
393.13	968.98
393.33	1015.79
393.52	966.64
393.71	1067.28
393.91	964.30
394.10	936.21
394.29	1083.67
394.49	1057.92
394.68	1086.01
394.88	992.39
395.07	1114.10
395.26	999.41
395.46	987.71
395.65	1221.76
395.84	1142.18
396.04	1252.19
396.23	1104.73
396.42	1132.82
396.62	1135.16
396.81	1142.18
397.00	1196.01
397.19	1156.22
397.39	1170.27
397.58	1203.04
397.77	1320.06
397.97	1263.89
398.16	1233.46
398.35	1287.29
398.55	1320.06
398.74	1296.66
398.93	1357.51
399.12	1336.45
399.32	1371.55
399.51	1247.51
399.70	1439.43
399.90	1437.09
400.09	1437.09
400.28	1434.75
400.47	1404.32
400.67	1430.07
400.86	1432.41
401.05	1390.28
401.24	1535.39
401.44	1500.28
401.63	1523.69
401.82	1521.35
402.01	1437.09
402.21	1401.98
402.40	1540.07
402.59	1458.15
402.78	1507.30
402.97	1563.48
403.17	1568.16
403.36	1476.88
403.55	1598.59
403.74	1570.50
403.93	1636.03
404.13	1659.44
404.32	1732.00
404.51	1650.08
404.70	1687.53
404.89	1708.59
405.09	1701.57
405.28	1729.66
405.47	1809.23
405.66	1750.72
405.85	1760.08
406.05	1750.72
406.24	1638.38
406.43	1788.17
406.62	1783.49
406.81	1842.00
407.00	1762.42
407.20	1837.32
407.39	1830.30
407.58	1912.22
407.77	1952.01
407.96	1902.86
408.15	2038.61
408.34	2054.99
408.54	2092.44
408.73	2010.52
408.92	2003.50
409.11	1996.48
409.30	2050.31
409.49	2118.18
409.68	2083.08
409.87	2078.40
410.07	2157.97
410.26	2029.24
410.45	1998.82
410.64	2188.40
410.83	2153.29
411.02	2174.36
411.21	2277.34
411.40	2282.02
411.59	2312.45
411.78	2188.40
411.98	2326.49
412.17	2298.41
412.36	2347.56
412.55	2401.39
412.74	2387.35
412.93	2551.18
413.12	2366.28
413.31	2551.18
413.50	2504.37
413.69	2558.21
413.88	2626.08
414.07	2663.53
414.26	2483.31
414.45	2663.53
414.64	2628.42
414.83	2581.61
415.02	2597.99
415.22	2665.87
415.41	2869.50
415.60	2909.29
415.79	2836.73
415.98	2970.14
416.17	2909.29
416.36	2822.69
416.55	2729.06
416.74	2911.63
416.93	2864.82
417.12	2916.31
417.31	2946.73
417.50	2935.03
417.69	3009.93
417.88	3066.10
418.07	3073.12
418.26	3101.21
418.45	3162.06
418.64	3218.24
418.83	3150.36
419.02	3070.78
419.21	3269.73
419.39	3311.86
419.58	3229.94
419.77	3138.66
419.96	3178.45
420.15	3293.13
420.34	3236.96
420.53	3227.60
420.72	3463.99
420.91	3269.73
421.10	3503.78
421.29	3438.25
421.48	3372.71
421.67	3503.78
421.86	3438.25
422.05	3417.18
422.24	3293.13
422.43	3311.86
422.61	3438.25
422.80	3541.23
422.99	3482.72
423.18	3398.46
423.37	3620.81
423.56	3386.76
423.75	3576.34
423.94	3426.54
424.13	3361.01
424.32	3454.63
424.50	3508.46
424.69	3779.97
424.88	3623.15
425.07	3438.25
425.26	3440.59
425.45	3447.61
425.64	3529.53
425.83	3482.72
426.01	3557.61
426.20	3641.87
426.39	3536.55
426.58	3627.83
426.77	3585.70
426.96	3627.83
427.15	3417.18
427.33	3782.31
427.52	3585.70
427.71	3730.81
427.90	3693.37
428.09	3770.60
428.28	3669.96
428.46	3702.73
428.65	3770.60
428.84	3705.07
429.03	3929.76
429.22	3723.79
429.40	3770.60
429.59	3810.39
429.78	3639.53
429.97	3585.70
430.16	3761.24
430.34	3854.86
430.53	3744.86
430.72	3749.54
430.91	3880.61
431.10	3845.50
431.28	4091.26
431.47	4079.55
431.66	4152.11
431.85	4138.07
432.03	4250.41
432.22	4170.83
432.41	4294.88
432.60	4311.27
432.79	4173.18
432.97	4329.99
433.16	4135.73
433.35	4201.26
433.54	3985.93
433.72	4294.88
433.91	4250.41
434.10	4372.12
434.28	4367.44
434.47	4315.95
434.66	4407.23
434.85	4383.82
435.03	4437.66
435.22	4367.44
435.41	4631.92
435.59	4592.13
435.78	4688.09
435.97	4606.17
436.16	4606.17
436.34	4381.48
436.53	4573.41
436.72	4704.48
436.90	4531.28
437.09	4702.14
437.28	4582.77
437.46	4634.26
437.65	4566.39
437.84	4594.47
438.02	4652.98
438.21	4554.68
438.40	4608.51
438.58	4896.40
438.77	4922.15
438.96	4891.72
439.14	5013.43
439.33	5107.05
439.52	4964.28
439.70	5046.20
439.89	5107.05
440.08	5217.05
440.26	5233.44
440.45	5071.94
440.63	5303.65
440.82	5476.85
441.01	5458.13
441.19	5434.72
441.38	5465.15
441.57	5472.17
441.75	5430.04
441.94	5593.88
442.12	5673.46
442.31	5643.03
442.50	5675.80
442.68	5666.44
442.87	5689.84
443.05	5680.48
443.24	5881.77
443.43	5619.63
443.61	5781.12
443.80	5743.67
443.98	5528.35
444.17	5607.92
444.35	5832.62
444.54	5954.32
444.73	5832.62
444.91	5788.14
445.10	5738.99
445.28	5905.17
445.47	5813.89
445.65	5874.74
445.84	5884.11
446.02	5951.98
446.21	5935.60
446.39	5841.98
446.58	5905.17
446.77	5970.71
446.95	5799.85
447.14	5895.81
447.32	6054.97
447.51	5959.00
447.69	6071.35
447.88	5956.66
448.06	5991.77
448.25	6066.67
448.43	6146.25
448.62	5991.77
448.80	6003.47
448.99	5942.62
449.17	6085.39
449.36	6087.73
449.54	6225.82
449.73	6246.89
449.91	6183.70
450.10	6265.61
450.28	6370.94
450.46	6382.64
450.65	6338.17
450.83	6408.39
451.02	6342.85
451.20	6576.91
451.39	6562.86
451.57	6623.72
451.76	6291.36
451.94	6628.40
452.13	6583.93
452.31	6523.07
452.49	6392.00
452.68	6530.09
452.86	6523.07
453.05	6665.85
453.23	6523.07
453.42	6389.66
453.60	6612.01
453.78	6677.55
453.97	6499.67
454.15	6649.46
454.34	6649.46
454.52	6710.32
454.70	6778.19
454.89	6675.21
455.07	6946.71
455.26	6736.06
455.44	6970.12
455.62	6736.06
455.81	7045.01
455.99	7052.03
456.17	7030.97
456.36	7126.93
456.54	7157.36
456.73	7143.32
456.91	7187.79
457.09	7206.51
457.28	7463.97
457.46	7124.59
457.64	7445.24
457.83	7335.24
458.01	7234.60
458.19	7461.63
458.38	7288.43
458.56	7508.44
458.74	7393.75
458.93	7672.28
459.11	7112.89
459.29	7379.71
459.48	7461.63
459.66	7494.40
459.84	7524.82
460.03	7691.00
460.21	7695.68
460.39	7726.11
460.57	7658.23
460.76	7824.41
460.94	7749.51
461.12	7564.61
461.31	7836.11
461.49	7819.73
461.67	7868.88
461.85	7887.61
462.04	7974.21
462.22	8079.53
462.40	7990.59
462.59	8147.40
462.77	7974.21
462.95	8264.43
463.13	8023.36
463.32	8135.70
463.50	8084.21
463.68	8149.75
463.86	8081.87
464.05	7948.46
464.23	7915.69
464.41	8173.15
464.59	8128.68
464.78	8269.11
464.96	8236.35
465.14	8212.94
465.32	8306.56
465.50	8306.56
465.69	8362.73
465.87	8231.66
466.05	8362.73
466.23	8542.96
466.41	8315.92
466.60	8500.83
466.78	8365.07
466.96	8517.21
467.14	8458.70
467.32	8566.36
467.51	8542.96
467.69	8353.37
467.87	8697.43
468.05	8531.25
468.23	8683.39
468.41	8627.21
468.60	8667.00
468.78	8655.30
468.96	8734.88
469.14	8678.71
469.32	8805.10
469.50	8798.07
469.69	8882.33
469.87	8730.20
470.05	9018.08
470.23	9046.17
470.41	8997.02
470.59	9249.80
470.77	8868.29
470.95	9207.67
471.14	9219.37
471.32	9050.85
471.50	9474.49
471.68	9280.22
471.86	9430.02
472.04	9486.19
472.22	9678.12
472.40	9259.16
472.58	9200.65
472.77	9317.67
472.95	9633.64
473.13	9816.21
473.31	9540.02
473.49	9729.61
473.67	9767.06
473.85	9612.58
474.03	9823.23
474.21	10097.07
474.39	9935.57
474.57	9909.83
474.75	9968.34
474.93	10239.84
475.12	10115.80
475.30	10242.18
475.48	10029.20
475.66	10115.80
475.84	10235.16
476.02	10284.31
476.20	10284.31
476.38	10628.37
476.56	10946.69
476.74	10803.91
476.92	10721.99
477.10	10815.62
477.28	10944.34
477.46	10885.83
477.64	11208.83
477.82	11279.04
478.00	11328.19
478.18	11485.01
478.36	11449.90
478.54	11630.12
478.72	11665.23
478.90	11815.02
479.08	11997.59
479.26	12135.68
479.44	12049.08
479.62	11988.22
479.80	12011.63
479.98	12369.73
480.16	12411.86
480.34	12428.24
480.52	12554.63
480.70	12517.18
480.88	12358.03
481.06	12669.32
481.24	12716.13
481.41	12746.56
481.59	13099.98
481.77	12943.16
481.95	13219.35
482.13	13174.88
482.31	13369.14
482.49	13474.46
482.67	13696.82
482.85	13577.45
483.03	13909.80
483.21	13797.46
483.39	13987.04
483.57	14064.28
483.74	14286.63
483.92	14338.12
484.10	14401.32
484.28	14520.68
484.46	14834.32
484.64	14923.26
484.82	14747.72
485.00	14771.12
485.18	15190.08
485.35	15321.15
485.53	15019.22
485.71	15087.09
485.89	15494.35
486.07	15070.71
486.25	15204.12
486.43	15435.83
486.61	15660.52
486.78	16004.58
486.96	16145.02
487.14	16215.23
487.32	16198.85
487.50	16791.00
487.68	16837.81
487.85	16762.92
488.03	17130.38
488.21	17207.62
488.39	16849.52
488.57	17301.24
488.75	17362.09
488.92	17523.59
489.10	17415.93
489.28	17523.59
489.46	18043.19
489.64	18202.35
489.81	18190.64
489.99	18417.68
490.17	18487.89
490.35	18658.75
490.53	18494.91
490.70	18420.02
490.88	18892.80
491.06	19293.04
491.24	19225.16
491.41	19126.86
491.59	19073.03
491.77	19267.29
491.95	19459.21
492.13	19726.04
492.30	19747.10
492.48	19822.00
492.66	19843.06
492.84	19875.83
493.01	20383.73
493.19	20517.14
493.37	20027.96
493.54	20159.03
493.72	20713.74
493.90	20788.64
494.08	21259.09
494.25	21160.78
494.43	21542.29
494.61	21174.83
494.79	21544.63
494.96	21392.50
495.14	21748.26
495.32	21961.25
495.49	21685.06
495.67	21839.54
495.85	21813.79
496.02	22237.43
496.20	22317.01
496.38	22548.72
496.55	22675.11
496.73	23105.77
496.91	22726.60
497.09	22923.21
497.26	23021.51
497.44	22860.01
497.62	22948.95
497.79	23627.71
497.97	23112.79
498.14	23342.16
498.32	23653.45
498.50	23484.94
498.67	24016.24
498.85	24023.26
499.03	24079.43
499.20	23939.00
499.38	24163.69
499.56	24482.00
499.73	24191.78
499.91	24350.93
500.08	24725.42
500.26	24514.77
500.44	24931.39
500.61	24769.89
500.79	24624.78
500.97	25003.94
501.14	25317.57
501.32	25305.87
501.49	25013.31
501.67	25064.80
501.84	25472.05
502.02	25355.02
502.20	25446.30
502.37	25874.62
502.55	25359.70
502.72	25872.28
502.90	26099.31
503.07	25841.85
503.25	25886.32
503.43	25937.82
503.60	26302.94
503.78	25846.54
503.95	26649.34
504.13	26597.85
504.30	26441.03
504.48	26352.09
504.65	26913.82
504.83	26951.27
505.01	26888.07
505.18	26937.23
505.36	27206.39
505.53	27101.06
505.71	27484.91
505.88	27487.25
506.06	27393.63
506.23	27601.94
506.41	27124.47
506.58	27604.28
506.76	27821.95
506.93	28107.49
507.11	27819.61
507.28	27688.54
507.46	27775.14
507.63	27875.78
507.81	28360.27
507.98	28011.53
508.16	28133.24
508.33	28140.26
508.50	28933.70
508.68	28142.60
508.85	28910.30
509.03	28615.39
509.20	28687.95
509.38	29134.99
509.55	29118.60
509.73	29095.20
509.90	29139.67
510.08	28978.17
510.25	28732.42
510.42	29638.20
510.60	29670.97
510.77	29282.44
510.95	30043.12
511.12	29738.85
511.30	29860.55
511.47	30096.95
511.64	29876.94
511.82	30132.06
511.99	29486.07
512.17	30176.53
512.34	30139.08
512.51	30101.63
512.69	30546.33
512.86	30574.42
513.04	30813.15
513.21	30953.58
513.38	30609.53
513.56	30408.24
513.73	30600.16
513.90	30724.21
514.08	30934.86
514.25	31297.64
514.43	30836.56
514.60	31124.44
514.77	30995.71
514.95	31517.65
515.12	31243.81
515.29	31510.63
515.47	31929.59
515.64	32002.14
515.81	31711.92
515.99	31550.42
516.16	31945.97
516.33	31679.15
516.51	31779.79
516.68	31796.18
516.85	31566.81
517.03	31658.09
517.20	31915.54
517.37	32254.92
517.54	32168.32
517.72	32301.73
517.89	32329.82
518.06	32320.46
518.24	31997.46
518.41	32184.71
518.58	32336.84
518.75	32428.12
518.93	32727.71
519.10	32507.70
519.27	32753.46
519.45	32919.63
519.62	33078.79
519.79	33230.93
519.96	33474.34
520.14	33120.92
520.31	33448.60
520.48	33490.73
520.65	33303.48
520.83	33165.39
521.00	33551.58
521.17	34061.82
521.34	33750.52
521.52	33652.22
521.69	33787.97
521.86	34213.95
522.03	33818.40
522.20	34263.10
522.38	34382.47
522.55	34075.86
522.72	34459.71
522.89	34291.19
523.07	34469.07
523.24	34466.73
523.41	34417.58
523.58	34483.11
523.75	34806.11
523.92	34724.19
524.10	34813.13
524.27	34955.90
524.44	35269.53
524.61	35051.86
524.78	35075.27
524.96	35000.37
525.13	34829.51
525.30	35791.47
525.47	35599.55
525.64	35257.83
525.81	35594.87
525.98	35508.27
526.16	35438.05
526.33	34890.37
526.50	35674.45
526.67	35192.30
526.84	35264.85
527.01	35433.37
527.18	35381.88
527.36	35709.55
527.53	36196.38
527.70	36409.37
527.87	36219.79
528.04	35882.75
528.21	36030.21
528.38	36570.87
528.55	36547.47
528.72	36254.90
528.89	36620.02
529.07	36369.58
529.24	36451.50
529.41	36334.48
529.58	36355.54
529.75	36669.17
529.92	36730.03
530.09	36301.71
530.26	36638.75
530.43	37212.18
530.60	36793.22
530.77	36751.09
530.94	37158.34
531.11	36889.18
531.28	36669.17
531.46	37078.77
531.63	37078.77
531.80	37200.47
531.97	37064.72
532.14	37378.36
532.31	36870.46
532.48	37038.98
532.65	37153.66
532.82	37553.90
532.99	37530.49
533.16	37251.97
533.33	37668.58
533.50	37956.47
533.67	37820.72
533.84	37706.03
534.01	37766.88
534.18	37544.53
534.35	38082.86
534.52	38000.94
534.69	37776.25
534.86	38213.93
535.03	38024.34
535.20	38497.13
535.37	38546.28
535.54	38700.76
535.71	38459.68
535.88	38600.12
536.05	38557.99
536.22	38834.17
536.38	38806.08
536.55	38637.56
536.72	38639.90
536.89	38244.35
537.06	38789.70
537.23	38796.72
537.40	38583.73
537.57	38794.38
537.74	38937.15
537.91	39023.75
538.08	39339.72
538.25	38567.35
538.42	38859.91
538.59	39072.90
538.75	38670.33
538.92	39210.99
539.09	39227.38
539.26	39248.44
539.43	38841.19
539.60	39337.38
539.77	39470.79
539.94	39292.91
540.11	39194.61
540.28	39779.74
540.44	39503.56
540.61	39533.99
540.78	39473.13
540.95	39447.39
541.12	39093.97
541.29	40025.50
541.46	39669.74
541.62	39992.73
541.79	39779.74
541.96	39679.10
542.13	39894.43
542.30	39641.65
542.47	40055.93
542.63	39971.67
542.80	39917.84
542.97	40369.56
543.14	40748.73
543.31	40582.55
543.48	40552.12
543.64	40664.47
543.81	40664.47
543.98	40109.76
544.15	40921.93
544.32	40629.36
544.48	40683.19
544.65	40891.50
544.82	40905.54
544.99	40339.13
545.16	41411.10
545.32	40737.02
545.49	41450.89
545.66	41013.21
545.83	41579.62
546.00	41273.01
546.16	41399.40
546.33	40914.90
546.50	40985.12
546.67	41198.11
546.83	40772.13
547.00	41158.32
547.17	41233.22
547.34	41551.53
547.50	41240.24
547.67	41460.25
547.84	41563.23
548.00	41614.72
548.17	41429.82
548.34	41954.10
548.51	41820.69
548.67	42005.59
548.84	41773.88
549.01	41483.66
549.18	41368.97
549.34	41785.58
549.51	42007.94
549.68	41862.82
549.84	42146.03
550.01	41958.78
550.18	41954.10
550.34	41853.46
550.51	41862.82
550.68	42085.17
550.84	41965.81
551.01	42286.46
551.18	42043.04
551.34	41879.21
551.51	42239.65
551.68	42382.42
551.84	42213.90
552.01	42012.62
552.18	42122.62
552.34	42279.44
552.51	42560.30
552.68	42040.70
552.84	42174.11
553.01	42880.95
553.18	41778.56
553.34	42586.05
553.51	42068.79
553.67	42267.73
553.84	42649.24
554.01	42611.79
554.17	42579.03
554.34	42440.93
554.51	42532.22
554.67	43016.71
554.84	42721.80
555.00	42429.23
555.17	42883.30
555.33	43122.03
555.50	42728.82
555.67	43234.38
555.83	42997.98
556.00	42569.66
556.16	43599.50
556.33	43236.72
556.50	42728.82
556.66	43061.18
556.83	42560.30
556.99	43173.52
557.16	43206.29
557.32	43115.01
557.49	43236.72
557.65	42932.45
557.82	43260.12
557.98	43016.71
558.15	43335.02
558.32	43737.59
558.48	43309.27
558.65	43206.29
558.81	43112.67
558.98	43421.62
559.14	42712.44
559.31	43313.95
559.47	43325.66
559.64	43276.51
559.80	43503.54
559.97	43669.72
560.13	43304.59
560.30	43178.20
560.46	43594.82
560.63	43363.11
560.79	44060.58
560.96	43564.39
561.12	43786.74
561.29	43587.80
561.45	43622.90
561.61	43335.02
561.78	43608.86
561.94	43475.45
562.11	43206.29
562.27	43475.45
562.44	43313.95
562.60	43866.32
562.77	43849.94
562.93	43564.39
563.10	43594.82
563.26	43267.14
563.42	43938.88
563.59	43817.17
563.75	44098.03
563.92	44055.90
564.08	43452.05
564.24	43861.64
564.41	43838.23
564.57	43702.48
564.74	43742.27
564.90	43775.04
565.07	43735.25
565.23	43313.95
565.39	44069.95
565.56	44030.16
565.72	43484.81
565.88	44083.99
566.05	43468.43
566.21	44046.54
566.38	43674.40
566.54	44163.57
566.70	43955.26
566.87	44215.06
567.03	43639.29
567.19	44839.98
567.36	44425.71
567.52	43957.60
567.68	44481.88
567.85	43730.57
568.01	44067.61
568.17	43938.88
568.34	44322.72
568.50	44186.97
568.66	43871.00
568.83	44449.11
568.99	43798.44
569.15	44088.67
569.32	43892.07
569.48	43934.20
569.64	44446.77
569.81	44109.74
569.97	43999.73
570.13	44273.57
570.30	43959.94
570.46	43634.61
570.62	43863.98
570.78	44058.24
570.95	44112.08
571.11	44336.77
571.27	44224.42
571.43	43845.26
571.60	43971.64
571.76	44360.17
571.92	44524.01
572.09	44105.06
572.25	44266.55
572.41	44439.75
572.57	44222.08
572.74	44587.21
572.90	44348.47
573.06	44622.31
573.22	43999.73
573.38	44486.56
573.55	44083.99
573.71	44477.20
573.87	44315.70
574.03	44435.07
574.20	44009.09
574.36	44095.69
574.52	44467.84
574.68	44484.22
574.84	44395.28
575.01	44390.60
575.17	44355.49
575.33	44266.55
575.49	44240.81
575.65	44430.39
575.82	44727.64
575.98	44500.61
576.14	44657.42
576.30	44268.89
576.46	44406.98
576.62	44446.77
576.79	44102.71
576.95	43908.45
577.11	44402.30
577.27	44547.42
577.43	44404.64
577.59	44587.21
577.75	44236.12
577.92	43700.14
578.08	44039.52
578.24	44058.24
578.40	44170.59
578.56	44437.41
578.72	43997.39
578.88	44577.84
579.04	44505.29
579.21	44554.44
579.37	44587.21
579.53	44374.22
579.69	43978.67
579.85	44041.86
580.01	44308.68
580.17	44299.32
580.33	44924.24
580.49	44961.69
580.65	44858.71
580.82	44479.54
580.98	44442.09
581.14	44247.83
581.30	44734.66
581.46	44500.61
581.62	44521.67
581.78	44591.89
581.94	45116.17
582.10	44598.91
582.26	44622.31
582.42	44673.81
582.58	44596.57
582.74	44313.36
582.90	44847.00
583.06	44940.63
583.22	44622.31
583.38	45008.50
583.54	44896.16
583.70	44619.97
583.86	44287.62
584.02	44711.25
584.18	44519.33
584.34	44194.00
584.50	44622.31
584.66	44669.12
584.82	44233.78
584.98	44823.60
585.14	44369.54
585.30	44442.09
585.46	44891.48
585.62	44540.39
585.78	44463.16
585.94	44156.55
586.10	44399.96
586.26	44378.90
586.42	44795.51
586.58	44687.85
586.74	44774.45
586.90	44444.43
587.06	44456.14
587.22	44774.45
587.38	44673.81
587.54	44402.30
587.70	44851.69
587.86	44816.58
588.02	44769.77
588.18	44289.96
588.34	44481.88
588.49	44484.22
588.65	43889.73
588.81	44343.79
588.97	44746.36
589.13	44259.53
589.29	44334.43
589.45	44430.39
589.61	44917.22
589.77	44442.09
589.93	45020.20
590.08	45174.68
590.24	45020.20
590.40	45221.49
