SpectraSuite Data File
++++++++++++++++++++++++++++++++++++
Date: Fri Oct 25 10:44:35 EDT 2013
User: price-jones
Dark Spectrum Present: No
Reference Spectrum Present: No
Number of Sampled Component Spectra: 1
Spectrometers: USB2+H05261
Integration Time (usec): 100000 (USB2+H05261)
Spectra Averaged: 1 (USB2+H05261)
Boxcar Smoothing: 0 (USB2+H05261)
Correct for Electrical Dark: No (USB2+H05261)
Strobe/Lamp Enabled: No (USB2+H05261)
Correct for Detector Non-linearity: No (USB2+H05261)
Correct for Stray Light: No (USB2+H05261)
Number of Pixels in Processed Spectrum: 2048
>>>>>Begin Processed Spectral Data<<<<<
365.73	210.65
365.92	210.65
366.12	210.65
366.32	128.73
366.52	46.81
366.72	65.54
366.91	0.00
367.11	0.00
367.31	77.24
367.51	4.68
367.70	49.15
367.90	51.49
368.10	72.56
368.30	77.24
368.49	86.60
368.69	58.51
368.89	63.19
369.09	79.58
369.28	65.54
369.48	72.56
369.68	56.17
369.87	53.83
370.07	65.54
370.27	140.43
370.47	252.78
370.66	332.36
370.86	409.59
371.06	390.87
371.25	465.77
371.45	351.08
371.65	510.24
371.84	390.87
372.04	461.09
372.24	454.06
372.44	435.34
372.63	587.47
372.83	517.26
373.03	479.81
373.22	524.28
373.42	475.13
373.62	552.37
373.81	540.66
374.01	580.45
374.21	540.66
374.40	554.71
374.60	517.26
374.79	564.07
374.99	568.75
375.19	631.94
375.38	622.58
375.58	533.64
375.78	503.22
375.97	519.60
376.17	643.65
376.37	613.22
376.56	531.30
376.76	550.03
376.95	603.86
377.15	603.86
377.35	587.47
377.54	543.00
377.74	566.41
377.93	636.63
378.13	533.64
378.33	592.16
378.52	493.85
378.72	599.18
378.91	681.10
379.11	573.43
379.31	557.05
379.50	573.43
379.70	669.39
379.89	713.86
380.09	657.69
380.28	587.47
380.48	613.22
380.68	709.18
380.87	613.22
381.07	627.26
381.26	655.35
381.46	645.99
381.65	674.07
381.85	657.69
382.04	664.71
382.24	638.97
382.43	606.20
382.63	674.07
382.83	606.20
383.02	671.73
383.22	688.12
383.41	685.78
383.61	657.69
383.80	681.10
384.00	788.76
384.19	746.63
384.39	744.29
384.58	596.84
384.78	662.37
384.97	737.27
385.17	777.06
385.36	751.31
385.56	753.65
385.75	723.23
385.95	774.72
386.14	730.25
386.34	767.70
386.53	751.31
386.72	826.21
386.92	805.14
387.11	868.34
387.31	833.23
387.50	767.70
387.70	795.78
387.89	772.38
388.09	866.00
388.28	774.72
388.48	781.74
388.67	868.34
388.86	868.34
389.06	889.40
389.25	901.11
389.45	861.32
389.64	835.57
389.84	929.19
390.03	936.21
390.22	851.96
390.42	926.85
390.61	856.64
390.81	903.45
391.00	936.21
391.19	945.58
391.39	973.66
391.58	926.85
391.78	954.94
391.97	915.15
392.16	968.98
392.36	922.17
392.55	945.58
392.75	968.98
392.94	943.24
393.13	1006.43
393.33	992.39
393.52	971.32
393.71	1039.20
393.91	919.83
394.10	926.85
394.29	1055.58
394.49	1062.60
394.68	1060.26
394.88	1170.27
395.07	1174.95
395.26	1020.47
395.46	1128.14
395.65	1172.61
395.84	1125.80
396.04	1263.89
396.23	1128.14
396.42	1135.16
396.62	1086.01
396.81	1149.20
397.00	1186.65
397.19	1172.61
397.39	1184.31
397.58	1275.59
397.77	1336.45
397.97	1310.70
398.16	1266.23
398.35	1313.04
398.55	1343.47
398.74	1329.42
398.93	1308.36
399.12	1359.85
399.32	1280.27
399.51	1406.66
399.70	1352.83
399.90	1369.21
400.09	1362.19
400.28	1472.20
400.47	1392.62
400.67	1519.01
400.86	1495.60
401.05	1483.90
401.24	1404.32
401.44	1423.05
401.63	1570.50
401.82	1504.96
402.01	1547.09
402.21	1554.12
402.40	1544.75
402.59	1563.48
402.78	1530.71
402.97	1530.71
403.17	1579.86
403.36	1701.57
403.55	1633.69
403.74	1717.95
403.93	1715.61
404.13	1699.23
404.32	1647.74
404.51	1657.10
404.70	1666.46
404.89	1713.27
405.09	1762.42
405.28	1729.66
405.47	1750.72
405.66	1816.26
405.85	1886.47
406.05	1717.95
406.24	1715.61
406.43	1881.79
406.62	1802.21
406.81	1898.17
407.00	1865.41
407.20	1813.92
407.39	1842.00
407.58	1912.22
407.77	2040.95
407.96	1937.96
408.15	2031.58
408.34	1926.26
408.54	2094.78
408.73	2174.36
408.92	2064.35
409.11	2073.71
409.30	2136.91
409.49	1968.39
409.68	2050.31
409.87	2054.99
410.07	2115.84
410.26	2136.91
410.45	2188.40
410.64	2122.87
410.83	2338.20
411.02	2324.15
411.21	2396.71
411.40	2181.38
411.59	2312.45
411.78	2237.55
411.98	2303.09
412.17	2424.80
412.36	2370.96
412.55	2450.54
412.74	2478.63
412.93	2485.65
413.12	2483.31
413.31	2609.70
413.50	2558.21
413.69	2656.51
413.88	2677.57
414.07	2621.40
414.26	2665.87
414.45	2621.40
414.64	2686.94
414.83	2708.00
415.02	2623.74
415.22	2644.81
415.41	2726.72
415.60	2806.30
415.79	2918.65
415.98	2991.20
416.17	2836.73
416.36	2775.88
416.55	2944.39
416.74	3014.61
416.93	2928.01
417.12	2874.18
417.31	3176.11
417.50	2981.84
417.69	3122.27
417.88	3101.21
418.07	3141.00
418.26	3157.38
418.45	3211.22
418.64	3274.41
418.83	3227.60
419.02	3136.32
419.21	3138.66
419.39	3253.34
419.58	3215.90
419.77	3253.34
419.96	3225.26
420.15	3269.73
420.34	3269.73
420.53	3372.71
420.72	3478.04
420.91	3571.66
421.10	3393.78
421.29	3485.06
421.48	3332.92
421.67	3473.36
421.86	3351.65
422.05	3426.54
422.24	3480.38
422.43	3531.87
422.61	3492.08
422.80	3461.65
422.99	3583.36
423.18	3538.89
423.37	3648.90
423.56	3637.19
423.75	3634.85
423.94	3524.85
424.13	3262.71
424.32	3449.95
424.50	3599.74
424.69	3721.45
424.88	3604.42
425.07	3541.23
425.26	3410.16
425.45	3557.61
425.64	3609.11
425.83	3693.37
426.01	3702.73
426.20	3730.81
426.39	3644.21
426.58	3660.60
426.77	3609.11
426.96	3667.62
427.15	3801.03
427.33	3782.31
427.52	3747.20
427.71	3744.86
427.90	3700.39
428.09	3918.06
428.28	3896.99
428.46	3763.58
428.65	3672.30
428.84	3873.59
429.03	4037.42
429.22	3889.97
429.40	3756.56
429.59	3798.69
429.78	3735.50
429.97	3538.89
430.16	3955.51
430.34	3819.75
430.53	3819.75
430.72	3892.31
430.91	3875.93
431.10	3904.01
431.28	4149.77
431.47	4191.90
431.66	4161.47
431.85	4102.96
432.03	4287.86
432.22	4276.16
432.41	4166.15
432.60	4285.52
432.79	4264.46
432.97	4219.99
433.16	4224.67
433.35	4320.63
433.54	4287.86
433.72	4397.87
433.91	4409.57
434.10	4360.42
434.28	4262.12
434.47	4372.12
434.66	4512.55
434.85	4573.41
435.03	4421.27
435.22	4475.10
435.41	4786.40
435.59	4585.11
435.78	4451.70
435.97	4751.29
436.16	4744.27
436.34	4648.30
436.53	4678.73
436.72	4699.80
436.90	4620.22
437.09	4674.05
437.28	4582.77
437.46	4683.41
437.65	4730.22
437.84	4851.93
438.02	4889.38
438.21	4802.78
438.40	4608.51
438.58	4938.53
438.77	4884.70
438.96	5064.92
439.14	5177.26
439.33	5247.48
439.52	5217.05
439.70	5207.69
439.89	5109.39
440.08	5177.26
440.26	5219.39
440.45	5076.62
440.63	5376.21
440.82	5329.40
441.01	5392.59
441.19	5537.71
441.38	5579.84
441.57	5650.05
441.75	5556.43
441.94	5795.17
442.12	5692.18
442.31	5863.04
442.50	5933.26
442.68	5802.19
442.87	5797.51
443.05	5736.65
443.24	6008.16
443.43	5844.32
443.61	5914.53
443.80	6043.26
443.98	5760.06
444.17	5820.91
444.35	6003.47
444.54	5937.94
444.73	5888.79
444.91	5886.45
445.10	6073.69
445.28	5790.49
445.47	5774.10
445.65	5902.83
445.84	5851.34
446.02	6176.67
446.21	5816.23
446.39	5914.53
446.58	5977.73
446.77	6155.61
446.95	6146.25
447.14	6010.50
447.32	6209.44
447.51	6197.74
447.69	6169.65
447.88	6012.84
448.06	6097.10
448.25	6038.58
448.43	6214.12
448.62	6071.35
448.80	6134.54
448.99	6197.74
449.17	6221.14
449.36	6190.72
449.54	6401.37
449.73	6296.04
449.91	6431.79
450.10	6352.21
450.28	6485.62
450.46	6534.78
450.65	6586.27
450.83	6492.65
451.02	6370.94
451.20	6438.81
451.39	6539.46
451.57	6530.09
451.76	6588.61
451.94	6621.38
452.13	6684.57
452.31	6445.84
452.49	6457.54
452.68	6651.80
452.86	6682.23
453.05	6726.70
453.23	6808.62
453.42	6712.66
453.60	6670.53
453.78	6815.64
453.97	6787.55
454.15	6766.49
454.34	6761.81
454.52	6991.18
454.70	6862.45
454.89	7084.80
455.07	7021.61
455.26	7133.95
455.44	7110.55
455.62	7194.81
455.81	7119.91
455.99	7143.32
456.17	7101.19
456.36	7150.34
456.54	7140.97
456.73	7178.42
456.91	7222.89
457.09	7353.96
457.28	7391.41
457.46	7222.89
457.64	7391.41
457.83	7513.12
458.01	7403.11
458.19	7609.08
458.38	7426.52
458.56	7566.95
458.74	7609.08
458.93	7449.93
459.11	7623.12
459.29	7559.93
459.48	7817.39
459.66	7698.02
459.84	7793.98
460.03	7880.58
460.21	7693.34
460.39	7632.49
460.57	7749.51
460.76	7810.37
460.94	7674.62
461.12	7974.21
461.31	7836.11
461.49	7911.01
461.67	7918.03
461.85	7946.12
462.04	8013.99
462.22	8114.64
462.40	7999.95
462.59	8032.72
462.77	8095.91
462.95	8112.30
463.13	8205.92
463.32	8100.59
463.50	8044.42
463.68	8222.30
463.86	8344.01
464.05	8339.33
464.23	8124.00
464.41	8383.80
464.59	8255.07
464.78	8369.76
464.96	8388.48
465.14	8379.12
465.32	8301.88
465.50	8409.54
465.69	8418.91
465.87	8568.70
466.05	8341.67
466.23	8685.73
466.41	8435.29
466.60	8692.75
466.78	8578.06
466.96	8533.59
467.14	8407.20
467.32	8512.53
467.51	8620.19
467.69	8678.71
467.87	8688.07
468.05	8823.82
468.23	8589.77
468.41	8603.81
468.60	8814.46
468.78	8823.82
468.96	8769.99
469.14	8847.22
469.32	9060.21
469.50	8823.82
469.69	8800.41
469.87	9050.85
470.05	8919.78
470.23	9097.66
470.41	9057.87
470.59	9172.56
470.77	9097.66
470.95	9160.86
471.14	9345.76
471.32	9301.29
471.50	9355.12
471.68	9380.87
471.86	9472.15
472.04	9607.90
472.22	9720.24
472.40	9327.03
472.58	9537.68
472.77	9706.20
472.95	9926.21
473.13	10127.50
473.31	9907.49
473.49	9802.16
473.67	9795.14
473.85	9713.22
474.03	10235.16
474.21	9977.70
474.39	10143.88
474.57	10167.29
474.75	10368.57
474.93	10162.61
475.12	10452.83
475.30	10457.51
475.48	10127.50
475.66	10434.11
475.84	10328.78
476.02	10530.07
476.20	10525.39
476.38	10881.15
476.56	10864.77
476.74	10904.56
476.92	10771.15
477.10	10944.34
477.28	11192.44
477.46	10988.82
477.64	11091.80
477.82	11513.10
478.00	11520.12
478.18	11477.99
478.36	11756.51
478.54	11686.29
478.72	11915.67
478.90	11971.84
479.08	12037.38
479.26	11887.58
479.44	12255.04
479.62	11932.05
479.80	12304.20
479.98	12353.35
480.16	12437.61
480.34	12564.00
480.52	12699.75
480.70	12706.77
480.88	12606.13
481.06	12631.87
481.24	12737.20
481.41	13132.75
481.59	13104.66
481.77	13146.79
481.95	13202.96
482.13	13575.11
482.31	13392.55
482.49	13729.58
482.67	13666.39
482.85	13685.11
483.03	14174.28
483.21	13963.64
483.39	14052.58
483.57	14260.88
483.74	14391.95
483.92	14593.24
484.10	14394.29
484.28	14635.37
484.46	14717.29
484.64	15405.41
484.82	14853.04
485.00	14974.75
485.18	15129.22
485.35	15358.60
485.53	15152.63
485.71	15051.99
485.89	15501.37
486.07	15552.86
486.25	15623.08
486.43	15494.35
486.61	15943.73
486.78	15985.86
486.96	16280.77
487.14	16580.36
487.32	16187.14
487.50	16795.68
487.68	16912.71
487.85	17200.60
488.03	17376.14
488.21	17280.18
488.39	17401.88
488.57	17427.63
488.75	17474.44
488.92	17839.56
489.10	17940.21
489.28	17994.04
489.46	18263.20
489.64	18087.66
489.81	18396.61
489.99	18848.33
490.17	18361.50
490.35	18930.25
490.53	18869.40
490.70	18838.97
490.88	19007.49
491.06	19136.22
491.24	18963.02
491.41	19197.07
491.59	19276.65
491.77	19590.28
491.95	19580.92
492.13	19520.07
492.30	20093.50
492.48	20269.04
492.66	20121.59
492.84	20507.77
493.01	20573.31
493.19	20287.76
493.37	20720.76
493.54	20943.11
493.72	20961.84
493.90	20943.11
494.08	21118.65
494.25	21385.47
494.43	21577.40
494.61	21804.43
494.79	21827.84
494.96	21568.04
495.14	21549.31
495.32	21912.10
495.49	22101.68
495.67	22085.30
495.85	22487.87
496.02	22525.32
496.20	22747.67
496.38	22717.24
496.55	23091.73
496.73	23316.42
496.91	22927.89
497.09	23215.77
497.26	23468.55
497.44	23133.86
497.62	23267.27
497.79	23461.53
497.97	23819.63
498.14	23798.57
498.32	23854.74
498.50	23939.00
498.67	24327.53
498.85	23999.85
499.03	24266.67
499.20	24404.77
499.38	24484.34
499.56	24383.70
499.73	24994.58
499.91	25151.40
500.08	25015.65
500.26	24631.80
500.44	24758.19
500.61	24938.41
500.79	24865.85
500.97	25111.61
501.14	25572.69
501.32	25493.12
501.49	25427.58
501.67	25586.74
501.84	25757.60
502.02	25635.89
502.20	25949.52
502.37	26331.03
502.55	26125.06
502.72	26068.89
502.90	26253.79
503.07	26136.76
503.25	26197.62
503.43	26375.50
503.60	26604.87
503.78	26321.66
503.95	26384.86
504.13	26827.22
504.30	27016.80
504.48	26836.58
504.65	27150.21
504.83	27274.26
505.01	27138.51
505.18	27101.06
505.36	27510.66
505.53	27615.98
505.71	27599.60
505.88	27452.14
506.06	27435.76
506.23	27978.76
506.41	27590.24
506.58	27740.03
506.76	27955.36
506.93	28271.33
507.11	27847.69
507.28	27723.65
507.46	27931.95
507.63	28446.87
507.81	28238.56
507.98	28350.91
508.16	28533.47
508.33	28446.87
508.50	28591.98
508.68	28685.61
508.85	29193.50
509.03	29287.12
509.20	29034.35
509.38	29738.85
509.55	29020.30
509.73	29151.37
509.90	29532.88
510.08	29661.61
510.25	29179.46
510.42	29736.51
510.60	29689.70
510.77	29591.39
510.95	29986.94
511.12	30146.10
511.30	30040.78
511.47	30174.19
511.64	30164.82
511.82	30698.47
511.99	30431.65
512.17	30679.74
512.34	30450.37
512.51	30796.77
512.69	31042.53
512.86	30759.32
513.04	30864.64
513.21	30909.11
513.38	30735.92
513.56	31005.08
513.73	30719.53
513.90	31026.14
514.08	30986.35
514.25	31199.34
514.43	31290.62
514.60	31285.94
514.77	31372.54
514.95	31871.07
515.12	31531.70
515.29	31339.77
515.47	32074.70
515.64	31967.04
515.81	31714.26
515.99	31761.07
516.16	31725.96
516.33	31592.55
516.51	31931.93
516.68	31838.31
516.85	32070.02
517.03	31957.67
517.20	32378.97
517.37	32224.50
517.54	32460.89
517.72	32577.92
517.89	32175.34
518.06	32467.91
518.24	32414.08
518.41	32203.43
518.58	32524.08
518.75	32809.63
518.93	33240.29
519.10	32783.88
519.27	32802.61
519.45	33385.40
519.62	33614.77
519.79	33593.71
519.96	33460.30
520.14	33736.48
520.31	33584.35
520.48	33287.10
520.65	33787.97
520.83	34017.35
521.00	33963.51
521.17	34127.35
521.34	33820.74
521.52	33930.75
521.69	34590.78
521.86	34192.89
522.03	34244.38
522.20	34295.87
522.38	34410.56
522.55	34618.86
522.72	34319.28
522.89	34628.23
523.07	35014.41
523.24	34462.05
523.41	34632.91
523.58	34501.84
523.75	35257.83
523.92	35178.25
524.10	35192.30
524.27	35311.66
524.44	35009.73
524.61	35405.28
524.78	35421.67
524.96	35711.89
525.13	35805.52
525.30	35929.56
525.47	36004.46
525.64	35868.71
525.81	35613.59
525.98	35583.16
526.16	35536.35
526.33	35531.67
526.50	35695.51
526.67	35377.20
526.84	36247.88
527.01	35803.17
527.18	36240.86
527.36	36388.31
527.53	36060.63
527.70	36411.71
527.87	36395.33
528.04	36699.60
528.21	36378.95
528.38	36793.22
528.55	36620.02
528.72	37041.32
528.89	36645.77
529.07	36809.61
529.24	36570.87
529.41	36783.86
529.58	36795.56
529.75	36364.90
529.92	36957.06
530.09	36943.02
530.26	37170.05
530.43	37310.48
530.60	37256.65
530.77	36701.94
530.94	37413.46
531.11	37287.07
531.28	37380.70
531.46	37319.84
531.63	37373.67
531.80	37425.17
531.97	37687.31
532.14	37860.51
532.31	37624.11
532.48	37670.92
532.65	37551.56
532.82	37614.75
532.99	37764.54
533.16	37106.85
533.33	38010.30
533.50	38127.33
533.67	37977.53
533.84	37855.82
534.01	37928.38
534.18	38096.90
534.35	38700.76
534.52	38141.37
534.69	38405.85
534.86	38169.46
535.03	38696.08
535.20	39192.27
535.37	38969.92
535.54	38885.66
535.71	38501.81
535.88	38759.27
536.05	38380.10
536.22	39063.54
536.38	38670.33
536.55	38946.51
536.72	38555.64
536.89	38808.42
537.06	39206.31
537.23	38944.17
537.40	39145.46
537.57	38864.60
537.74	39337.38
537.91	39943.58
538.08	39517.60
538.25	38754.59
538.42	38995.67
538.59	39391.22
538.75	38920.77
538.92	39363.13
539.09	39559.73
539.26	39346.75
539.43	39555.05
539.60	39367.81
539.77	39084.61
539.94	39690.80
540.11	39377.17
540.28	39744.64
540.44	39419.30
540.61	39854.64
540.78	39505.90
540.95	39782.09
541.12	39519.95
541.29	39583.14
541.46	39964.65
541.62	39917.84
541.79	40018.48
541.96	39803.15
542.13	39688.46
542.30	39599.52
542.47	40088.70
542.63	40430.41
542.80	39974.01
542.97	40746.39
543.14	40547.44
543.31	40825.96
543.48	40694.89
543.64	41221.52
543.81	41120.87
543.98	40940.65
544.15	40552.12
544.32	40875.12
544.48	41132.57
544.65	40961.72
544.82	41060.02
544.99	40823.62
545.16	41542.17
545.32	41104.49
545.49	41022.57
545.66	41535.15
545.83	41343.22
546.00	41607.70
546.16	41179.39
546.33	41120.87
546.50	41090.44
546.67	41717.71
546.83	40999.16
547.00	41584.30
547.17	41214.49
547.34	41333.86
547.50	41666.22
547.67	41556.21
547.84	41780.90
548.00	41797.29
548.17	41902.61
548.34	41368.97
548.51	42117.94
548.67	42082.83
548.84	42010.28
549.01	42021.98
549.18	41766.86
549.34	41715.37
549.51	42017.30
549.68	42267.73
549.84	42106.24
550.01	42686.69
550.18	41954.10
550.34	42188.16
550.51	42146.03
550.68	42389.44
550.84	41736.43
551.01	42431.57
551.18	42614.13
551.34	42258.37
551.51	42487.74
551.68	42253.69
551.84	42354.33
552.01	42396.46
552.18	42536.90
552.34	42415.19
552.51	42721.80
552.68	42546.26
552.84	42855.21
553.01	43115.01
553.18	42895.00
553.34	42532.22
553.51	42499.45
553.67	42209.22
553.84	43042.45
554.01	42899.68
554.17	42796.70
554.34	43264.80
554.51	42801.38
554.67	43079.90
554.84	42909.04
555.00	43058.84
555.17	42686.69
555.33	42937.13
555.50	43105.65
555.67	43250.76
555.83	42983.94
556.00	43131.39
556.16	43461.41
556.33	43456.73
556.50	42974.58
556.66	43592.48
556.83	43124.37
556.99	43159.48
557.16	43391.19
557.32	43913.13
557.49	43454.39
557.65	43386.51
557.82	43033.09
557.98	43608.86
558.15	43765.68
558.32	43447.36
558.48	42932.45
558.65	43349.06
558.81	43332.68
558.98	43360.76
559.14	43634.61
559.31	43416.94
559.47	43072.88
559.64	43297.57
559.80	44083.99
559.97	43552.69
560.13	43482.47
560.30	43449.70
560.46	44119.10
560.63	43908.45
560.79	43878.02
560.96	43906.11
561.12	43826.53
561.29	44018.46
561.45	43796.10
561.61	43807.81
561.78	43920.15
561.94	43835.89
562.11	43978.67
562.27	43756.32
562.44	43952.92
562.60	43814.83
562.77	43796.10
562.93	43592.48
563.10	44411.67
563.26	43189.91
563.42	44299.32
563.59	43997.39
563.75	43587.80
563.92	44378.90
564.08	43995.05
564.24	44832.96
564.41	44079.31
564.57	44025.48
564.74	44002.07
564.90	44083.99
565.07	44107.40
565.23	43789.08
565.39	44058.24
565.56	44451.45
565.72	43648.65
565.88	44437.41
566.05	43866.32
566.21	44444.43
566.38	43995.05
566.54	44547.42
566.70	44353.15
566.87	44577.84
567.03	44524.01
567.19	44680.83
567.36	44325.07
567.52	43758.66
567.68	44570.82
567.85	44011.43
568.01	44339.11
568.17	44128.46
568.34	44519.33
568.50	44540.39
568.66	44147.18
568.83	44811.90
568.99	43833.55
569.15	44577.84
569.32	43791.42
569.48	43929.51
569.64	43707.16
569.81	44374.22
569.97	44088.67
570.13	44105.06
570.30	44098.03
570.46	44280.60
570.62	44280.60
570.78	44079.31
570.95	44619.97
571.11	44208.04
571.27	44076.97
571.43	44032.50
571.60	44081.65
571.76	44584.86
571.92	44348.47
572.09	44451.45
572.25	44311.02
572.41	44526.35
572.57	44729.98
572.74	45024.89
572.90	44973.39
573.06	44495.92
573.22	44465.50
573.38	44662.10
573.55	44135.48
573.71	44409.32
573.87	44392.94
574.03	44346.13
574.20	44264.21
574.36	44465.50
574.52	44568.48
574.68	44186.97
574.84	44458.48
575.01	44720.62
575.17	44601.25
575.33	44100.37
575.49	44322.72
575.65	44514.65
575.82	45027.23
575.98	44615.29
576.14	44933.60
576.30	44851.69
576.46	44465.50
576.62	44657.42
576.79	44601.25
576.95	44718.28
577.11	44690.19
577.27	44514.65
577.43	44301.66
577.59	44554.44
577.75	45013.18
577.92	44311.02
578.08	43798.44
578.24	44229.10
578.40	44570.82
578.56	44371.88
578.72	44535.71
578.88	44737.00
579.04	44594.23
579.21	44849.35
579.37	44624.65
579.53	44264.21
579.69	44486.56
579.85	44783.81
580.01	44643.38
580.17	44774.45
580.33	45158.30
580.49	44715.93
580.65	45027.23
580.82	45209.79
580.98	44835.30
581.14	44189.31
581.30	44872.75
581.46	45195.74
581.62	44460.82
581.78	44655.08
581.94	45041.27
582.10	44395.28
582.26	44842.32
582.42	44406.98
582.58	44753.38
582.74	44648.06
582.90	44896.16
583.06	45174.68
583.22	45052.97
583.38	45118.51
583.54	45003.82
583.70	44783.81
583.86	44987.44
584.02	44280.60
584.18	44662.10
584.34	44725.30
584.50	44889.13
584.66	44587.21
584.82	44435.07
584.98	44994.46
585.14	44851.69
585.30	44741.68
585.46	44580.18
585.62	44683.17
585.78	44795.51
585.94	44238.47
586.10	44727.64
586.26	44816.58
586.42	44442.09
586.58	45097.44
586.74	44994.46
586.90	44737.00
587.06	44626.99
587.22	45027.23
587.38	44575.50
587.54	44645.72
587.70	44678.49
587.86	44554.44
588.02	44825.94
588.18	44800.19
588.34	44357.83
588.49	44732.32
588.65	44430.39
588.81	44453.79
588.97	44839.98
589.13	44465.50
589.29	44477.20
589.45	44903.18
589.61	44645.72
589.77	45034.25
589.93	45055.31
590.08	45078.72
590.24	44786.15
