SpectraSuite Data File
++++++++++++++++++++++++++++++++++++
Date: Fri Oct 25 11:22:50 EDT 2013
User: price-jones
Dark Spectrum Present: No
Reference Spectrum Present: No
Number of Sampled Component Spectra: 1
Spectrometers: USB2+H05261
Integration Time (usec): 100000 (USB2+H05261)
Spectra Averaged: 1 (USB2+H05261)
Boxcar Smoothing: 0 (USB2+H05261)
Correct for Electrical Dark: No (USB2+H05261)
Strobe/Lamp Enabled: No (USB2+H05261)
Correct for Detector Non-linearity: No (USB2+H05261)
Correct for Stray Light: No (USB2+H05261)
Number of Pixels in Processed Spectrum: 2048
>>>>>Begin Processed Spectral Data<<<<<
365.73	234.05
365.92	234.05
366.12	234.05
366.32	255.12
366.52	91.28
366.72	154.48
366.91	93.62
367.11	196.60
367.31	121.71
367.51	110.01
367.70	117.03
367.90	147.45
368.10	159.16
368.30	91.28
368.49	79.58
368.69	124.05
368.89	168.52
369.09	107.66
369.28	133.41
369.48	173.20
369.68	161.50
369.87	154.48
370.07	227.03
370.27	201.29
370.47	365.12
370.66	580.45
370.86	608.54
371.06	706.84
371.25	763.01
371.45	676.41
371.65	645.99
371.84	641.31
372.04	706.84
372.24	711.52
372.44	718.54
372.63	727.91
372.83	823.87
373.03	739.61
373.22	695.14
373.42	760.67
373.62	760.67
373.81	788.76
374.01	772.38
374.21	795.78
374.40	702.16
374.60	767.70
374.79	835.57
374.99	833.23
375.19	875.36
375.38	809.83
375.58	819.19
375.78	894.08
375.97	833.23
376.17	863.66
376.37	922.17
376.56	910.47
376.76	779.40
376.95	798.12
377.15	985.37
377.35	821.53
377.54	887.06
377.74	922.17
377.93	861.32
378.13	945.58
378.33	973.66
378.52	882.38
378.72	999.41
378.91	994.73
379.11	851.96
379.31	940.90
379.50	943.24
379.70	971.32
379.89	971.32
380.09	985.37
380.28	943.24
380.48	929.19
380.68	936.21
380.87	997.07
381.07	1018.13
381.26	1102.39
381.46	973.66
381.65	1004.09
381.85	1057.92
382.04	1029.84
382.24	1022.81
382.43	1114.10
382.63	978.34
382.83	1050.90
383.02	1170.27
383.22	1135.16
383.41	1067.28
383.61	987.71
383.80	1109.41
384.00	1186.65
384.19	1057.92
384.39	1146.86
384.58	1032.18
384.78	1135.16
384.97	1144.52
385.17	1139.84
385.36	1125.80
385.56	1179.63
385.75	1125.80
385.95	1210.06
386.14	1186.65
386.34	1235.80
386.53	1240.48
386.72	1224.10
386.92	1198.35
387.11	1196.01
387.31	1266.23
387.50	1268.57
387.70	1231.12
387.89	1273.25
388.09	1259.21
388.28	1249.85
388.48	1275.59
388.67	1268.57
388.86	1324.74
389.06	1231.12
389.25	1308.36
389.45	1296.66
389.64	1303.68
389.84	1373.89
390.03	1369.21
390.22	1387.94
390.42	1406.66
390.61	1413.68
390.81	1481.56
391.00	1350.49
391.19	1483.90
391.39	1458.15
391.58	1378.58
391.78	1416.02
391.97	1446.45
392.16	1458.15
392.36	1488.58
392.55	1530.71
392.75	1535.39
392.94	1481.56
393.13	1547.09
393.33	1441.77
393.52	1533.05
393.71	1570.50
393.91	1589.22
394.10	1596.25
394.29	1612.63
394.49	1556.46
394.68	1607.95
394.88	1687.53
395.07	1626.67
395.26	1614.97
395.46	1612.63
395.65	1657.10
395.84	1664.12
396.04	1671.14
396.23	1715.61
396.42	1739.02
396.62	1781.15
396.81	1785.83
397.00	1811.57
397.19	1900.52
397.39	1785.83
397.58	1856.04
397.77	1905.20
397.97	1853.70
398.16	1863.07
398.35	1884.13
398.55	1928.60
398.74	1966.05
398.93	1827.96
399.12	1905.20
399.32	1877.11
399.51	1977.75
399.70	2015.20
399.90	2005.84
400.09	2001.16
400.28	2165.00
400.47	2040.95
400.67	2127.55
400.86	2066.69
401.05	2097.12
401.24	2181.38
401.44	2139.25
401.63	2239.89
401.82	2218.83
402.01	2150.95
402.21	2155.63
402.40	2176.70
402.59	2101.80
402.78	2162.66
402.97	2296.07
403.17	2284.36
403.36	2211.81
403.55	2317.13
403.74	2387.35
403.93	2509.05
404.13	2349.90
404.32	2452.88
404.51	2443.52
404.70	2443.52
404.89	2441.18
405.09	2663.53
405.28	2436.50
405.47	2541.82
405.66	2520.76
405.85	2499.69
406.05	2630.76
406.24	2581.61
406.43	2576.93
406.62	2651.83
406.81	2670.55
407.00	2686.94
407.20	2670.55
407.39	2750.13
407.58	2703.32
407.77	2750.13
407.96	2752.47
408.15	2801.62
408.34	2640.12
408.54	2801.62
408.73	2857.79
408.92	2923.33
409.11	2855.45
409.30	2956.10
409.49	2993.55
409.68	2951.42
409.87	3052.06
410.07	3070.78
410.26	3112.91
410.45	3009.93
410.64	3061.42
410.83	3063.76
411.02	3002.91
411.21	3143.34
411.40	3159.72
411.59	3187.81
411.78	3236.96
411.98	3431.23
412.17	3239.30
412.36	3234.62
412.55	3407.82
412.74	3368.03
412.93	3435.91
413.12	3330.58
413.31	3438.25
413.50	3482.72
413.69	3421.86
413.88	3623.15
414.07	3609.11
414.26	3611.45
414.45	3847.84
414.64	3726.13
414.83	3796.35
415.02	4070.19
415.22	3946.14
415.41	3719.11
415.60	3840.82
415.79	4021.04
415.98	3920.40
416.17	3985.93
416.36	4044.45
416.55	4140.41
416.74	4086.58
416.93	4053.81
417.12	4098.28
417.31	4205.94
417.50	4154.45
417.69	4166.15
417.88	4273.82
418.07	4351.06
418.26	4276.16
418.45	4262.12
418.64	4531.28
418.83	4388.50
419.02	4348.72
419.21	4528.94
419.39	4442.34
419.58	4580.43
419.77	4381.48
419.96	4606.17
420.15	4575.75
420.34	4484.47
420.53	4493.83
420.72	4629.58
420.91	4683.41
421.10	4835.55
421.29	4903.42
421.48	4755.97
421.67	4837.89
421.86	4748.95
422.05	4795.76
422.24	4835.55
422.43	4983.00
422.61	4954.91
422.80	5172.58
422.99	5036.83
423.18	5095.35
423.37	5149.18
423.56	4915.12
423.75	4870.65
423.94	4849.59
424.13	4648.30
424.32	4844.91
424.50	4940.87
424.69	5111.73
424.88	5226.42
425.07	5067.26
425.26	5067.26
425.45	5011.09
425.64	5062.58
425.83	5071.94
426.01	5160.88
426.20	5200.67
426.39	5069.60
426.58	4884.70
426.77	5153.86
426.96	5268.55
427.15	5280.25
427.33	5224.08
427.52	5235.78
427.71	5329.40
427.90	5280.25
428.09	5273.23
428.28	5493.24
428.46	5247.48
428.65	5455.79
428.84	5535.37
429.03	5626.65
429.22	5647.71
429.40	5455.79
429.59	5621.97
429.78	5383.23
429.97	5345.78
430.16	5383.23
430.34	5537.71
430.53	5647.71
430.72	5727.29
430.91	5575.16
431.10	5783.46
431.28	5724.95
431.47	5930.92
431.66	5884.11
431.85	5771.76
432.03	5942.62
432.22	5898.15
432.41	5961.34
432.60	6043.26
432.79	6033.90
432.97	6066.67
433.16	6054.97
433.35	6019.86
433.54	6232.85
433.72	6242.21
433.91	6118.16
434.10	6216.46
434.28	6111.14
434.47	6253.91
434.66	6347.53
434.85	6363.92
435.03	6333.49
435.22	6436.47
435.41	6567.54
435.59	6476.26
435.78	6604.99
435.97	6523.07
436.16	6506.69
436.34	6445.84
436.53	6642.44
436.72	6555.84
436.90	6464.56
437.09	6686.91
437.28	6345.19
437.46	6586.27
437.65	6726.70
437.84	6869.47
438.02	6733.72
438.21	6836.70
438.40	6724.36
438.58	7148.00
438.77	7108.21
438.96	6927.99
439.14	7122.25
439.33	7239.28
439.52	7061.40
439.70	7269.70
439.89	7440.56
440.08	7496.74
440.26	7468.65
440.45	7353.96
440.63	7513.12
440.82	7679.30
441.01	7487.37
441.19	7658.23
441.38	7597.38
441.57	7988.25
441.75	7782.28
441.94	7911.01
442.12	7939.10
442.31	8088.89
442.50	7957.82
442.68	8124.00
442.87	7985.91
443.05	8184.85
443.24	8308.90
443.43	8217.62
443.61	8245.71
443.80	8463.38
443.98	8051.44
444.17	7976.55
444.35	8365.07
444.54	8486.78
444.73	8299.54
444.91	8329.97
445.10	8168.47
445.28	8493.80
445.47	8393.16
445.65	8578.06
445.84	8500.83
446.02	8594.45
446.21	8404.86
446.39	8500.83
446.58	8592.11
446.77	8613.17
446.95	8135.70
447.14	8458.70
447.32	8652.96
447.51	8437.63
447.69	8472.74
447.88	8561.68
448.06	8610.83
448.25	8688.07
448.43	8524.23
448.62	8641.26
448.80	8599.13
448.99	8659.98
449.17	8650.62
449.36	8688.07
449.54	8978.30
449.73	8847.22
449.91	9116.39
450.10	8922.12
450.28	9076.60
450.46	9062.55
450.65	9188.94
450.83	9160.86
451.02	9032.13
451.20	9219.37
451.39	9434.70
451.57	9273.20
451.76	9149.15
451.94	9266.18
452.13	9378.53
452.31	9481.51
452.49	9217.03
452.68	9568.11
452.86	9563.43
453.05	9425.34
453.23	9582.15
453.42	9385.55
453.60	9458.10
453.78	9708.54
453.97	9439.38
454.15	9427.68
454.34	9516.62
454.52	9757.69
454.70	9846.63
454.89	9858.34
455.07	9757.69
455.26	9757.69
455.44	9900.47
455.62	10012.81
455.81	9907.49
455.99	9865.36
456.17	10148.56
456.36	10200.05
456.54	10178.99
456.73	10340.49
456.91	10349.85
457.09	10696.25
457.28	10464.54
457.46	10675.18
457.64	10595.61
457.83	10684.55
458.01	10663.48
458.19	10614.33
458.38	10537.09
458.56	10731.36
458.74	10689.23
458.93	10988.82
459.11	10633.05
459.29	10780.51
459.48	10993.50
459.66	10902.22
459.84	11110.52
460.03	11197.12
460.21	11183.08
460.39	11098.82
460.57	10972.43
460.76	11178.40
460.94	11358.62
461.12	11417.13
461.31	11108.18
461.49	11052.01
461.67	11330.53
461.85	11496.71
462.04	11311.81
462.22	12058.44
462.40	11477.99
462.59	11634.80
462.77	11744.81
462.95	11651.19
463.13	11733.11
463.32	11960.14
463.50	11854.81
463.68	12018.65
463.86	12018.65
464.05	11836.09
464.23	11672.25
464.41	12011.63
464.59	11798.64
464.78	12322.92
464.96	11894.60
465.14	12187.17
465.32	12149.72
465.50	12187.17
465.69	12116.95
465.87	12411.86
466.05	12063.12
466.23	12042.06
466.41	12343.99
466.60	12507.82
466.78	12313.56
466.96	12496.12
467.14	12369.73
467.32	12383.77
467.51	12580.38
467.69	12603.78
467.87	12571.02
468.05	12732.51
468.23	12453.99
468.41	12641.23
468.60	12772.30
468.78	12809.75
468.96	12702.09
469.14	12940.82
469.32	12847.20
469.50	12830.82
469.69	13001.68
469.87	13357.44
470.05	13261.48
470.23	13312.97
470.41	13212.32
470.59	13467.44
470.77	13111.68
470.95	13422.97
471.14	13762.35
471.32	13301.26
471.50	13654.69
471.68	13778.73
471.86	13825.54
472.04	13806.82
472.22	14171.94
472.40	13453.40
472.58	13687.45
472.77	14394.29
472.95	14333.44
473.13	14637.71
473.31	14333.44
473.49	14225.78
473.67	14277.27
473.85	14745.38
474.03	14808.57
474.21	14792.19
474.39	14546.43
474.57	14721.97
474.75	14960.70
474.93	15094.11
475.12	15082.41
475.30	15204.12
475.48	15328.17
475.66	15438.17
475.84	15096.46
476.02	15590.31
476.20	15552.86
476.38	15784.57
476.56	15925.00
476.74	16098.20
476.92	16243.32
477.10	16004.58
477.28	16168.42
477.46	16416.52
477.64	16690.36
477.82	16961.86
478.00	17165.49
478.18	17050.80
478.36	17076.55
478.54	17458.06
478.72	17348.05
478.90	17905.10
479.08	17556.36
479.26	17834.88
479.44	17898.08
479.62	17809.14
479.80	18024.47
479.98	18181.28
480.16	18602.58
480.34	18288.95
480.52	18588.53
480.70	19112.81
480.88	18579.17
481.06	18937.27
481.24	18902.17
481.41	19262.61
481.59	19349.21
481.77	19702.63
481.95	19880.51
482.13	20140.31
482.31	19709.65
482.49	20554.58
482.67	20196.48
482.85	20699.70
483.03	21027.37
483.21	21006.31
483.39	20971.20
483.57	21081.21
483.74	21596.12
483.92	21668.68
484.10	21528.25
484.28	21963.59
484.46	22195.30
484.64	22544.04
484.82	22394.25
485.00	22382.54
485.18	22981.72
485.35	23248.54
485.53	23190.03
485.71	23342.16
485.89	23946.02
486.07	23688.56
486.25	23608.98
486.43	23702.61
486.61	23770.48
486.78	24170.71
486.96	24285.40
487.14	25067.14
487.32	24884.58
487.50	25123.31
487.68	24954.79
487.85	25523.54
488.03	25802.07
488.21	26188.25
488.39	26082.93
488.57	26426.99
488.75	26527.63
488.92	26632.96
489.10	26848.29
489.28	27178.30
489.46	27384.27
489.64	27131.49
489.81	28100.47
489.99	27826.63
490.17	28067.70
490.35	28126.22
490.53	28460.91
490.70	28755.82
490.88	28472.62
491.06	28966.47
491.24	29343.30
491.41	29013.28
491.59	29539.90
491.77	29640.54
491.95	29797.36
492.13	29853.53
492.30	30026.73
492.48	30590.80
492.66	30445.69
492.84	30448.03
493.01	30958.27
493.19	30817.83
493.37	31079.97
493.54	31440.42
493.72	31894.48
493.90	31669.79
494.08	31711.92
494.25	32198.75
494.43	32402.38
494.61	32390.67
494.79	32556.85
494.96	32755.80
495.14	32929.00
495.32	33415.83
495.49	33315.19
495.67	33687.33
495.85	33914.36
496.02	34115.65
496.20	33839.47
496.38	34171.82
496.55	34684.40
496.73	35105.70
496.91	34974.63
497.09	34789.72
497.26	35424.01
497.44	35119.74
497.62	35440.39
497.79	35941.27
497.97	36030.21
498.14	36549.81
498.32	36500.65
498.50	36898.55
498.67	36928.97
498.85	36601.30
499.03	37106.85
499.20	37020.25
499.38	36807.26
499.56	37376.01
499.73	37752.84
499.91	37429.85
500.08	38157.75
500.26	37830.08
500.44	37846.46
500.61	38403.51
500.79	37670.92
500.97	38181.16
501.14	38815.44
501.32	39007.37
501.49	39108.01
501.67	39117.37
501.84	39653.36
502.02	39318.66
502.20	39416.96
502.37	39587.82
502.55	39405.26
502.72	39569.10
502.90	39669.74
503.07	40025.50
503.25	39871.03
503.43	39924.86
503.60	40449.14
503.78	40425.73
503.95	40161.25
504.13	40847.03
504.30	41179.39
504.48	40603.61
504.65	40879.80
504.83	41593.66
505.01	41528.13
505.18	41783.24
505.36	41935.38
505.53	41558.55
505.71	41916.65
505.88	42354.33
506.06	41771.54
506.23	42443.27
506.41	41940.06
506.58	42443.27
506.76	42281.78
506.93	42967.55
507.11	42925.42
507.28	42843.51
507.46	43110.33
507.63	42841.17
507.81	43269.48
507.98	42967.55
508.16	43599.50
508.33	43463.75
508.50	43840.57
508.68	44105.06
508.85	44397.62
509.03	44334.43
509.20	44194.00
509.38	44549.76
509.55	45226.17
509.73	44624.65
509.90	44823.60
510.08	44886.79
510.25	44940.63
510.42	44987.44
510.60	45404.05
510.77	45701.30
510.95	45270.64
511.12	45233.19
511.30	45251.92
511.47	45890.88
511.64	45579.59
511.82	46253.67
511.99	45773.86
512.17	46361.33
512.34	46246.65
512.51	46707.73
512.69	46450.27
512.86	46717.09
513.04	47004.98
513.21	47461.38
513.38	47311.59
513.56	47119.66
513.73	47021.36
513.90	47449.68
514.08	47044.77
514.25	47697.78
514.43	47728.20
514.60	47749.27
514.77	47913.11
514.95	48348.45
515.12	48030.13
515.29	47856.93
515.47	48006.73
515.64	48638.67
515.81	48264.19
515.99	48704.21
516.16	48521.65
516.33	48678.46
516.51	48856.34
516.68	48781.45
516.85	48865.70
517.03	49078.69
517.20	49240.19
517.37	49158.27
517.54	48975.71
517.72	49450.84
517.89	49612.34
518.06	49544.46
518.24	49549.14
518.41	49331.47
518.58	49787.88
518.75	49509.35
518.93	49895.54
519.10	49736.38
519.27	49911.92
519.45	50188.11
519.62	50305.13
519.79	50012.57
519.96	50380.03
520.14	50553.23
520.31	50344.92
520.48	50593.02
520.65	50660.90
520.83	50946.44
521.00	51147.73
521.17	50562.59
521.34	51063.47
521.52	51201.56
521.69	51033.04
521.86	51337.31
522.03	51484.76
522.20	51615.83
522.38	52055.85
522.55	51672.01
522.72	51599.45
522.89	51791.37
523.07	51936.49
523.24	51861.59
523.41	52189.27
523.58	52097.98
523.75	51910.74
523.92	52121.39
524.10	52226.71
524.27	52481.83
524.44	52292.25
524.61	52325.02
524.78	52722.91
524.96	52350.76
525.13	52748.65
525.30	52774.40
525.47	52758.02
525.64	53020.16
525.81	52898.45
525.98	53013.13
526.16	53141.86
526.33	52863.34
526.50	52856.32
526.67	52973.34
526.84	53155.91
527.01	53020.16
527.18	53052.92
527.36	53406.34
527.53	53577.20
527.70	53595.93
527.87	53668.48
528.04	53336.13
528.21	53785.51
528.38	53879.13
528.55	53825.30
528.72	53598.27
528.89	53591.25
529.07	53593.59
529.24	53567.84
529.41	54169.36
529.58	53724.66
529.75	53818.28
529.92	53829.98
530.09	54164.68
530.26	54143.61
530.43	54431.50
530.60	54260.64
530.77	54066.38
530.94	54323.83
531.11	54241.92
531.28	54508.74
531.46	54604.70
531.63	54363.62
531.80	54291.07
531.97	54759.17
532.14	54773.22
532.31	54621.08
532.48	54796.62
532.65	55025.99
532.82	54724.07
532.99	54948.76
533.16	54777.90
533.33	55213.24
533.50	55089.19
533.67	54988.55
533.84	55047.06
534.01	55082.17
534.18	55229.62
534.35	55379.42
534.52	55351.33
534.69	55594.74
534.86	55625.17
535.03	55327.92
535.20	55629.85
535.37	55622.83
535.54	55379.42
535.71	55512.83
535.88	55524.53
536.05	55716.45
536.22	55903.70
536.38	55821.78
536.55	55903.70
536.72	55770.28
536.89	55814.76
537.06	56170.52
537.23	56154.13
537.40	56002.00
537.57	55983.27
537.74	55863.91
537.91	55952.85
538.08	56151.79
538.25	56053.49
538.42	56236.05
538.59	56378.82
538.75	56069.87
538.92	56282.86
539.09	56308.61
539.26	56420.95
539.43	56203.28
539.60	56378.82
539.77	56516.92
539.94	56556.70
540.11	56530.96
540.28	56610.54
540.44	56584.79
540.61	56800.12
540.78	56708.84
540.95	56647.99
541.12	56704.16
541.29	56584.79
541.46	56652.67
541.62	56863.32
541.79	56928.85
541.96	56584.79
542.13	56928.85
542.30	57027.15
542.47	57036.51
542.63	57160.56
542.80	57188.65
542.97	57254.18
543.14	57284.61
543.31	57422.70
543.48	57464.83
543.64	57729.31
543.81	57656.76
543.98	57483.56
544.15	57476.54
544.32	57773.78
544.48	57860.38
544.65	57513.98
544.82	57563.14
544.99	57532.71
545.16	57752.72
545.32	57808.89
545.49	57909.53
545.66	57895.49
545.83	57879.11
546.00	58049.97
546.16	57666.12
546.33	57752.72
546.50	57855.70
546.67	58080.39
546.83	57778.46
547.00	57914.22
547.17	58007.84
547.34	58087.42
547.50	57998.48
547.67	58351.90
547.84	58459.56
548.00	58391.68
548.17	58358.92
548.34	58370.62
548.51	58326.15
548.67	58436.16
548.84	58438.50
549.01	58099.12
549.18	58632.76
549.34	58501.69
549.51	58583.61
549.68	58466.58
549.84	58567.23
550.01	58653.82
550.18	58681.91
550.34	58738.08
550.51	58480.63
550.68	58693.61
550.84	58548.50
551.01	58607.01
551.18	58583.61
551.34	58663.19
551.51	58780.21
551.68	58904.26
551.84	58794.26
552.01	58777.87
552.18	58864.47
552.34	58812.98
552.51	59004.91
552.68	58836.39
552.84	58815.32
553.01	58967.46
553.18	58866.81
553.34	59079.80
553.51	59051.72
553.67	58876.18
553.84	59147.68
554.01	59189.81
554.17	59114.91
554.34	59152.36
554.51	59274.07
554.67	59236.62
554.84	59332.58
555.00	59124.27
555.17	59133.63
555.33	59402.80
555.50	59269.39
555.67	59255.34
555.83	59201.51
556.00	59327.90
556.16	59662.60
556.33	59391.09
556.50	59262.36
556.66	59554.93
556.83	59405.14
556.99	59594.72
557.16	59632.17
557.32	59697.70
557.49	59894.31
557.65	59742.17
557.82	59463.65
557.98	59419.18
558.15	59498.76
558.32	59655.57
558.48	59737.49
558.65	59688.34
558.81	59849.84
558.98	59901.33
559.14	59704.73
559.31	59964.52
559.47	59948.14
559.64	59924.74
559.80	59927.08
559.97	59840.48
560.13	59707.07
560.30	60046.44
560.46	59920.05
560.63	60097.94
560.79	59796.01
560.96	60198.58
561.12	60252.41
561.29	60184.54
561.45	60060.49
561.61	59845.16
561.78	60004.31
561.94	60086.23
562.11	60130.70
562.27	60116.66
562.44	60067.51
562.60	60186.88
562.77	60142.41
562.93	59863.88
563.10	60334.33
563.26	60048.78
563.42	60315.61
563.59	60296.88
563.75	60121.34
563.92	60210.28
564.08	60336.67
564.24	60430.29
564.41	60423.27
564.57	60432.63
564.74	60299.22
564.90	60348.37
565.07	60240.71
565.23	60306.24
565.39	60243.05
565.56	60453.70
565.72	60406.89
565.88	60327.31
566.05	60310.92
566.21	60388.16
566.38	60512.21
566.54	60556.68
566.70	60568.38
566.87	60465.40
567.03	60289.86
567.19	60479.44
567.36	60523.91
567.52	60446.68
567.68	60603.49
567.85	60575.40
568.01	60617.53
568.17	60488.80
568.34	60697.11
568.50	60594.13
568.66	60402.21
568.83	60676.05
568.99	60404.55
569.15	60552.00
569.32	60477.10
569.48	60568.38
569.64	60750.94
569.81	60643.28
569.97	60556.68
570.13	60605.83
570.30	60577.75
570.46	60720.52
570.62	60640.94
570.78	60790.73
570.95	60699.45
571.11	61038.83
571.27	60945.21
571.43	60795.42
571.60	60720.52
571.76	60750.94
571.92	60781.37
572.09	60823.50
572.25	60849.25
572.41	60669.03
572.57	60753.29
572.74	61041.17
572.90	60795.42
573.06	60748.60
573.22	60874.99
573.38	60690.09
573.55	60764.99
573.71	61003.72
573.87	60776.69
574.03	60741.58
574.20	60823.50
574.36	60720.52
574.52	60736.90
574.68	60781.37
574.84	61092.66
575.01	60935.85
575.17	60846.91
575.33	61085.64
575.49	60926.49
575.65	60952.23
575.82	61059.90
575.98	61106.71
576.14	60963.93
576.30	60949.89
576.46	60727.54
576.62	60851.59
576.79	60903.08
576.95	60910.10
577.11	60931.17
577.27	61141.81
577.43	60931.17
577.59	60804.78
577.75	60793.07
577.92	60907.76
578.08	60921.80
578.24	60977.98
578.40	61099.68
578.56	61055.21
578.72	61111.39
578.88	61111.39
579.04	61258.84
579.21	61080.96
579.37	61214.37
579.53	61291.61
579.69	60856.27
579.85	61233.10
580.01	61125.43
580.17	61010.74
580.33	61017.77
580.49	61254.16
580.65	61300.97
580.82	60992.02
580.98	60823.50
581.14	60860.95
581.30	61045.85
581.46	60828.18
581.62	61109.05
581.78	61020.11
581.94	61165.22
582.10	61169.90
582.26	61160.54
582.42	60996.70
582.58	61144.16
582.74	61038.83
582.90	60963.93
583.06	61214.37
583.22	61055.21
583.38	61190.97
583.54	61235.44
583.70	61151.18
583.86	61153.52
584.02	61207.35
584.18	61343.10
584.34	61249.48
584.50	61151.18
584.66	61034.15
584.82	60942.87
584.98	61242.46
585.14	61291.61
585.30	61104.37
585.46	61024.79
585.62	60989.68
585.78	61586.52
585.94	61062.24
586.10	60987.34
586.26	61436.72
586.42	61193.31
586.58	61331.40
586.74	61064.58
586.90	61062.24
587.06	61141.81
587.22	61450.77
587.38	61406.30
587.54	61413.32
587.70	61401.61
587.86	61338.42
588.02	61380.55
588.18	61317.35
588.34	61167.56
588.49	61183.94
