SpectraSuite Data File
++++++++++++++++++++++++++++++++++++
Date: Fri Oct 25 11:33:38 EDT 2013
User: price-jones
Dark Spectrum Present: No
Reference Spectrum Present: No
Number of Sampled Component Spectra: 1
Spectrometers: USB2+H05261
Integration Time (usec): 100000 (USB2+H05261)
Spectra Averaged: 1 (USB2+H05261)
Boxcar Smoothing: 0 (USB2+H05261)
Correct for Electrical Dark: No (USB2+H05261)
Strobe/Lamp Enabled: No (USB2+H05261)
Correct for Detector Non-linearity: No (USB2+H05261)
Correct for Stray Light: No (USB2+H05261)
Number of Pixels in Processed Spectrum: 2048
>>>>>Begin Processed Spectral Data<<<<<
365.73	243.42
365.92	243.42
366.12	243.42
366.32	205.97
366.52	189.58
366.72	128.73
366.91	177.88
367.11	205.97
367.31	88.94
367.51	217.67
367.70	154.48
367.90	180.22
368.10	128.73
368.30	81.92
368.49	168.52
368.69	234.05
368.89	124.05
369.09	180.22
369.28	203.63
369.48	163.84
369.68	271.50
369.87	222.35
370.07	266.82
370.27	255.12
370.47	297.25
370.66	472.79
370.86	535.98
371.06	470.45
371.25	582.79
371.45	610.88
371.65	547.69
371.84	463.43
372.04	566.41
372.24	573.43
372.44	564.07
372.63	566.41
372.83	636.63
373.03	543.00
373.22	566.41
373.42	671.73
373.62	589.82
373.81	587.47
374.01	648.33
374.21	674.07
374.40	589.82
374.60	622.58
374.79	599.18
374.99	627.26
375.19	676.41
375.38	678.76
375.58	660.03
375.78	741.95
375.97	660.03
376.17	664.71
376.37	667.05
376.56	716.20
376.76	699.82
376.95	685.78
377.15	723.23
377.35	697.48
377.54	669.39
377.74	713.86
377.93	805.14
378.13	671.73
378.33	805.14
378.52	681.10
378.72	753.65
378.91	772.38
379.11	755.99
379.31	805.14
379.50	709.18
379.70	772.38
379.89	739.61
380.09	706.84
380.28	667.05
380.48	716.20
380.68	725.57
380.87	741.95
381.07	709.18
381.26	758.33
381.46	786.42
381.65	690.46
381.85	760.67
382.04	758.33
382.24	692.80
382.43	875.36
382.63	821.53
382.83	807.48
383.02	823.87
383.22	847.27
383.41	734.93
383.61	807.48
383.80	802.80
384.00	763.01
384.19	828.55
384.39	910.47
384.58	821.53
384.78	781.74
384.97	786.42
385.17	830.89
385.36	758.33
385.56	842.59
385.75	774.72
385.95	847.27
386.14	908.13
386.34	903.45
386.53	908.13
386.72	830.89
386.92	849.61
387.11	887.06
387.31	861.32
387.50	889.40
387.70	917.49
387.89	882.38
388.09	887.06
388.28	823.87
388.48	887.06
388.67	945.58
388.86	875.36
389.06	938.55
389.25	931.53
389.45	1020.47
389.64	922.17
389.84	985.37
390.03	856.64
390.22	1043.88
390.42	947.92
390.61	1053.24
390.81	933.87
391.00	973.66
391.19	1039.20
391.39	910.47
391.58	950.26
391.78	961.96
391.97	1011.11
392.16	1006.43
392.36	1071.97
392.55	1081.33
392.75	1074.31
392.94	1053.24
393.13	1088.35
393.33	1060.26
393.52	1078.99
393.71	1196.01
393.91	1205.38
394.10	1093.03
394.29	1097.71
394.49	1008.77
394.68	1100.05
394.88	1086.01
395.07	1184.31
395.26	1210.06
395.46	1137.50
395.65	1135.16
395.84	1207.72
396.04	1268.57
396.23	1228.78
396.42	1203.04
396.62	1212.40
396.81	1170.27
397.00	1273.25
397.19	1231.12
397.39	1247.51
397.58	1170.27
397.77	1273.25
397.97	1301.34
398.16	1289.64
398.35	1310.70
398.55	1259.21
398.74	1280.27
398.93	1301.34
399.12	1296.66
399.32	1306.02
399.51	1277.93
399.70	1282.61
399.90	1406.66
400.09	1289.64
400.28	1352.83
400.47	1481.56
400.67	1418.36
400.86	1294.32
401.05	1380.92
401.24	1416.02
401.44	1474.54
401.63	1451.13
401.82	1441.77
402.01	1451.13
402.21	1511.99
402.40	1366.87
402.59	1430.07
402.78	1565.82
402.97	1413.68
403.17	1547.09
403.36	1586.88
403.55	1565.82
403.74	1591.56
403.93	1600.93
404.13	1614.97
404.32	1514.33
404.51	1558.80
404.70	1631.35
404.89	1610.29
405.09	1799.87
405.28	1626.67
405.47	1666.46
405.66	1666.46
405.85	1701.57
406.05	1673.48
406.24	1760.08
406.43	1746.04
406.62	1724.97
406.81	1872.43
407.00	1755.40
407.20	1685.19
407.39	1783.49
407.58	1956.69
407.77	1898.17
407.96	1844.34
408.15	1905.20
408.34	1851.36
408.54	1870.09
408.73	1879.45
408.92	1923.92
409.11	1959.03
409.30	1947.33
409.49	2106.48
409.68	2029.24
409.87	1980.09
410.07	2083.08
410.26	2033.93
410.45	2188.40
410.64	1991.80
410.83	2094.78
411.02	2146.27
411.21	2134.57
411.40	2214.15
411.59	2284.36
411.78	2188.40
411.98	2134.57
412.17	2232.87
412.36	2289.04
412.55	2300.75
412.74	2265.64
412.93	2359.26
413.12	2377.98
413.31	2413.09
413.50	2363.94
413.69	2392.03
413.88	2569.91
414.07	2452.88
414.26	2497.35
414.45	2649.49
414.64	2406.07
414.83	2506.71
415.02	2511.39
415.22	2553.52
415.41	2696.30
415.60	2654.17
415.79	2703.32
415.98	2677.57
416.17	2843.75
416.36	2808.64
416.55	2731.41
416.74	2757.15
416.93	2923.33
417.12	2750.13
417.31	2958.44
417.50	2808.64
417.69	2967.80
417.88	2951.42
418.07	2913.97
418.26	2995.89
418.45	2928.01
418.64	3094.19
418.83	3126.96
419.02	3073.12
419.21	3054.40
419.39	3197.17
419.58	3103.55
419.77	3047.38
419.96	3241.64
420.15	3112.91
420.34	3119.93
420.53	3136.32
420.72	3279.09
420.91	3290.79
421.10	3157.38
421.29	3346.97
421.48	3267.39
421.67	3318.88
421.86	3253.34
422.05	3269.73
422.24	3300.16
422.43	3302.50
422.61	3447.61
422.80	3480.38
422.99	3407.82
423.18	3358.67
423.37	3426.54
423.56	3419.52
423.75	3421.86
423.94	3267.39
424.13	3194.83
424.32	3267.39
424.50	3358.67
424.69	3494.42
424.88	3449.95
425.07	3510.80
425.26	3445.27
425.45	3463.99
425.64	3445.27
425.83	3398.46
426.01	3492.08
426.20	3543.57
426.39	3510.80
426.58	3342.28
426.77	3510.80
426.96	3501.44
427.15	3545.91
427.33	3588.04
427.52	3522.51
427.71	3609.11
427.90	3747.20
428.09	3630.17
428.28	3775.28
428.46	3730.81
428.65	3749.54
428.84	3742.52
429.03	3819.75
429.22	3775.28
429.40	3803.37
429.59	3660.60
429.78	3627.83
429.97	3693.37
430.16	3719.11
430.34	3885.29
430.53	3887.63
430.72	3899.33
430.91	3906.35
431.10	3864.22
431.28	3906.35
431.47	4044.45
431.66	3997.64
431.85	3985.93
432.03	4147.43
432.22	4124.02
432.41	4063.17
432.60	4067.85
432.79	4025.72
432.97	4154.45
433.16	4095.94
433.35	4065.51
433.54	4219.99
433.72	4215.30
433.91	4166.15
434.10	4208.28
434.28	3969.55
434.47	4245.73
434.66	4306.59
434.85	4367.44
435.03	4278.50
435.22	4311.27
435.41	4425.95
435.59	4362.76
435.78	4278.50
435.97	4327.65
436.16	4465.74
436.34	4437.66
436.53	4456.38
436.72	4547.66
436.90	4318.29
437.09	4358.08
437.28	4360.42
437.46	4606.17
437.65	4580.43
437.84	4526.60
438.02	4599.15
438.21	4606.17
438.40	4503.19
438.58	4844.91
438.77	4828.53
438.96	4751.29
439.14	4826.18
439.33	4964.28
439.52	4837.89
439.70	4952.57
439.89	5172.58
440.08	5212.37
440.26	5107.05
440.45	5055.56
440.63	5027.47
440.82	5144.50
441.01	5221.74
441.19	5177.26
441.38	5310.68
441.57	5235.78
441.75	5247.48
441.94	5352.81
442.12	5476.85
442.31	5465.15
442.50	5589.20
442.68	5385.57
442.87	5530.69
443.05	5462.81
443.24	5593.88
443.43	5654.73
443.61	5600.90
443.80	5809.21
443.98	5462.81
444.17	5273.23
444.35	5638.35
444.54	5724.95
444.73	5631.33
444.91	5619.63
445.10	5694.52
445.28	5624.31
445.47	5540.05
445.65	5743.67
445.84	5734.31
446.02	5799.85
446.21	5743.67
446.39	5743.67
446.58	5802.19
446.77	5795.17
446.95	5647.71
447.14	5682.82
447.32	5738.99
447.51	5813.89
447.69	5486.22
447.88	5631.33
448.06	5741.33
448.25	5811.55
448.43	5715.59
448.62	5818.57
448.80	5755.38
448.99	5886.45
449.17	6029.22
449.36	5750.70
449.54	6029.22
449.73	6218.80
449.91	6291.36
450.10	6031.56
450.28	6167.31
450.46	6216.46
450.65	6221.14
450.83	6104.12
451.02	6143.91
451.20	6066.67
451.39	6160.29
451.57	6094.76
451.76	6164.97
451.94	6230.51
452.13	6279.66
452.31	6242.21
452.49	6244.55
452.68	6392.00
452.86	6399.02
453.05	6118.16
453.23	6284.34
453.42	6331.15
453.60	6190.72
453.78	6541.80
453.97	6314.77
454.15	6459.88
454.34	6354.55
454.52	6572.22
454.70	6534.78
454.89	6532.44
455.07	6473.92
455.26	6700.95
455.44	6747.76
455.62	6612.01
455.81	6808.62
455.99	6733.72
456.17	6792.23
456.36	6888.20
456.54	6888.20
456.73	6876.49
456.91	7131.61
457.09	7035.65
457.28	7049.69
457.46	6808.62
457.64	6899.90
457.83	7021.61
458.01	6995.86
458.19	7339.92
458.38	7279.07
458.56	7096.50
458.74	7272.04
458.93	7136.29
459.11	7145.66
459.29	7131.61
459.48	7309.49
459.66	7396.09
459.84	7470.99
460.03	7679.30
460.21	7585.68
460.39	7353.96
460.57	7438.22
460.76	7489.71
460.94	7592.70
461.12	7508.44
461.31	7599.72
461.49	7520.14
461.67	7662.91
461.85	7688.66
462.04	7602.06
462.22	7831.43
462.40	7719.09
462.59	7756.54
462.77	7843.14
462.95	7953.14
463.13	7665.25
463.32	7941.44
463.50	7903.99
463.68	8067.83
463.86	7913.35
464.05	7803.35
464.23	7894.63
464.41	8032.72
464.59	7892.29
464.78	8208.26
464.96	7934.42
465.14	7948.46
465.32	8070.17
465.50	8079.53
465.69	8430.61
465.87	8138.04
466.05	7988.25
466.23	8278.47
466.41	8255.07
466.60	8521.89
466.78	8266.77
466.96	8299.54
467.14	8152.09
467.32	8189.53
467.51	8528.91
467.69	8327.63
467.87	8245.71
468.05	8573.38
468.23	8257.41
468.41	8346.35
468.60	8557.00
468.78	8383.80
468.96	8624.87
469.14	8486.78
469.32	8549.98
469.50	8585.08
469.69	8692.75
469.87	8947.87
470.05	8711.47
470.23	8982.98
470.41	8767.65
470.59	9001.70
470.77	8856.59
470.95	8929.14
471.14	9083.62
471.32	8868.29
471.50	9156.18
471.68	9067.24
471.86	9256.82
472.04	9167.88
472.22	9462.79
472.40	9170.22
472.58	9205.33
472.77	9324.69
472.95	9610.24
473.13	9640.67
473.31	9504.92
473.49	9366.82
473.67	9500.23
473.85	9757.69
474.03	9753.01
474.21	9673.43
474.39	9811.53
474.57	9635.99
474.75	9820.89
474.93	10113.45
475.12	9970.68
475.30	10106.43
475.48	9951.96
475.66	10237.50
475.84	10061.96
476.02	10286.65
476.20	10256.23
476.38	10518.37
476.56	10565.18
476.74	10469.22
476.92	10572.20
477.10	10197.71
477.28	10864.77
477.46	11021.58
477.64	10902.22
477.82	10946.69
478.00	11152.65
478.18	11143.29
478.36	11094.14
478.54	11194.78
478.72	11377.34
478.90	11679.27
479.08	11489.69
479.26	11768.21
479.44	11705.02
479.62	11733.11
479.80	11864.18
479.98	12168.45
480.16	12238.66
480.34	12135.68
480.52	12233.98
480.70	12528.89
480.88	12147.38
481.06	12561.66
481.24	12692.73
481.41	12711.45
481.59	12704.43
481.77	12910.40
481.95	12947.84
482.13	12961.89
482.31	13013.38
482.49	13444.04
482.67	13308.29
482.85	13420.63
483.03	13720.22
483.21	13645.32
483.39	13874.70
483.57	13661.71
483.74	14185.99
483.92	14031.51
484.10	13891.08
484.28	14221.10
484.46	14600.26
484.64	14808.57
484.82	14565.15
485.00	14707.93
485.18	14867.08
485.35	15098.80
485.53	15248.59
485.71	15040.28
485.89	15344.55
486.07	15637.12
486.25	15440.51
486.43	15562.22
486.61	15653.50
486.78	15852.45
486.96	16074.80
487.14	16257.36
487.32	16205.87
487.50	16280.77
487.68	16620.14
487.85	16723.13
488.03	17081.23
488.21	17151.45
488.39	17062.51
488.57	17001.65
488.75	17156.13
488.92	17247.41
489.10	17724.88
489.28	17343.37
489.46	17748.28
489.64	17855.95
489.81	18209.37
489.99	18164.90
490.17	18455.12
490.35	18480.87
490.53	18565.13
490.70	18548.75
490.88	18827.27
491.06	18944.30
491.24	19056.64
491.41	19108.13
491.59	19365.59
491.77	19398.36
491.95	19480.28
492.13	19480.28
492.30	19751.78
492.48	19910.94
492.66	20245.63
492.84	20077.12
493.01	20252.66
493.19	20339.26
493.37	20573.31
493.54	20411.81
493.72	20879.92
493.90	20751.19
494.08	20767.57
494.25	21364.41
494.43	21032.05
494.61	21137.38
494.79	21252.06
494.96	21544.63
495.14	21366.75
495.32	21649.96
495.49	21809.11
495.67	21809.11
495.85	22045.51
496.02	22033.80
496.20	22464.46
496.38	22352.12
496.55	22403.61
496.73	22930.23
496.91	22871.72
497.09	22871.72
497.26	23140.88
497.44	22981.72
497.62	23152.58
497.79	23391.31
497.97	23304.71
498.14	23524.72
498.32	23775.16
498.50	23817.29
498.67	23868.78
498.85	24102.84
499.03	24187.10
499.20	24154.33
499.38	24407.11
499.56	24484.34
499.73	24240.93
499.91	24360.30
500.08	24964.15
500.26	24900.96
500.44	24816.70
500.61	25135.01
500.79	24868.19
500.97	25039.05
501.14	25532.90
501.32	25549.29
501.49	25259.06
501.67	24968.84
501.84	25729.51
502.02	25427.58
502.20	25532.90
502.37	25675.68
502.55	25848.88
502.72	25788.02
502.90	26057.18
503.07	25891.01
503.25	26139.10
503.43	26181.23
503.60	26230.38
503.78	26691.47
503.95	26258.47
504.13	26916.16
504.30	26761.69
504.48	26822.54
504.65	27208.73
504.83	27257.88
505.01	27136.17
505.18	27026.17
505.36	27482.57
505.53	27250.86
505.71	27442.78
505.88	27201.71
506.06	27695.56
506.23	27843.01
506.41	27449.80
506.58	27922.59
506.76	27885.14
506.93	28142.60
507.11	27854.72
507.28	27920.25
507.46	28343.89
507.63	28325.16
507.81	28446.87
507.98	28137.92
508.16	28107.49
508.33	28615.39
508.50	28437.51
508.68	28650.50
508.85	28823.70
509.03	28772.21
509.20	29090.52
509.38	29593.73
509.55	29317.55
509.73	29640.54
509.90	29689.70
510.08	29436.92
510.25	29516.50
510.42	29525.86
510.60	29970.56
510.77	29881.62
510.95	30223.34
511.12	30050.14
511.30	29820.77
511.47	30319.30
511.64	29926.09
511.82	30768.68
511.99	29837.15
512.17	30504.20
512.34	30579.10
512.51	30934.86
512.69	31021.46
512.86	31138.49
513.04	31372.54
513.21	31072.95
513.38	31246.15
513.56	31318.71
513.73	31211.04
513.90	31035.50
514.08	31267.22
514.25	31393.61
514.43	31758.73
514.60	31775.11
514.77	32027.89
514.95	32376.63
515.12	31826.60
515.29	31744.69
515.47	31826.60
515.64	32299.39
515.81	31800.86
515.99	32173.00
516.16	32718.35
516.33	32306.41
516.51	32840.06
516.68	32257.26
516.85	32549.83
517.03	32929.00
517.20	32954.74
517.37	32762.82
517.54	33006.23
517.72	32786.22
517.89	33017.94
518.06	33048.36
518.24	33483.70
518.41	32830.69
518.58	32987.51
518.75	33074.11
518.93	34026.71
519.10	33221.56
519.27	33474.34
519.45	33663.93
519.62	33694.35
519.79	33806.70
519.96	33479.02
520.14	33823.08
520.31	33483.70
520.48	33839.47
520.65	34029.05
520.83	34352.04
521.00	34506.52
521.17	34558.01
521.34	34176.50
521.52	34859.94
521.69	34326.30
521.86	34873.98
522.03	35117.40
522.20	35255.49
522.38	35274.21
522.55	35101.01
522.72	35051.86
522.89	35388.90
523.07	35742.32
523.24	34904.41
523.41	35688.49
523.58	35604.23
523.75	35723.60
523.92	35274.21
524.10	35882.75
524.27	35496.56
524.44	35737.64
524.61	35690.83
524.78	35578.48
524.96	36105.10
525.13	36290.01
525.30	36189.36
525.47	36219.79
525.64	36084.04
525.81	36240.86
525.98	36598.96
526.16	36023.19
526.33	36428.10
526.50	36800.24
526.67	36636.41
526.84	36521.72
527.01	36575.55
527.18	36556.83
527.36	36905.57
527.53	36694.92
527.70	37195.79
527.87	37237.92
528.04	36905.57
528.21	37329.20
528.38	37338.57
528.55	37361.97
528.72	37418.14
528.89	37373.67
529.07	37258.99
529.24	37144.30
529.41	37874.55
529.58	37357.29
529.75	37888.59
529.92	37422.83
530.09	38064.13
530.26	37818.38
530.43	37832.42
530.60	37497.72
530.77	37563.26
530.94	37907.32
531.11	37724.75
531.28	38459.68
531.46	38272.44
531.63	37750.50
531.80	38188.18
531.97	38424.57
532.14	38359.04
532.31	38330.95
532.48	38775.66
532.65	39000.35
532.82	38810.76
532.99	38967.58
533.16	38202.22
533.33	38927.79
533.50	38667.99
533.67	39159.50
533.84	38466.70
534.01	38733.53
534.18	39196.95
534.35	39100.99
534.52	39098.65
534.69	39442.71
534.86	39576.12
535.03	39370.15
535.20	39234.40
535.37	39330.36
535.54	39393.56
535.71	39475.48
535.88	39735.27
536.05	40245.51
536.22	39693.15
536.38	39517.60
536.55	39915.50
536.72	40023.16
536.89	39924.86
537.06	40194.02
537.23	40289.98
537.40	39856.98
537.57	40114.44
537.74	39655.70
537.91	40009.12
538.08	40161.25
538.25	40222.11
538.42	40226.79
538.59	40645.74
538.75	40397.65
538.92	40648.08
539.09	40809.58
539.26	40573.19
539.43	40914.90
539.60	40692.55
539.77	40587.23
539.94	41069.38
540.11	41064.70
540.28	40699.58
540.44	40933.63
540.61	40968.74
540.78	41357.27
540.95	41048.32
541.12	40959.38
541.29	41441.53
541.46	41006.19
541.62	41205.13
541.79	41401.74
541.96	40718.30
542.13	40694.89
542.30	41184.07
542.47	41364.29
542.63	41394.71
542.80	41652.17
542.97	42122.62
543.14	42096.88
543.31	41855.80
543.48	41961.12
543.64	42494.77
543.81	42237.31
543.98	42188.16
544.15	41982.19
544.32	42099.22
544.48	42335.61
544.65	42391.78
544.82	42508.81
544.99	42043.04
545.16	42410.51
545.32	42499.45
545.49	42848.19
545.66	42653.92
545.83	42796.70
546.00	43021.39
546.16	42450.30
546.33	42438.59
546.50	42494.77
546.67	42714.78
546.83	42450.30
547.00	42349.65
547.17	42775.63
547.34	42955.85
547.50	42824.78
547.67	43346.72
547.84	43576.09
548.00	43217.99
548.17	43543.33
548.34	42866.91
548.51	43309.27
548.67	43140.75
548.84	42946.49
549.01	43138.41
549.18	43543.33
549.34	43658.01
549.51	43831.21
549.68	43892.07
549.84	43358.42
550.01	43466.09
550.18	43601.84
550.34	43564.39
550.51	43899.09
550.68	43985.69
550.84	43416.94
551.01	43611.20
551.18	44009.09
551.34	43693.12
551.51	43854.62
551.68	43871.00
551.84	43887.39
552.01	43845.26
552.18	44051.22
552.34	43999.73
552.51	43957.60
552.68	44105.06
552.84	43927.17
553.01	44430.39
553.18	44376.56
553.34	44823.60
553.51	44109.74
553.67	44184.63
553.84	44486.56
554.01	44706.57
554.17	44357.83
554.34	44327.41
554.51	44556.78
554.67	45001.48
554.84	44591.89
555.00	44722.96
555.17	44720.62
555.33	44917.22
555.50	44907.86
555.67	44746.36
555.83	44657.42
556.00	44737.00
556.16	45514.06
556.33	45766.84
556.50	44940.63
556.66	44816.58
556.83	44751.04
556.99	44877.43
557.16	45298.73
557.32	45649.81
557.49	45364.26
557.65	44919.56
557.82	45207.45
557.98	44994.46
558.15	44966.37
558.32	45574.91
558.48	44851.69
558.65	45125.53
558.81	45359.58
558.98	45177.02
559.14	45504.70
559.31	45127.87
559.47	45553.85
559.64	45425.12
559.80	45291.71
559.97	45539.80
560.13	45544.48
560.30	45769.18
560.46	45956.42
560.63	45544.48
560.79	45654.49
560.96	46146.00
561.12	45890.88
561.29	45652.15
561.45	45764.49
561.61	45619.38
561.78	45909.61
561.94	45448.52
562.11	46050.04
562.27	45848.75
562.44	45708.32
562.60	45593.64
562.77	45977.48
562.93	45925.99
563.10	46052.38
563.26	45989.19
563.42	46330.90
563.59	45834.71
563.75	45947.06
563.92	46476.02
564.08	45799.60
564.24	45907.27
564.41	46199.83
564.57	46000.89
564.74	46241.96
564.90	46256.01
565.07	46036.00
565.23	46192.81
565.39	46501.76
565.56	46101.53
565.72	45954.08
565.88	46349.63
566.05	46164.73
566.21	46541.55
566.38	46225.58
566.54	46436.23
566.70	46066.42
566.87	46113.23
567.03	46141.32
567.19	46401.12
567.36	46487.72
567.52	46604.75
567.68	46789.65
567.85	46436.23
568.01	46775.61
568.17	46368.35
568.34	47007.32
568.50	46880.93
568.66	46234.94
568.83	46387.08
568.99	46452.61
569.15	46525.17
569.32	46417.50
569.48	46424.53
569.64	47140.73
569.81	47351.38
569.97	46775.61
570.13	46511.13
570.30	46380.06
570.46	46639.86
570.62	46810.71
570.78	47112.64
570.95	46876.25
571.11	46902.00
571.27	46679.64
571.43	46698.37
571.60	47023.70
571.76	46794.33
571.92	46946.47
572.09	46305.16
572.25	46574.32
572.41	46429.21
572.57	46742.84
572.74	47618.20
572.90	46780.29
573.06	46869.23
573.22	47100.94
573.38	46930.08
573.55	47131.37
573.71	47227.33
573.87	47091.58
574.03	47124.35
574.20	47309.25
574.36	46974.55
574.52	47114.98
574.68	46918.38
574.84	47311.59
575.01	47175.84
575.17	47175.84
575.33	47016.68
575.49	46733.48
575.65	47079.88
575.82	47358.40
575.98	46789.65
576.14	47281.16
576.30	47311.59
576.46	47058.81
576.62	47262.44
576.79	46710.07
576.95	46894.97
577.11	46761.56
577.27	47332.65
577.43	46883.27
577.59	47442.66
577.75	46824.76
577.92	46728.80
578.08	47297.55
578.24	47440.32
578.40	47660.33
578.56	47466.06
578.72	47665.01
578.88	47552.66
579.04	46990.94
579.21	47143.07
579.37	47501.17
579.53	47510.53
579.69	47253.08
579.85	47370.10
580.01	46969.87
580.17	47192.22
580.33	47157.11
580.49	47161.79
580.65	47391.17
580.82	47171.16
580.98	47437.98
581.14	46937.10
581.30	47676.71
581.46	47257.76
581.62	47498.83
581.78	46948.81
581.94	47552.66
582.10	47407.55
582.26	47363.08
582.42	47079.88
582.58	47049.45
582.74	47421.59
582.90	47222.65
583.06	47997.37
583.22	47349.04
583.38	47112.64
583.54	47430.96
583.70	47590.11
583.86	47489.47
584.02	46773.27
584.18	47690.76
584.34	47676.71
584.50	47941.19
584.66	47611.18
584.82	47524.58
584.98	48109.71
585.14	47377.12
585.30	47320.95
585.46	47405.21
585.62	47239.03
585.78	47845.23
585.94	47227.33
586.10	47641.60
586.26	47365.42
586.42	47484.79
586.58	47543.30
586.74	47360.74
586.90	47110.30
587.06	47456.70
587.22	47494.15
587.38	47746.93
587.54	47573.73
587.70	47784.38
587.86	47416.91
588.02	47257.76
588.18	47430.96
588.34	47751.61
588.49	47463.72
588.65	47590.11
588.81	47470.75
588.97	47540.96
589.13	47810.12
589.29	47693.10
589.45	47779.70
589.61	47641.60
589.77	47667.35
589.93	47929.49
590.08	47662.67
