SpectraSuite Data File
++++++++++++++++++++++++++++++++++++
Date: Fri Oct 25 10:47:38 EDT 2013
User: price-jones
Dark Spectrum Present: No
Reference Spectrum Present: No
Number of Sampled Component Spectra: 1
Spectrometers: USB2+H05261
Integration Time (usec): 100000 (USB2+H05261)
Spectra Averaged: 1 (USB2+H05261)
Boxcar Smoothing: 0 (USB2+H05261)
Correct for Electrical Dark: No (USB2+H05261)
Strobe/Lamp Enabled: No (USB2+H05261)
Correct for Detector Non-linearity: No (USB2+H05261)
Correct for Stray Light: No (USB2+H05261)
Number of Pixels in Processed Spectrum: 2048
>>>>>Begin Processed Spectral Data<<<<<
365.73	110.01
365.92	110.01
366.12	110.01
366.32	0.00
366.52	35.11
366.72	105.32
366.91	0.00
367.11	14.04
367.31	65.54
367.51	4.68
367.70	16.38
367.90	16.38
368.10	72.56
368.30	0.00
368.49	0.00
368.69	0.00
368.89	81.92
369.09	32.77
369.28	23.41
369.48	25.75
369.68	138.09
369.87	81.92
370.07	135.75
370.27	149.79
370.47	198.95
370.66	402.57
370.86	416.62
371.06	425.98
371.25	491.51
371.45	400.23
371.65	484.49
371.84	442.36
372.04	493.85
372.24	489.17
372.44	489.17
372.63	482.15
372.83	521.94
373.03	463.43
373.22	479.81
373.42	491.51
373.62	451.72
373.81	571.09
374.01	566.41
374.21	519.60
374.40	517.26
374.60	596.84
374.79	634.29
374.99	554.71
375.19	566.41
375.38	596.84
375.58	599.18
375.78	505.56
375.97	528.96
376.17	580.45
376.37	589.82
376.56	613.22
376.76	608.54
376.95	559.39
377.15	617.90
377.35	669.39
377.54	617.90
377.74	578.11
377.93	610.88
378.13	657.69
378.33	720.88
378.52	648.33
378.72	655.35
378.91	643.65
379.11	624.92
379.31	613.22
379.50	617.90
379.70	688.12
379.89	655.35
380.09	601.52
380.28	692.80
380.48	765.36
380.68	627.26
380.87	613.22
381.07	716.20
381.26	774.72
381.46	599.18
381.65	655.35
381.85	636.63
382.04	688.12
382.24	727.91
382.43	622.58
382.63	664.71
382.83	716.20
383.02	681.10
383.22	727.91
383.41	681.10
383.61	702.16
383.80	727.91
384.00	774.72
384.19	777.06
384.39	795.78
384.58	706.84
384.78	662.37
384.97	746.63
385.17	760.67
385.36	798.12
385.56	713.86
385.75	767.70
385.95	730.25
386.14	809.83
386.34	835.57
386.53	812.17
386.72	748.97
386.92	837.91
387.11	751.31
387.31	781.74
387.50	875.36
387.70	793.44
387.89	840.25
388.09	905.79
388.28	814.51
388.48	835.57
388.67	835.57
388.86	917.49
389.06	896.43
389.25	917.49
389.45	938.55
389.64	896.43
389.84	940.90
390.03	896.43
390.22	950.26
390.42	957.28
390.61	896.43
390.81	940.90
391.00	947.92
391.19	1011.11
391.39	880.04
391.58	992.39
391.78	966.64
391.97	959.62
392.16	936.21
392.36	1097.71
392.55	976.00
392.75	877.70
392.94	856.64
393.13	1006.43
393.33	943.24
393.52	1032.18
393.71	1029.84
393.91	992.39
394.10	1034.52
394.29	1062.60
394.49	1151.54
394.68	1139.84
394.88	1060.26
395.07	1104.73
395.26	1055.58
395.46	1170.27
395.65	1149.20
395.84	1151.54
396.04	1153.88
396.23	1046.22
396.42	1109.41
396.62	1100.05
396.81	1104.73
397.00	1207.72
397.19	1277.93
397.39	1310.70
397.58	1219.42
397.77	1226.44
397.97	1275.59
398.16	1219.42
398.35	1334.11
398.55	1291.98
398.74	1291.98
398.93	1383.26
399.12	1294.32
399.32	1247.51
399.51	1336.45
399.70	1385.60
399.90	1394.96
400.09	1359.85
400.28	1544.75
400.47	1387.94
400.67	1401.98
400.86	1448.79
401.05	1460.49
401.24	1535.39
401.44	1483.90
401.63	1530.71
401.82	1558.80
402.01	1530.71
402.21	1514.33
402.40	1516.67
402.59	1511.99
402.78	1542.41
402.97	1551.78
403.17	1570.50
403.36	1659.44
403.55	1575.18
403.74	1640.72
403.93	1652.42
404.13	1633.69
404.32	1652.42
404.51	1673.48
404.70	1743.70
404.89	1661.78
405.09	1792.85
405.28	1699.23
405.47	1675.82
405.66	1767.10
405.85	1846.68
406.05	1717.95
406.24	1837.32
406.43	1839.66
406.62	1905.20
406.81	1914.56
407.00	1914.56
407.20	1790.51
407.39	1802.21
407.58	1921.58
407.77	1973.07
407.96	1949.67
408.15	1944.99
408.34	2057.33
408.54	2104.14
408.73	1973.07
408.92	2069.03
409.11	2062.01
409.30	1952.01
409.49	2012.86
409.68	2066.69
409.87	2076.06
410.07	2083.08
410.26	2223.51
410.45	2249.25
410.64	2197.76
410.83	2249.25
411.02	2127.55
411.21	2293.72
411.40	2331.17
411.59	2300.75
411.78	2270.32
411.98	2363.94
412.17	2380.32
412.36	2385.01
412.55	2483.31
412.74	2513.74
412.93	2509.05
413.12	2537.14
413.31	2581.61
413.50	2555.86
413.69	2541.82
413.88	2644.81
414.07	2693.96
414.26	2731.41
414.45	2684.59
414.64	2605.02
414.83	2693.96
415.02	2750.13
415.22	2834.39
415.41	2754.81
415.60	2825.03
415.79	2956.10
415.98	2871.84
416.17	2857.79
416.36	2977.16
416.55	2937.37
416.74	3023.97
416.93	2904.60
417.12	2958.44
417.31	2998.23
417.50	2944.39
417.69	3176.11
417.88	3007.59
418.07	3087.17
418.26	3077.80
418.45	3054.40
418.64	3150.36
418.83	3323.56
419.02	3323.56
419.21	3251.00
419.39	3241.64
419.58	3169.09
419.77	3159.72
419.96	3304.84
420.15	3370.37
420.34	3384.41
420.53	3262.71
420.72	3370.37
420.91	3316.54
421.10	3206.53
421.29	3545.91
421.48	3482.72
421.67	3452.29
421.86	3421.86
422.05	3527.19
422.24	3485.06
422.43	3618.47
422.61	3417.18
422.80	3623.15
422.99	3344.63
423.18	3623.15
423.37	3555.27
423.56	3616.13
423.75	3620.81
423.94	3620.81
424.13	3293.13
424.32	3473.36
424.50	3723.79
424.69	3641.87
424.88	3721.45
425.07	3513.14
425.26	3506.12
425.45	3508.46
425.64	3634.85
425.83	3698.05
426.01	3733.15
426.20	3733.15
426.39	3749.54
426.58	3609.11
426.77	3606.77
426.96	3576.34
427.15	3681.66
427.33	3658.26
427.52	3700.39
427.71	3815.07
427.90	3768.26
428.09	3798.69
428.28	3936.78
428.46	3768.26
428.65	3709.75
428.84	3946.14
429.03	3927.42
429.22	3796.35
429.40	3838.48
429.59	3803.37
429.78	3705.07
429.97	3768.26
430.16	3786.99
430.34	3885.29
430.53	3950.82
430.72	3911.04
430.91	4002.32
431.10	3969.55
431.28	4086.58
431.47	4259.78
431.66	4304.25
431.85	4187.22
432.03	4126.36
432.22	4283.18
432.41	4208.28
432.60	4248.07
432.79	4262.12
432.97	4215.30
433.16	4271.48
433.35	4327.65
433.54	4362.76
433.72	4442.34
433.91	4203.60
434.10	4402.55
434.28	4414.25
434.47	4524.26
434.66	4482.13
434.85	4486.81
435.03	4554.68
435.22	4547.66
435.41	4477.44
435.59	4535.96
435.78	4704.48
435.97	4645.96
436.16	4484.47
436.34	4674.05
436.53	4706.82
436.72	4734.90
436.90	4582.77
437.09	4826.18
437.28	4671.71
437.46	4681.07
437.65	4758.31
437.84	4884.70
438.02	4734.90
438.21	4861.29
438.40	4676.39
438.58	4957.25
438.77	5097.69
438.96	4997.04
439.14	5055.56
439.33	5093.01
439.52	5125.77
439.70	5263.86
439.89	5270.89
440.08	5228.76
440.26	5287.27
440.45	5039.17
440.63	5268.55
440.82	5441.75
441.01	5500.26
441.19	5497.92
441.38	5561.11
441.57	5523.66
441.75	5582.18
441.94	5664.10
442.12	5816.23
442.31	5746.02
442.50	5692.18
442.68	5643.03
442.87	5760.06
443.05	5664.10
443.24	5804.53
443.43	5858.36
443.61	5811.55
443.80	6003.47
443.98	5764.74
444.17	5673.46
444.35	5898.15
444.54	5947.30
444.73	5881.77
444.91	5844.32
445.10	5811.55
445.28	5668.78
445.47	5937.94
445.65	5963.68
445.84	5898.15
446.02	5956.66
446.21	5959.00
446.39	5984.75
446.58	6066.67
446.77	6073.69
446.95	5923.90
447.14	6195.40
447.32	6209.44
447.51	6141.57
447.69	6111.14
447.88	5937.94
448.06	6061.99
448.25	6195.40
448.43	6186.04
448.62	6097.10
448.80	6052.63
448.99	6052.63
449.17	6113.48
449.36	6209.44
449.54	6356.90
449.73	6361.58
449.91	6408.39
450.10	6464.56
450.28	6553.50
450.46	6600.31
450.65	6537.12
450.83	6612.01
451.02	6548.82
451.20	6738.40
451.39	6586.27
451.57	6642.44
451.76	6485.62
451.94	6707.98
452.13	6661.16
452.31	6310.08
452.49	6581.59
452.68	6675.21
452.86	6771.17
453.05	6883.52
453.23	6705.63
453.42	6820.32
453.60	6693.93
453.78	6733.72
453.97	6902.24
454.15	6803.94
454.34	6754.79
454.52	6888.20
454.70	6750.10
454.89	6991.18
455.07	6796.92
455.26	6904.58
455.44	7002.88
455.62	6958.41
455.81	7131.61
455.99	7119.91
456.17	7056.72
456.36	7080.12
456.54	7293.11
456.73	7311.83
456.91	7419.50
457.09	7335.24
457.28	7480.35
457.46	7236.94
457.64	7356.30
457.83	7365.67
458.01	7353.96
458.19	7508.44
458.38	7349.28
458.56	7939.10
458.74	7595.04
458.93	7651.21
459.11	7515.46
459.29	7323.54
459.48	7747.17
459.66	7590.36
459.84	7840.79
460.03	8039.74
460.21	7728.45
460.39	7700.36
460.57	7749.51
460.76	7805.69
460.94	8091.23
461.12	8004.63
461.31	7976.55
461.49	7871.22
461.67	7744.83
461.85	8084.21
462.04	7899.31
462.22	8500.83
462.40	8210.60
462.59	8002.29
462.77	8109.96
462.95	8201.24
463.13	8058.46
463.32	8009.31
463.50	8367.42
463.68	8292.52
463.86	8271.45
464.05	8280.82
464.23	8292.52
464.41	8320.60
464.59	8257.41
464.78	8493.80
464.96	8589.77
465.14	8358.05
465.32	8444.65
465.50	8454.02
465.69	8582.74
465.87	8496.14
466.05	8615.51
466.23	8374.44
466.41	8549.98
466.60	8671.68
466.78	8538.27
466.96	8423.59
467.14	8667.00
467.32	8578.06
467.51	8718.50
467.69	8458.70
467.87	8879.99
468.05	8938.51
468.23	8849.57
468.41	8767.65
468.60	8631.90
468.78	8823.82
468.96	8924.46
469.14	9041.49
469.32	8884.67
469.50	8716.16
469.69	8980.64
469.87	9001.70
470.05	9092.98
470.23	8872.97
470.41	8957.23
470.59	9043.83
470.77	9174.90
470.95	9186.60
471.14	9296.61
471.32	9130.43
471.50	9561.09
471.68	9661.73
471.86	9282.56
472.04	9355.12
472.22	9696.84
472.40	9242.78
472.58	9673.43
472.77	9673.43
472.95	9720.24
473.13	9954.30
473.31	9760.03
473.49	9865.36
473.67	9724.93
473.85	9764.72
474.03	10108.77
474.21	10246.87
474.39	10384.96
474.57	10167.29
474.75	10263.25
474.93	10340.49
475.12	10207.08
475.30	10441.13
475.48	10090.05
475.66	10677.52
475.84	10317.08
476.02	10492.62
476.20	10759.44
476.38	10979.45
476.56	10951.37
476.74	10796.89
476.92	10956.05
477.10	10909.24
477.28	11110.52
477.46	11253.30
477.64	11124.57
477.82	11440.54
478.00	11826.73
478.18	11538.84
478.36	11707.36
478.54	11585.65
478.72	11925.03
478.90	12046.74
479.08	11950.78
479.26	12044.40
479.44	12245.68
479.62	12299.52
479.80	12367.39
479.98	12369.73
480.16	12521.87
480.34	12489.10
480.52	12580.38
480.70	12578.04
480.88	12709.11
481.06	12779.32
481.24	12692.73
481.41	13092.96
481.59	13186.58
481.77	13392.55
481.95	13327.01
482.13	13270.84
482.31	13589.15
482.49	13617.24
482.67	13743.63
482.85	13790.44
483.03	13958.96
483.21	14204.71
483.39	13970.66
483.57	14143.86
483.74	14190.67
483.92	14424.72
484.10	14403.66
484.28	14738.35
484.46	14913.89
484.64	15133.90
484.82	14860.06
485.00	15133.90
485.18	15159.65
485.35	15632.44
485.53	15218.16
485.71	15302.42
485.89	15389.02
486.07	15555.20
486.25	15721.38
486.43	15744.78
486.61	15932.03
486.78	16035.01
486.96	16079.48
487.14	16510.14
487.32	16610.78
487.50	16643.55
487.68	16510.14
487.85	16978.25
488.03	17266.13
488.21	17254.43
488.39	16891.65
488.57	17624.23
488.75	17502.53
488.92	17907.44
489.10	17743.60
489.28	18331.08
489.46	18188.30
489.64	18307.67
489.81	18801.52
489.99	18658.75
490.17	18918.55
490.35	18906.85
490.53	18906.85
490.70	19119.84
490.88	19000.47
491.06	19318.78
491.24	19293.04
491.41	19552.84
491.59	19506.02
491.77	19309.42
491.95	19658.16
492.13	19803.27
492.30	19950.73
492.48	19915.62
492.66	20416.49
492.84	20084.14
493.01	20306.49
493.19	20744.17
493.37	20512.46
493.54	20353.30
493.72	20922.05
493.90	21209.93
494.08	21137.38
494.25	21408.88
494.43	21404.20
494.61	21832.52
494.79	21453.35
494.96	21855.92
495.14	21855.92
495.32	22202.32
495.49	21984.65
495.67	22188.28
495.85	22235.09
496.02	22632.98
496.20	22464.46
496.38	22927.89
496.55	22897.46
496.73	23178.33
496.91	23161.94
497.09	23363.23
497.26	23377.27
497.44	23405.36
497.62	23293.01
497.79	23747.08
497.97	23506.00
498.14	23723.67
498.32	23880.49
498.50	24032.62
498.67	24030.28
498.85	24065.39
499.03	24250.29
499.20	24049.00
499.38	24425.83
499.56	24205.82
499.73	24687.97
499.91	24793.29
500.08	24898.62
500.26	24678.61
500.44	24929.05
500.61	25172.46
500.79	25027.35
500.97	24982.88
501.14	25441.62
501.32	25266.08
501.49	25785.68
501.67	25404.17
501.84	25479.07
502.02	25745.89
502.20	25886.32
502.37	26066.55
502.55	26075.91
502.72	26251.45
502.90	26272.51
503.07	26085.27
503.25	26211.66
503.43	25813.77
503.60	26787.43
503.78	26637.64
503.95	26785.09
504.13	26560.40
504.30	27119.79
504.48	26621.25
504.65	27037.87
504.83	27555.13
505.01	27536.40
505.18	27529.38
505.36	27571.51
505.53	27321.07
505.71	27592.58
505.88	27880.46
506.06	27924.93
506.23	27821.95
506.41	27770.46
506.58	28006.85
506.76	27604.28
506.93	28077.07
507.11	28276.01
507.28	28020.89
507.46	28386.02
507.63	28334.53
507.81	28170.69
507.98	28130.90
508.16	28687.95
508.33	28821.36
508.50	29085.84
508.68	28863.49
508.85	29230.95
509.03	29024.98
509.20	28891.57
509.38	29132.65
509.55	29467.34
509.73	28971.15
509.90	29174.78
510.08	29457.98
510.25	29734.17
510.42	29593.73
510.60	29928.43
510.77	29930.77
510.95	29972.90
511.12	29928.43
511.30	30314.62
511.47	30291.21
511.64	30529.95
511.82	30944.22
511.99	30331.00
512.17	30490.16
512.34	30431.65
512.51	30759.32
512.69	31044.87
512.86	30679.74
513.04	31342.11
513.21	30899.75
513.38	31173.60
513.56	30998.06
513.73	30609.53
513.90	30902.09
514.08	31632.34
514.25	31089.34
514.43	30937.20
514.60	31288.28
514.77	31482.55
514.95	31763.41
515.12	31681.49
515.29	31611.28
515.47	31777.45
515.64	32250.24
515.81	31971.72
515.99	32077.04
516.16	31789.16
516.33	32002.14
516.51	31803.20
516.68	31976.40
516.85	32006.83
517.03	32240.88
517.20	31735.32
517.37	32786.22
517.54	32687.92
517.72	32861.12
517.89	32594.30
518.06	32734.73
518.24	32451.53
518.41	32613.02
518.58	32744.09
518.75	32830.69
518.93	33333.91
519.10	32936.02
519.27	33315.19
519.45	33130.28
519.62	33490.73
519.79	33383.06
519.96	33312.84
520.14	33776.27
520.31	33872.23
520.48	33741.16
520.65	33848.83
520.83	34225.65
521.00	33881.60
521.17	33780.95
521.34	33907.34
521.52	34429.28
521.69	34501.84
521.86	34235.02
522.03	34352.04
522.20	34518.22
522.38	34813.13
522.55	34761.64
522.72	34550.99
522.89	34763.98
523.07	34993.35
523.24	34349.70
523.41	34810.79
523.58	34686.74
523.75	35342.09
523.92	35222.72
524.10	35585.50
524.27	35424.01
524.44	35192.30
524.61	35807.86
524.78	35632.32
524.96	35632.32
525.13	36004.46
525.30	36184.68
525.47	36187.02
525.64	35906.16
525.81	35964.67
525.98	35840.62
526.16	35302.30
526.33	35311.66
526.50	36304.05
526.67	35695.51
526.84	35796.15
527.01	35721.26
527.18	35606.57
527.36	36495.97
527.53	36451.50
527.70	36828.33
527.87	36940.68
528.04	36802.58
528.21	36540.44
528.38	36432.78
528.55	36694.92
528.72	36737.05
528.89	37184.09
529.07	37046.00
529.24	36636.41
529.41	37071.75
529.58	36673.85
529.75	36877.48
529.92	37427.51
530.09	37167.71
530.26	37441.55
530.43	37626.45
530.60	37076.43
530.77	37251.97
530.94	37923.70
531.11	37198.13
531.28	38134.35
531.46	37380.70
531.63	37745.82
531.80	37354.95
531.97	37581.98
532.14	37385.38
532.31	37521.13
532.48	37331.54
532.65	37801.99
532.82	37521.13
532.99	38155.41
533.16	38204.56
533.33	38361.38
533.50	38323.93
533.67	38380.10
533.84	38124.99
534.01	38314.57
534.18	38487.77
534.35	38249.03
534.52	38108.60
534.69	38375.42
534.86	38766.29
535.03	38806.08
535.20	38866.94
535.37	39019.07
535.54	39171.21
535.71	38871.62
535.88	38656.29
536.05	38759.27
536.22	38682.03
536.38	39061.20
536.55	38775.66
536.72	38873.96
536.89	38972.26
537.06	39119.71
537.23	39398.24
537.40	39297.59
537.57	39175.89
537.74	39271.85
537.91	39922.52
538.08	39452.07
538.25	39241.42
538.42	39489.52
538.59	39384.19
538.75	39290.57
538.92	40011.46
539.09	39700.17
539.26	39452.07
539.43	39651.02
539.60	39796.13
539.77	39278.87
539.94	39864.00
540.11	39449.73
540.28	39735.27
540.44	39758.68
540.61	39672.08
540.78	39842.94
540.95	39754.00
541.12	39789.11
541.29	39779.74
541.46	40009.12
541.62	40032.52
541.79	40498.29
541.96	39866.34
542.13	40023.16
542.30	40346.15
542.47	40435.10
542.63	40477.22
542.80	39889.75
542.97	40744.05
543.14	41043.63
543.31	40961.72
543.48	41029.59
543.64	40847.03
543.81	41043.63
543.98	40999.16
544.15	40961.72
544.32	41069.38
544.48	41413.44
544.65	41277.69
544.82	40818.94
544.99	40830.65
545.16	40739.36
545.32	41315.14
545.49	41254.28
545.66	41448.55
545.83	41675.58
546.00	41621.75
546.16	41474.29
546.33	41249.60
546.50	40758.09
546.67	41551.53
546.83	40971.08
547.00	41387.69
547.17	41668.56
547.34	41509.40
547.50	42038.36
547.67	41783.24
547.84	41694.30
548.00	42300.50
548.17	41996.23
548.34	41600.68
548.51	42204.54
548.67	42263.05
548.84	42410.51
549.01	41942.40
549.18	42211.56
549.34	42288.80
549.51	42277.10
549.68	42150.71
549.84	42410.51
550.01	42162.41
550.18	42183.48
550.34	42216.24
550.51	42419.87
550.68	42223.26
550.84	41701.32
551.01	42319.23
551.18	42504.13
551.34	42548.60
551.51	42712.44
551.68	42515.83
551.84	42628.18
552.01	42518.17
552.18	42459.66
552.34	42066.45
552.51	42892.66
552.68	42937.13
552.84	42944.15
553.01	43185.22
553.18	42674.99
553.34	42972.24
553.51	42761.59
553.67	42974.58
553.84	43107.99
554.01	43442.68
554.17	43363.11
554.34	43227.35
554.51	43002.66
554.67	43241.40
554.84	43559.71
555.00	43033.09
555.17	43356.08
555.33	43529.28
555.50	43416.94
555.67	43676.74
555.83	43438.00
556.00	43260.12
556.16	44062.93
556.33	43878.02
556.50	43531.62
556.66	43470.77
556.83	43241.40
556.99	43782.06
557.16	43220.33
557.32	43601.84
557.49	43604.18
557.65	43613.54
557.82	43381.83
557.98	43255.44
558.15	43484.81
558.32	43601.84
558.48	43669.72
558.65	43234.38
558.81	43643.97
558.98	43751.63
559.14	43821.85
559.31	43629.93
559.47	43842.92
559.64	44039.52
559.80	44210.38
559.97	43863.98
560.13	43613.54
560.30	43838.23
560.46	44112.08
560.63	43981.01
560.79	44161.23
560.96	44596.57
561.12	43690.78
561.29	44137.82
561.45	43997.39
561.61	44074.63
561.78	44109.74
561.94	43976.33
562.11	43995.05
562.27	43620.56
562.44	43856.96
562.60	44655.08
562.77	44048.88
562.93	43880.36
563.10	44229.10
563.26	43758.66
563.42	44105.06
563.59	44399.96
563.75	44350.81
563.92	44725.30
564.08	44369.54
564.24	44552.10
564.41	44561.46
564.57	44390.60
564.74	44395.28
564.90	44463.16
565.07	44383.58
565.23	44186.97
565.39	44573.16
565.56	44495.92
565.72	43985.69
565.88	44453.79
566.05	44376.56
566.21	44311.02
566.38	44421.03
566.54	44374.22
566.70	44406.98
566.87	44655.08
567.03	44587.21
567.19	44680.83
567.36	44535.71
567.52	44336.77
567.68	44776.79
567.85	44168.25
568.01	44678.49
568.17	44196.34
568.34	44727.64
568.50	44634.02
568.66	44215.06
568.83	44671.46
568.99	44327.41
569.15	44917.22
569.32	44402.30
569.48	44226.76
569.64	44626.99
569.81	44737.00
569.97	44144.84
570.13	44830.62
570.30	44217.40
570.46	44453.79
570.62	44666.78
570.78	44502.95
570.95	44289.96
571.11	45045.95
571.27	44704.23
571.43	44203.36
571.60	45022.54
571.76	44547.42
571.92	44994.46
572.09	44891.48
572.25	44610.61
572.41	44512.31
572.57	44685.51
572.74	44917.22
572.90	45141.91
573.06	44825.94
573.22	44931.26
573.38	45001.48
573.55	44306.34
573.71	45137.23
573.87	44346.13
574.03	44549.76
574.20	44980.42
574.36	44336.77
574.52	44825.94
574.68	45130.21
574.84	44549.76
575.01	44996.80
575.17	44964.03
575.33	44776.79
575.49	44959.35
575.65	45102.12
575.82	45067.02
575.98	45071.70
576.14	45549.17
576.30	45202.77
576.46	44722.96
576.62	44839.98
576.79	44912.54
576.95	44659.76
577.11	45022.54
577.27	45029.57
577.43	45106.80
577.59	45050.63
577.75	44559.12
577.92	44425.71
578.08	44582.52
578.24	44809.56
578.40	44746.36
578.56	45071.70
578.72	45015.52
578.88	44910.20
579.04	45083.40
579.21	45116.17
579.37	45024.89
579.53	45144.25
579.69	44872.75
579.85	44797.85
580.01	44737.00
580.17	45277.66
580.33	45104.46
580.49	45134.89
580.65	44949.99
580.82	45219.15
580.98	44898.50
581.14	44851.69
581.30	45235.53
581.46	45041.27
581.62	44898.50
581.78	45315.11
581.94	45258.94
582.10	44666.78
582.26	45029.57
582.42	44928.92
582.58	44931.26
582.74	44882.11
582.90	45408.73
583.06	45497.67
583.22	45038.93
583.38	45249.58
583.54	45488.31
583.70	44814.24
583.86	44636.36
584.02	44921.90
584.18	44870.41
584.34	45265.96
584.50	45092.76
584.66	44921.90
584.82	45062.33
584.98	45661.51
585.14	44957.01
585.30	44577.84
585.46	45041.27
585.62	44641.04
585.78	45188.72
585.94	44718.28
586.10	44776.79
586.26	44886.79
586.42	44994.46
586.58	45184.04
586.74	45006.16
586.90	45223.83
587.06	45006.16
587.22	45364.26
587.38	44659.76
587.54	45322.13
587.70	45247.24
587.86	44905.52
588.02	45315.11
588.18	45184.04
588.34	44954.67
588.49	44652.74
588.65	44594.23
588.81	45088.08
588.97	44718.28
589.13	44500.61
589.29	45003.82
589.45	45024.89
589.61	45247.24
589.77	45200.43
589.93	45249.58
590.08	45181.70
590.24	45373.63
