SpectraSuite Data File
++++++++++++++++++++++++++++++++++++
Date: Fri Oct 25 10:43:52 EDT 2013
User: price-jones
Dark Spectrum Present: No
Reference Spectrum Present: No
Number of Sampled Component Spectra: 1
Spectrometers: USB2+H05261
Integration Time (usec): 100000 (USB2+H05261)
Spectra Averaged: 1 (USB2+H05261)
Boxcar Smoothing: 0 (USB2+H05261)
Correct for Electrical Dark: No (USB2+H05261)
Strobe/Lamp Enabled: No (USB2+H05261)
Correct for Detector Non-linearity: No (USB2+H05261)
Correct for Stray Light: No (USB2+H05261)
Number of Pixels in Processed Spectrum: 2048
>>>>>Begin Processed Spectral Data<<<<<
365.73	131.07
365.92	131.07
366.12	131.07
366.32	42.13
366.52	63.19
366.72	28.09
366.91	30.43
367.11	0.00
367.31	0.00
367.51	28.09
367.70	4.68
367.90	98.30
368.10	51.49
368.30	30.43
368.49	0.00
368.69	44.47
368.89	63.19
369.09	0.00
369.28	0.00
369.48	0.00
369.68	21.06
369.87	56.17
370.07	112.35
370.27	149.79
370.47	220.01
370.66	297.25
370.86	458.74
371.06	475.13
371.25	447.04
371.45	484.49
371.65	479.81
371.84	545.34
372.04	421.30
372.24	437.68
372.44	470.45
372.63	545.34
372.83	554.71
373.03	507.90
373.22	550.03
373.42	514.92
373.62	514.92
373.81	512.58
374.01	510.24
374.21	617.90
374.40	592.16
374.60	648.33
374.79	580.45
374.99	477.47
375.19	500.87
375.38	603.86
375.58	585.13
375.78	645.99
375.97	568.75
376.17	636.63
376.37	669.39
376.56	622.58
376.76	615.56
376.95	582.79
377.15	669.39
377.35	704.50
377.54	610.88
377.74	627.26
377.93	674.07
378.13	702.16
378.33	664.71
378.52	702.16
378.72	664.71
378.91	653.01
379.11	678.76
379.31	643.65
379.50	669.39
379.70	727.91
379.89	688.12
380.09	685.78
380.28	688.12
380.48	711.52
380.68	662.37
380.87	613.22
381.07	767.70
381.26	739.61
381.46	695.14
381.65	819.19
381.85	683.44
382.04	746.63
382.24	751.31
382.43	713.86
382.63	753.65
382.83	699.82
383.02	695.14
383.22	765.36
383.41	697.48
383.61	791.10
383.80	784.08
384.00	786.42
384.19	746.63
384.39	709.18
384.58	732.59
384.78	772.38
384.97	805.14
385.17	819.19
385.36	875.36
385.56	896.43
385.75	826.21
385.95	828.55
386.14	842.59
386.34	898.77
386.53	910.47
386.72	866.00
386.92	840.25
387.11	882.38
387.31	866.00
387.50	868.34
387.70	877.70
387.89	847.27
388.09	884.72
388.28	997.07
388.48	877.70
388.67	901.11
388.86	968.98
389.06	926.85
389.25	985.37
389.45	976.00
389.64	1036.86
389.84	997.07
390.03	1036.86
390.22	968.98
390.42	910.47
390.61	1025.15
390.81	1006.43
391.00	1125.80
391.19	1104.73
391.39	1041.54
391.58	1032.18
391.78	1046.22
391.97	1011.11
392.16	1130.48
392.36	1001.75
392.55	1121.12
392.75	1090.69
392.94	968.98
393.13	929.19
393.33	933.87
393.52	1111.75
393.71	1046.22
393.91	1181.97
394.10	1130.48
394.29	1231.12
394.49	1193.67
394.68	1219.42
394.88	1296.66
395.07	1235.80
395.26	1196.01
395.46	1268.57
395.65	1249.85
395.84	1259.21
396.04	1179.63
396.23	1224.10
396.42	1104.73
396.62	1252.19
396.81	1188.99
397.00	1268.57
397.19	1252.19
397.39	1432.41
397.58	1446.45
397.77	1385.60
397.97	1394.96
398.16	1371.55
398.35	1561.14
398.55	1411.34
398.74	1472.20
398.93	1617.31
399.12	1493.26
399.32	1535.39
399.51	1521.35
399.70	1643.06
399.90	1621.99
400.09	1619.65
400.28	1605.61
400.47	1739.02
400.67	1671.14
400.86	1617.31
401.05	1678.16
401.24	1757.74
401.44	1727.32
401.63	1771.79
401.82	1767.10
402.01	1682.85
402.21	1785.83
402.40	1753.06
402.59	1849.02
402.78	1732.00
402.97	1811.57
403.17	1827.96
403.36	1858.39
403.55	1813.92
403.74	1900.52
403.93	1907.54
404.13	1935.62
404.32	1863.07
404.51	1898.17
404.70	1860.73
404.89	1888.81
405.09	2064.35
405.28	2012.86
405.47	2057.33
405.66	1949.67
405.85	2015.20
406.05	2078.40
406.24	2111.16
406.43	2118.18
406.62	2097.12
406.81	2221.17
407.00	2092.44
407.20	2230.53
407.39	2221.17
407.58	2139.25
407.77	2235.21
407.96	2314.79
408.15	2279.68
408.34	2190.74
408.54	2244.57
408.73	2298.41
408.92	2375.64
409.11	2335.85
409.30	2282.02
409.49	2356.92
409.68	2218.83
409.87	2150.95
410.07	2408.41
410.26	2387.35
410.45	2469.27
410.64	2457.56
410.83	2434.16
411.02	2600.34
411.21	2722.04
411.40	2527.78
411.59	2590.97
411.78	2658.85
411.98	2708.00
412.17	2731.41
412.36	2719.70
412.55	2829.71
412.74	2988.86
412.93	2766.51
413.12	2708.00
413.31	2958.44
413.50	2923.33
413.69	2897.58
413.88	2984.18
414.07	2899.92
414.26	3056.74
414.45	3115.25
414.64	3012.27
414.83	3014.61
415.02	3183.13
415.22	3220.58
415.41	3208.87
415.60	3143.34
415.79	3133.98
415.98	3302.50
416.17	3339.94
416.36	3309.52
416.55	3384.41
416.74	3344.63
416.93	3353.99
417.12	3311.86
417.31	3407.82
417.50	3363.35
417.69	3459.31
417.88	3562.30
418.07	3485.06
418.26	3550.59
418.45	3686.34
418.64	3737.84
418.83	3712.09
419.02	3698.05
419.21	3674.64
419.39	3702.73
419.58	3641.87
419.77	3630.17
419.96	3702.73
420.15	3740.18
420.34	3606.77
420.53	3667.62
420.72	3899.33
420.91	3873.59
421.10	4049.13
421.29	4011.68
421.48	3894.65
421.67	4051.47
421.86	3936.78
422.05	4053.81
422.24	3852.52
422.43	3894.65
422.61	3854.86
422.80	3967.21
422.99	3950.82
423.18	3943.80
423.37	4077.21
423.56	4088.92
423.75	4107.64
423.94	4021.04
424.13	3756.56
424.32	3880.61
424.50	4014.02
424.69	4065.51
424.88	4133.39
425.07	4016.36
425.26	3934.44
425.45	4077.21
425.64	4070.19
425.83	4065.51
426.01	4067.85
426.20	4025.72
426.39	4210.62
426.58	4044.45
426.77	3978.91
426.96	3934.44
427.15	4070.19
427.33	4217.65
427.52	4131.05
427.71	4243.39
427.90	4184.88
428.09	4273.82
428.28	4219.99
428.46	4217.65
428.65	4318.29
428.84	4379.14
429.03	4458.72
429.22	4131.05
429.40	4194.24
429.59	4191.90
429.78	3941.46
429.97	4168.49
430.16	4147.43
430.34	4278.50
430.53	4355.74
430.72	4215.30
430.91	4250.41
431.10	4381.48
431.28	4620.22
431.47	4737.24
431.66	4784.06
431.85	4589.79
432.03	4720.86
432.22	4737.24
432.41	4723.20
432.60	4732.56
432.79	4791.08
432.97	4929.17
433.16	4826.18
433.35	4610.86
433.54	4770.01
433.72	4667.03
433.91	4868.31
434.10	4795.76
434.28	4774.69
434.47	5001.72
434.66	4978.32
434.85	4922.15
435.03	5100.03
435.22	5034.49
435.41	5153.86
435.59	5153.86
435.78	5149.18
435.97	5184.29
436.16	5245.14
436.34	5186.63
436.53	5305.99
436.72	5495.58
436.90	5277.91
437.09	5263.86
437.28	5273.23
437.46	5210.03
437.65	5320.04
437.84	5284.93
438.02	5256.84
438.21	5301.31
438.40	5359.83
438.58	5523.66
438.77	5540.05
438.96	5523.66
439.14	5610.26
439.33	5811.55
439.52	5554.09
439.70	5734.31
439.89	5701.54
440.08	5820.91
440.26	5582.18
440.45	5853.68
440.63	5914.53
440.82	6005.81
441.01	6024.54
441.19	6141.57
441.38	6193.06
441.57	6097.10
441.75	6253.91
441.94	6239.87
442.12	6338.17
442.31	6483.28
442.50	6487.96
442.68	6396.68
442.87	6574.56
443.05	6509.03
443.24	6607.33
443.43	6438.81
443.61	6619.04
443.80	6679.89
443.98	6548.82
444.17	6368.60
444.35	6665.85
444.54	6813.30
444.73	6534.78
444.91	6665.85
445.10	6509.03
445.28	6745.42
445.47	6427.11
445.65	6340.51
445.84	6729.04
446.02	6745.42
446.21	6745.42
446.39	6712.66
446.58	6677.55
446.77	6792.23
446.95	6736.06
447.14	6806.28
447.32	6850.75
447.51	6853.09
447.69	6707.98
447.88	6878.83
448.06	6803.94
448.25	6801.60
448.43	6820.32
448.62	6906.92
448.80	6803.94
448.99	6965.43
449.17	7101.19
449.36	7005.22
449.54	7138.63
449.73	7075.44
449.91	7300.13
450.10	7358.64
450.28	7323.54
450.46	7180.76
450.65	7290.77
450.83	7398.43
451.02	7372.69
451.20	7321.20
451.39	7536.52
451.57	7309.49
451.76	7431.20
451.94	7241.62
452.13	7595.04
452.31	7208.85
452.49	7215.87
452.68	7314.17
452.86	7246.30
453.05	7344.60
453.23	7499.08
453.42	7482.69
453.60	7440.56
453.78	7634.83
453.97	7611.42
454.15	7499.08
454.34	7630.15
454.52	7674.62
454.70	7630.15
454.89	7922.71
455.07	7648.87
455.26	7852.50
455.44	7826.75
455.62	7981.23
455.81	8084.21
455.99	8025.70
456.17	8072.51
456.36	7892.29
456.54	8173.15
456.73	8177.83
456.91	8339.33
457.09	8365.07
457.28	8390.82
457.46	8126.34
457.64	8461.04
457.83	8271.45
458.01	8037.40
458.19	8486.78
458.38	8100.59
458.56	8603.81
458.74	8458.70
458.93	8390.82
459.11	8514.87
459.29	8446.99
459.48	8554.66
459.66	8486.78
459.84	8559.34
460.03	8915.10
460.21	8685.73
460.39	8800.41
460.57	8585.08
460.76	8720.84
460.94	8744.24
461.12	8657.64
461.31	8762.97
461.49	8784.03
461.67	8819.14
461.85	9074.26
462.04	8791.05
462.22	9125.75
462.40	8926.80
462.59	9198.31
462.77	8980.64
462.95	9121.07
463.13	9158.52
463.32	8982.98
463.50	8973.61
463.68	9469.81
463.86	9226.39
464.05	9039.15
464.23	8959.57
464.41	9200.65
464.59	9165.54
464.78	9586.83
464.96	9364.48
465.14	9097.66
465.32	9411.29
465.50	9680.46
465.69	9516.62
465.87	9497.89
466.05	9390.23
466.23	9348.10
466.41	9364.48
466.60	9710.88
466.78	9474.49
466.96	9533.00
467.14	9322.35
467.32	9366.82
467.51	9542.36
467.69	9570.45
467.87	9771.74
468.05	9720.24
468.23	9851.31
468.41	9678.12
468.60	9872.38
468.78	9958.98
468.96	9584.49
469.14	9984.73
469.32	9902.81
469.50	9495.55
469.69	9851.31
469.87	10132.18
470.05	10139.20
470.23	10214.10
470.41	9937.91
470.59	10221.12
470.77	10127.50
470.95	10178.99
471.14	10181.33
471.32	10366.23
471.50	10532.41
471.68	10576.88
471.86	10462.19
472.04	10647.10
472.22	10787.53
472.40	10429.43
472.58	10473.90
472.77	10607.31
472.95	10972.43
473.13	11105.84
473.31	10490.28
473.49	10792.21
473.67	10724.33
473.85	10963.07
474.03	10972.43
474.21	11197.12
474.39	11199.46
474.57	11272.02
474.75	11360.96
474.93	11386.71
475.12	11452.24
475.30	11599.70
475.48	11637.14
475.66	11360.96
475.84	11587.99
476.02	11721.40
476.20	11604.38
476.38	11716.72
476.56	12119.29
476.74	12128.66
476.92	11978.86
477.10	12063.12
477.28	12336.96
477.46	12226.96
477.64	12496.12
477.82	12402.50
478.00	12762.94
478.18	13041.46
478.36	12765.28
478.54	13029.76
478.72	12870.61
478.90	13163.17
479.08	13268.50
479.26	13502.55
479.44	13104.66
479.62	13685.11
479.80	13600.85
479.98	13575.11
480.16	13879.38
480.34	13675.75
480.52	13919.17
480.70	13984.70
480.88	13802.14
481.06	14061.94
481.24	14408.34
481.41	14471.53
481.59	14663.46
481.77	14546.43
481.95	14541.75
482.13	15026.24
482.31	14991.13
482.49	15101.14
482.67	15225.18
482.85	15300.08
483.03	15651.16
483.21	15618.39
483.39	15672.23
483.57	15716.70
483.74	15817.34
483.92	15749.46
484.10	16018.63
484.28	15941.39
484.46	16566.31
484.64	16341.62
484.82	16414.18
485.00	16711.42
485.18	16582.70
485.35	16718.45
485.53	16695.04
485.71	16453.97
485.89	16472.69
486.07	16517.16
486.25	16926.75
486.43	17186.55
486.61	17322.30
486.78	17668.70
486.96	17451.03
487.14	18200.01
487.32	18078.30
487.50	18251.50
487.68	18569.81
487.85	18747.69
488.03	18977.06
488.21	19040.26
488.39	18984.09
488.57	19068.34
488.75	19204.10
488.92	19452.19
489.10	19587.94
489.28	19751.78
489.46	19983.49
489.64	19758.80
489.81	20568.63
489.99	20498.41
490.17	20407.13
490.35	20786.30
490.53	20442.24
490.70	21046.10
490.88	20982.90
491.06	21071.84
491.24	21135.04
491.41	20971.20
491.59	21053.12
491.77	21420.58
491.95	21240.36
492.13	21710.81
492.30	21935.50
492.48	22244.45
492.66	22036.14
492.84	22190.62
493.01	22480.85
493.19	22623.62
493.37	22913.84
493.54	22768.73
493.72	23089.38
493.90	23073.00
494.08	23735.37
494.25	23555.15
494.43	23740.05
494.61	23545.79
494.79	23726.01
494.96	23716.65
495.14	24156.67
495.32	24205.82
495.49	24554.56
495.67	24397.74
495.85	24496.05
496.02	24706.70
496.20	24812.02
496.38	25216.93
496.55	25142.03
496.73	25406.52
496.91	24978.20
497.09	25256.72
497.26	25642.91
497.44	25514.18
497.62	25336.30
497.79	25689.72
497.97	25507.16
498.14	25883.98
498.32	25823.13
498.50	26267.83
498.67	26431.67
498.85	26082.93
499.03	26597.85
499.20	26607.21
499.38	26768.71
499.56	26733.60
499.73	26668.06
499.91	27049.57
500.08	27239.15
500.26	26719.56
500.44	27372.57
500.61	27178.30
500.79	26675.09
500.97	27124.47
501.14	27379.59
501.32	27892.16
501.49	27311.71
501.67	27662.79
501.84	27868.76
502.02	27983.44
502.20	28418.78
502.37	28180.05
502.55	28168.35
502.72	28481.98
502.90	28528.79
503.07	28589.64
503.25	28671.56
503.43	28280.69
503.60	28847.10
503.78	28374.31
503.95	28725.39
504.13	28922.00
504.30	28945.41
504.48	28936.04
504.65	29614.80
504.83	29722.46
505.01	29455.64
505.18	29589.05
505.36	29818.42
505.53	29809.06
505.71	30061.84
505.88	30464.41
506.06	30295.89
506.23	30099.29
506.41	29827.79
506.58	30433.99
506.76	30298.23
506.93	30541.65
507.11	30635.27
507.28	30354.41
507.46	30471.43
507.63	30604.84
507.81	30504.20
507.98	30558.03
508.16	30759.32
508.33	31419.35
508.50	31339.77
508.68	31138.49
508.85	31601.91
509.03	31676.81
509.20	31732.98
509.38	31639.36
509.55	31517.65
509.73	31859.37
509.90	31899.16
510.08	31957.67
510.25	32219.81
510.42	31688.51
510.60	32205.77
510.77	32318.12
510.95	32474.93
511.12	32348.54
511.30	32514.72
511.47	33003.89
511.64	32582.60
511.82	32950.06
511.99	32568.55
512.17	32809.63
512.34	33088.15
512.51	33301.14
512.69	33366.68
512.86	32828.35
513.04	33654.56
513.21	33406.47
513.38	33308.16
513.56	33275.40
513.73	33277.74
513.90	33525.83
514.08	33483.70
514.25	33848.83
514.43	33823.08
514.60	33586.69
514.77	33748.18
514.95	33970.54
515.12	34202.25
515.29	34120.33
515.47	34338.00
515.64	34380.13
515.81	34361.40
515.99	34192.89
516.16	34356.72
516.33	34473.75
516.51	34525.24
516.68	33867.55
516.85	33853.51
517.03	33741.16
517.20	34480.77
517.37	34761.64
517.54	35122.08
517.72	35105.70
517.89	34553.33
518.06	34724.19
518.24	34763.98
518.41	34955.90
518.58	35075.27
518.75	35089.31
518.93	35395.92
519.10	35562.10
519.27	35723.60
519.45	35613.59
519.62	35592.53
519.79	36072.34
519.96	36130.85
520.14	36121.49
520.31	35433.37
520.48	35859.35
520.65	36201.07
520.83	36463.21
521.00	36718.32
521.17	36292.35
521.34	36545.12
521.52	36409.37
521.69	36861.10
521.86	37055.36
522.03	37006.21
522.20	37020.25
522.38	36945.36
522.55	37017.91
522.72	36500.65
522.89	36744.07
523.07	36849.39
523.24	37127.92
523.41	37406.44
523.58	37366.65
523.75	38171.80
523.92	38003.28
524.10	37799.65
524.27	37935.40
524.44	37694.33
524.61	37724.75
524.78	37670.92
524.96	38361.38
525.13	38342.66
525.30	38099.24
525.47	38635.22
525.64	37975.19
525.81	37993.92
525.98	38429.26
526.16	37556.24
526.33	37556.24
526.50	37956.47
526.67	38024.34
526.84	37958.81
527.01	37586.66
527.18	38520.54
527.36	39070.56
527.53	38721.82
527.70	38986.30
527.87	38899.70
528.04	39063.54
528.21	39236.74
528.38	39531.65
528.55	39449.73
528.72	39454.41
528.89	39421.64
529.07	39571.44
529.24	39283.55
529.41	39566.76
529.58	39363.13
529.75	39304.62
529.92	39290.57
530.09	39681.44
530.26	39866.34
530.43	40011.46
530.60	39770.38
530.77	39831.24
530.94	39995.07
531.11	39962.31
531.28	40306.37
531.46	40060.61
531.63	40285.30
531.80	40194.02
531.97	39861.66
532.14	40411.69
532.31	39288.23
532.48	40027.84
532.65	40055.93
532.82	39620.59
532.99	40568.51
533.16	40098.06
533.33	40556.80
533.50	40722.98
533.67	40020.82
533.84	40465.52
534.01	40407.01
534.18	40137.85
534.35	40620.00
534.52	40776.81
534.69	41251.94
534.86	40889.16
535.03	41212.15
535.20	41387.69
535.37	42021.98
535.54	41890.91
535.71	41574.94
535.88	41537.49
536.05	40961.72
536.22	41221.52
536.38	40933.63
536.55	41359.61
536.72	41368.97
536.89	41038.95
537.06	41525.78
537.23	41471.95
537.40	41542.17
537.57	41928.36
537.74	41684.94
537.91	41928.36
538.08	41886.23
538.25	41537.49
538.42	41769.20
538.59	41928.36
538.75	41993.89
538.92	41837.08
539.09	41757.50
539.26	41617.07
539.43	41890.91
539.60	42436.25
539.77	41560.89
539.94	41869.84
540.11	41916.65
540.28	41869.84
540.44	42342.63
540.61	42005.59
540.78	41628.77
540.95	42157.73
541.12	41872.18
541.29	42019.64
541.46	42417.53
541.62	42286.46
541.79	42574.34
541.96	42092.19
542.13	42635.20
542.30	42813.08
542.47	42827.12
542.63	42480.72
542.80	42909.04
542.97	42993.30
543.14	43643.97
543.31	43372.47
543.48	43248.42
543.64	43761.00
543.81	43709.50
543.98	43421.62
544.15	42841.17
544.32	43227.35
544.48	44016.11
544.65	43473.11
544.82	43636.95
544.99	43400.55
545.16	43428.64
545.32	43571.41
545.49	43915.47
545.66	43955.26
545.83	44198.68
546.00	43999.73
546.16	44037.18
546.33	43597.16
546.50	43320.98
546.67	43737.59
546.83	43564.39
547.00	43803.13
547.17	43800.79
547.34	43964.62
547.50	43913.13
547.67	44236.12
547.84	44348.47
548.00	44666.78
548.17	44568.48
548.34	44137.82
548.51	44332.09
548.67	44189.31
548.84	44556.78
549.01	44091.01
549.18	44121.44
549.34	44318.04
549.51	44493.58
549.68	44257.19
549.84	44088.67
550.01	44531.03
550.18	44650.40
550.34	44114.42
550.51	44231.44
550.68	44648.06
550.84	44357.83
551.01	44638.70
551.18	44715.93
551.34	44809.56
551.51	44722.96
551.68	44968.71
551.84	44587.21
552.01	44680.83
552.18	45188.72
552.34	44348.47
552.51	44884.45
552.68	45174.68
552.84	44875.09
553.01	45055.31
553.18	44978.07
553.34	44957.01
553.51	45006.16
553.67	45017.86
553.84	45050.63
554.01	45492.99
554.17	45174.68
554.34	45670.87
554.51	45361.92
554.67	45553.85
554.84	45038.93
555.00	45069.36
555.17	45071.70
555.33	45134.89
555.50	45495.33
555.67	45268.30
555.83	45193.40
556.00	45177.02
556.16	45673.21
556.33	45270.64
556.50	45116.17
556.66	45556.19
556.83	45322.13
556.99	45471.93
557.16	45549.17
557.32	45900.25
557.49	45741.09
557.65	45633.42
557.82	45612.36
557.98	45879.18
558.15	45535.12
558.32	45825.35
558.48	45390.01
558.65	45654.49
558.81	45542.14
558.98	45537.46
559.14	45235.53
559.31	45497.67
559.47	45860.46
559.64	46113.23
559.80	45956.42
559.97	45705.98
560.13	45691.94
560.30	45495.33
560.46	45921.31
560.63	46110.89
560.79	45645.13
560.96	46246.65
561.12	45492.99
561.29	45558.53
561.45	45947.06
561.61	45897.91
561.78	45989.19
561.94	45544.48
562.11	45500.01
562.27	45977.48
562.44	45909.61
562.60	46143.66
562.77	46138.98
562.93	45818.33
563.10	46349.63
563.26	45837.05
563.42	45797.26
563.59	46028.98
563.75	45993.87
563.92	46501.76
564.08	46408.14
564.24	46064.08
564.41	45940.04
564.57	46190.47
564.74	45975.14
564.90	46157.70
565.07	46092.17
565.23	46071.10
565.39	46333.24
565.56	46639.86
565.72	46171.75
565.88	45787.90
566.05	45869.82
566.21	46143.66
566.38	46122.60
566.54	45897.91
566.70	46508.79
566.87	46438.57
567.03	46628.15
567.19	47206.26
567.36	46560.28
567.52	46131.96
567.68	46223.24
567.85	46014.93
568.01	46344.95
568.17	46103.87
568.34	46284.09
568.50	46363.67
568.66	46333.24
568.83	46410.48
568.99	45928.33
569.15	46202.18
569.32	46057.06
569.48	45958.76
569.64	46312.18
569.81	46735.82
569.97	46267.71
570.13	46043.02
570.30	46157.70
570.46	46146.00
570.62	46031.32
570.78	46248.99
570.95	46096.85
571.11	46607.09
571.27	45989.19
571.43	46366.01
571.60	46522.83
571.76	46223.24
571.92	46569.64
572.09	46855.18
572.25	46445.59
572.41	46738.16
572.57	46155.36
572.74	47047.11
572.90	46632.83
573.06	46883.27
573.22	46265.37
573.38	46536.87
573.55	46546.23
573.71	46438.57
573.87	46754.54
574.03	46632.83
574.20	46674.96
574.36	46742.84
574.52	46347.29
574.68	47114.98
574.84	46342.61
575.01	46398.78
575.17	46305.16
575.33	46080.47
575.49	45968.12
575.65	46789.65
575.82	46635.17
575.98	46658.58
576.14	46337.93
576.30	46642.20
576.46	46389.42
576.62	46328.56
576.79	46396.44
576.95	45944.72
577.11	46117.92
577.27	46698.37
577.43	46178.77
577.59	46096.85
577.75	46670.28
577.92	46059.40
578.08	46337.93
578.24	46555.60
578.40	46171.75
578.56	46380.06
578.72	46749.86
578.88	46328.56
579.04	46307.50
579.21	46473.68
579.37	46330.90
579.53	46639.86
579.69	46253.67
579.85	46777.95
580.01	46447.93
580.17	46349.63
580.33	46712.41
580.49	46607.09
580.65	46653.90
580.82	46775.61
580.98	46679.64
581.14	46244.30
581.30	46799.01
581.46	47014.34
581.62	46735.82
581.78	46983.91
581.94	46974.55
582.10	46754.54
582.26	46897.31
582.42	46625.81
582.58	46794.33
582.74	46569.64
582.90	46960.51
583.06	46927.74
583.22	46782.63
583.38	46979.23
583.54	46705.39
583.70	46459.63
583.86	46836.46
584.02	46714.75
584.18	46480.70
584.34	46555.60
584.50	46623.47
584.66	46508.79
584.82	46501.76
584.98	46941.78
585.14	46576.66
585.30	46646.88
585.46	46375.37
585.62	46466.66
585.78	46316.86
585.94	46464.32
586.10	46766.24
586.26	46368.35
586.42	46871.57
586.58	46747.52
586.74	46667.94
586.90	46960.51
587.06	46368.35
587.22	46590.70
587.38	46543.89
587.54	46904.34
587.70	46993.28
587.86	47206.26
588.02	46616.45
588.18	46405.80
588.34	46206.86
588.49	45855.78
588.65	46043.02
588.81	45972.80
588.97	46665.60
589.13	46450.27
589.29	46253.67
589.45	46181.11
589.61	46199.83
589.77	46820.08
589.93	46728.80
