SpectraSuite Data File
++++++++++++++++++++++++++++++++++++
Date: Fri Oct 25 11:22:29 EDT 2013
User: price-jones
Dark Spectrum Present: No
Reference Spectrum Present: No
Number of Sampled Component Spectra: 1
Spectrometers: USB2+H05261
Integration Time (usec): 100000 (USB2+H05261)
Spectra Averaged: 1 (USB2+H05261)
Boxcar Smoothing: 0 (USB2+H05261)
Correct for Electrical Dark: No (USB2+H05261)
Strobe/Lamp Enabled: No (USB2+H05261)
Correct for Detector Non-linearity: No (USB2+H05261)
Correct for Stray Light: No (USB2+H05261)
Number of Pixels in Processed Spectrum: 2048
>>>>>Begin Processed Spectral Data<<<<<
365.73	203.63
365.92	203.63
366.12	203.63
366.32	79.58
366.52	102.98
366.72	117.03
366.91	138.09
367.11	121.71
367.31	121.71
367.51	156.82
367.70	100.64
367.90	131.07
368.10	124.05
368.30	70.22
368.49	182.56
368.69	140.43
368.89	124.05
369.09	128.73
369.28	86.60
369.48	224.69
369.68	194.26
369.87	229.37
370.07	163.84
370.27	170.86
370.47	330.02
370.66	580.45
370.86	592.16
371.06	638.97
371.25	739.61
371.45	671.73
371.65	704.50
371.84	641.31
372.04	732.59
372.24	692.80
372.44	671.73
372.63	753.65
372.83	816.85
373.03	690.46
373.22	706.84
373.42	795.78
373.62	704.50
373.81	727.91
374.01	800.46
374.21	807.48
374.40	727.91
374.60	823.87
374.79	802.80
374.99	809.83
375.19	868.34
375.38	866.00
375.58	826.21
375.78	922.17
375.97	894.08
376.17	929.19
376.37	882.38
376.56	903.45
376.76	835.57
376.95	889.40
377.15	968.98
377.35	873.02
377.54	889.40
377.74	894.08
377.93	816.85
378.13	936.21
378.33	966.64
378.52	966.64
378.72	922.17
378.91	880.04
379.11	863.66
379.31	936.21
379.50	926.85
379.70	1018.13
379.89	1043.88
380.09	905.79
380.28	976.00
380.48	1008.77
380.68	912.81
380.87	964.30
381.07	1027.50
381.26	1057.92
381.46	1015.79
381.65	936.21
381.85	1064.94
382.04	1022.81
382.24	1121.12
382.43	1071.97
382.63	1107.07
382.83	1043.88
383.02	1121.12
383.22	1097.71
383.41	1046.22
383.61	1160.91
383.80	1221.76
384.00	1116.44
384.19	1170.27
384.39	1174.95
384.58	1135.16
384.78	1210.06
384.97	1142.18
385.17	1125.80
385.36	1125.80
385.56	1207.72
385.75	1191.33
385.95	1156.22
386.14	1205.38
386.34	1214.74
386.53	1188.99
386.72	1238.14
386.92	1259.21
387.11	1317.72
387.31	1214.74
387.50	1254.53
387.70	1170.27
387.89	1268.57
388.09	1256.87
388.28	1217.08
388.48	1315.38
388.67	1369.21
388.86	1322.40
389.06	1334.11
389.25	1291.98
389.45	1418.36
389.64	1345.81
389.84	1378.58
390.03	1329.42
390.22	1385.60
390.42	1460.49
390.61	1385.60
390.81	1472.20
391.00	1453.47
391.19	1416.02
391.39	1472.20
391.58	1465.18
391.78	1528.37
391.97	1490.92
392.16	1465.18
392.36	1607.95
392.55	1476.88
392.75	1633.69
392.94	1432.41
393.13	1652.42
393.33	1624.33
393.52	1577.52
393.71	1671.14
393.91	1579.86
394.10	1610.29
394.29	1530.71
394.49	1610.29
394.68	1659.44
394.88	1657.10
395.07	1727.32
395.26	1755.40
395.46	1685.19
395.65	1736.68
395.84	1799.87
396.04	1834.98
396.23	1701.57
396.42	1645.40
396.62	1877.11
396.81	1771.79
397.00	1722.63
397.19	1806.89
397.39	1816.26
397.58	1898.17
397.77	1846.68
397.97	1963.71
398.16	1895.83
398.35	1837.32
398.55	1902.86
398.74	1888.81
398.93	2019.88
399.12	1989.46
399.32	1933.28
399.51	1954.35
399.70	2008.18
399.90	2080.74
400.09	2125.21
400.28	2129.89
400.47	2069.03
400.67	2165.00
400.86	2129.89
401.05	2054.99
401.24	2111.16
401.44	2193.08
401.63	2157.97
401.82	2141.59
402.01	2029.24
402.21	2097.12
402.40	2160.31
402.59	2244.57
402.78	2132.23
402.97	2190.74
403.17	2403.73
403.36	2237.55
403.55	2242.23
403.74	2331.17
403.93	2289.04
404.13	2387.35
404.32	2434.16
404.51	2335.85
404.70	2417.77
404.89	2441.18
405.09	2537.14
405.28	2502.03
405.47	2466.92
405.66	2502.03
405.85	2581.61
406.05	2539.48
406.24	2597.99
406.43	2590.97
406.62	2614.38
406.81	2651.83
407.00	2651.83
407.20	2661.19
407.39	2609.70
407.58	2771.19
407.77	2773.53
407.96	2864.82
408.15	2771.19
408.34	2836.73
408.54	2710.34
408.73	2820.35
408.92	2867.16
409.11	2888.22
409.30	2864.82
409.49	2892.90
409.68	2979.50
409.87	2956.10
410.07	3110.57
410.26	2946.73
410.45	3000.57
410.64	3063.76
410.83	3033.33
411.02	3101.21
411.21	3241.64
411.40	3162.06
411.59	3281.43
411.78	3208.87
411.98	3206.53
412.17	3363.35
412.36	3276.75
412.55	3438.25
412.74	3417.18
412.93	3421.86
413.12	3452.29
413.31	3709.75
413.50	3559.95
413.69	3658.26
413.88	3665.28
414.07	3618.47
414.26	3695.71
414.45	3620.81
414.64	3763.58
414.83	3756.56
415.02	3838.48
415.22	3761.24
415.41	3950.82
415.60	3889.97
415.79	3943.80
415.98	3932.10
416.17	3964.87
416.36	3936.78
416.55	4023.38
416.74	4152.11
416.93	4030.40
417.12	4098.28
417.31	4259.78
417.50	4205.94
417.69	4189.56
417.88	4463.40
418.07	4175.52
418.26	4325.31
418.45	4409.57
418.64	4559.36
418.83	4491.49
419.02	4599.15
419.21	4470.42
419.39	4643.62
419.58	4573.41
419.77	4512.55
419.96	4657.67
420.15	4674.05
420.34	4599.15
420.53	4777.03
420.72	4980.66
420.91	4880.02
421.10	4940.87
421.29	4891.72
421.48	4615.54
421.67	4809.80
421.86	4891.72
422.05	4807.46
422.24	4908.10
422.43	4901.08
422.61	4917.47
422.80	5095.35
422.99	5039.17
423.18	5095.35
423.37	5114.07
423.56	4971.30
423.75	4924.49
423.94	4898.74
424.13	4561.70
424.32	4821.50
424.50	5039.17
424.69	5177.26
424.88	5121.09
425.07	5076.62
425.26	5256.84
425.45	4952.57
425.64	4926.83
425.83	4975.98
426.01	5329.40
426.20	5163.22
426.39	4978.32
426.58	5125.77
426.77	5128.11
426.96	5137.48
427.15	5310.68
427.33	5195.99
427.52	5247.48
427.71	5329.40
427.90	5345.78
428.09	5390.25
428.28	5509.62
428.46	5348.12
428.65	5423.02
428.84	5472.17
429.03	5575.16
429.22	5423.02
429.40	5493.24
429.59	5561.11
429.78	5397.28
429.97	5378.55
430.16	5507.28
430.34	5469.83
430.53	5809.21
430.72	5785.80
430.91	5633.67
431.10	5558.77
431.28	5666.44
431.47	5977.73
431.66	6071.35
431.85	5893.47
432.03	5996.45
432.22	5895.81
432.41	6040.92
432.60	6054.97
432.79	5921.56
432.97	6092.41
433.16	6239.87
433.35	6054.97
433.54	6073.69
433.72	6312.42
433.91	6230.51
434.10	6251.57
434.28	6120.50
434.47	6097.10
434.66	6345.19
434.85	6223.48
435.03	6340.51
435.22	6251.57
435.41	6628.40
435.59	6537.12
435.78	6530.09
435.97	6424.77
436.16	6565.20
436.34	6499.67
436.53	6604.99
436.72	6731.38
436.90	6565.20
437.09	6642.44
437.28	6647.12
437.46	6759.47
437.65	6656.48
437.84	7023.95
438.02	6850.75
438.21	6785.21
438.40	6848.41
438.58	6993.52
438.77	7068.42
438.96	7157.36
439.14	7087.14
439.33	7150.34
439.52	7307.15
439.70	7353.96
439.89	7440.56
440.08	7318.86
440.26	7473.33
440.45	7485.03
440.63	7606.74
440.82	7740.15
441.01	7630.15
441.19	7632.49
441.38	7712.07
441.57	7941.44
441.75	7906.33
441.94	7878.24
442.12	7896.97
442.31	8049.10
442.50	8234.00
442.68	8175.49
442.87	8063.15
443.05	8243.37
443.24	8306.56
443.43	8360.39
443.61	8248.05
443.80	8641.26
443.98	8184.85
444.17	8093.57
444.35	8421.25
444.54	8458.70
444.73	8329.97
444.91	8306.56
445.10	8575.72
445.28	8629.56
445.47	8568.70
445.65	8439.97
445.84	8657.64
446.02	8439.97
446.21	8561.68
446.39	8557.00
446.58	8498.49
446.77	8844.88
446.95	8402.52
447.14	8622.53
447.32	8807.44
447.51	8655.30
447.69	8535.93
447.88	8751.26
448.06	8463.38
448.25	8636.58
448.43	8514.87
448.62	8636.58
448.80	8624.87
448.99	8720.84
449.17	8868.29
449.36	8599.13
449.54	8889.35
449.73	8800.41
449.91	9025.11
450.10	8947.87
450.28	9125.75
450.46	9207.67
450.65	9315.33
450.83	9074.26
451.02	9090.64
451.20	9345.76
451.39	9425.34
451.57	9275.54
451.76	9210.01
451.94	9202.99
452.13	9385.55
452.31	9343.42
452.49	9376.19
452.68	9451.08
452.86	9516.62
453.05	9598.54
453.23	9547.05
453.42	9460.45
453.60	9394.91
453.78	9680.46
453.97	9467.47
454.15	9460.45
454.34	9633.64
454.52	9853.66
454.70	9685.14
454.89	9865.36
455.07	9848.97
455.26	9926.21
455.44	10244.52
455.62	10141.54
455.81	10118.14
455.99	10003.45
456.17	10129.84
456.36	10200.05
456.54	10464.54
456.73	10384.96
456.91	10490.28
457.09	10471.56
457.28	10824.98
457.46	10377.94
457.64	10733.70
457.83	10647.10
458.01	10555.82
458.19	10839.02
458.38	10883.49
458.56	10743.06
458.74	10862.43
458.93	10721.99
459.11	10827.32
459.29	10775.83
459.48	10754.76
459.66	10902.22
459.84	10923.28
460.03	11143.29
460.21	11204.14
460.39	11044.99
460.57	11162.01
460.76	11169.04
460.94	11248.61
461.12	11316.49
461.31	11426.50
461.49	11325.85
461.67	11098.82
461.85	11527.14
462.04	11630.12
462.22	11587.99
462.40	11836.09
462.59	11550.54
462.77	11611.40
462.95	11693.32
463.13	11878.22
463.32	11899.28
463.50	12145.04
463.68	11962.48
463.86	12006.95
464.05	11896.94
464.23	11805.66
464.41	11929.71
464.59	11768.21
464.78	12367.39
464.96	12313.56
465.14	12121.63
465.32	12269.09
465.50	12212.92
465.69	12503.14
465.87	12262.07
466.05	12329.94
466.23	12226.96
466.41	12334.62
466.60	12683.36
466.78	12292.49
466.96	12243.34
467.14	12339.30
467.32	12709.11
467.51	12479.74
467.69	12280.79
467.87	12418.88
468.05	13090.62
468.23	12898.69
468.41	12496.12
468.60	12669.32
468.78	12936.14
468.96	12587.40
469.14	13078.91
469.32	13263.82
469.50	12666.98
469.69	13221.69
469.87	13116.36
470.05	13266.16
470.23	13329.35
470.41	13305.95
470.59	13315.31
470.77	13249.77
470.95	13666.39
471.14	13680.43
471.32	13429.99
471.50	13830.23
471.68	13701.50
471.86	13694.47
472.04	13668.73
472.22	14377.91
472.40	14010.45
472.58	14085.34
472.77	14345.14
472.95	14295.99
473.13	14677.50
473.31	14256.20
473.49	14265.57
473.67	14223.44
473.85	14328.76
474.03	14815.59
474.21	14764.10
474.39	14670.48
474.57	14925.60
474.75	15229.87
474.93	15220.50
475.12	15187.74
475.30	15412.43
475.48	14979.43
475.66	15473.28
475.84	15302.42
476.02	15637.12
476.20	15620.74
476.38	15831.38
476.56	16269.06
476.74	16231.62
476.92	16058.42
477.10	16107.57
477.28	16322.90
477.46	16313.53
477.64	16266.72
477.82	16744.19
478.00	17228.68
478.18	16975.91
478.36	17427.63
478.54	17315.28
478.72	17174.85
478.90	17657.00
479.08	17837.22
479.26	17886.37
479.44	17921.48
479.62	18085.32
479.80	18312.35
479.98	18492.57
480.16	18857.70
480.34	18668.11
480.52	18775.78
480.70	19051.96
480.88	18693.86
481.06	18911.53
481.24	19438.15
481.41	19264.95
481.59	19623.05
481.77	19756.46
481.95	19833.70
482.13	20135.63
482.31	20105.20
482.49	20397.77
482.67	20484.37
482.85	20652.89
483.03	20926.73
483.21	20978.22
483.39	20861.19
483.57	21116.31
483.74	21568.04
483.92	21858.26
484.10	21474.42
484.28	21671.02
484.46	22141.47
484.64	22682.13
484.82	22424.67
485.00	22668.09
485.18	23065.98
485.35	23625.37
485.53	23377.27
485.71	23552.81
485.89	23840.70
486.07	23517.70
486.25	23590.26
486.43	24013.90
486.61	24219.86
486.78	24486.68
486.96	24453.92
487.14	24596.69
487.32	24622.44
487.50	25308.21
487.68	25401.83
487.85	25546.95
488.03	25741.21
488.21	26085.27
488.39	25991.65
488.57	26618.91
488.75	26897.44
488.92	26881.05
489.10	26953.61
489.28	26918.50
489.46	27386.61
489.64	27456.82
489.81	28058.34
489.99	28109.83
490.17	27915.57
490.35	28404.74
490.53	28519.43
490.70	28257.29
490.88	28720.71
491.06	28914.98
491.24	29507.13
491.41	29640.54
491.59	29596.07
491.77	29722.46
491.95	29947.15
492.13	30377.81
492.30	30438.67
492.48	30520.59
492.66	30686.76
492.84	30703.15
493.01	30923.16
493.19	31337.43
493.37	31445.10
493.54	31707.24
493.72	32023.21
493.90	32156.62
494.08	32437.48
494.25	32521.74
494.43	32266.63
494.61	32774.52
494.79	32903.25
494.96	33062.41
495.14	33291.78
495.32	33141.99
495.49	33488.38
495.67	33432.21
495.85	33787.97
496.02	34157.78
496.20	34120.33
496.38	34249.06
496.55	34885.68
496.73	35026.12
496.91	34714.83
497.09	35159.53
497.26	35346.77
497.44	35585.50
497.62	36161.28
497.79	36238.51
497.97	35681.47
498.14	36570.87
498.32	36622.36
498.50	36491.29
498.67	36835.35
498.85	36943.02
499.03	37067.06
499.20	37251.97
499.38	37256.65
499.56	37703.69
499.73	37619.43
499.91	37921.36
500.08	38471.39
500.26	37773.91
500.44	38246.69
500.61	38398.83
500.79	38284.14
500.97	38251.38
501.14	39260.15
501.32	39337.38
501.49	39103.33
501.67	39152.48
501.84	39419.30
502.02	39716.55
502.20	39864.00
502.37	39723.57
502.55	39627.61
502.72	39885.07
502.90	39426.32
503.07	39765.70
503.25	40528.72
503.43	40348.50
503.60	40804.90
503.78	40765.11
503.95	41083.42
504.13	40804.90
504.30	41034.27
504.48	40823.62
504.65	41570.25
504.83	41982.19
505.01	41722.39
505.18	41315.14
505.36	42068.79
505.53	41862.82
505.71	42443.27
505.88	42504.13
506.06	42019.64
506.23	42120.28
506.41	42494.77
506.58	42789.67
506.76	42799.04
506.93	43145.44
507.11	42965.21
507.28	42806.06
507.46	43157.14
507.63	43730.57
507.81	43648.65
507.98	43222.67
508.16	43871.00
508.33	44051.22
508.50	43629.93
508.68	44479.54
508.85	44353.15
509.03	44250.17
509.20	44531.03
509.38	45202.77
509.55	45432.14
509.73	45230.85
509.90	44858.71
510.08	45057.65
510.25	45251.92
510.42	45214.47
510.60	45673.21
510.77	45404.05
510.95	46274.73
511.12	45755.13
511.30	45544.48
511.47	45752.79
511.64	45902.59
511.82	46476.02
511.99	46146.00
512.17	46511.13
512.34	46691.35
512.51	46588.36
512.69	47002.64
512.86	46930.08
513.04	47114.98
513.21	47056.47
513.38	47058.81
513.56	47779.70
513.73	47173.50
513.90	47536.28
514.08	47695.44
514.25	47501.17
514.43	48390.58
514.60	48030.13
514.77	47849.91
514.95	48116.73
515.12	47505.85
515.29	47821.83
515.47	48638.67
515.64	48465.47
515.81	48516.96
515.99	48680.80
516.16	49125.50
516.33	48830.60
516.51	49570.21
516.68	49155.93
516.85	48905.49
517.03	49539.78
517.20	49523.40
517.37	49059.97
517.54	49425.09
517.72	49563.18
517.89	49680.21
518.06	49450.84
518.24	49441.48
518.41	49605.31
518.58	50148.32
518.75	49968.10
518.93	49902.56
519.10	50106.19
519.27	49820.64
519.45	50468.97
519.62	50443.23
519.79	50483.01
519.96	50574.30
520.14	50834.10
520.31	50595.36
520.48	51070.49
520.65	50696.00
520.83	51428.59
521.00	50932.40
521.17	51021.34
521.34	51309.22
521.52	51302.20
521.69	51346.67
521.86	51302.20
522.03	51400.50
522.20	51758.61
522.38	51894.36
522.55	51980.96
522.72	51814.78
522.89	51622.86
523.07	52343.74
523.24	51927.13
523.41	52179.90
523.58	51819.46
523.75	52608.22
523.92	52364.81
524.10	52596.52
524.27	52685.46
524.44	52594.18
524.61	52219.69
524.78	52456.09
524.96	52559.07
525.13	52575.45
525.30	52603.54
525.47	52758.02
525.64	52858.66
525.81	53195.70
525.98	53165.27
526.16	52884.40
526.33	53368.90
526.50	53141.86
526.67	53272.93
526.84	53226.12
527.01	53013.13
527.18	53347.83
527.36	53546.78
527.53	53415.71
527.70	53928.28
527.87	53820.62
528.04	53521.03
528.21	54040.63
528.38	53890.83
528.55	54017.22
528.72	53528.05
528.89	53839.34
529.07	53949.35
529.24	53949.35
529.41	54202.13
529.58	53855.73
529.75	54019.56
529.92	54010.20
530.09	54239.57
530.26	54211.49
530.43	54440.86
530.60	54248.94
530.77	54082.76
530.94	54506.40
531.11	54557.89
531.28	54518.10
531.46	54438.52
531.63	54920.67
531.80	54925.35
531.97	55075.15
532.14	54981.52
532.31	54838.75
532.48	54880.88
532.65	55222.60
532.82	54850.45
532.99	55257.71
533.16	54932.37
533.33	55250.69
533.50	55545.59
533.67	55313.88
533.84	55079.83
534.01	55320.90
534.18	55440.27
534.35	55760.92
534.52	55491.76
534.69	55341.97
534.86	55522.19
535.03	55426.23
535.20	55473.04
535.37	55845.18
535.54	55810.07
535.71	55716.45
535.88	55859.23
536.05	55964.55
536.22	56088.60
536.38	55983.27
536.55	56097.96
536.72	56072.21
536.89	55573.68
537.06	56095.62
537.23	56011.36
537.40	55985.61
537.57	56140.09
537.74	56191.58
537.91	56320.31
538.08	56179.88
538.25	56158.81
538.42	56507.55
538.59	56589.47
538.75	56301.59
538.92	56374.14
539.09	56643.30
539.26	56725.22
539.43	56545.00
539.60	56732.25
539.77	56479.47
539.94	56858.63
540.11	56746.29
540.28	56989.70
540.44	56542.66
540.61	56818.84
540.78	56722.88
540.95	56673.73
541.12	56837.57
541.29	56896.08
541.46	56945.23
541.62	56849.27
541.79	57137.16
541.96	56687.78
542.13	56863.32
542.30	57034.17
542.47	57148.86
542.63	57148.86
542.80	56872.68
542.97	57286.95
543.14	57642.71
543.31	57591.22
543.48	57745.70
543.64	57729.31
543.81	57712.93
543.98	57883.79
544.15	57818.25
544.32	57935.28
544.48	58047.63
544.65	57642.71
544.82	57605.26
544.99	57588.88
545.16	57668.46
545.32	57666.12
545.49	58239.55
545.66	58071.03
545.83	58010.18
546.00	58192.74
546.16	58028.90
546.33	58040.60
546.50	57783.15
546.67	58080.39
546.83	57790.17
547.00	58199.76
547.17	58244.23
547.34	58288.70
547.50	58218.49
547.67	58277.00
547.84	58326.15
548.00	58499.35
548.17	58691.27
548.34	58244.23
548.51	58597.65
548.67	58560.20
548.84	58679.57
549.01	58450.20
549.18	58473.60
549.34	58637.44
549.51	58499.35
549.68	58525.10
549.84	58599.99
550.01	58539.14
550.18	58667.87
550.34	58707.66
550.51	58791.92
550.68	58782.55
550.84	58557.86
551.01	59051.72
551.18	58876.18
551.34	58901.92
551.51	58981.50
551.68	58855.11
551.84	59002.56
552.01	58934.69
552.18	59276.41
552.34	58876.18
552.51	59206.19
552.68	59199.17
552.84	58805.96
553.01	59288.11
553.18	59093.85
553.34	59217.89
553.51	58990.86
553.67	59175.76
553.84	59138.32
554.01	59253.00
554.17	59192.15
554.34	59512.80
554.51	59433.22
554.67	59456.63
554.84	59208.53
555.00	59372.37
555.17	59311.52
555.33	59363.01
555.50	59194.49
555.67	59201.51
555.83	59318.54
556.00	59444.93
556.16	59920.05
556.33	59522.16
556.50	59566.63
556.66	59742.17
556.83	59660.26
556.99	59906.01
557.16	59777.28
557.32	59779.62
557.49	60142.41
557.65	59821.75
557.82	59805.37
557.98	59744.51
558.15	59817.07
558.32	59793.67
558.48	59627.49
558.65	59744.51
558.81	59592.38
558.98	59774.94
559.14	59950.48
559.31	60032.40
559.47	60018.36
559.64	60062.83
559.80	59938.78
559.97	60303.90
560.13	60130.70
560.30	60048.78
560.46	60140.07
560.63	60203.26
560.79	60093.25
560.96	60254.75
561.12	60243.05
561.29	60287.52
561.45	60193.90
561.61	60224.32
561.78	60126.02
561.94	60247.73
562.11	60268.79
562.27	60186.88
562.44	60238.37
562.60	60367.10
562.77	60310.92
562.93	60163.47
563.10	60392.84
563.26	60273.48
563.42	60434.97
563.59	60221.98
563.75	60397.52
563.92	60238.37
564.08	60203.26
564.24	60680.73
564.41	60568.38
564.57	60406.89
564.74	60467.74
564.90	60250.07
565.07	60392.84
565.23	60589.45
565.39	60495.83
565.56	60622.22
565.72	60523.91
565.88	60533.28
566.05	60598.81
566.21	60554.34
566.38	60519.23
566.54	60800.10
566.70	60484.12
566.87	60640.94
567.03	60327.31
567.19	60666.69
567.36	60697.11
567.52	60470.08
567.68	60865.63
567.85	60640.94
568.01	60795.42
568.17	60736.90
568.34	60767.33
568.50	60825.84
568.66	60762.65
568.83	60561.36
568.99	60685.41
569.15	60573.06
569.32	60664.35
569.48	60601.15
569.64	60870.31
569.81	60921.80
569.97	60559.02
570.13	60954.57
570.30	60711.16
570.46	61078.62
570.62	60924.14
570.78	60584.77
570.95	60853.93
571.11	61008.40
571.27	60746.26
571.43	60842.23
571.60	60910.10
571.76	60898.40
571.92	60898.40
572.09	60870.31
572.25	61095.00
572.41	60924.14
572.57	61038.83
572.74	61181.60
572.90	60963.93
573.06	60818.82
573.22	60874.99
573.38	60935.85
573.55	60980.32
573.71	61172.24
573.87	60992.02
574.03	60903.08
574.20	60912.44
574.36	60849.25
574.52	60952.23
574.68	61029.47
574.84	61275.22
575.01	61195.65
575.17	60882.02
575.33	61057.56
575.49	61015.43
575.65	61059.90
575.82	60968.61
575.98	61050.53
576.14	61221.39
576.30	61345.44
576.46	61200.33
576.62	60992.02
576.79	61008.40
576.95	61024.79
577.11	61165.22
577.27	61212.03
577.43	61132.45
577.59	60999.04
577.75	61078.62
577.92	61085.64
578.08	61188.63
578.24	61134.79
578.40	61284.59
578.56	61371.19
578.72	60980.32
578.88	61216.71
579.04	61181.60
579.21	61214.37
579.37	61197.99
579.53	61146.50
579.69	60973.30
579.85	61197.99
580.01	61277.57
580.17	61134.79
580.33	61200.33
580.49	61244.80
580.65	61057.56
580.82	61151.18
580.98	61258.84
581.14	61034.15
581.30	61251.82
581.46	61130.11
581.62	61151.18
581.78	61251.82
581.94	61359.48
582.10	61205.01
582.26	61160.54
582.42	61200.33
582.58	61216.71
582.74	61340.76
582.90	61183.94
583.06	61197.99
583.22	61148.84
583.38	61221.39
583.54	61214.37
583.70	61380.55
583.86	61247.14
584.02	61055.21
584.18	61205.01
584.34	61399.27
584.50	61235.44
584.66	61190.97
584.82	61118.41
584.98	61291.61
585.14	61422.68
585.30	61139.47
585.46	61432.04
585.62	61219.05
585.78	61300.97
585.94	61195.65
586.10	61396.93
586.26	61214.37
586.42	61389.91
586.58	61378.21
586.74	61134.79
586.90	61284.59
587.06	61270.54
587.22	61504.60
587.38	61293.95
587.54	61649.71
587.70	61502.26
587.86	61385.23
588.02	61584.18
588.18	61413.32
588.34	61415.66
