SpectraSuite Data File
++++++++++++++++++++++++++++++++++++
Date: Fri Oct 25 11:24:09 EDT 2013
User: price-jones
Dark Spectrum Present: No
Reference Spectrum Present: No
Number of Sampled Component Spectra: 1
Spectrometers: USB2+H05261
Integration Time (usec): 100000 (USB2+H05261)
Spectra Averaged: 1 (USB2+H05261)
Boxcar Smoothing: 0 (USB2+H05261)
Correct for Electrical Dark: No (USB2+H05261)
Strobe/Lamp Enabled: No (USB2+H05261)
Correct for Detector Non-linearity: No (USB2+H05261)
Correct for Stray Light: No (USB2+H05261)
Number of Pixels in Processed Spectrum: 2048
>>>>>Begin Processed Spectral Data<<<<<
365.73	184.90
365.92	184.90
366.12	184.90
366.32	156.82
366.52	156.82
366.72	77.24
366.91	170.86
367.11	135.75
367.31	105.32
367.51	166.18
367.70	152.13
367.90	191.92
368.10	121.71
368.30	93.62
368.49	133.41
368.69	142.77
368.89	203.63
369.09	168.52
369.28	203.63
369.48	117.03
369.68	210.65
369.87	262.14
370.07	187.24
370.27	201.29
370.47	252.78
370.66	613.22
370.86	648.33
371.06	648.33
371.25	685.78
371.45	671.73
371.65	660.03
371.84	676.41
372.04	692.80
372.24	713.86
372.44	793.44
372.63	711.52
372.83	734.93
373.03	704.50
373.22	772.38
373.42	819.19
373.62	774.72
373.81	821.53
374.01	760.67
374.21	767.70
374.40	809.83
374.60	823.87
374.79	781.74
374.99	793.44
375.19	896.43
375.38	837.91
375.58	844.93
375.78	870.68
375.97	966.64
376.17	884.72
376.37	870.68
376.56	875.36
376.76	851.96
376.95	924.51
377.15	774.72
377.35	854.30
377.54	919.83
377.74	828.55
377.93	908.13
378.13	961.96
378.33	931.53
378.52	830.89
378.72	947.92
378.91	938.55
379.11	978.34
379.31	954.94
379.50	866.00
379.70	971.32
379.89	1071.97
380.09	931.53
380.28	898.77
380.48	950.26
380.68	964.30
380.87	1013.45
381.07	1015.79
381.26	1048.56
381.46	987.71
381.65	1043.88
381.85	1074.31
382.04	1013.45
382.24	1111.75
382.43	1043.88
382.63	1053.24
382.83	1076.65
383.02	1121.12
383.22	1032.18
383.41	990.05
383.61	1163.25
383.80	1128.14
384.00	1121.12
384.19	1137.50
384.39	1153.88
384.58	1228.78
384.78	1198.35
384.97	1163.25
385.17	1132.82
385.36	1160.91
385.56	1233.46
385.75	1048.56
385.95	1167.93
386.14	1102.39
386.34	1203.04
386.53	1334.11
386.72	1226.44
386.92	1273.25
387.11	1240.48
387.31	1247.51
387.50	1240.48
387.70	1277.93
387.89	1214.74
388.09	1240.48
388.28	1277.93
388.48	1270.91
388.67	1327.08
388.86	1345.81
389.06	1338.79
389.25	1343.47
389.45	1296.66
389.64	1266.23
389.84	1343.47
390.03	1371.55
390.22	1413.68
390.42	1404.32
390.61	1369.21
390.81	1329.42
391.00	1310.70
391.19	1476.88
391.39	1390.28
391.58	1469.86
391.78	1526.03
391.97	1448.79
392.16	1495.60
392.36	1514.33
392.55	1446.45
392.75	1504.96
392.94	1563.48
393.13	1511.99
393.33	1516.67
393.52	1530.71
393.71	1563.48
393.91	1638.38
394.10	1654.76
394.29	1629.01
394.49	1540.07
394.68	1678.16
394.88	1645.40
395.07	1603.27
395.26	1584.54
395.46	1673.48
395.65	1753.06
395.84	1722.63
396.04	1795.19
396.23	1741.36
396.42	1795.19
396.62	1736.68
396.81	1771.79
397.00	1809.23
397.19	1930.94
397.39	1832.64
397.58	1830.30
397.77	1863.07
397.97	1926.26
398.16	1928.60
398.35	1813.92
398.55	1863.07
398.74	1933.28
398.93	1982.43
399.12	1923.92
399.32	1865.41
399.51	1949.67
399.70	1921.58
399.90	1930.94
400.09	1947.33
400.28	2017.54
400.47	1930.94
400.67	2115.84
400.86	2132.23
401.05	2012.86
401.24	2097.12
401.44	2134.57
401.63	2115.84
401.82	2143.93
402.01	2165.00
402.21	2249.25
402.40	2218.83
402.59	2176.70
402.78	2270.32
402.97	2284.36
403.17	2326.49
403.36	2237.55
403.55	2272.66
403.74	2272.66
403.93	2459.90
404.13	2415.43
404.32	2370.96
404.51	2452.88
404.70	2462.24
404.89	2401.39
405.09	2363.94
405.28	2464.58
405.47	2443.52
405.66	2539.48
405.85	2616.72
406.05	2504.37
406.24	2452.88
406.43	2595.65
406.62	2675.23
406.81	2700.98
407.00	2567.57
407.20	2539.48
407.39	2640.12
407.58	2745.45
407.77	2689.28
407.96	2775.88
408.15	2768.85
408.34	2649.49
408.54	2902.26
408.73	2818.00
408.92	2832.05
409.11	2892.90
409.30	2928.01
409.49	2904.60
409.68	2843.75
409.87	2963.12
410.07	2993.55
410.26	2937.37
410.45	3094.19
410.64	3098.87
410.83	3077.80
411.02	3197.17
411.21	3239.30
411.40	3164.40
411.59	3098.87
411.78	3243.98
411.98	3183.13
412.17	3274.41
412.36	3199.51
412.55	3445.27
412.74	3456.97
412.93	3454.63
413.12	3344.63
413.31	3569.32
413.50	3461.65
413.69	3485.06
413.88	3527.19
414.07	3609.11
414.26	3550.59
414.45	3768.26
414.64	3676.98
414.83	3751.88
415.02	3777.62
415.22	3934.44
415.41	3934.44
415.60	3796.35
415.79	3960.19
415.98	3962.53
416.17	4044.45
416.36	4100.62
416.55	4039.76
416.74	4133.39
416.93	4044.45
417.12	4077.21
417.31	4259.78
417.50	4182.54
417.69	4297.22
417.88	4360.42
418.07	4215.30
418.26	4262.12
418.45	4362.76
418.64	4334.67
418.83	4428.29
419.02	4456.38
419.21	4542.98
419.39	4386.16
419.58	4432.97
419.77	4561.70
419.96	4650.64
420.15	4669.37
420.34	4627.24
420.53	4657.67
420.72	4603.83
420.91	4720.86
421.10	4805.12
421.29	4667.03
421.48	4683.41
421.67	4877.68
421.86	4809.80
422.05	4800.44
422.24	4877.68
422.43	4837.89
422.61	4877.68
422.80	4849.59
422.99	4823.84
423.18	4947.89
423.37	5022.79
423.56	4924.49
423.75	4868.31
423.94	4875.34
424.13	4695.11
424.32	4851.93
424.50	4915.12
424.69	5137.48
424.88	4992.36
425.07	5083.64
425.26	5055.56
425.45	4924.49
425.64	4940.87
425.83	4968.96
426.01	5006.41
426.20	5053.22
426.39	5060.24
426.58	5036.83
426.77	5188.97
426.96	5088.32
427.15	5184.29
427.33	5153.86
427.52	5151.52
427.71	5294.29
427.90	5144.50
428.09	5355.15
428.28	5420.68
428.46	5280.25
428.65	5170.24
428.84	5717.93
429.03	5514.30
429.22	5413.66
429.40	5582.18
429.59	5493.24
429.78	5301.31
429.97	5256.84
430.16	5556.43
430.34	5500.26
430.53	5713.25
430.72	5586.86
430.91	5708.57
431.10	5530.69
431.28	5804.53
431.47	5673.46
431.66	5914.53
431.85	5961.34
432.03	6090.07
432.22	5900.49
432.41	5891.13
432.60	5944.96
432.79	5905.17
432.97	5980.07
433.16	6022.20
433.35	6010.50
433.54	6211.78
433.72	6040.92
433.91	6078.37
434.10	5984.75
434.28	6097.10
434.47	6200.08
434.66	6197.74
434.85	6260.93
435.03	6363.92
435.22	6387.32
435.41	6600.31
435.59	6363.92
435.78	6527.75
435.97	6464.56
436.16	6518.39
436.34	6455.20
436.53	6473.92
436.72	6642.44
436.90	6609.67
437.09	6712.66
437.28	6492.65
437.46	6574.56
437.65	6918.62
437.84	6747.76
438.02	6867.13
438.21	6876.49
438.40	6705.63
438.58	6888.20
438.77	7014.59
438.96	6850.75
439.14	7300.13
439.33	7117.57
439.52	7194.81
439.70	7372.69
439.89	7503.76
440.08	7482.69
440.26	7431.20
440.45	7229.91
440.63	7316.51
440.82	7667.60
441.01	7452.27
441.19	7655.89
441.38	8112.30
441.57	7737.81
441.75	7775.26
441.94	8004.63
442.12	7953.14
442.31	7920.37
442.50	7894.63
442.68	7918.03
442.87	7990.59
443.05	8264.43
443.24	8332.31
443.43	8203.58
443.61	8439.97
443.80	8423.59
443.98	7833.77
444.17	7892.29
444.35	8278.47
444.54	8411.89
444.73	8336.99
444.91	8318.26
445.10	8566.36
445.28	8397.84
445.47	8308.90
445.65	8344.01
445.84	8531.25
446.02	8606.15
446.21	8432.95
446.39	8341.67
446.58	8491.46
446.77	8414.23
446.95	8430.61
447.14	8383.80
447.32	8528.91
447.51	8557.00
447.69	8505.51
447.88	8681.05
448.06	8528.91
448.25	8517.21
448.43	8709.13
448.62	8503.17
448.80	8734.88
448.99	8882.33
449.17	8868.29
449.36	8695.09
449.54	9041.49
449.73	8922.12
449.91	9153.84
450.10	8980.64
450.28	9062.55
450.46	9287.25
450.65	9048.51
450.83	9245.12
451.02	9167.88
451.20	9472.15
451.39	9207.67
451.57	9415.98
451.76	9060.21
451.94	9373.85
452.13	9317.67
452.31	9238.09
452.49	9163.20
452.68	9483.85
452.86	9317.67
453.05	9399.59
453.23	9797.48
453.42	9664.07
453.60	9556.41
453.78	9628.96
453.97	9610.24
454.15	9593.86
454.34	9467.47
454.52	9827.91
454.70	9795.14
454.89	9666.41
455.07	9764.72
455.26	9909.83
455.44	10176.65
455.62	9923.87
455.81	9980.04
455.99	10139.20
456.17	10148.56
456.36	9935.57
456.54	10279.63
456.73	10296.02
456.91	10544.11
457.09	10469.22
457.28	10511.35
457.46	10270.27
457.64	10408.36
457.83	10614.33
458.01	10345.17
458.19	10651.78
458.38	10654.12
458.56	10768.80
458.74	10878.81
458.93	10448.15
459.11	10848.38
459.29	10684.55
459.48	11019.24
459.66	10663.48
459.84	11094.14
460.03	11260.32
460.21	11117.54
460.39	10890.51
460.57	11253.30
460.76	11222.87
460.94	10897.53
461.12	11208.83
461.31	11386.71
461.49	11173.72
461.67	11279.04
461.85	11545.86
462.04	11421.81
462.22	12046.74
462.40	11775.24
462.59	11501.39
462.77	11489.69
462.95	11627.78
463.13	11721.40
463.32	11639.48
463.50	11728.42
463.68	11700.34
463.86	11719.06
464.05	11641.82
464.23	11829.07
464.41	11920.35
464.59	11489.69
464.78	12245.68
464.96	12149.72
465.14	11880.56
465.32	12109.93
465.50	12095.89
465.69	12243.34
465.87	12355.69
466.05	11992.90
466.23	12255.04
466.41	12241.00
466.60	12706.77
466.78	12161.42
466.96	12166.10
467.14	12341.64
467.32	12638.89
467.51	12538.25
467.69	12292.49
467.87	12514.84
468.05	12786.35
468.23	12306.54
468.41	12582.72
468.60	12849.54
468.78	12765.28
468.96	12596.76
469.14	12882.31
469.32	13139.77
469.50	12683.36
469.69	13022.74
469.87	13146.79
470.05	13156.15
470.23	13167.85
470.41	13128.06
470.59	13554.04
470.77	13121.04
470.95	13202.96
471.14	13467.44
471.32	13254.45
471.50	13598.51
471.68	13818.52
471.86	13500.21
472.04	13563.40
472.22	14104.07
472.40	14022.15
472.58	14017.47
472.77	14108.75
472.95	14078.32
473.13	14710.27
473.31	14272.59
473.49	14237.48
473.67	14176.62
473.85	14476.21
474.03	14501.96
474.21	14764.10
474.39	14637.71
474.57	14892.83
474.75	15061.35
474.93	15218.16
475.12	15164.33
475.30	15262.63
475.48	15187.74
475.66	15194.76
475.84	15204.12
476.02	15679.25
476.20	15344.55
476.38	15602.01
476.56	16042.03
476.74	16266.72
476.92	15995.22
477.10	15934.37
477.28	16168.42
477.46	16238.64
477.64	16327.58
477.82	16514.82
478.00	17020.38
478.18	16793.34
478.36	16999.31
478.54	17366.78
478.72	17280.18
478.90	17294.22
479.08	17734.24
479.26	17970.63
479.44	17568.06
479.62	17942.55
479.80	18270.22
479.98	18242.14
480.16	18679.82
480.34	18537.04
480.52	18628.32
480.70	18555.77
480.88	18682.16
481.06	18864.72
481.24	18764.07
481.41	19159.63
481.59	19328.14
481.77	19852.42
481.95	19786.89
482.13	19770.51
482.31	19531.77
482.49	20315.85
482.67	20589.69
482.85	20226.91
483.03	20861.19
483.21	20725.44
483.39	20978.22
483.57	21151.42
483.74	21287.17
483.92	21200.57
484.10	21245.04
484.28	21802.09
484.46	22361.48
484.64	22398.93
484.82	22164.87
485.00	22448.08
485.18	22775.75
485.35	23288.33
485.53	22972.36
485.71	23377.27
485.89	23527.06
486.07	23384.29
486.25	23295.35
486.43	24044.32
486.61	24119.22
486.78	24360.30
486.96	24261.99
487.14	24666.91
487.32	24699.67
487.50	25294.17
487.68	24966.49
487.85	25270.76
488.03	25544.61
488.21	26036.12
488.39	25876.96
488.57	26148.46
488.75	26174.21
488.92	26452.73
489.10	26953.61
489.28	27091.70
489.46	27583.21
489.64	27091.70
489.81	28018.55
489.99	28212.82
490.17	27721.30
490.35	28320.48
490.53	28222.18
490.70	28460.91
490.88	28636.45
491.06	29053.07
491.24	28952.43
491.41	29160.73
491.59	29296.49
491.77	29099.88
491.95	29448.62
492.13	30012.69
492.30	30197.59
492.48	29912.05
492.66	29893.32
492.84	30698.47
493.01	30918.48
493.19	30813.15
493.37	31466.16
493.54	31452.12
493.72	31990.44
493.90	31716.60
494.08	31992.78
494.25	32376.63
494.43	32301.73
494.61	32278.33
494.79	32589.62
494.96	32388.33
495.14	32559.19
495.32	33387.74
495.49	33181.77
495.67	33448.60
495.85	33535.20
496.02	33996.28
496.20	34052.45
496.38	34583.76
496.55	34216.29
496.73	35166.55
496.91	34614.18
497.09	34991.01
497.26	35304.64
497.44	35381.88
497.62	35849.99
497.79	36238.51
497.97	35566.78
498.14	35786.79
498.32	36301.71
498.50	36582.57
498.67	36648.11
498.85	36779.18
499.03	36898.55
499.20	36790.88
499.38	37291.76
499.56	37333.89
499.73	37303.46
499.91	37640.50
500.08	37794.97
500.26	36919.61
500.44	37787.95
500.61	38026.68
500.79	37771.57
500.97	38415.21
501.14	39037.80
501.32	39140.78
501.49	38703.10
501.67	38665.65
501.84	39086.95
502.02	39129.08
502.20	39283.55
502.37	38925.45
502.55	39517.60
502.72	39868.69
502.90	39917.84
503.07	39763.36
503.25	40189.34
503.43	40069.97
503.60	40140.19
503.78	40411.69
503.95	40423.39
504.13	40769.79
504.30	40844.69
504.48	40587.23
504.65	40928.95
504.83	41385.35
505.01	41551.53
505.18	41467.27
505.36	41567.91
505.53	41600.68
505.71	41619.41
505.88	41874.52
506.06	41869.84
506.23	42410.51
506.41	42380.08
506.58	42300.50
506.76	42326.25
506.93	42792.01
507.11	42263.05
507.28	43070.54
507.46	42756.91
507.63	43276.51
507.81	43442.68
507.98	43145.44
508.16	43569.07
508.33	43861.64
508.50	43140.75
508.68	43927.17
508.85	44177.61
509.03	43419.28
509.20	44088.67
509.38	44713.59
509.55	44605.93
509.73	44552.10
509.90	44814.24
510.08	44727.64
510.25	45272.98
510.42	44957.01
510.60	45322.13
510.77	45387.67
510.95	45521.08
511.12	45315.11
511.30	45308.09
511.47	46122.60
511.64	45441.50
511.82	46064.08
511.99	46555.60
512.17	46211.54
512.34	46211.54
512.51	46253.67
512.69	46686.67
512.86	46993.28
513.04	46761.56
513.21	46656.24
513.38	46939.44
513.56	47079.88
513.73	46904.34
513.90	47107.96
514.08	47049.45
514.25	47676.71
514.43	47744.59
514.60	47613.52
514.77	47573.73
514.95	48109.71
515.12	47845.23
515.29	47882.68
515.47	48090.99
515.64	48325.04
515.81	48058.22
515.99	48238.44
516.16	48624.63
516.33	48718.25
516.51	48917.20
516.68	48610.59
516.85	48790.81
517.03	48966.35
517.20	49031.88
517.37	48846.98
517.54	49228.49
517.72	49249.55
517.89	49064.65
518.06	49223.81
518.24	49350.20
518.41	49691.91
518.58	49860.43
518.75	49317.43
518.93	49822.98
519.10	49773.83
519.27	49886.18
519.45	49942.35
519.62	50155.34
519.79	50323.86
519.96	49790.22
520.14	50108.53
520.31	50445.57
520.48	50230.24
520.65	50557.91
520.83	50529.83
521.00	50817.71
521.17	50410.46
521.34	50677.28
521.52	51224.96
521.69	51068.15
521.86	51063.47
522.03	51505.83
522.20	51636.90
522.38	51782.01
522.55	51639.24
522.72	51646.26
522.89	51475.40
523.07	51894.36
523.24	51491.79
523.41	51903.72
523.58	51491.79
523.75	52165.86
523.92	51655.62
524.10	52200.97
524.27	52385.87
524.44	52259.48
524.61	52198.63
524.78	52491.19
524.96	52254.80
525.13	52542.69
525.30	52575.45
525.47	52802.49
525.64	52549.71
525.81	52945.26
525.98	52821.21
526.16	52783.76
526.33	52741.63
526.50	53132.50
526.67	53006.11
526.84	52849.30
527.01	53123.14
527.18	53003.77
527.36	53251.87
527.53	53116.12
527.70	53518.69
527.87	53797.21
528.04	53195.70
528.21	53476.56
528.38	53483.58
528.55	53743.38
528.72	53371.24
528.89	53495.28
529.07	53755.08
529.24	53535.07
529.41	53680.19
529.58	53888.49
529.75	53961.05
529.92	54082.76
530.09	53956.37
530.26	54206.81
530.43	54277.02
530.60	53478.90
530.77	54157.66
530.94	54167.02
531.11	53989.14
531.28	54138.93
531.46	54230.21
531.63	54721.72
531.80	54501.71
531.97	54780.24
532.14	54646.83
532.31	54817.69
532.48	54642.15
532.65	54834.07
532.82	54719.38
532.99	55131.32
533.16	54593.00
533.33	54887.90
533.50	55131.32
533.67	55086.85
533.84	54913.65
534.01	54915.99
534.18	54934.71
534.35	55426.23
534.52	55391.12
534.69	55320.90
534.86	55489.42
535.03	55044.72
535.20	55292.82
535.37	55426.23
535.54	55725.81
535.71	55384.10
535.88	55360.69
536.05	55440.27
536.22	55613.47
536.38	55889.65
536.55	55578.36
536.72	55793.69
536.89	55800.71
537.06	55613.47
537.23	55915.40
537.40	55777.31
537.57	56058.17
537.74	55838.16
537.91	56004.34
538.08	56200.94
538.25	55744.54
538.42	55863.91
538.59	56236.05
538.75	55854.54
538.92	56250.09
539.09	56411.59
539.26	56322.65
539.43	56252.44
539.60	56444.36
539.77	56369.46
539.94	56647.99
540.11	56545.00
540.28	56711.18
540.44	56580.11
540.61	56458.40
540.78	56561.39
540.95	56598.83
541.12	56687.78
541.29	56779.06
541.46	56594.15
541.62	56821.19
541.79	56687.78
541.96	56409.25
542.13	56612.88
542.30	56781.40
542.47	57111.41
542.63	57186.31
542.80	57165.24
542.97	57308.02
543.14	57324.40
543.31	57364.19
543.48	57422.70
543.64	57710.59
543.81	57441.43
543.98	57497.60
544.15	57544.41
544.32	57345.47
544.48	57696.55
544.65	57279.93
544.82	57546.75
544.99	57443.77
545.16	57616.97
545.32	57668.46
545.49	58019.54
545.66	58045.29
545.83	57989.11
546.00	57874.43
546.16	58017.20
546.33	57701.23
546.50	57703.57
546.67	57708.25
546.83	57415.68
547.00	58007.84
547.17	57942.30
547.34	57841.66
547.50	57963.37
547.67	58026.56
547.84	58024.22
548.00	58148.27
548.17	58424.45
548.34	58108.48
548.51	58344.87
548.67	58405.73
548.84	58328.49
549.01	58085.07
549.18	58255.93
549.34	58319.13
549.51	58433.81
549.68	58536.80
549.84	58389.34
550.01	58653.82
550.18	58253.59
550.34	58557.86
550.51	58504.03
550.68	58550.84
550.84	58370.62
551.01	58702.98
551.18	58543.82
551.34	58576.59
551.51	58700.64
551.68	58611.70
551.84	58670.21
552.01	58578.93
552.18	58639.78
552.34	58892.56
552.51	58822.34
552.68	58712.34
552.84	58878.52
553.01	58962.78
553.18	59061.08
553.34	59032.99
553.51	58735.74
553.67	58951.07
553.84	58930.01
554.01	59025.97
554.17	58885.54
554.34	59203.85
554.51	59168.74
554.67	59281.09
554.84	59011.93
555.00	59079.80
555.17	59014.27
555.33	59105.55
555.50	59056.40
555.67	59140.66
555.83	59114.91
556.00	59554.93
556.16	59138.32
556.33	59519.82
556.50	59374.71
556.66	59627.49
556.83	59430.88
556.99	59515.14
557.16	59700.04
557.32	59751.54
557.49	59587.70
557.65	59360.67
557.82	59192.15
557.98	59353.65
558.15	59655.57
558.32	59618.13
558.48	59590.04
558.65	59533.87
558.81	59646.21
558.98	59615.79
559.14	59667.28
559.31	59807.71
559.47	59798.35
559.64	59845.16
559.80	59831.11
559.97	59976.23
560.13	59608.76
560.30	59739.83
560.46	59856.86
560.63	59861.54
560.79	59868.56
560.96	59957.50
561.12	59966.87
561.29	59929.42
561.45	59962.18
561.61	59889.63
561.78	60034.74
561.94	59739.83
562.11	59948.14
562.27	60076.87
562.44	60009.00
562.60	60144.75
562.77	60097.94
562.93	59868.56
563.10	60163.47
563.26	59924.74
563.42	60353.05
563.59	60273.48
563.75	60133.04
563.92	60156.45
564.08	60343.69
564.24	60336.67
564.41	60196.24
564.57	60126.02
564.74	60299.22
564.90	60116.66
565.07	60355.39
565.23	60196.24
565.39	60292.20
565.56	60413.91
565.72	60280.50
565.88	60327.31
566.05	60069.85
566.21	60252.41
566.38	60568.38
566.54	60425.61
566.70	60458.38
566.87	60533.28
567.03	60322.63
567.19	60559.02
567.36	60170.49
567.52	60390.50
567.68	60582.43
567.85	60451.36
568.01	60692.43
568.17	60406.89
568.34	60561.36
568.50	60236.03
568.66	60589.45
568.83	60633.92
568.99	60470.08
569.15	60512.21
569.32	60451.36
569.48	60580.09
569.64	60884.36
569.81	60612.85
569.97	60519.23
570.13	60533.28
570.30	60495.83
570.46	60694.77
570.62	60786.05
570.78	60645.62
570.95	60500.51
571.11	60760.31
571.27	60530.93
571.43	60596.47
571.60	60729.88
571.76	60535.62
571.92	60750.94
572.09	60835.20
572.25	60851.59
572.41	60755.63
572.57	60715.84
572.74	60963.93
572.90	60676.05
573.06	60722.86
573.22	60605.83
573.38	60701.79
573.55	60814.14
573.71	60879.67
573.87	60690.09
574.03	60739.24
574.20	60781.37
574.36	60809.46
574.52	60917.12
574.68	60884.36
574.84	60893.72
575.01	60814.14
575.17	60786.05
575.33	60727.54
575.49	60757.97
575.65	60921.80
575.82	60837.54
575.98	60907.76
576.14	61013.08
576.30	60793.07
576.46	61024.79
576.62	61038.83
576.79	60907.76
576.95	60814.14
577.11	60853.93
577.27	61031.81
577.43	61003.72
577.59	60711.16
577.75	60996.70
577.92	60781.37
578.08	60853.93
578.24	60886.70
578.40	60933.51
578.56	60921.80
578.72	60900.74
578.88	61055.21
579.04	61244.80
579.21	61010.74
579.37	61270.54
579.53	61076.28
579.69	60699.45
579.85	60844.57
580.01	60889.04
580.17	60870.31
580.33	61017.77
580.49	60947.55
580.65	61132.45
580.82	61043.51
580.98	60935.85
581.14	60879.67
581.30	61111.39
581.46	60800.10
581.62	61015.43
581.78	61015.43
581.94	60914.78
582.10	61034.15
582.26	61043.51
582.42	61036.49
582.58	61087.98
582.74	60884.36
582.90	61055.21
583.06	61172.24
583.22	60802.44
583.38	60980.32
583.54	61043.51
583.70	60874.99
583.86	61333.74
584.02	61008.40
584.18	61254.16
584.34	61181.60
584.50	61102.03
584.66	61162.88
584.82	60809.46
584.98	61315.01
585.14	61127.77
585.30	61258.84
585.46	61155.86
585.62	61272.88
585.78	61289.27
585.94	60919.46
586.10	61343.10
586.26	61167.56
586.42	61235.44
586.58	61408.64
586.74	61141.81
586.90	60999.04
587.06	61017.77
587.22	61207.35
587.38	61116.07
587.54	61347.78
587.70	61366.51
587.86	61235.44
588.02	61221.39
588.18	61371.19
588.34	61183.94
588.49	61083.30
