SpectraSuite Data File
++++++++++++++++++++++++++++++++++++
Date: Fri Oct 25 11:23:22 EDT 2013
User: price-jones
Dark Spectrum Present: No
Reference Spectrum Present: No
Number of Sampled Component Spectra: 1
Spectrometers: USB2+H05261
Integration Time (usec): 100000 (USB2+H05261)
Spectra Averaged: 1 (USB2+H05261)
Boxcar Smoothing: 0 (USB2+H05261)
Correct for Electrical Dark: No (USB2+H05261)
Strobe/Lamp Enabled: No (USB2+H05261)
Correct for Detector Non-linearity: No (USB2+H05261)
Correct for Stray Light: No (USB2+H05261)
Number of Pixels in Processed Spectrum: 2048
>>>>>Begin Processed Spectral Data<<<<<
365.73	255.12
365.92	255.12
366.12	255.12
366.32	133.41
366.52	84.26
366.72	184.90
366.91	140.43
367.11	147.45
367.31	152.13
367.51	81.92
367.70	131.07
367.90	163.84
368.10	163.84
368.30	124.05
368.49	117.03
368.69	173.20
368.89	245.76
369.09	102.98
369.28	145.11
369.48	168.52
369.68	196.60
369.87	161.50
370.07	180.22
370.27	231.71
370.47	306.61
370.66	615.56
370.86	690.46
371.06	688.12
371.25	692.80
371.45	697.48
371.65	690.46
371.84	655.35
372.04	664.71
372.24	732.59
372.44	739.61
372.63	828.55
372.83	685.78
373.03	774.72
373.22	746.63
373.42	784.08
373.62	770.04
373.81	781.74
374.01	847.27
374.21	877.70
374.40	777.06
374.60	858.98
374.79	777.06
374.99	826.21
375.19	788.76
375.38	793.44
375.58	856.64
375.78	938.55
375.97	851.96
376.17	870.68
376.37	880.04
376.56	856.64
376.76	840.25
376.95	826.21
377.15	814.51
377.35	901.11
377.54	912.81
377.74	922.17
377.93	936.21
378.13	968.98
378.33	952.60
378.52	882.38
378.72	959.62
378.91	978.34
379.11	868.34
379.31	952.60
379.50	919.83
379.70	968.98
379.89	1067.28
380.09	954.94
380.28	933.87
380.48	1041.54
380.68	994.73
380.87	957.28
381.07	971.32
381.26	908.13
381.46	959.62
381.65	1060.26
381.85	1069.62
382.04	1022.81
382.24	1039.20
382.43	1125.80
382.63	1076.65
382.83	978.34
383.02	1081.33
383.22	1191.33
383.41	1041.54
383.61	1107.07
383.80	1193.67
384.00	1086.01
384.19	1086.01
384.39	1135.16
384.58	1090.69
384.78	1186.65
384.97	1259.21
385.17	1165.59
385.36	1203.04
385.56	1160.91
385.75	1100.05
385.95	1163.25
386.14	1245.16
386.34	1163.25
386.53	1174.95
386.72	1165.59
386.92	1254.53
387.11	1338.79
387.31	1231.12
387.50	1226.44
387.70	1275.59
387.89	1219.42
388.09	1291.98
388.28	1249.85
388.48	1263.89
388.67	1256.87
388.86	1303.68
389.06	1359.85
389.25	1291.98
389.45	1350.49
389.64	1364.53
389.84	1327.08
390.03	1345.81
390.22	1451.13
390.42	1392.62
390.61	1448.79
390.81	1350.49
391.00	1453.47
391.19	1504.96
391.39	1502.62
391.58	1490.92
391.78	1535.39
391.97	1432.41
392.16	1502.62
392.36	1598.59
392.55	1554.12
392.75	1500.28
392.94	1584.54
393.13	1526.03
393.33	1565.82
393.52	1509.65
393.71	1675.82
393.91	1589.22
394.10	1579.86
394.29	1624.33
394.49	1558.80
394.68	1614.97
394.88	1689.87
395.07	1741.36
395.26	1696.89
395.46	1673.48
395.65	1624.33
395.84	1734.34
396.04	1792.85
396.23	1729.66
396.42	1724.97
396.62	1706.25
396.81	1771.79
397.00	1757.74
397.19	1792.85
397.39	1921.58
397.58	1893.49
397.77	1863.07
397.97	1886.47
398.16	1823.28
398.35	1987.11
398.55	1935.62
398.74	1858.39
398.93	1952.01
399.12	1973.07
399.32	1898.17
399.51	2038.61
399.70	1916.90
399.90	1937.96
400.09	1980.09
400.28	2176.70
400.47	2099.46
400.67	2043.29
400.86	2031.58
401.05	2129.89
401.24	2115.84
401.44	2146.27
401.63	2162.66
401.82	2305.43
402.01	2272.66
402.21	2099.46
402.40	2265.64
402.59	2113.50
402.78	2230.53
402.97	2312.45
403.17	2319.47
403.36	2221.17
403.55	2342.88
403.74	2406.07
403.93	2317.13
404.13	2331.17
404.32	2377.98
404.51	2359.26
404.70	2466.92
404.89	2380.32
405.09	2450.54
405.28	2569.91
405.47	2483.31
405.66	2588.63
405.85	2523.10
406.05	2464.58
406.24	2541.82
406.43	2544.16
406.62	2602.68
406.81	2761.83
407.00	2459.90
407.20	2490.33
407.39	2647.15
407.58	2691.62
407.77	2738.43
407.96	2803.96
408.15	2785.24
408.34	2740.77
408.54	2724.38
408.73	2902.26
408.92	2906.95
409.11	2815.66
409.30	2857.79
409.49	2918.65
409.68	2850.77
409.87	2988.86
410.07	2904.60
410.26	3073.12
410.45	2986.52
410.64	3169.09
410.83	2977.16
411.02	3082.49
411.21	3169.09
411.40	3206.53
411.59	3211.22
411.78	3187.81
411.98	3122.27
412.17	3239.30
412.36	3213.56
412.55	3342.28
412.74	3471.01
412.93	3452.29
413.12	3358.67
413.31	3595.06
413.50	3494.42
413.69	3538.89
413.88	3585.70
414.07	3637.19
414.26	3613.79
414.45	3623.15
414.64	3571.66
414.83	3772.94
415.02	3758.90
415.22	3798.69
415.41	3803.37
415.60	3882.95
415.79	4007.00
415.98	3969.55
416.17	4086.58
416.36	4016.36
416.55	4046.79
416.74	4173.18
416.93	3981.25
417.12	4201.26
417.31	4161.47
417.50	4187.22
417.69	4262.12
417.88	4245.73
418.07	4180.20
418.26	4369.78
418.45	4386.16
418.64	4477.44
418.83	4475.10
419.02	4418.93
419.21	4517.23
419.39	4564.04
419.58	4505.53
419.77	4447.02
419.96	4568.73
420.15	4596.81
420.34	4585.11
420.53	4660.01
420.72	4779.37
420.91	4657.67
421.10	4746.61
421.29	4802.78
421.48	4816.82
421.67	4690.43
421.86	4730.22
422.05	4795.76
422.24	4840.23
422.43	4954.91
422.61	4770.01
422.80	5029.81
422.99	4978.32
423.18	4844.91
423.37	5034.49
423.56	4901.08
423.75	4856.61
423.94	4706.82
424.13	4652.98
424.32	4767.67
424.50	5029.81
424.69	5160.88
424.88	5186.63
425.07	5041.51
425.26	4849.59
425.45	5020.45
425.64	4905.76
425.83	4924.49
426.01	4973.64
426.20	4985.34
426.39	5064.92
426.58	5193.65
426.77	5135.14
426.96	5235.78
427.15	5046.20
427.33	5188.97
427.52	5151.52
427.71	5348.12
427.90	5111.73
428.09	5224.08
428.28	5437.06
428.46	5268.55
428.65	5315.36
428.84	5504.94
429.03	5509.62
429.22	5195.99
429.40	5460.47
429.59	5610.26
429.78	5472.17
429.97	5317.70
430.16	5504.94
430.34	5647.71
430.53	5731.97
430.72	5659.42
430.91	5586.86
431.10	5720.27
431.28	5762.40
431.47	5776.44
431.66	5837.30
431.85	5856.02
432.03	5973.05
432.22	5870.06
432.41	5870.06
432.60	6012.84
432.79	5961.34
432.97	6101.78
433.16	6097.10
433.35	6080.71
433.54	6146.25
433.72	6171.99
433.91	6080.71
434.10	6258.59
434.28	6193.06
434.47	6181.35
434.66	6305.40
434.85	6363.92
435.03	6443.49
435.22	6305.40
435.41	6551.16
435.59	6441.15
435.78	6464.56
435.97	6649.46
436.16	6544.14
436.34	6384.98
436.53	6569.88
436.72	6663.51
436.90	6431.79
437.09	6693.93
437.28	6494.99
437.46	6827.34
437.65	6715.00
437.84	6640.10
438.02	6747.76
438.21	6855.43
438.40	6555.84
438.58	7002.88
438.77	7040.33
438.96	6951.39
439.14	7037.99
439.33	7169.06
439.52	7194.81
439.70	7311.83
439.89	7344.60
440.08	7332.90
440.26	7548.23
440.45	7410.14
440.63	7435.88
440.82	7531.84
441.01	7414.82
441.19	7564.61
441.38	7817.39
441.57	7723.77
441.75	7971.86
441.94	7999.95
442.12	7941.44
442.31	8339.33
442.50	7950.80
442.68	7967.18
442.87	8081.87
443.05	8147.40
443.24	8273.79
443.43	8023.36
443.61	8177.83
443.80	8325.29
443.98	8229.32
444.17	7925.05
444.35	8154.43
444.54	8496.14
444.73	8285.50
444.91	8353.37
445.10	8409.54
445.28	8355.71
445.47	8407.20
445.65	8329.97
445.84	8582.74
446.02	8479.76
446.21	8549.98
446.39	8505.51
446.58	8540.61
446.77	8627.21
446.95	8245.71
447.14	8496.14
447.32	8493.80
447.51	8439.97
447.69	8650.62
447.88	8624.87
448.06	8676.37
448.25	8659.98
448.43	8507.85
448.62	8683.39
448.80	8545.30
448.99	8730.20
449.17	8978.30
449.36	8805.10
449.54	8741.90
449.73	9090.64
449.91	9092.98
450.10	8931.48
450.28	9027.45
450.46	9107.02
450.65	9085.96
450.83	8992.34
451.02	9385.55
451.20	9357.46
451.39	9184.26
451.57	9151.49
451.76	9032.13
451.94	9104.68
452.13	9614.92
452.31	9404.27
452.49	9191.28
452.68	9111.71
452.86	9296.61
453.05	9738.97
453.23	9610.24
453.42	9628.96
453.60	9572.79
453.78	9549.39
453.97	9600.88
454.15	9348.10
454.34	9394.91
454.52	9687.48
454.70	10022.17
454.89	9760.03
455.07	9884.08
455.26	9769.40
455.44	9877.06
455.62	9893.44
455.81	9834.93
455.99	10083.03
456.17	10120.48
456.36	10012.81
456.54	10085.37
456.73	10200.05
456.91	10478.58
457.09	10293.68
457.28	10363.89
457.46	10373.25
457.64	10434.11
457.83	10560.50
458.01	10359.21
458.19	10740.72
458.38	10714.97
458.56	10677.52
458.74	10810.93
458.93	10665.82
459.11	10679.86
459.29	10780.51
459.48	10750.08
459.66	10850.72
459.84	11063.71
460.03	11091.80
460.21	10970.09
460.39	11056.69
460.57	11302.45
460.76	11063.71
460.94	11318.83
461.12	11262.66
461.31	11215.85
461.49	11304.79
461.67	11276.70
461.85	11487.35
462.04	11314.15
462.22	11412.45
462.40	11555.22
462.59	11534.16
462.77	11534.16
462.95	11772.89
463.13	11499.05
463.32	11641.82
463.50	11735.45
463.68	11887.58
463.86	11960.14
464.05	11847.79
464.23	11613.74
464.41	11969.50
464.59	11606.72
464.78	12175.47
464.96	12023.33
465.14	11885.24
465.32	11833.75
465.50	12341.64
465.69	12409.52
465.87	12229.30
466.05	12229.30
466.23	12318.24
466.41	12477.40
466.60	12561.66
466.78	12208.23
466.96	12430.59
467.14	12435.27
467.32	12360.37
467.51	12695.07
467.69	12311.22
467.87	12559.31
468.05	12805.07
468.23	12545.27
468.41	12446.97
468.60	12856.56
468.78	12643.57
468.96	12765.28
469.14	12910.40
469.32	12992.31
469.50	12723.15
469.69	13055.51
469.87	13268.50
470.05	13348.08
470.23	13256.79
470.41	13088.28
470.59	13373.82
470.77	13186.58
470.95	13483.83
471.14	13556.38
471.32	12980.61
471.50	13542.34
471.68	13664.05
471.86	13900.44
472.04	13678.09
472.22	14045.55
472.40	13811.50
472.58	14033.85
472.77	14176.62
472.95	14375.57
473.13	14597.92
473.31	14143.86
473.49	14427.06
473.67	14246.84
473.85	14480.89
474.03	14618.99
474.21	14750.06
474.39	15087.09
474.57	14888.15
474.75	14941.98
474.93	15161.99
475.12	14780.48
475.30	15344.55
475.48	15190.08
475.66	15243.91
475.84	15042.62
476.02	15389.02
476.20	15569.24
476.38	15545.84
476.56	16194.17
476.74	16077.14
476.92	15887.56
477.10	15981.18
477.28	16280.77
477.46	16156.72
477.64	16519.50
477.82	16716.11
478.00	17214.64
478.18	17109.32
478.36	17020.38
478.54	16926.75
478.72	17130.38
478.90	17453.37
479.08	17715.51
479.26	17724.88
479.44	17802.11
479.62	17954.25
479.80	18377.89
479.98	18356.82
480.16	18661.09
480.34	18597.90
480.52	18719.60
480.70	18726.63
480.88	18408.31
481.06	18836.63
481.24	18808.54
481.41	19075.37
481.59	19632.41
481.77	19695.61
481.95	19854.76
482.13	20074.77
482.31	19686.25
482.49	20475.01
482.67	20252.66
482.85	20423.51
483.03	20877.58
483.21	20734.81
483.39	21191.21
483.57	20886.94
483.74	21163.12
483.92	21523.57
484.10	21427.60
484.28	21563.36
484.46	22155.51
484.64	22724.26
484.82	22031.46
485.00	22515.95
485.18	22750.01
485.35	23016.83
485.53	23030.87
485.71	23035.55
485.89	23456.85
486.07	23601.96
486.25	23812.61
486.43	23571.54
486.61	23894.53
486.78	23997.51
486.96	24353.27
487.14	24542.86
487.32	24856.49
487.50	25095.22
487.68	25067.14
487.85	25355.02
488.03	25802.07
488.21	26298.26
488.39	25902.71
488.57	25991.65
488.75	26436.35
488.92	26438.69
489.10	27091.70
489.28	26850.63
489.46	27220.43
489.64	27360.86
489.81	27777.48
489.99	27566.83
490.17	27908.55
490.35	27985.79
490.53	28615.39
490.70	28421.13
490.88	28709.01
491.06	28996.90
491.24	29142.01
491.41	29404.15
491.59	29294.14
491.77	29359.68
491.95	30047.80
492.13	29947.15
492.30	30246.74
492.48	29907.37
492.66	29998.65
492.84	30590.80
493.01	30888.05
493.19	30911.46
493.37	31192.32
493.54	31283.60
493.72	31690.85
493.90	31356.16
494.08	31740.00
494.25	31964.70
494.43	32063.00
494.61	32311.10
494.79	32938.36
494.96	32617.71
495.14	32802.61
495.32	33195.82
495.49	33425.19
495.67	33582.01
495.85	33736.48
496.02	33855.85
496.20	34050.11
496.38	34160.12
496.55	34354.38
496.73	35356.13
496.91	34529.92
497.09	34778.02
497.26	35276.55
497.44	35435.71
497.62	35470.82
497.79	36311.07
497.97	35693.17
498.14	36119.15
498.32	36343.84
498.50	36570.87
498.67	36776.84
498.85	36760.45
499.03	36790.88
499.20	36893.86
499.38	36926.63
499.56	37315.16
499.73	37523.47
499.91	37928.38
500.08	37605.39
500.26	37408.78
500.44	37834.76
500.61	38569.69
500.79	38162.43
500.97	38345.00
501.14	38953.54
501.32	38572.03
501.49	38433.94
501.67	38925.45
501.84	39124.40
502.02	39332.70
502.20	39129.08
502.37	39351.43
502.55	39491.86
502.72	39585.48
502.90	39742.30
503.07	40205.72
503.25	39814.85
503.43	39943.58
503.60	40058.27
503.78	40612.98
503.95	40486.59
504.13	40741.71
504.30	41163.00
504.48	40985.12
504.65	40910.22
504.83	41619.41
505.01	41865.16
505.18	41308.11
505.36	41764.52
505.53	41319.82
505.71	42220.92
505.88	42078.15
506.06	41619.41
506.23	41916.65
506.41	42061.77
506.58	42171.77
506.76	42351.99
506.93	42550.94
507.11	42447.96
507.28	43178.20
507.46	42733.50
507.63	43178.20
507.81	43957.60
507.98	43414.60
508.16	43122.03
508.33	43374.81
508.50	43880.36
508.68	43693.12
508.85	44151.87
509.03	43990.37
509.20	44100.37
509.38	44940.63
509.55	44673.81
509.73	44634.02
509.90	44804.88
510.08	44634.02
510.25	44891.48
510.42	44804.88
510.60	44912.54
510.77	45617.04
510.95	45462.57
511.12	45205.11
511.30	45390.01
511.47	45666.19
511.64	45626.40
511.82	46328.56
511.99	45989.19
512.17	46141.32
512.34	45961.10
512.51	46382.40
512.69	46466.66
512.86	46843.48
513.04	47222.65
513.21	47122.01
513.38	46885.61
513.56	47386.49
513.73	47152.43
513.90	47194.56
514.08	47047.11
514.25	47545.64
514.43	47749.27
514.60	47978.64
514.77	47529.26
514.95	47978.64
515.12	47730.54
515.29	48168.22
515.47	47791.40
515.64	48341.42
515.81	47878.00
515.99	48362.49
516.16	48933.58
516.33	48603.56
516.51	48891.45
516.68	48577.82
516.85	48704.21
517.03	49102.10
517.20	49106.78
517.37	48938.26
517.54	48898.47
517.72	49034.22
517.89	49104.44
518.06	49776.17
518.24	49485.95
518.41	49661.49
518.58	49602.97
518.75	49397.01
518.93	49593.61
519.10	49654.47
519.27	50019.59
519.45	49848.73
519.62	49617.02
519.79	50286.41
519.96	50281.73
520.14	50457.27
520.31	49844.05
520.48	50539.19
520.65	50281.73
520.83	50623.45
521.00	50780.26
521.17	50763.88
521.34	50829.41
521.52	50878.57
521.69	50873.88
521.86	51112.62
522.03	51058.79
522.20	51826.48
522.38	51653.28
522.55	51473.06
522.72	51529.23
522.89	51358.38
523.07	52027.77
523.24	51817.12
523.41	51917.76
523.58	51463.70
523.75	52123.73
523.92	52055.85
524.10	52116.71
524.27	52233.74
524.44	52105.01
524.61	52303.95
524.78	52210.33
524.96	52254.80
525.13	52336.72
525.30	52449.06
525.47	52772.06
525.64	52938.24
525.81	52844.62
525.98	52903.13
526.16	52743.97
526.33	53188.67
526.50	53354.85
526.67	52823.55
526.84	52919.51
527.01	52903.13
527.18	53221.44
527.36	53188.67
527.53	53265.91
527.70	53652.10
527.87	53715.29
528.04	52956.96
528.21	53741.04
528.38	53628.69
528.55	53558.48
528.72	53792.53
528.89	53478.90
529.07	53558.48
529.24	53818.28
529.41	53827.64
529.58	53443.79
529.75	53998.50
529.92	54169.36
530.09	54148.29
530.26	53865.09
530.43	53968.07
530.60	54038.29
530.77	53984.46
530.94	54333.20
531.11	54241.92
531.28	54438.52
531.46	54539.16
531.63	54621.08
531.80	54291.07
531.97	54571.93
532.14	54396.39
532.31	54614.06
532.48	54796.62
532.65	54803.64
532.82	54632.78
532.99	55014.29
533.16	54721.72
533.33	55089.19
533.50	55040.04
533.67	55091.53
533.84	54843.43
534.01	54862.16
534.18	55077.49
534.35	55147.70
534.52	55290.48
534.69	55318.56
534.86	55217.92
535.03	55330.26
535.20	55269.41
535.37	55267.07
535.54	55494.10
535.71	55288.13
535.88	55796.03
536.05	55742.20
536.22	55702.41
536.38	55643.90
536.55	55870.93
536.72	55999.66
536.89	55625.17
537.06	55884.97
537.23	55803.05
537.40	55756.24
537.57	55992.64
537.74	56116.68
537.91	56140.09
538.08	56140.09
538.25	55915.40
538.42	56217.33
538.59	56275.84
538.75	55952.85
538.92	56226.69
539.09	56402.23
539.26	56259.46
539.43	56371.80
539.60	56608.20
539.77	56282.86
539.94	56390.53
540.11	56563.73
540.28	56381.16
540.44	56676.07
540.61	56481.81
540.78	56591.81
540.95	56385.85
541.12	56299.25
541.29	56673.73
541.46	56678.41
541.62	56545.00
541.79	57036.51
541.96	56587.13
542.13	56577.77
542.30	56949.92
542.47	56942.89
542.63	57048.22
542.80	56968.64
542.97	56931.19
543.14	57439.09
543.31	57305.68
543.48	57401.64
543.64	57616.97
543.81	57359.51
543.98	57528.03
544.15	57385.25
544.32	57710.59
544.48	57764.42
544.65	57645.05
544.82	57478.88
544.99	57366.53
545.16	57584.20
545.32	57462.49
545.49	57902.51
545.66	57921.24
545.83	57607.61
546.00	57883.79
546.16	57815.91
546.33	57848.68
546.50	57467.17
546.67	57909.53
546.83	57623.99
547.00	57792.51
547.17	57930.60
547.34	57921.24
547.50	58010.18
547.67	58176.36
547.84	58159.97
548.00	58159.97
548.17	58433.81
548.34	58330.83
548.51	58354.24
548.67	58361.26
548.84	58277.00
549.01	58185.72
549.18	58328.49
549.34	58518.07
549.51	58347.21
549.68	58485.31
549.84	58188.06
550.01	58597.65
550.18	58007.84
550.34	58646.80
550.51	58527.44
550.68	58328.49
550.84	58384.66
551.01	58752.13
551.18	58639.78
551.34	58480.63
551.51	58684.25
551.68	58773.19
551.84	58597.65
552.01	58656.17
552.18	58665.53
552.34	58679.57
552.51	58934.69
552.68	58754.47
552.84	58873.84
553.01	59089.16
553.18	58859.79
553.34	59042.35
553.51	58607.01
553.67	58873.84
553.84	59051.72
554.01	59011.93
554.17	59154.70
554.34	59124.27
554.51	59182.79
554.67	59107.89
554.84	59079.80
555.00	59089.16
555.17	59079.80
555.33	58997.88
555.50	59154.70
555.67	59164.06
555.83	59217.89
556.00	59199.17
556.16	59454.29
556.33	59512.80
556.50	59482.37
556.66	59372.37
556.83	59276.41
556.99	59639.19
557.16	59512.80
557.32	59477.69
557.49	59749.20
557.65	59346.62
557.82	59627.49
557.98	59522.16
558.15	59475.35
558.32	59578.34
558.48	59299.81
558.65	59767.92
558.81	59697.70
558.98	59868.56
559.14	59639.19
559.31	59807.71
559.47	59943.46
559.64	59845.16
559.80	60016.02
559.97	59948.14
560.13	59800.69
560.30	59765.58
560.46	59791.33
560.63	59917.71
560.79	59793.67
560.96	59999.63
561.12	59922.40
561.29	59810.05
561.45	59980.91
561.61	59821.75
561.78	60076.87
561.94	59868.56
562.11	59943.46
562.27	59910.69
562.44	60095.60
562.60	60285.18
562.77	59917.71
562.93	59920.05
563.10	60151.77
563.26	59997.29
563.42	60261.77
563.59	60004.31
563.75	60107.30
563.92	60355.39
564.08	60179.85
564.24	60257.09
564.41	60236.03
564.57	60177.51
564.74	60214.96
564.90	60207.94
565.07	60348.37
565.23	60090.91
565.39	60287.52
565.56	60395.18
565.72	60158.79
565.88	60317.95
566.05	60371.78
566.21	60388.16
566.38	60261.77
566.54	60500.51
566.70	60636.26
566.87	60329.65
567.03	60257.09
567.19	60615.19
567.36	60495.83
567.52	60317.95
567.68	60521.57
567.85	60444.33
568.01	60552.00
568.17	60479.44
568.34	60598.81
568.50	60409.23
568.66	60434.97
568.83	60633.92
568.99	60547.32
569.15	60573.06
569.32	60570.72
569.48	60582.43
569.64	60694.77
569.81	60514.55
569.97	60516.89
570.13	60570.72
570.30	60198.58
570.46	60610.51
570.62	60683.07
570.78	60612.85
570.95	60561.36
571.11	60640.94
571.27	60460.72
571.43	60603.49
571.60	60879.67
571.76	60828.18
571.92	60921.80
572.09	60828.18
572.25	60814.14
572.41	60917.12
572.57	60889.04
572.74	60903.08
572.90	60842.23
573.06	60687.75
573.22	60835.20
573.38	60807.12
573.55	60874.99
573.71	60842.23
573.87	60874.99
574.03	60725.20
574.20	60781.37
574.36	60591.79
574.52	60996.70
574.68	60842.23
574.84	60750.94
575.01	60856.27
575.17	60839.89
575.33	60772.01
575.49	60715.84
575.65	60942.87
575.82	61003.72
575.98	60905.42
576.14	61066.92
576.30	61029.47
576.46	60750.94
576.62	60729.88
576.79	60921.80
576.95	60786.05
577.11	61038.83
577.27	60961.59
577.43	61123.09
577.59	60739.24
577.75	60736.90
577.92	60825.84
578.08	60783.71
578.24	60940.53
578.40	61034.15
578.56	61151.18
578.72	60882.02
578.88	60970.96
579.04	61186.28
579.21	61006.06
579.37	61235.44
579.53	61104.37
579.69	60767.33
579.85	61055.21
580.01	61169.90
580.17	60928.83
580.33	61116.07
580.49	61350.12
580.65	60865.63
580.82	61120.75
580.98	60893.72
581.14	60903.08
581.30	61148.84
581.46	60898.40
581.62	60907.76
581.78	60870.31
581.94	61125.43
582.10	61181.60
582.26	60942.87
582.42	61104.37
582.58	61080.96
582.74	61087.98
582.90	61001.38
583.06	61071.60
583.22	61064.58
583.38	60870.31
583.54	61333.74
583.70	61226.07
583.86	61303.31
584.02	61141.81
584.18	61169.90
584.34	61228.41
584.50	61275.22
584.66	61038.83
584.82	60945.21
584.98	61265.86
585.14	61160.54
585.30	61001.38
585.46	61062.24
585.62	61104.37
585.78	61366.51
585.94	60891.38
586.10	61207.35
586.26	61293.95
586.42	61331.40
586.58	61240.12
586.74	61172.24
586.90	60975.64
587.06	61010.74
587.22	61425.02
587.38	61244.80
587.54	61354.80
587.70	61385.23
587.86	61013.08
588.02	61130.11
588.18	61179.26
588.34	61256.50
588.49	61338.42
