SpectraSuite Data File
++++++++++++++++++++++++++++++++++++
Date: Fri Oct 25 10:47:46 EDT 2013
User: price-jones
Dark Spectrum Present: No
Reference Spectrum Present: No
Number of Sampled Component Spectra: 1
Spectrometers: USB2+H05261
Integration Time (usec): 100000 (USB2+H05261)
Spectra Averaged: 1 (USB2+H05261)
Boxcar Smoothing: 0 (USB2+H05261)
Correct for Electrical Dark: No (USB2+H05261)
Strobe/Lamp Enabled: No (USB2+H05261)
Correct for Detector Non-linearity: No (USB2+H05261)
Correct for Stray Light: No (USB2+H05261)
Number of Pixels in Processed Spectrum: 2048
>>>>>Begin Processed Spectral Data<<<<<
365.73	124.05
365.92	124.05
366.12	124.05
366.32	140.43
366.52	0.00
366.72	32.77
366.91	0.00
367.11	28.09
367.31	0.00
367.51	35.11
367.70	60.85
367.90	65.54
368.10	56.17
368.30	28.09
368.49	58.51
368.69	18.72
368.89	42.13
369.09	37.45
369.28	88.94
369.48	100.64
369.68	112.35
369.87	180.22
370.07	131.07
370.27	145.11
370.47	208.31
370.66	362.78
370.86	404.91
371.06	393.21
371.25	423.64
371.45	447.04
371.65	475.13
371.84	430.66
372.04	435.34
372.24	458.74
372.44	423.64
372.63	547.69
372.83	475.13
373.03	512.58
373.22	554.71
373.42	484.49
373.62	486.83
373.81	493.85
374.01	554.71
374.21	641.31
374.40	524.28
374.60	566.41
374.79	589.82
374.99	573.43
375.19	580.45
375.38	622.58
375.58	491.51
375.78	503.22
375.97	524.28
376.17	575.77
376.37	601.52
376.56	545.34
376.76	615.56
376.95	521.94
377.15	645.99
377.35	573.43
377.54	596.84
377.74	622.58
377.93	634.29
378.13	627.26
378.33	734.93
378.52	617.90
378.72	587.47
378.91	660.03
379.11	655.35
379.31	627.26
379.50	669.39
379.70	629.60
379.89	645.99
380.09	617.90
380.28	681.10
380.48	760.67
380.68	662.37
380.87	730.25
381.07	711.52
381.26	737.27
381.46	744.29
381.65	692.80
381.85	664.71
382.04	669.39
382.24	711.52
382.43	676.41
382.63	748.97
382.83	716.20
383.02	667.05
383.22	664.71
383.41	760.67
383.61	697.48
383.80	741.95
384.00	760.67
384.19	723.23
384.39	767.70
384.58	753.65
384.78	779.40
384.97	833.23
385.17	730.25
385.36	671.73
385.56	709.18
385.75	704.50
385.95	791.10
386.14	835.57
386.34	767.70
386.53	765.36
386.72	795.78
386.92	767.70
387.11	777.06
387.31	882.38
387.50	695.14
387.70	763.01
387.89	873.02
388.09	847.27
388.28	805.14
388.48	772.38
388.67	821.53
388.86	933.87
389.06	926.85
389.25	873.02
389.45	894.08
389.64	917.49
389.84	873.02
390.03	990.05
390.22	898.77
390.42	896.43
390.61	952.60
390.81	936.21
391.00	945.58
391.19	987.71
391.39	905.79
391.58	961.96
391.78	915.15
391.97	1022.81
392.16	964.30
392.36	976.00
392.55	987.71
392.75	898.77
392.94	1050.90
393.13	994.73
393.33	992.39
393.52	870.68
393.71	1032.18
393.91	1074.31
394.10	1036.86
394.29	1015.79
394.49	1027.50
394.68	1104.73
394.88	1097.71
395.07	1224.10
395.26	1100.05
395.46	1111.75
395.65	1144.52
395.84	1022.81
396.04	1196.01
396.23	1167.93
396.42	1137.50
396.62	1130.48
396.81	1137.50
397.00	1181.97
397.19	1254.53
397.39	1118.78
397.58	1214.74
397.77	1217.08
397.97	1188.99
398.16	1242.82
398.35	1207.72
398.55	1287.29
398.74	1345.81
398.93	1420.71
399.12	1366.87
399.32	1418.36
399.51	1453.47
399.70	1460.49
399.90	1420.71
400.09	1441.77
400.28	1479.22
400.47	1366.87
400.67	1448.79
400.86	1476.88
401.05	1533.05
401.24	1493.26
401.44	1401.98
401.63	1441.77
401.82	1526.03
402.01	1516.67
402.21	1514.33
402.40	1645.40
402.59	1530.71
402.78	1537.73
402.97	1519.01
403.17	1572.84
403.36	1558.80
403.55	1607.95
403.74	1689.87
403.93	1589.22
404.13	1561.14
404.32	1614.97
404.51	1621.99
404.70	1668.80
404.89	1715.61
405.09	1867.75
405.28	1638.38
405.47	1722.63
405.66	1750.72
405.85	1813.92
406.05	1755.40
406.24	1816.26
406.43	1788.17
406.62	1872.43
406.81	1905.20
407.00	1795.19
407.20	1797.53
407.39	1895.83
407.58	1975.41
407.77	1872.43
407.96	1973.07
408.15	1947.33
408.34	2069.03
408.54	2038.61
408.73	1902.86
408.92	1982.43
409.11	2054.99
409.30	1928.60
409.49	2036.27
409.68	2085.42
409.87	2143.93
410.07	2080.74
410.26	2113.50
410.45	2143.93
410.64	2272.66
410.83	2218.83
411.02	2235.21
411.21	2375.64
411.40	2373.30
411.59	2408.41
411.78	2284.36
411.98	2296.07
412.17	2228.19
412.36	2342.88
412.55	2403.73
412.74	2469.27
412.93	2464.58
413.12	2408.41
413.31	2595.65
413.50	2471.61
413.69	2520.76
413.88	2635.44
414.07	2518.42
414.26	2626.08
414.45	2642.46
414.64	2626.08
414.83	2635.44
415.02	2761.83
415.22	2796.94
415.41	2857.79
415.60	2771.19
415.79	2911.63
415.98	2965.46
416.17	2857.79
416.36	2897.58
416.55	2874.18
416.74	2937.37
416.93	2911.63
417.12	2932.69
417.31	3052.06
417.50	2991.20
417.69	3194.83
417.88	2986.52
418.07	3002.91
418.26	3094.19
418.45	3045.04
418.64	3279.09
418.83	3286.11
419.02	3016.95
419.21	3187.81
419.39	3227.60
419.58	3110.57
419.77	3187.81
419.96	3243.98
420.15	3309.52
420.34	3220.58
420.53	3283.77
420.72	3449.95
420.91	3421.86
421.10	3485.06
421.29	3400.80
421.48	3337.60
421.67	3417.18
421.86	3393.78
422.05	3438.25
422.24	3316.54
422.43	3485.06
422.61	3566.98
422.80	3564.64
422.99	3463.99
423.18	3548.25
423.37	3611.45
423.56	3529.53
423.75	3520.17
423.94	3445.27
424.13	3382.07
424.32	3428.88
424.50	3440.59
424.69	3702.73
424.88	3702.73
425.07	3545.91
425.26	3604.42
425.45	3562.30
425.64	3578.68
425.83	3543.57
426.01	3644.21
426.20	3609.11
426.39	3641.87
426.58	3557.61
426.77	3492.08
426.96	3646.55
427.15	3520.17
427.33	3707.41
427.52	3627.83
427.71	3719.11
427.90	3623.15
428.09	3754.22
428.28	3887.63
428.46	3796.35
428.65	3948.48
428.84	3873.59
429.03	3864.22
429.22	3719.11
429.40	3929.76
429.59	3772.94
429.78	3714.43
429.97	3688.68
430.16	3801.03
430.34	3777.62
430.53	3819.75
430.72	3950.82
430.91	3906.35
431.10	3997.64
431.28	3981.25
431.47	4091.26
431.66	4079.55
431.85	4032.74
432.03	4187.22
432.22	4145.09
432.41	4140.41
432.60	4032.74
432.79	4184.88
432.97	4227.01
433.16	4290.20
433.35	4159.13
433.54	4205.94
433.72	4313.61
433.91	4290.20
434.10	4320.63
434.28	4470.42
434.47	4435.32
434.66	4456.38
434.85	4409.57
435.03	4521.92
435.22	4540.64
435.41	4503.19
435.59	4407.23
435.78	4521.92
435.97	4667.03
436.16	4561.70
436.34	4517.23
436.53	4535.96
436.72	4791.08
436.90	4608.51
437.09	4784.06
437.28	4732.56
437.46	4692.77
437.65	4610.86
437.84	4798.10
438.02	4737.24
438.21	4788.74
438.40	4559.36
438.58	4767.67
438.77	4943.21
438.96	4961.94
439.14	5100.03
439.33	5057.90
439.52	5039.17
439.70	5069.60
439.89	5004.07
440.08	5123.43
440.26	5383.23
440.45	5191.31
440.63	5355.15
440.82	5432.38
441.01	5296.63
441.19	5399.62
441.38	5399.62
441.57	5383.23
441.75	5518.98
441.94	5689.84
442.12	5652.39
442.31	5654.73
442.50	5689.84
442.68	5556.43
442.87	5607.92
443.05	5717.93
443.24	5860.70
443.43	5710.91
443.61	5769.42
443.80	6129.86
443.98	5771.76
444.17	5823.25
444.35	5797.51
444.54	6078.37
444.73	5851.34
444.91	5776.44
445.10	5930.92
445.28	5839.64
445.47	5867.72
445.65	5877.09
445.84	5657.07
446.02	5839.64
446.21	5727.29
446.39	5795.17
446.58	5996.45
446.77	6064.33
446.95	5895.81
447.14	6087.73
447.32	6127.52
447.51	6188.38
447.69	5956.66
447.88	5975.39
448.06	5844.32
448.25	6066.67
448.43	6064.33
448.62	6050.28
448.80	5912.19
448.99	6113.48
449.17	6012.84
449.36	6064.33
449.54	6384.98
449.73	6314.77
449.91	6321.79
450.10	6455.20
450.28	6487.96
450.46	6338.17
450.65	6394.34
450.83	6476.26
451.02	6434.13
451.20	6392.00
451.39	6574.56
451.57	6480.94
451.76	6303.06
451.94	6502.01
452.13	6373.28
452.31	6586.27
452.49	6305.40
452.68	6642.44
452.86	6600.31
453.05	6612.01
453.23	6593.29
453.42	6633.08
453.60	6595.63
453.78	6700.95
453.97	6558.18
454.15	6668.19
454.34	6789.89
454.52	6796.92
454.70	6808.62
454.89	6745.42
455.07	6843.73
455.26	6771.17
455.44	6801.60
455.62	6815.64
455.81	6956.07
455.99	7042.67
456.17	7061.40
456.36	6972.46
456.54	7124.59
456.73	7157.36
456.91	7330.56
457.09	7138.63
457.28	7356.30
457.46	7304.81
457.64	7246.30
457.83	7288.43
458.01	7276.73
458.19	7524.82
458.38	7368.01
458.56	7510.78
458.74	7445.24
458.93	7468.65
459.11	7604.40
459.29	7527.16
459.48	7564.61
459.66	7321.20
459.84	7382.05
460.03	7747.17
460.21	7506.10
460.39	7698.02
460.57	7679.30
460.76	7735.47
460.94	7819.73
461.12	7742.49
461.31	7770.58
461.49	7707.38
461.67	7676.96
461.85	7824.41
462.04	7903.99
462.22	8301.88
462.40	7864.20
462.59	7929.74
462.77	8093.57
462.95	8063.15
463.13	7967.18
463.32	7908.67
463.50	8203.58
463.68	8116.98
463.86	8152.09
464.05	8088.89
464.23	8021.02
464.41	8278.47
464.59	8088.89
464.78	8325.29
464.96	8163.79
465.14	8189.53
465.32	8329.97
465.50	8313.58
465.69	8542.96
465.87	8416.57
466.05	8444.65
466.23	8435.29
466.41	8425.93
466.60	8498.49
466.78	8308.90
466.96	8449.33
467.14	8407.20
467.32	8416.57
467.51	8615.51
467.69	8301.88
467.87	8634.24
468.05	8521.89
468.23	8603.81
468.41	8571.04
468.60	8662.32
468.78	8938.51
468.96	8535.93
469.14	8875.31
469.32	8854.25
469.50	8809.78
469.69	9071.92
469.87	8940.85
470.05	8980.64
470.23	9027.45
470.41	8926.80
470.59	9202.99
470.77	9144.47
470.95	8849.57
471.14	9163.20
471.32	9156.18
471.50	9415.98
471.68	9151.49
471.86	9322.35
472.04	9446.40
472.22	9652.37
472.40	9165.54
472.58	9465.13
472.77	9610.24
472.95	9680.46
473.13	9795.14
473.31	9446.40
473.49	9734.29
473.67	9675.77
473.85	9745.99
474.03	9928.55
474.21	10026.86
474.39	10029.20
474.57	9748.33
474.75	10204.74
474.93	10476.24
475.12	10038.56
475.30	10464.54
475.48	10073.67
475.66	10403.68
475.84	10113.45
476.02	10251.55
476.20	10333.47
476.38	10417.72
476.56	10977.11
476.74	10576.88
476.92	10761.78
477.10	10780.51
477.28	11201.80
477.46	10981.79
477.64	11183.08
477.82	11257.98
478.00	11686.29
478.18	11260.32
478.36	11269.68
478.54	11681.61
478.72	11461.60
478.90	11571.61
479.08	11754.17
479.26	11826.73
479.44	11925.03
479.62	11995.25
479.80	12156.74
479.98	12175.47
480.16	12503.14
480.34	12404.84
480.52	12369.73
480.70	12776.98
480.88	12402.50
481.06	12634.21
481.24	12592.08
481.41	12596.76
481.59	12992.31
481.77	13104.66
481.95	13132.75
482.13	12929.12
482.31	13305.95
482.49	13528.30
482.67	13642.98
482.85	13767.03
483.03	13762.35
483.21	13935.55
483.39	14195.35
483.57	14064.28
483.74	14384.93
483.92	14209.39
484.10	14274.93
484.28	14595.58
484.46	14534.73
484.64	15059.01
484.82	14909.21
485.00	14703.25
485.18	15131.56
485.35	15164.33
485.53	15066.03
485.71	14897.51
485.89	15169.01
486.07	15293.06
486.25	15393.70
486.43	15742.44
486.61	15800.96
486.78	15728.40
486.96	16032.67
487.14	16308.85
487.32	16411.84
487.50	16423.54
487.68	16716.11
487.85	16858.88
488.03	16975.91
488.21	17149.11
488.39	16943.14
488.57	17284.86
488.75	17453.37
488.92	17500.19
489.10	17530.61
489.28	17841.90
489.46	18024.47
489.64	18045.53
489.81	18415.34
489.99	18684.50
490.17	18590.88
490.35	18735.99
490.53	18773.44
490.70	19009.83
490.88	18574.49
491.06	19075.37
491.24	19297.72
491.41	19035.58
491.59	19391.34
491.77	19316.44
491.95	19545.81
492.13	19779.87
492.30	19936.68
492.48	19896.89
492.66	19943.70
492.84	20114.56
493.01	20652.89
493.19	20130.95
493.37	20746.51
493.54	20786.30
493.72	21003.97
493.90	20893.96
494.08	20908.01
494.25	21312.92
494.43	21535.27
494.61	21348.03
494.79	21514.20
494.96	21539.95
495.14	21502.50
495.32	21666.34
495.49	21792.73
495.67	22139.13
495.85	22183.60
496.02	22396.59
496.20	22796.82
496.38	22438.72
496.55	22611.92
496.73	23129.17
496.91	22750.01
497.09	22628.30
497.26	23269.61
497.44	22927.89
497.62	23513.02
497.79	23438.12
497.97	23225.14
498.14	23543.45
498.32	23828.99
498.50	23653.45
498.67	23922.62
498.85	23889.85
499.03	24009.22
499.20	24278.38
499.38	24423.49
499.56	24540.52
499.73	24615.41
499.91	24648.18
500.08	24812.02
500.26	24222.20
500.44	24694.99
500.61	25135.01
500.79	24423.49
500.97	24931.39
501.14	25399.49
501.32	25242.68
501.49	25020.33
501.67	25191.19
501.84	25380.77
502.02	25460.35
502.20	25617.16
502.37	25577.37
502.55	25472.05
502.72	26120.38
502.90	26321.66
503.07	26160.17
503.25	25989.31
503.43	26380.18
503.60	26588.49
503.78	26052.50
503.95	26340.39
504.13	26642.32
504.30	26551.04
504.48	26925.52
504.65	26302.94
504.83	27213.41
505.01	27072.98
505.18	27082.34
505.36	27510.66
505.53	26934.88
505.71	27541.08
505.88	27536.40
506.06	27182.98
506.23	27810.25
506.41	27690.88
506.58	27648.75
506.76	27608.96
506.93	28077.07
507.11	27934.29
507.28	28074.73
507.46	27896.85
507.63	28140.26
507.81	28212.82
507.98	28147.28
508.16	28563.90
508.33	28566.24
508.50	28687.95
508.68	28568.58
508.85	29294.14
509.03	28737.10
509.20	29221.59
509.38	29071.79
509.55	29284.78
509.73	29298.83
509.90	29373.72
510.08	29331.59
510.25	29102.22
510.42	29766.93
510.60	29509.47
510.77	29455.64
510.95	29509.47
511.12	29502.45
511.30	29654.59
511.47	30043.12
511.64	30064.18
511.82	30347.39
511.99	30108.65
512.17	30508.88
512.34	29830.13
512.51	30246.74
512.69	30471.43
512.86	30663.36
513.04	30492.50
513.21	30806.13
513.38	30934.86
513.56	30588.46
513.73	30546.33
513.90	31105.72
514.08	30881.03
514.25	30988.69
514.43	31014.44
514.60	31026.14
514.77	30792.09
514.95	31630.00
515.12	31372.54
515.29	31988.10
515.47	31800.86
515.64	31704.90
515.81	31508.29
515.99	31969.38
516.16	31768.09
516.33	31700.22
516.51	31634.68
516.68	31122.10
516.85	31828.95
517.03	31749.37
517.20	32105.13
517.37	32233.86
517.54	32369.61
517.72	32692.60
517.89	32144.92
518.06	32826.01
518.24	32261.94
518.41	32704.31
518.58	32493.66
518.75	32287.69
518.93	33184.12
519.10	32865.80
519.27	32985.17
519.45	33024.96
519.62	32910.27
519.79	33146.67
519.96	32809.63
520.14	33228.59
520.31	33149.01
520.48	33486.04
520.65	33448.60
520.83	33474.34
521.00	33745.84
521.17	33769.25
521.34	33745.84
521.52	33687.33
521.69	34230.33
521.86	34302.89
522.03	34281.83
522.20	34176.50
522.38	34314.59
522.55	34597.80
522.72	34103.95
522.89	34525.24
523.07	35002.71
523.24	34139.05
523.41	34417.58
523.58	34433.96
523.75	34754.61
523.92	34810.79
524.10	35002.71
524.27	34934.84
524.44	35019.10
524.61	34986.33
524.78	35150.17
524.96	35227.40
525.13	35096.33
525.30	35840.62
525.47	35683.81
525.64	35316.34
525.81	35873.39
525.98	35573.80
526.16	35285.92
526.33	35225.06
526.50	35995.10
526.67	35758.70
526.84	35683.81
527.01	36032.55
527.18	35847.64
527.36	36261.92
527.53	36105.10
527.70	36086.38
527.87	36416.40
528.04	36411.71
528.21	36570.87
528.38	36432.78
528.55	36177.66
528.72	36477.25
528.89	36627.04
529.07	36458.52
529.24	36273.62
529.41	37134.94
529.58	36264.26
529.75	36847.05
529.92	37013.23
530.09	36594.28
530.26	37249.63
530.43	37010.89
530.60	36886.84
530.77	36945.36
530.94	37186.43
531.11	37109.19
531.28	37202.82
531.46	37354.95
531.63	37383.04
531.80	37659.22
531.97	36833.01
532.14	37235.58
532.31	37308.14
532.48	37263.67
532.65	37376.01
532.82	37404.10
532.99	37865.19
533.16	37589.00
533.33	37846.46
533.50	37766.88
533.67	37645.18
533.84	37806.67
534.01	38089.88
534.18	37429.85
534.35	38707.78
534.52	38071.15
534.69	37933.06
534.86	38588.41
535.03	38136.69
535.20	38377.76
535.37	38527.56
535.54	38504.15
535.71	38326.27
535.88	38347.34
536.05	38520.54
536.22	38679.69
536.38	38536.92
536.55	38579.05
536.72	38785.02
536.89	38431.60
537.06	38888.00
537.23	38714.80
537.40	38621.18
537.57	39016.73
537.74	38541.60
537.91	39372.49
538.08	39203.97
538.25	38939.49
538.42	39445.05
538.59	39557.39
538.75	39140.78
538.92	39311.64
539.09	39192.27
539.26	39108.01
539.43	39702.51
539.60	39353.77
539.77	39519.95
539.94	39576.12
540.11	39604.20
540.28	39353.77
540.44	39225.04
540.61	39885.07
540.78	39597.18
540.95	39669.74
541.12	39618.25
541.29	39725.91
541.46	39543.35
541.62	39931.88
541.79	40126.14
541.96	39615.91
542.13	40098.06
542.30	40526.38
542.47	39882.73
542.63	39892.09
542.80	40268.92
542.97	40786.18
543.14	41193.43
543.31	40601.27
543.48	40561.48
543.64	41155.98
543.81	40910.22
543.98	40739.36
544.15	40673.83
544.32	40407.01
544.48	41294.07
544.65	40870.43
544.82	40980.44
544.99	40807.24
545.16	41212.15
545.32	40898.52
545.49	41125.55
545.66	41397.06
545.83	41481.31
546.00	41507.06
546.16	41291.73
546.33	41422.80
546.50	40741.71
546.67	41368.97
546.83	40856.39
547.00	41216.83
547.17	41158.32
547.34	41411.10
547.50	41432.16
547.67	41411.10
547.84	41490.68
548.00	41832.39
548.17	41483.66
548.34	41310.46
548.51	41701.32
548.67	41689.62
548.84	41909.63
549.01	41804.31
549.18	41605.36
549.34	41846.44
549.51	41881.55
549.68	42026.66
549.84	42426.89
550.01	42213.90
550.18	41783.24
550.34	41734.09
550.51	41869.84
550.68	42005.59
550.84	41867.50
551.01	42230.29
551.18	41762.18
551.34	42426.89
551.51	42342.63
551.68	41862.82
551.84	42464.34
552.01	42108.58
552.18	42293.48
552.34	42160.07
552.51	42862.23
552.68	42429.23
552.84	42925.42
553.01	42965.21
553.18	42127.30
553.34	42595.41
553.51	42115.60
553.67	42590.73
553.84	42918.40
554.01	43084.58
554.17	42925.42
554.34	43014.37
554.51	43065.86
554.67	43058.84
554.84	42815.42
555.00	43100.97
555.17	42878.61
555.33	42939.47
555.50	42733.50
555.67	43262.46
555.83	43185.22
556.00	43091.60
556.16	43239.06
556.33	43152.46
556.50	42859.89
556.66	43150.12
556.83	43377.15
556.99	42895.00
557.16	43093.94
557.32	43480.13
557.49	43339.70
557.65	43302.25
557.82	43363.11
557.98	42916.06
558.15	42719.46
558.32	43751.63
558.48	43028.41
558.65	43332.68
558.81	43421.62
558.98	43320.98
559.14	43192.25
559.31	43388.85
559.47	43529.28
559.64	44018.46
559.80	43988.03
559.97	43931.86
560.13	43566.73
560.30	43374.81
560.46	43981.01
560.63	43461.41
560.79	43758.66
560.96	44055.90
561.12	43545.67
561.29	44140.16
561.45	43828.87
561.61	43466.09
561.78	43454.39
561.94	43782.06
562.11	43859.30
562.27	43512.90
562.44	43454.39
562.60	44144.84
562.77	44472.52
562.93	43917.81
563.10	44397.62
563.26	43821.85
563.42	43997.39
563.59	43868.66
563.75	43622.90
563.92	44053.56
564.08	44086.33
564.24	43861.64
564.41	44376.56
564.57	43753.97
564.74	43964.62
564.90	44156.55
565.07	44074.63
565.23	43941.22
565.39	44098.03
565.56	44311.02
565.72	44289.96
565.88	44257.19
566.05	44044.20
566.21	44058.24
566.38	44362.51
566.54	44491.24
566.70	44018.46
566.87	44568.48
567.03	44428.05
567.19	44481.88
567.36	44435.07
567.52	44311.02
567.68	44697.21
567.85	44165.91
568.01	44362.51
568.17	44463.16
568.34	44622.31
568.50	44116.76
568.66	44320.38
568.83	44491.24
568.99	44002.07
569.15	44446.77
569.32	44140.16
569.48	44196.34
569.64	44458.48
569.81	44509.97
569.97	44912.54
570.13	44519.33
570.30	44296.98
570.46	43929.51
570.62	44315.70
570.78	44123.78
570.95	44116.76
571.11	44266.55
571.27	44374.22
571.43	44650.40
571.60	44453.79
571.76	44444.43
571.92	44313.36
572.09	44676.15
572.25	44692.53
572.41	44294.64
572.57	44861.05
572.74	44828.28
572.90	44926.58
573.06	44491.24
573.22	44549.76
573.38	44484.22
573.55	44502.95
573.71	44921.90
573.87	44285.28
574.03	44392.94
574.20	44439.75
574.36	44219.74
574.52	45055.31
574.68	44540.39
574.84	44868.07
575.01	44416.35
575.17	44687.85
575.33	44516.99
575.49	44128.46
575.65	44809.56
575.82	45153.62
575.98	44491.24
576.14	44957.01
576.30	44570.82
576.46	44673.81
576.62	44662.10
576.79	44182.29
576.95	44212.72
577.11	44566.14
577.27	44488.90
577.43	44788.49
577.59	44512.31
577.75	44596.57
577.92	44694.87
578.08	44002.07
578.24	44619.97
578.40	44776.79
578.56	44652.74
578.72	44776.79
578.88	44722.96
579.04	44910.20
579.21	44421.03
579.37	44959.35
579.53	44966.37
579.69	44493.58
579.85	44877.43
580.01	45031.91
580.17	44636.36
580.33	45109.14
580.49	45420.44
580.65	45146.59
580.82	44619.97
580.98	44418.69
581.14	44685.51
581.30	44765.09
581.46	45041.27
581.62	44825.94
581.78	44938.29
581.94	45179.36
582.10	44495.92
582.26	45048.29
582.42	44917.22
582.58	44905.52
582.74	44783.81
582.90	44802.53
583.06	44835.30
583.22	45022.54
583.38	45031.91
583.54	44907.86
583.70	44823.60
583.86	44807.22
584.02	44486.56
584.18	44872.75
584.34	45013.18
584.50	44603.59
584.66	44533.37
584.82	44687.85
584.98	45071.70
585.14	45015.52
585.30	45247.24
585.46	44861.05
585.62	44533.37
585.78	44947.65
585.94	44376.56
586.10	44568.48
586.26	44844.66
586.42	45029.57
586.58	45174.68
586.74	45174.68
586.90	44697.21
587.06	44418.69
587.22	44851.69
587.38	44498.26
587.54	45294.05
587.70	45265.96
587.86	44790.83
588.02	44584.86
588.18	45209.79
588.34	45184.04
588.49	45155.96
588.65	44477.20
588.81	45045.95
588.97	45090.42
589.13	44718.28
589.29	44634.02
589.45	44486.56
589.61	44957.01
589.77	45443.84
589.93	45116.17
590.08	45099.78
590.24	45247.24
