SpectraSuite Data File
++++++++++++++++++++++++++++++++++++
Date: Fri Oct 25 11:26:28 EDT 2013
User: price-jones
Dark Spectrum Present: No
Reference Spectrum Present: No
Number of Sampled Component Spectra: 1
Spectrometers: USB2+H05261
Integration Time (usec): 100000 (USB2+H05261)
Spectra Averaged: 1 (USB2+H05261)
Boxcar Smoothing: 0 (USB2+H05261)
Correct for Electrical Dark: No (USB2+H05261)
Strobe/Lamp Enabled: No (USB2+H05261)
Correct for Detector Non-linearity: No (USB2+H05261)
Correct for Stray Light: No (USB2+H05261)
Number of Pixels in Processed Spectrum: 2048
>>>>>Begin Processed Spectral Data<<<<<
365.73	224.69
365.92	224.69
366.12	224.69
366.32	175.54
366.52	170.86
366.72	168.52
366.91	88.94
367.11	133.41
367.31	98.30
367.51	81.92
367.70	145.11
367.90	140.43
368.10	86.60
368.30	142.77
368.49	163.84
368.69	224.69
368.89	161.50
369.09	175.54
369.28	187.24
369.48	170.86
369.68	135.75
369.87	217.67
370.07	215.33
370.27	297.25
370.47	325.33
370.66	540.66
370.86	599.18
371.06	674.07
371.25	730.25
371.45	671.73
371.65	730.25
371.84	629.60
372.04	695.14
372.24	725.57
372.44	786.42
372.63	770.04
372.83	699.82
373.03	763.01
373.22	725.57
373.42	770.04
373.62	809.83
373.81	791.10
374.01	821.53
374.21	823.87
374.40	887.06
374.60	851.96
374.79	868.34
374.99	816.85
375.19	793.44
375.38	842.59
375.58	891.74
375.78	896.43
375.97	868.34
376.17	945.58
376.37	816.85
376.56	952.60
376.76	908.13
376.95	901.11
377.15	851.96
377.35	858.98
377.54	933.87
377.74	908.13
377.93	891.74
378.13	896.43
378.33	924.51
378.52	938.55
378.72	959.62
378.91	957.28
379.11	968.98
379.31	957.28
379.50	966.64
379.70	964.30
379.89	938.55
380.09	1015.79
380.28	980.68
380.48	999.41
380.68	978.34
380.87	1027.50
381.07	1055.58
381.26	1060.26
381.46	978.34
381.65	1015.79
381.85	1064.94
382.04	1107.07
382.24	1027.50
382.43	1057.92
382.63	1053.24
382.83	1132.82
383.02	1102.39
383.22	1142.18
383.41	1057.92
383.61	1149.20
383.80	1158.57
384.00	1090.69
384.19	1137.50
384.39	1186.65
384.58	1151.54
384.78	1191.33
384.97	1158.57
385.17	1153.88
385.36	1235.80
385.56	1191.33
385.75	1151.54
385.95	1282.61
386.14	1210.06
386.34	1086.01
386.53	1111.75
386.72	1158.57
386.92	1287.29
387.11	1324.74
387.31	1191.33
387.50	1249.85
387.70	1334.11
387.89	1294.32
388.09	1130.48
388.28	1231.12
388.48	1266.23
388.67	1277.93
388.86	1210.06
389.06	1289.64
389.25	1406.66
389.45	1376.24
389.64	1299.00
389.84	1359.85
390.03	1385.60
390.22	1437.09
390.42	1425.39
390.61	1334.11
390.81	1390.28
391.00	1462.83
391.19	1401.98
391.39	1362.19
391.58	1476.88
391.78	1547.09
391.97	1511.99
392.16	1404.32
392.36	1495.60
392.55	1551.78
392.75	1554.12
392.94	1582.20
393.13	1540.07
393.33	1629.01
393.52	1593.90
393.71	1502.62
393.91	1586.88
394.10	1495.60
394.29	1629.01
394.49	1575.18
394.68	1675.82
394.88	1626.67
395.07	1699.23
395.26	1661.78
395.46	1732.00
395.65	1694.55
395.84	1830.30
396.04	1739.02
396.23	1678.16
396.42	1668.80
396.62	1762.42
396.81	1778.81
397.00	1757.74
397.19	1863.07
397.39	1764.76
397.58	1874.77
397.77	1806.89
397.97	1881.79
398.16	1760.08
398.35	1982.43
398.55	1839.66
398.74	1785.83
398.93	2008.18
399.12	1820.94
399.32	1844.34
399.51	1884.13
399.70	1982.43
399.90	1982.43
400.09	1881.79
400.28	1937.96
400.47	2040.95
400.67	2062.01
400.86	1987.11
401.05	2094.78
401.24	2202.44
401.44	2062.01
401.63	2228.19
401.82	2136.91
402.01	2129.89
402.21	2176.70
402.40	2157.97
402.59	2193.08
402.78	2179.04
402.97	2188.40
403.17	2267.98
403.36	2333.51
403.55	2307.77
403.74	2342.88
403.93	2366.28
404.13	2312.45
404.32	2448.20
404.51	2349.90
404.70	2537.14
404.89	2377.98
405.09	2523.10
405.28	2431.82
405.47	2422.45
405.66	2464.58
405.85	2497.35
406.05	2520.76
406.24	2607.36
406.43	2633.10
406.62	2642.46
406.81	2649.49
407.00	2548.84
407.20	2530.12
407.39	2609.70
407.58	2745.45
407.77	2649.49
407.96	2782.90
408.15	2808.64
408.34	2635.44
408.54	2864.82
408.73	2710.34
408.92	2757.15
409.11	2869.50
409.30	2738.43
409.49	2911.63
409.68	2871.84
409.87	2986.52
410.07	2935.03
410.26	2979.50
410.45	3049.72
410.64	2970.14
410.83	2995.89
411.02	3152.70
411.21	3145.68
411.40	3169.09
411.59	3105.89
411.78	3038.02
411.98	3159.72
412.17	3337.60
412.36	3222.92
412.55	3309.52
412.74	3419.52
412.93	3353.99
413.12	3297.81
413.31	3606.77
413.50	3487.40
413.69	3562.30
413.88	3468.67
414.07	3557.61
414.26	3592.72
414.45	3536.55
414.64	3620.81
414.83	3693.37
415.02	3716.77
415.22	3843.16
415.41	3896.99
415.60	3871.25
415.79	3847.84
415.98	3829.12
416.17	4189.56
416.36	3974.23
416.55	4018.70
416.74	4053.81
416.93	3915.72
417.12	4142.75
417.31	4145.09
417.50	4184.88
417.69	4306.59
417.88	4266.80
418.07	4259.78
418.26	4208.28
418.45	4236.37
418.64	4561.70
418.83	4547.66
419.02	4287.86
419.21	4383.82
419.39	4568.73
419.58	4421.27
419.77	4477.44
419.96	4662.35
420.15	4540.64
420.34	4557.02
420.53	4582.77
420.72	4624.90
420.91	4758.31
421.10	4713.84
421.29	4823.84
421.48	4713.84
421.67	4765.33
421.86	4702.14
422.05	4847.25
422.24	4868.31
422.43	4795.76
422.61	4812.14
422.80	5041.51
422.99	4997.04
423.18	4905.76
423.37	5011.09
423.56	5069.60
423.75	4910.44
423.94	4858.95
424.13	4692.77
424.32	4767.67
424.50	4990.02
424.69	5071.94
424.88	4983.00
425.07	4910.44
425.26	4943.21
425.45	5109.39
425.64	5025.13
425.83	4908.10
426.01	5179.61
426.20	5055.56
426.39	4983.00
426.58	4929.17
426.77	5004.07
426.96	5179.61
427.15	5050.88
427.33	5261.52
427.52	5048.54
427.71	5156.20
427.90	5233.44
428.09	5195.99
428.28	5345.78
428.46	5355.15
428.65	5217.05
428.84	5486.22
429.03	5413.66
429.22	5259.18
429.40	5490.90
429.59	5444.09
429.78	5359.83
429.97	5263.86
430.16	5462.81
430.34	5591.54
430.53	5799.85
430.72	5610.26
430.91	5701.54
431.10	5526.00
431.28	5680.48
431.47	5806.87
431.66	5797.51
431.85	5760.06
432.03	5973.05
432.22	6045.60
432.41	5860.70
432.60	5851.34
432.79	5790.49
432.97	5949.64
433.16	5940.28
433.35	5977.73
433.54	5956.66
433.72	6211.78
433.91	6162.63
434.10	6008.16
434.28	6200.08
434.47	6113.48
434.66	6291.36
434.85	6200.08
435.03	6361.58
435.22	6441.15
435.41	6473.92
435.59	6267.95
435.78	6471.58
435.97	6462.22
436.16	6516.05
436.34	6314.77
436.53	6450.52
436.72	6487.96
436.90	6420.09
437.09	6555.84
437.28	6438.81
437.46	6553.50
437.65	6729.04
437.84	6782.87
438.02	6663.51
438.21	6743.08
438.40	6703.29
438.58	6904.58
438.77	6892.88
438.96	6939.69
439.14	7023.95
439.33	7089.48
439.52	7087.14
439.70	7316.51
439.89	7400.77
440.08	7307.15
440.26	7307.15
440.45	7328.22
440.63	7529.50
440.82	7658.23
441.01	7510.78
441.19	7644.19
441.38	7644.19
441.57	7569.29
441.75	7801.01
441.94	7925.05
442.12	7882.92
442.31	8131.02
442.50	8121.66
442.68	8028.04
442.87	8056.12
443.05	8299.54
443.24	8112.30
443.43	8032.72
443.61	8271.45
443.80	8329.97
443.98	8208.26
444.17	7735.47
444.35	8102.93
444.54	8390.82
444.73	8372.10
444.91	8229.32
445.10	8425.93
445.28	8416.57
445.47	8372.10
445.65	8428.27
445.84	8383.80
446.02	8386.14
446.21	8311.24
446.39	8313.58
446.58	8503.17
446.77	8683.39
446.95	8290.18
447.14	8437.63
447.32	8802.75
447.51	8468.06
447.69	8271.45
447.88	8477.42
448.06	8613.17
448.25	8486.78
448.43	8521.89
448.62	8678.71
448.80	8557.00
448.99	8697.43
449.17	8596.79
449.36	8564.02
449.54	8945.53
449.73	8975.95
449.91	9050.85
450.10	8891.70
450.28	9085.96
450.46	9170.22
450.65	9217.03
450.83	9289.59
451.02	8987.66
451.20	9146.81
451.39	9095.32
451.57	9249.80
451.76	9107.02
451.94	9078.94
452.13	9167.88
452.31	9341.08
452.49	9158.52
452.68	9373.85
452.86	9540.02
453.05	9572.79
453.23	9659.39
453.42	9341.08
453.60	9282.56
453.78	9465.13
453.97	9488.53
454.15	9488.53
454.34	9483.85
454.52	9542.36
454.70	9643.01
454.89	9788.12
455.07	9792.80
455.26	9944.94
455.44	10139.20
455.62	9731.95
455.81	9874.72
455.99	10005.79
456.17	9944.94
456.36	10064.30
456.54	10080.69
456.73	10455.17
456.91	10214.10
457.09	10289.00
457.28	10548.79
457.46	10136.86
457.64	10340.49
457.83	10342.83
458.01	10619.01
458.19	10745.40
458.38	10469.22
458.56	10637.73
458.74	10726.68
458.93	10504.32
459.11	10431.77
459.29	10588.58
459.48	10902.22
459.66	10815.62
459.84	10827.32
460.03	10860.09
460.21	10846.04
460.39	10967.75
460.57	10930.30
460.76	11119.89
460.94	11138.61
461.12	11208.83
461.31	11232.23
461.49	11091.80
461.67	11122.23
461.85	11461.60
462.04	11349.26
462.22	11754.17
462.40	11602.04
462.59	11349.26
462.77	11421.81
462.95	11571.61
463.13	11660.55
463.32	11562.25
463.50	11866.52
463.68	11576.29
463.86	11688.64
464.05	11779.92
464.23	11569.27
464.41	11887.58
464.59	11702.68
464.78	12091.21
464.96	11946.09
465.14	11756.51
465.32	11899.28
465.50	12030.35
465.69	12126.32
465.87	12224.62
466.05	12114.61
466.23	12189.51
466.41	12231.64
466.60	12308.88
466.78	12100.57
466.96	12182.49
467.14	12131.00
467.32	12397.82
467.51	12428.24
467.69	12259.73
467.87	12533.57
468.05	12257.39
468.23	12262.07
468.41	12449.31
468.60	12695.07
468.78	12954.87
468.96	12725.49
469.14	12774.64
469.32	13139.77
469.50	12727.83
469.69	12741.88
469.87	13064.87
470.05	13078.91
470.23	13008.70
470.41	13121.04
470.59	12980.61
470.77	13287.22
470.95	13310.63
471.14	13329.35
471.32	13284.88
471.50	13563.40
471.68	13507.23
471.86	13591.49
472.04	13486.17
472.22	14068.96
472.40	13678.09
472.58	13720.22
472.77	14118.11
472.95	14008.11
473.13	14415.36
473.31	14045.55
473.49	14087.68
473.67	14047.90
473.85	14342.80
474.03	14565.15
474.21	14658.78
474.39	14874.10
474.57	14853.04
474.75	14778.14
474.93	14902.19
475.12	14843.68
475.30	15054.33
475.48	15073.05
475.66	14963.04
475.84	14881.13
476.02	15295.40
476.20	15243.91
476.38	15740.10
476.56	15932.03
476.74	15885.22
476.92	15817.34
477.10	15990.54
477.28	16273.74
477.46	16051.39
477.64	16390.77
477.82	16542.91
478.00	16767.60
478.18	16830.79
478.36	16699.72
478.54	17036.76
478.72	17160.81
478.90	17188.89
479.08	17605.51
479.26	17748.28
479.44	17795.09
479.62	17790.41
479.80	17937.87
479.98	18106.38
480.16	18548.75
480.34	18279.58
480.52	18548.75
480.70	18576.83
480.88	18317.03
481.06	18618.96
481.24	18972.38
481.41	18899.83
481.59	19145.58
481.77	19489.64
481.95	19494.32
482.13	19683.91
482.31	19281.33
482.49	20280.74
482.67	19999.88
482.85	20451.60
483.03	20498.41
483.21	20690.34
483.39	20879.92
483.57	21081.21
483.74	21359.73
483.92	21436.97
484.10	21303.56
484.28	21731.87
484.46	21790.39
484.64	22211.68
484.82	21982.31
485.00	22258.49
485.18	22614.26
485.35	22841.29
485.53	22789.80
485.71	23161.94
485.89	23695.58
486.07	23262.58
486.25	23281.31
486.43	23704.95
486.61	23555.15
486.78	23861.76
486.96	24039.64
487.14	24659.88
487.32	24709.04
487.50	24683.29
487.68	25003.94
487.85	25795.04
488.03	25542.27
488.21	25390.13
488.39	25696.74
488.57	26195.28
488.75	25818.45
488.92	26307.62
489.10	26536.99
489.28	26525.29
489.46	27016.80
489.64	27047.23
489.81	27213.41
489.99	27459.16
490.17	27372.57
490.35	28285.37
490.53	28175.37
490.70	28187.07
490.88	28208.14
491.06	28584.96
491.24	28575.60
491.41	28964.13
491.59	29193.50
491.77	29202.86
491.95	29713.10
492.13	29989.28
492.30	30099.29
492.48	30118.01
492.66	30094.61
492.84	30312.28
493.01	30637.61
493.19	30008.01
493.37	30899.75
493.54	30717.19
493.72	31246.15
493.90	31527.02
494.08	31637.02
494.25	31585.53
494.43	31997.46
494.61	32123.85
494.79	32137.90
494.96	32636.43
495.14	32701.96
495.32	32905.59
495.49	33259.01
495.67	33273.06
495.85	33673.29
496.02	33486.04
496.20	34129.69
496.38	33816.06
496.55	34188.21
496.73	34733.55
496.91	34536.94
497.09	34656.31
497.26	34890.37
497.44	34902.07
497.62	35019.10
497.79	35735.30
497.97	35332.73
498.14	36086.38
498.32	35910.84
498.50	36182.34
498.67	36451.50
498.85	36116.81
499.03	36671.51
499.20	36840.03
499.38	36989.83
499.56	36872.80
499.73	37191.11
499.91	37006.21
500.08	37340.91
500.26	37457.93
500.44	37773.91
500.61	37525.81
500.79	37895.61
500.97	37851.14
501.14	38630.54
501.32	38340.32
501.49	38511.17
501.67	38438.62
501.84	38995.67
502.02	38698.42
502.20	38787.36
502.37	38918.43
502.55	39122.05
502.72	39578.46
502.90	39611.23
503.07	39524.63
503.25	39697.83
503.43	39545.69
503.60	39791.45
503.78	39908.47
503.95	39618.25
504.13	40268.92
504.30	40678.51
504.48	40137.85
504.65	40339.13
504.83	41048.32
505.01	41221.52
505.18	41036.61
505.36	41598.34
505.53	41160.66
505.71	41273.01
505.88	41645.15
506.06	41397.06
506.23	41883.89
506.41	41752.82
506.58	42239.65
506.76	41933.04
506.93	42057.09
507.11	42274.76
507.28	42335.61
507.46	42340.29
507.63	42873.93
507.81	43246.08
507.98	43000.32
508.16	43042.45
508.33	43143.09
508.50	43484.81
508.68	43332.68
508.85	43922.49
509.03	43988.03
509.20	43917.81
509.38	44336.77
509.55	44261.87
509.73	44041.86
509.90	44397.62
510.08	44561.46
510.25	44584.86
510.42	44701.89
510.60	44835.30
510.77	45284.68
510.95	45666.19
511.12	44912.54
511.30	44898.50
511.47	45595.98
511.64	45755.13
511.82	45455.54
511.99	45020.20
512.17	45652.15
512.34	45764.49
512.51	46256.01
512.69	46110.89
512.86	46621.13
513.04	46401.12
513.21	46450.27
513.38	46347.29
513.56	46937.10
513.73	46733.48
513.90	46801.35
514.08	47086.90
514.25	46866.89
514.43	47452.02
514.60	47466.06
514.77	47538.62
514.95	47732.89
515.12	47650.97
515.29	47590.11
515.47	47929.49
515.64	47910.77
515.81	47852.25
515.99	48032.47
516.16	48264.19
516.33	48327.38
516.51	48566.12
516.68	48481.86
516.85	48512.28
517.03	48545.05
517.20	48596.54
517.37	48790.81
517.54	48835.28
517.72	48797.83
517.89	49017.84
518.06	49350.20
518.24	49036.56
518.41	49343.17
518.58	49226.15
518.75	49172.31
518.93	49525.74
519.10	49478.92
519.27	49521.05
519.45	49184.02
519.62	50099.17
519.79	49530.42
519.96	49722.34
520.14	50103.85
520.31	50412.80
520.48	50410.46
520.65	50190.45
520.83	50667.92
521.00	50480.67
521.17	50263.00
521.34	50478.33
521.52	50794.31
521.69	50782.60
521.86	50639.83
522.03	50871.54
522.20	50953.46
522.38	51358.38
522.55	51070.49
522.72	51435.61
522.89	50990.91
523.07	51688.39
523.24	51257.73
523.41	51901.38
523.58	51309.22
523.75	51695.41
523.92	51594.77
524.10	51999.68
524.27	51566.68
524.44	52009.04
524.61	52137.77
524.78	52107.35
524.96	51945.85
525.13	52023.09
525.30	52266.50
525.47	52615.24
525.64	52575.45
525.81	52561.41
525.98	52655.03
526.16	52076.92
526.33	52430.34
526.50	53095.05
526.67	52376.51
526.84	52844.62
527.01	52615.24
527.18	52788.44
527.36	52662.05
527.53	52926.53
527.70	53167.61
527.87	53291.66
528.04	53305.70
528.21	52921.85
528.38	53340.81
528.55	53719.98
528.72	53230.80
528.89	53308.04
529.07	53308.04
529.24	53057.60
529.41	53638.06
529.58	53652.10
529.75	53820.62
529.92	53710.61
530.09	53656.78
530.26	53804.24
530.43	53717.64
530.60	53368.90
530.77	53888.49
530.94	54120.21
531.11	53886.15
531.28	54101.48
531.46	54045.31
531.63	53991.48
531.80	54057.01
531.97	54321.49
532.14	54340.22
532.31	54185.74
532.48	54401.07
532.65	54630.44
532.82	54314.47
532.99	54625.76
533.16	54312.13
533.33	54672.57
533.50	54983.86
533.67	54836.41
533.84	54340.22
534.01	54883.22
534.18	55009.61
534.35	55229.62
534.52	54775.56
534.69	55482.40
534.86	55147.70
535.03	55086.85
535.20	55330.26
535.37	55051.74
535.54	55189.83
535.71	55133.66
535.88	55463.67
536.05	55229.62
536.22	55529.21
536.38	55461.33
536.55	55519.85
536.72	55363.03
536.89	55302.18
537.06	55365.37
537.23	55807.73
537.40	55505.80
537.57	55545.59
537.74	55608.79
537.91	56093.28
538.08	55913.06
538.25	55309.20
538.42	55922.42
538.59	56109.66
538.75	55870.93
538.92	55824.12
539.09	56271.16
539.26	56196.26
539.43	55920.08
539.60	56184.56
539.77	56308.61
539.94	56203.28
540.11	56378.82
540.28	56175.20
540.44	56257.12
540.61	56332.01
540.78	56207.97
540.95	56435.00
541.12	56437.34
541.29	56175.20
541.46	56212.65
541.62	56549.68
541.79	56697.14
541.96	56456.06
542.13	56519.26
542.30	56673.73
542.47	56713.52
542.63	56868.00
542.80	56949.92
542.97	57123.11
543.14	56973.32
543.31	56879.70
543.48	57153.54
543.64	57326.74
543.81	57221.42
543.98	57282.27
544.15	57291.63
544.32	57464.83
544.48	57549.09
544.65	57303.34
544.82	57148.86
544.99	57254.18
545.16	57525.69
545.32	57418.02
545.49	57635.69
545.66	57546.75
545.83	57612.29
546.00	57729.31
546.16	57556.11
546.33	57492.92
546.50	57371.21
546.67	57572.50
546.83	57488.24
547.00	57717.61
547.17	57476.54
547.34	57661.44
547.50	57804.21
547.67	57939.96
547.84	57794.85
548.00	58108.48
548.17	58155.29
548.34	57909.53
548.51	58209.12
548.67	58394.03
548.84	58094.44
549.01	58012.52
549.18	58138.91
549.34	58223.17
549.51	58497.01
549.68	58302.74
549.84	58314.45
550.01	58436.16
550.18	58162.31
550.34	58452.54
550.51	58288.70
550.68	58272.32
550.84	58403.39
551.01	58445.52
551.18	58415.09
551.34	58150.61
551.51	58335.51
551.68	58518.07
551.84	58504.03
552.01	58433.81
552.18	58571.91
552.34	58361.26
552.51	58735.74
552.68	58398.71
552.84	58459.56
553.01	58887.88
553.18	58721.70
553.34	58745.11
553.51	58543.82
553.67	58724.04
553.84	58801.28
554.01	58946.39
554.17	58899.58
554.34	59119.59
554.51	58899.58
554.67	59037.67
554.84	58939.37
555.00	58812.98
555.17	59040.01
555.33	58899.58
555.50	58972.14
555.67	58913.62
555.83	58901.92
556.00	59016.61
556.16	59302.15
556.33	59260.02
556.50	59098.53
556.66	59281.09
556.83	59021.29
556.99	59222.58
557.16	59409.82
557.32	59477.69
557.49	59667.28
557.65	59161.72
557.82	59217.89
557.98	59351.30
558.15	59440.24
558.32	59192.15
558.48	59341.94
558.65	59365.35
558.81	59423.86
558.98	59501.10
559.14	59543.23
559.31	59491.74
559.47	59561.95
559.64	59587.70
559.80	59627.49
559.97	59620.47
560.13	59517.48
560.30	59538.55
560.46	59746.86
560.63	59508.12
560.79	59648.55
560.96	59756.22
561.12	59812.39
561.29	59859.20
561.45	59786.64
561.61	59884.95
561.78	59585.36
561.94	59503.44
562.11	59772.60
562.27	59693.02
562.44	59807.71
562.60	59959.84
562.77	60013.68
562.93	59573.66
563.10	59966.87
563.26	59697.70
563.42	60198.58
563.59	60018.36
563.75	59980.91
563.92	59934.10
564.08	59737.49
564.24	60163.47
564.41	60137.72
564.57	60102.62
564.74	60116.66
564.90	59915.37
565.07	59910.69
565.23	59920.05
565.39	59952.82
565.56	60217.30
565.72	60046.44
565.88	60126.02
566.05	60137.72
566.21	60065.17
566.38	60219.64
566.54	60147.09
566.70	60250.07
566.87	60320.29
567.03	60067.51
567.19	60191.56
567.36	60168.15
567.52	60294.54
567.68	60526.25
567.85	60053.47
568.01	60214.96
568.17	60114.32
568.34	60388.16
568.50	60093.25
568.66	60322.63
568.83	60336.67
568.99	60119.00
569.15	60409.23
569.32	60331.99
569.48	60374.12
569.64	60439.65
569.81	60420.93
569.97	60250.07
570.13	60247.73
570.30	60245.39
570.46	60472.42
570.62	60364.76
570.78	60205.60
570.95	60385.82
571.11	60523.91
571.27	60500.51
571.43	60444.33
571.60	60575.40
571.76	60399.86
571.92	60367.10
572.09	60463.06
572.25	60395.18
572.41	60521.57
572.57	60416.25
572.74	60601.15
572.90	60329.65
573.06	60509.87
573.22	60654.98
573.38	60631.58
573.55	60535.62
573.71	60729.88
573.87	60753.29
574.03	60495.83
574.20	60706.47
574.36	60514.55
574.52	60718.18
574.68	60645.62
574.84	60809.46
575.01	60640.94
575.17	60528.59
575.33	60453.70
575.49	60364.76
575.65	60589.45
575.82	60685.41
575.98	60690.09
576.14	60874.99
576.30	60835.20
576.46	60608.17
576.62	60622.22
576.79	60760.31
576.95	60561.36
577.11	60622.22
577.27	60877.33
577.43	60594.13
577.59	60633.92
577.75	60807.12
577.92	60610.51
578.08	60692.43
578.24	60830.52
578.40	60917.12
578.56	60973.30
578.72	60884.36
578.88	60952.23
579.04	60945.21
579.21	60809.46
579.37	60945.21
579.53	60931.17
579.69	60750.94
579.85	60654.98
580.01	60680.73
580.17	60636.26
580.33	60790.73
580.49	60860.95
580.65	60720.52
580.82	60779.03
580.98	60762.65
581.14	60743.92
581.30	60992.02
581.46	60837.54
581.62	60959.25
581.78	60755.63
581.94	61083.30
582.10	60858.61
582.26	60900.74
582.42	60853.93
582.58	61034.15
582.74	60912.44
582.90	60900.74
583.06	61066.92
583.22	60556.68
583.38	60795.42
583.54	60757.97
583.70	60807.12
583.86	61073.94
584.02	61017.77
584.18	60924.14
584.34	60982.66
584.50	60781.37
584.66	60746.26
584.82	60694.77
584.98	61113.73
585.14	60870.31
585.30	60657.32
585.46	61221.39
585.62	60713.50
585.78	60980.32
585.94	60884.36
586.10	61031.81
586.26	61043.51
586.42	61064.58
586.58	61066.92
586.74	61038.83
586.90	61006.06
587.06	60963.93
587.22	61062.24
587.38	60872.65
587.54	61137.13
587.70	61212.03
587.86	61043.51
588.02	60816.48
588.18	61188.63
588.34	61001.38
588.49	61013.08
