SpectraSuite Data File
++++++++++++++++++++++++++++++++++++
Date: Fri Oct 25 10:47:20 EDT 2013
User: price-jones
Dark Spectrum Present: No
Reference Spectrum Present: No
Number of Sampled Component Spectra: 1
Spectrometers: USB2+H05261
Integration Time (usec): 100000 (USB2+H05261)
Spectra Averaged: 1 (USB2+H05261)
Boxcar Smoothing: 0 (USB2+H05261)
Correct for Electrical Dark: No (USB2+H05261)
Strobe/Lamp Enabled: No (USB2+H05261)
Correct for Detector Non-linearity: No (USB2+H05261)
Correct for Stray Light: No (USB2+H05261)
Number of Pixels in Processed Spectrum: 2048
>>>>>Begin Processed Spectral Data<<<<<
365.73	117.03
365.92	117.03
366.12	117.03
366.32	53.83
366.52	0.00
366.72	79.58
366.91	11.70
367.11	44.47
367.31	49.15
367.51	2.34
367.70	56.17
367.90	56.17
368.10	0.00
368.30	42.13
368.49	0.00
368.69	49.15
368.89	37.45
369.09	60.85
369.28	74.90
369.48	74.90
369.68	67.88
369.87	79.58
370.07	105.32
370.27	91.28
370.47	184.90
370.66	360.44
370.86	400.23
371.06	463.43
371.25	458.74
371.45	444.70
371.65	498.53
371.84	409.59
372.04	402.57
372.24	475.13
372.44	421.30
372.63	411.93
372.83	489.17
373.03	500.87
373.22	444.70
373.42	470.45
373.62	615.56
373.81	533.64
374.01	543.00
374.21	496.19
374.40	507.90
374.60	538.32
374.79	538.32
374.99	587.47
375.19	550.03
375.38	528.96
375.58	543.00
375.78	596.84
375.97	592.16
376.17	617.90
376.37	620.24
376.56	580.45
376.76	622.58
376.95	524.28
377.15	571.09
377.35	636.63
377.54	615.56
377.74	498.53
377.93	547.69
378.13	615.56
378.33	610.88
378.52	540.66
378.72	643.65
378.91	610.88
379.11	585.13
379.31	552.37
379.50	617.90
379.70	692.80
379.89	624.92
380.09	610.88
380.28	617.90
380.48	610.88
380.68	688.12
380.87	627.26
381.07	664.71
381.26	629.60
381.46	641.31
381.65	645.99
381.85	624.92
382.04	660.03
382.24	669.39
382.43	699.82
382.63	781.74
382.83	629.60
383.02	772.38
383.22	692.80
383.41	667.05
383.61	669.39
383.80	702.16
384.00	641.31
384.19	674.07
384.39	695.14
384.58	737.27
384.78	753.65
384.97	671.73
385.17	690.46
385.36	777.06
385.56	753.65
385.75	718.54
385.95	767.70
386.14	685.78
386.34	739.61
386.53	777.06
386.72	807.48
386.92	870.68
387.11	821.53
387.31	734.93
387.50	725.57
387.70	788.76
387.89	863.66
388.09	844.93
388.28	755.99
388.48	770.04
388.67	814.51
388.86	786.42
389.06	901.11
389.25	812.17
389.45	844.93
389.64	917.49
389.84	952.60
390.03	898.77
390.22	875.36
390.42	912.81
390.61	901.11
390.81	861.32
391.00	837.91
391.19	936.21
391.39	903.45
391.58	964.30
391.78	966.64
391.97	814.51
392.16	964.30
392.36	945.58
392.55	943.24
392.75	940.90
392.94	994.73
393.13	908.13
393.33	877.70
393.52	938.55
393.71	973.66
393.91	985.37
394.10	915.15
394.29	1095.37
394.49	1043.88
394.68	1121.12
394.88	1041.54
395.07	1060.26
395.26	1046.22
395.46	1111.75
395.65	1057.92
395.84	1139.84
396.04	1221.76
396.23	1006.43
396.42	1095.37
396.62	1156.22
396.81	1095.37
397.00	1053.24
397.19	1135.16
397.39	1188.99
397.58	1238.14
397.77	1226.44
397.97	1205.38
398.16	1277.93
398.35	1240.48
398.55	1186.65
398.74	1282.61
398.93	1296.66
399.12	1327.08
399.32	1322.40
399.51	1242.82
399.70	1280.27
399.90	1291.98
400.09	1217.08
400.28	1350.49
400.47	1348.15
400.67	1322.40
400.86	1362.19
401.05	1378.58
401.24	1394.96
401.44	1357.51
401.63	1432.41
401.82	1399.64
402.01	1509.65
402.21	1493.26
402.40	1437.09
402.59	1497.94
402.78	1472.20
402.97	1479.22
403.17	1521.35
403.36	1537.73
403.55	1500.28
403.74	1607.95
403.93	1582.20
404.13	1589.22
404.32	1673.48
404.51	1598.59
404.70	1661.78
404.89	1664.12
405.09	1755.40
405.28	1664.12
405.47	1671.14
405.66	1647.74
405.85	1757.74
406.05	1703.91
406.24	1834.98
406.43	1657.10
406.62	1699.23
406.81	1762.42
407.00	1767.10
407.20	1715.61
407.39	1792.85
407.58	1877.11
407.77	1792.85
407.96	1832.64
408.15	1984.77
408.34	1877.11
408.54	1998.82
408.73	1865.41
408.92	1909.88
409.11	1914.56
409.30	2047.97
409.49	1973.07
409.68	1802.21
409.87	2015.20
410.07	1879.45
410.26	2017.54
410.45	1994.14
410.64	2085.42
410.83	2169.68
411.02	2146.27
411.21	2127.55
411.40	2209.47
411.59	2242.23
411.78	2202.44
411.98	2181.38
412.17	2366.28
412.36	2188.40
412.55	2349.90
412.74	2312.45
412.93	2333.51
413.12	2267.98
413.31	2462.24
413.50	2401.39
413.69	2377.98
413.88	2396.71
414.07	2385.01
414.26	2478.63
414.45	2530.12
414.64	2567.57
414.83	2509.05
415.02	2520.76
415.22	2623.74
415.41	2628.42
415.60	2544.16
415.79	2792.26
415.98	2705.66
416.17	2708.00
416.36	2661.19
416.55	2773.53
416.74	2778.22
416.93	2836.73
417.12	2867.16
417.31	2829.71
417.50	2937.37
417.69	2956.10
417.88	2979.50
418.07	2981.84
418.26	2967.80
418.45	2953.76
418.64	3038.02
418.83	3066.10
419.02	3084.83
419.21	3143.34
419.39	3204.19
419.58	2993.55
419.77	3035.67
419.96	3187.81
420.15	3229.94
420.34	3251.00
420.53	3311.86
420.72	3248.66
420.91	3234.62
421.10	3269.73
421.29	3253.34
421.48	3384.41
421.67	3295.47
421.86	3248.66
422.05	3304.84
422.24	3389.10
422.43	3288.45
422.61	3253.34
422.80	3424.20
422.99	3335.26
423.18	3412.50
423.37	3361.01
423.56	3346.97
423.75	3424.20
423.94	3384.41
424.13	3192.49
424.32	3344.63
424.50	3468.67
424.69	3517.83
424.88	3482.72
425.07	3396.12
425.26	3468.67
425.45	3461.65
425.64	3449.95
425.83	3435.91
426.01	3454.63
426.20	3412.50
426.39	3527.19
426.58	3501.44
426.77	3452.29
426.96	3566.98
427.15	3592.72
427.33	3566.98
427.52	3571.66
427.71	3648.90
427.90	3503.78
428.09	3513.14
428.28	3754.22
428.46	3616.13
428.65	3698.05
428.84	3669.96
429.03	3726.13
429.22	3726.13
429.40	3770.60
429.59	3843.16
429.78	3637.19
429.97	3478.04
430.16	3581.02
430.34	3742.52
430.53	3833.80
430.72	3801.03
430.91	3651.24
431.10	3789.33
431.28	3770.60
431.47	3955.51
431.66	4002.32
431.85	3859.54
432.03	3976.57
432.22	4086.58
432.41	4051.47
432.60	3962.53
432.79	4007.00
432.97	4112.32
433.16	4201.26
433.35	4217.65
433.54	4329.99
433.72	4124.02
433.91	4063.17
434.10	4304.25
434.28	4222.33
434.47	4243.39
434.66	4229.35
434.85	4269.14
435.03	4397.87
435.22	4376.80
435.41	4355.74
435.59	4348.72
435.78	4297.22
435.97	4507.87
436.16	4301.90
436.34	4360.42
436.53	4538.30
436.72	4550.00
436.90	4542.98
437.09	4617.88
437.28	4482.13
437.46	4545.32
437.65	4533.62
437.84	4681.07
438.02	4451.70
438.21	4564.04
438.40	4531.28
438.58	4704.48
438.77	4807.46
438.96	4842.57
439.14	4999.38
439.33	4746.61
439.52	4835.55
439.70	5090.67
439.89	5015.77
440.08	5001.72
440.26	4870.65
440.45	5004.07
440.63	5174.92
440.82	5270.89
441.01	5224.08
441.19	5228.76
441.38	5179.61
441.57	5310.68
441.75	5233.44
441.94	5383.23
442.12	5511.96
442.31	5544.73
442.50	5633.67
442.68	5460.47
442.87	5528.35
443.05	5518.98
443.24	5654.73
443.43	5591.54
443.61	5647.71
443.80	5692.18
443.98	5490.90
444.17	5359.83
444.35	5767.08
444.54	5769.42
444.73	5706.23
444.91	5633.67
445.10	5687.50
445.28	5607.92
445.47	5434.72
445.65	5563.45
445.84	5741.33
446.02	5680.48
446.21	5696.86
446.39	5811.55
446.58	5879.43
446.77	5806.87
446.95	5689.84
447.14	5746.02
447.32	5874.74
447.51	5949.64
447.69	5865.38
447.88	5830.27
448.06	5757.72
448.25	5837.30
448.43	5790.49
448.62	5647.71
448.80	5879.43
448.99	5846.66
449.17	5884.11
449.36	5783.46
449.54	6001.13
449.73	6045.60
449.91	6183.70
450.10	6071.35
450.28	6038.58
450.46	6171.99
450.65	6069.01
450.83	6176.67
451.02	6031.56
451.20	6167.31
451.39	6249.23
451.57	6270.30
451.76	6171.99
451.94	6157.95
452.13	6377.96
452.31	6134.54
452.49	6218.80
452.68	6303.06
452.86	6218.80
453.05	6333.49
453.23	6392.00
453.42	6296.04
453.60	6256.25
453.78	6499.67
453.97	6324.13
454.15	6333.49
454.34	6457.54
454.52	6593.29
454.70	6319.45
454.89	6480.94
455.07	6478.60
455.26	6658.82
455.44	6876.49
455.62	6586.27
455.81	6691.59
455.99	6661.16
456.17	6841.39
456.36	6745.42
456.54	6956.07
456.73	6899.90
456.91	7283.75
457.09	7059.06
457.28	7119.91
457.46	6972.46
457.64	7096.50
457.83	7084.80
458.01	7042.67
458.19	7241.62
458.38	7297.79
458.56	7197.15
458.74	7199.49
458.93	7218.21
459.11	7438.22
459.29	7330.56
459.48	7492.05
459.66	7342.26
459.84	7199.49
460.03	7328.22
460.21	7524.82
460.39	7377.37
460.57	7431.20
460.76	7452.27
460.94	7520.14
461.12	7506.10
461.31	7620.78
461.49	7473.33
461.67	7346.94
461.85	7644.19
462.04	7538.87
462.22	8004.63
462.40	7707.38
462.59	7679.30
462.77	7793.98
462.95	7845.48
463.13	7822.07
463.32	7889.95
463.50	7641.85
463.68	7852.50
463.86	7838.45
464.05	7920.37
464.23	7751.85
464.41	7901.65
464.59	7822.07
464.78	8072.51
464.96	7990.59
465.14	7845.48
465.32	8018.68
465.50	8044.42
465.69	8159.11
465.87	8107.62
466.05	8177.83
466.23	7985.91
466.41	8002.29
466.60	8306.56
466.78	8081.87
466.96	8058.46
467.14	8149.75
467.32	8280.82
467.51	8425.93
467.69	8025.70
467.87	8226.98
468.05	8294.86
468.23	8203.58
468.41	8280.82
468.60	8425.93
468.78	8472.74
468.96	8269.11
469.14	8341.67
469.32	8580.40
469.50	8362.73
469.69	8517.21
469.87	8580.40
470.05	8865.95
470.23	8807.44
470.41	8720.84
470.59	8692.75
470.77	8702.11
470.95	8725.52
471.14	8966.59
471.32	8720.84
471.50	9195.96
471.68	8877.65
471.86	9277.88
472.04	9039.15
472.22	9102.34
472.40	9067.24
472.58	9221.71
472.77	9231.07
472.95	9547.05
473.13	9582.15
473.31	9277.88
473.49	9345.76
473.67	9320.01
473.85	9500.23
474.03	9678.12
474.21	9654.71
474.39	9792.80
474.57	9937.91
474.75	9919.19
474.93	9973.02
475.12	9853.66
475.30	9647.69
475.48	10083.03
475.66	10054.94
475.84	9872.38
476.02	10068.98
476.20	10141.54
476.38	10693.91
476.56	10677.52
476.74	10501.98
476.92	10396.66
477.10	10459.85
477.28	10518.37
477.46	10555.82
477.64	10773.49
477.82	10855.40
478.00	11213.51
478.18	10874.13
478.36	10927.96
478.54	11119.89
478.72	11192.44
478.90	11286.06
479.08	11435.86
479.26	11747.15
479.44	11641.82
479.62	11569.27
479.80	11765.87
479.98	11918.01
480.16	12210.57
480.34	11969.50
480.52	12170.79
480.70	12156.74
480.88	12049.08
481.06	12250.36
481.24	12521.87
481.41	12585.06
481.59	12755.92
481.77	12903.37
481.95	12879.97
482.13	12915.08
482.31	12779.32
482.49	13214.66
482.67	13191.26
482.85	13163.17
483.03	13504.89
483.21	13558.72
483.39	13603.19
483.57	13575.11
483.74	13839.59
483.92	13902.78
484.10	13902.78
484.28	13982.36
484.46	14216.41
484.64	14480.89
484.82	14260.88
485.00	14487.92
485.18	14731.33
485.35	15035.60
485.53	14668.14
485.71	14494.94
485.89	15049.64
486.07	14944.32
486.25	15051.99
486.43	15288.38
486.61	15304.76
486.78	15396.04
486.96	15669.89
487.14	15995.22
487.32	15878.19
487.50	16130.97
487.68	16149.70
487.85	16432.90
488.03	16519.50
488.21	16669.30
488.39	16734.83
488.57	16828.45
488.75	16739.51
488.92	17069.53
489.10	17514.23
489.28	17209.96
489.46	17558.70
489.64	17179.53
489.81	17834.88
489.99	18178.94
490.17	17818.50
490.35	17912.12
490.53	17961.27
490.70	18391.93
490.88	18682.16
491.06	18511.30
491.24	18625.98
491.41	18527.68
491.59	18691.52
491.77	18761.73
491.95	18899.83
492.13	19173.67
492.30	19365.59
492.48	19304.74
492.66	19466.24
492.84	19627.73
493.01	19730.72
493.19	19807.95
493.37	19789.23
493.54	19894.55
493.72	20292.44
493.90	20222.23
494.08	20718.42
494.25	20685.65
494.43	20957.16
494.61	20781.62
494.79	20938.43
494.96	20608.42
495.14	20992.26
495.32	21434.63
495.49	21231.00
495.67	21451.01
495.85	21750.60
496.02	21729.53
496.20	21874.65
496.38	21944.86
496.55	21865.28
496.73	22661.07
496.91	22008.06
497.09	22274.88
497.26	22366.16
497.44	22555.74
497.62	22808.52
497.79	23023.85
497.97	23007.47
498.14	22937.25
498.32	23033.21
498.50	23197.05
498.67	23580.90
498.85	23396.00
499.03	23459.19
499.20	23742.39
499.38	23321.10
499.56	23852.40
499.73	24058.37
499.91	24159.01
500.08	24095.82
500.26	23611.32
500.44	24304.12
500.61	24381.36
500.79	24147.31
500.97	24142.63
501.14	24854.15
501.32	24627.12
501.49	24849.47
501.67	24762.87
501.84	24659.88
502.02	24666.91
502.20	24849.47
502.37	25261.40
502.55	25151.40
502.72	25462.69
502.90	25228.63
503.07	25106.93
503.25	25413.54
503.43	25102.25
503.60	25834.83
503.78	25743.55
503.95	25624.18
504.13	26178.89
504.30	26045.48
504.48	26122.72
504.65	26225.70
504.83	26590.83
505.01	26419.97
505.18	26373.16
505.36	26817.86
505.53	26834.24
505.71	26635.30
505.88	26794.45
506.06	26689.13
506.23	27187.66
506.41	27033.19
506.58	26838.92
506.76	27080.00
506.93	27234.47
507.11	27271.92
507.28	27304.69
507.46	27213.41
507.63	27147.87
507.81	27342.14
507.98	27641.73
508.16	27749.39
508.33	27398.31
508.50	27711.94
508.68	27924.93
508.85	28034.94
509.03	28002.17
509.20	28577.94
509.38	28416.44
509.55	28500.70
509.73	28760.50
509.90	28467.94
510.08	28236.22
510.25	28135.58
510.42	28952.43
510.60	28573.26
510.77	28767.52
510.95	29226.27
511.12	29095.20
511.30	29008.60
511.47	29252.02
511.64	29287.12
511.82	29900.34
511.99	29174.78
512.17	29680.33
512.34	29528.20
512.51	29584.37
512.69	30031.41
512.86	29993.97
513.04	30000.99
513.21	30146.10
513.38	30134.40
513.56	29907.37
513.73	30038.44
513.90	30157.80
514.08	30314.62
514.25	30394.20
514.43	30492.50
514.60	30539.31
514.77	30576.76
514.95	30829.54
515.12	30937.20
515.29	30658.68
515.47	30733.57
515.64	31122.10
515.81	30801.45
515.99	31194.66
516.16	31218.07
516.33	30904.43
516.51	31143.17
516.68	31276.58
516.85	31250.83
517.03	31150.19
517.20	31255.51
517.37	31573.83
517.54	31239.13
517.72	31737.66
517.89	31419.35
518.06	31412.33
518.24	31463.82
518.41	31569.15
518.58	31882.78
518.75	31941.29
518.93	31955.33
519.10	32100.45
519.27	32084.06
519.45	32538.13
519.62	32294.71
519.79	32048.96
519.96	32856.44
520.14	32816.65
520.31	32627.07
520.48	32648.13
520.65	32631.75
520.83	32636.43
521.00	33294.12
521.17	33308.16
521.34	33205.18
521.52	33315.19
521.69	33139.65
521.86	33366.68
522.03	33343.27
522.20	33322.21
522.38	33434.55
522.55	33570.30
522.72	33572.64
522.89	33610.09
523.07	33996.28
523.24	33596.05
523.41	34136.71
523.58	34015.01
523.75	34263.10
523.92	34043.09
524.10	34153.10
524.27	34080.54
524.44	34340.34
524.61	34209.27
524.78	34345.02
524.96	34719.51
525.13	34660.99
525.30	35084.63
525.47	34845.90
525.64	34352.04
525.81	34955.90
525.98	34941.86
526.16	34471.41
526.33	34649.29
526.50	35229.74
526.67	35084.63
526.84	35086.97
527.01	34897.39
527.18	34864.62
527.36	35063.57
527.53	35236.77
527.70	35466.14
527.87	35824.24
528.04	35665.08
528.21	35299.96
528.38	35283.58
528.55	35611.25
528.72	35590.19
528.89	36264.26
529.07	35683.81
529.24	35431.03
529.41	35824.24
529.58	35995.10
529.75	36084.04
529.92	36140.21
530.09	36353.20
530.26	36046.59
530.43	36610.66
530.60	36060.63
530.77	36547.47
530.94	36374.27
531.11	36533.42
531.28	36692.58
531.46	36692.58
531.63	36591.94
531.80	36605.98
531.97	36603.64
532.14	36250.22
532.31	36458.52
532.48	37092.81
532.65	37144.30
532.82	36559.17
532.99	36746.41
533.16	36683.22
533.33	37067.06
533.50	37083.45
533.67	37141.96
533.84	37467.30
534.01	37202.82
534.18	37148.98
534.35	37471.98
534.52	37258.99
534.69	37614.75
534.86	37607.73
535.03	37596.03
535.20	38237.33
535.37	38169.46
535.54	38082.86
535.71	37638.15
535.88	38115.62
536.05	37539.85
536.22	38192.86
536.38	38178.82
536.55	38106.26
536.72	38040.73
536.89	37558.58
537.06	37769.22
537.23	38122.65
537.40	38124.99
537.57	38115.62
537.74	38522.88
537.91	38555.64
538.08	38536.92
538.25	37956.47
538.42	38157.75
538.59	38581.39
538.75	38314.57
538.92	38349.68
539.09	38543.94
539.26	38656.29
539.43	38506.49
539.60	38557.99
539.77	38951.20
539.94	39007.37
540.11	39061.20
540.28	38349.68
540.44	38600.12
540.61	38904.38
540.78	38707.78
540.95	38859.91
541.12	39051.84
541.29	38691.40
541.46	39292.91
541.62	39229.72
541.79	39234.40
541.96	38778.00
542.13	39431.01
542.30	39393.56
542.47	39133.76
542.63	38918.43
542.80	39337.38
542.97	39772.72
543.14	40311.05
543.31	39667.40
543.48	39517.60
543.64	40488.93
543.81	40378.92
543.98	40065.29
544.15	40133.17
544.32	39842.94
544.48	40261.90
544.65	40425.73
544.82	40552.12
544.99	39812.51
545.16	40072.31
545.32	40151.89
545.49	40751.07
545.66	40741.71
545.83	40435.10
546.00	40982.78
546.16	40683.19
546.33	40362.54
546.50	39761.02
546.67	40395.31
546.83	39880.39
547.00	40680.85
547.17	40587.23
547.34	40620.00
547.50	41113.85
547.67	41247.26
547.84	41111.51
548.00	40821.28
548.17	41160.66
548.34	41045.97
548.51	41055.34
548.67	41148.96
548.84	41095.13
549.01	41048.32
549.18	41247.26
549.34	40847.03
549.51	41284.71
549.68	41354.93
549.84	41268.33
550.01	41312.80
550.18	40634.04
550.34	41303.43
550.51	41507.06
550.68	41350.24
550.84	40701.92
551.01	41787.92
551.18	41270.67
551.34	41607.70
551.51	41163.00
551.68	41848.78
551.84	41970.49
552.01	41677.92
552.18	41691.96
552.34	41706.01
552.51	41546.85
552.68	41481.31
552.84	41783.24
553.01	41928.36
553.18	41467.27
553.34	41621.75
553.51	41933.04
553.67	42108.58
553.84	42029.00
554.01	42066.45
554.17	42569.66
554.34	42436.25
554.51	41954.10
554.67	42096.88
554.84	41851.12
555.00	42085.17
555.17	42073.47
555.33	42344.97
555.50	42253.69
555.67	42375.40
555.83	42225.60
556.00	42323.91
556.16	42990.96
556.33	42799.04
556.50	42263.05
556.66	42803.72
556.83	42146.03
556.99	42359.02
557.16	42564.98
557.32	42623.50
557.49	42740.52
557.65	42380.08
557.82	42543.92
557.98	42319.23
558.15	42808.40
558.32	42895.00
558.48	42637.54
558.65	42859.89
558.81	42682.01
558.98	43072.88
559.14	43002.66
559.31	42356.67
559.47	42789.67
559.64	43210.97
559.80	43077.56
559.97	42731.16
560.13	42925.42
560.30	42988.62
560.46	42597.75
560.63	42815.42
560.79	43260.12
560.96	43115.01
561.12	42614.13
561.29	43049.47
561.45	43157.14
561.61	43185.22
561.78	43187.56
561.94	43126.71
562.11	43185.22
562.27	42986.28
562.44	42796.70
562.60	43070.54
562.77	44060.58
562.93	43117.35
563.10	43592.48
563.26	42951.17
563.42	43281.19
563.59	43105.65
563.75	43129.05
563.92	43587.80
564.08	43426.30
564.24	43557.37
564.41	43604.18
564.57	43150.12
564.74	43557.37
564.90	43028.41
565.07	43562.05
565.23	43372.47
565.39	43068.20
565.56	43508.22
565.72	43007.34
565.88	43515.24
566.05	43140.75
566.21	43435.66
566.38	43019.05
566.54	43260.12
566.70	43529.28
566.87	44116.76
567.03	43274.16
567.19	44435.07
567.36	44215.06
567.52	43449.70
567.68	43646.31
567.85	43531.62
568.01	43981.01
568.17	43395.87
568.34	43735.25
568.50	43700.14
568.66	43580.78
568.83	43796.10
568.99	43650.99
569.15	43538.65
569.32	43714.19
569.48	43356.08
569.64	43700.14
569.81	43992.71
569.97	43702.48
570.13	43793.76
570.30	43225.01
570.46	43592.48
570.62	43782.06
570.78	43683.76
570.95	43384.17
571.11	43882.70
571.27	43782.06
571.43	43578.43
571.60	43496.52
571.76	43952.92
571.92	43562.05
572.09	44039.52
572.25	44027.82
572.41	43828.87
572.57	43662.69
572.74	44198.68
572.90	44320.38
573.06	43861.64
573.22	44144.84
573.38	43686.10
573.55	43636.95
573.71	44168.25
573.87	43878.02
574.03	43613.54
574.20	44009.09
574.36	43456.73
574.52	44034.84
574.68	43791.42
574.84	44037.18
575.01	43934.20
575.17	43672.06
575.33	44353.15
575.49	44102.71
575.65	44053.56
575.82	44285.28
575.98	43744.61
576.14	44460.82
576.30	44233.78
576.46	43929.51
576.62	44112.08
576.79	44301.66
576.95	43658.01
577.11	44072.29
577.27	43924.83
577.43	44442.09
577.59	44109.74
577.75	43835.89
577.92	43438.00
578.08	43613.54
578.24	43931.86
578.40	44505.29
578.56	43871.00
578.72	44282.94
578.88	44332.09
579.04	44210.38
579.21	44018.46
579.37	43702.48
579.53	44121.44
579.69	43688.44
579.85	43896.75
580.01	44179.95
580.17	43772.70
580.33	44526.35
580.49	44383.58
580.65	44245.49
580.82	44083.99
580.98	44224.42
581.14	43908.45
581.30	44247.83
581.46	43997.39
581.62	44224.42
581.78	44018.46
581.94	44760.40
582.10	44142.50
582.26	44339.11
582.42	44205.70
582.58	44112.08
582.74	43943.56
582.90	43655.67
583.06	44364.85
583.22	44198.68
583.38	44264.21
583.54	44390.60
583.70	44318.04
583.86	44381.24
584.02	43852.28
584.18	44320.38
584.34	44018.46
584.50	44399.96
584.66	44196.34
584.82	43959.94
584.98	44638.70
585.14	44243.15
585.30	44013.77
585.46	44076.97
585.62	44051.22
585.78	44261.87
585.94	44002.07
586.10	44002.07
586.26	44259.53
586.42	44346.13
586.58	44624.65
586.74	44243.15
586.90	43814.83
587.06	44374.22
587.22	44512.31
587.38	43702.48
587.54	44800.19
587.70	44179.95
587.86	44222.08
588.02	44435.07
588.18	44409.32
588.34	44371.88
588.49	43985.69
588.65	44023.14
588.81	44201.02
588.97	44203.36
589.13	44133.14
589.29	44367.20
589.45	44582.52
589.61	44549.76
589.77	44598.91
589.93	44615.29
590.08	44760.40
590.24	44814.24
590.40	44222.08
