SpectraSuite Data File
++++++++++++++++++++++++++++++++++++
Date: Fri Oct 25 10:48:13 EDT 2013
User: price-jones
Dark Spectrum Present: No
Reference Spectrum Present: No
Number of Sampled Component Spectra: 1
Spectrometers: USB2+H05261
Integration Time (usec): 100000 (USB2+H05261)
Spectra Averaged: 1 (USB2+H05261)
Boxcar Smoothing: 0 (USB2+H05261)
Correct for Electrical Dark: No (USB2+H05261)
Strobe/Lamp Enabled: No (USB2+H05261)
Correct for Detector Non-linearity: No (USB2+H05261)
Correct for Stray Light: No (USB2+H05261)
Number of Pixels in Processed Spectrum: 2048
>>>>>Begin Processed Spectral Data<<<<<
365.73	152.13
365.92	152.13
366.12	152.13
366.32	110.01
366.52	95.96
366.72	88.94
366.91	0.00
367.11	4.68
367.31	70.22
367.51	107.66
367.70	30.43
367.90	65.54
368.10	51.49
368.30	53.83
368.49	32.77
368.69	67.88
368.89	14.04
369.09	79.58
369.28	112.35
369.48	56.17
369.68	60.85
369.87	65.54
370.07	100.64
370.27	182.56
370.47	177.88
370.66	360.44
370.86	430.66
371.06	449.38
371.25	543.00
371.45	395.55
371.65	451.72
371.84	472.79
372.04	440.02
372.24	486.83
372.44	423.64
372.63	447.04
372.83	486.83
373.03	468.11
373.22	484.49
373.42	489.17
373.62	564.07
373.81	596.84
374.01	613.22
374.21	514.92
374.40	540.66
374.60	552.37
374.79	521.94
374.99	592.16
375.19	545.34
375.38	491.51
375.58	545.34
375.78	554.71
375.97	573.43
376.17	610.88
376.37	627.26
376.56	615.56
376.76	620.24
376.95	580.45
377.15	638.97
377.35	681.10
377.54	585.13
377.74	561.73
377.93	575.77
378.13	657.69
378.33	667.05
378.52	692.80
378.72	653.01
378.91	667.05
379.11	692.80
379.31	610.88
379.50	578.11
379.70	671.73
379.89	671.73
380.09	664.71
380.28	615.56
380.48	641.31
380.68	636.63
380.87	603.86
381.07	685.78
381.26	685.78
381.46	641.31
381.65	688.12
381.85	685.78
382.04	713.86
382.24	660.03
382.43	690.46
382.63	739.61
382.83	662.37
383.02	669.39
383.22	725.57
383.41	767.70
383.61	746.63
383.80	774.72
384.00	713.86
384.19	688.12
384.39	819.19
384.58	697.48
384.78	781.74
384.97	823.87
385.17	802.80
385.36	758.33
385.56	748.97
385.75	755.99
385.95	725.57
386.14	791.10
386.34	727.91
386.53	835.57
386.72	774.72
386.92	840.25
387.11	875.36
387.31	786.42
387.50	812.17
387.70	816.85
387.89	866.00
388.09	809.83
388.28	821.53
388.48	933.87
388.67	908.13
388.86	840.25
389.06	929.19
389.25	910.47
389.45	837.91
389.64	894.08
389.84	978.34
390.03	922.17
390.22	898.77
390.42	894.08
390.61	908.13
390.81	802.80
391.00	957.28
391.19	1015.79
391.39	964.30
391.58	961.96
391.78	966.64
391.97	1029.84
392.16	964.30
392.36	968.98
392.55	908.13
392.75	964.30
392.94	933.87
393.13	1025.15
393.33	985.37
393.52	1093.03
393.71	1032.18
393.91	1004.09
394.10	1036.86
394.29	1064.94
394.49	1048.56
394.68	1160.91
394.88	1081.33
395.07	1226.44
395.26	1181.97
395.46	1203.04
395.65	1053.24
395.84	1062.60
396.04	1207.72
396.23	1111.75
396.42	1163.25
396.62	1205.38
396.81	1160.91
397.00	1118.78
397.19	1233.46
397.39	1247.51
397.58	1221.76
397.77	1205.38
397.97	1282.61
398.16	1254.53
398.35	1273.25
398.55	1280.27
398.74	1280.27
398.93	1387.94
399.12	1310.70
399.32	1303.68
399.51	1401.98
399.70	1427.73
399.90	1341.13
400.09	1394.96
400.28	1357.51
400.47	1444.11
400.67	1413.68
400.86	1352.83
401.05	1479.22
401.24	1479.22
401.44	1565.82
401.63	1507.30
401.82	1458.15
402.01	1469.86
402.21	1619.65
402.40	1572.84
402.59	1600.93
402.78	1666.46
402.97	1582.20
403.17	1626.67
403.36	1666.46
403.55	1640.72
403.74	1650.08
403.93	1689.87
404.13	1694.55
404.32	1678.16
404.51	1654.76
404.70	1739.02
404.89	1717.95
405.09	1785.83
405.28	1746.04
405.47	1778.81
405.66	1872.43
405.85	1769.44
406.05	1809.23
406.24	1792.85
406.43	1813.92
406.62	1893.49
406.81	1933.28
407.00	1818.60
407.20	1717.95
407.39	1909.88
407.58	1923.92
407.77	1881.79
407.96	1961.37
408.15	2036.27
408.34	2001.16
408.54	1996.48
408.73	2010.52
408.92	1923.92
409.11	2059.67
409.30	2036.27
409.49	2083.08
409.68	2069.03
409.87	2022.22
410.07	2169.68
410.26	2216.49
410.45	2202.44
410.64	2101.80
410.83	2132.23
411.02	2183.72
411.21	2361.60
411.40	2307.77
411.59	2359.26
411.78	2293.72
411.98	2338.20
412.17	2450.54
412.36	2415.43
412.55	2399.05
412.74	2441.18
412.93	2473.95
413.12	2448.20
413.31	2583.95
413.50	2410.75
413.69	2595.65
413.88	2642.46
414.07	2487.99
414.26	2644.81
414.45	2576.93
414.64	2708.00
414.83	2768.85
415.02	2794.60
415.22	2705.66
415.41	2909.29
415.60	2862.48
415.79	2754.81
415.98	2848.43
416.17	2960.78
416.36	2827.37
416.55	2956.10
416.74	3038.02
416.93	2995.89
417.12	2949.08
417.31	3019.29
417.50	2956.10
417.69	3258.03
417.88	3068.44
418.07	3171.43
418.26	3173.77
418.45	3157.38
418.64	3314.20
418.83	3194.83
419.02	3141.00
419.21	3239.30
419.39	3316.54
419.58	3251.00
419.77	3126.96
419.96	3307.18
420.15	3248.66
420.34	3243.98
420.53	3300.16
420.72	3426.54
420.91	3412.50
421.10	3391.44
421.29	3471.01
421.48	3335.26
421.67	3461.65
421.86	3346.97
422.05	3426.54
422.24	3473.36
422.43	3459.31
422.61	3520.17
422.80	3555.27
422.99	3545.91
423.18	3632.51
423.37	3684.00
423.56	3419.52
423.75	3405.48
423.94	3438.25
424.13	3314.20
424.32	3494.42
424.50	3501.44
424.69	3728.47
424.88	3686.34
425.07	3529.53
425.26	3379.73
425.45	3459.31
425.64	3419.52
425.83	3691.02
426.01	3662.94
426.20	3641.87
426.39	3700.39
426.58	3674.64
426.77	3583.36
426.96	3665.28
427.15	3674.64
427.33	3712.09
427.52	3592.72
427.71	3744.86
427.90	3658.26
428.09	3789.33
428.28	3691.02
428.46	3674.64
428.65	3791.67
428.84	3885.29
429.03	3822.09
429.22	3854.86
429.40	3737.84
429.59	3840.82
429.78	3684.00
429.97	3721.45
430.16	3716.77
430.34	3880.61
430.53	3829.12
430.72	3831.46
430.91	3854.86
431.10	3892.31
431.28	4053.81
431.47	4264.46
431.66	4217.65
431.85	4098.28
432.03	4339.35
432.22	4304.25
432.41	4325.31
432.60	4236.37
432.79	4248.07
432.97	4306.59
433.16	4402.55
433.35	4257.43
433.54	4131.05
433.72	4348.72
433.91	4109.98
434.10	4404.89
434.28	4257.43
434.47	4395.53
434.66	4479.79
434.85	4505.53
435.03	4566.39
435.22	4554.68
435.41	4554.68
435.59	4491.49
435.78	4599.15
435.97	4592.13
436.16	4669.37
436.34	4568.73
436.53	4699.80
436.72	4840.23
436.90	4414.25
437.09	4741.93
437.28	4573.41
437.46	4791.08
437.65	4671.71
437.84	4807.46
438.02	4774.69
438.21	4713.84
438.40	4819.16
438.58	4882.36
438.77	4947.89
438.96	4985.34
439.14	5121.09
439.33	5102.37
439.52	5029.81
439.70	5001.72
439.89	5055.56
440.08	5214.71
440.26	5160.88
440.45	5235.78
440.63	5397.28
440.82	5401.96
441.01	5446.43
441.19	5404.30
441.38	5451.11
441.57	5486.22
441.75	5568.13
441.94	5802.19
442.12	5671.12
442.31	5715.59
442.50	5762.40
442.68	5694.52
442.87	5760.06
443.05	5853.68
443.24	5650.05
443.43	5762.40
443.61	5975.39
443.80	6001.13
443.98	5827.93
444.17	5738.99
444.35	5963.68
444.54	5914.53
444.73	5874.74
444.91	5933.26
445.10	5870.06
445.28	5844.32
445.47	5760.06
445.65	5921.56
445.84	6015.18
446.02	5860.70
446.21	5895.81
446.39	6104.12
446.58	6045.60
446.77	6090.07
446.95	5792.83
447.14	5846.66
447.32	6214.12
447.51	6024.54
447.69	5987.09
447.88	6141.57
448.06	5977.73
448.25	6260.93
448.43	6083.05
448.62	6092.41
448.80	6094.76
448.99	6162.63
449.17	6183.70
449.36	6202.42
449.54	6291.36
449.73	6237.53
449.91	6373.28
450.10	6476.26
450.28	6434.13
450.46	6492.65
450.65	6473.92
450.83	6530.09
451.02	6443.49
451.20	6665.85
451.39	6452.86
451.57	6438.81
451.76	6438.81
451.94	6490.31
452.13	6609.67
452.31	6747.76
452.49	6368.60
452.68	6530.09
452.86	6480.94
453.05	6689.25
453.23	6724.36
453.42	6719.68
453.60	6600.31
453.78	6829.68
453.97	6600.31
454.15	6839.05
454.34	6668.19
454.52	6904.58
454.70	6883.52
454.89	6803.94
455.07	6977.14
455.26	6846.07
455.44	6986.50
455.62	6906.92
455.81	6881.18
455.99	6963.09
456.17	7136.29
456.36	7075.44
456.54	7183.10
456.73	7288.43
456.91	7529.50
457.09	7358.64
457.28	7492.05
457.46	7192.47
457.64	7290.77
457.83	7335.24
458.01	7265.02
458.19	7332.90
458.38	7309.49
458.56	7515.46
458.74	7503.76
458.93	7538.87
459.11	7431.20
459.29	7548.23
459.48	7595.04
459.66	7569.29
459.84	7655.89
460.03	7667.60
460.21	7625.47
460.39	7819.73
460.57	7688.66
460.76	7824.41
460.94	8009.31
461.12	7838.45
461.31	7882.92
461.49	7922.71
461.67	7758.88
461.85	7983.57
462.04	7868.88
462.22	8367.42
462.40	8002.29
462.59	8203.58
462.77	8028.04
462.95	8126.34
463.13	8058.46
463.32	8173.15
463.50	8208.26
463.68	8180.17
463.86	8128.68
464.05	8077.19
464.23	8074.85
464.41	8365.07
464.59	8070.17
464.78	8320.60
464.96	8365.07
465.14	8374.44
465.32	8503.17
465.50	8564.02
465.69	8463.38
465.87	8491.46
466.05	8456.36
466.23	8498.49
466.41	8402.52
466.60	8514.87
466.78	8255.07
466.96	8414.23
467.14	8573.38
467.32	8706.79
467.51	8777.01
467.69	8355.71
467.87	8381.46
468.05	8765.31
468.23	8620.19
468.41	8678.71
468.60	8636.58
468.78	8762.97
468.96	8667.00
469.14	9004.04
469.32	8730.20
469.50	8566.36
469.69	9020.42
469.87	8961.91
470.05	8982.98
470.23	8997.02
470.41	8947.87
470.59	9109.36
470.77	9245.12
470.95	9142.13
471.14	9221.71
471.32	8903.40
471.50	9369.16
471.68	9357.46
471.86	9582.15
472.04	9376.19
472.22	9547.05
472.40	9474.49
472.58	9514.28
472.77	9317.67
472.95	9664.07
473.13	10211.76
473.31	9525.98
473.49	9666.41
473.67	9635.99
473.85	9834.93
474.03	9921.53
474.21	10010.47
474.39	10125.16
474.57	10106.43
474.75	10118.14
474.93	10272.61
475.12	10017.49
475.30	10281.97
475.48	10305.38
475.66	10005.79
475.84	10457.51
476.02	10422.41
476.20	10256.23
476.38	10759.44
476.56	10771.15
476.74	11016.90
476.92	10640.08
477.10	10827.32
477.28	11105.84
477.46	11016.90
477.64	11073.07
477.82	11112.86
478.00	11304.79
478.18	11494.37
478.36	11489.69
478.54	11705.02
478.72	11705.02
478.90	11805.66
479.08	12313.56
479.26	12189.51
479.44	12198.87
479.62	11990.56
479.80	12320.58
479.98	12428.24
480.16	12720.81
480.34	12269.09
480.52	12725.49
480.70	12676.34
480.88	12507.82
481.06	12760.60
481.24	12737.20
481.41	12798.05
481.59	13207.64
481.77	13317.65
481.95	13373.82
482.13	13284.88
482.31	13369.14
482.49	13521.27
482.67	13692.13
482.85	13788.10
483.03	13872.36
483.21	14363.87
483.39	14157.90
483.57	13837.25
483.74	14256.20
483.92	14277.27
484.10	14389.61
484.28	14487.92
484.46	14647.07
484.64	14867.08
484.82	14513.66
485.00	14874.10
485.18	15138.58
485.35	15269.66
485.53	15103.48
485.71	15323.49
485.89	15449.88
486.07	15662.86
486.25	15435.83
486.43	15889.90
486.61	15913.30
486.78	16088.84
486.96	16142.67
487.14	16475.03
487.32	16472.69
487.50	16737.17
487.68	16468.01
487.85	16819.09
488.03	16807.39
488.21	17125.70
488.39	16870.58
488.57	17418.27
488.75	17380.82
488.92	17949.57
489.10	18008.08
489.28	17891.06
489.46	18373.21
489.64	17984.68
489.81	18750.03
489.99	18693.86
490.17	18743.01
490.35	19138.56
490.53	18726.63
490.70	18803.86
490.88	18934.93
491.06	19255.59
491.24	19173.67
491.41	19330.48
491.59	19491.98
491.77	19594.96
491.95	19564.54
492.13	19906.26
492.30	20072.43
492.48	19941.36
492.66	20056.05
492.84	20245.63
493.01	20357.98
493.19	20374.36
493.37	20680.97
493.54	20938.43
493.72	20922.05
493.90	20870.56
494.08	21128.02
494.25	21380.79
494.43	21490.80
494.61	21399.52
494.79	21685.06
494.96	21774.00
495.14	21837.20
495.32	21799.75
495.49	22139.13
495.67	22281.90
495.85	22300.62
496.02	22253.81
496.20	22925.55
496.38	22464.46
496.55	22745.33
496.73	23281.31
496.91	22817.88
497.09	23175.98
497.26	23515.36
497.44	23070.66
497.62	23164.28
497.79	23786.86
497.97	23641.75
498.14	23988.15
498.32	23960.06
498.50	23711.97
498.67	24500.73
498.85	24463.28
499.03	24435.19
499.20	24414.13
499.38	24540.52
499.56	24355.61
499.73	24730.10
499.91	24879.89
500.08	25029.69
500.26	24662.22
500.44	25001.60
500.61	24996.92
500.79	24680.95
500.97	25273.10
501.14	25624.18
501.32	25366.73
501.49	25429.92
501.67	25312.89
501.84	25579.71
502.02	25869.94
502.20	26167.19
502.37	25926.11
502.55	25846.54
502.72	26256.13
502.90	26071.23
503.07	26033.78
503.25	26024.42
503.43	26459.76
503.60	26005.69
503.78	26466.78
503.95	26415.29
504.13	26799.13
504.30	26862.33
504.48	26370.82
504.65	26913.82
504.83	26962.97
505.01	27154.90
505.18	27241.50
505.36	27543.42
505.53	27501.29
505.71	27737.69
505.88	27915.57
506.06	27480.23
506.23	27913.23
506.41	27573.85
506.58	27892.16
506.76	28149.62
506.93	28276.01
507.11	28044.30
507.28	27765.78
507.46	28268.99
507.63	28156.64
507.81	28154.30
507.98	28470.28
508.16	28596.67
508.33	28540.49
508.50	28477.30
508.68	28552.20
508.85	29102.22
509.03	28877.53
509.20	28875.19
509.38	29347.98
509.55	29401.81
509.73	29287.12
509.90	29322.23
510.08	29235.63
510.25	29284.78
510.42	29383.09
510.60	29993.97
510.77	30082.91
510.95	29844.17
511.12	30012.69
511.30	29963.54
511.47	30380.15
511.64	30235.04
511.82	30735.92
511.99	29912.05
512.17	30368.45
512.34	30078.22
512.51	30115.67
512.69	30892.73
512.86	30623.57
513.04	30831.88
513.21	30548.67
513.38	30731.23
513.56	30918.48
513.73	30445.69
513.90	31274.24
514.08	30986.35
514.25	31180.62
514.43	31040.18
514.60	31157.21
514.77	31138.49
514.95	31580.85
515.12	31496.59
515.29	31606.59
515.47	32098.11
515.64	31793.84
515.81	31835.97
515.99	31927.25
516.16	31709.58
516.33	31962.36
516.51	32063.00
516.68	31983.42
516.85	31971.72
517.03	31594.89
517.20	31971.72
517.37	32095.77
517.54	32121.51
517.72	32364.93
517.89	32472.59
518.06	32268.97
518.24	32084.06
518.41	32893.89
518.58	32631.75
518.75	32577.92
518.93	33006.23
519.10	32957.08
519.27	33088.15
519.45	33181.77
519.62	33354.97
519.79	32809.63
519.96	33329.23
520.14	33682.65
520.31	33516.47
520.48	33736.48
520.65	33390.08
520.83	34045.43
521.00	33855.85
521.17	34328.64
521.34	33935.43
521.52	33921.38
521.69	33970.54
521.86	33972.88
522.03	34302.89
522.20	34183.52
522.38	34457.37
522.55	34656.31
522.72	34525.24
522.89	34319.28
523.07	34501.84
523.24	34450.35
523.41	34775.68
523.58	34892.71
523.75	34855.26
523.92	35351.45
524.10	34948.88
524.27	35175.91
524.44	35393.58
524.61	35250.81
524.78	35372.52
524.96	35409.96
525.13	35695.51
525.30	35454.44
525.47	35473.16
525.64	35620.61
525.81	35974.03
525.98	35604.23
526.16	35548.06
526.33	35676.79
526.50	35950.63
526.67	35763.39
526.84	35531.67
527.01	35613.59
527.18	35983.40
527.36	36126.17
527.53	36088.72
527.70	36666.83
527.87	36421.08
528.04	36432.78
528.21	36533.42
528.38	36458.52
528.55	36512.36
528.72	36484.27
528.89	36893.86
529.07	36229.15
529.24	36507.68
529.41	36524.06
529.58	36683.22
529.75	36973.44
529.92	37287.07
530.09	36928.97
530.26	37064.72
530.43	37125.58
530.60	36872.80
530.77	36905.57
530.94	37298.78
531.11	37193.45
531.28	37244.94
531.46	37420.48
531.63	37560.92
531.80	37347.93
531.97	37443.89
532.14	37357.29
532.31	37214.52
532.48	37764.54
532.65	37958.81
532.82	37652.20
532.99	38007.96
533.16	37366.65
533.33	38412.87
533.50	38085.20
533.67	38136.69
533.84	37816.04
534.01	37876.89
534.18	38375.42
534.35	38485.43
534.52	38312.23
534.69	38476.07
534.86	38487.77
535.03	38717.14
535.20	38707.78
535.37	38506.49
535.54	38520.54
535.71	38321.59
535.88	38754.59
536.05	38752.25
536.22	38546.28
536.38	38927.79
536.55	38885.66
536.72	38773.31
536.89	38899.70
537.06	38857.57
537.23	38880.98
537.40	38780.34
537.57	38906.73
537.74	39051.84
537.91	39292.91
538.08	39358.45
538.25	39269.51
538.42	39012.05
538.59	39487.18
538.75	39323.34
538.92	39070.56
539.09	39641.65
539.26	39754.00
539.43	40257.21
539.60	39311.64
539.77	39524.63
539.94	39456.75
540.11	39903.79
540.28	39571.44
540.44	39311.64
540.61	39622.93
540.78	39524.63
540.95	39536.33
541.12	39854.64
541.29	39833.58
541.46	40053.59
541.62	40289.98
541.79	40306.37
541.96	39690.80
542.13	40126.14
542.30	40137.85
542.47	40004.44
542.63	40140.19
542.80	40912.56
542.97	40814.26
543.14	40563.82
543.31	40439.78
543.48	40854.05
543.64	41289.39
543.81	41310.46
543.98	41123.21
544.15	41050.66
544.32	40746.39
544.48	41209.81
544.65	40788.52
544.82	40884.48
544.99	40704.26
545.16	41141.94
545.32	41202.79
545.49	40980.44
545.66	41350.24
545.83	41237.90
546.00	41483.66
546.16	41476.63
546.33	41148.96
546.50	41181.73
546.67	41343.22
546.83	40935.97
547.00	41205.13
547.17	41317.48
547.34	41462.59
547.50	42017.30
547.67	41614.72
547.84	41427.48
548.00	41935.38
548.17	42199.86
548.34	41687.28
548.51	41909.63
548.67	41902.61
548.84	42181.13
549.01	41682.60
549.18	42204.54
549.34	42174.11
549.51	41958.78
549.68	42153.05
549.84	42211.56
550.01	42717.12
550.18	42197.52
550.34	42246.67
550.51	42113.26
550.68	42071.13
550.84	41881.55
551.01	42176.45
551.18	42007.94
551.34	42534.56
551.51	42656.26
551.68	42471.36
551.84	42782.65
552.01	42059.43
552.18	42487.74
552.34	42429.23
552.51	42574.34
552.68	42508.81
552.84	42986.28
553.01	42518.17
553.18	42478.38
553.34	42866.91
553.51	42808.40
553.67	42625.84
553.84	43288.21
554.01	43110.33
554.17	42890.32
554.34	43285.87
554.51	43185.22
554.67	43079.90
554.84	43070.54
555.00	42590.73
555.17	42677.33
555.33	42658.60
555.50	43040.11
555.67	43281.19
555.83	43077.56
556.00	43620.56
556.16	43885.04
556.33	43100.97
556.50	43395.87
556.66	43182.88
556.83	43098.62
556.99	43077.56
557.16	43374.81
557.32	43618.22
557.49	43292.89
557.65	43037.77
557.82	43213.31
557.98	43597.16
558.15	43606.52
558.32	43562.05
558.48	43147.78
558.65	43557.37
558.81	43543.33
558.98	43524.60
559.14	43519.92
559.31	43377.15
559.47	43777.38
559.64	43922.49
559.80	43927.17
559.97	44236.12
560.13	43508.22
560.30	43447.36
560.46	43957.60
560.63	43426.30
560.79	43548.01
560.96	44025.48
561.12	44147.18
561.29	43889.73
561.45	43917.81
561.61	43931.86
561.78	43786.74
561.94	43887.39
562.11	43945.90
562.27	43438.00
562.44	44011.43
562.60	44039.52
562.77	44238.47
562.93	43529.28
563.10	44254.85
563.26	44105.06
563.42	44229.10
563.59	43758.66
563.75	44320.38
563.92	44418.69
564.08	44360.17
564.24	44381.24
564.41	44083.99
564.57	44165.91
564.74	44428.05
564.90	43976.33
565.07	44498.26
565.23	43964.62
565.39	43800.79
565.56	44559.12
565.72	43833.55
565.88	44502.95
566.05	44320.38
566.21	44430.39
566.38	44465.50
566.54	44568.48
566.70	44830.62
566.87	44624.65
567.03	44500.61
567.19	44900.84
567.36	44100.37
567.52	44048.88
567.68	44524.01
567.85	44580.18
568.01	44327.41
568.17	44133.14
568.34	44460.82
568.50	44114.42
568.66	44299.32
568.83	44519.33
568.99	44191.65
569.15	44458.48
569.32	44865.73
569.48	44514.65
569.64	44877.43
569.81	44652.74
569.97	44116.76
570.13	44198.68
570.30	44142.50
570.46	44411.67
570.62	44133.14
570.78	44175.27
570.95	44203.36
571.11	44788.49
571.27	44460.82
571.43	44453.79
571.60	44795.51
571.76	44481.88
571.92	44346.13
572.09	44519.33
572.25	44863.39
572.41	44465.50
572.57	44643.38
572.74	44987.44
572.90	44568.48
573.06	44659.76
573.22	44477.20
573.38	44336.77
573.55	44608.27
573.71	44711.25
573.87	44631.68
574.03	44898.50
574.20	44760.40
574.36	44378.90
574.52	45006.16
574.68	44739.34
574.84	44800.19
575.01	44662.10
575.17	44634.02
575.33	44456.14
575.49	44474.86
575.65	45277.66
575.82	44676.15
575.98	44694.87
576.14	45001.48
576.30	44488.90
576.46	44371.88
576.62	44687.85
576.79	44336.77
576.95	44194.00
577.11	44776.79
577.27	44538.05
577.43	44751.04
577.59	44233.78
577.75	44713.59
577.92	44334.43
578.08	44643.38
578.24	44495.92
578.40	44683.17
578.56	44942.97
578.72	44634.02
578.88	44828.28
579.04	44774.45
579.21	44348.47
579.37	44980.42
579.53	44832.96
579.69	44697.21
579.85	45067.02
580.01	44491.24
580.17	44975.73
580.33	45043.61
580.49	44947.65
580.65	45179.36
580.82	45048.29
580.98	44905.52
581.14	44685.51
581.30	44938.29
581.46	44804.88
581.62	44982.76
581.78	44851.69
581.94	45254.26
582.10	44818.92
582.26	44802.53
582.42	45045.95
582.58	45031.91
582.74	44755.72
582.90	44680.83
583.06	45048.29
583.22	44921.90
583.38	45179.36
583.54	45357.24
583.70	44928.92
583.86	44886.79
584.02	44952.33
584.18	45172.34
584.34	44877.43
584.50	44715.93
584.66	44928.92
584.82	45048.29
584.98	45013.18
585.14	45308.09
585.30	44612.95
585.46	44907.86
585.62	44837.64
585.78	44762.75
585.94	44786.15
586.10	45155.96
586.26	44741.68
586.42	44753.38
586.58	45188.72
586.74	44727.64
586.90	44870.41
587.06	44978.07
587.22	45027.23
587.38	45233.19
587.54	45195.74
587.70	45240.21
587.86	45139.57
588.02	45544.48
588.18	45022.54
588.34	44638.70
588.49	44760.40
588.65	44804.88
588.81	44610.61
588.97	44800.19
589.13	44842.32
589.29	45191.06
589.45	45008.50
589.61	45195.74
589.77	45329.16
589.93	45275.32
590.08	45319.79
590.24	44786.15
