SpectraSuite Data File
++++++++++++++++++++++++++++++++++++
Date: Fri Oct 25 11:22:55 EDT 2013
User: price-jones
Dark Spectrum Present: No
Reference Spectrum Present: No
Number of Sampled Component Spectra: 1
Spectrometers: USB2+H05261
Integration Time (usec): 100000 (USB2+H05261)
Spectra Averaged: 1 (USB2+H05261)
Boxcar Smoothing: 0 (USB2+H05261)
Correct for Electrical Dark: No (USB2+H05261)
Strobe/Lamp Enabled: No (USB2+H05261)
Correct for Detector Non-linearity: No (USB2+H05261)
Correct for Stray Light: No (USB2+H05261)
Number of Pixels in Processed Spectrum: 2048
>>>>>Begin Processed Spectral Data<<<<<
365.73	250.44
365.92	250.44
366.12	250.44
366.32	163.84
366.52	53.83
366.72	128.73
366.91	145.11
367.11	128.73
367.31	154.48
367.51	86.60
367.70	112.35
367.90	102.98
368.10	163.84
368.30	56.17
368.49	88.94
368.69	91.28
368.89	170.86
369.09	170.86
369.28	198.95
369.48	161.50
369.68	220.01
369.87	224.69
370.07	180.22
370.27	231.71
370.47	294.91
370.66	554.71
370.86	617.90
371.06	636.63
371.25	699.82
371.45	683.44
371.65	638.97
371.84	653.01
372.04	685.78
372.24	734.93
372.44	657.69
372.63	706.84
372.83	821.53
373.03	725.57
373.22	732.59
373.42	748.97
373.62	809.83
373.81	798.12
374.01	725.57
374.21	826.21
374.40	746.63
374.60	793.44
374.79	739.61
374.99	767.70
375.19	767.70
375.38	823.87
375.58	842.59
375.78	798.12
375.97	873.02
376.17	837.91
376.37	793.44
376.56	828.55
376.76	837.91
376.95	851.96
377.15	903.45
377.35	940.90
377.54	943.24
377.74	866.00
377.93	875.36
378.13	894.08
378.33	891.74
378.52	889.40
378.72	926.85
378.91	858.98
379.11	901.11
379.31	957.28
379.50	880.04
379.70	997.07
379.89	973.66
380.09	1008.77
380.28	992.39
380.48	1020.47
380.68	978.34
380.87	957.28
381.07	1060.26
381.26	994.73
381.46	884.72
381.65	1090.69
381.85	1107.07
382.04	994.73
382.24	971.32
382.43	1060.26
382.63	1055.58
382.83	1064.94
383.02	1144.52
383.22	1114.10
383.41	1041.54
383.61	1062.60
383.80	1174.95
384.00	1104.73
384.19	1196.01
384.39	1088.35
384.58	1135.16
384.78	1137.50
384.97	1135.16
385.17	1102.39
385.36	1210.06
385.56	1167.93
385.75	1160.91
385.95	1172.61
386.14	1224.10
386.34	1179.63
386.53	1167.93
386.72	1116.44
386.92	1210.06
387.11	1240.48
387.31	1308.36
387.50	1266.23
387.70	1179.63
387.89	1174.95
388.09	1324.74
388.28	1266.23
388.48	1366.87
388.67	1315.38
388.86	1263.89
389.06	1299.00
389.25	1306.02
389.45	1324.74
389.64	1362.19
389.84	1380.92
390.03	1369.21
390.22	1348.15
390.42	1380.92
390.61	1423.05
390.81	1322.40
391.00	1362.19
391.19	1416.02
391.39	1453.47
391.58	1509.65
391.78	1387.94
391.97	1483.90
392.16	1387.94
392.36	1535.39
392.55	1523.69
392.75	1514.33
392.94	1401.98
393.13	1556.46
393.33	1465.18
393.52	1504.96
393.71	1650.08
393.91	1540.07
394.10	1617.31
394.29	1537.73
394.49	1614.97
394.68	1741.36
394.88	1598.59
395.07	1710.93
395.26	1565.82
395.46	1757.74
395.65	1717.95
395.84	1685.19
396.04	1792.85
396.23	1792.85
396.42	1727.32
396.62	1746.04
396.81	1806.89
397.00	1734.34
397.19	1753.06
397.39	1839.66
397.58	1877.11
397.77	1860.73
397.97	1891.15
398.16	1785.83
398.35	1893.49
398.55	1914.56
398.74	1944.99
398.93	1872.43
399.12	2008.18
399.32	1874.77
399.51	1963.71
399.70	1963.71
399.90	2008.18
400.09	1942.64
400.28	1973.07
400.47	2003.50
400.67	2062.01
400.86	2083.08
401.05	2101.80
401.24	2132.23
401.44	2174.36
401.63	2188.40
401.82	2146.27
402.01	2094.78
402.21	2157.97
402.40	2253.94
402.59	2172.02
402.78	2197.76
402.97	2172.02
403.17	2331.17
403.36	2310.11
403.55	2263.30
403.74	2368.62
403.93	2354.58
404.13	2352.24
404.32	2413.09
404.51	2385.01
404.70	2356.92
404.89	2434.16
405.09	2401.39
405.28	2450.54
405.47	2511.39
405.66	2464.58
405.85	2469.27
406.05	2476.29
406.24	2560.55
406.43	2607.36
406.62	2576.93
406.81	2640.12
407.00	2523.10
407.20	2579.27
407.39	2532.46
407.58	2722.04
407.77	2703.32
407.96	2698.64
408.15	2782.90
408.34	2738.43
408.54	2850.77
408.73	2867.16
408.92	2925.67
409.11	2834.39
409.30	2827.37
409.49	2899.92
409.68	2864.82
409.87	2890.56
410.07	2956.10
410.26	2956.10
410.45	2998.23
410.64	3094.19
410.83	3136.32
411.02	3115.25
411.21	3243.98
411.40	3185.47
411.59	3201.85
411.78	3194.83
411.98	3148.02
412.17	3206.53
412.36	3379.73
412.55	3269.73
412.74	3449.95
412.93	3548.25
413.12	3412.50
413.31	3620.81
413.50	3543.57
413.69	3407.82
413.88	3513.14
414.07	3599.74
414.26	3611.45
414.45	3653.58
414.64	3754.22
414.83	3660.60
415.02	3775.28
415.22	3749.54
415.41	3908.69
415.60	3859.54
415.79	3817.41
415.98	3894.65
416.17	4018.70
416.36	3854.86
416.55	3875.93
416.74	4086.58
416.93	3936.78
417.12	4107.64
417.31	4215.30
417.50	4311.27
417.69	4411.91
417.88	4205.94
418.07	4383.82
418.26	4320.63
418.45	4365.10
418.64	4440.00
418.83	4332.33
419.02	4456.38
419.21	4491.49
419.39	4470.42
419.58	4489.15
419.77	4491.49
419.96	4601.49
420.15	4655.33
420.34	4545.32
420.53	4652.98
420.72	4599.15
420.91	4564.04
421.10	4713.84
421.29	4706.82
421.48	4812.14
421.67	4840.23
421.86	4952.57
422.05	4875.34
422.24	4894.06
422.43	4999.38
422.61	4922.15
422.80	5034.49
422.99	4938.53
423.18	4947.89
423.37	5090.67
423.56	4961.94
423.75	5093.01
423.94	4887.04
424.13	4599.15
424.32	4798.10
424.50	5050.88
424.69	5067.26
424.88	5212.37
425.07	4814.48
425.26	4840.23
425.45	5104.71
425.64	5032.15
425.83	4985.34
426.01	5270.89
426.20	5018.11
426.39	4997.04
426.58	4938.53
426.77	5011.09
426.96	5289.61
427.15	5219.39
427.33	5219.39
427.52	5203.01
427.71	5296.63
427.90	5207.69
428.09	5240.46
428.28	5338.76
428.46	5535.37
428.65	5256.84
428.84	5598.56
429.03	5565.79
429.22	5298.97
429.40	5575.16
429.59	5451.11
429.78	5296.63
429.97	5212.37
430.16	5495.58
430.34	5577.50
430.53	5823.25
430.72	5565.79
430.91	5755.38
431.10	5610.26
431.28	5788.14
431.47	5846.66
431.66	5764.74
431.85	5870.06
432.03	5891.13
432.22	6143.91
432.41	5944.96
432.60	5991.77
432.79	5907.51
432.97	6179.01
433.16	6050.28
433.35	6005.81
433.54	6143.91
433.72	6188.38
433.91	6115.82
434.10	6132.20
434.28	6136.88
434.47	6328.81
434.66	6352.21
434.85	6319.45
435.03	6246.89
435.22	6307.74
435.41	6455.20
435.59	6427.11
435.78	6328.81
435.97	6567.54
436.16	6548.82
436.34	6551.16
436.53	6590.95
436.72	6663.51
436.90	6553.50
437.09	6656.48
437.28	6586.27
437.46	6616.69
437.65	6789.89
437.84	6759.47
438.02	6665.85
438.21	6747.76
438.40	6841.39
438.58	7059.06
438.77	7087.14
438.96	6960.75
439.14	7197.15
439.33	7082.46
439.52	7143.32
439.70	7211.19
439.89	7314.17
440.08	7421.84
440.26	7433.54
440.45	7393.75
440.63	7403.11
440.82	7625.47
441.01	7396.09
441.19	7618.44
441.38	7672.28
441.57	7786.96
441.75	7976.55
441.94	8119.32
442.12	7934.42
442.31	8028.04
442.50	8147.40
442.68	7875.90
442.87	8159.11
443.05	8109.96
443.24	8201.24
443.43	8248.05
443.61	8362.73
443.80	8425.93
443.98	8039.74
444.17	7962.50
444.35	8131.02
444.54	8423.59
444.73	8131.02
444.91	8299.54
445.10	8395.50
445.28	8451.67
445.47	8287.84
445.65	8376.78
445.84	8442.31
446.02	8489.12
446.21	8379.12
446.39	8341.67
446.58	8528.91
446.77	8500.83
446.95	8344.01
447.14	8578.06
447.32	8442.31
447.51	8346.35
447.69	8538.27
447.88	8603.81
448.06	8414.23
448.25	8634.24
448.43	8725.52
448.62	8641.26
448.80	8458.70
448.99	8767.65
449.17	8711.47
449.36	8596.79
449.54	8840.20
449.73	9092.98
449.91	9144.47
450.10	9011.06
450.28	8959.57
450.46	8947.87
450.65	9001.70
450.83	9048.51
451.02	9139.79
451.20	9217.03
451.39	9301.29
451.57	9046.17
451.76	9198.31
451.94	9235.75
452.13	9329.38
452.31	9345.76
452.49	9160.86
452.68	9357.46
452.86	9385.55
453.05	9563.43
453.23	9455.76
453.42	9542.36
453.60	9275.54
453.78	9507.26
453.97	9502.58
454.15	9577.47
454.34	9359.80
454.52	9984.73
454.70	9764.72
454.89	9666.41
455.07	9804.50
455.26	9853.66
455.44	9848.97
455.62	9907.49
455.81	10083.03
455.99	9989.41
456.17	10141.54
456.36	9933.23
456.54	10235.16
456.73	10314.74
456.91	10413.04
457.09	10420.06
457.28	10478.58
457.46	10347.51
457.64	10391.98
457.83	10420.06
458.01	10455.17
458.19	10656.46
458.38	10726.68
458.56	10726.68
458.74	10771.15
458.93	10895.19
459.11	10850.72
459.29	10815.62
459.48	10939.66
459.66	10902.22
459.84	10810.93
460.03	11021.58
460.21	11056.69
460.39	11016.90
460.57	11035.63
460.76	10932.64
460.94	11360.96
461.12	11213.51
461.31	11192.44
461.49	11360.96
461.67	11424.15
461.85	11602.04
462.04	11321.17
462.22	11859.49
462.40	11803.32
462.59	11571.61
462.77	11590.33
462.95	11679.27
463.13	11482.67
463.32	11590.33
463.50	11707.36
463.68	12032.69
463.86	11948.43
464.05	11744.81
464.23	11782.26
464.41	12219.94
464.59	11627.78
464.78	12306.54
464.96	12060.78
465.14	11990.56
465.32	12100.57
465.50	12208.23
465.69	12353.35
465.87	12177.81
466.05	12308.88
466.23	12308.88
466.41	12222.28
466.60	12519.53
466.78	12233.98
466.96	12229.30
467.14	12355.69
467.32	12400.16
467.51	12837.84
467.69	12119.29
467.87	12573.36
468.05	12489.10
468.23	12493.78
468.41	12744.22
468.60	12549.95
468.78	12671.66
468.96	12617.83
469.14	13008.70
469.32	13245.09
469.50	12910.40
469.69	13097.64
469.87	13287.22
470.05	13144.45
470.23	13153.81
470.41	13282.54
470.59	13296.58
470.77	13296.58
470.95	13429.99
471.14	13860.65
471.32	13167.85
471.50	13563.40
471.68	13467.44
471.86	13699.16
472.04	13752.99
472.22	14024.49
472.40	13640.64
472.58	14052.58
472.77	13867.67
472.95	14113.43
473.13	14560.47
473.31	14150.88
473.49	14075.98
473.67	14207.05
473.85	14251.52
474.03	14782.82
474.21	14890.49
474.39	14778.14
474.57	14918.57
474.75	14941.98
474.93	15342.21
475.12	15037.94
475.30	15276.68
475.48	15012.20
475.66	15365.62
475.84	15248.59
476.02	15360.94
476.20	15257.95
476.38	15587.97
476.56	16093.52
476.74	16170.76
476.92	15974.16
477.10	15955.43
477.28	16390.77
477.46	16404.81
477.64	16367.37
477.82	16730.15
478.00	17011.01
478.18	16982.93
478.36	16980.59
478.54	17500.19
478.72	17235.70
478.90	17308.26
479.08	17713.17
479.26	17755.30
479.44	17830.20
479.62	17668.70
479.80	18216.39
479.98	18401.29
480.16	18661.09
480.34	18597.90
480.52	18841.31
480.70	18874.08
480.88	18455.12
481.06	19030.90
481.24	19005.15
481.41	19260.27
481.59	19477.94
481.77	19590.28
481.95	19800.93
482.13	19950.73
482.31	19690.93
482.49	20362.66
482.67	20341.60
482.85	20671.61
483.03	20699.70
483.21	20961.84
483.39	20966.52
483.57	21060.14
483.74	21453.35
483.92	21600.80
484.10	21539.95
484.28	21799.75
484.46	22342.75
484.64	22368.50
484.82	22211.68
485.00	22471.48
485.18	22808.52
485.35	23033.21
485.53	23199.39
485.71	23140.88
485.89	23473.23
486.07	23550.47
486.25	23819.63
486.43	23805.59
486.61	23857.08
486.78	24222.20
486.96	24355.61
487.14	25156.08
487.32	24767.55
487.50	25242.68
487.68	24938.41
487.85	25268.42
488.03	25823.13
488.21	25989.31
488.39	26064.21
488.57	26398.90
488.75	26279.54
488.92	26663.38
489.10	26944.25
489.28	26960.63
489.46	27332.78
489.64	27248.52
489.81	28266.65
489.99	27683.86
490.17	27754.07
490.35	28053.66
490.53	28472.62
490.70	28828.38
490.88	28664.54
491.06	28900.94
491.24	28842.42
491.41	29233.29
491.59	29656.93
491.77	29509.47
491.95	29900.34
492.13	30000.99
492.30	30543.99
492.48	30223.34
492.66	30106.31
492.84	30478.46
493.01	30707.83
493.19	30981.67
493.37	31164.23
493.54	31248.49
493.72	32030.23
493.90	31648.72
494.08	31920.23
494.25	32383.65
494.43	32107.47
494.61	32566.21
494.79	32559.19
494.96	32622.39
495.14	32725.37
495.32	32734.73
495.49	33539.88
495.67	33563.28
495.85	33780.95
496.02	34265.44
496.20	34050.11
496.38	34319.28
496.55	34031.39
496.73	35311.66
496.91	34986.33
497.09	34885.68
497.26	35391.24
497.44	34913.77
497.62	35339.75
497.79	35906.16
497.97	35541.03
498.14	36315.75
498.32	36701.94
498.50	36556.83
498.67	37078.77
498.85	36292.35
499.03	36943.02
499.20	37008.55
499.38	37069.40
499.56	37308.14
499.73	37738.80
499.91	37813.70
500.08	37605.39
500.26	37404.10
500.44	37968.17
500.61	38270.10
500.79	37900.29
500.97	38480.75
501.14	38862.26
501.32	38909.07
501.49	38909.07
501.67	38628.20
501.84	39210.99
502.02	38897.36
502.20	39400.58
502.37	39278.87
502.55	39232.06
502.72	40100.40
502.90	40158.91
503.07	39416.96
503.25	39763.36
503.43	40187.00
503.60	40987.46
503.78	40699.58
503.95	40477.22
504.13	40828.30
504.30	40875.12
504.48	40531.06
504.65	40875.12
504.83	41563.23
505.01	41603.02
505.18	41085.76
505.36	41937.72
505.53	41368.97
505.71	42204.54
505.88	42316.89
506.06	41523.44
506.23	42239.65
506.41	41900.27
506.58	42319.23
506.76	42267.73
506.93	43075.22
507.11	43318.64
507.28	42466.68
507.46	43150.12
507.63	42974.58
507.81	43571.41
507.98	43145.44
508.16	43683.76
508.33	43536.30
508.50	43599.50
508.68	44032.50
508.85	44149.53
509.03	44371.88
509.20	44744.02
509.38	44542.74
509.55	44715.93
509.73	44612.95
509.90	44711.25
510.08	44842.32
510.25	44957.01
510.42	44697.21
510.60	45263.62
510.77	45544.48
510.95	45780.88
511.12	45638.11
511.30	45406.39
511.47	45659.17
511.64	46057.06
511.82	46450.27
511.99	45734.07
512.17	46344.95
512.34	46532.19
512.51	46817.74
512.69	46637.51
512.86	46614.11
513.04	46644.54
513.21	46733.48
513.38	47016.68
513.56	47140.73
513.73	47047.11
513.90	47040.09
514.08	46876.25
514.25	47962.26
514.43	47498.83
514.60	47707.14
514.77	47896.72
514.95	47980.98
515.12	47789.06
515.29	48142.48
515.47	48273.55
515.64	48224.40
515.81	48339.08
515.99	48566.12
516.16	48680.80
516.33	48786.13
516.51	49088.06
516.68	48863.36
516.85	48701.87
517.03	49139.55
517.20	49378.28
517.37	49202.74
517.54	49317.43
517.72	49385.30
517.89	49397.01
518.06	49258.91
518.24	49287.00
518.41	49888.52
518.58	49460.20
518.75	49446.16
518.93	49663.83
519.10	49523.40
519.27	50232.58
519.45	49666.17
519.62	50316.84
519.79	50298.11
519.96	50267.69
520.14	50597.70
520.31	50351.94
520.48	50426.84
520.65	50478.33
520.83	50693.66
521.00	50920.70
521.17	50499.40
521.34	50618.77
521.52	51231.99
521.69	51140.71
521.86	51419.23
522.03	51306.88
522.20	51653.28
522.38	51821.80
522.55	51868.61
522.72	51594.77
522.89	51346.67
523.07	51831.16
523.24	51686.05
523.41	51800.74
523.58	51704.77
523.75	52121.39
523.92	51824.14
524.10	52135.43
524.27	52055.85
524.44	52196.29
524.61	52200.97
524.78	52121.39
524.96	52123.73
525.13	52594.18
525.30	52846.96
525.47	52842.27
525.64	52786.10
525.81	52739.29
525.98	52861.00
526.16	52685.46
526.33	52790.78
526.50	53109.10
526.67	52882.06
526.84	52978.03
527.01	53214.42
527.18	53195.70
527.36	53123.14
527.53	53542.10
527.70	53525.71
527.87	53265.91
528.04	53275.27
528.21	53469.54
528.38	53469.54
528.55	53815.94
528.72	53638.06
528.89	53755.08
529.07	53668.48
529.24	53591.25
529.41	54169.36
529.58	53916.58
529.75	54246.60
529.92	53900.20
530.09	54005.52
530.26	54223.19
530.43	54246.60
530.60	53731.68
530.77	54141.27
530.94	54389.37
531.11	53907.22
531.28	54279.36
531.46	54632.78
531.63	54377.67
531.80	54295.75
531.97	54707.68
532.14	54555.55
532.31	54602.36
532.48	54892.58
532.65	54827.05
532.82	54501.71
532.99	55051.74
533.16	54820.03
533.33	55126.64
533.50	55196.85
533.67	54967.48
533.84	54677.25
534.01	55016.63
534.18	54953.44
534.35	55569.00
534.52	55222.60
534.69	55386.44
534.86	55458.99
535.03	55416.86
535.20	55501.12
535.37	55384.10
535.54	55561.98
535.71	55388.78
535.88	55690.71
536.05	55697.73
536.22	55646.24
536.38	55894.33
536.55	55899.01
536.72	55620.49
536.89	55767.94
537.06	55693.05
537.23	56175.20
537.40	55620.49
537.57	55767.94
537.74	56156.47
537.91	55945.83
538.08	56282.86
538.25	55931.78
538.42	56023.06
538.59	56479.47
538.75	56104.98
538.92	56259.46
539.09	56343.72
539.26	56168.18
539.43	56175.20
539.60	56385.85
539.77	56346.06
539.94	56530.96
540.11	56392.87
540.28	56594.15
540.44	56718.20
540.61	56528.62
540.78	56507.55
540.95	56598.83
541.12	56673.73
541.29	56413.93
541.46	56828.21
541.62	56715.86
541.79	56783.74
541.96	56706.50
542.13	56573.09
542.30	56711.18
542.47	57104.39
542.63	57078.64
542.80	56987.36
542.97	57275.25
543.14	57418.02
543.31	57310.36
543.48	57394.62
543.64	57654.42
543.81	57364.19
543.98	57223.76
544.15	57352.49
544.32	57778.46
544.48	57794.85
544.65	57649.74
544.82	57518.67
544.99	57364.19
545.16	57743.36
545.32	57640.37
545.49	57972.73
545.66	57822.93
545.83	57907.19
546.00	57972.73
546.16	57717.61
546.33	57743.36
546.50	57944.64
546.67	57815.91
546.83	57654.42
547.00	57895.49
547.17	58010.18
547.34	57876.77
547.50	58047.63
547.67	58136.57
547.84	57989.11
548.00	58342.53
548.17	58417.43
548.34	58225.51
548.51	58258.27
548.67	58478.28
548.84	58269.98
549.01	58134.23
549.18	58265.30
549.34	58162.31
549.51	58548.50
549.68	58649.14
549.84	58511.05
550.01	58635.10
550.18	58518.07
550.34	58805.96
550.51	58815.32
550.68	58520.41
550.84	58482.97
551.01	58812.98
551.18	58710.00
551.34	58763.83
551.51	58822.34
551.68	58710.00
551.84	58658.51
552.01	58508.71
552.18	58986.18
552.34	58862.13
552.51	59157.04
552.68	58656.17
552.84	58859.79
553.01	59234.28
553.18	58787.24
553.34	59096.19
553.51	58801.28
553.67	59133.63
553.84	59157.04
554.01	59047.04
554.17	59035.33
554.34	59227.26
554.51	59063.42
554.67	59285.77
554.84	58960.44
555.00	59021.29
555.17	59171.08
555.33	59203.85
555.50	59124.27
555.67	59290.45
555.83	59344.28
556.00	59327.90
556.16	59482.37
556.33	59355.99
556.50	59290.45
556.66	59494.08
556.83	59292.79
556.99	59590.04
557.16	59702.38
557.32	59648.55
557.49	59870.90
557.65	59545.57
557.82	59341.94
557.98	59655.57
558.15	59709.41
558.32	59648.55
558.48	59568.97
558.65	59664.94
558.81	59421.52
558.98	59880.27
559.14	59615.79
559.31	59784.30
559.47	60044.10
559.64	59866.22
559.80	60039.42
559.97	59920.05
560.13	59615.79
560.30	60060.49
560.46	59934.10
560.63	59906.01
560.79	59927.08
560.96	59992.61
561.12	59913.03
561.29	60025.38
561.45	60067.51
561.61	59990.27
561.78	59847.50
561.94	59870.90
562.11	60039.42
562.27	60072.19
562.44	60116.66
562.60	60324.97
562.77	60313.26
562.93	60004.31
563.10	60210.28
563.26	59945.80
563.42	60327.31
563.59	60006.65
563.75	60233.69
563.92	60212.62
564.08	60224.32
564.24	60327.31
564.41	60385.82
564.57	60413.91
564.74	60336.67
564.90	60205.60
565.07	60224.32
565.23	60324.97
565.39	60308.58
565.56	60334.33
565.72	60348.37
565.88	60341.35
566.05	60182.19
566.21	60369.44
566.38	60254.75
566.54	60537.96
566.70	60598.81
566.87	60324.97
567.03	60287.52
567.19	60320.29
567.36	60523.91
567.52	60236.03
567.68	60671.37
567.85	60214.96
568.01	60727.54
568.17	60587.11
568.34	60680.73
568.50	60552.00
568.66	60449.02
568.83	60519.23
568.99	60451.36
569.15	60404.55
569.32	60549.66
569.48	60650.30
569.64	60760.31
569.81	60650.30
569.97	60603.49
570.13	60519.23
570.30	60530.93
570.46	60706.47
570.62	60732.22
570.78	60662.00
570.95	60598.81
571.11	60905.42
571.27	60554.34
571.43	60631.58
571.60	60828.18
571.76	60673.71
571.92	60823.50
572.09	60825.84
572.25	60767.33
572.41	60811.80
572.57	60851.59
572.74	61015.43
572.90	60874.99
573.06	60671.37
573.22	60643.28
573.38	60671.37
573.55	60811.80
573.71	61029.47
573.87	60807.12
574.03	60575.40
574.20	60697.11
574.36	60851.59
574.52	60783.71
574.68	60956.91
574.84	60938.19
575.01	61029.47
575.17	60886.70
575.33	60739.24
575.49	60809.46
575.65	60935.85
575.82	61137.13
575.98	61052.87
576.14	61099.68
576.30	61123.09
576.46	60874.99
576.62	60907.76
576.79	60924.14
576.95	60800.10
577.11	60882.02
577.27	61066.92
577.43	60900.74
577.59	60947.55
577.75	60994.36
577.92	60900.74
578.08	60671.37
578.24	61066.92
578.40	61256.50
578.56	61176.92
578.72	60874.99
578.88	61247.14
579.04	61242.46
579.21	61015.43
579.37	61125.43
579.53	61286.93
579.69	60977.98
579.85	61106.71
580.01	61048.19
580.17	61027.13
580.33	61139.47
580.49	61118.41
580.65	61141.81
580.82	61017.77
580.98	60987.34
581.14	61034.15
581.30	61172.24
581.46	60977.98
581.62	61031.81
581.78	60928.83
581.94	61158.20
582.10	60935.85
582.26	61162.88
582.42	61104.37
582.58	61120.75
582.74	61024.79
582.90	61109.05
583.06	61064.58
583.22	60921.80
583.38	61095.00
583.54	61139.47
583.70	61373.53
583.86	61167.56
584.02	61162.88
584.18	61235.44
584.34	61097.34
584.50	61179.26
584.66	61029.47
584.82	60874.99
584.98	61155.86
585.14	61001.38
585.30	61125.43
585.46	61106.71
585.62	61240.12
585.78	61406.30
585.94	60926.49
586.10	61296.29
586.26	61233.10
586.42	61209.69
586.58	61464.81
586.74	61207.35
586.90	61095.00
587.06	61223.73
587.22	61537.36
587.38	61085.64
587.54	61420.34
587.70	61223.73
587.86	61254.16
588.02	61144.16
588.18	61399.27
588.34	61230.75
588.49	61155.86
