SpectraSuite Data File
++++++++++++++++++++++++++++++++++++
Date: Fri Oct 25 11:25:04 EDT 2013
User: price-jones
Dark Spectrum Present: No
Reference Spectrum Present: No
Number of Sampled Component Spectra: 1
Spectrometers: USB2+H05261
Integration Time (usec): 100000 (USB2+H05261)
Spectra Averaged: 1 (USB2+H05261)
Boxcar Smoothing: 0 (USB2+H05261)
Correct for Electrical Dark: No (USB2+H05261)
Strobe/Lamp Enabled: No (USB2+H05261)
Correct for Detector Non-linearity: No (USB2+H05261)
Correct for Stray Light: No (USB2+H05261)
Number of Pixels in Processed Spectrum: 2048
>>>>>Begin Processed Spectral Data<<<<<
365.73	234.05
365.92	234.05
366.12	234.05
366.32	168.52
366.52	135.75
366.72	177.88
366.91	95.96
367.11	84.26
367.31	79.58
367.51	135.75
367.70	138.09
367.90	224.69
368.10	107.66
368.30	126.39
368.49	147.45
368.69	187.24
368.89	163.84
369.09	117.03
369.28	145.11
369.48	149.79
369.68	208.31
369.87	189.58
370.07	222.35
370.27	168.52
370.47	297.25
370.66	606.20
370.86	641.31
371.06	645.99
371.25	648.33
371.45	622.58
371.65	702.16
371.84	723.23
372.04	727.91
372.24	758.33
372.44	671.73
372.63	697.48
372.83	758.33
373.03	725.57
373.22	739.61
373.42	772.38
373.62	788.76
373.81	800.46
374.01	741.95
374.21	751.31
374.40	849.61
374.60	873.02
374.79	856.64
374.99	774.72
375.19	854.30
375.38	842.59
375.58	779.40
375.78	744.29
375.97	861.32
376.17	870.68
376.37	915.15
376.56	940.90
376.76	870.68
376.95	898.77
377.15	926.85
377.35	882.38
377.54	877.70
377.74	894.08
377.93	877.70
378.13	929.19
378.33	901.11
378.52	999.41
378.72	917.49
378.91	903.45
379.11	905.79
379.31	966.64
379.50	926.85
379.70	961.96
379.89	945.58
380.09	1001.75
380.28	994.73
380.48	976.00
380.68	971.32
380.87	957.28
381.07	959.62
381.26	957.28
381.46	1027.50
381.65	1083.67
381.85	1088.35
382.04	1036.86
382.24	1104.73
382.43	1001.75
382.63	1036.86
382.83	1128.14
383.02	1039.20
383.22	1060.26
383.41	1132.82
383.61	1228.78
383.80	1078.99
384.00	1111.75
384.19	1060.26
384.39	1090.69
384.58	1149.20
384.78	1095.37
384.97	1174.95
385.17	1177.29
385.36	1088.35
385.56	1207.72
385.75	1137.50
385.95	1128.14
386.14	1172.61
386.34	1142.18
386.53	1228.78
386.72	1144.52
386.92	1308.36
387.11	1270.91
387.31	1315.38
387.50	1196.01
387.70	1233.46
387.89	1231.12
388.09	1270.91
388.28	1226.44
388.48	1266.23
388.67	1331.76
388.86	1306.02
389.06	1324.74
389.25	1355.17
389.45	1315.38
389.64	1322.40
389.84	1317.72
390.03	1472.20
390.22	1434.75
390.42	1385.60
390.61	1394.96
390.81	1448.79
391.00	1441.77
391.19	1458.15
391.39	1425.39
391.58	1472.20
391.78	1465.18
391.97	1453.47
392.16	1474.54
392.36	1465.18
392.55	1467.52
392.75	1425.39
392.94	1500.28
393.13	1551.78
393.33	1530.71
393.52	1523.69
393.71	1568.16
393.91	1584.54
394.10	1558.80
394.29	1624.33
394.49	1521.35
394.68	1717.95
394.88	1652.42
395.07	1666.46
395.26	1729.66
395.46	1631.35
395.65	1650.08
395.84	1591.56
396.04	1762.42
396.23	1668.80
396.42	1734.34
396.62	1809.23
396.81	1722.63
397.00	1823.28
397.19	1785.83
397.39	1788.17
397.58	1865.41
397.77	1895.83
397.97	1860.73
398.16	1863.07
398.35	1886.47
398.55	1839.66
398.74	1858.39
398.93	1926.26
399.12	1998.82
399.32	2022.22
399.51	1973.07
399.70	2010.52
399.90	2024.56
400.09	2005.84
400.28	2019.88
400.47	1973.07
400.67	2024.56
400.86	2022.22
401.05	2012.86
401.24	2160.31
401.44	2153.29
401.63	2228.19
401.82	2141.59
402.01	2071.37
402.21	2153.29
402.40	2136.91
402.59	2097.12
402.78	2104.14
402.97	2172.02
403.17	2216.49
403.36	2221.17
403.55	2326.49
403.74	2420.11
403.93	2438.84
404.13	2417.77
404.32	2399.05
404.51	2366.28
404.70	2480.97
404.89	2392.03
405.09	2562.89
405.28	2462.24
405.47	2525.44
405.66	2452.88
405.85	2466.92
406.05	2338.20
406.24	2558.21
406.43	2581.61
406.62	2670.55
406.81	2696.30
407.00	2537.14
407.20	2588.63
407.39	2588.63
407.58	2619.06
407.77	2637.78
407.96	2780.56
408.15	2782.90
408.34	2703.32
408.54	2668.21
408.73	2832.05
408.92	2890.56
409.11	2878.86
409.30	2815.66
409.49	2820.35
409.68	2949.08
409.87	2939.71
410.07	2974.82
410.26	2974.82
410.45	2909.29
410.64	3103.55
410.83	2913.97
411.02	3091.85
411.21	3047.38
411.40	3059.08
411.59	3126.96
411.78	3157.38
411.98	3279.09
412.17	3323.56
412.36	3295.47
412.55	3297.81
412.74	3438.25
412.93	3396.12
413.12	3393.78
413.31	3545.91
413.50	3363.35
413.69	3513.14
413.88	3536.55
414.07	3641.87
414.26	3562.30
414.45	3702.73
414.64	3616.13
414.83	3653.58
415.02	3817.41
415.22	3873.59
415.41	3805.71
415.60	3805.71
415.79	3859.54
415.98	4044.45
416.17	3908.69
416.36	3887.63
416.55	4028.06
416.74	4126.36
416.93	4007.00
417.12	3999.98
417.31	4119.34
417.50	4191.90
417.69	4198.92
417.88	4259.78
418.07	4241.05
418.26	4381.48
418.45	4301.90
418.64	4456.38
418.83	4486.81
419.02	4512.55
419.21	4528.94
419.39	4559.36
419.58	4484.47
419.77	4500.85
419.96	4451.70
420.15	4648.30
420.34	4657.67
420.53	4491.49
420.72	4615.54
420.91	4681.07
421.10	4772.35
421.29	4667.03
421.48	4681.07
421.67	4758.31
421.86	4802.78
422.05	4816.82
422.24	4908.10
422.43	4865.97
422.61	4781.71
422.80	4961.94
422.99	4887.04
423.18	4957.25
423.37	4950.23
423.56	5097.69
423.75	4856.61
423.94	4980.66
424.13	4662.35
424.32	4851.93
424.50	4968.96
424.69	5203.01
424.88	5036.83
425.07	4910.44
425.26	4842.57
425.45	4940.87
425.64	5060.24
425.83	4919.81
426.01	4994.70
426.20	5013.43
426.39	4851.93
426.58	5050.88
426.77	5104.71
426.96	5135.14
427.15	5088.32
427.33	5149.18
427.52	5188.97
427.71	5160.88
427.90	5254.50
428.09	5425.36
428.28	5198.33
428.46	5320.04
428.65	5383.23
428.84	5394.93
429.03	5561.11
429.22	5329.40
429.40	5610.26
429.59	5427.70
429.78	5135.14
429.97	5249.82
430.16	5488.56
430.34	5526.00
430.53	5563.45
430.72	5856.02
430.91	5535.37
431.10	5738.99
431.28	5706.23
431.47	5680.48
431.66	5792.83
431.85	5785.80
432.03	5987.09
432.22	6015.18
432.41	5818.57
432.60	5804.53
432.79	5947.30
432.97	5827.93
433.16	6017.52
433.35	6094.76
433.54	6052.63
433.72	6148.59
433.91	6157.95
434.10	6186.04
434.28	6216.46
434.47	6031.56
434.66	6317.11
434.85	6310.08
435.03	6363.92
435.22	6239.87
435.41	6314.77
435.59	6384.98
435.78	6394.34
435.97	6305.40
436.16	6328.81
436.34	6406.05
436.53	6626.06
436.72	6532.44
436.90	6434.13
437.09	6572.22
437.28	6497.33
437.46	6593.29
437.65	6787.55
437.84	6677.55
438.02	6693.93
438.21	6899.90
438.40	6743.08
438.58	6986.50
438.77	6965.43
438.96	6937.35
439.14	6984.16
439.33	7155.02
439.52	7016.93
439.70	7190.13
439.89	7293.11
440.08	7108.21
440.26	7293.11
440.45	7279.07
440.63	7662.91
440.82	7534.18
441.01	7470.99
441.19	7489.71
441.38	7566.95
441.57	7712.07
441.75	7817.39
441.94	7742.49
442.12	7920.37
442.31	7967.18
442.50	7981.23
442.68	8283.16
442.87	7990.59
443.05	8030.38
443.24	8257.41
443.43	8039.74
443.61	8222.30
443.80	8273.79
443.98	8095.91
444.17	7812.71
444.35	8215.28
444.54	8250.39
444.73	8257.41
444.91	8032.72
445.10	8318.26
445.28	8266.77
445.47	8168.47
445.65	8353.37
445.84	8428.27
446.02	8475.08
446.21	8358.05
446.39	8362.73
446.58	8287.84
446.77	8388.48
446.95	8226.98
447.14	8320.60
447.32	8744.24
447.51	8533.59
447.69	8344.01
447.88	8336.99
448.06	8362.73
448.25	8388.48
448.43	8659.98
448.62	8704.45
448.80	8395.50
448.99	8620.19
449.17	8716.16
449.36	8475.08
449.54	8685.73
449.73	8926.80
449.91	8994.68
450.10	8929.14
450.28	9111.71
450.46	9004.04
450.65	8847.22
450.83	9048.51
451.02	8994.68
451.20	9167.88
451.39	9179.58
451.57	9118.73
451.76	8774.67
451.94	9249.80
452.13	9366.82
452.31	9184.26
452.49	9146.81
452.68	9401.93
452.86	9273.20
453.05	9254.48
453.23	9624.28
453.42	9128.09
453.60	9315.33
453.78	9551.73
453.97	9645.35
454.15	9376.19
454.34	9413.63
454.52	9879.40
454.70	9778.76
454.89	9797.48
455.07	9528.32
455.26	9832.59
455.44	9881.74
455.62	9928.55
455.81	9802.16
455.99	9841.95
456.17	10066.64
456.36	9942.60
456.54	10010.47
456.73	10160.27
456.91	10478.58
457.09	10375.59
457.28	10611.99
457.46	10284.31
457.64	10389.64
457.83	10291.34
458.01	10356.87
458.19	10607.31
458.38	10401.34
458.56	10630.71
458.74	10518.37
458.93	10792.21
459.11	10871.79
459.29	10672.84
459.48	10764.12
459.66	10853.06
459.84	10843.70
460.03	10986.47
460.21	10834.34
460.39	10930.30
460.57	10719.65
460.76	11000.52
460.94	11190.10
461.12	11136.27
461.31	11250.96
461.49	11103.50
461.67	11232.23
461.85	11466.28
462.04	11370.32
462.22	11836.09
462.40	11309.47
462.59	11623.10
462.77	11407.77
462.95	11662.89
463.13	11358.62
463.32	11548.20
463.50	11604.38
463.68	11555.22
463.86	11723.74
464.05	11632.46
464.23	11653.53
464.41	11887.58
464.59	11810.34
464.78	11899.28
464.96	11960.14
465.14	11861.84
465.32	12121.63
465.50	12028.01
465.69	12156.74
465.87	12105.25
466.05	12030.35
466.23	12353.35
466.41	12056.10
466.60	12524.21
466.78	11953.12
466.96	12278.45
467.14	12114.61
467.32	12355.69
467.51	12652.94
467.69	11887.58
467.87	12510.16
468.05	12617.83
468.23	12299.52
468.41	12582.72
468.60	12575.70
468.78	12758.26
468.96	12568.68
469.14	12800.39
469.32	12954.87
469.50	12601.44
469.69	13114.02
469.87	12898.69
470.05	13123.38
470.23	13011.04
470.41	13121.04
470.59	13165.51
470.77	12992.31
470.95	13095.30
471.14	13465.10
471.32	13287.22
471.50	13685.11
471.68	13680.43
471.86	13296.58
472.04	13607.87
472.22	13965.98
472.40	13600.85
472.58	13516.59
472.77	13942.57
472.95	14263.22
473.13	14679.84
473.31	13998.74
473.49	14277.27
473.67	13935.55
473.85	14251.52
474.03	14609.62
474.21	14693.88
474.39	14822.61
474.57	14541.75
474.75	14736.01
474.93	14885.81
475.12	15042.62
475.30	15262.63
475.48	14934.96
475.66	15000.49
475.84	15183.06
476.02	15346.89
476.20	15389.02
476.38	15304.76
476.56	15999.90
476.74	15953.09
476.92	15573.92
477.10	15571.58
477.28	15913.30
477.46	16049.05
477.64	16276.09
477.82	16617.80
478.00	16950.16
478.18	16669.30
478.36	16669.30
478.54	17027.40
478.72	17179.53
478.90	17184.21
479.08	17355.07
479.26	17687.43
479.44	17619.55
479.62	17893.40
479.80	18136.81
479.98	18174.26
480.16	18319.37
480.34	18228.09
480.52	18684.50
480.70	18717.26
480.88	18202.35
481.06	18422.36
481.24	18604.92
481.41	18948.98
481.59	19391.34
481.77	19477.94
481.95	19414.74
482.13	19611.35
482.31	19630.07
482.49	20329.89
482.67	20037.33
482.85	20084.14
483.03	20720.76
483.21	20842.47
483.39	21181.85
483.57	20699.70
483.74	20929.07
483.92	21504.84
484.10	20980.56
484.28	21312.92
484.46	22036.14
484.64	21944.86
484.82	21937.84
485.00	21996.35
485.18	22679.79
485.35	22803.84
485.53	22698.52
485.71	23105.77
485.89	23323.44
486.07	23194.71
486.25	23175.98
486.43	23601.96
486.61	23824.31
486.78	24306.46
486.96	24151.99
487.14	24360.30
487.32	24662.22
487.50	24650.52
487.68	25008.62
487.85	25092.88
488.03	25179.48
488.21	25745.89
488.39	25785.68
488.57	26036.12
488.75	26001.01
488.92	26307.62
489.10	26506.57
489.28	26684.45
489.46	27091.70
489.64	26719.56
489.81	27571.51
489.99	27908.55
490.17	27580.87
490.35	28212.82
490.53	28133.24
490.70	28596.67
490.88	28156.64
491.06	28545.17
491.24	28739.44
491.41	28865.83
491.59	29146.69
491.77	28833.06
491.95	29369.04
492.13	29788.00
492.30	29792.68
492.48	30183.55
492.66	30511.22
492.84	29935.45
493.01	30497.18
493.19	30433.99
493.37	30955.93
493.54	30962.95
493.72	31428.71
493.90	31379.56
494.08	31945.97
494.25	31955.33
494.43	31878.10
494.61	32301.73
494.79	32236.20
494.96	32215.13
495.14	32868.14
495.32	32980.49
495.49	32973.47
495.67	33109.22
495.85	33706.05
496.02	33642.86
496.20	33738.82
496.38	34059.48
496.55	34209.27
496.73	34490.13
496.91	34696.10
497.09	34520.56
497.26	34852.92
497.44	34838.87
497.62	35040.16
497.79	35192.30
497.97	35669.76
498.14	35573.80
498.32	36102.76
498.50	36371.92
498.67	36423.42
498.85	36545.12
499.03	36952.38
499.20	36554.49
499.38	36823.65
499.56	37244.94
499.73	37132.60
499.91	37710.71
500.08	37500.06
500.26	37350.27
500.44	37385.38
500.61	38120.31
500.79	38120.31
500.97	37715.39
501.14	38389.47
501.32	38480.75
501.49	38286.48
501.67	38485.43
501.84	38710.12
502.02	38789.70
502.20	38890.34
502.37	39295.25
502.55	39440.37
502.72	39210.99
502.90	39229.72
503.07	39335.04
503.25	39791.45
503.43	40037.20
503.60	40149.55
503.78	40479.57
503.95	40095.72
504.13	40369.56
504.30	40601.27
504.48	40294.66
504.65	40533.40
504.83	40748.73
505.01	41361.95
505.18	41287.05
505.36	41605.36
505.53	40825.96
505.71	41415.78
505.88	41647.49
506.06	41038.95
506.23	41691.96
506.41	41570.25
506.58	41904.95
506.76	42000.91
506.93	42312.20
507.11	42174.11
507.28	42682.01
507.46	42721.80
507.63	42604.77
507.81	43482.47
507.98	42579.03
508.16	43295.23
508.33	43047.13
508.50	43480.13
508.68	43503.54
508.85	43332.68
509.03	43849.94
509.20	43894.41
509.38	43915.47
509.55	44093.35
509.73	44392.94
509.90	44430.39
510.08	44264.21
510.25	44884.45
510.42	44645.72
510.60	44395.28
510.77	45130.21
510.95	45764.49
511.12	45111.49
511.30	45031.91
511.47	45572.57
511.64	45420.44
511.82	45628.74
511.99	45734.07
512.17	46146.00
512.34	45771.52
512.51	46326.22
512.69	46295.80
512.86	46478.36
513.04	47021.36
513.21	46937.10
513.38	46485.38
513.56	46742.84
513.73	46543.89
513.90	47159.45
514.08	46738.16
514.25	47229.67
514.43	47377.12
514.60	47131.37
514.77	47395.85
514.95	47505.85
515.12	47536.28
515.29	47533.94
515.47	47779.70
515.64	48149.50
515.81	47753.95
515.99	48261.85
516.16	48392.92
516.33	48348.45
516.51	48774.42
516.68	48273.55
516.85	48423.34
517.03	48633.99
517.20	48722.93
517.37	48928.90
517.54	48858.68
517.72	48877.41
517.89	48898.47
518.06	48994.43
518.24	49289.34
518.41	49404.03
518.58	49371.26
518.75	49179.34
518.93	49661.49
519.10	49226.15
519.27	49806.60
519.45	49455.52
519.62	49610.00
519.79	50120.23
519.96	49986.82
520.14	50000.86
520.31	49860.43
520.48	50440.89
520.65	50314.50
520.83	50480.67
521.00	50555.57
521.17	50410.46
521.34	50569.61
521.52	50705.37
521.69	50911.33
521.86	50845.80
522.03	51030.70
522.20	51281.14
522.38	50944.10
522.55	51349.01
522.72	51178.15
522.89	51033.04
523.07	51576.04
523.24	51253.05
523.41	51831.16
523.58	51133.68
523.75	51842.87
523.92	51702.43
524.10	52018.41
524.27	51852.23
524.44	51861.59
524.61	52381.19
524.78	51966.91
524.96	52069.90
525.13	52107.35
525.30	52137.77
525.47	52294.59
525.64	52310.97
525.81	52818.87
525.98	52774.40
526.16	52381.19
526.33	52633.97
526.50	52868.02
526.67	52591.84
526.84	52790.78
527.01	53010.79
527.18	53041.22
527.36	52797.80
527.53	52676.10
527.70	53174.63
527.87	53305.70
528.04	52898.45
528.21	53474.22
528.38	53188.67
528.55	53352.51
528.72	53401.66
528.89	53537.41
529.07	53125.48
529.24	53268.25
529.41	53769.13
529.58	53574.86
529.75	53490.60
529.92	53579.54
530.09	53755.08
530.26	53729.34
530.43	53766.79
530.60	53883.81
530.77	53612.31
530.94	53975.09
531.11	54007.86
531.28	54026.59
531.46	54115.53
531.63	54277.02
531.80	54124.89
531.97	54585.97
532.14	54401.07
532.31	54539.16
532.48	54361.28
532.65	54597.68
532.82	54475.97
532.99	54831.73
533.16	54527.46
533.33	54665.55
533.50	54960.46
533.67	54749.81
533.84	54679.60
534.01	55112.59
534.18	54948.76
534.35	55231.96
534.52	54857.48
534.69	55309.20
534.86	55210.90
535.03	55049.40
535.20	54920.67
535.37	55358.35
535.54	55606.45
535.71	55147.70
535.88	55529.21
536.05	55318.56
536.22	55597.09
536.38	55480.06
536.55	55339.63
536.72	55873.27
536.89	55302.18
537.06	55498.78
537.23	55585.38
537.40	55487.08
537.57	55772.63
537.74	55725.81
537.91	55817.10
538.08	55899.01
538.25	55311.54
538.42	55838.16
538.59	56317.97
538.75	55721.13
538.92	56032.42
539.09	56184.56
539.26	56257.12
539.43	56018.38
539.60	56301.59
539.77	56313.29
539.94	56116.68
540.11	56186.90
540.28	56282.86
540.44	56420.95
540.61	56224.35
540.78	56554.36
540.95	56299.25
541.12	56449.04
541.29	56357.76
541.46	56535.64
541.62	56673.73
541.79	56622.24
541.96	56224.35
542.13	56584.79
542.30	56650.33
542.47	56690.12
542.63	56750.97
542.80	56900.76
542.97	56860.97
543.14	57247.16
543.31	57055.24
543.48	57293.97
543.64	57403.98
543.81	57277.59
543.98	57167.58
544.15	57357.17
544.32	57205.03
544.48	57532.71
544.65	57263.55
544.82	57237.80
544.99	57230.78
545.16	57359.51
545.32	57436.75
545.49	57567.82
545.66	57677.82
545.83	57460.15
546.00	57635.69
546.16	57649.74
546.33	57380.57
546.50	57305.68
546.67	57895.49
546.83	57286.95
547.00	57593.56
547.17	57600.58
547.34	57638.03
547.50	58033.58
547.67	57972.73
547.84	57783.15
548.00	57961.03
548.17	58159.97
548.34	58148.27
548.51	58190.40
548.67	58089.76
548.84	58227.85
549.01	58307.43
549.18	58092.10
549.34	58108.48
549.51	57986.77
549.68	58185.72
549.84	58141.25
550.01	58473.60
550.18	58195.08
550.34	58375.30
550.51	58452.54
550.68	58389.34
550.84	58326.15
551.01	58431.47
551.18	58473.60
551.34	58342.53
551.51	58520.41
551.68	58618.72
551.84	58419.77
552.01	58391.68
552.18	58749.79
552.34	58515.73
552.51	58588.29
552.68	58389.34
552.84	58637.44
553.01	58667.87
553.18	58489.99
553.34	58688.93
553.51	58590.63
553.67	58887.88
553.84	59072.78
554.01	59037.67
554.17	59105.55
554.34	58979.16
554.51	58845.75
554.67	59068.10
554.84	58981.50
555.00	59037.67
555.17	59047.04
555.33	58972.14
555.50	59002.56
555.67	58820.00
555.83	59035.33
556.00	59042.35
556.16	59276.41
556.33	59377.05
556.50	59154.70
556.66	59276.41
556.83	59072.78
556.99	59283.43
557.16	59269.39
557.32	59573.66
557.49	59508.12
557.65	59341.94
557.82	59412.16
557.98	59161.72
558.15	59241.30
558.32	59409.82
558.48	59217.89
558.65	59386.41
558.81	59358.33
558.98	59164.06
559.14	59531.53
559.31	59753.88
559.47	59606.42
559.64	59686.00
559.80	59547.91
559.97	59770.26
560.13	59739.83
560.30	59606.42
560.46	59784.30
560.63	59964.52
560.79	59723.45
560.96	59994.95
561.12	59725.79
561.29	59718.77
561.45	59669.62
561.61	59704.73
561.78	59810.05
561.94	59786.64
562.11	59608.76
562.27	59889.63
562.44	59934.10
562.60	59824.09
562.77	59877.93
562.93	59728.13
563.10	60018.36
563.26	59590.04
563.42	60053.47
563.59	60128.36
563.75	59875.58
563.92	59959.84
564.08	59917.71
564.24	60172.83
564.41	60149.43
564.57	60133.04
564.74	60111.98
564.90	60151.77
565.07	60348.37
565.23	59992.61
565.39	60214.96
565.56	60294.54
565.72	60100.28
565.88	60163.47
566.05	60121.34
566.21	60193.90
566.38	60107.30
566.54	60334.33
566.70	60310.92
566.87	60369.44
567.03	59999.63
567.19	60280.50
567.36	60420.93
567.52	60214.96
567.68	60514.55
567.85	60324.97
568.01	60306.24
568.17	60341.35
568.34	60257.09
568.50	60313.26
568.66	60107.30
568.83	60411.57
568.99	60151.77
569.15	60243.05
569.32	60364.76
569.48	60189.22
569.64	60451.36
569.81	60341.35
569.97	60271.14
570.13	60589.45
570.30	60324.97
570.46	60519.23
570.62	60339.01
570.78	60498.17
570.95	60303.90
571.11	60612.85
571.27	60423.27
571.43	60505.19
571.60	60575.40
571.76	60580.09
571.92	60472.42
572.09	60552.00
572.25	60549.66
572.41	60533.28
572.57	60563.70
572.74	60741.58
572.90	60423.27
573.06	60680.73
573.22	60451.36
573.38	60568.38
573.55	60722.86
573.71	60994.36
573.87	60647.96
574.03	60409.23
574.20	60734.56
574.36	60416.25
574.52	60549.66
574.68	60874.99
574.84	60846.91
575.01	60657.32
575.17	60673.71
575.33	60573.06
575.49	60678.39
575.65	60657.32
575.82	60678.39
575.98	60790.73
576.14	60865.63
576.30	60814.14
576.46	60552.00
576.62	60694.77
576.79	60879.67
576.95	60669.03
577.11	60720.52
577.27	60697.11
577.43	60664.35
577.59	60767.33
577.75	60652.64
577.92	60647.96
578.08	60584.77
578.24	60804.78
578.40	60933.51
578.56	60788.39
578.72	60772.01
578.88	60954.57
579.04	61031.81
579.21	60743.92
579.37	60753.29
579.53	60849.25
579.69	60676.05
579.85	60884.36
580.01	60788.39
580.17	60774.35
580.33	60919.46
580.49	60935.85
580.65	60802.44
580.82	60720.52
580.98	60779.03
581.14	60893.72
581.30	60919.46
581.46	60900.74
581.62	60945.21
581.78	60676.05
581.94	60933.51
582.10	60678.39
582.26	60566.04
582.42	60718.18
582.58	60809.46
582.74	60889.04
582.90	60949.89
583.06	60898.40
583.22	60692.43
583.38	60996.70
583.54	60947.55
583.70	60802.44
583.86	61013.08
584.02	60713.50
584.18	61055.21
584.34	61087.98
584.50	60893.72
584.66	60940.53
584.82	60816.48
584.98	61169.90
585.14	60884.36
585.30	60783.71
585.46	60947.55
585.62	61029.47
585.78	61064.58
585.94	60807.12
586.10	60865.63
586.26	60800.10
586.42	61003.72
586.58	61062.24
586.74	61066.92
586.90	61029.47
587.06	61059.90
587.22	61186.28
587.38	60996.70
587.54	61078.62
587.70	61315.01
587.86	60992.02
588.02	61020.11
588.18	61188.63
588.34	60874.99
588.49	61055.21
