SpectraSuite Data File
++++++++++++++++++++++++++++++++++++
Date: Fri Oct 25 11:23:22 EDT 2013
User: price-jones
Dark Spectrum Present: No
Reference Spectrum Present: No
Number of Sampled Component Spectra: 1
Spectrometers: USB2+H05261
Integration Time (usec): 100000 (USB2+H05261)
Spectra Averaged: 1 (USB2+H05261)
Boxcar Smoothing: 0 (USB2+H05261)
Correct for Electrical Dark: No (USB2+H05261)
Strobe/Lamp Enabled: No (USB2+H05261)
Correct for Detector Non-linearity: No (USB2+H05261)
Correct for Stray Light: No (USB2+H05261)
Number of Pixels in Processed Spectrum: 2048
>>>>>Begin Processed Spectral Data<<<<<
365.73	194.26
365.92	194.26
366.12	194.26
366.32	145.11
366.52	126.39
366.72	203.63
366.91	86.60
367.11	91.28
367.31	119.37
367.51	142.77
367.70	133.41
367.90	95.96
368.10	117.03
368.30	135.75
368.49	147.45
368.69	175.54
368.89	161.50
369.09	168.52
369.28	208.31
369.48	210.65
369.68	215.33
369.87	182.56
370.07	180.22
370.27	222.35
370.47	322.99
370.66	615.56
370.86	643.65
371.06	624.92
371.25	653.01
371.45	723.23
371.65	606.20
371.84	634.29
372.04	601.52
372.24	692.80
372.44	653.01
372.63	697.48
372.83	690.46
373.03	634.29
373.22	720.88
373.42	699.82
373.62	664.71
373.81	816.85
374.01	842.59
374.21	781.74
374.40	816.85
374.60	830.89
374.79	828.55
374.99	833.23
375.19	802.80
375.38	887.06
375.58	791.10
375.78	814.51
375.97	713.86
376.17	887.06
376.37	861.32
376.56	873.02
376.76	828.55
376.95	856.64
377.15	821.53
377.35	887.06
377.54	887.06
377.74	861.32
377.93	884.72
378.13	891.74
378.33	931.53
378.52	851.96
378.72	931.53
378.91	959.62
379.11	957.28
379.31	919.83
379.50	856.64
379.70	1029.84
379.89	1029.84
380.09	1022.81
380.28	929.19
380.48	957.28
380.68	851.96
380.87	985.37
381.07	990.05
381.26	959.62
381.46	959.62
381.65	1086.01
381.85	1050.90
382.04	1076.65
382.24	1032.18
382.43	1032.18
382.63	1055.58
382.83	1048.56
383.02	1046.22
383.22	1074.31
383.41	1081.33
383.61	1050.90
383.80	1144.52
384.00	1027.50
384.19	1097.71
384.39	1193.67
384.58	1104.73
384.78	1163.25
384.97	1151.54
385.17	1109.41
385.36	1186.65
385.56	1196.01
385.75	1163.25
385.95	1160.91
386.14	1135.16
386.34	1139.84
386.53	1245.16
386.72	1163.25
386.92	1240.48
387.11	1210.06
387.31	1228.78
387.50	1226.44
387.70	1217.08
387.89	1231.12
388.09	1233.46
388.28	1273.25
388.48	1219.42
388.67	1263.89
388.86	1228.78
389.06	1331.76
389.25	1334.11
389.45	1268.57
389.64	1303.68
389.84	1409.00
390.03	1383.26
390.22	1303.68
390.42	1345.81
390.61	1366.87
390.81	1303.68
391.00	1404.32
391.19	1401.98
391.39	1504.96
391.58	1423.05
391.78	1394.96
391.97	1434.75
392.16	1348.15
392.36	1476.88
392.55	1495.60
392.75	1511.99
392.94	1533.05
393.13	1514.33
393.33	1486.24
393.52	1521.35
393.71	1652.42
393.91	1600.93
394.10	1582.20
394.29	1575.18
394.49	1509.65
394.68	1612.63
394.88	1554.12
395.07	1584.54
395.26	1629.01
395.46	1640.72
395.65	1626.67
395.84	1664.12
396.04	1743.70
396.23	1750.72
396.42	1734.34
396.62	1652.42
396.81	1715.61
397.00	1776.47
397.19	1813.92
397.39	1741.36
397.58	1746.04
397.77	1811.57
397.97	1755.40
398.16	1806.89
398.35	1760.08
398.55	1802.21
398.74	1900.52
398.93	1799.87
399.12	1879.45
399.32	1867.75
399.51	1886.47
399.70	2008.18
399.90	1970.73
400.09	1926.26
400.28	1952.01
400.47	2115.84
400.67	1982.43
400.86	2099.46
401.05	2033.93
401.24	2064.35
401.44	1998.82
401.63	2160.31
401.82	2069.03
402.01	2019.88
402.21	2111.16
402.40	2263.30
402.59	2284.36
402.78	2237.55
402.97	2225.85
403.17	2209.47
403.36	2181.38
403.55	2251.60
403.74	2286.70
403.93	2326.49
404.13	2310.11
404.32	2312.45
404.51	2298.41
404.70	2289.04
404.89	2260.96
405.09	2431.82
405.28	2326.49
405.47	2431.82
405.66	2462.24
405.85	2413.09
406.05	2466.92
406.24	2579.27
406.43	2511.39
406.62	2567.57
406.81	2656.51
407.00	2567.57
407.20	2518.42
407.39	2569.91
407.58	2647.15
407.77	2684.59
407.96	2829.71
408.15	2813.32
408.34	2705.66
408.54	2700.98
408.73	2850.77
408.92	2731.41
409.11	2853.11
409.30	2827.37
409.49	2780.56
409.68	2984.18
409.87	2881.20
410.07	2757.15
410.26	2939.71
410.45	3007.59
410.64	2920.99
410.83	2998.23
411.02	3075.46
411.21	3021.63
411.40	3075.46
411.59	3178.45
411.78	3126.96
411.98	3063.76
412.17	3133.98
412.36	3199.51
412.55	3389.10
412.74	3370.37
412.93	3412.50
413.12	3309.52
413.31	3435.91
413.50	3382.07
413.69	3386.76
413.88	3581.02
414.07	3517.83
414.26	3585.70
414.45	3592.72
414.64	3660.60
414.83	3705.07
415.02	3681.66
415.22	3801.03
415.41	3786.99
415.60	3838.48
415.79	3850.18
415.98	3852.52
416.17	3908.69
416.36	4021.04
416.55	3885.29
416.74	4098.28
416.93	4035.08
417.12	4095.94
417.31	4011.68
417.50	4112.32
417.69	4285.52
417.88	4337.01
418.07	4023.38
418.26	4201.26
418.45	4278.50
418.64	4379.14
418.83	4407.23
419.02	4259.78
419.21	4294.88
419.39	4383.82
419.58	4348.72
419.77	4397.87
419.96	4517.23
420.15	4559.36
420.34	4564.04
420.53	4503.19
420.72	4657.67
420.91	4641.28
421.10	4737.24
421.29	4681.07
421.48	4526.60
421.67	4692.77
421.86	4758.31
422.05	4512.55
422.24	4713.84
422.43	4697.46
422.61	4746.61
422.80	4837.89
422.99	4873.00
423.18	4896.40
423.37	5060.24
423.56	4901.08
423.75	4875.34
423.94	4849.59
424.13	4456.38
424.32	4702.14
424.50	5004.07
424.69	5027.47
424.88	4983.00
425.07	4793.42
425.26	4800.44
425.45	4940.87
425.64	4774.69
425.83	4926.83
426.01	4978.32
426.20	4992.36
426.39	4868.31
426.58	4849.59
426.77	5034.49
426.96	4985.34
427.15	5041.51
427.33	5177.26
427.52	5095.35
427.71	5174.92
427.90	5125.77
428.09	5235.78
428.28	5188.97
428.46	5186.63
428.65	5308.34
428.84	5413.66
429.03	5425.36
429.22	5231.10
429.40	5315.36
429.59	5490.90
429.78	5387.91
429.97	5233.44
430.16	5359.83
430.34	5472.17
430.53	5610.26
430.72	5715.59
430.91	5593.88
431.10	5500.26
431.28	5673.46
431.47	5776.44
431.66	5781.12
431.85	5722.61
432.03	5687.50
432.22	5844.32
432.41	5816.23
432.60	5746.02
432.79	5757.72
432.97	5951.98
433.16	6012.84
433.35	5963.68
433.54	5914.53
433.72	6087.73
433.91	5914.53
434.10	6015.18
434.28	6101.78
434.47	6207.10
434.66	6193.06
434.85	6181.35
435.03	6300.72
435.22	6214.12
435.41	6328.81
435.59	6181.35
435.78	6342.85
435.97	6541.80
436.16	6249.23
436.34	6291.36
436.53	6518.39
436.72	6530.09
436.90	6298.38
437.09	6654.14
437.28	6494.99
437.46	6373.28
437.65	6513.71
437.84	6665.85
438.02	6597.97
438.21	6792.23
438.40	6642.44
438.58	6815.64
438.77	7035.65
438.96	6869.47
439.14	7091.82
439.33	6937.35
439.52	7061.40
439.70	7185.44
439.89	7169.06
440.08	7274.38
440.26	7229.91
440.45	7363.33
440.63	7363.33
440.82	7569.29
441.01	7339.92
441.19	7548.23
441.38	7662.91
441.57	7655.89
441.75	7709.72
441.94	8016.33
442.12	7836.11
442.31	7906.33
442.50	7899.31
442.68	7845.48
442.87	7763.56
443.05	7999.95
443.24	8095.91
443.43	7864.20
443.61	7978.89
443.80	8290.18
443.98	7866.54
444.17	7716.75
444.35	8030.38
444.54	8353.37
444.73	8156.77
444.91	8226.98
445.10	8252.73
445.28	8217.62
445.47	7843.14
445.65	8147.40
445.84	8252.73
446.02	8362.73
446.21	8322.94
446.39	8278.47
446.58	8358.05
446.77	8308.90
446.95	8325.29
447.14	8381.46
447.32	8409.54
447.51	8248.05
447.69	8182.51
447.88	8262.09
448.06	8360.39
448.25	8280.82
448.43	8652.96
448.62	8540.61
448.80	8479.76
448.99	8526.57
449.17	8561.68
449.36	8449.33
449.54	8667.00
449.73	8685.73
449.91	8762.97
450.10	8856.59
450.28	9125.75
450.46	9027.45
450.65	8753.60
450.83	8908.08
451.02	8711.47
451.20	8922.12
451.39	8968.93
451.57	8966.59
451.76	9001.70
451.94	9013.40
452.13	9163.20
452.31	9214.69
452.49	9198.31
452.68	9305.97
452.86	9121.07
453.05	9231.07
453.23	9411.29
453.42	9226.39
453.60	9212.35
453.78	9308.31
453.97	9188.94
454.15	9315.33
454.34	9518.96
454.52	9628.96
454.70	9385.55
454.89	9600.88
455.07	9631.30
455.26	9776.42
455.44	9863.02
455.62	9736.63
455.81	9802.16
455.99	9879.40
456.17	9830.25
456.36	9949.62
456.54	10174.31
456.73	9933.23
456.91	10340.49
457.09	10359.21
457.28	10197.71
457.46	10204.74
457.64	10429.43
457.83	10326.44
458.01	10169.63
458.19	10532.41
458.38	10492.62
458.56	10597.95
458.74	10513.69
458.93	10569.86
459.11	10375.59
459.29	10340.49
459.48	10640.08
459.66	10649.44
459.84	10752.42
460.03	10925.62
460.21	10677.52
460.39	10759.44
460.57	10874.13
460.76	11117.54
460.94	10888.17
461.12	11035.63
461.31	10944.34
461.49	11068.39
461.67	10853.06
461.85	11295.43
462.04	11178.40
462.22	11276.70
462.40	11487.35
462.59	11272.02
462.77	11112.86
462.95	11269.68
463.13	11396.07
463.32	11473.31
463.50	11609.06
463.68	11590.33
463.86	11485.01
464.05	11356.28
464.23	11375.00
464.41	11599.70
464.59	11396.07
464.78	11929.71
464.96	11763.53
465.14	11765.87
465.32	11693.32
465.50	11927.37
465.69	11906.31
465.87	12091.21
466.05	11857.15
466.23	11943.75
466.41	11932.05
466.60	12379.09
466.78	11784.60
466.96	12156.74
467.14	12315.90
467.32	12259.73
467.51	12152.06
467.69	12095.89
467.87	12299.52
468.05	12322.92
468.23	12009.29
468.41	12269.09
468.60	12564.00
468.78	12798.05
468.96	12507.82
469.14	12484.42
469.32	12627.19
469.50	12498.46
469.69	12966.57
469.87	12821.45
470.05	12882.31
470.23	12922.10
470.41	12784.01
470.59	12709.11
470.77	13041.46
470.95	13280.20
471.14	13500.21
471.32	12891.67
471.50	13294.24
471.68	13289.56
471.86	13465.10
472.04	13832.57
472.22	13851.29
472.40	13437.02
472.58	13678.09
472.77	13851.29
472.95	13870.01
473.13	14298.33
473.31	14001.08
473.49	13888.74
473.67	14026.83
473.85	14033.85
474.03	14195.35
474.21	14548.77
474.39	14537.07
474.57	14532.39
474.75	14738.35
474.93	14640.05
475.12	14628.35
475.30	14773.46
475.48	14661.12
475.66	14984.11
475.84	14712.61
476.02	14970.07
476.20	15349.23
476.38	15405.41
476.56	15639.46
476.74	15651.16
476.92	15466.26
477.10	15667.55
477.28	15833.72
477.46	15939.05
477.64	16217.57
477.82	16248.00
478.00	16519.50
478.18	16585.04
478.36	16421.20
478.54	16905.69
478.72	16854.20
478.90	17231.02
479.08	17425.29
479.26	17259.11
479.44	17476.78
479.62	17626.57
479.80	17703.81
479.98	17724.88
480.16	18094.68
480.34	18104.04
480.52	18410.65
480.70	18214.05
480.88	18164.90
481.06	18242.14
481.24	18415.34
481.41	18726.63
481.59	19002.81
481.77	19129.20
481.95	19358.57
482.13	19094.09
482.31	19152.60
482.49	19920.30
482.67	20065.41
482.85	20446.92
483.03	20425.86
483.21	20528.84
483.39	20533.52
483.57	20634.16
483.74	20800.34
483.92	21212.28
484.10	21359.73
484.28	21268.45
484.46	21343.35
484.64	22085.30
484.82	21806.77
485.00	22078.27
485.18	22246.79
485.35	22499.57
485.53	22810.86
485.71	22527.66
485.89	23042.57
486.07	23243.86
486.25	23012.15
486.43	23241.52
486.61	23388.97
486.78	23831.33
486.96	23805.59
487.14	24348.59
487.32	24315.83
487.50	24322.85
487.68	24531.15
487.85	24720.74
488.03	25305.87
488.21	25628.87
488.39	25195.87
488.57	25788.02
488.75	25855.90
488.92	26157.83
489.10	26609.55
489.28	26139.10
489.46	26766.37
489.64	26581.46
489.81	27510.66
489.99	27136.17
490.17	27353.84
490.35	27688.54
490.53	27988.13
490.70	28306.44
490.88	27920.25
491.06	28568.58
491.24	28231.54
491.41	28720.71
491.59	28655.18
491.77	28797.95
491.95	28964.13
492.13	29186.48
492.30	29507.13
492.48	29862.90
492.66	29860.55
492.84	29596.07
493.01	30258.45
493.19	29965.88
493.37	30630.59
493.54	30958.27
493.72	30955.93
493.90	30838.90
494.08	31227.43
494.25	31468.50
494.43	31625.32
494.61	32084.06
494.79	32067.68
494.96	32072.36
495.14	32187.05
495.32	32486.64
495.49	32716.01
495.67	32772.18
495.85	32797.93
496.02	33104.54
496.20	33378.38
496.38	33460.30
496.55	33516.47
496.73	34265.44
496.91	34181.18
497.09	34359.06
497.26	34363.75
497.44	34059.48
497.62	34766.32
497.79	35204.00
497.97	35096.33
498.14	35093.99
498.32	35360.81
498.50	35526.99
498.67	35739.98
498.85	36114.47
499.03	36287.67
499.20	36266.60
499.38	36734.71
499.56	36465.55
499.73	36652.79
499.91	36842.37
500.08	36992.17
500.26	36657.47
500.44	37376.01
500.61	36842.37
500.79	37296.44
500.97	37518.79
501.14	38014.98
501.32	37567.94
501.49	37956.47
501.67	38330.95
501.84	38162.43
502.02	38244.35
502.20	39133.76
502.37	38927.79
502.55	38679.69
502.72	39253.12
502.90	39115.03
503.07	38974.60
503.25	39147.80
503.43	39250.78
503.60	39526.97
503.78	39875.71
503.95	39908.47
504.13	39751.66
504.30	39992.73
504.48	39777.40
504.65	40383.60
504.83	40292.32
505.01	40842.35
505.18	40610.64
505.36	41062.36
505.53	40863.41
505.71	41074.06
505.88	41305.77
506.06	40641.06
506.23	41289.39
506.41	41469.61
506.58	41474.29
506.76	41581.96
506.93	41951.76
507.11	41914.31
507.28	42101.56
507.46	41652.17
507.63	42232.63
507.81	42642.22
507.98	42508.81
508.16	42604.77
508.33	42820.10
508.50	42848.19
508.68	43215.65
508.85	43522.26
509.03	43283.53
509.20	43423.96
509.38	43910.79
509.55	43611.20
509.73	43812.49
509.90	43901.43
510.08	43976.33
510.25	44013.77
510.42	44285.28
510.60	44486.56
510.77	44472.52
510.95	45085.74
511.12	44545.08
511.30	44669.12
511.47	44774.45
511.64	45303.41
511.82	45357.24
511.99	44779.13
512.17	45441.50
512.34	45340.86
512.51	45729.39
512.69	45296.39
512.86	45823.01
513.04	46281.75
513.21	45904.93
513.38	45827.69
513.56	46124.94
513.73	46204.52
513.90	46389.42
514.08	46483.04
514.25	46768.58
514.43	46784.97
514.60	46686.67
514.77	46665.60
514.95	47086.90
515.12	47360.74
515.29	46843.48
515.47	47604.16
515.64	47800.76
515.81	47606.50
515.99	47674.37
516.16	48219.72
516.33	48006.73
516.51	48041.84
516.68	47749.27
516.85	47964.60
517.03	48322.70
517.20	48299.30
517.37	48409.30
517.54	48367.17
517.72	48594.20
517.89	48388.24
518.06	48699.53
518.24	48818.89
518.41	48521.65
518.58	48722.93
518.75	48488.88
518.93	48844.64
519.10	49038.90
519.27	49378.28
519.45	48949.96
519.62	49319.77
519.79	49462.54
519.96	49375.94
520.14	49666.17
520.31	49633.40
520.48	49827.66
520.65	50040.65
520.83	50153.00
521.00	50148.32
521.17	50237.26
521.34	50307.47
521.52	50134.28
521.69	50562.59
521.86	50447.91
522.03	50642.17
522.20	50967.51
522.38	50761.54
522.55	51143.05
522.72	50801.33
522.89	50658.56
523.07	51222.62
523.24	50974.53
523.41	51033.04
523.58	51107.94
523.75	51573.70
523.92	51550.30
524.10	51484.76
524.27	51826.48
524.44	51669.67
524.61	51583.07
524.78	51667.33
524.96	51767.97
525.13	51859.25
525.30	52093.30
525.47	51987.98
525.64	52158.84
525.81	51927.13
525.98	52128.41
526.16	52112.03
526.33	52278.21
526.50	52542.69
526.67	52081.60
526.84	52514.60
527.01	52250.12
527.18	52034.79
527.36	52388.21
527.53	52685.46
527.70	52914.83
527.87	52858.66
528.04	52505.24
528.21	53186.33
528.38	52924.19
528.55	53183.99
528.72	53085.69
528.89	52994.41
529.07	52889.09
529.24	53319.74
529.41	53333.79
529.58	53298.68
529.75	53104.41
529.92	53429.75
530.09	53191.01
530.26	53284.64
530.43	53577.20
530.60	53270.59
530.77	53312.72
530.94	53839.34
531.11	53514.01
531.28	53729.34
531.46	53776.15
531.63	53659.12
531.80	54005.52
531.97	54031.27
532.14	53916.58
532.31	53937.65
532.48	53968.07
532.65	54286.39
532.82	54028.93
532.99	54340.22
533.16	54461.93
533.33	54424.48
533.50	54375.33
533.67	54291.07
533.84	54368.30
534.01	54248.94
534.18	54532.14
534.35	54918.33
534.52	54890.24
534.69	54873.86
534.86	54997.91
535.03	54731.09
535.20	54733.43
535.37	55107.91
535.54	54834.07
535.71	54817.69
535.88	55093.87
536.05	55000.25
536.22	55178.13
536.38	55269.41
536.55	55051.74
536.72	55360.69
536.89	55271.75
537.06	55351.33
537.23	55437.93
537.40	55398.14
537.57	55199.19
537.74	55339.63
537.91	55697.73
538.08	55360.69
538.25	55164.09
538.42	55561.98
538.59	55959.87
538.75	55522.19
538.92	55725.81
539.09	55950.51
539.26	55842.84
539.43	55821.78
539.60	55660.28
539.77	55742.20
539.94	56168.18
540.11	56025.40
540.28	55997.32
540.44	55990.30
540.61	55969.23
540.78	56133.07
540.95	55891.99
541.12	56140.09
541.29	56044.13
541.46	55838.16
541.62	56149.45
541.79	56219.67
541.96	56144.77
542.13	56086.26
542.30	56123.71
542.47	56435.00
542.63	56451.38
542.80	56458.40
542.97	56837.57
543.14	56849.27
543.31	56746.29
543.48	56921.83
543.64	56968.64
543.81	56884.38
543.98	57057.58
544.15	56963.96
544.32	57249.50
544.48	57092.69
544.65	56963.96
544.82	56804.80
544.99	56940.55
545.16	57188.65
545.32	57029.49
545.49	57310.36
545.66	57546.75
545.83	57329.08
546.00	57350.15
546.16	57275.25
546.33	57279.93
546.50	57317.38
546.67	57279.93
546.83	57209.71
547.00	57556.11
547.17	57359.51
547.34	57647.39
547.50	57682.50
547.67	57675.48
547.84	57612.29
548.00	57822.93
548.17	57895.49
548.34	57712.93
548.51	57771.44
548.67	57799.53
548.84	57780.81
549.01	57715.27
549.18	57911.88
549.34	57769.10
549.51	57893.15
549.68	57996.13
549.84	58129.54
550.01	57860.38
550.18	58035.92
550.34	58075.71
550.51	58113.16
550.68	58169.33
550.84	57822.93
551.01	58234.87
551.18	58272.32
551.34	58035.92
551.51	58447.86
551.68	58166.99
551.84	58248.91
552.01	58211.46
552.18	58230.19
552.34	57954.00
552.51	58344.87
552.68	58031.24
552.84	58237.21
553.01	58679.57
553.18	58557.86
553.34	58417.43
553.51	58307.43
553.67	58424.45
553.84	58550.84
554.01	58482.97
554.17	58625.74
554.34	58705.32
554.51	58700.64
554.67	58789.58
554.84	58707.66
555.00	58674.89
555.17	58651.48
555.33	58560.20
555.50	58623.40
555.67	58553.18
555.83	58471.26
556.00	58749.79
556.16	59096.19
556.33	59035.33
556.50	58796.60
556.66	59360.67
556.83	58892.56
556.99	59103.21
557.16	59325.56
557.32	59040.01
557.49	59374.71
557.65	59079.80
557.82	59063.42
557.98	58827.02
558.15	58829.37
558.32	59189.81
558.48	59023.63
558.65	59140.66
558.81	59278.75
558.98	59297.47
559.14	59334.92
559.31	59409.82
559.47	59391.09
559.64	59313.86
559.80	59503.44
559.97	59412.16
560.13	59194.49
560.30	59238.96
560.46	59487.06
560.63	59519.82
560.79	59735.15
560.96	59606.42
561.12	59344.28
561.29	59615.79
561.45	59276.41
561.61	59360.67
561.78	59620.47
561.94	59494.08
562.11	59576.00
562.27	59667.28
562.44	59695.36
562.60	59585.36
562.77	59463.65
562.93	59480.03
563.10	59674.30
563.26	59728.13
563.42	59739.83
563.59	59594.72
563.75	59683.66
563.92	59760.90
564.08	59681.32
564.24	59870.90
564.41	59852.18
564.57	59957.50
564.74	59805.37
564.90	59739.83
565.07	59634.51
565.23	59641.53
565.39	59751.54
565.56	59847.50
565.72	60133.04
565.88	59896.65
566.05	59819.41
566.21	59861.54
566.38	59992.61
566.54	59969.21
566.70	60023.04
566.87	60067.51
567.03	59859.20
567.19	60137.72
567.36	60226.66
567.52	59737.49
567.68	60252.41
567.85	60048.78
568.01	60186.88
568.17	60083.89
568.34	60100.28
568.50	60189.22
568.66	60067.51
568.83	59817.07
568.99	60065.17
569.15	60065.17
569.32	60137.72
569.48	60060.49
569.64	60039.42
569.81	60093.25
569.97	59994.95
570.13	60140.07
570.30	60009.00
570.46	60072.19
570.62	60109.64
570.78	60212.62
570.95	60362.42
571.11	60231.35
571.27	60254.75
571.43	60111.98
571.60	60226.66
571.76	60404.55
571.92	60226.66
572.09	60221.98
572.25	60027.72
572.41	60271.14
572.57	60264.11
572.74	60547.32
572.90	60140.07
573.06	60346.03
573.22	60378.80
573.38	60388.16
573.55	60130.70
573.71	60594.13
573.87	60343.69
574.03	60252.41
574.20	60343.69
574.36	60353.05
574.52	60404.55
574.68	60519.23
574.84	60444.33
575.01	60528.59
575.17	60355.39
575.33	60381.14
575.49	60420.93
575.65	60575.40
575.82	60420.93
575.98	60493.49
576.14	60629.24
576.30	60830.52
576.46	60493.49
576.62	60413.91
576.79	60420.93
576.95	60303.90
577.11	60603.49
577.27	60542.64
577.43	60399.86
577.59	60563.70
577.75	60460.72
577.92	60418.59
578.08	60275.82
578.24	60449.02
578.40	60755.63
578.56	60671.37
578.72	60397.52
578.88	60786.05
579.04	60750.94
579.21	60523.91
579.37	60654.98
579.53	60596.47
579.69	60355.39
579.85	60343.69
580.01	60486.46
580.17	60477.10
580.33	60654.98
580.49	60666.69
580.65	60516.89
580.82	60477.10
580.98	60610.51
581.14	60498.17
581.30	60800.10
581.46	60612.85
581.62	60561.36
581.78	60699.45
581.94	60755.63
582.10	60638.60
582.26	60533.28
582.42	60708.82
582.58	60804.78
582.74	60530.93
582.90	60495.83
583.06	60619.88
583.22	60474.76
583.38	60465.40
583.54	60657.32
583.70	60772.01
583.86	60638.60
584.02	60451.36
584.18	60708.82
584.34	60603.49
584.50	60502.85
584.66	60594.13
584.82	60507.53
584.98	60790.73
585.14	60928.83
585.30	60615.19
585.46	60631.58
585.62	60671.37
585.78	60975.64
585.94	60446.68
586.10	60678.39
586.26	60720.52
586.42	60856.27
586.58	60828.18
586.74	60720.52
586.90	60711.16
587.06	60498.17
587.22	60903.08
587.38	60867.97
587.54	60671.37
587.70	61069.26
587.86	60718.18
588.02	60638.60
588.18	60992.02
588.34	60772.01
588.49	60676.05
