SpectraSuite Data File
++++++++++++++++++++++++++++++++++++
Date: Fri Oct 25 10:43:37 EDT 2013
User: price-jones
Dark Spectrum Present: No
Reference Spectrum Present: No
Number of Sampled Component Spectra: 1
Spectrometers: USB2+H05261
Integration Time (usec): 100000 (USB2+H05261)
Spectra Averaged: 1 (USB2+H05261)
Boxcar Smoothing: 0 (USB2+H05261)
Correct for Electrical Dark: No (USB2+H05261)
Strobe/Lamp Enabled: No (USB2+H05261)
Correct for Detector Non-linearity: No (USB2+H05261)
Correct for Stray Light: No (USB2+H05261)
Number of Pixels in Processed Spectrum: 2048
>>>>>Begin Processed Spectral Data<<<<<
365.73	166.18
365.92	166.18
366.12	166.18
366.32	67.88
366.52	35.11
366.72	67.88
366.91	51.49
367.11	102.98
367.31	0.00
367.51	7.02
367.70	70.22
367.90	124.05
368.10	65.54
368.30	0.00
368.49	21.06
368.69	84.26
368.89	60.85
369.09	53.83
369.28	53.83
369.48	21.06
369.68	65.54
369.87	112.35
370.07	32.77
370.27	154.48
370.47	196.60
370.66	374.49
370.86	470.45
371.06	538.32
371.25	510.24
371.45	531.30
371.65	580.45
371.84	430.66
372.04	383.85
372.24	486.83
372.44	458.74
372.63	517.26
372.83	470.45
373.03	503.22
373.22	552.37
373.42	510.24
373.62	507.90
373.81	512.58
374.01	636.63
374.21	587.47
374.40	503.22
374.60	514.92
374.79	533.64
374.99	573.43
375.19	526.62
375.38	571.09
375.58	592.16
375.78	589.82
375.97	638.97
376.17	699.82
376.37	606.20
376.56	538.32
376.76	622.58
376.95	657.69
377.15	648.33
377.35	610.88
377.54	638.97
377.74	636.63
377.93	617.90
378.13	671.73
378.33	674.07
378.52	650.67
378.72	716.20
378.91	650.67
379.11	653.01
379.31	660.03
379.50	636.63
379.70	699.82
379.89	746.63
380.09	713.86
380.28	678.76
380.48	781.74
380.68	784.08
380.87	690.46
381.07	713.86
381.26	596.84
381.46	655.35
381.65	727.91
381.85	678.76
382.04	741.95
382.24	667.05
382.43	748.97
382.63	760.67
382.83	692.80
383.02	645.99
383.22	713.86
383.41	702.16
383.61	774.72
383.80	816.85
384.00	753.65
384.19	744.29
384.39	828.55
384.58	819.19
384.78	809.83
384.97	772.38
385.17	760.67
385.36	807.48
385.56	901.11
385.75	833.23
385.95	833.23
386.14	889.40
386.34	800.46
386.53	837.91
386.72	758.33
386.92	947.92
387.11	891.74
387.31	887.06
387.50	910.47
387.70	786.42
387.89	755.99
388.09	819.19
388.28	910.47
388.48	964.30
388.67	912.81
388.86	915.15
389.06	964.30
389.25	1039.20
389.45	1034.52
389.64	980.68
389.84	1069.62
390.03	1006.43
390.22	992.39
390.42	976.00
390.61	992.39
390.81	1022.81
391.00	964.30
391.19	1083.67
391.39	1109.41
391.58	1111.75
391.78	1032.18
391.97	1020.47
392.16	1076.65
392.36	1111.75
392.55	1128.14
392.75	1027.50
392.94	929.19
393.13	947.92
393.33	1050.90
393.52	1069.62
393.71	1167.93
393.91	1165.59
394.10	1163.25
394.29	1095.37
394.49	1184.31
394.68	1193.67
394.88	1245.16
395.07	1359.85
395.26	1270.91
395.46	1146.86
395.65	1226.44
395.84	1188.99
396.04	1270.91
396.23	1170.27
396.42	1146.86
396.62	1177.29
396.81	1217.08
397.00	1277.93
397.19	1284.95
397.39	1469.86
397.58	1385.60
397.77	1345.81
397.97	1411.34
398.16	1486.24
398.35	1474.54
398.55	1416.02
398.74	1509.65
398.93	1523.69
399.12	1523.69
399.32	1458.15
399.51	1556.46
399.70	1607.95
399.90	1577.52
400.09	1591.56
400.28	1727.32
400.47	1762.42
400.67	1659.44
400.86	1650.08
401.05	1671.14
401.24	1636.03
401.44	1727.32
401.63	1715.61
401.82	1687.53
402.01	1736.68
402.21	1818.60
402.40	1781.15
402.59	1788.17
402.78	1748.38
402.97	1806.89
403.17	1891.15
403.36	1785.83
403.55	1776.47
403.74	1914.56
403.93	2038.61
404.13	1963.71
404.32	1905.20
404.51	1783.49
404.70	1949.67
404.89	1935.62
405.09	1956.69
405.28	1816.26
405.47	1970.73
405.66	2090.10
405.85	2003.50
406.05	2005.84
406.24	2017.54
406.43	2057.33
406.62	2085.42
406.81	2141.59
407.00	2237.55
407.20	2036.27
407.39	2204.78
407.58	2064.35
407.77	2218.83
407.96	2256.28
408.15	2293.72
408.34	2284.36
408.54	2352.24
408.73	2230.53
408.92	2223.51
409.11	2317.13
409.30	2377.98
409.49	2321.81
409.68	2354.58
409.87	2326.49
410.07	2249.25
410.26	2373.30
410.45	2485.65
410.64	2422.45
410.83	2504.37
411.02	2586.29
411.21	2642.46
411.40	2511.39
411.59	2693.96
411.78	2644.81
411.98	2651.83
412.17	2722.04
412.36	2572.25
412.55	2843.75
412.74	2743.11
412.93	2792.26
413.12	2740.77
413.31	2848.43
413.50	2883.54
413.69	2876.52
413.88	2942.05
414.07	2869.50
414.26	2984.18
414.45	2974.82
414.64	2960.78
414.83	3110.57
415.02	3061.42
415.22	3124.62
415.41	3192.49
415.60	3251.00
415.79	3164.40
415.98	3255.69
416.17	3297.81
416.36	3452.29
416.55	3272.07
416.74	3255.69
416.93	3307.18
417.12	3267.39
417.31	3487.40
417.50	3349.31
417.69	3461.65
417.88	3449.95
418.07	3478.04
418.26	3466.33
418.45	3583.36
418.64	3541.23
418.83	3538.89
419.02	3747.20
419.21	3684.00
419.39	3758.90
419.58	3562.30
419.77	3522.51
419.96	3693.37
420.15	3660.60
420.34	3627.83
420.53	3723.79
420.72	3901.67
420.91	3887.63
421.10	3955.51
421.29	3950.82
421.48	3796.35
421.67	3866.56
421.86	3878.27
422.05	3833.80
422.24	3847.84
422.43	3824.44
422.61	3838.48
422.80	3997.64
422.99	3934.44
423.18	4025.72
423.37	4007.00
423.56	3899.33
423.75	3988.27
423.94	4018.70
424.13	3740.18
424.32	3955.51
424.50	3936.78
424.69	4037.42
424.88	4084.23
425.07	3871.25
425.26	4081.89
425.45	4081.89
425.64	4049.13
425.83	3995.29
426.01	3981.25
426.20	4025.72
426.39	3999.98
426.58	4072.53
426.77	4053.81
426.96	4063.17
427.15	4004.66
427.33	4091.26
427.52	4046.79
427.71	4175.52
427.90	4154.45
428.09	4154.45
428.28	4238.71
428.46	4290.20
428.65	4194.24
428.84	4383.82
429.03	4341.69
429.22	4210.62
429.40	4154.45
429.59	4128.70
429.78	4014.02
429.97	3873.59
430.16	4060.83
430.34	4105.30
430.53	4159.13
430.72	4180.20
430.91	4301.90
431.10	4269.14
431.28	4620.22
431.47	4706.82
431.66	4676.39
431.85	4601.49
432.03	4617.88
432.22	4816.82
432.41	4589.79
432.60	4793.42
432.79	4758.31
432.97	4774.69
433.16	4809.80
433.35	4751.29
433.54	4564.04
433.72	4730.22
433.91	4821.50
434.10	4908.10
434.28	4814.48
434.47	4856.61
434.66	4999.38
434.85	4912.78
435.03	5090.67
435.22	4945.55
435.41	5114.07
435.59	4971.30
435.78	5249.82
435.97	5359.83
436.16	5219.39
436.34	5203.01
436.53	5224.08
436.72	5294.29
436.90	5142.16
437.09	5041.51
437.28	5203.01
437.46	5102.37
437.65	5205.35
437.84	5329.40
438.02	5125.77
438.21	5308.34
438.40	5085.98
438.58	5533.03
438.77	5483.88
438.96	5476.85
439.14	5788.14
439.33	5769.42
439.52	5776.44
439.70	5724.95
439.89	5776.44
440.08	5664.10
440.26	5802.19
440.45	5722.61
440.63	5783.46
440.82	6087.73
441.01	6064.33
441.19	6003.47
441.38	6314.77
441.57	6242.21
441.75	6200.08
441.94	6181.35
442.12	6403.71
442.31	6246.89
442.50	6368.60
442.68	6356.90
442.87	6324.13
443.05	6382.64
443.24	6282.00
443.43	6794.58
443.61	6544.14
443.80	6661.16
443.98	6377.96
444.17	6413.07
444.35	6478.60
444.54	6677.55
444.73	6663.51
444.91	6686.91
445.10	6487.96
445.28	6583.93
445.47	6401.37
445.65	6532.44
445.84	6516.05
446.02	6715.00
446.21	6649.46
446.39	6492.65
446.58	6815.64
446.77	6703.29
446.95	6745.42
447.14	6752.45
447.32	6717.34
447.51	6860.11
447.69	6682.23
447.88	6827.34
448.06	6846.07
448.25	6698.61
448.43	6747.76
448.62	6949.05
448.80	6942.03
448.99	6991.18
449.17	7105.87
449.36	6942.03
449.54	6937.35
449.73	7075.44
449.91	7133.95
450.10	7178.42
450.28	7304.81
450.46	7372.69
450.65	7335.24
450.83	7405.46
451.02	7559.93
451.20	7412.48
451.39	7569.29
451.57	7403.11
451.76	7375.03
451.94	7246.30
452.13	7508.44
452.31	7211.19
452.49	7082.46
452.68	7286.09
452.86	7323.54
453.05	7335.24
453.23	7517.80
453.42	7538.87
453.60	7365.67
453.78	7723.77
453.97	7328.22
454.15	7487.37
454.34	7424.18
454.52	7503.76
454.70	7501.42
454.89	7740.15
455.07	7517.80
455.26	7609.08
455.44	7695.68
455.62	7976.55
455.81	7763.56
455.99	7922.71
456.17	8072.51
456.36	7992.93
456.54	7943.78
456.73	8219.96
456.91	8159.11
457.09	8175.49
457.28	8287.84
457.46	8023.36
457.64	8219.96
457.83	8023.36
458.01	8194.22
458.19	8430.61
458.38	8259.75
458.56	8215.28
458.74	8397.84
458.93	8327.63
459.11	8454.02
459.29	8484.44
459.48	8393.16
459.66	8557.00
459.84	8542.96
460.03	8592.11
460.21	8456.36
460.39	8442.31
460.57	8603.81
460.76	8645.94
460.94	8898.72
461.12	8791.05
461.31	8683.39
461.49	8704.45
461.67	8870.63
461.85	8905.74
462.04	8674.03
462.22	9439.38
462.40	9156.18
462.59	8966.59
462.77	8999.36
462.95	8994.68
463.13	9195.96
463.32	8985.32
463.50	9039.15
463.68	9151.49
463.86	9043.83
464.05	9092.98
464.23	9111.71
464.41	9256.82
464.59	8917.44
464.78	9174.90
464.96	9406.61
465.14	9174.90
465.32	9207.67
465.50	9329.38
465.69	9392.57
465.87	9289.59
466.05	9355.12
466.23	9305.97
466.41	9320.01
466.60	9413.63
466.78	9394.91
466.96	9280.22
467.14	9418.32
467.32	9596.20
467.51	9633.64
467.69	9287.25
467.87	9713.22
468.05	9790.46
468.23	9605.56
468.41	9392.57
468.60	9607.90
468.78	9879.40
468.96	9518.96
469.14	9664.07
469.32	9930.89
469.50	9643.01
469.69	9720.24
469.87	9870.04
470.05	9736.63
470.23	9858.34
470.41	9970.68
470.59	10073.67
470.77	9870.04
470.95	10260.91
471.14	10202.40
471.32	10157.92
471.50	10469.22
471.68	10532.41
471.86	10499.64
472.04	10527.73
472.22	10593.26
472.40	10293.68
472.58	10600.29
472.77	10279.63
472.95	10427.09
473.13	11009.88
473.31	10656.46
473.49	10623.69
473.67	10724.33
473.85	10995.84
474.03	11052.01
474.21	11199.46
474.39	11154.99
474.57	11215.85
474.75	11234.57
474.93	11351.60
475.12	11246.27
475.30	11536.50
475.48	11323.51
475.66	11482.67
475.84	11585.65
476.02	11655.87
476.20	11400.75
476.38	11751.83
476.56	11950.78
476.74	11983.54
476.92	11751.83
477.10	12241.00
477.28	12013.97
477.46	12032.69
477.64	12453.99
477.82	12549.95
478.00	12814.43
478.18	12535.91
478.36	12636.55
478.54	13041.46
478.72	12933.80
478.90	12975.93
479.08	13142.11
479.26	13193.60
479.44	13343.39
479.62	13490.85
479.80	13474.46
479.98	13259.13
480.16	13694.47
480.34	13537.66
480.52	13916.83
480.70	14061.94
480.88	13827.88
481.06	13799.80
481.24	14111.09
481.41	14230.46
481.59	14448.13
481.77	14422.38
481.95	14768.78
482.13	14906.87
482.31	14583.88
482.49	14759.42
482.67	14977.09
482.85	15129.22
483.03	15367.96
483.21	15602.01
483.39	15557.54
483.57	15548.18
483.74	15903.94
483.92	15901.60
484.10	15772.87
484.28	16245.66
484.46	16255.02
484.64	16449.28
484.82	16067.78
485.00	16308.85
485.18	16627.17
485.35	16627.17
485.53	16315.87
485.71	16479.71
485.89	16751.21
486.07	16669.30
486.25	16828.45
486.43	16753.55
486.61	17193.58
486.78	17324.65
486.96	17493.16
487.14	17830.20
487.32	17818.50
487.50	18150.85
487.68	18335.76
487.85	18574.49
488.03	18614.28
488.21	18939.62
488.39	18710.24
488.57	18724.29
488.75	18925.57
488.92	18883.44
489.10	19604.33
489.28	19709.65
489.46	19857.10
489.64	19756.46
489.81	20173.08
489.99	20486.71
490.17	20620.12
490.35	20669.27
490.53	20592.03
490.70	20886.94
490.88	20692.68
491.06	21097.59
491.24	21062.48
491.41	20753.53
491.59	20819.07
491.77	20788.64
491.95	21179.51
492.13	21291.85
492.30	21816.13
492.48	21715.49
492.66	22181.26
492.84	22073.59
493.01	22080.61
493.19	22314.67
493.37	22501.91
493.54	22082.95
493.72	22937.25
493.90	22609.58
494.08	23211.09
494.25	23513.02
494.43	23260.24
494.61	23314.08
494.79	23690.90
494.96	23271.95
495.14	24016.24
495.32	23597.28
495.49	24095.82
495.67	24109.86
495.85	24367.32
496.02	24451.58
496.20	24332.21
496.38	25113.95
496.55	25111.61
496.73	25233.32
496.91	24978.20
497.09	24947.77
497.26	25172.46
497.44	25053.09
497.62	25752.91
497.79	25902.71
497.97	25336.30
498.14	25586.74
498.32	25860.58
498.50	25673.34
498.67	26487.84
498.85	26155.49
499.03	26672.74
499.20	26412.95
499.38	26539.33
499.56	26757.00
499.73	26672.74
499.91	26670.40
500.08	26450.39
500.26	26595.51
500.44	26977.01
500.61	26988.72
500.79	26501.89
500.97	26857.65
501.14	27613.64
501.32	26920.84
501.49	27653.43
501.67	27328.10
501.84	27791.52
502.02	27817.27
502.20	27927.27
502.37	28112.17
502.55	28238.56
502.72	28137.92
502.90	28278.35
503.07	28318.14
503.25	28561.56
503.43	28105.15
503.60	28203.46
503.78	28479.64
503.95	28414.10
504.13	28680.92
504.30	28589.64
504.48	29006.26
504.65	28739.44
504.83	29205.20
505.01	29144.35
505.18	29301.17
505.36	29631.18
505.53	30015.03
505.71	29743.53
505.88	29766.93
506.06	29551.60
506.23	29809.06
506.41	30089.93
506.58	29874.60
506.76	30206.95
506.93	30466.75
507.11	29972.90
507.28	30471.43
507.46	30192.91
507.63	30125.04
507.81	30169.51
507.98	30382.49
508.16	30724.21
508.33	31047.21
508.50	30693.79
508.68	31063.59
508.85	31409.99
509.03	30703.15
509.20	31466.16
509.38	31173.60
509.55	31765.75
509.73	31688.51
509.90	31740.00
510.08	31728.30
510.25	31861.71
510.42	31740.00
510.60	32053.64
510.77	31896.82
510.95	32196.41
511.12	32095.77
511.30	32332.16
511.47	32388.33
511.64	32584.94
511.82	32645.79
511.99	32481.95
512.17	32809.63
512.34	32727.71
512.51	32840.06
512.69	32900.91
512.86	32889.21
513.04	33439.23
513.21	33237.95
513.38	32844.74
513.56	33027.30
513.73	33055.39
513.90	33036.66
514.08	33408.81
514.25	33525.83
514.43	33244.97
514.60	33420.51
514.77	33472.00
514.95	33993.94
515.12	33771.59
515.29	34078.20
515.47	34132.03
515.64	34270.12
515.81	34141.39
515.99	34270.12
516.16	34052.45
516.33	34036.07
516.51	33954.15
516.68	33577.33
516.85	33188.80
517.03	34132.03
517.20	34110.97
517.37	34693.76
517.54	34855.26
517.72	34555.67
517.89	33935.43
518.06	34096.92
518.24	34305.23
518.41	34391.83
518.58	34920.79
518.75	34672.70
518.93	34962.92
519.10	34733.55
519.27	35218.04
519.45	35332.73
519.62	35742.32
519.79	35847.64
519.96	35770.41
520.14	36229.15
520.31	35292.94
520.48	35934.24
520.65	35716.58
520.83	36240.86
521.00	36217.45
521.17	36278.30
521.34	36128.51
521.52	36334.48
521.69	36690.24
521.86	36945.36
522.03	36547.47
522.20	36896.20
522.38	36381.29
522.55	36865.78
522.72	36556.83
522.89	36456.18
523.07	36957.06
523.24	36673.85
523.41	36870.46
523.58	37085.79
523.75	37191.11
523.92	37134.94
524.10	37118.56
524.27	37329.20
524.44	37563.26
524.61	37717.73
524.78	37570.28
524.96	37914.34
525.13	38059.45
525.30	37872.21
525.47	37881.57
525.64	37724.75
525.81	37439.21
525.98	37827.74
526.16	37713.05
526.33	37460.27
526.50	37792.63
526.67	37441.55
526.84	37799.65
527.01	37240.26
527.18	37998.60
527.36	38326.27
527.53	38644.59
527.70	38459.68
527.87	38380.10
528.04	38410.53
528.21	38927.79
528.38	38855.23
528.55	39042.48
528.72	39047.16
528.89	39489.52
529.07	38988.64
529.24	39131.42
529.41	38969.92
529.58	38972.26
529.75	39220.36
529.92	39086.95
530.09	39295.25
530.26	39508.24
530.43	39484.84
530.60	38747.57
530.77	39711.87
530.94	39821.87
531.11	39267.17
531.28	39873.37
531.46	39697.83
531.63	40030.18
531.80	40002.10
531.97	40076.99
532.14	39524.63
532.31	39358.45
532.48	39381.85
532.65	40062.95
532.82	39625.27
532.99	39927.20
533.16	39629.95
533.33	40116.78
533.50	40409.35
533.67	40318.07
533.84	40320.41
534.01	40418.71
534.18	40205.72
534.35	40781.49
534.52	40416.37
534.69	40596.59
534.86	41216.83
535.03	40652.76
535.20	40748.73
535.37	40781.49
535.54	41408.76
535.71	40886.82
535.88	40856.39
536.05	41029.59
536.22	40788.52
536.38	40950.01
536.55	40676.17
536.72	40725.32
536.89	41130.23
537.06	41013.21
537.23	41090.44
537.40	41273.01
537.57	41118.53
537.74	41237.90
537.91	41713.03
538.08	41614.72
538.25	41219.17
538.42	41439.18
538.59	41801.97
538.75	41326.84
538.92	41265.99
539.09	41481.31
539.26	41490.68
539.43	41586.64
539.60	41584.30
539.77	41720.05
539.94	41694.30
540.11	41698.98
540.28	41989.21
540.44	41895.59
540.61	41378.33
540.78	41467.27
540.95	41860.48
541.12	41937.72
541.29	41738.77
541.46	42141.35
541.62	42134.32
541.79	41853.46
541.96	42244.33
542.13	42082.83
542.30	42043.04
542.47	42167.09
542.63	42183.48
542.80	42316.89
542.97	42909.04
543.14	42925.42
543.31	42972.24
543.48	42810.74
543.64	42876.27
543.81	43225.01
543.98	42667.97
544.15	43199.27
544.32	43524.60
544.48	43131.39
544.65	43381.83
544.82	43115.01
544.99	42719.46
545.16	43002.66
545.32	43161.82
545.49	43973.98
545.66	43658.01
545.83	43702.48
546.00	43477.79
546.16	43229.69
546.33	43068.20
546.50	43189.91
546.67	43863.98
546.83	43320.98
547.00	44102.71
547.17	43323.32
547.34	43491.83
547.50	43416.94
547.67	43709.50
547.84	44067.61
548.00	43779.72
548.17	43973.98
548.34	43966.96
548.51	44390.60
548.67	43915.47
548.84	43929.51
549.01	43887.39
549.18	43590.14
549.34	44079.31
549.51	44011.43
549.68	44018.46
549.84	44128.46
550.01	44729.98
550.18	44287.62
550.34	44119.10
550.51	44011.43
550.68	44369.54
550.84	43672.06
551.01	44205.70
551.18	44252.51
551.34	44348.47
551.51	44657.42
551.68	44465.50
551.84	44601.25
552.01	43973.98
552.18	44694.87
552.34	44446.77
552.51	44509.97
552.68	44168.25
552.84	44652.74
553.01	44622.31
553.18	44804.88
553.34	44905.52
553.51	44296.98
553.67	44289.96
553.84	45265.96
554.01	45095.10
554.17	45174.68
554.34	44793.17
554.51	44825.94
554.67	45006.16
554.84	44957.01
555.00	44739.34
555.17	44629.34
555.33	44788.49
555.50	44861.05
555.67	44910.20
555.83	45195.74
556.00	44905.52
556.16	45230.85
556.33	44957.01
556.50	44835.30
556.66	45427.46
556.83	44650.40
556.99	45102.12
557.16	45219.15
557.32	45298.73
557.49	45579.59
557.65	45001.48
557.82	45015.52
557.98	45118.51
558.15	45375.97
558.32	45415.76
558.48	44877.43
558.65	44652.74
558.81	45099.78
558.98	45059.99
559.14	45476.61
559.31	45134.89
559.47	45345.54
559.64	46005.57
559.80	44884.45
559.97	45284.68
560.13	44868.07
560.30	45275.32
560.46	45556.19
560.63	45752.79
560.79	45675.55
560.96	45947.06
561.12	45713.00
561.29	45617.04
561.45	45743.43
561.61	45436.82
561.78	45603.00
561.94	45933.01
562.11	45963.44
562.27	45579.59
562.44	46101.53
562.60	46309.84
562.77	46045.36
562.93	45478.95
563.10	46122.60
563.26	45572.57
563.42	45909.61
563.59	45724.71
563.75	45563.21
563.92	45808.96
564.08	46082.81
564.24	46115.58
564.41	45581.93
564.57	45830.03
564.74	45940.04
564.90	45776.20
565.07	45837.05
565.23	45900.25
565.39	45911.95
565.56	45949.40
565.72	45577.25
565.88	45780.88
566.05	46253.67
566.21	46033.66
566.38	45488.31
566.54	45647.47
566.70	46351.97
566.87	46263.03
567.03	46260.69
567.19	46373.03
567.36	45925.99
567.52	45989.19
567.68	46019.61
567.85	45827.69
568.01	45937.69
568.17	46244.30
568.34	45968.12
568.50	46045.36
568.66	45722.37
568.83	46326.22
568.99	45614.70
569.15	46106.21
569.32	45813.65
569.48	45867.48
569.64	46157.70
569.81	46122.60
569.97	45846.41
570.13	45977.48
570.30	46117.92
570.46	45656.83
570.62	45727.05
570.78	45406.39
570.95	45734.07
571.11	46251.33
571.27	46014.93
571.43	46021.95
571.60	46209.20
571.76	46115.58
571.92	46181.11
572.09	46401.12
572.25	46368.35
572.41	46206.86
572.57	45989.19
572.74	46864.55
572.90	45947.06
573.06	45965.78
573.22	46033.66
573.38	46003.23
573.55	45663.85
573.71	46429.21
573.87	46923.06
574.03	46256.01
574.20	46178.77
574.36	46431.55
574.52	46270.05
574.68	46319.20
574.84	46471.34
575.01	46197.49
575.17	46256.01
575.33	46103.87
575.49	46040.68
575.65	46157.70
575.82	46726.46
575.98	46138.98
576.14	46293.46
576.30	46351.97
576.46	46408.14
576.62	46405.80
576.79	46204.52
576.95	45771.52
577.11	45801.94
577.27	46138.98
577.43	46508.79
577.59	45553.85
577.75	46169.41
577.92	45539.80
578.08	46466.66
578.24	46040.68
578.40	46532.19
578.56	46033.66
578.72	46071.10
578.88	46564.96
579.04	46726.46
579.21	45935.35
579.37	45839.39
579.53	46368.35
579.69	46106.21
579.85	46185.79
580.01	46459.63
580.17	45935.35
580.33	46337.93
580.49	46309.84
580.65	46284.09
580.82	46099.19
580.98	46368.35
581.14	45834.71
581.30	46403.46
581.46	46555.60
581.62	46326.22
581.78	46370.69
581.94	46955.83
582.10	46609.43
582.26	46600.07
582.42	46377.72
582.58	46532.19
582.74	46319.20
582.90	46293.46
583.06	46199.83
583.22	46356.65
583.38	46293.46
583.54	46337.93
583.70	46679.64
583.86	46356.65
584.02	46295.80
584.18	46447.93
584.34	46270.05
584.50	46710.07
584.66	46138.98
584.82	46237.28
584.98	46553.26
585.14	46092.17
585.30	45858.12
585.46	46138.98
585.62	46248.99
585.78	46330.90
585.94	45661.51
586.10	45996.21
586.26	45933.01
586.42	46412.82
586.58	46344.95
586.74	46625.81
586.90	46642.20
587.06	46080.47
587.22	46054.72
587.38	46103.87
587.54	46796.67
587.70	46918.38
587.86	46085.15
588.02	46532.19
588.18	46330.90
588.34	46267.71
588.49	45659.17
588.65	45823.01
588.81	45787.90
588.97	45645.13
589.13	45759.81
589.29	45769.18
589.45	45909.61
589.61	45968.12
589.77	46319.20
589.93	46347.29
