SpectraSuite Data File
++++++++++++++++++++++++++++++++++++
Date: Fri Oct 25 11:23:07 EDT 2013
User: price-jones
Dark Spectrum Present: No
Reference Spectrum Present: No
Number of Sampled Component Spectra: 1
Spectrometers: USB2+H05261
Integration Time (usec): 100000 (USB2+H05261)
Spectra Averaged: 1 (USB2+H05261)
Boxcar Smoothing: 0 (USB2+H05261)
Correct for Electrical Dark: No (USB2+H05261)
Strobe/Lamp Enabled: No (USB2+H05261)
Correct for Detector Non-linearity: No (USB2+H05261)
Correct for Stray Light: No (USB2+H05261)
Number of Pixels in Processed Spectrum: 2048
>>>>>Begin Processed Spectral Data<<<<<
365.73	229.37
365.92	229.37
366.12	229.37
366.32	152.13
366.52	121.71
366.72	131.07
366.91	102.98
367.11	194.26
367.31	175.54
367.51	72.56
367.70	114.69
367.90	119.37
368.10	154.48
368.30	124.05
368.49	77.24
368.69	161.50
368.89	91.28
369.09	166.18
369.28	156.82
369.48	156.82
369.68	196.60
369.87	257.46
370.07	203.63
370.27	250.44
370.47	337.04
370.66	592.16
370.86	601.52
371.06	645.99
371.25	674.07
371.45	748.97
371.65	744.29
371.84	601.52
372.04	692.80
372.24	688.12
372.44	734.93
372.63	732.59
372.83	634.29
373.03	739.61
373.22	723.23
373.42	744.29
373.62	767.70
373.81	784.08
374.01	849.61
374.21	835.57
374.40	753.65
374.60	809.83
374.79	828.55
374.99	896.43
375.19	786.42
375.38	786.42
375.58	837.91
375.78	870.68
375.97	840.25
376.17	823.87
376.37	844.93
376.56	854.30
376.76	908.13
376.95	842.59
377.15	856.64
377.35	887.06
377.54	882.38
377.74	929.19
377.93	912.81
378.13	870.68
378.33	922.17
378.52	840.25
378.72	938.55
378.91	849.61
379.11	884.72
379.31	875.36
379.50	912.81
379.70	1015.79
379.89	1001.75
380.09	945.58
380.28	950.26
380.48	954.94
380.68	924.51
380.87	992.39
381.07	950.26
381.26	952.60
381.46	1027.50
381.65	1149.20
381.85	1088.35
382.04	1043.88
382.24	1074.31
382.43	1055.58
382.63	1095.37
382.83	1060.26
383.02	1114.10
383.22	1233.46
383.41	1055.58
383.61	1160.91
383.80	1137.50
384.00	1057.92
384.19	1123.46
384.39	1228.78
384.58	1149.20
384.78	1203.04
384.97	1172.61
385.17	1144.52
385.36	1219.42
385.56	1214.74
385.75	1217.08
385.95	1188.99
386.14	1139.84
386.34	1191.33
386.53	1188.99
386.72	1231.12
386.92	1266.23
387.11	1224.10
387.31	1296.66
387.50	1249.85
387.70	1221.76
387.89	1205.38
388.09	1277.93
388.28	1256.87
388.48	1259.21
388.67	1322.40
388.86	1387.94
389.06	1277.93
389.25	1320.06
389.45	1313.04
389.64	1394.96
389.84	1392.62
390.03	1423.05
390.22	1409.00
390.42	1343.47
390.61	1322.40
390.81	1458.15
391.00	1423.05
391.19	1497.94
391.39	1439.43
391.58	1488.58
391.78	1481.56
391.97	1502.62
392.16	1509.65
392.36	1511.99
392.55	1526.03
392.75	1575.18
392.94	1572.84
393.13	1486.24
393.33	1551.78
393.52	1565.82
393.71	1584.54
393.91	1540.07
394.10	1600.93
394.29	1626.67
394.49	1577.52
394.68	1664.12
394.88	1671.14
395.07	1696.89
395.26	1629.01
395.46	1647.74
395.65	1647.74
395.84	1741.36
396.04	1732.00
396.23	1771.79
396.42	1720.29
396.62	1853.70
396.81	1809.23
397.00	1678.16
397.19	1713.27
397.39	1696.89
397.58	1881.79
397.77	1874.77
397.97	1879.45
398.16	1837.32
398.35	1888.81
398.55	1834.98
398.74	1881.79
398.93	1923.92
399.12	1989.46
399.32	1907.54
399.51	2097.12
399.70	2047.97
399.90	1975.41
400.09	2115.84
400.28	2054.99
400.47	1954.35
400.67	2101.80
400.86	2043.29
401.05	2038.61
401.24	2015.20
401.44	2162.66
401.63	2064.35
401.82	2101.80
402.01	2176.70
402.21	2176.70
402.40	2160.31
402.59	2132.23
402.78	2155.63
402.97	2310.11
403.17	2246.91
403.36	2300.75
403.55	2354.58
403.74	2349.90
403.93	2408.41
404.13	2410.75
404.32	2331.17
404.51	2380.32
404.70	2410.75
404.89	2403.73
405.09	2483.31
405.28	2359.26
405.47	2406.07
405.66	2485.65
405.85	2502.03
406.05	2464.58
406.24	2581.61
406.43	2649.49
406.62	2689.28
406.81	2764.17
407.00	2775.88
407.20	2616.72
407.39	2729.06
407.58	2839.07
407.77	2747.79
407.96	2761.83
408.15	2693.96
408.34	2757.15
408.54	2747.79
408.73	2761.83
408.92	2693.96
409.11	2832.05
409.30	2792.26
409.49	2857.79
409.68	2883.54
409.87	3119.93
410.07	3035.67
410.26	3068.44
410.45	3061.42
410.64	3098.87
410.83	3115.25
411.02	3108.23
411.21	3206.53
411.40	3131.64
411.59	3211.22
411.78	3236.96
411.98	3183.13
412.17	3232.28
412.36	3279.09
412.55	3375.05
412.74	3407.82
412.93	3475.70
413.12	3398.46
413.31	3585.70
413.50	3382.07
413.69	3529.53
413.88	3541.23
414.07	3590.38
414.26	3726.13
414.45	3609.11
414.64	3719.11
414.83	3574.00
415.02	3810.39
415.22	3866.56
415.41	3915.72
415.60	3936.78
415.79	4007.00
415.98	3894.65
416.17	3964.87
416.36	4023.38
416.55	4156.79
416.74	4222.33
416.93	4119.34
417.12	4140.41
417.31	4210.62
417.50	4301.90
417.69	4318.29
417.88	4367.44
418.07	4292.54
418.26	4294.88
418.45	4414.25
418.64	4596.81
418.83	4414.25
419.02	4475.10
419.21	4367.44
419.39	4589.79
419.58	4538.30
419.77	4482.13
419.96	4575.75
420.15	4603.83
420.34	4550.00
420.53	4711.50
420.72	4723.20
420.91	4713.84
421.10	4648.30
421.29	4711.50
421.48	4781.71
421.67	4772.35
421.86	4798.10
422.05	4894.06
422.24	4821.50
422.43	4891.72
422.61	4917.47
422.80	5025.13
422.99	4910.44
423.18	5071.94
423.37	5015.77
423.56	5107.05
423.75	5060.24
423.94	4959.60
424.13	4638.94
424.32	4816.82
424.50	5060.24
424.69	5114.07
424.88	5151.52
425.07	5076.62
425.26	4990.02
425.45	5032.15
425.64	5184.29
425.83	5027.47
426.01	5036.83
426.20	5128.11
426.39	5100.03
426.58	5093.01
426.77	5160.88
426.96	5100.03
427.15	5210.03
427.33	5102.37
427.52	5228.76
427.71	5174.92
427.90	5200.67
428.09	5313.02
428.28	5413.66
428.46	5404.30
428.65	5507.28
428.84	5495.58
429.03	5556.43
429.22	5397.28
429.40	5579.84
429.59	5626.65
429.78	5390.25
429.97	5357.49
430.16	5647.71
430.34	5736.65
430.53	5783.46
430.72	5764.74
430.91	5706.23
431.10	5750.70
431.28	5748.36
431.47	5832.62
431.66	5727.29
431.85	5729.63
432.03	5921.56
432.22	6071.35
432.41	5984.75
432.60	6066.67
432.79	6045.60
432.97	6132.20
433.16	6132.20
433.35	6026.88
433.54	6104.12
433.72	6181.35
433.91	6209.44
434.10	6155.61
434.28	6258.59
434.47	6284.34
434.66	6230.51
434.85	6413.07
435.03	6342.85
435.22	6361.58
435.41	6635.42
435.59	6394.34
435.78	6394.34
435.97	6464.56
436.16	6382.64
436.34	6562.86
436.53	6738.40
436.72	6597.97
436.90	6539.46
437.09	6670.53
437.28	6380.30
437.46	6775.85
437.65	6551.16
437.84	6904.58
438.02	6855.43
438.21	6958.41
438.40	6874.15
438.58	7056.72
438.77	6988.84
438.96	6977.14
439.14	7206.51
439.33	7239.28
439.52	7089.48
439.70	7302.47
439.89	7566.95
440.08	7295.45
440.26	7393.75
440.45	7428.86
440.63	7499.08
440.82	7700.36
441.01	7606.74
441.19	7667.60
441.38	7793.98
441.57	7709.72
441.75	7695.68
441.94	7915.69
442.12	8138.04
442.31	8241.03
442.50	7992.93
442.68	8084.21
442.87	8236.35
443.05	8346.35
443.24	8332.31
443.43	8100.59
443.61	8121.66
443.80	8631.90
443.98	8205.92
444.17	7974.21
444.35	8470.40
444.54	8397.84
444.73	8344.01
444.91	8355.71
445.10	8650.62
445.28	8334.65
445.47	8374.44
445.65	8325.29
445.84	8411.89
446.02	8465.72
446.21	8564.02
446.39	8472.74
446.58	8411.89
446.77	8737.22
446.95	8285.50
447.14	8655.30
447.32	8739.56
447.51	8489.12
447.69	8664.66
447.88	8727.86
448.06	8774.67
448.25	8720.84
448.43	8648.28
448.62	8865.95
448.80	8542.96
448.99	8753.60
449.17	8807.44
449.36	8746.58
449.54	8800.41
449.73	9043.83
449.91	9085.96
450.10	9114.05
450.28	8961.91
450.46	9200.65
450.65	9095.32
450.83	9235.75
451.02	9104.68
451.20	9214.69
451.39	9083.62
451.57	9123.41
451.76	9057.87
451.94	9315.33
452.13	9570.45
452.31	9481.51
452.49	9284.91
452.68	9488.53
452.86	9469.81
453.05	9502.58
453.23	9582.15
453.42	9523.64
453.60	9533.00
453.78	9619.60
453.97	9685.14
454.15	9652.37
454.34	9675.77
454.52	9652.37
454.70	9898.13
454.89	9858.34
455.07	9774.08
455.26	10068.98
455.44	9940.26
455.62	10068.98
455.81	10019.83
455.99	9949.62
456.17	10115.80
456.36	10239.84
456.54	10249.21
456.73	10202.40
456.91	10579.22
457.09	10480.92
457.28	10619.01
457.46	10630.71
457.64	10714.97
457.83	10750.08
458.01	10399.00
458.19	10703.27
458.38	10757.10
458.56	10953.71
458.74	10883.49
458.93	10635.39
459.11	11103.50
459.29	11073.07
459.48	10843.70
459.66	10803.91
459.84	10806.25
460.03	11211.17
460.21	11304.79
460.39	11044.99
460.57	11117.54
460.76	11257.98
460.94	11449.90
461.12	11096.48
461.31	11274.36
461.49	11339.90
461.67	11393.73
461.85	11634.80
462.04	11400.75
462.22	11763.53
462.40	11688.64
462.59	11641.82
462.77	11346.92
462.95	12035.03
463.13	11754.17
463.32	11639.48
463.50	11791.62
463.68	11882.90
463.86	11943.75
464.05	11864.18
464.23	11758.85
464.41	12081.85
464.59	11896.94
464.78	12418.88
464.96	12203.55
465.14	12023.33
465.32	12198.87
465.50	12175.47
465.69	12442.29
465.87	12245.68
466.05	12224.62
466.23	12313.56
466.41	12348.67
466.60	12662.30
466.78	12187.17
466.96	12301.86
467.14	12332.28
467.32	12685.70
467.51	12582.72
467.69	12374.41
467.87	12725.49
468.05	12519.53
468.23	12538.25
468.41	12772.30
468.60	12730.17
468.78	12889.33
468.96	12795.71
469.14	12905.71
469.32	12959.55
469.50	12498.46
469.69	13156.15
469.87	13048.49
470.05	13280.20
470.23	13228.71
470.41	13378.50
470.59	13488.51
470.77	13509.57
470.95	13352.76
471.14	13671.07
471.32	13439.36
471.50	13666.39
471.68	13654.69
471.86	13991.72
472.04	14066.62
472.22	13937.89
472.40	13734.26
472.58	14008.11
472.77	13935.55
472.95	14382.59
473.13	14871.76
473.31	14239.82
473.49	14406.00
473.67	14125.13
473.85	14565.15
474.03	14483.24
474.21	14890.49
474.39	14876.44
474.57	14885.81
474.75	15009.86
474.93	15309.44
475.12	15051.99
475.30	15492.01
475.48	15351.57
475.66	15321.15
475.84	15365.62
476.02	15501.37
476.20	15328.17
476.38	15740.10
476.56	16226.93
476.74	16126.29
476.92	15590.31
477.10	16123.95
477.28	16404.81
477.46	16367.37
477.64	16421.20
477.82	16575.67
478.00	17366.78
478.18	17106.98
478.36	16968.88
478.54	17116.34
478.72	16805.05
478.90	17448.69
479.08	17631.26
479.26	17830.20
479.44	17694.45
479.62	17809.14
479.80	18237.45
479.98	18359.16
480.16	18766.42
480.34	18565.13
480.52	18768.76
480.70	18892.80
480.88	18752.37
481.06	18560.45
481.24	18970.04
481.41	19152.60
481.59	19487.30
481.77	19466.24
481.95	19585.60
482.13	19913.28
482.31	20065.41
482.49	20453.94
482.67	20285.42
482.85	20587.35
483.03	20893.96
483.21	21256.75
483.39	20945.45
483.57	21268.45
483.74	21432.29
483.92	21420.58
484.10	21397.18
484.28	21972.95
484.46	22525.32
484.64	22560.42
484.82	22190.62
485.00	22644.68
485.18	23241.52
485.35	23218.11
485.53	22986.40
485.71	23349.18
485.89	23821.97
486.07	23147.90
486.25	23920.28
486.43	23910.91
486.61	24081.77
486.78	24428.17
486.96	24386.04
487.14	24554.56
487.32	24896.28
487.50	24936.07
487.68	25371.41
487.85	25619.50
488.03	25855.90
488.21	26183.57
488.39	26150.81
488.57	26504.23
488.75	26417.63
488.92	27000.42
489.10	27033.19
489.28	26979.36
489.46	27866.42
489.64	27349.16
489.81	28130.90
489.99	28074.73
490.17	27807.90
490.35	28465.60
490.53	28531.13
490.70	28968.81
490.88	28166.01
491.06	28929.02
491.24	29312.87
491.41	29364.36
491.59	29617.14
491.77	29860.55
491.95	29963.54
492.13	30082.91
492.30	30328.66
492.48	30206.95
492.66	30614.21
492.84	30429.30
493.01	30565.06
493.19	31314.03
493.37	31295.30
493.54	31388.92
493.72	31864.05
493.90	31988.10
494.08	31999.80
494.25	32577.92
494.43	32451.53
494.61	32624.73
494.79	32751.12
494.96	32739.41
495.14	33160.71
495.32	33699.03
495.49	33226.24
495.67	33418.17
495.85	34113.31
496.02	34260.76
496.20	34164.80
496.38	34330.98
496.55	34565.03
496.73	35136.12
496.91	35089.31
497.09	35498.91
497.26	35346.77
497.44	35236.77
497.62	35805.52
497.79	35840.62
497.97	35889.77
498.14	36292.35
498.32	36378.95
498.50	36348.52
498.67	37043.66
498.85	36723.01
499.03	36795.56
499.20	37141.96
499.38	36809.61
499.56	37347.93
499.73	37294.10
499.91	37972.85
500.08	38183.50
500.26	37727.10
500.44	38003.28
500.61	38227.97
500.79	38363.72
500.97	38359.04
501.14	39239.08
501.32	38925.45
501.49	39033.11
501.67	39407.60
501.84	39545.69
502.02	39414.62
502.20	39313.98
502.37	39480.16
502.55	39805.49
502.72	39538.67
502.90	39634.63
503.07	39817.19
503.25	40027.84
503.43	40315.73
503.60	40519.35
503.78	40643.40
503.95	40549.78
504.13	41062.36
504.30	41045.97
504.48	41055.34
504.65	41284.71
504.83	41502.38
505.01	41691.96
505.18	41495.36
505.36	42328.59
505.53	41619.41
505.71	42124.96
505.88	42127.30
506.06	41801.97
506.23	42497.11
506.41	41951.76
506.58	42206.88
506.76	42632.86
506.93	42997.98
507.11	42742.86
507.28	43325.66
507.46	42829.46
507.63	43438.00
507.81	43650.99
507.98	42930.11
508.16	43660.35
508.33	43856.96
508.50	43730.57
508.68	43707.16
508.85	44495.92
509.03	44451.45
509.20	44729.98
509.38	44591.89
509.55	45202.77
509.73	44989.78
509.90	44575.50
510.08	45366.60
510.25	44882.11
510.42	45261.28
510.60	45345.54
510.77	45982.16
510.95	45605.34
511.12	45127.87
511.30	45184.04
511.47	45776.20
511.64	45855.78
511.82	46576.66
511.99	46057.06
512.17	46501.76
512.34	46501.76
512.51	46478.36
512.69	46618.79
512.86	46979.23
513.04	46677.30
513.21	46834.12
513.38	47194.56
513.56	47103.28
513.73	47426.28
513.90	47466.06
514.08	47255.42
514.25	48144.82
514.43	47878.00
514.60	47955.24
514.77	47873.32
514.95	48334.40
515.12	47779.70
515.29	47913.11
515.47	48289.93
515.64	47908.43
515.81	47936.51
515.99	48477.18
516.16	48879.75
516.33	48900.81
516.51	49256.57
516.68	49010.82
516.85	49006.14
517.03	49120.82
517.20	49434.45
517.37	49153.59
517.54	49507.01
517.72	49495.31
517.89	49404.03
518.06	49368.92
518.24	49453.18
518.41	49633.40
518.58	49951.71
518.75	49591.27
518.93	49612.34
519.10	49909.58
519.27	49993.84
519.45	50403.44
519.62	50195.13
519.79	50583.66
519.96	50120.23
520.14	50576.64
520.31	50688.98
520.48	50787.28
520.65	50686.64
520.83	50885.59
521.00	51105.60
521.17	51119.64
521.34	50948.78
521.52	51323.27
521.69	50969.85
521.86	51510.51
522.03	51426.25
522.20	51594.77
522.38	51995.00
522.55	51477.74
522.72	51859.25
522.89	51655.62
523.07	51957.55
523.24	51625.20
523.41	52086.28
523.58	51807.76
523.75	52294.59
523.92	52079.26
524.10	52112.03
524.27	52633.97
524.44	52404.59
524.61	52603.54
524.78	52348.42
524.96	52397.57
525.13	52755.68
525.30	52767.38
525.47	52811.85
525.64	52713.55
525.81	52926.53
525.98	52982.71
526.16	53017.82
526.33	52861.00
526.50	53450.81
526.67	52917.17
526.84	53539.75
527.01	53296.34
527.18	52886.74
527.36	53329.11
527.53	53378.26
527.70	53563.16
527.87	53652.10
528.04	53315.06
528.21	53958.71
528.38	53549.12
528.55	53729.34
528.72	53684.87
528.89	53492.94
529.07	53727.00
529.24	53832.32
529.41	53954.03
529.58	54059.35
529.75	54040.63
529.92	54160.00
530.09	53984.46
530.26	54134.25
530.43	54337.88
530.60	54171.70
530.77	54384.69
530.94	54433.84
531.11	54230.21
531.28	54426.82
531.46	54600.02
531.63	54405.75
531.80	54454.90
531.97	54763.85
532.14	55011.95
532.31	54672.57
532.48	54923.01
532.65	55089.19
532.82	54681.94
532.99	55035.36
533.16	54960.46
533.33	55150.04
533.50	55161.75
533.67	55278.77
533.84	54913.65
534.01	55182.81
534.18	55262.39
534.35	55524.53
534.52	55330.26
534.69	55569.00
534.86	55400.48
535.03	55494.10
535.20	55372.39
535.37	55688.37
535.54	55477.72
535.71	55451.97
535.88	55728.16
536.05	55604.11
536.22	55803.05
536.38	55889.65
536.55	55908.38
536.72	55978.59
536.89	55894.33
537.06	56090.94
537.23	56184.56
537.40	55870.93
537.57	56044.13
537.74	55810.07
537.91	56088.60
538.08	56039.45
538.25	56058.17
538.42	56219.67
538.59	56430.32
538.75	56224.35
538.92	56245.41
539.09	56355.42
539.26	56315.63
539.43	56236.05
539.60	56556.70
539.77	56507.55
539.94	56671.39
540.11	56353.08
540.28	56683.09
540.44	56577.77
540.61	56755.65
540.78	56603.52
540.95	56610.54
541.12	56638.62
541.29	56893.74
541.46	56973.32
541.62	56996.73
541.79	57113.75
541.96	56502.87
542.13	56917.15
542.30	56970.98
542.47	57174.61
542.63	57038.86
542.80	57111.41
542.97	57453.13
543.14	57275.25
543.31	57563.14
543.48	57640.37
543.64	57738.68
543.81	57556.11
543.98	57558.45
544.15	57696.55
544.32	57764.42
544.48	57851.02
544.65	57532.71
544.82	57661.44
544.99	57439.09
545.16	57530.37
545.32	57715.27
545.49	57888.47
545.66	57822.93
545.83	57928.26
546.00	57762.08
546.16	58101.46
546.33	57954.00
546.50	57975.07
546.67	57886.13
546.83	57602.92
547.00	57968.05
547.17	58103.80
547.34	58085.07
547.50	58314.45
547.67	58326.15
547.84	57963.37
548.00	58323.81
548.17	58541.48
548.34	58269.98
548.51	58525.10
548.67	58569.57
548.84	58230.19
549.01	58326.15
549.18	58461.90
549.34	58632.76
549.51	58396.37
549.68	58489.99
549.84	58604.67
550.01	58560.20
550.18	58457.22
550.34	58628.08
550.51	58656.17
550.68	58630.42
550.84	58595.31
551.01	58775.53
551.18	58679.57
551.34	58850.43
551.51	58979.16
551.68	58953.41
551.84	58841.07
552.01	58820.00
552.18	59070.44
552.34	58855.11
552.51	59110.23
552.68	58747.45
552.84	59009.59
553.01	59171.08
553.18	59114.91
553.34	59112.57
553.51	58915.96
553.67	59049.38
553.84	59159.38
554.01	59337.26
554.17	59391.09
554.34	59157.04
554.51	59128.95
554.67	59267.05
554.84	59201.51
555.00	59372.37
555.17	59182.79
555.33	59199.17
555.50	59056.40
555.67	59370.03
555.83	59440.24
556.00	59365.35
556.16	59707.07
556.33	59463.65
556.50	59306.83
556.66	59632.17
556.83	59433.22
556.99	59505.78
557.16	59831.11
557.32	59784.30
557.49	59948.14
557.65	59496.42
557.82	59580.68
557.98	59421.52
558.15	59688.34
558.32	59714.09
558.48	59531.53
558.65	59772.60
558.81	59608.76
558.98	59812.39
559.14	59803.03
559.31	59973.89
559.47	60004.31
559.64	60109.64
559.80	60018.36
559.97	59938.78
560.13	59683.66
560.30	59948.14
560.46	59966.87
560.63	59992.61
560.79	60027.72
560.96	60123.68
561.12	60130.70
561.29	59962.18
561.45	60086.23
561.61	60102.62
561.78	59927.08
561.94	60210.28
562.11	60083.89
562.27	59990.27
562.44	60142.41
562.60	60219.64
562.77	60205.60
562.93	60076.87
563.10	60324.97
563.26	60151.77
563.42	60320.29
563.59	60257.09
563.75	60285.18
563.92	60285.18
564.08	60369.44
564.24	60353.05
564.41	60219.64
564.57	60315.61
564.74	60088.57
564.90	60470.08
565.07	60261.77
565.23	60357.74
565.39	60355.39
565.56	60437.31
565.72	60388.16
565.88	60418.59
566.05	60413.91
566.21	60388.16
566.38	60530.93
566.54	60556.68
566.70	60678.39
566.87	60839.89
567.03	60444.33
567.19	60636.26
567.36	60601.15
567.52	60399.86
567.68	60800.10
567.85	60617.53
568.01	60610.51
568.17	60528.59
568.34	60640.94
568.50	60622.22
568.66	60570.72
568.83	60589.45
568.99	60451.36
569.15	60577.75
569.32	60676.05
569.48	60690.09
569.64	60725.20
569.81	60837.54
569.97	60615.19
570.13	60807.12
570.30	60629.24
570.46	60811.80
570.62	60814.14
570.78	60954.57
570.95	60767.33
571.11	60839.89
571.27	60748.60
571.43	60786.05
571.60	60985.00
571.76	60741.58
571.92	60970.96
572.09	60797.76
572.25	60996.70
572.41	60804.78
572.57	60853.93
572.74	60992.02
572.90	60872.65
573.06	60938.19
573.22	60905.42
573.38	60940.53
573.55	60882.02
573.71	60999.04
573.87	60919.46
574.03	60867.97
574.20	60837.54
574.36	60676.05
574.52	61020.11
574.68	61092.66
574.84	61003.72
575.01	61151.18
575.17	60898.40
575.33	60877.33
575.49	60863.29
575.65	60928.83
575.82	60977.98
575.98	61083.30
576.14	61373.53
576.30	60842.23
576.46	61109.05
576.62	60870.31
576.79	61055.21
576.95	60872.65
577.11	61043.51
577.27	61041.17
577.43	61179.26
577.59	60933.51
577.75	60942.87
577.92	60830.52
578.08	61006.06
578.24	61118.41
578.40	61031.81
578.56	61167.56
578.72	61078.62
578.88	61303.31
579.04	61144.16
579.21	61059.90
579.37	61261.18
579.53	61300.97
579.69	60931.17
579.85	61029.47
580.01	61193.31
580.17	61118.41
580.33	61254.16
580.49	61333.74
580.65	61106.71
580.82	61109.05
580.98	61219.05
581.14	61024.79
581.30	61092.66
581.46	61202.67
581.62	61172.24
581.78	60985.00
581.94	61137.13
582.10	61155.86
582.26	61256.50
582.42	61118.41
582.58	61020.11
582.74	61123.09
582.90	61265.86
583.06	61099.68
583.22	61113.73
583.38	61183.94
583.54	61141.81
583.70	61148.84
583.86	61279.91
584.02	60992.02
584.18	61286.93
584.34	61087.98
584.50	61300.97
584.66	61027.13
584.82	61069.26
584.98	61418.00
585.14	61095.00
585.30	61174.58
585.46	61277.57
585.62	61282.25
585.78	61385.23
585.94	61144.16
586.10	61085.64
586.26	61254.16
586.42	61165.22
586.58	61375.87
586.74	61329.06
586.90	61368.85
587.06	61322.04
587.22	61403.95
587.38	61219.05
587.54	61485.87
587.70	61556.09
587.86	61233.10
588.02	61361.82
588.18	61263.52
588.34	61329.06
588.49	61291.61
