SpectraSuite Data File
++++++++++++++++++++++++++++++++++++
Date: Fri Oct 25 11:23:58 EDT 2013
User: price-jones
Dark Spectrum Present: No
Reference Spectrum Present: No
Number of Sampled Component Spectra: 1
Spectrometers: USB2+H05261
Integration Time (usec): 100000 (USB2+H05261)
Spectra Averaged: 1 (USB2+H05261)
Boxcar Smoothing: 0 (USB2+H05261)
Correct for Electrical Dark: No (USB2+H05261)
Strobe/Lamp Enabled: No (USB2+H05261)
Correct for Detector Non-linearity: No (USB2+H05261)
Correct for Stray Light: No (USB2+H05261)
Number of Pixels in Processed Spectrum: 2048
>>>>>Begin Processed Spectral Data<<<<<
365.73	227.03
365.92	227.03
366.12	227.03
366.32	114.69
366.52	84.26
366.72	114.69
366.91	161.50
367.11	117.03
367.31	110.01
367.51	220.01
367.70	79.58
367.90	95.96
368.10	135.75
368.30	124.05
368.49	88.94
368.69	135.75
368.89	156.82
369.09	100.64
369.28	145.11
369.48	105.32
369.68	170.86
369.87	294.91
370.07	147.45
370.27	208.31
370.47	351.08
370.66	587.47
370.86	585.13
371.06	767.70
371.25	671.73
371.45	688.12
371.65	685.78
371.84	727.91
372.04	674.07
372.24	713.86
372.44	683.44
372.63	784.08
372.83	786.42
373.03	791.10
373.22	784.08
373.42	732.59
373.62	835.57
373.81	737.27
374.01	765.36
374.21	779.40
374.40	718.54
374.60	826.21
374.79	774.72
374.99	819.19
375.19	777.06
375.38	866.00
375.58	915.15
375.78	842.59
375.97	875.36
376.17	950.26
376.37	812.17
376.56	861.32
376.76	866.00
376.95	777.06
377.15	849.61
377.35	866.00
377.54	943.24
377.74	919.83
377.93	917.49
378.13	898.77
378.33	1018.13
378.52	947.92
378.72	889.40
378.91	922.17
379.11	924.51
379.31	947.92
379.50	957.28
379.70	1008.77
379.89	973.66
380.09	945.58
380.28	936.21
380.48	1025.15
380.68	1018.13
380.87	971.32
381.07	1015.79
381.26	1029.84
381.46	922.17
381.65	964.30
381.85	1064.94
382.04	964.30
382.24	1060.26
382.43	1025.15
382.63	1004.09
382.83	1008.77
383.02	1062.60
383.22	1123.46
383.41	1158.57
383.61	1125.80
383.80	1170.27
384.00	1004.09
384.19	1165.59
384.39	1167.93
384.58	1118.78
384.78	1109.41
384.97	1179.63
385.17	1135.16
385.36	1172.61
385.56	1151.54
385.75	1172.61
385.95	1221.76
386.14	1144.52
386.34	1172.61
386.53	1121.12
386.72	1174.95
386.92	1238.14
387.11	1266.23
387.31	1156.22
387.50	1242.82
387.70	1146.86
387.89	1273.25
388.09	1254.53
388.28	1200.69
388.48	1270.91
388.67	1287.29
388.86	1291.98
389.06	1369.21
389.25	1362.19
389.45	1329.42
389.64	1296.66
389.84	1331.76
390.03	1315.38
390.22	1390.28
390.42	1366.87
390.61	1380.92
390.81	1378.58
391.00	1444.11
391.19	1406.66
391.39	1542.41
391.58	1366.87
391.78	1554.12
391.97	1514.33
392.16	1462.83
392.36	1593.90
392.55	1502.62
392.75	1495.60
392.94	1502.62
393.13	1504.96
393.33	1549.43
393.52	1603.27
393.71	1607.95
393.91	1638.38
394.10	1451.13
394.29	1547.09
394.49	1589.22
394.68	1621.99
394.88	1621.99
395.07	1624.33
395.26	1689.87
395.46	1689.87
395.65	1614.97
395.84	1762.42
396.04	1741.36
396.23	1767.10
396.42	1729.66
396.62	1701.57
396.81	1802.21
397.00	1818.60
397.19	1816.26
397.39	1746.04
397.58	1858.39
397.77	1734.34
397.97	1877.11
398.16	1874.77
398.35	1926.26
398.55	1888.81
398.74	1790.51
398.93	2017.54
399.12	1977.75
399.32	1921.58
399.51	1963.71
399.70	1935.62
399.90	2022.22
400.09	2080.74
400.28	2132.23
400.47	2001.16
400.67	2104.14
400.86	2062.01
401.05	2104.14
401.24	2127.55
401.44	2127.55
401.63	2167.34
401.82	2176.70
402.01	2165.00
402.21	2190.74
402.40	2246.91
402.59	2218.83
402.78	2118.18
402.97	2214.15
403.17	2216.49
403.36	2319.47
403.55	2317.13
403.74	2282.02
403.93	2331.17
404.13	2338.20
404.32	2462.24
404.51	2452.88
404.70	2310.11
404.89	2368.62
405.09	2487.99
405.28	2534.80
405.47	2438.84
405.66	2471.61
405.85	2607.36
406.05	2441.18
406.24	2537.14
406.43	2605.02
406.62	2588.63
406.81	2544.16
407.00	2679.91
407.20	2546.50
407.39	2733.75
407.58	2693.96
407.77	2780.56
407.96	2752.47
408.15	2710.34
408.34	2710.34
408.54	2871.84
408.73	2799.28
408.92	2789.92
409.11	2801.62
409.30	2928.01
409.49	2932.69
409.68	2953.76
409.87	2881.20
410.07	3103.55
410.26	2827.37
410.45	2897.58
410.64	2930.35
410.83	3103.55
411.02	3124.62
411.21	3229.94
411.40	3241.64
411.59	3211.22
411.78	3148.02
411.98	3077.80
412.17	3272.07
412.36	3323.56
412.55	3204.19
412.74	3325.90
412.93	3456.97
413.12	3318.88
413.31	3538.89
413.50	3438.25
413.69	3522.51
413.88	3522.51
414.07	3606.77
414.26	3655.92
414.45	3667.62
414.64	3667.62
414.83	3798.69
415.02	3747.20
415.22	3737.84
415.41	3861.88
415.60	3859.54
415.79	3957.85
415.98	4051.47
416.17	4009.34
416.36	3964.87
416.55	4081.89
416.74	4074.87
416.93	4212.96
417.12	4037.42
417.31	4212.96
417.50	4283.18
417.69	4447.02
417.88	4444.68
418.07	4294.88
418.26	4259.78
418.45	4411.91
418.64	4447.02
418.83	4451.70
419.02	4395.53
419.21	4472.76
419.39	4404.89
419.58	4479.79
419.77	4414.25
419.96	4484.47
420.15	4468.08
420.34	4540.64
420.53	4643.62
420.72	4739.58
420.91	4863.63
421.10	4732.56
421.29	4683.41
421.48	4610.86
421.67	4697.46
421.86	4814.48
422.05	4786.40
422.24	4819.16
422.43	4807.46
422.61	5041.51
422.80	4903.42
422.99	5032.15
423.18	4910.44
423.37	5039.17
423.56	4926.83
423.75	4945.55
423.94	4945.55
424.13	4678.73
424.32	4882.36
424.50	4947.89
424.69	5167.90
424.88	4990.02
425.07	4894.06
425.26	4994.70
425.45	5055.56
425.64	4880.02
425.83	5048.54
426.01	4915.12
426.20	5240.46
426.39	5064.92
426.58	4919.81
426.77	5013.43
426.96	5149.18
427.15	5088.32
427.33	5179.61
427.52	5174.92
427.71	5303.65
427.90	5195.99
428.09	5364.51
428.28	5359.83
428.46	5380.89
428.65	5224.08
428.84	5481.53
429.03	5533.03
429.22	5348.12
429.40	5430.04
429.59	5497.92
429.78	5291.95
429.97	5336.42
430.16	5568.13
430.34	5586.86
430.53	5753.04
430.72	5631.33
430.91	5591.54
431.10	5722.61
431.28	5785.80
431.47	5661.76
431.66	5933.26
431.85	5720.27
432.03	5944.96
432.22	6134.54
432.41	5802.19
432.60	5961.34
432.79	5909.85
432.97	6031.56
433.16	5975.39
433.35	6003.47
433.54	6066.67
433.72	6176.67
433.91	6040.92
434.10	6136.88
434.28	6008.16
434.47	6218.80
434.66	6427.11
434.85	6384.98
435.03	6406.05
435.22	6319.45
435.41	6478.60
435.59	6443.49
435.78	6480.94
435.97	6626.06
436.16	6462.22
436.34	6516.05
436.53	6450.52
436.72	6682.23
436.90	6399.02
437.09	6726.70
437.28	6523.07
437.46	6633.08
437.65	6862.45
437.84	6780.53
438.02	6752.45
438.21	6733.72
438.40	6609.67
438.58	7042.67
438.77	7133.95
438.96	7000.54
439.14	7185.44
439.33	7012.24
439.52	7248.64
439.70	7250.98
439.89	7206.51
440.08	7398.43
440.26	7368.01
440.45	7386.73
440.63	7459.29
440.82	7496.74
441.01	7496.74
441.19	7595.04
441.38	7808.03
441.57	7761.22
441.75	7712.07
441.94	7960.16
442.12	7847.82
442.31	8046.76
442.50	8152.09
442.68	8205.92
442.87	7988.25
443.05	8107.62
443.24	8135.70
443.43	8252.73
443.61	8278.47
443.80	8313.58
443.98	8053.78
444.17	7971.86
444.35	8135.70
444.54	8444.65
444.73	8449.33
444.91	8320.60
445.10	8566.36
445.28	8358.05
445.47	8322.94
445.65	8301.88
445.84	8482.10
446.02	8500.83
446.21	8575.72
446.39	8454.02
446.58	8599.13
446.77	8402.52
446.95	8287.84
447.14	8549.98
447.32	8486.78
447.51	8578.06
447.69	8699.77
447.88	8589.77
448.06	8470.40
448.25	8575.72
448.43	8332.31
448.62	8631.90
448.80	8477.42
448.99	8760.63
449.17	8613.17
449.36	8683.39
449.54	8812.12
449.73	8898.72
449.91	8997.02
450.10	8861.27
450.28	8748.92
450.46	9104.68
450.65	8929.14
450.83	8997.02
451.02	9092.98
451.20	9249.80
451.39	9352.78
451.57	9228.73
451.76	8884.67
451.94	9160.86
452.13	9305.97
452.31	9411.29
452.49	9167.88
452.68	9329.38
452.86	9327.03
453.05	9383.21
453.23	9397.25
453.42	9390.23
453.60	9425.34
453.78	9612.58
453.97	9579.81
454.15	9364.48
454.34	9390.23
454.52	9745.99
454.70	9661.73
454.89	9809.19
455.07	9830.25
455.26	10057.28
455.44	10111.11
455.62	9987.07
455.81	9928.55
455.99	9982.38
456.17	10214.10
456.36	9958.98
456.54	9996.43
456.73	10139.20
456.91	10576.88
457.09	10307.72
457.28	10537.09
457.46	10340.49
457.64	10628.37
457.83	10541.77
458.01	10509.01
458.19	10633.05
458.38	10700.93
458.56	10689.23
458.74	10567.52
458.93	10853.06
459.11	10815.62
459.29	10768.80
459.48	10801.57
459.66	10885.83
459.84	10949.03
460.03	11094.14
460.21	10761.78
460.39	11098.82
460.57	11105.84
460.76	10979.45
460.94	11222.87
461.12	11370.32
461.31	11103.50
461.49	11150.31
461.67	11417.13
461.85	11400.75
462.04	11199.46
462.22	11719.06
462.40	11393.73
462.59	11538.84
462.77	11562.25
462.95	11655.87
463.13	11426.50
463.32	11793.96
463.50	11751.83
463.68	11648.85
463.86	12037.38
464.05	11672.25
464.23	11641.82
464.41	11866.52
464.59	11627.78
464.78	12140.36
464.96	11971.84
465.14	11861.84
465.32	12229.30
465.50	12123.98
465.69	12170.79
465.87	12245.68
466.05	12210.57
466.23	12156.74
466.41	12219.94
466.60	12329.94
466.78	12058.44
466.96	12245.68
467.14	12528.89
467.32	12472.71
467.51	12617.83
467.69	12341.64
467.87	12346.33
468.05	12526.55
468.23	12526.55
468.41	12587.40
468.60	12821.45
468.78	12863.58
468.96	12851.88
469.14	12786.35
469.32	13008.70
469.50	12816.77
469.69	13076.57
469.87	13013.38
470.05	13062.53
470.23	13130.41
470.41	13195.94
470.59	13289.56
470.77	13046.15
470.95	13209.98
471.14	13760.01
471.32	13467.44
471.50	13549.36
471.68	13640.64
471.86	13839.59
472.04	13790.44
472.22	14052.58
472.40	13785.76
472.58	14101.73
472.77	13858.31
472.95	14197.69
473.13	14820.27
473.31	14141.52
473.49	14237.48
473.67	14155.56
473.85	14244.50
474.03	14803.89
474.21	14761.76
474.39	14860.06
474.57	14644.73
474.75	14897.51
474.93	15169.01
475.12	14993.47
475.30	15346.89
475.48	14869.42
475.66	15400.72
475.84	15117.52
476.02	15393.70
476.20	15412.43
476.38	15857.13
476.56	16030.33
476.74	15812.66
476.92	15674.57
477.10	15939.05
477.28	16348.64
477.46	16226.93
477.64	16500.78
477.82	16603.76
478.00	17083.57
478.18	16716.11
478.36	17043.78
478.54	17188.89
478.72	17025.06
478.90	17121.02
479.08	17638.28
479.26	17722.54
479.44	17933.18
479.62	18012.76
479.80	18094.68
479.98	18253.84
480.16	18829.61
480.34	18445.76
480.52	18609.60
480.70	18696.20
480.88	18513.64
481.06	18780.46
481.24	18904.51
481.41	18930.25
481.59	19293.04
481.77	19433.47
481.95	19597.31
482.13	19964.77
482.31	19440.49
482.49	20259.68
482.67	20428.20
482.85	20411.81
483.03	20666.93
483.21	20706.72
483.39	21120.99
483.57	21245.04
483.74	21240.36
483.92	21408.88
484.10	21156.10
484.28	21682.72
484.46	22082.95
484.64	22651.70
484.82	22256.15
485.00	22328.71
485.18	22618.94
485.35	22785.12
485.53	22902.14
485.71	23281.31
485.89	23360.89
486.07	23269.61
486.25	23377.27
486.43	23498.98
486.61	24006.87
486.78	24336.89
486.96	24556.90
487.14	24381.36
487.32	24870.53
487.50	24746.48
487.68	25151.40
487.85	25476.73
488.03	25589.08
488.21	25792.70
488.39	25600.78
488.57	26277.19
488.75	26244.43
488.92	26611.89
489.10	26794.45
489.28	27016.80
489.46	27204.05
489.64	27182.98
489.81	27740.03
489.99	27857.06
490.17	27768.12
490.35	28018.55
490.53	28074.73
490.70	28737.10
490.88	28439.85
491.06	28971.15
491.24	28767.52
491.41	29301.17
491.59	29362.02
491.77	29373.72
491.95	29600.76
492.13	30132.06
492.30	30211.64
492.48	29993.97
492.66	30396.54
492.84	30129.72
493.01	30499.52
493.19	30438.67
493.37	31145.51
493.54	31019.12
493.72	31393.61
493.90	31915.54
494.08	31887.46
494.25	32313.44
494.43	32128.53
494.61	32341.52
494.79	32940.70
494.96	32194.07
495.14	32912.61
495.32	33717.76
495.49	33308.16
495.67	33413.49
495.85	33373.70
496.02	33914.36
496.20	34117.99
496.38	34113.31
496.55	34192.89
496.73	34646.95
496.91	34660.99
497.09	34660.99
497.26	35112.72
497.44	35124.42
497.62	35204.00
497.79	35702.53
497.97	35807.86
498.14	35885.09
498.32	36254.90
498.50	36332.14
498.67	36428.10
498.85	36893.86
499.03	36950.04
499.20	36947.70
499.38	36943.02
499.56	37181.75
499.73	36964.08
499.91	37247.29
500.08	37865.19
500.26	37656.88
500.44	38143.71
500.61	38024.34
500.79	37928.38
500.97	38511.17
501.14	38806.08
501.32	38316.91
501.49	38576.71
501.67	38785.02
501.84	39365.47
502.02	38951.20
502.20	38969.92
502.37	39311.64
502.55	39133.76
502.72	39667.40
502.90	39885.07
503.07	39473.13
503.25	39768.04
503.43	39632.29
503.60	39945.92
503.78	40219.77
503.95	40512.33
504.13	40896.18
504.30	40870.43
504.48	40357.86
504.65	40903.20
504.83	41015.55
505.01	41319.82
505.18	41181.73
505.36	41464.93
505.53	41031.93
505.71	41521.10
505.88	41970.49
506.06	41958.78
506.23	41710.69
506.41	41951.76
506.58	42349.65
506.76	42195.18
506.93	42679.67
507.11	42340.29
507.28	42728.82
507.46	42972.24
507.63	42829.46
507.81	43164.16
507.98	43225.01
508.16	43449.70
508.33	43597.16
508.50	43569.07
508.68	43335.02
508.85	43714.19
509.03	43854.62
509.20	44360.17
509.38	43981.01
509.55	44779.13
509.73	44800.19
509.90	44591.89
510.08	44992.12
510.25	44795.51
510.42	45160.64
510.60	44999.14
510.77	45078.72
510.95	45727.05
511.12	45350.22
511.30	44952.33
511.47	45745.77
511.64	45883.86
511.82	46146.00
511.99	45937.69
512.17	46122.60
512.34	45869.82
512.51	46850.50
512.69	46609.43
512.86	46485.38
513.04	46979.23
513.21	46738.16
513.38	46855.18
513.56	47320.95
513.73	47100.94
513.90	47007.32
514.08	47098.60
514.25	47557.35
514.43	47473.09
514.60	47950.56
514.77	47199.24
514.95	48154.18
515.12	47847.57
515.29	47353.72
515.47	48098.01
515.64	48280.57
515.81	48587.18
515.99	48655.06
516.16	48589.52
516.33	48353.13
516.51	48786.13
516.68	48488.88
516.85	48587.18
517.03	48699.53
517.20	48783.79
517.37	48854.00
517.54	48648.03
517.72	48870.39
517.89	49460.20
518.06	49240.19
518.24	49172.31
518.41	49336.15
518.58	49752.77
518.75	49371.26
518.93	49649.78
519.10	49602.97
519.27	49872.14
519.45	49972.78
519.62	50052.36
519.79	50120.23
519.96	50162.36
520.14	50136.62
520.31	50408.12
520.48	50326.20
520.65	50595.36
520.83	50850.48
521.00	50698.34
521.17	51044.74
521.34	50857.50
521.52	51016.66
521.69	51040.06
521.86	51143.05
522.03	51264.75
522.20	51746.90
522.38	51468.38
522.55	51704.77
522.72	51711.80
522.89	51564.34
523.07	51868.61
523.24	51636.90
523.41	51826.48
523.58	51363.06
523.75	52137.77
523.92	51655.62
524.10	52039.47
524.27	52257.14
524.44	52039.47
524.61	52411.62
524.78	52301.61
524.96	52638.65
525.13	52240.76
525.30	52456.09
525.47	52636.31
525.64	52608.22
525.81	52762.70
525.98	52921.85
526.16	52671.42
526.33	52449.06
526.50	53059.94
526.67	52715.89
526.84	52748.65
527.01	53003.77
527.18	52973.34
527.36	53013.13
527.53	52994.41
527.70	53537.41
527.87	53591.25
528.04	53366.55
528.21	53645.08
528.38	53570.18
528.55	53544.44
528.72	53602.95
528.89	53586.57
529.07	53324.43
529.24	53614.65
529.41	53804.24
529.58	53900.20
529.75	53717.64
529.92	53965.73
530.09	53914.24
530.26	53865.09
530.43	54190.42
530.60	53785.51
530.77	54094.46
530.94	54167.02
531.11	54176.38
531.28	54387.03
531.46	54209.15
531.63	54464.27
531.80	54492.35
531.97	54703.00
532.14	54314.47
532.31	54333.20
532.48	54571.93
532.65	54892.58
532.82	54314.47
532.99	54600.02
533.16	54756.83
533.33	54703.00
533.50	55056.42
533.67	54883.22
533.84	54939.39
534.01	55096.21
534.18	55096.21
534.35	55484.74
534.52	55103.23
534.69	55072.81
534.86	55667.30
535.03	55121.96
535.20	55199.19
535.37	55426.23
535.54	55463.67
535.71	55182.81
535.88	55463.67
536.05	55267.07
536.22	55758.58
536.38	55739.86
536.55	55561.98
536.72	55943.48
536.89	55409.84
537.06	55686.03
537.23	55739.86
537.40	55730.50
537.57	55884.97
537.74	55854.54
537.91	56100.30
538.08	55894.33
538.25	55627.51
538.42	56044.13
538.59	56346.06
538.75	55870.93
538.92	56163.50
539.09	56179.88
539.26	56069.87
539.43	56037.11
539.60	56488.83
539.77	56418.61
539.94	56526.28
540.11	56315.63
540.28	56402.23
540.44	56399.89
540.61	56603.52
540.78	56425.64
540.95	56498.19
541.12	56664.37
541.29	56324.99
541.46	56589.47
541.62	56711.18
541.79	56949.92
541.96	56442.02
542.13	56554.36
542.30	56718.20
542.47	57017.79
542.63	56949.92
542.80	56814.16
542.97	57029.49
543.14	57415.68
543.31	57223.76
543.48	57350.15
543.64	57638.03
543.81	57429.72
543.98	57504.62
544.15	57549.09
544.32	57476.54
544.48	57726.97
544.65	57577.18
544.82	57705.91
544.99	57415.68
545.16	57591.22
545.32	57579.52
545.49	57846.34
545.66	57820.59
545.83	57799.53
546.00	57865.06
546.16	57698.89
546.33	57621.65
546.50	57499.94
546.67	57965.71
546.83	57574.84
547.00	57930.60
547.17	57944.64
547.34	57879.11
547.50	58265.30
547.67	58365.94
547.84	57986.77
548.00	58087.42
548.17	58389.34
548.34	58166.99
548.51	58403.39
548.67	58284.02
548.84	58342.53
549.01	58279.34
549.18	58356.58
549.34	58398.71
549.51	58450.20
549.68	58475.94
549.84	58138.91
550.01	58485.31
550.18	58396.37
550.34	58522.76
550.51	58466.58
550.68	58583.61
550.84	58342.53
551.01	58838.73
551.18	58597.65
551.34	58700.64
551.51	58688.93
551.68	58649.14
551.84	58735.74
552.01	58660.85
552.18	58805.96
552.34	58635.10
552.51	58803.62
552.68	58756.81
552.84	58681.91
553.01	59271.73
553.18	58866.81
553.34	58969.80
553.51	58871.49
553.67	58913.62
553.84	59164.06
554.01	58843.41
554.17	59173.42
554.34	59138.32
554.51	59100.87
554.67	59079.80
554.84	58908.94
555.00	59161.72
555.17	58995.54
555.33	59302.15
555.50	59103.21
555.67	59250.66
555.83	59124.27
556.00	58941.71
556.16	59578.34
556.33	59325.56
556.50	59220.23
556.66	59475.35
556.83	59161.72
556.99	59285.77
557.16	59456.63
557.32	59618.13
557.49	59732.81
557.65	59313.86
557.82	59494.08
557.98	59538.55
558.15	59428.54
558.32	59690.68
558.48	59440.24
558.65	59487.06
558.81	59686.00
558.98	59604.08
559.14	59898.99
559.31	59636.85
559.47	59732.81
559.64	59721.11
559.80	59805.37
559.97	59796.01
560.13	59882.61
560.30	59999.63
560.46	59746.86
560.63	59898.99
560.79	59732.81
560.96	60205.60
561.12	59990.27
561.29	59737.49
561.45	60102.62
561.61	59751.54
561.78	59742.17
561.94	59847.50
562.11	59994.95
562.27	60041.76
562.44	60030.06
562.60	60041.76
562.77	60137.72
562.93	60046.44
563.10	60367.10
563.26	59957.50
563.42	60095.60
563.59	60210.28
563.75	60048.78
563.92	60009.00
564.08	60072.19
564.24	60074.53
564.41	60144.75
564.57	60353.05
564.74	60285.18
564.90	60207.94
565.07	60158.79
565.23	60266.45
565.39	60179.85
565.56	60254.75
565.72	60240.71
565.88	60313.26
566.05	60114.32
566.21	60163.47
566.38	60360.08
566.54	60315.61
566.70	60549.66
566.87	60402.21
567.03	60474.76
567.19	60559.02
567.36	60334.33
567.52	60259.43
567.68	60662.00
567.85	60317.95
568.01	60547.32
568.17	60411.57
568.34	60376.46
568.50	60549.66
568.66	60406.89
568.83	60608.17
568.99	60425.61
569.15	60505.19
569.32	60472.42
569.48	60474.76
569.64	60662.00
569.81	60390.50
569.97	60587.11
570.13	60617.53
570.30	60612.85
570.46	60282.84
570.62	60505.19
570.78	60463.06
570.95	60441.99
571.11	60734.56
571.27	60566.04
571.43	60622.22
571.60	60853.93
571.76	60654.98
571.92	60662.00
572.09	60633.92
572.25	60678.39
572.41	60720.52
572.57	60683.07
572.74	60818.82
572.90	60666.69
573.06	60729.88
573.22	60687.75
573.38	60762.65
573.55	60664.35
573.71	60928.83
573.87	60879.67
574.03	60629.24
574.20	60725.20
574.36	60807.12
574.52	60874.99
574.68	60879.67
574.84	60891.38
575.01	60732.22
575.17	60720.52
575.33	60556.68
575.49	60640.94
575.65	60832.86
575.82	60933.51
575.98	60917.12
576.14	60924.14
576.30	60910.10
576.46	60884.36
576.62	60816.48
576.79	60788.39
576.95	60662.00
577.11	60924.14
577.27	61113.73
577.43	60832.86
577.59	60933.51
577.75	60802.44
577.92	60828.18
578.08	60921.80
578.24	61015.43
578.40	60994.36
578.56	60956.91
578.72	60870.31
578.88	61031.81
579.04	61102.03
579.21	60910.10
579.37	61130.11
579.53	60924.14
579.69	60987.34
579.85	61048.19
580.01	60992.02
580.17	60678.39
580.33	60935.85
580.49	61083.30
580.65	61315.01
580.82	60959.25
580.98	60718.18
581.14	60931.17
581.30	61062.24
581.46	60926.49
581.62	61003.72
581.78	60839.89
581.94	61083.30
582.10	61066.92
582.26	61022.45
582.42	60823.50
582.58	61160.54
582.74	60790.73
582.90	60968.61
583.06	61071.60
583.22	61083.30
583.38	60999.04
583.54	61015.43
583.70	61179.26
583.86	61188.63
584.02	61092.66
584.18	60994.36
584.34	61188.63
584.50	61038.83
584.66	61029.47
584.82	60959.25
584.98	61392.25
585.14	61242.46
585.30	60961.59
585.46	61153.52
585.62	61251.82
585.78	61300.97
585.94	61036.49
586.10	61022.45
586.26	61057.56
586.42	61146.50
586.58	61130.11
586.74	61123.09
586.90	61059.90
587.06	61024.79
587.22	61066.92
587.38	61291.61
587.54	61242.46
587.70	61296.29
587.86	61125.43
588.02	61151.18
588.18	61071.60
588.34	61024.79
588.49	61066.92
