SpectraSuite Data File
++++++++++++++++++++++++++++++++++++
Date: Fri Oct 25 11:26:32 EDT 2013
User: price-jones
Dark Spectrum Present: No
Reference Spectrum Present: No
Number of Sampled Component Spectra: 1
Spectrometers: USB2+H05261
Integration Time (usec): 100000 (USB2+H05261)
Spectra Averaged: 1 (USB2+H05261)
Boxcar Smoothing: 0 (USB2+H05261)
Correct for Electrical Dark: No (USB2+H05261)
Strobe/Lamp Enabled: No (USB2+H05261)
Correct for Detector Non-linearity: No (USB2+H05261)
Correct for Stray Light: No (USB2+H05261)
Number of Pixels in Processed Spectrum: 2048
>>>>>Begin Processed Spectral Data<<<<<
365.73	271.50
365.92	271.50
366.12	271.50
366.32	128.73
366.52	133.41
366.72	114.69
366.91	74.90
367.11	138.09
367.31	168.52
367.51	112.35
367.70	152.13
367.90	142.77
368.10	112.35
368.30	196.60
368.49	175.54
368.69	121.71
368.89	138.09
369.09	124.05
369.28	177.88
369.48	124.05
369.68	175.54
369.87	166.18
370.07	245.76
370.27	271.50
370.47	339.38
370.66	606.20
370.86	573.43
371.06	594.50
371.25	737.27
371.45	688.12
371.65	737.27
371.84	709.18
372.04	699.82
372.24	716.20
372.44	610.88
372.63	718.54
372.83	697.48
373.03	788.76
373.22	765.36
373.42	767.70
373.62	770.04
373.81	802.80
374.01	861.32
374.21	788.76
374.40	748.97
374.60	823.87
374.79	807.48
374.99	730.25
375.19	837.91
375.38	856.64
375.58	844.93
375.78	793.44
375.97	870.68
376.17	922.17
376.37	795.78
376.56	866.00
376.76	828.55
376.95	805.14
377.15	980.68
377.35	940.90
377.54	819.19
377.74	912.81
377.93	877.70
378.13	933.87
378.33	877.70
378.52	877.70
378.72	997.07
378.91	983.02
379.11	957.28
379.31	922.17
379.50	940.90
379.70	980.68
379.89	1015.79
380.09	964.30
380.28	964.30
380.48	1041.54
380.68	987.71
380.87	1011.11
381.07	1139.84
381.26	1027.50
381.46	1015.79
381.65	1032.18
381.85	1048.56
382.04	1118.78
382.24	1029.84
382.43	1076.65
382.63	1139.84
382.83	1043.88
383.02	1151.54
383.22	1053.24
383.41	1048.56
383.61	1177.29
383.80	1043.88
384.00	1064.94
384.19	1135.16
384.39	1207.72
384.58	1135.16
384.78	1153.88
384.97	1181.97
385.17	1132.82
385.36	1214.74
385.56	1177.29
385.75	1207.72
385.95	1193.67
386.14	1219.42
386.34	1270.91
386.53	1263.89
386.72	1203.04
386.92	1224.10
387.11	1231.12
387.31	1378.58
387.50	1163.25
387.70	1315.38
387.89	1289.64
388.09	1338.79
388.28	1390.28
388.48	1296.66
388.67	1317.72
388.86	1266.23
389.06	1263.89
389.25	1369.21
389.45	1446.45
389.64	1331.76
389.84	1355.17
390.03	1437.09
390.22	1392.62
390.42	1423.05
390.61	1404.32
390.81	1359.85
391.00	1380.92
391.19	1570.50
391.39	1434.75
391.58	1460.49
391.78	1462.83
391.97	1495.60
392.16	1486.24
392.36	1542.41
392.55	1509.65
392.75	1500.28
392.94	1584.54
393.13	1526.03
393.33	1530.71
393.52	1558.80
393.71	1575.18
393.91	1549.43
394.10	1549.43
394.29	1589.22
394.49	1617.31
394.68	1633.69
394.88	1629.01
395.07	1685.19
395.26	1722.63
395.46	1722.63
395.65	1640.72
395.84	1757.74
396.04	1830.30
396.23	1643.06
396.42	1788.17
396.62	1774.13
396.81	1809.23
397.00	1802.21
397.19	1771.79
397.39	1872.43
397.58	1872.43
397.77	1813.92
397.97	1837.32
398.16	1914.56
398.35	1909.88
398.55	1886.47
398.74	1926.26
398.93	1956.69
399.12	1942.64
399.32	1900.52
399.51	1944.99
399.70	2040.95
399.90	1874.77
400.09	1970.73
400.28	2090.10
400.47	1973.07
400.67	2104.14
400.86	2059.67
401.05	2115.84
401.24	2125.21
401.44	2193.08
401.63	2073.71
401.82	2242.23
402.01	2202.44
402.21	2258.62
402.40	2195.42
402.59	2303.09
402.78	2183.72
402.97	2317.13
403.17	2331.17
403.36	2143.93
403.55	2223.51
403.74	2356.92
403.93	2328.83
404.13	2420.11
404.32	2429.48
404.51	2406.07
404.70	2415.43
404.89	2450.54
405.09	2424.80
405.28	2520.76
405.47	2441.18
405.66	2464.58
405.85	2562.89
406.05	2642.46
406.24	2516.08
406.43	2593.31
406.62	2593.31
406.81	2612.04
407.00	2581.61
407.20	2595.65
407.39	2600.34
407.58	2698.64
407.77	2750.13
407.96	2691.62
408.15	2794.60
408.34	2700.98
408.54	2813.32
408.73	2803.96
408.92	2806.30
409.11	2890.56
409.30	2949.08
409.49	2867.16
409.68	3016.95
409.87	3014.61
410.07	3000.57
410.26	3047.38
410.45	3030.99
410.64	3012.27
410.83	3145.68
411.02	3166.74
411.21	3145.68
411.40	3091.85
411.59	3211.22
411.78	3143.34
411.98	3112.91
412.17	3187.81
412.36	3211.22
412.55	3297.81
412.74	3506.12
412.93	3379.73
413.12	3318.88
413.31	3449.95
413.50	3346.97
413.69	3510.80
413.88	3435.91
414.07	3510.80
414.26	3510.80
414.45	3604.42
414.64	3667.62
414.83	3875.93
415.02	3925.08
415.22	3812.73
415.41	3885.29
415.60	3859.54
415.79	3887.63
415.98	4042.11
416.17	4002.32
416.36	4074.87
416.55	4161.47
416.74	4095.94
416.93	4056.15
417.12	4053.81
417.31	4208.28
417.50	4325.31
417.69	4367.44
417.88	4248.07
418.07	4308.93
418.26	4217.65
418.45	4444.68
418.64	4458.72
418.83	4461.06
419.02	4409.57
419.21	4568.73
419.39	4624.90
419.58	4418.93
419.77	4561.70
419.96	4816.82
420.15	4550.00
420.34	4638.94
420.53	4615.54
420.72	4793.42
420.91	4601.49
421.10	4786.40
421.29	4936.19
421.48	4627.24
421.67	4678.73
421.86	4865.97
422.05	4903.42
422.24	4805.12
422.43	4910.44
422.61	4809.80
422.80	4858.95
422.99	4844.91
423.18	5093.01
423.37	4985.34
423.56	4880.02
423.75	4983.00
423.94	4873.00
424.13	4622.56
424.32	4779.37
424.50	5020.45
424.69	5109.39
424.88	4997.04
425.07	5039.17
425.26	4994.70
425.45	5055.56
425.64	4863.63
425.83	5057.90
426.01	5123.43
426.20	5135.14
426.39	5071.94
426.58	5097.69
426.77	5146.84
426.96	5242.80
427.15	5116.41
427.33	5200.67
427.52	5149.18
427.71	5207.69
427.90	5387.91
428.09	5383.23
428.28	5458.13
428.46	5350.46
428.65	5399.62
428.84	5472.17
429.03	5490.90
429.22	5245.14
429.40	5640.69
429.59	5540.05
429.78	5193.65
429.97	5179.61
430.16	5453.45
430.34	5593.88
430.53	5736.65
430.72	5682.82
430.91	5554.09
431.10	5757.72
431.28	5813.89
431.47	5806.87
431.66	5956.66
431.85	5846.66
432.03	5966.03
432.22	6066.67
432.41	5987.09
432.60	5914.53
432.79	6167.31
432.97	6031.56
433.16	6092.41
433.35	5977.73
433.54	5914.53
433.72	6104.12
433.91	6162.63
434.10	6139.23
434.28	6104.12
434.47	6230.51
434.66	6258.59
434.85	6377.96
435.03	6167.31
435.22	6289.02
435.41	6384.98
435.59	6370.94
435.78	6600.31
435.97	6534.78
436.16	6579.25
436.34	6434.13
436.53	6548.82
436.72	6726.70
436.90	6480.94
437.09	6607.33
437.28	6457.54
437.46	6523.07
437.65	6731.38
437.84	6663.51
438.02	6668.19
438.21	6820.32
438.40	6670.53
438.58	7110.55
438.77	6939.69
438.96	6925.65
439.14	7192.47
439.33	7220.55
439.52	7323.54
439.70	7213.53
439.89	7499.08
440.08	7433.54
440.26	7494.40
440.45	7281.41
440.63	7414.82
440.82	7515.46
441.01	7630.15
441.19	7683.98
441.38	7707.38
441.57	7822.07
441.75	7817.39
441.94	7948.46
442.12	7960.16
442.31	8037.40
442.50	8116.98
442.68	7960.16
442.87	8077.19
443.05	8205.92
443.24	8051.44
443.43	8004.63
443.61	8205.92
443.80	8402.52
443.98	8112.30
444.17	7873.56
444.35	8266.77
444.54	8280.82
444.73	8262.09
444.91	8175.49
445.10	8355.71
445.28	8411.89
445.47	8444.65
445.65	8608.49
445.84	8692.75
446.02	8540.61
446.21	8498.49
446.39	8428.27
446.58	8601.47
446.77	8566.36
446.95	8241.03
447.14	8568.70
447.32	8629.56
447.51	8655.30
447.69	8451.67
447.88	8699.77
448.06	8496.14
448.25	8454.02
448.43	8610.83
448.62	8613.17
448.80	8784.03
448.99	8718.50
449.17	8669.34
449.36	8734.88
449.54	8777.01
449.73	8943.19
449.91	8990.00
450.10	9081.28
450.28	9069.58
450.46	9046.17
450.65	9188.94
450.83	8917.44
451.02	8884.67
451.20	9397.25
451.39	9013.40
451.57	9149.15
451.76	9273.20
451.94	9177.24
452.13	9305.97
452.31	9261.50
452.49	9064.89
452.68	9186.60
452.86	9371.50
453.05	9703.86
453.23	9469.81
453.42	9324.69
453.60	9310.65
453.78	9558.75
453.97	9301.29
454.15	9533.00
454.34	9418.32
454.52	9734.29
454.70	9767.06
454.89	9846.63
455.07	9776.42
455.26	9998.77
455.44	9811.53
455.62	10078.35
455.81	9760.03
455.99	9886.42
456.17	9940.26
456.36	10029.20
456.54	10115.80
456.73	10200.05
456.91	10551.14
457.09	10258.57
457.28	10576.88
457.46	10373.25
457.64	10560.50
457.83	10609.65
458.01	10457.51
458.19	10574.54
458.38	10569.86
458.56	10710.29
458.74	10726.68
458.93	10626.03
459.11	10785.19
459.29	10939.66
459.48	10876.47
459.66	10846.04
459.84	11080.10
460.03	11052.01
460.21	10923.28
460.39	10977.11
460.57	11094.14
460.76	11136.27
460.94	11185.42
461.12	11026.26
461.31	11213.51
461.49	11396.07
461.67	11295.43
461.85	11735.45
462.04	11276.70
462.22	11440.54
462.40	11690.98
462.59	11468.62
462.77	11662.89
462.95	11737.79
463.13	11459.26
463.32	11393.73
463.50	11660.55
463.68	11765.87
463.86	11836.09
464.05	11550.54
464.23	11630.12
464.41	11969.50
464.59	11712.04
464.78	12093.55
464.96	12119.29
465.14	11714.38
465.32	12126.32
465.50	12077.16
465.69	12255.04
465.87	12348.67
466.05	12236.32
466.23	12238.66
466.41	12503.14
466.60	12496.12
466.78	12009.29
466.96	12407.18
467.14	12203.55
467.32	12561.66
467.51	12491.44
467.69	12168.45
467.87	12442.29
468.05	12594.42
468.23	12449.31
468.41	12556.97
468.60	12613.15
468.78	12784.01
468.96	12718.47
469.14	12877.63
469.32	12870.61
469.50	12542.93
469.69	13060.19
469.87	13144.45
470.05	13081.25
470.23	13177.22
470.41	13097.64
470.59	13357.44
470.77	13224.03
470.95	13399.57
471.14	13497.87
471.32	13177.22
471.50	13554.04
471.68	13570.43
471.86	13635.96
472.04	13605.53
472.22	13907.46
472.40	13631.28
472.58	13741.29
472.77	14017.47
472.95	14314.72
473.13	14717.29
473.31	14157.90
473.49	14221.10
473.67	14181.31
473.85	14160.24
474.03	14537.07
474.21	14700.90
474.39	14904.53
474.57	14843.68
474.75	14981.77
474.93	15063.69
475.12	15084.75
475.30	15178.37
475.48	15159.65
475.66	15337.53
475.84	15080.07
476.02	15176.03
476.20	15396.04
476.38	15594.99
476.56	15936.71
476.74	15749.46
476.92	15840.75
477.10	15672.23
477.28	15941.39
477.46	16273.74
477.64	16421.20
477.82	16552.27
478.00	17207.62
478.18	16783.98
478.36	16753.55
478.54	17032.08
478.72	17259.11
478.90	17174.85
479.08	17525.93
479.26	17846.58
479.44	17706.15
479.62	17865.31
479.80	18115.75
479.98	18249.16
480.16	18602.58
480.34	18286.61
480.52	18735.99
480.70	18523.00
480.88	18616.62
481.06	18841.31
481.24	18834.29
481.41	19180.69
481.59	19204.10
481.77	19477.94
481.95	19489.64
482.13	19819.66
482.31	19501.34
482.49	20142.65
482.67	20353.30
482.85	20393.09
483.03	20638.84
483.21	20627.14
483.39	21003.97
483.57	20725.44
483.74	21135.04
483.92	21483.78
484.10	21270.79
484.28	21839.54
484.46	22125.08
484.64	22480.85
484.82	21949.54
485.00	22499.57
485.18	22867.03
485.35	23302.37
485.53	22998.10
485.71	22733.62
485.89	23660.48
486.07	23487.28
486.25	23339.82
486.43	23821.97
486.61	23964.75
486.78	24025.60
486.96	24346.25
487.14	24088.79
487.32	24552.22
487.50	24833.08
487.68	24479.66
487.85	25371.41
488.03	25497.80
488.21	25853.56
488.39	25851.22
488.57	25970.58
488.75	26160.17
488.92	26562.74
489.10	26719.56
489.28	26787.43
489.46	26991.06
489.64	26754.66
489.81	27735.35
489.99	27709.60
490.17	27917.91
490.35	28114.52
490.53	28364.95
490.70	28657.52
490.88	28306.44
491.06	29195.84
491.24	28655.18
491.41	28917.32
491.59	29013.28
491.77	29331.59
491.95	29593.73
492.13	29820.77
492.30	30441.01
492.48	30181.21
492.66	30167.16
492.84	30300.58
493.01	30822.51
493.19	30677.40
493.37	30993.37
493.54	31218.07
493.72	31337.43
493.90	31402.97
494.08	31608.93
494.25	32053.64
494.43	31871.07
494.61	32041.93
494.79	32437.48
494.96	32664.52
495.14	32610.68
495.32	33179.43
495.49	33118.58
495.67	33350.29
495.85	33626.48
496.02	34246.72
496.20	34490.13
496.38	34265.44
496.55	33935.43
496.73	34731.21
496.91	34756.96
497.09	34799.08
497.26	34696.10
497.44	34785.04
497.62	35309.32
497.79	36048.93
497.97	35592.53
498.14	36395.33
498.32	36070.00
498.50	36182.34
498.67	36378.95
498.85	36980.46
499.03	36772.16
499.20	36392.99
499.38	37092.81
499.56	37057.70
499.73	37034.30
499.91	37549.21
500.08	37680.28
500.26	37329.20
500.44	37963.49
500.61	37488.36
500.79	37434.53
500.97	37755.18
501.14	38361.38
501.32	38024.34
501.49	38780.34
501.67	38607.14
501.84	38796.72
502.02	39049.50
502.20	39140.78
502.37	39236.74
502.55	39037.80
502.72	39615.91
502.90	39608.89
503.07	39173.55
503.25	39835.92
503.43	39709.53
503.60	40025.50
503.78	40282.96
503.95	40179.98
504.13	40411.69
504.30	40676.17
504.48	40730.00
504.65	41113.85
504.83	40964.06
505.01	41457.91
505.18	41191.09
505.36	41390.03
505.53	41329.18
505.71	41743.45
505.88	41881.55
506.06	41727.07
506.23	42319.23
506.41	41886.23
506.58	42183.48
506.76	42424.55
506.93	42686.69
507.11	42511.15
507.28	42417.53
507.46	42604.77
507.63	43100.97
507.81	42799.04
507.98	43145.44
508.16	42628.18
508.33	43452.05
508.50	43608.86
508.68	43695.46
508.85	43775.04
509.03	43835.89
509.20	43868.66
509.38	44428.05
509.55	44240.81
509.73	44240.81
509.90	44238.47
510.08	44247.83
510.25	44481.88
510.42	44886.79
510.60	45242.56
510.77	45308.09
510.95	45944.72
511.12	45006.16
511.30	45165.32
511.47	45560.87
511.64	45406.39
511.82	45745.77
511.99	45628.74
512.17	45933.01
512.34	45921.31
512.51	46241.96
512.69	46202.18
512.86	46473.68
513.04	46791.99
513.21	46885.61
513.38	46536.87
513.56	47007.32
513.73	46717.09
513.90	47147.75
514.08	46759.22
514.25	47253.08
514.43	47887.36
514.60	47164.14
514.77	47700.12
514.95	47852.25
515.12	47241.37
515.29	47533.94
515.47	47765.65
515.64	48666.76
515.81	47536.28
515.99	48203.33
516.16	48334.40
516.33	48210.35
516.51	48729.95
516.68	48570.80
516.85	48421.00
517.03	48952.30
517.20	48633.99
517.37	48523.99
517.54	48774.42
517.72	49191.04
517.89	49151.25
518.06	49141.89
518.24	49055.29
518.41	49310.41
518.58	49336.15
518.75	49127.84
518.93	49712.98
519.10	49638.08
519.27	49539.78
519.45	49701.28
519.62	49930.65
519.79	50033.63
519.96	50014.91
520.14	50183.43
520.31	50068.74
520.48	50518.12
520.65	50443.23
520.83	50817.71
521.00	50894.95
521.17	50574.30
521.34	50829.41
521.52	50789.62
521.69	50796.65
521.86	50951.12
522.03	51000.27
522.20	51798.40
522.38	51765.63
522.55	51704.77
522.72	51323.27
522.89	51049.42
523.07	51519.87
523.24	51550.30
523.41	51683.71
523.58	51040.06
523.75	52030.11
523.92	51615.83
524.10	51980.96
524.27	51819.46
524.44	52048.83
524.61	52196.29
524.78	52252.46
524.96	52252.46
525.13	51877.97
525.30	52435.02
525.47	52390.55
525.64	52512.26
525.81	52818.87
525.98	52364.81
526.16	52631.63
526.33	52624.60
526.50	52762.70
526.67	52905.47
526.84	52863.34
527.01	52760.36
527.18	52776.74
527.36	53041.22
527.53	53085.69
527.70	53427.41
527.87	53612.31
528.04	53111.44
528.21	53263.57
528.38	53551.46
528.55	53811.26
528.72	53595.93
528.89	53626.35
529.07	53272.93
529.24	53319.74
529.41	53710.61
529.58	53624.01
529.75	53724.66
529.92	53844.02
530.09	53853.39
530.26	53874.45
530.43	53975.09
530.60	53797.21
530.77	54019.56
530.94	54068.72
531.11	53970.41
531.28	54094.46
531.46	54122.55
531.63	54314.47
531.80	54569.59
531.97	54202.13
532.14	54309.79
532.31	54452.56
532.48	54588.31
532.65	54351.92
532.82	54499.37
532.99	54660.87
533.16	54555.55
533.33	55070.46
533.50	54904.29
533.67	54838.75
533.84	54855.14
534.01	54600.02
534.18	54944.08
534.35	55189.83
534.52	55161.75
534.69	55222.60
534.86	55412.18
535.03	55208.56
535.20	55250.69
535.37	55323.24
535.54	55437.93
535.71	55274.09
535.88	55683.69
536.05	55583.04
536.22	55716.45
536.38	55765.60
536.55	55791.35
536.72	55533.89
536.89	55271.75
537.06	55611.13
537.23	55877.95
537.40	55442.61
537.57	55840.50
537.74	55952.85
537.91	56147.11
538.08	55700.07
538.25	55861.57
538.42	56147.11
538.59	56065.19
538.75	56114.34
538.92	55835.82
539.09	56285.20
539.26	56381.16
539.43	56083.92
539.60	56322.65
539.77	56189.24
539.94	56545.00
540.11	56278.18
540.28	56456.06
540.44	56310.95
540.61	56474.79
540.78	56327.33
540.95	56332.01
541.12	56561.39
541.29	56474.79
541.46	56484.15
541.62	56839.91
541.79	56823.53
541.96	56516.92
542.13	56516.92
542.30	56818.84
542.47	56839.91
542.63	57078.64
542.80	56938.21
542.97	57057.58
543.14	57209.71
543.31	57111.41
543.48	57162.90
543.64	57368.87
543.81	57392.28
543.98	57375.89
544.15	57478.88
544.32	57406.32
544.48	57279.93
544.65	57542.07
544.82	57513.98
544.99	57291.63
545.16	57614.63
545.32	57523.35
545.49	57684.84
545.66	57698.89
545.83	57712.93
546.00	57518.67
546.16	57726.97
546.33	57649.74
546.50	57415.68
546.67	57673.14
546.83	57455.47
547.00	57729.31
547.17	57661.44
547.34	57951.66
547.50	57684.84
547.67	58216.14
547.84	58042.95
548.00	58129.54
548.17	58377.64
548.34	58054.65
548.51	58302.74
548.67	58178.70
548.84	58117.84
549.01	58026.56
549.18	57949.32
549.34	58239.55
549.51	58391.68
549.68	58321.47
549.84	58288.70
550.01	58389.34
550.18	58042.95
550.34	58485.31
550.51	58515.73
550.68	58468.92
550.84	58370.62
551.01	58534.46
551.18	58368.28
551.34	58618.72
551.51	58628.08
551.68	58599.99
551.84	58487.65
552.01	58436.16
552.18	58855.11
552.34	58492.33
552.51	58752.13
552.68	58731.06
552.84	58808.30
553.01	58932.35
553.18	58548.50
553.34	58904.26
553.51	58869.15
553.67	58871.49
553.84	59044.69
554.01	58904.26
554.17	59016.61
554.34	59051.72
554.51	59030.65
554.67	59250.66
554.84	59021.29
555.00	59121.93
555.17	58979.16
555.33	59110.23
555.50	58906.60
555.67	59056.40
555.83	59072.78
556.00	59157.04
556.16	59353.65
556.33	59133.63
556.50	59201.51
556.66	59421.52
556.83	59100.87
556.99	59430.88
557.16	59606.42
557.32	59583.02
557.49	59592.38
557.65	59365.35
557.82	59302.15
557.98	59576.00
558.15	59398.12
558.32	59433.22
558.48	59423.86
558.65	59433.22
558.81	59601.74
558.98	59519.82
559.14	59510.46
559.31	59634.51
559.47	59868.56
559.64	59629.83
559.80	59690.68
559.97	59758.56
560.13	59676.64
560.30	59732.81
560.46	59730.47
560.63	59650.89
560.79	59561.95
560.96	59840.48
561.12	59838.14
561.29	59690.68
561.45	59938.78
561.61	59863.88
561.78	59821.75
561.94	59683.66
562.11	59934.10
562.27	60048.78
562.44	59824.09
562.60	59983.25
562.77	59908.35
562.93	59690.68
563.10	59838.14
563.26	59973.89
563.42	60313.26
563.59	59917.71
563.75	60119.00
563.92	60121.34
564.08	60041.76
564.24	60161.13
564.41	60207.94
564.57	60116.66
564.74	60233.69
564.90	60128.36
565.07	59922.40
565.23	60095.60
565.39	59957.50
565.56	60229.01
565.72	60193.90
565.88	60224.32
566.05	60341.35
566.21	60111.98
566.38	60310.92
566.54	60083.89
566.70	60404.55
566.87	60292.20
567.03	60259.43
567.19	60294.54
567.36	60280.50
567.52	60219.64
567.68	60406.89
567.85	60453.70
568.01	60446.68
568.17	60240.71
568.34	60423.27
568.50	60182.19
568.66	60472.42
568.83	60544.98
568.99	60376.46
569.15	60577.75
569.32	60322.63
569.48	60437.31
569.64	60596.47
569.81	60406.89
569.97	60247.73
570.13	60320.29
570.30	60512.21
570.46	60369.44
570.62	60474.76
570.78	60519.23
570.95	60608.17
571.11	60467.74
571.27	60500.51
571.43	60420.93
571.60	60629.24
571.76	60512.21
571.92	60657.32
572.09	60516.89
572.25	60505.19
572.41	60708.82
572.57	60559.02
572.74	60786.05
572.90	60535.62
573.06	60664.35
573.22	60659.66
573.38	60505.19
573.55	60530.93
573.71	60566.04
573.87	60591.79
574.03	60423.27
574.20	60825.84
574.36	60596.47
574.52	60853.93
574.68	60760.31
574.84	60987.34
575.01	60687.75
575.17	60790.73
575.33	60729.88
575.49	60491.15
575.65	60769.67
575.82	60804.78
575.98	60762.65
576.14	60963.93
576.30	60886.70
576.46	60666.69
576.62	60755.63
576.79	60601.15
576.95	60514.55
577.11	60725.20
577.27	61066.92
577.43	60851.59
577.59	60846.91
577.75	60743.92
577.92	60692.43
578.08	60797.76
578.24	60650.30
578.40	61017.77
578.56	60942.87
578.72	60690.09
578.88	60985.00
579.04	61202.67
579.21	60863.29
579.37	61216.71
579.53	61024.79
579.69	60589.45
579.85	60910.10
580.01	60835.20
580.17	60706.47
580.33	60921.80
580.49	61015.43
580.65	60879.67
580.82	60889.04
580.98	60830.52
581.14	60926.49
581.30	61111.39
581.46	60809.46
581.62	60720.52
581.78	60750.94
581.94	60982.66
582.10	60842.23
582.26	60970.96
582.42	60949.89
582.58	61095.00
582.74	60956.91
582.90	60853.93
583.06	60945.21
583.22	60956.91
583.38	61003.72
583.54	61006.06
583.70	60959.25
583.86	61120.75
584.02	61106.71
584.18	61087.98
584.34	61151.18
584.50	60966.27
584.66	60870.31
584.82	60764.99
584.98	61087.98
585.14	61095.00
585.30	60949.89
585.46	60980.32
585.62	60842.23
585.78	61118.41
585.94	60973.30
586.10	60921.80
586.26	60987.34
586.42	61226.07
586.58	61158.20
586.74	60898.40
586.90	60823.50
587.06	61045.85
587.22	61020.11
587.38	60903.08
587.54	61303.31
587.70	61151.18
587.86	61214.37
588.02	60994.36
588.18	61389.91
588.34	60987.34
588.49	61104.37
