SpectraSuite Data File
++++++++++++++++++++++++++++++++++++
Date: Fri Oct 25 11:25:04 EDT 2013
User: price-jones
Dark Spectrum Present: No
Reference Spectrum Present: No
Number of Sampled Component Spectra: 1
Spectrometers: USB2+H05261
Integration Time (usec): 100000 (USB2+H05261)
Spectra Averaged: 1 (USB2+H05261)
Boxcar Smoothing: 0 (USB2+H05261)
Correct for Electrical Dark: No (USB2+H05261)
Strobe/Lamp Enabled: No (USB2+H05261)
Correct for Detector Non-linearity: No (USB2+H05261)
Correct for Stray Light: No (USB2+H05261)
Number of Pixels in Processed Spectrum: 2048
>>>>>Begin Processed Spectral Data<<<<<
365.73	285.55
365.92	285.55
366.12	285.55
366.32	114.69
366.52	126.39
366.72	222.35
366.91	182.56
367.11	161.50
367.31	88.94
367.51	86.60
367.70	170.86
367.90	131.07
368.10	84.26
368.30	142.77
368.49	170.86
368.69	173.20
368.89	227.03
369.09	107.66
369.28	241.08
369.48	149.79
369.68	201.29
369.87	180.22
370.07	189.58
370.27	198.95
370.47	292.57
370.66	526.62
370.86	580.45
371.06	657.69
371.25	688.12
371.45	641.31
371.65	636.63
371.84	734.93
372.04	683.44
372.24	786.42
372.44	629.60
372.63	774.72
372.83	788.76
373.03	798.12
373.22	772.38
373.42	758.33
373.62	753.65
373.81	748.97
374.01	807.48
374.21	798.12
374.40	887.06
374.60	823.87
374.79	791.10
374.99	723.23
375.19	713.86
375.38	851.96
375.58	821.53
375.78	851.96
375.97	882.38
376.17	957.28
376.37	793.44
376.56	875.36
376.76	844.93
376.95	849.61
377.15	884.72
377.35	823.87
377.54	866.00
377.74	968.98
377.93	905.79
378.13	901.11
378.33	1027.50
378.52	898.77
378.72	922.17
378.91	910.47
379.11	945.58
379.31	943.24
379.50	976.00
379.70	952.60
379.89	1006.43
380.09	915.15
380.28	947.92
380.48	983.02
380.68	1095.37
380.87	973.66
381.07	978.34
381.26	1048.56
381.46	1032.18
381.65	1149.20
381.85	1043.88
382.04	1048.56
382.24	1022.81
382.43	1050.90
382.63	1027.50
382.83	1130.48
383.02	1053.24
383.22	1062.60
383.41	1071.97
383.61	1181.97
383.80	1170.27
384.00	1076.65
384.19	1097.71
384.39	1144.52
384.58	1170.27
384.78	1060.26
384.97	1198.35
385.17	1156.22
385.36	1174.95
385.56	1123.46
385.75	1233.46
385.95	1200.69
386.14	1231.12
386.34	1191.33
386.53	1228.78
386.72	1163.25
386.92	1268.57
387.11	1313.04
387.31	1261.55
387.50	1277.93
387.70	1275.59
387.89	1277.93
388.09	1392.62
388.28	1254.53
388.48	1228.78
388.67	1310.70
388.86	1313.04
389.06	1380.92
389.25	1327.08
389.45	1324.74
389.64	1352.83
389.84	1247.51
390.03	1404.32
390.22	1423.05
390.42	1343.47
390.61	1392.62
390.81	1376.24
391.00	1366.87
391.19	1481.56
391.39	1500.28
391.58	1392.62
391.78	1441.77
391.97	1537.73
392.16	1455.81
392.36	1514.33
392.55	1530.71
392.75	1533.05
392.94	1497.94
393.13	1591.56
393.33	1519.01
393.52	1605.61
393.71	1617.31
393.91	1584.54
394.10	1572.84
394.29	1647.74
394.49	1549.43
394.68	1631.35
394.88	1603.27
395.07	1633.69
395.26	1776.47
395.46	1689.87
395.65	1750.72
395.84	1659.44
396.04	1811.57
396.23	1743.70
396.42	1659.44
396.62	1708.59
396.81	1729.66
397.00	1689.87
397.19	1816.26
397.39	1741.36
397.58	1926.26
397.77	1778.81
397.97	1832.64
398.16	1832.64
398.35	1823.28
398.55	1923.92
398.74	1956.69
398.93	2005.84
399.12	1788.17
399.32	1820.94
399.51	1984.77
399.70	2008.18
399.90	1858.39
400.09	2017.54
400.28	2113.50
400.47	2134.57
400.67	2054.99
400.86	2139.25
401.05	2078.40
401.24	2054.99
401.44	2153.29
401.63	2169.68
401.82	2094.78
402.01	2141.59
402.21	2160.31
402.40	2216.49
402.59	2193.08
402.78	2228.19
402.97	2289.04
403.17	2335.85
403.36	2303.09
403.55	2380.32
403.74	2314.79
403.93	2492.67
404.13	2300.75
404.32	2394.37
404.51	2471.61
404.70	2354.58
404.89	2319.47
405.09	2413.09
405.28	2448.20
405.47	2466.92
405.66	2558.21
405.85	2520.76
406.05	2450.54
406.24	2478.63
406.43	2502.03
406.62	2619.06
406.81	2663.53
407.00	2506.71
407.20	2487.99
407.39	2722.04
407.58	2658.85
407.77	2700.98
407.96	2747.79
408.15	2605.02
408.34	2719.70
408.54	2754.81
408.73	2789.92
408.92	2754.81
409.11	2782.90
409.30	2946.73
409.49	2928.01
409.68	2979.50
409.87	2813.32
410.07	2986.52
410.26	3033.33
410.45	3014.61
410.64	3045.04
410.83	3014.61
411.02	3103.55
411.21	3159.72
411.40	3199.51
411.59	3159.72
411.78	3117.59
411.98	3356.33
412.17	3248.66
412.36	3365.69
412.55	3220.58
412.74	3571.66
412.93	3365.69
413.12	3440.59
413.31	3562.30
413.50	3473.36
413.69	3515.48
413.88	3646.55
414.07	3595.06
414.26	3618.47
414.45	3691.02
414.64	3557.61
414.83	3660.60
415.02	3887.63
415.22	3901.67
415.41	3967.21
415.60	3817.41
415.79	3955.51
415.98	3911.04
416.17	3936.78
416.36	4016.36
416.55	4030.40
416.74	4011.68
416.93	4046.79
417.12	4187.22
417.31	4212.96
417.50	4187.22
417.69	4208.28
417.88	4149.77
418.07	4212.96
418.26	4201.26
418.45	4332.33
418.64	4444.68
418.83	4306.59
419.02	4372.12
419.21	4423.61
419.39	4463.40
419.58	4521.92
419.77	4526.60
419.96	4493.83
420.15	4648.30
420.34	4454.04
420.53	4582.77
420.72	4688.09
420.91	4613.20
421.10	4734.90
421.29	4706.82
421.48	4594.47
421.67	4688.09
421.86	4802.78
422.05	4882.36
422.24	4713.84
422.43	4847.25
422.61	4774.69
422.80	4926.83
422.99	4943.21
423.18	4957.25
423.37	4905.76
423.56	4961.94
423.75	4887.04
423.94	4777.03
424.13	4631.92
424.32	4830.87
424.50	5036.83
424.69	5261.52
424.88	5022.79
425.07	4901.08
425.26	4924.49
425.45	4952.57
425.64	5095.35
425.83	4943.21
426.01	5111.73
426.20	5027.47
426.39	5102.37
426.58	4945.55
426.77	4994.70
426.96	5074.28
427.15	4931.51
427.33	5268.55
427.52	5156.20
427.71	5188.97
427.90	5231.10
428.09	5282.59
428.28	5242.80
428.46	5341.10
428.65	5362.17
428.84	5530.69
429.03	5474.51
429.22	5416.00
429.40	5584.52
429.59	5460.47
429.78	5205.35
429.97	5219.39
430.16	5507.28
430.34	5666.44
430.53	5640.69
430.72	5579.84
430.91	5591.54
431.10	5685.16
431.28	5530.69
431.47	5856.02
431.66	5771.76
431.85	5432.38
432.03	5909.85
432.22	6040.92
432.41	5891.13
432.60	5874.74
432.79	5888.79
432.97	5975.39
433.16	6118.16
433.35	6012.84
433.54	6033.90
433.72	6134.54
433.91	6139.23
434.10	6225.82
434.28	6094.76
434.47	6092.41
434.66	6244.55
434.85	6310.08
435.03	6333.49
435.22	6155.61
435.41	6480.94
435.59	6476.26
435.78	6331.15
435.97	6384.98
436.16	6581.59
436.34	6347.53
436.53	6530.09
436.72	6740.74
436.90	6574.56
437.09	6600.31
437.28	6534.78
437.46	6363.92
437.65	6740.74
437.84	6857.77
438.02	6551.16
438.21	6825.00
438.40	6715.00
438.58	6890.54
438.77	6972.46
438.96	6944.37
439.14	7227.57
439.33	7096.50
439.52	7143.32
439.70	7253.32
439.89	7342.26
440.08	7545.89
440.26	7480.35
440.45	7360.98
440.63	7410.14
440.82	7695.68
441.01	7581.00
441.19	7581.00
441.38	7791.64
441.57	7749.51
441.75	7789.30
441.94	7936.76
442.12	7754.19
442.31	7971.86
442.50	7969.52
442.68	7901.65
442.87	7861.86
443.05	8004.63
443.24	8159.11
443.43	8294.86
443.61	8035.06
443.80	8559.34
443.98	7922.71
444.17	7847.82
444.35	8149.75
444.54	8500.83
444.73	8219.96
444.91	8201.24
445.10	8243.37
445.28	8381.46
445.47	8259.75
445.65	8208.26
445.84	8451.67
446.02	8409.54
446.21	8528.91
446.39	8425.93
446.58	8224.64
446.77	8454.02
446.95	8131.02
447.14	8465.72
447.32	8496.14
447.51	8629.56
447.69	8566.36
447.88	8533.59
448.06	8568.70
448.25	8503.17
448.43	8444.65
448.62	8568.70
448.80	8580.40
448.99	8760.63
449.17	8826.16
449.36	8737.22
449.54	8748.92
449.73	9018.08
449.91	9006.38
450.10	8905.74
450.28	9406.61
450.46	8952.55
450.65	8865.95
450.83	9081.28
451.02	9118.73
451.20	9207.67
451.39	8865.95
451.57	8978.30
451.76	9071.92
451.94	9055.53
452.13	9312.99
452.31	9123.41
452.49	9128.09
452.68	9390.23
452.86	9228.73
453.05	9577.47
453.23	9427.68
453.42	9336.40
453.60	9198.31
453.78	9427.68
453.97	9451.08
454.15	9535.34
454.34	9434.70
454.52	9626.62
454.70	9652.37
454.89	9504.92
455.07	9713.22
455.26	9640.67
455.44	9806.84
455.62	10040.90
455.81	9973.02
455.99	10026.86
456.17	10008.13
456.36	10066.64
456.54	10235.16
456.73	10361.55
456.91	10513.69
457.09	10558.16
457.28	10464.54
457.46	10476.24
457.64	10300.70
457.83	10377.94
458.01	10190.69
458.19	10623.69
458.38	10520.71
458.56	10555.82
458.74	10635.39
458.93	10609.65
459.11	10764.12
459.29	10780.51
459.48	10785.19
459.66	10499.64
459.84	10771.15
460.03	11105.84
460.21	10832.00
460.39	11267.34
460.57	11187.76
460.76	11318.83
460.94	11330.53
461.12	11257.98
461.31	11023.92
461.49	10937.32
461.67	11222.87
461.85	11281.38
462.04	11108.18
462.22	11885.24
462.40	11602.04
462.59	11700.34
462.77	11492.03
462.95	11538.84
463.13	11531.82
463.32	11754.17
463.50	11651.19
463.68	11805.66
463.86	11803.32
464.05	11744.81
464.23	11609.06
464.41	11873.54
464.59	11550.54
464.78	12269.09
464.96	11934.39
465.14	11847.79
465.32	11882.90
465.50	11887.58
465.69	12098.23
465.87	12276.11
466.05	12154.40
466.23	12138.02
466.41	12121.63
466.60	12451.65
466.78	12269.09
466.96	11953.12
467.14	12006.95
467.32	12184.83
467.51	12571.02
467.69	12039.72
467.87	12264.41
468.05	12631.87
468.23	12381.43
468.41	12409.52
468.60	12533.57
468.78	12849.54
468.96	12697.41
469.14	12847.20
469.32	12954.87
469.50	12746.56
469.69	12805.07
469.87	13046.15
470.05	12915.08
470.23	13207.64
470.41	12996.99
470.59	13259.13
470.77	13247.43
470.95	13165.51
471.14	13610.22
471.32	12774.64
471.50	13535.32
471.68	13657.03
471.86	13624.26
472.04	13504.89
472.22	14335.78
472.40	13612.56
472.58	13877.04
472.77	13790.44
472.95	14033.85
473.13	14562.81
473.31	13942.57
473.49	14134.50
473.67	14008.11
473.85	14314.72
474.03	14626.01
474.21	14890.49
474.39	14768.78
474.57	14665.80
474.75	14733.67
474.93	14974.75
475.12	14977.09
475.30	15171.35
475.48	14857.72
475.66	15344.55
475.84	15101.14
476.02	15447.54
476.20	15012.20
476.38	15562.22
476.56	15936.71
476.74	15786.91
476.92	15782.23
477.10	15934.37
477.28	16191.83
477.46	16149.70
477.64	16397.79
477.82	16362.69
478.00	16814.41
478.18	16753.55
478.36	16924.41
478.54	16996.97
478.72	17329.33
478.90	16964.20
479.08	17434.65
479.26	17689.77
479.44	17919.14
479.62	17984.68
479.80	18071.28
479.98	17965.95
480.16	18450.44
480.34	18139.15
480.52	18515.98
480.70	18623.64
480.88	18586.19
481.06	18616.62
481.24	18869.40
481.41	19058.98
481.59	19304.74
481.77	19445.17
481.95	19791.57
482.13	20013.92
482.31	19709.65
482.49	20135.63
482.67	20425.86
482.85	20294.79
483.03	20367.34
483.21	20357.98
483.39	20800.34
483.57	21008.65
483.74	21188.87
483.92	21137.38
484.10	20828.43
484.28	21703.79
484.46	22176.58
484.64	22324.03
484.82	22050.19
485.00	22286.58
485.18	22728.94
485.35	22782.77
485.53	22740.64
485.71	23037.89
485.89	23414.72
486.07	23154.92
486.25	23241.52
486.43	23751.76
486.61	23681.54
486.78	24006.87
486.96	24217.52
487.14	24304.12
487.32	24362.64
487.50	24929.05
487.68	24884.58
487.85	25439.28
488.03	25340.98
488.21	25645.25
488.39	25757.60
488.57	25989.31
488.75	25951.86
488.92	26235.06
489.10	26836.58
489.28	26527.63
489.46	27213.41
489.64	27498.95
489.81	27520.02
489.99	27557.47
490.17	27749.39
490.35	28233.88
490.53	27985.79
490.70	28425.81
490.88	28240.90
491.06	28898.59
491.24	28772.21
491.41	28879.87
491.59	29296.49
491.77	29294.14
491.95	29734.17
492.13	29855.87
492.30	29867.58
492.48	30204.61
492.66	30314.62
492.84	30295.89
493.01	30642.29
493.19	30663.36
493.37	30785.07
493.54	30972.31
493.72	31557.44
493.90	31253.17
494.08	31885.12
494.25	32009.17
494.43	32236.20
494.61	31810.22
494.79	32191.73
494.96	32507.70
495.14	32666.86
495.32	33191.14
495.49	32966.45
495.67	33036.66
495.85	33380.72
496.02	33415.83
496.20	34117.99
496.38	34265.44
496.55	34445.66
496.73	34873.98
496.91	34054.79
497.09	34403.53
497.26	34630.57
497.44	35168.89
497.62	35531.67
497.79	35637.00
497.97	35145.48
498.14	35915.52
498.32	36306.39
498.50	36065.31
498.67	36662.15
498.85	36301.71
499.03	36559.17
499.20	36390.65
499.38	36795.56
499.56	37062.38
499.73	36989.83
499.91	37193.45
500.08	37823.06
500.26	36989.83
500.44	37738.80
500.61	37731.78
500.79	37537.51
500.97	38178.82
501.14	38263.08
501.32	38349.68
501.49	38492.45
501.67	38625.86
501.84	39005.03
502.02	38417.55
502.20	38955.88
502.37	39456.75
502.55	39290.57
502.72	39037.80
502.90	39196.95
503.07	39377.17
503.25	39700.17
503.43	39751.66
503.60	39676.76
503.78	39997.41
503.95	40065.29
504.13	40013.80
504.30	40456.16
504.48	40343.81
504.65	40814.26
504.83	40748.73
505.01	41273.01
505.18	40973.42
505.36	41588.98
505.53	41076.40
505.71	41397.06
505.88	42054.75
506.06	41191.09
506.23	41530.47
506.41	41752.82
506.58	42244.33
506.76	42167.09
506.93	42380.08
507.11	42227.95
507.28	42656.26
507.46	42890.32
507.63	42759.25
507.81	42974.58
507.98	42906.70
508.16	43107.99
508.33	43295.23
508.50	43377.15
508.68	43716.53
508.85	43629.93
509.03	43550.35
509.20	44004.41
509.38	44318.04
509.55	44835.30
509.73	44631.68
509.90	45015.52
510.08	44425.71
510.25	44807.22
510.42	44554.44
510.60	45001.48
510.77	44947.65
510.95	45294.05
511.12	44861.05
511.30	44631.68
511.47	45570.23
511.64	45268.30
511.82	45921.31
511.99	45287.03
512.17	46291.12
512.34	45794.92
512.51	46431.55
512.69	46497.08
512.86	45951.74
513.04	46866.89
513.21	46555.60
513.38	46710.07
513.56	46719.43
513.73	46672.62
513.90	46951.15
514.08	46735.82
514.25	47075.19
514.43	47482.45
514.60	47407.55
514.77	47440.32
514.95	47779.70
515.12	47342.02
515.29	47435.64
515.47	47831.19
515.64	47927.15
515.81	47807.78
515.99	48467.81
516.16	48254.82
516.33	48165.88
516.51	48369.51
516.68	48631.65
516.85	48481.86
517.03	48921.88
517.20	48540.37
517.37	48832.94
517.54	49069.33
517.72	48715.91
517.89	49095.08
518.06	49059.97
518.24	49366.58
518.41	49155.93
518.58	49511.69
518.75	49242.53
518.93	49663.83
519.10	49366.58
519.27	49820.64
519.45	49434.45
519.62	49832.35
519.79	49734.04
519.96	50209.17
520.14	50059.38
520.31	49944.69
520.48	50232.58
520.65	50312.16
520.83	50653.87
521.00	50932.40
521.17	50574.30
521.34	50529.83
521.52	50588.34
521.69	50777.92
521.86	51014.32
522.03	51391.14
522.20	51100.92
522.38	51466.04
522.55	51161.77
522.72	51351.35
522.89	51559.66
523.07	51461.36
523.24	51480.08
523.41	51971.60
523.58	51227.31
523.75	51948.19
523.92	51503.49
524.10	51758.61
524.27	52121.39
524.44	51793.71
524.61	52163.52
524.78	51962.23
524.96	52067.56
525.13	52458.43
525.30	52336.72
525.47	52498.22
525.64	52350.76
525.81	52502.90
525.98	52914.83
526.16	52552.05
526.33	52615.24
526.50	52928.87
526.67	52978.03
526.84	52893.77
527.01	53069.31
527.18	52652.69
527.36	52879.72
527.53	52940.58
527.70	53525.71
527.87	53118.46
528.04	52999.09
528.21	53298.68
528.38	53230.80
528.55	53687.21
528.72	53256.55
528.89	53652.10
529.07	53291.66
529.24	53319.74
529.41	53567.84
529.58	53766.79
529.75	53265.91
529.92	53528.05
530.09	53769.13
530.26	53752.74
530.43	54019.56
530.60	53778.49
530.77	53724.66
530.94	54026.59
531.11	54169.36
531.28	53956.37
531.46	54120.21
531.63	54223.19
531.80	54272.34
531.97	54520.44
532.14	54323.83
532.31	54375.33
532.48	54197.44
532.65	54440.86
532.82	54295.75
532.99	54557.89
533.16	54443.20
533.33	54602.36
533.50	54777.90
533.67	54787.26
533.84	54574.27
534.01	54869.18
534.18	54930.03
534.35	55220.26
534.52	54864.50
534.69	55082.17
534.86	55257.71
535.03	54901.95
535.20	55051.74
535.37	55253.03
535.54	55381.76
535.71	55042.38
535.88	55267.07
536.05	55405.16
536.22	55618.15
536.38	55828.80
536.55	55686.03
536.72	55833.48
536.89	55477.72
537.06	55449.63
537.23	55938.80
537.40	55728.16
537.57	55877.95
537.74	55676.66
537.91	55992.64
538.08	55842.84
538.25	55660.28
538.42	56013.70
538.59	56229.03
538.75	55643.90
538.92	56172.86
539.09	56205.62
539.26	56041.79
539.43	56140.09
539.60	56116.68
539.77	56140.09
539.94	56530.96
540.11	56420.95
540.28	56514.58
540.44	56327.33
540.61	56322.65
540.78	56409.25
540.95	56324.99
541.12	56243.07
541.29	56385.85
541.46	56491.17
541.62	56638.62
541.79	56467.76
541.96	56364.78
542.13	56432.66
542.30	56664.37
542.47	56727.56
542.63	56877.36
542.80	56729.90
542.97	57078.64
543.14	57221.42
543.31	57219.08
543.48	57282.27
543.64	57488.24
543.81	57403.98
543.98	57256.53
544.15	57364.19
544.32	57310.36
544.48	57602.92
544.65	57329.08
544.82	57212.06
544.99	56961.62
545.16	57623.99
545.32	57352.49
545.49	57535.05
545.66	57558.45
545.83	57626.33
546.00	57689.52
546.16	57588.88
546.33	57467.17
546.50	57502.28
546.67	57806.55
546.83	57411.00
547.00	57698.89
547.17	57633.35
547.34	57794.85
547.50	57890.81
547.67	57984.43
547.84	57930.60
548.00	58094.44
548.17	57970.39
548.34	57879.11
548.51	58302.74
548.67	58248.91
548.84	58005.50
549.01	58045.29
549.18	58150.61
549.34	58391.68
549.51	58284.02
549.68	58284.02
549.84	58377.64
550.01	58298.06
550.18	58185.72
550.34	58305.09
550.51	58452.54
550.68	58321.47
550.84	58183.38
551.01	58529.78
551.18	58653.82
551.34	58599.99
551.51	58501.69
551.68	58686.59
551.84	58520.41
552.01	58284.02
552.18	58724.04
552.34	58410.41
552.51	58679.57
552.68	58700.64
552.84	58599.99
553.01	58878.52
553.18	58873.84
553.34	58752.13
553.51	58892.56
553.67	59004.91
553.84	58887.88
554.01	58810.64
554.17	59063.42
554.34	58937.03
554.51	58859.79
554.67	59194.49
554.84	58726.38
555.00	58922.99
555.17	58864.47
555.33	59089.16
555.50	58951.07
555.67	59131.29
555.83	58960.44
556.00	58941.71
556.16	59309.18
556.33	59208.53
556.50	59213.21
556.66	59318.54
556.83	59152.36
556.99	59255.34
557.16	59316.20
557.32	59554.93
557.49	59704.73
557.65	59187.47
557.82	59215.55
557.98	59449.61
558.15	59395.77
558.32	59454.29
558.48	59468.33
558.65	59510.46
558.81	59302.15
558.98	59468.33
559.14	59531.53
559.31	59407.48
559.47	59571.32
559.64	59568.97
559.80	59728.13
559.97	59587.70
560.13	59540.89
560.30	59681.32
560.46	59770.26
560.63	59784.30
560.79	59821.75
560.96	59646.21
561.12	59688.34
561.29	59805.37
561.45	59683.66
561.61	59721.11
561.78	59611.10
561.94	59751.54
562.11	59662.60
562.27	59854.52
562.44	60055.81
562.60	59945.80
562.77	59894.31
562.93	59976.23
563.10	60306.24
563.26	59969.21
563.42	60292.20
563.59	60133.04
563.75	59889.63
563.92	60041.76
564.08	59976.23
564.24	60184.54
564.41	60041.76
564.57	60226.66
564.74	60151.77
564.90	59903.67
565.07	60126.02
565.23	60051.12
565.39	60313.26
565.56	60200.92
565.72	60226.66
565.88	60121.34
566.05	60140.07
566.21	60177.51
566.38	60221.98
566.54	60252.41
566.70	60205.60
566.87	60193.90
567.03	60114.32
567.19	60280.50
567.36	60196.24
567.52	60418.59
567.68	60636.26
567.85	60327.31
568.01	60441.99
568.17	60308.58
568.34	60439.65
568.50	60289.86
568.66	60381.14
568.83	60453.70
568.99	60463.06
569.15	60299.22
569.32	60350.71
569.48	60458.38
569.64	60523.91
569.81	60310.92
569.97	60320.29
570.13	60439.65
570.30	60275.82
570.46	60350.71
570.62	60329.65
570.78	60444.33
570.95	60530.93
571.11	60470.08
571.27	60465.40
571.43	60381.14
571.60	60575.40
571.76	60467.74
571.92	60446.68
572.09	60474.76
572.25	60659.66
572.41	60505.19
572.57	60779.03
572.74	60743.92
572.90	60409.23
573.06	60493.49
573.22	60678.39
573.38	60601.15
573.55	60402.21
573.71	60774.35
573.87	60750.94
574.03	60605.83
574.20	60666.69
574.36	60669.03
574.52	60720.52
574.68	60662.00
574.84	60856.27
575.01	60886.70
575.17	60985.00
575.33	60563.70
575.49	60603.49
575.65	60844.57
575.82	60858.61
575.98	60935.85
576.14	60795.42
576.30	60779.03
576.46	60617.53
576.62	60755.63
576.79	60802.44
576.95	60694.77
577.11	60769.67
577.27	60722.86
577.43	60697.11
577.59	60671.37
577.75	60523.91
577.92	60748.60
578.08	60750.94
578.24	60788.39
578.40	60884.36
578.56	60924.14
578.72	60867.97
578.88	60985.00
579.04	61006.06
579.21	60846.91
579.37	60924.14
579.53	60914.78
579.69	60718.18
579.85	60647.96
580.01	60842.23
580.17	60879.67
580.33	60814.14
580.49	60856.27
580.65	61015.43
580.82	60921.80
580.98	60802.44
581.14	60851.59
581.30	61102.03
581.46	60793.07
581.62	60851.59
581.78	60701.79
581.94	60762.65
582.10	60872.65
582.26	60898.40
582.42	60928.83
582.58	60858.61
582.74	60961.59
582.90	60874.99
583.06	60821.16
583.22	60757.97
583.38	60692.43
583.54	60867.97
583.70	61083.30
583.86	61027.13
584.02	60786.05
584.18	60872.65
584.34	60931.17
584.50	60832.86
584.66	60882.02
584.82	60776.69
584.98	61052.87
585.14	61085.64
585.30	60823.50
585.46	61062.24
585.62	61076.28
585.78	61010.74
585.94	60772.01
586.10	61073.94
586.26	61001.38
586.42	61237.78
586.58	61134.79
586.74	60832.86
586.90	60968.61
587.06	61010.74
587.22	61041.17
587.38	61132.45
587.54	61193.31
587.70	61212.03
587.86	61045.85
588.02	61073.94
588.18	60956.91
588.34	61106.71
588.49	61109.05
