SpectraSuite Data File
++++++++++++++++++++++++++++++++++++
Date: Fri Oct 25 11:34:05 EDT 2013
User: price-jones
Dark Spectrum Present: No
Reference Spectrum Present: No
Number of Sampled Component Spectra: 1
Spectrometers: USB2+H05261
Integration Time (usec): 100000 (USB2+H05261)
Spectra Averaged: 1 (USB2+H05261)
Boxcar Smoothing: 0 (USB2+H05261)
Correct for Electrical Dark: No (USB2+H05261)
Strobe/Lamp Enabled: No (USB2+H05261)
Correct for Detector Non-linearity: No (USB2+H05261)
Correct for Stray Light: No (USB2+H05261)
Number of Pixels in Processed Spectrum: 2048
>>>>>Begin Processed Spectral Data<<<<<
365.73	273.84
365.92	273.84
366.12	273.84
366.32	191.92
366.52	175.54
366.72	187.24
366.91	203.63
367.11	173.20
367.31	147.45
367.51	163.84
367.70	182.56
367.90	217.67
368.10	273.84
368.30	147.45
368.49	156.82
368.69	173.20
368.89	184.90
369.09	138.09
369.28	220.01
369.48	222.35
369.68	229.37
369.87	184.90
370.07	156.82
370.27	257.46
370.47	348.74
370.66	454.06
370.86	519.60
371.06	557.05
371.25	573.43
371.45	498.53
371.65	538.32
371.84	543.00
372.04	514.92
372.24	620.24
372.44	547.69
372.63	571.09
372.83	566.41
373.03	578.11
373.22	578.11
373.42	543.00
373.62	674.07
373.81	610.88
374.01	641.31
374.21	737.27
374.40	681.10
374.60	615.56
374.79	655.35
374.99	634.29
375.19	678.76
375.38	711.52
375.58	692.80
375.78	692.80
375.97	634.29
376.17	753.65
376.37	692.80
376.56	653.01
376.76	645.99
376.95	662.37
377.15	657.69
377.35	641.31
377.54	624.92
377.74	713.86
377.93	620.24
378.13	655.35
378.33	713.86
378.52	664.71
378.72	737.27
378.91	737.27
379.11	739.61
379.31	655.35
379.50	706.84
379.70	798.12
379.89	704.50
380.09	676.41
380.28	650.67
380.48	774.72
380.68	730.25
380.87	650.67
381.07	671.73
381.26	748.97
381.46	835.57
381.65	751.31
381.85	795.78
382.04	702.16
382.24	720.88
382.43	713.86
382.63	727.91
382.83	788.76
383.02	786.42
383.22	800.46
383.41	709.18
383.61	734.93
383.80	786.42
384.00	819.19
384.19	840.25
384.39	823.87
384.58	800.46
384.78	755.99
384.97	821.53
385.17	849.61
385.36	823.87
385.56	784.08
385.75	861.32
385.95	861.32
386.14	870.68
386.34	919.83
386.53	849.61
386.72	880.04
386.92	877.70
387.11	901.11
387.31	978.34
387.50	940.90
387.70	908.13
387.89	842.59
388.09	910.47
388.28	877.70
388.48	933.87
388.67	1034.52
388.86	882.38
389.06	905.79
389.25	961.96
389.45	875.36
389.64	917.49
389.84	919.83
390.03	898.77
390.22	875.36
390.42	943.24
390.61	961.96
390.81	1011.11
391.00	940.90
391.19	997.07
391.39	1001.75
391.58	931.53
391.78	1011.11
391.97	936.21
392.16	976.00
392.36	1029.84
392.55	1015.79
392.75	1034.52
392.94	950.26
393.13	1025.15
393.33	1069.62
393.52	1069.62
393.71	1097.71
393.91	1090.69
394.10	1149.20
394.29	1064.94
394.49	1071.97
394.68	1081.33
394.88	1104.73
395.07	1153.88
395.26	1107.07
395.46	1184.31
395.65	1184.31
395.84	1135.16
396.04	1228.78
396.23	1212.40
396.42	1193.67
396.62	1235.80
396.81	1256.87
397.00	1083.67
397.19	1212.40
397.39	1109.41
397.58	1238.14
397.77	1196.01
397.97	1299.00
398.16	1242.82
398.35	1193.67
398.55	1315.38
398.74	1259.21
398.93	1205.38
399.12	1315.38
399.32	1240.48
399.51	1275.59
399.70	1345.81
399.90	1357.51
400.09	1303.68
400.28	1322.40
400.47	1376.24
400.67	1350.49
400.86	1371.55
401.05	1322.40
401.24	1324.74
401.44	1406.66
401.63	1406.66
401.82	1423.05
402.01	1411.34
402.21	1476.88
402.40	1458.15
402.59	1460.49
402.78	1530.71
402.97	1357.51
403.17	1451.13
403.36	1540.07
403.55	1554.12
403.74	1509.65
403.93	1579.86
404.13	1582.20
404.32	1568.16
404.51	1584.54
404.70	1603.27
404.89	1647.74
405.09	1673.48
405.28	1664.12
405.47	1605.61
405.66	1682.85
405.85	1650.08
406.05	1682.85
406.24	1827.96
406.43	1598.59
406.62	1816.26
406.81	1853.70
407.00	1741.36
407.20	1764.76
407.39	1774.13
407.58	1872.43
407.77	1874.77
407.96	1820.94
408.15	1839.66
408.34	1806.89
408.54	1881.79
408.73	1874.77
408.92	1975.41
409.11	1830.30
409.30	1989.46
409.49	1809.23
409.68	1989.46
409.87	1884.13
410.07	1961.37
410.26	2003.50
410.45	2031.58
410.64	2026.90
410.83	2001.16
411.02	2076.06
411.21	2157.97
411.40	2239.89
411.59	2122.87
411.78	2085.42
411.98	2162.66
412.17	2197.76
412.36	2249.25
412.55	2214.15
412.74	2354.58
412.93	2324.15
413.12	2155.63
413.31	2464.58
413.50	2249.25
413.69	2469.27
413.88	2478.63
414.07	2326.49
414.26	2497.35
414.45	2525.44
414.64	2473.95
414.83	2520.76
415.02	2513.74
415.22	2546.50
415.41	2569.91
415.60	2586.29
415.79	2579.27
415.98	2715.02
416.17	2668.21
416.36	2612.04
416.55	2773.53
416.74	2810.98
416.93	2829.71
417.12	2759.49
417.31	2843.75
417.50	2839.07
417.69	2825.03
417.88	2895.24
418.07	2928.01
418.26	2841.41
418.45	2974.82
418.64	3023.97
418.83	3002.91
419.02	2942.05
419.21	2988.86
419.39	3045.04
419.58	3084.83
419.77	3026.31
419.96	3021.63
420.15	3173.77
420.34	3126.96
420.53	3269.73
420.72	3164.40
420.91	3152.70
421.10	3063.76
421.29	3234.62
421.48	3192.49
421.67	3220.58
421.86	3281.43
422.05	3138.66
422.24	3316.54
422.43	3328.24
422.61	3239.30
422.80	3356.33
422.99	3316.54
423.18	3239.30
423.37	3426.54
423.56	3279.09
423.75	3323.56
423.94	3342.28
424.13	3136.32
424.32	3248.66
424.50	3372.71
424.69	3419.52
424.88	3328.24
425.07	3349.31
425.26	3307.18
425.45	3349.31
425.64	3281.43
425.83	3290.79
426.01	3410.16
426.20	3384.41
426.39	3449.95
426.58	3361.01
426.77	3400.80
426.96	3391.44
427.15	3581.02
427.33	3543.57
427.52	3503.78
427.71	3609.11
427.90	3534.21
428.09	3522.51
428.28	3616.13
428.46	3620.81
428.65	3625.49
428.84	3669.96
429.03	3735.50
429.22	3609.11
429.40	3721.45
429.59	3576.34
429.78	3461.65
429.97	3550.59
430.16	3627.83
430.34	3693.37
430.53	3864.22
430.72	3850.18
430.91	3847.84
431.10	3845.50
431.28	3889.97
431.47	3843.16
431.66	3885.29
431.85	3805.71
432.03	3997.64
432.22	4173.18
432.41	4084.23
432.60	3955.51
432.79	3990.61
432.97	4058.49
433.16	4018.70
433.35	4084.23
433.54	4145.09
433.72	4212.96
433.91	4109.98
434.10	4159.13
434.28	4191.90
434.47	4152.11
434.66	4287.86
434.85	4222.33
435.03	4229.35
435.22	4189.56
435.41	4407.23
435.59	4292.54
435.78	4358.08
435.97	4191.90
436.16	4306.59
436.34	4348.72
436.53	4411.91
436.72	4449.36
436.90	4315.95
437.09	4454.04
437.28	4423.61
437.46	4500.85
437.65	4664.69
437.84	4622.56
438.02	4496.17
438.21	4641.28
438.40	4512.55
438.58	4650.64
438.77	4706.82
438.96	4564.04
439.14	4739.58
439.33	4833.21
439.52	4861.29
439.70	4816.82
439.89	4880.02
440.08	4870.65
440.26	4865.97
440.45	4903.42
440.63	5111.73
440.82	5186.63
441.01	5167.90
441.19	5172.58
441.38	5373.87
441.57	5097.69
441.75	5107.05
441.94	5303.65
442.12	5338.76
442.31	5345.78
442.50	5453.45
442.68	5313.02
442.87	5329.40
443.05	5371.53
443.24	5540.05
443.43	5324.72
443.61	5413.66
443.80	5678.14
443.98	5313.02
444.17	5359.83
444.35	5523.66
444.54	5682.82
444.73	5549.41
444.91	5359.83
445.10	5554.09
445.28	5640.69
445.47	5481.53
445.65	5628.99
445.84	5596.22
446.02	5795.17
446.21	5619.63
446.39	5547.07
446.58	5521.32
446.77	5776.44
446.95	5511.96
447.14	5614.95
447.32	5729.63
447.51	5612.60
447.69	5743.67
447.88	5675.80
448.06	5488.56
448.25	5729.63
448.43	5790.49
448.62	5713.25
448.80	5729.63
448.99	5743.67
449.17	5851.34
449.36	5870.06
449.54	5841.98
449.73	5877.09
449.91	6008.16
450.10	6022.20
450.28	6087.73
450.46	6134.54
450.65	5912.19
450.83	6080.71
451.02	5991.77
451.20	6216.46
451.39	6064.33
451.57	6146.25
451.76	6019.86
451.94	6045.60
452.13	6141.57
452.31	6160.29
452.49	6087.73
452.68	6289.02
452.86	6202.42
453.05	6207.10
453.23	6319.45
453.42	6186.04
453.60	6246.89
453.78	6298.38
453.97	6218.80
454.15	6251.57
454.34	6368.60
454.52	6448.18
454.70	6380.30
454.89	6443.49
455.07	6511.37
455.26	6464.56
455.44	6595.63
455.62	6487.96
455.81	6520.73
455.99	6558.18
456.17	6539.46
456.36	6558.18
456.54	6782.87
456.73	6626.06
456.91	6827.34
457.09	6848.41
457.28	6995.86
457.46	6920.96
457.64	6864.79
457.83	7000.54
458.01	6771.17
458.19	7138.63
458.38	6963.09
458.56	7108.21
458.74	6960.75
458.93	7075.44
459.11	7124.59
459.29	7077.78
459.48	7030.97
459.66	7197.15
459.84	7103.53
460.03	7365.67
460.21	7295.45
460.39	7246.30
460.57	7314.17
460.76	7482.69
460.94	7379.71
461.12	7356.30
461.31	7260.34
461.49	7414.82
461.67	7325.88
461.85	7489.71
462.04	7213.53
462.22	7824.41
462.40	7772.92
462.59	7534.18
462.77	7672.28
462.95	7688.66
463.13	7578.65
463.32	7581.00
463.50	7866.54
463.68	7634.83
463.86	7793.98
464.05	7555.25
464.23	7840.79
464.41	7737.81
464.59	7875.90
464.78	8002.29
464.96	7920.37
465.14	7737.81
465.32	7878.24
465.50	8051.44
465.69	8035.06
465.87	7964.84
466.05	8058.46
466.23	8126.34
466.41	8042.08
466.60	8231.66
466.78	8081.87
466.96	7854.84
467.14	8011.65
467.32	8191.88
467.51	8088.89
467.69	8095.91
467.87	8156.77
468.05	8194.22
468.23	8327.63
468.41	8124.00
468.60	8339.33
468.78	8409.54
468.96	8353.37
469.14	8449.33
469.32	8418.91
469.50	8423.59
469.69	8493.80
469.87	8383.80
470.05	8528.91
470.23	8692.75
470.41	8657.64
470.59	8936.17
470.77	8615.51
470.95	8599.13
471.14	8940.85
471.32	8805.10
471.50	8781.69
471.68	8926.80
471.86	8882.33
472.04	8924.46
472.22	9221.71
472.40	9191.28
472.58	9305.97
472.77	9341.08
472.95	9336.40
473.13	9631.30
473.31	9224.05
473.49	9338.74
473.67	9465.13
473.85	9247.46
474.03	9561.09
474.21	9603.22
474.39	9575.13
474.57	9685.14
474.75	9703.86
474.93	9816.21
475.12	9708.54
475.30	9753.01
475.48	9682.80
475.66	10022.17
475.84	9996.43
476.02	9963.66
476.20	9895.78
476.38	10132.18
476.56	10363.89
476.74	10181.33
476.92	10148.56
477.10	10455.17
477.28	10546.45
477.46	10410.70
477.64	10497.30
477.82	10752.42
478.00	11286.06
478.18	11098.82
478.36	11040.31
478.54	11066.05
478.72	11206.48
478.90	10993.50
479.08	11545.86
479.26	11566.93
479.44	11407.77
479.62	11578.63
479.80	11499.05
479.98	11815.02
480.16	12030.35
480.34	12135.68
480.52	12121.63
480.70	12016.31
480.88	11976.52
481.06	12093.55
481.24	12257.39
481.41	12468.03
481.59	12442.29
481.77	12858.90
481.95	12760.60
482.13	12753.58
482.31	12685.70
482.49	13069.55
482.67	12994.65
482.85	13296.58
483.03	13373.82
483.21	13366.80
483.39	13572.77
483.57	13650.00
483.74	13652.34
483.92	13881.72
484.10	13575.11
484.28	14136.84
484.46	14373.23
484.64	14366.21
484.82	14003.43
485.00	14406.00
485.18	14520.68
485.35	14820.27
485.53	14789.85
485.71	14977.09
485.89	15136.24
486.07	14974.75
486.25	15131.56
486.43	15169.01
486.61	15279.02
486.78	15616.05
486.96	15604.35
487.14	15679.25
487.32	15906.28
487.50	16114.59
487.68	16135.65
487.85	16360.34
488.03	16592.06
488.21	16435.24
488.39	16631.85
488.57	16762.92
488.75	16952.50
488.92	17095.27
489.10	16994.63
489.28	17046.12
489.46	17549.34
489.64	17575.08
489.81	18136.81
489.99	18005.74
490.17	18031.49
490.35	18022.12
490.53	18197.67
490.70	18551.09
490.88	18412.99
491.06	18558.11
491.24	18513.64
491.41	18693.86
491.59	18937.27
491.77	18656.41
491.95	18967.70
492.13	19339.85
492.30	19445.17
492.48	19218.14
492.66	19316.44
492.84	19351.55
493.01	19733.06
493.19	19957.75
493.37	19714.33
493.54	19894.55
493.72	19939.02
493.90	20018.60
494.08	20336.91
494.25	20472.67
494.43	20671.61
494.61	20802.68
494.79	20896.30
494.96	21043.76
495.14	21137.38
495.32	21352.71
495.49	21507.18
495.67	21153.76
495.85	21701.45
496.02	21729.53
496.20	21984.65
496.38	21614.85
496.55	22113.38
496.73	22342.75
496.91	22146.15
497.09	22527.66
497.26	22544.04
497.44	22520.63
497.62	22647.02
497.79	23295.35
497.97	22836.61
498.14	23037.89
498.32	23400.68
498.50	23126.83
498.67	23335.14
498.85	23531.75
499.03	23503.66
499.20	23527.06
499.38	23821.97
499.56	23906.23
499.73	24257.31
499.91	24126.24
500.08	24226.89
500.26	24339.23
500.44	24348.59
500.61	24610.73
500.79	24599.03
500.97	24397.74
501.14	25055.43
501.32	24905.64
501.49	24929.05
501.67	24746.48
501.84	25301.19
502.02	25022.67
502.20	25179.48
502.37	24999.26
502.55	25525.88
502.72	25443.96
502.90	25722.49
503.07	25226.29
503.25	25460.35
503.43	25392.47
503.60	25785.68
503.78	25940.16
503.95	25607.80
504.13	26122.72
504.30	26529.97
504.48	26139.10
504.65	26483.16
504.83	26363.79
505.01	26867.01
505.18	26391.88
505.36	26827.22
505.53	26696.15
505.71	26995.74
505.88	27267.24
506.06	26733.60
506.23	27318.73
506.41	26977.01
506.58	27276.60
506.76	27110.43
506.93	27557.47
507.11	27501.29
507.28	27690.88
507.46	27491.93
507.63	27770.46
507.81	27978.76
507.98	27747.05
508.16	27819.61
508.33	28285.37
508.50	28276.01
508.68	28081.75
508.85	28444.53
509.03	28428.15
509.20	28327.50
509.38	28795.61
509.55	28713.69
509.73	28725.39
509.90	29039.03
510.08	28723.05
510.25	28821.36
510.42	29223.93
510.60	29060.09
510.77	29200.52
510.95	29682.67
511.12	29352.66
511.30	29535.22
511.47	29778.64
511.64	29347.98
511.82	29848.85
511.99	29902.68
512.17	29909.71
512.34	29825.45
512.51	29900.34
512.69	30211.64
512.86	30300.58
513.04	30352.07
513.21	30333.34
513.38	30333.34
513.56	30597.82
513.73	30682.08
513.90	30920.82
514.08	30602.50
514.25	30665.70
514.43	31234.45
514.60	30602.50
514.77	31405.31
514.95	31386.58
515.12	31297.64
515.29	31227.43
515.47	31367.86
515.64	31571.49
515.81	31400.63
515.99	31405.31
516.16	32058.32
516.33	31981.08
516.51	31964.70
516.68	31845.33
516.85	31655.75
517.03	32140.24
517.20	32217.47
517.37	32151.94
517.54	32144.92
517.72	32187.05
517.89	32142.58
518.06	32203.43
518.24	32634.09
518.41	32182.37
518.58	32591.96
518.75	32496.00
518.93	32753.46
519.10	32610.68
519.27	32828.35
519.45	33310.50
519.62	33151.35
519.79	33149.01
519.96	33177.09
520.14	33261.35
520.31	33156.03
520.48	33312.84
520.65	33060.07
520.83	33741.16
521.00	33612.43
521.17	33668.61
521.34	34054.79
521.52	33989.26
521.69	33921.38
521.86	34192.89
522.03	34272.46
522.20	34127.35
522.38	34394.17
522.55	34494.82
522.72	34476.09
522.89	34356.72
523.07	34572.05
523.24	34438.64
523.41	34780.36
523.58	34558.01
523.75	35009.73
523.92	34485.45
524.10	34883.34
524.27	34576.73
524.44	34733.55
524.61	35379.54
524.78	35035.48
524.96	35531.67
525.13	35522.31
525.30	35658.06
525.47	35321.02
525.64	35463.80
525.81	35737.64
525.98	35660.40
526.16	35435.71
526.33	35395.92
526.50	36121.49
526.67	35531.67
526.84	35672.10
527.01	36100.42
527.18	36505.34
527.36	35971.69
527.53	36282.98
527.70	36636.41
527.87	36463.21
528.04	36329.80
528.21	36376.61
528.38	36369.58
528.55	36615.34
528.72	36568.53
528.89	36816.63
529.07	36818.97
529.24	36467.89
529.41	36814.29
529.58	36842.37
529.75	36634.06
529.92	36823.65
530.09	37156.00
530.26	37392.40
530.43	37371.33
530.60	36624.70
530.77	36886.84
530.94	37254.31
531.11	36935.99
531.28	36947.70
531.46	37127.92
531.63	37427.51
531.80	37574.96
531.97	37525.81
532.14	37546.87
532.31	37666.24
532.48	37921.36
532.65	38087.54
532.82	37848.80
532.99	37715.39
533.16	37867.53
533.33	38199.88
533.50	38139.03
533.67	38342.66
533.84	37560.92
534.01	38246.69
534.18	38244.35
534.35	37909.66
534.52	38607.14
534.69	38869.28
534.86	38728.84
535.03	38567.35
535.20	38408.19
535.37	38352.02
535.54	39044.82
535.71	38651.61
535.88	39019.07
536.05	38759.27
536.22	39124.40
536.38	38656.29
536.55	39084.61
536.72	39428.66
536.89	38424.57
537.06	38675.01
537.23	39339.72
537.40	39281.21
537.57	38939.49
537.74	39023.75
537.91	39718.89
538.08	39470.79
538.25	39278.87
538.42	39498.88
538.59	39709.53
538.75	39487.18
538.92	39859.32
539.09	39934.22
539.26	39758.68
539.43	39786.77
539.60	40095.72
539.77	39896.77
539.94	40385.94
540.11	39983.37
540.28	40072.31
540.44	40187.00
540.61	39892.09
540.78	40079.33
540.95	39749.32
541.12	39847.62
541.29	40542.76
541.46	40329.77
541.62	40421.05
541.79	40266.58
541.96	40701.92
542.13	40514.67
542.30	40528.72
542.47	40730.00
542.63	40870.43
542.80	41139.60
542.97	40807.24
543.14	41390.03
543.31	41113.85
543.48	40893.84
543.64	41502.38
543.81	41486.00
543.98	41170.02
544.15	41097.47
544.32	40891.50
544.48	41708.35
544.65	41603.02
544.82	41436.84
544.99	40971.08
545.16	41647.49
545.32	41338.54
545.49	41698.98
545.66	41961.12
545.83	41687.28
546.00	41963.46
546.16	42057.09
546.33	41574.94
546.50	41600.68
546.67	42005.59
546.83	41406.42
547.00	41853.46
547.17	41614.72
547.34	42106.24
547.50	41918.99
547.67	41951.76
547.84	42574.34
548.00	42597.75
548.17	42120.28
548.34	42574.34
548.51	42665.63
548.67	42422.21
548.84	42436.25
549.01	42342.63
549.18	42572.00
549.34	42700.73
549.51	42925.42
549.68	42789.67
549.84	42323.91
550.01	42789.67
550.18	42939.47
550.34	43189.91
550.51	42635.20
550.68	42768.61
550.84	43005.00
551.01	42904.36
551.18	42492.43
551.34	42866.91
551.51	43002.66
551.68	43131.39
551.84	43379.49
552.01	42829.46
552.18	43316.29
552.34	43072.88
552.51	43035.43
552.68	42923.08
552.84	43459.07
553.01	42934.79
553.18	43452.05
553.34	43409.92
553.51	43405.23
553.67	43555.03
553.84	43421.62
554.01	43505.88
554.17	43435.66
554.34	43964.62
554.51	43711.84
554.67	43718.87
554.84	44374.22
555.00	43489.49
555.17	43430.98
555.33	44039.52
555.50	43718.87
555.67	44067.61
555.83	44027.82
556.00	44137.82
556.16	44353.15
556.33	43936.54
556.50	44137.82
556.66	44507.63
556.83	44074.63
556.99	44484.22
557.16	44708.91
557.32	44409.32
557.49	44545.08
557.65	44109.74
557.82	44114.42
557.98	44346.13
558.15	44734.66
558.32	44371.88
558.48	44163.57
558.65	44446.77
558.81	44533.37
558.98	44186.97
559.14	44076.97
559.31	44861.05
559.47	44198.68
559.64	44928.92
559.80	44584.86
559.97	44877.43
560.13	44296.98
560.30	44727.64
560.46	45057.65
560.63	44751.04
560.79	45095.10
560.96	45097.44
561.12	45092.76
561.29	45038.93
561.45	45186.38
561.61	44802.53
561.78	44935.95
561.94	44697.21
562.11	44957.01
562.27	44938.29
562.44	45287.03
562.60	45303.41
562.77	45045.95
562.93	44868.07
563.10	45312.77
563.26	44954.67
563.42	45289.37
563.59	44921.90
563.75	44484.22
563.92	45294.05
564.08	44722.96
564.24	45301.07
564.41	45450.86
564.57	45373.63
564.74	45364.26
564.90	45155.96
565.07	45415.76
565.23	45181.70
565.39	45425.12
565.56	45361.92
565.72	45469.59
565.88	45265.96
566.05	45736.41
566.21	45518.74
566.38	45308.09
566.54	45624.06
566.70	45502.35
566.87	45553.85
567.03	45633.42
567.19	45928.33
567.36	45532.78
567.52	45432.14
567.68	45965.78
567.85	45778.54
568.01	46169.41
568.17	45588.95
568.34	45940.04
568.50	45979.82
568.66	45689.60
568.83	45940.04
568.99	45804.28
569.15	45673.21
569.32	45895.56
569.48	45694.28
569.64	46080.47
569.81	45673.21
569.97	45666.19
570.13	45750.45
570.30	45698.96
570.46	46108.55
570.62	46019.61
570.78	45961.10
570.95	45102.12
571.11	45652.15
571.27	46146.00
571.43	45776.20
571.60	46155.36
571.76	45771.52
571.92	45670.87
572.09	45607.68
572.25	46036.00
572.41	45626.40
572.57	45977.48
572.74	46117.92
572.90	46300.48
573.06	46555.60
573.22	45914.29
573.38	46452.61
573.55	46213.88
573.71	46178.77
573.87	46157.70
574.03	46019.61
574.20	46401.12
574.36	46230.26
574.52	46209.20
574.68	46012.59
574.84	46501.76
575.01	46602.41
575.17	46794.33
575.33	46588.36
575.49	45991.53
575.65	46499.42
575.82	46454.95
575.98	45827.69
576.14	46817.74
576.30	46677.30
576.46	45860.46
576.62	45921.31
576.79	46309.84
576.95	46263.03
577.11	45808.96
577.27	46143.66
577.43	45837.05
577.59	46333.24
577.75	46384.74
577.92	45923.65
578.08	45928.33
578.24	46438.57
578.40	46298.14
578.56	46190.47
578.72	46258.35
578.88	46469.00
579.04	46073.45
579.21	46314.52
579.37	46461.97
579.53	46710.07
579.69	46080.47
579.85	45867.48
580.01	46564.96
580.17	46096.85
580.33	46389.42
580.49	46534.53
580.65	46789.65
580.82	46754.54
580.98	46586.02
581.14	46017.27
581.30	46181.11
581.46	46230.26
581.62	46000.89
581.78	46209.20
581.94	46377.72
582.10	46403.46
582.26	46202.18
582.42	46607.09
582.58	46665.60
582.74	46525.17
582.90	46412.82
583.06	46623.47
583.22	46300.48
583.38	46670.28
583.54	46401.12
583.70	46588.36
583.86	46677.30
584.02	46593.04
584.18	47215.63
584.34	46712.41
584.50	46864.55
584.66	46834.12
584.82	46553.26
584.98	46766.24
585.14	46628.15
585.30	46480.70
585.46	46513.47
585.62	46328.56
585.78	46394.10
585.94	46239.62
586.10	45982.16
586.26	46384.74
586.42	46742.84
586.58	46316.86
586.74	46511.13
586.90	46492.40
587.06	46326.22
587.22	46660.92
587.38	46459.63
587.54	46309.84
587.70	47246.05
587.86	46532.19
588.02	46066.42
588.18	46862.21
588.34	46705.39
588.49	46576.66
588.65	46218.56
588.81	46417.50
588.97	46951.15
589.13	46670.28
589.29	46864.55
589.45	47084.56
589.61	47208.61
589.77	47093.92
589.93	46864.55
590.08	46927.74
