SpectraSuite Data File
++++++++++++++++++++++++++++++++++++
Date: Fri Oct 25 11:23:40 EDT 2013
User: price-jones
Dark Spectrum Present: No
Reference Spectrum Present: No
Number of Sampled Component Spectra: 1
Spectrometers: USB2+H05261
Integration Time (usec): 100000 (USB2+H05261)
Spectra Averaged: 1 (USB2+H05261)
Boxcar Smoothing: 0 (USB2+H05261)
Correct for Electrical Dark: No (USB2+H05261)
Strobe/Lamp Enabled: No (USB2+H05261)
Correct for Detector Non-linearity: No (USB2+H05261)
Correct for Stray Light: No (USB2+H05261)
Number of Pixels in Processed Spectrum: 2048
>>>>>Begin Processed Spectral Data<<<<<
365.73	196.60
365.92	196.60
366.12	196.60
366.32	135.75
366.52	105.32
366.72	154.48
366.91	145.11
367.11	196.60
367.31	133.41
367.51	81.92
367.70	126.39
367.90	177.88
368.10	259.80
368.30	117.03
368.49	121.71
368.69	180.22
368.89	100.64
369.09	173.20
369.28	182.56
369.48	114.69
369.68	234.05
369.87	241.08
370.07	161.50
370.27	257.46
370.47	369.80
370.66	585.13
370.86	692.80
371.06	671.73
371.25	620.24
371.45	624.92
371.65	613.22
371.84	601.52
372.04	748.97
372.24	716.20
372.44	692.80
372.63	814.51
372.83	765.36
373.03	765.36
373.22	669.39
373.42	798.12
373.62	814.51
373.81	755.99
374.01	777.06
374.21	875.36
374.40	840.25
374.60	739.61
374.79	741.95
374.99	828.55
375.19	821.53
375.38	814.51
375.58	805.14
375.78	858.98
375.97	791.10
376.17	891.74
376.37	791.10
376.56	908.13
376.76	873.02
376.95	835.57
377.15	1022.81
377.35	947.92
377.54	929.19
377.74	954.94
377.93	929.19
378.13	961.96
378.33	940.90
378.52	915.15
378.72	990.05
378.91	950.26
379.11	861.32
379.31	952.60
379.50	924.51
379.70	976.00
379.89	933.87
380.09	875.36
380.28	1015.79
380.48	994.73
380.68	924.51
380.87	959.62
381.07	947.92
381.26	1074.31
381.46	1055.58
381.65	999.41
381.85	929.19
382.04	1088.35
382.24	1064.94
382.43	1067.28
382.63	978.34
382.83	1055.58
383.02	1109.41
383.22	1116.44
383.41	1107.07
383.61	1067.28
383.80	1149.20
384.00	1191.33
384.19	1081.33
384.39	1081.33
384.58	1064.94
384.78	1121.12
384.97	1135.16
385.17	1060.26
385.36	1210.06
385.56	1160.91
385.75	1074.31
385.95	1228.78
386.14	1205.38
386.34	1174.95
386.53	1217.08
386.72	1179.63
386.92	1210.06
387.11	1240.48
387.31	1282.61
387.50	1174.95
387.70	1256.87
387.89	1156.22
388.09	1153.88
388.28	1284.95
388.48	1214.74
388.67	1413.68
388.86	1252.19
389.06	1306.02
389.25	1373.89
389.45	1345.81
389.64	1371.55
389.84	1418.36
390.03	1439.43
390.22	1371.55
390.42	1301.34
390.61	1430.07
390.81	1341.13
391.00	1387.94
391.19	1439.43
391.39	1380.92
391.58	1448.79
391.78	1502.62
391.97	1474.54
392.16	1413.68
392.36	1610.29
392.55	1516.67
392.75	1490.92
392.94	1519.01
393.13	1467.52
393.33	1556.46
393.52	1600.93
393.71	1528.37
393.91	1589.22
394.10	1652.42
394.29	1565.82
394.49	1556.46
394.68	1664.12
394.88	1586.88
395.07	1631.35
395.26	1664.12
395.46	1607.95
395.65	1710.93
395.84	1732.00
396.04	1788.17
396.23	1617.31
396.42	1778.81
396.62	1825.62
396.81	1687.53
397.00	1640.72
397.19	1673.48
397.39	1842.00
397.58	1809.23
397.77	1781.15
397.97	1914.56
398.16	1935.62
398.35	1881.79
398.55	1870.09
398.74	1884.13
398.93	1973.07
399.12	1980.09
399.32	1909.88
399.51	1905.20
399.70	1921.58
399.90	2047.97
400.09	2122.87
400.28	2106.48
400.47	2031.58
400.67	2099.46
400.86	2062.01
401.05	2078.40
401.24	2038.61
401.44	2115.84
401.63	2090.10
401.82	2104.14
402.01	2134.57
402.21	2099.46
402.40	2115.84
402.59	2169.68
402.78	2289.04
402.97	2237.55
403.17	2265.64
403.36	2272.66
403.55	2307.77
403.74	2401.39
403.93	2394.37
404.13	2244.57
404.32	2307.77
404.51	2394.37
404.70	2385.01
404.89	2438.84
405.09	2427.14
405.28	2429.48
405.47	2420.11
405.66	2537.14
405.85	2520.76
406.05	2590.97
406.24	2516.08
406.43	2553.52
406.62	2668.21
406.81	2628.42
407.00	2658.85
407.20	2621.40
407.39	2612.04
407.58	2623.74
407.77	2619.06
407.96	2757.15
408.15	2726.72
408.34	2761.83
408.54	2724.38
408.73	2850.77
408.92	2644.81
409.11	2806.30
409.30	2799.28
409.49	2846.09
409.68	2785.24
409.87	2925.67
410.07	2979.50
410.26	2956.10
410.45	3028.65
410.64	2984.18
410.83	3091.85
411.02	3105.89
411.21	3133.98
411.40	3059.08
411.59	3204.19
411.78	3185.47
411.98	3180.79
412.17	3152.70
412.36	3309.52
412.55	3412.50
412.74	3375.05
412.93	3344.63
413.12	3286.11
413.31	3566.98
413.50	3543.57
413.69	3606.77
413.88	3637.19
414.07	3482.72
414.26	3695.71
414.45	3740.18
414.64	3648.90
414.83	3658.26
415.02	3847.84
415.22	3882.95
415.41	3852.52
415.60	3960.19
415.79	3864.22
415.98	3943.80
416.17	3960.19
416.36	3913.38
416.55	3974.23
416.74	3882.95
416.93	3983.59
417.12	3885.29
417.31	4152.11
417.50	4257.43
417.69	4311.27
417.88	4217.65
418.07	4210.62
418.26	4271.48
418.45	4372.12
418.64	4561.70
418.83	4421.27
419.02	4510.21
419.21	4498.51
419.39	4379.14
419.58	4425.95
419.77	4479.79
419.96	4339.35
420.15	4447.02
420.34	4706.82
420.53	4547.66
420.72	4620.22
420.91	4603.83
421.10	4748.95
421.29	4865.97
421.48	4634.26
421.67	4786.40
421.86	4819.16
422.05	4877.68
422.24	4739.58
422.43	4777.03
422.61	4795.76
422.80	5057.90
422.99	5060.24
423.18	4873.00
423.37	5046.20
423.56	4954.91
423.75	4919.81
423.94	4830.87
424.13	4500.85
424.32	4711.50
424.50	4978.32
424.69	5032.15
424.88	5167.90
425.07	4971.30
425.26	4793.42
425.45	4966.62
425.64	5036.83
425.83	5006.41
426.01	5083.64
426.20	4994.70
426.39	4940.87
426.58	5034.49
426.77	4945.55
426.96	4992.36
427.15	4985.34
427.33	5247.48
427.52	5259.18
427.71	5296.63
427.90	5233.44
428.09	5224.08
428.28	5362.17
428.46	5275.57
428.65	5350.46
428.84	5518.98
429.03	5453.45
429.22	5355.15
429.40	5462.81
429.59	5507.28
429.78	5315.36
429.97	5315.36
430.16	5390.25
430.34	5556.43
430.53	5507.28
430.72	5540.05
430.91	5626.65
431.10	5596.22
431.28	5628.99
431.47	5813.89
431.66	5912.19
431.85	5783.46
432.03	5968.37
432.22	6008.16
432.41	5865.38
432.60	5973.05
432.79	5902.83
432.97	6012.84
433.16	6069.01
433.35	5949.64
433.54	6097.10
433.72	6099.44
433.91	6188.38
434.10	6282.00
434.28	5902.83
434.47	6155.61
434.66	6150.93
434.85	6221.14
435.03	6279.66
435.22	6389.66
435.41	6518.39
435.59	6363.92
435.78	6352.21
435.97	6443.49
436.16	6434.13
436.34	6204.76
436.53	6604.99
436.72	6539.46
436.90	6408.39
437.09	6560.52
437.28	6417.75
437.46	6604.99
437.65	6949.05
437.84	6913.94
438.02	6780.53
438.21	6675.21
438.40	6724.36
438.58	6918.62
438.77	6995.86
438.96	6860.11
439.14	7222.89
439.33	7194.81
439.52	7215.87
439.70	7307.15
439.89	7424.18
440.08	7349.28
440.26	7339.92
440.45	7382.05
440.63	7475.67
440.82	7543.55
441.01	7363.33
441.19	7726.11
441.38	7700.36
441.57	7779.94
441.75	7955.48
441.94	7955.48
442.12	8018.68
442.31	8147.40
442.50	8011.65
442.68	7962.50
442.87	8131.02
443.05	8203.58
443.24	8325.29
443.43	8194.22
443.61	8259.75
443.80	8444.65
443.98	8086.55
444.17	8009.31
444.35	8128.68
444.54	8355.71
444.73	8297.20
444.91	8358.05
445.10	8329.97
445.28	8198.90
445.47	8131.02
445.65	8341.67
445.84	8432.95
446.02	8414.23
446.21	8482.10
446.39	8168.47
446.58	8418.91
446.77	8423.59
446.95	8173.15
447.14	8360.39
447.32	8578.06
447.51	8479.76
447.69	8428.27
447.88	8386.14
448.06	8339.33
448.25	8540.61
448.43	8514.87
448.62	8601.47
448.80	8622.53
448.99	8772.33
449.17	8891.70
449.36	8674.03
449.54	8926.80
449.73	8929.14
449.91	8922.12
450.10	8985.32
450.28	8992.34
450.46	9048.51
450.65	9125.75
450.83	9069.58
451.02	9135.11
451.20	9034.47
451.39	9149.15
451.57	9001.70
451.76	9081.28
451.94	9081.28
452.13	9441.72
452.31	9261.50
452.49	9090.64
452.68	9287.25
452.86	9415.98
453.05	9451.08
453.23	9320.01
453.42	9277.88
453.60	9331.72
453.78	9635.99
453.97	9336.40
454.15	9430.02
454.34	9465.13
454.52	9790.46
454.70	9755.35
454.89	9820.89
455.07	10057.28
455.26	9996.43
455.44	9785.78
455.62	9804.50
455.81	9811.53
455.99	9867.70
456.17	10061.96
456.36	9966.00
456.54	10181.33
456.73	10197.71
456.91	10497.30
457.09	10558.16
457.28	10560.50
457.46	10162.61
457.64	10733.70
457.83	10469.22
458.01	10485.60
458.19	10661.14
458.38	10370.91
458.56	10789.87
458.74	10633.05
458.93	10677.52
459.11	10766.46
459.29	10757.10
459.48	10754.76
459.66	10871.79
459.84	10883.49
460.03	11021.58
460.21	10963.07
460.39	10949.03
460.57	10963.07
460.76	11033.29
460.94	11208.83
461.12	11094.14
461.31	10942.00
461.49	11016.90
461.67	11112.86
461.85	11410.11
462.04	11372.66
462.22	11585.65
462.40	11580.97
462.59	11414.79
462.77	11253.30
462.95	11777.58
463.13	11447.56
463.32	11513.10
463.50	11749.49
463.68	11660.55
463.86	11950.78
464.05	11747.15
464.23	11496.71
464.41	11957.80
464.59	11648.85
464.78	12395.48
464.96	11955.46
465.14	11868.86
465.32	12222.28
465.50	12322.92
465.69	12273.77
465.87	12208.23
466.05	12273.77
466.23	12269.09
466.41	12203.55
466.60	12369.73
466.78	12208.23
466.96	12484.42
467.14	12175.47
467.32	12477.40
467.51	12519.53
467.69	12224.62
467.87	12322.92
468.05	12531.23
468.23	12587.40
468.41	12648.26
468.60	12620.17
468.78	12875.29
468.96	12676.34
469.14	12800.39
469.32	12772.30
469.50	12503.14
469.69	12894.01
469.87	13205.30
470.05	13027.42
470.23	12996.99
470.41	13022.74
470.59	13214.66
470.77	13362.12
470.95	13158.49
471.14	13462.76
471.32	13118.70
471.50	13750.65
471.68	13650.00
471.86	13530.64
472.04	13898.10
472.22	13895.76
472.40	13834.91
472.58	13867.67
472.77	13703.84
472.95	13968.32
473.13	14377.91
473.31	14129.81
473.49	14075.98
473.67	14085.34
473.85	14092.37
474.03	14712.61
474.21	14523.02
474.39	14518.34
474.57	14941.98
474.75	14895.17
474.93	14717.29
475.12	14967.73
475.30	15300.08
475.48	15073.05
475.66	14998.15
475.84	15047.30
476.02	15290.72
476.20	15089.43
476.38	15824.36
476.56	15843.09
476.74	16016.29
476.92	16018.63
477.10	15695.63
477.28	16339.28
477.46	16196.51
477.64	16123.95
477.82	16552.27
478.00	17020.38
478.18	16816.75
478.36	16973.56
478.54	17191.23
478.72	17200.60
478.90	17528.27
479.08	17645.30
479.26	17619.55
479.44	17729.56
479.62	17657.00
479.80	17830.20
479.98	18080.64
480.16	18424.70
480.34	18211.71
480.52	18427.04
480.70	18878.76
480.88	18705.56
481.06	18939.62
481.24	18831.95
481.41	19358.57
481.59	19384.32
481.77	19288.35
481.95	19393.68
482.13	19625.39
482.31	19613.69
482.49	20437.56
482.67	20191.80
482.85	20699.70
483.03	20688.00
483.21	20673.95
483.39	21071.84
483.57	20706.72
483.74	21207.59
483.92	20964.18
484.10	21511.86
484.28	21678.04
484.46	21998.70
484.64	22396.59
484.82	21682.72
485.00	22464.46
485.18	22553.40
485.35	22955.97
485.53	22827.24
485.71	23002.78
485.89	23772.82
486.07	22963.00
486.25	23452.17
486.43	23508.34
486.61	23740.05
486.78	24184.76
486.96	24180.07
487.14	24414.13
487.32	24636.48
487.50	25060.12
487.68	24795.64
487.85	25525.88
488.03	25607.80
488.21	25942.50
488.39	25893.35
488.57	26103.99
488.75	26408.26
488.92	26529.97
489.10	26707.85
489.28	26707.85
489.46	26855.31
489.64	27122.13
489.81	27501.29
489.99	27562.15
490.17	27737.69
490.35	28451.55
490.53	28552.20
490.70	28662.20
490.88	28217.50
491.06	28751.14
491.24	28758.16
491.41	29113.92
491.59	29434.58
491.77	28767.52
491.95	29668.63
492.13	30031.41
492.30	29958.86
492.48	29942.47
492.66	30424.62
492.84	30230.36
493.01	30536.97
493.19	30326.32
493.37	31157.21
493.54	30939.54
493.72	31412.33
493.90	31555.10
494.08	31688.51
494.25	32250.24
494.43	32098.11
494.61	32444.51
494.79	32577.92
494.96	32259.60
495.14	32556.85
495.32	32996.87
495.49	32952.40
495.67	33305.82
495.85	33177.09
496.02	33413.49
496.20	33759.89
496.38	33933.09
496.55	33905.00
496.73	34607.16
496.91	34653.97
497.09	34885.68
497.26	34682.06
497.44	34651.63
497.62	35218.04
497.79	35475.50
497.97	35491.88
498.14	35988.08
498.32	35889.77
498.50	36119.15
498.67	36402.35
498.85	36748.75
499.03	36786.20
499.20	36524.06
499.38	36910.25
499.56	36912.59
499.73	37200.47
499.91	37258.99
500.08	37626.45
500.26	37394.74
500.44	37237.92
500.61	37799.65
500.79	37972.85
500.97	38024.34
501.14	38541.60
501.32	38225.63
501.49	38506.49
501.67	39115.03
501.84	39126.74
502.02	38888.00
502.20	39040.14
502.37	39360.79
502.55	39519.95
502.72	39185.25
502.90	39744.64
503.07	39187.59
503.25	39304.62
503.43	39660.38
503.60	40142.53
503.78	40130.83
503.95	40306.37
504.13	40184.66
504.30	40542.76
504.48	40561.48
504.65	40627.02
504.83	41160.66
505.01	41324.50
505.18	40788.52
505.36	41090.44
505.53	41572.60
505.71	41563.23
505.88	41516.42
506.06	41490.68
506.23	42326.25
506.41	41858.14
506.58	41883.89
506.76	41991.55
506.93	42553.28
507.11	42344.97
507.28	42101.56
507.46	42677.33
507.63	42852.87
507.81	43063.52
507.98	42693.71
508.16	43166.50
508.33	43093.94
508.50	43650.99
508.68	43601.84
508.85	44219.74
509.03	43679.08
509.20	43833.55
509.38	44526.35
509.55	44718.28
509.73	44505.29
509.90	44636.36
510.08	44444.43
510.25	44615.29
510.42	45095.10
510.60	44945.31
510.77	45277.66
510.95	45336.18
511.12	45244.90
511.30	45195.74
511.47	45263.62
511.64	45186.38
511.82	45858.12
511.99	45565.55
512.17	46089.83
512.34	45979.82
512.51	45956.42
512.69	46340.27
512.86	46267.71
513.04	46567.30
513.21	46579.00
513.38	46674.96
513.56	47482.45
513.73	46457.29
513.90	46962.85
514.08	46859.87
514.25	47285.84
514.43	47466.06
514.60	47278.82
514.77	47318.61
514.95	47950.56
515.12	47456.70
515.29	47597.13
515.47	47840.55
515.64	47718.84
515.81	47889.70
515.99	48421.00
516.16	48636.33
516.33	48446.75
516.51	48514.62
516.68	48631.65
516.85	48072.26
517.03	48786.13
517.20	48694.85
517.37	48713.57
517.54	48662.08
517.72	49223.81
517.89	49013.16
518.06	49205.08
518.24	49052.95
518.41	49200.40
518.58	49518.71
518.75	49357.22
518.93	49785.54
519.10	49602.97
519.27	49670.85
519.45	49811.28
519.62	50108.53
519.79	50021.93
519.96	50017.25
520.14	50094.49
520.31	49839.37
520.48	50625.79
520.65	50644.51
520.83	50775.58
521.00	50845.80
521.17	50667.92
521.34	50609.40
521.52	50885.59
521.69	50637.49
521.86	51000.27
522.03	51395.82
522.20	51515.19
522.38	51386.46
522.55	51423.91
522.72	51508.17
522.89	51313.90
523.07	51608.81
523.24	51704.77
523.41	51393.48
523.58	51491.79
523.75	51765.63
523.92	51767.97
524.10	51924.78
524.27	52074.58
524.44	52364.81
524.61	52083.94
524.78	52346.08
524.96	52163.52
525.13	52341.40
525.30	52458.43
525.47	52418.64
525.64	52350.76
525.81	52453.75
525.98	52725.25
526.16	52491.19
526.33	52477.15
526.50	52996.75
526.67	52727.59
526.84	52889.09
527.01	52507.58
527.18	53099.73
527.36	52765.04
527.53	52758.02
527.70	53551.46
527.87	53439.11
528.04	53095.05
528.21	53506.99
528.38	53645.08
528.55	53656.78
528.72	53366.55
528.89	53624.01
529.07	53294.00
529.24	53343.15
529.41	53745.72
529.58	53607.63
529.75	53516.35
529.92	53462.52
530.09	53837.00
530.26	54085.10
530.43	54026.59
530.60	53570.18
530.77	53797.21
530.94	54003.18
531.11	54054.67
531.28	54124.89
531.46	53972.75
531.63	54171.70
531.80	54185.74
531.97	54658.53
532.14	54459.58
532.31	54468.95
532.48	54499.37
532.65	54712.36
532.82	54419.80
532.99	54660.87
533.16	54480.65
533.33	54581.29
533.50	54937.05
533.67	54726.41
533.84	54857.48
534.01	54686.62
534.18	54780.24
534.35	55119.62
534.52	55229.62
534.69	55304.52
534.86	55007.27
535.03	55047.06
535.20	55405.16
535.37	55128.98
535.54	55302.18
535.71	55182.81
535.88	55501.12
536.05	55526.87
536.22	55587.72
536.38	55674.32
536.55	55395.80
536.72	55779.65
536.89	55449.63
537.06	55494.10
537.23	55683.69
537.40	55512.83
537.57	55543.25
537.74	55753.90
537.91	55987.95
538.08	56025.40
538.25	55702.41
538.42	55805.39
538.59	56041.79
538.75	55901.36
538.92	55997.32
539.09	56088.60
539.26	55971.57
539.43	56002.00
539.60	56285.20
539.77	56039.45
539.94	56430.32
540.11	56224.35
540.28	56427.98
540.44	56512.23
540.61	56514.58
540.78	56395.21
540.95	56385.85
541.12	56474.79
541.29	56385.85
541.46	56664.37
541.62	56685.43
541.79	56872.68
541.96	56512.23
542.13	56640.96
542.30	56519.26
542.47	57092.69
542.63	56886.72
542.80	57024.81
542.97	57106.73
543.14	57226.10
543.31	57240.14
543.48	57155.88
543.64	57375.89
543.81	57415.68
543.98	57293.97
544.15	57237.80
544.32	57249.50
544.48	57420.36
544.65	57359.51
544.82	57422.70
544.99	57399.30
545.16	57511.64
545.32	57478.88
545.49	57600.58
545.66	57825.28
545.83	57502.28
546.00	57717.61
546.16	57694.21
546.33	57322.06
546.50	57434.41
546.67	57935.28
546.83	57474.20
547.00	57890.81
547.17	57712.93
547.34	57717.61
547.50	57982.09
547.67	58000.82
547.84	57867.40
548.00	58185.72
548.17	58094.44
548.34	58101.46
548.51	58286.36
548.67	58216.14
548.84	58267.64
549.01	57954.00
549.18	58305.09
549.34	58293.38
549.51	58204.44
549.68	58335.51
549.84	58375.30
550.01	58548.50
550.18	58415.09
550.34	58410.41
550.51	58698.30
550.68	58459.56
550.84	58148.27
551.01	58665.53
551.18	58585.95
551.34	58384.66
551.51	58555.52
551.68	58342.53
551.84	58422.11
552.01	58630.42
552.18	58688.93
552.34	58269.98
552.51	58686.59
552.68	58323.81
552.84	58497.01
553.01	59075.12
553.18	58798.94
553.34	58812.98
553.51	58791.92
553.67	58892.56
553.84	58894.90
554.01	59082.14
554.17	58892.56
554.34	59065.76
554.51	59068.10
554.67	58894.90
554.84	58859.79
555.00	58925.33
555.17	59201.51
555.33	58972.14
555.50	59044.69
555.67	59068.10
555.83	58770.85
556.00	59384.07
556.16	59428.54
556.33	59339.60
556.50	59143.00
556.66	59494.08
556.83	59231.94
556.99	59391.09
557.16	59573.66
557.32	59426.20
557.49	59522.16
557.65	59238.96
557.82	59444.93
557.98	59353.65
558.15	59295.13
558.32	59433.22
558.48	59402.80
558.65	59395.77
558.81	59313.86
558.98	59625.15
559.14	59611.10
559.31	59648.55
559.47	59641.53
559.64	59765.58
559.80	59716.43
559.97	59674.30
560.13	59583.02
560.30	59611.10
560.46	59648.55
560.63	59887.29
560.79	59678.98
560.96	59824.09
561.12	59852.18
561.29	59950.48
561.45	59980.91
561.61	59950.48
561.78	59824.09
561.94	59875.58
562.11	59723.45
562.27	59875.58
562.44	60055.81
562.60	60067.51
562.77	60177.51
562.93	59810.05
563.10	60111.98
563.26	59854.52
563.42	60060.49
563.59	60121.34
563.75	59915.37
563.92	60310.92
564.08	60001.97
564.24	60116.66
564.41	60067.51
564.57	60154.11
564.74	60177.51
564.90	60278.16
565.07	60158.79
565.23	60037.08
565.39	60226.66
565.56	60327.31
565.72	60130.70
565.88	60147.09
566.05	60444.33
566.21	60186.88
566.38	60243.05
566.54	60111.98
566.70	60301.56
566.87	60289.86
567.03	60322.63
567.19	60451.36
567.36	60420.93
567.52	60292.20
567.68	60673.71
567.85	60266.45
568.01	60350.71
568.17	60413.91
568.34	60353.05
568.50	60479.44
568.66	60090.91
568.83	60292.20
568.99	60505.19
569.15	60322.63
569.32	60376.46
569.48	60477.10
569.64	60650.30
569.81	60619.88
569.97	60285.18
570.13	60299.22
570.30	60570.72
570.46	60624.56
570.62	60369.44
570.78	60629.24
570.95	60474.76
571.11	60654.98
571.27	60317.95
571.43	60423.27
571.60	60626.90
571.76	60470.08
571.92	60596.47
572.09	60697.11
572.25	60495.83
572.41	60491.15
572.57	60570.72
572.74	60783.71
572.90	60626.90
573.06	60519.23
573.22	60610.51
573.38	60676.05
573.55	60612.85
573.71	60814.14
573.87	60601.15
574.03	60463.06
574.20	60622.22
574.36	60748.60
574.52	60643.28
574.68	60701.79
574.84	60856.27
575.01	60786.05
575.17	60701.79
575.33	60633.92
575.49	60647.96
575.65	60732.22
575.82	60701.79
575.98	60821.16
576.14	60945.21
576.30	60849.25
576.46	60678.39
576.62	60647.96
576.79	60762.65
576.95	60495.83
577.11	60725.20
577.27	60692.43
577.43	60809.46
577.59	60781.37
577.75	60636.26
577.92	60739.24
578.08	60849.25
578.24	60734.56
578.40	60999.04
578.56	60982.66
578.72	60893.72
578.88	61090.32
579.04	60938.19
579.21	60846.91
579.37	60858.61
579.53	60905.42
579.69	60725.20
579.85	60699.45
580.01	60970.96
580.17	60769.67
580.33	60928.83
580.49	61010.74
580.65	60928.83
580.82	60809.46
580.98	61071.60
581.14	60842.23
581.30	61097.34
581.46	60713.50
581.62	61186.28
581.78	60884.36
581.94	60856.27
582.10	60863.29
582.26	60912.44
582.42	60999.04
582.58	60926.49
582.74	60917.12
582.90	61020.11
583.06	61013.08
583.22	60919.46
583.38	61123.09
583.54	60910.10
583.70	60931.17
583.86	61048.19
584.02	60856.27
584.18	61034.15
584.34	60919.46
584.50	61123.09
584.66	60814.14
584.82	60643.28
584.98	61069.26
585.14	61181.60
585.30	60825.84
585.46	60992.02
585.62	61029.47
585.78	61221.39
585.94	60832.86
586.10	60970.96
586.26	60933.51
586.42	61034.15
586.58	60975.64
586.74	61043.51
586.90	60994.36
587.06	60856.27
587.22	61200.33
587.38	61059.90
587.54	61275.22
587.70	61148.84
587.86	61265.86
588.02	61024.79
588.18	61172.24
588.34	61055.21
588.49	60889.04
