SpectraSuite Data File
++++++++++++++++++++++++++++++++++++
Date: Fri Oct 25 10:43:48 EDT 2013
User: price-jones
Dark Spectrum Present: No
Reference Spectrum Present: No
Number of Sampled Component Spectra: 1
Spectrometers: USB2+H05261
Integration Time (usec): 100000 (USB2+H05261)
Spectra Averaged: 1 (USB2+H05261)
Boxcar Smoothing: 0 (USB2+H05261)
Correct for Electrical Dark: No (USB2+H05261)
Strobe/Lamp Enabled: No (USB2+H05261)
Correct for Detector Non-linearity: No (USB2+H05261)
Correct for Stray Light: No (USB2+H05261)
Number of Pixels in Processed Spectrum: 2048
>>>>>Begin Processed Spectral Data<<<<<
365.73	58.51
365.92	58.51
366.12	58.51
366.32	9.36
366.52	46.81
366.72	86.60
366.91	74.90
367.11	16.38
367.31	0.00
367.51	0.00
367.70	0.00
367.90	30.43
368.10	28.09
368.30	21.06
368.49	0.00
368.69	0.00
368.89	18.72
369.09	0.00
369.28	67.88
369.48	53.83
369.68	65.54
369.87	65.54
370.07	49.15
370.27	110.01
370.47	208.31
370.66	351.08
370.86	428.32
371.06	528.96
371.25	531.30
371.45	461.09
371.65	444.70
371.84	440.02
372.04	479.81
372.24	503.22
372.44	517.26
372.63	573.43
372.83	540.66
373.03	526.62
373.22	528.96
373.42	533.64
373.62	470.45
373.81	505.56
374.01	547.69
374.21	557.05
374.40	592.16
374.60	643.65
374.79	594.50
374.99	482.15
375.19	636.63
375.38	638.97
375.58	578.11
375.78	575.77
375.97	585.13
376.17	638.97
376.37	601.52
376.56	582.79
376.76	653.01
376.95	531.30
377.15	702.16
377.35	676.41
377.54	606.20
377.74	690.46
377.93	568.75
378.13	695.14
378.33	638.97
378.52	706.84
378.72	617.90
378.91	718.54
379.11	638.97
379.31	578.11
379.50	678.76
379.70	643.65
379.89	734.93
380.09	627.26
380.28	674.07
380.48	697.48
380.68	662.37
380.87	638.97
381.07	643.65
381.26	751.31
381.46	842.59
381.65	685.78
381.85	746.63
382.04	704.50
382.24	657.69
382.43	660.03
382.63	589.82
382.83	725.57
383.02	772.38
383.22	812.17
383.41	730.25
383.61	725.57
383.80	699.82
384.00	777.06
384.19	727.91
384.39	713.86
384.58	732.59
384.78	798.12
384.97	805.14
385.17	763.01
385.36	840.25
385.56	681.10
385.75	800.46
385.95	849.61
386.14	809.83
386.34	854.30
386.53	875.36
386.72	798.12
386.92	926.85
387.11	868.34
387.31	901.11
387.50	863.66
387.70	807.48
387.89	798.12
388.09	833.23
388.28	868.34
388.48	968.98
388.67	901.11
388.86	938.55
389.06	866.00
389.25	987.71
389.45	912.81
389.64	926.85
389.84	1020.47
390.03	1025.15
390.22	966.64
390.42	992.39
390.61	980.68
390.81	1001.75
391.00	1086.01
391.19	1090.69
391.39	1067.28
391.58	1048.56
391.78	1043.88
391.97	1020.47
392.16	1062.60
392.36	950.26
392.55	950.26
392.75	1036.86
392.94	978.34
393.13	1043.88
393.33	1011.11
393.52	1069.62
393.71	1064.94
393.91	1097.71
394.10	1146.86
394.29	1121.12
394.49	1123.46
394.68	1200.69
394.88	1214.74
395.07	1252.19
395.26	1153.88
395.46	1306.02
395.65	1303.68
395.84	1125.80
396.04	1317.72
396.23	1233.46
396.42	1151.54
396.62	1132.82
396.81	1188.99
397.00	1240.48
397.19	1238.14
397.39	1301.34
397.58	1270.91
397.77	1310.70
397.97	1385.60
398.16	1418.36
398.35	1439.43
398.55	1497.94
398.74	1509.65
398.93	1500.28
399.12	1448.79
399.32	1462.83
399.51	1565.82
399.70	1624.33
399.90	1469.86
400.09	1610.29
400.28	1582.20
400.47	1556.46
400.67	1657.10
400.86	1685.19
401.05	1661.78
401.24	1706.25
401.44	1741.36
401.63	1678.16
401.82	1699.23
402.01	1654.76
402.21	1743.70
402.40	1804.55
402.59	1760.08
402.78	1760.08
402.97	1790.51
403.17	1776.47
403.36	1844.34
403.55	1856.04
403.74	1895.83
403.93	1778.81
404.13	1900.52
404.32	1799.87
404.51	1804.55
404.70	1966.05
404.89	1942.64
405.09	2062.01
405.28	1921.58
405.47	1900.52
405.66	1963.71
405.85	1998.82
406.05	1944.99
406.24	1823.28
406.43	1966.05
406.62	1989.46
406.81	2066.69
407.00	2010.52
407.20	2043.29
407.39	2078.40
407.58	2045.63
407.77	2275.00
407.96	2160.31
408.15	2265.64
408.34	2120.53
408.54	2183.72
408.73	2321.81
408.92	2293.72
409.11	2188.40
409.30	2270.32
409.49	2211.81
409.68	2218.83
409.87	2153.29
410.07	2202.44
410.26	2305.43
410.45	2338.20
410.64	2497.35
410.83	2478.63
411.02	2434.16
411.21	2579.27
411.40	2567.57
411.59	2520.76
411.78	2612.04
411.98	2663.53
412.17	2579.27
412.36	2628.42
412.55	2616.72
412.74	2698.64
412.93	2644.81
413.12	2712.68
413.31	2888.22
413.50	2939.71
413.69	2825.03
413.88	2759.49
414.07	2771.19
414.26	2963.12
414.45	2942.05
414.64	2958.44
414.83	2885.88
415.02	2949.08
415.22	3061.42
415.41	3038.02
415.60	3019.29
415.79	3155.04
415.98	3241.64
416.17	3293.13
416.36	3155.04
416.55	3246.32
416.74	3199.51
416.93	3262.71
417.12	3325.90
417.31	3288.45
417.50	3267.39
417.69	3494.42
417.88	3316.54
418.07	3424.20
418.26	3463.99
418.45	3506.12
418.64	3604.42
418.83	3599.74
419.02	3440.59
419.21	3468.67
419.39	3679.32
419.58	3648.90
419.77	3501.44
419.96	3637.19
420.15	3681.66
420.34	3665.28
420.53	3749.54
420.72	3815.07
420.91	3866.56
421.10	3765.92
421.29	3765.92
421.48	3810.39
421.67	3850.18
421.86	3801.03
422.05	3742.52
422.24	3833.80
422.43	3847.84
422.61	3845.50
422.80	3911.04
422.99	3798.69
423.18	3932.10
423.37	4009.34
423.56	3801.03
423.75	3878.27
423.94	3833.80
424.13	3627.83
424.32	3819.75
424.50	4009.34
424.69	4037.42
424.88	4081.89
425.07	3875.93
425.26	3859.54
425.45	3913.38
425.64	3880.61
425.83	4011.68
426.01	4147.43
426.20	4056.15
426.39	4067.85
426.58	3831.46
426.77	4023.38
426.96	3941.46
427.15	3985.93
427.33	3992.95
427.52	4107.64
427.71	4196.58
427.90	4091.26
428.09	4201.26
428.28	4269.14
428.46	4091.26
428.65	4079.55
428.84	4222.33
429.03	4159.13
429.22	4140.41
429.40	4191.90
429.59	4088.92
429.78	3929.76
429.97	3852.52
430.16	3927.42
430.34	4201.26
430.53	4163.81
430.72	4203.60
430.91	4219.99
431.10	4374.46
431.28	4430.63
431.47	4510.21
431.66	4737.24
431.85	4643.62
432.03	4601.49
432.22	4517.23
432.41	4554.68
432.60	4685.75
432.79	4573.41
432.97	4793.42
433.16	4767.67
433.35	4627.24
433.54	4755.97
433.72	4732.56
433.91	4531.28
434.10	4844.91
434.28	4807.46
434.47	4833.21
434.66	4816.82
434.85	4823.84
435.03	5025.13
435.22	4837.89
435.41	5032.15
435.59	5158.54
435.78	5158.54
435.97	5114.07
436.16	5195.99
436.34	5130.45
436.53	5287.27
436.72	5219.39
436.90	5107.05
437.09	4992.36
437.28	5074.28
437.46	5139.82
437.65	5142.16
437.84	5277.91
438.02	5263.86
438.21	5144.50
438.40	5121.09
438.58	5425.36
438.77	5383.23
438.96	5327.06
439.14	5434.72
439.33	5547.07
439.52	5542.39
439.70	5547.07
439.89	5696.86
440.08	5636.01
440.26	5640.69
440.45	5661.76
440.63	5909.85
440.82	5781.12
441.01	5834.96
441.19	6012.84
441.38	6204.76
441.57	6050.28
441.75	6204.76
441.94	6263.27
442.12	6260.93
442.31	6289.02
442.50	6230.51
442.68	6232.85
442.87	6171.99
443.05	6424.77
443.24	6455.20
443.43	6464.56
443.61	6148.59
443.80	6628.40
443.98	6394.34
444.17	6057.31
444.35	6363.92
444.54	6471.58
444.73	6569.88
444.91	6338.17
445.10	6483.28
445.28	6347.53
445.47	6338.17
445.65	6466.90
445.84	6574.56
446.02	6572.22
446.21	6647.12
446.39	6483.28
446.58	6384.98
446.77	6518.39
446.95	6661.16
447.14	6654.14
447.32	6834.36
447.51	6516.05
447.69	6722.02
447.88	6707.98
448.06	6537.12
448.25	6675.21
448.43	6780.53
448.62	6576.91
448.80	6644.78
448.99	7101.19
449.17	6801.60
449.36	6785.21
449.54	6885.86
449.73	7005.22
449.91	7019.27
450.10	7059.06
450.28	7136.29
450.46	7201.83
450.65	7243.96
450.83	7080.12
451.02	7080.12
451.20	7241.62
451.39	7094.16
451.57	7140.97
451.76	6986.50
451.94	7201.83
452.13	7190.13
452.31	7260.34
452.49	7213.53
452.68	7208.85
452.86	7309.49
453.05	7192.47
453.23	7241.62
453.42	7250.98
453.60	7414.82
453.78	7550.57
453.97	7283.75
454.15	7234.60
454.34	7323.54
454.52	7632.49
454.70	7531.84
454.89	7435.88
455.07	7538.87
455.26	7543.55
455.44	7836.11
455.62	7630.15
455.81	7585.68
455.99	7627.81
456.17	7866.54
456.36	7723.77
456.54	7976.55
456.73	7878.24
456.91	8152.09
457.09	8100.59
457.28	8109.96
457.46	7815.05
457.64	8105.28
457.83	8025.70
458.01	8002.29
458.19	8245.71
458.38	7957.82
458.56	8079.53
458.74	8187.19
458.93	8266.77
459.11	8276.13
459.29	8400.18
459.48	8451.67
459.66	8224.64
459.84	8332.31
460.03	8507.85
460.21	8545.30
460.39	8468.06
460.57	8489.12
460.76	8664.66
460.94	8608.49
461.12	8348.69
461.31	8755.94
461.49	8531.25
461.67	8629.56
461.85	8777.01
462.04	8706.79
462.22	9100.00
462.40	8856.59
462.59	8816.80
462.77	8896.38
462.95	8980.64
463.13	8912.76
463.32	8938.51
463.50	9011.06
463.68	8978.30
463.86	8968.93
464.05	9202.99
464.23	9055.53
464.41	8975.95
464.59	8786.37
464.78	9018.08
464.96	8793.39
465.14	9008.72
465.32	9305.97
465.50	9315.33
465.69	9359.80
465.87	9121.07
466.05	9064.89
466.23	9193.62
466.41	9277.88
466.60	9334.06
466.78	9029.79
466.96	9050.85
467.14	9425.34
467.32	9118.73
467.51	9256.82
467.69	9184.26
467.87	9350.44
468.05	9371.50
468.23	9448.74
468.41	9425.34
468.60	9628.96
468.78	9502.58
468.96	9420.66
469.14	9659.39
469.32	9741.31
469.50	9460.45
469.69	9804.50
469.87	9944.94
470.05	9680.46
470.23	9825.57
470.41	9647.69
470.59	9837.27
470.77	9813.87
470.95	9926.21
471.14	10249.21
471.32	9823.23
471.50	10242.18
471.68	10122.82
471.86	10059.62
472.04	10373.25
472.22	10487.94
472.40	10202.40
472.58	10328.78
472.77	10263.25
472.95	10452.83
473.13	10642.42
473.31	10544.11
473.49	10345.17
473.67	10691.57
473.85	10525.39
474.03	10724.33
474.21	11084.78
474.39	10927.96
474.57	10839.02
474.75	10937.32
474.93	11353.94
475.12	11070.73
475.30	11328.19
475.48	11257.98
475.66	11611.40
475.84	11098.82
476.02	11461.60
476.20	11506.07
476.38	11740.13
476.56	11714.38
476.74	11655.87
476.92	11782.26
477.10	12053.76
477.28	11819.71
477.46	11941.41
477.64	12257.39
477.82	12273.77
478.00	12664.64
478.18	12339.30
478.36	12435.27
478.54	12531.23
478.72	12849.54
478.90	12865.92
479.08	12992.31
479.26	13149.13
479.44	12791.03
479.62	13074.23
479.80	13558.72
479.98	13572.77
480.16	13741.29
480.34	13654.69
480.52	13647.66
480.70	14045.55
480.88	13504.89
481.06	13706.18
481.24	13802.14
481.41	14239.82
481.59	14427.06
481.77	14408.34
481.95	14436.42
482.13	14668.14
482.31	14497.28
482.49	14789.85
482.67	14600.26
482.85	14822.61
483.03	15115.18
483.21	15421.79
483.39	15307.10
483.57	15234.55
483.74	15426.47
483.92	15637.12
484.10	15234.55
484.28	15857.13
484.46	15878.19
484.64	16056.08
484.82	15936.71
485.00	15967.13
485.18	16283.11
485.35	16524.18
485.53	15976.50
485.71	15845.43
485.89	16695.04
486.07	16322.90
486.25	16407.16
486.43	16753.55
486.61	16783.98
486.78	17268.47
486.96	17170.17
487.14	17558.70
487.32	17926.16
487.50	17970.63
487.68	18143.83
487.85	18349.80
488.03	18431.72
488.21	18366.18
488.39	18230.43
488.57	18490.23
488.75	18698.54
488.92	19028.56
489.10	19152.60
489.28	19410.06
489.46	19742.42
489.64	19728.38
489.81	20074.77
489.99	20264.36
490.17	19772.85
490.35	20479.69
490.53	20121.59
490.70	20262.02
490.88	20304.15
491.06	20737.15
491.24	20755.87
491.41	20456.28
491.59	20790.98
491.77	20500.75
491.95	20917.37
492.13	21317.60
492.30	21387.82
492.48	21703.79
492.66	21553.99
492.84	21542.29
493.01	22190.62
493.19	22061.89
493.37	22078.27
493.54	22078.27
493.72	22244.45
493.90	22757.03
494.08	22778.09
494.25	22981.72
494.43	23117.47
494.61	23197.05
494.79	23634.73
494.96	23522.38
495.14	23424.08
495.32	23623.03
495.49	23852.40
495.67	23704.95
495.85	23864.10
496.02	24383.70
496.20	24271.36
496.38	24376.68
496.55	24617.75
496.73	25027.35
496.91	24739.46
497.09	24975.86
497.26	25130.33
497.44	24994.58
497.62	24971.18
497.79	25113.95
497.97	25240.34
498.14	25727.17
498.32	25596.10
498.50	25415.88
498.67	26033.78
498.85	25991.65
499.03	26029.10
499.20	26003.35
499.38	25933.14
499.56	26312.30
499.73	26143.78
499.91	26513.59
500.08	26668.06
500.26	26024.42
500.44	26497.20
500.61	26647.00
500.79	26368.48
500.97	26850.63
501.14	26829.56
501.32	26939.57
501.49	27035.53
501.67	27634.71
501.84	27145.53
502.02	27374.91
502.20	27398.31
502.37	27812.59
502.55	27641.73
502.72	28091.11
502.90	27716.62
503.07	27857.06
503.25	28009.19
503.43	27964.72
503.60	28219.84
503.78	28250.27
503.95	27775.14
504.13	28622.41
504.30	28549.85
504.48	28737.10
504.65	28753.48
504.83	28606.03
505.01	28985.19
505.18	29167.76
505.36	29560.97
505.53	29322.23
505.71	29729.48
505.88	29755.23
506.06	29329.25
506.23	29743.53
506.41	29465.00
506.58	29429.90
506.76	29970.56
506.93	29748.21
507.11	29771.61
507.28	29717.78
507.46	29827.79
507.63	30122.69
507.81	30103.97
507.98	29790.34
508.16	30015.03
508.33	30515.90
508.50	30906.77
508.68	31000.40
508.85	31168.91
509.03	30670.38
509.20	30831.88
509.38	30986.35
509.55	31166.57
509.73	31175.94
509.90	31274.24
510.08	31187.64
510.25	31229.77
510.42	31395.95
510.60	31564.46
510.77	31674.47
510.95	31908.52
511.12	31826.60
511.30	31445.10
511.47	32390.67
511.64	32105.13
511.82	32421.10
511.99	31995.12
512.17	32034.91
512.34	32154.28
512.51	32751.12
512.69	32723.03
512.86	32360.25
513.04	32648.13
513.21	32933.68
513.38	32713.67
513.56	32683.24
513.73	32818.99
513.90	32793.25
514.08	33041.34
514.25	33221.56
514.43	33724.78
514.60	33251.99
514.77	32802.61
514.95	33577.33
515.12	32931.34
515.29	33521.15
515.47	33460.30
515.64	34368.43
515.81	33951.81
515.99	33294.12
516.16	33879.25
516.33	33514.13
516.51	33596.05
516.68	33109.22
516.85	33184.12
517.03	33483.70
517.20	34153.10
517.37	34059.48
517.54	34433.96
517.72	34256.08
517.89	34010.32
518.06	34171.82
518.24	34164.80
518.41	34403.53
518.58	34284.17
518.75	34462.05
518.93	34834.19
519.10	34670.36
519.27	34719.51
519.45	35000.37
519.62	35264.85
519.79	35138.46
519.96	35466.14
520.14	35276.55
520.31	35548.06
520.48	34916.11
520.65	35328.05
520.83	35592.53
521.00	35592.53
521.17	35931.90
521.34	35683.81
521.52	35700.19
521.69	36039.57
521.86	36027.87
522.03	36217.45
522.20	36381.29
522.38	36287.67
522.55	36191.70
522.72	35578.48
522.89	36119.15
523.07	36381.29
523.24	36641.09
523.41	36575.55
523.58	36947.70
523.75	37319.84
523.92	37139.62
524.10	37230.90
524.27	36655.13
524.44	36790.88
524.61	37074.09
524.78	37233.24
524.96	37277.71
525.13	37521.13
525.30	37413.46
525.47	38036.05
525.64	37322.18
525.81	37729.44
525.98	37364.31
526.16	37184.09
526.33	36847.05
526.50	37420.48
526.67	37230.90
526.84	37235.58
527.01	37359.63
527.18	38146.05
527.36	38398.83
527.53	38380.10
527.70	38167.12
527.87	38562.67
528.04	38239.67
528.21	38574.37
528.38	38630.54
528.55	38366.06
528.72	38646.93
528.89	39335.04
529.07	38469.04
529.24	38651.61
529.41	38415.21
529.58	38459.68
529.75	38485.43
529.92	38866.94
530.09	38913.75
530.26	39203.97
530.43	39337.38
530.60	38529.90
530.77	39044.82
530.94	39681.44
531.11	39594.84
531.28	39405.26
531.46	39627.61
531.63	39791.45
531.80	39398.24
531.97	38897.36
532.14	39243.76
532.31	38857.57
532.48	39274.19
532.65	39587.82
532.82	39566.76
532.99	39552.71
533.16	39061.20
533.33	39901.45
533.50	39716.55
533.67	39484.84
533.84	39878.05
534.01	39775.06
534.18	39950.60
534.35	40467.86
534.52	39995.07
534.69	40133.17
534.86	40208.06
535.03	40360.20
535.20	40512.33
535.37	40549.78
535.54	40935.97
535.71	40631.70
535.88	40582.55
536.05	40795.54
536.22	40320.41
536.38	40701.92
536.55	40701.92
536.72	40603.61
536.89	40488.93
537.06	40683.19
537.23	41347.90
537.40	41057.68
537.57	41029.59
537.74	40994.48
537.91	41123.21
538.08	41228.54
538.25	41118.53
538.42	41340.88
538.59	41200.45
538.75	40959.38
538.92	41111.51
539.09	41305.77
539.26	41296.41
539.43	41717.71
539.60	41371.31
539.77	41476.63
539.94	40912.56
540.11	41158.32
540.28	41598.34
540.44	41549.19
540.61	41265.99
540.78	41198.11
540.95	40840.01
541.12	41387.69
541.29	41738.77
541.46	41551.53
541.62	41649.83
541.79	41642.81
541.96	41464.93
542.13	41794.95
542.30	42038.36
542.47	42169.43
542.63	41687.28
542.80	42171.77
542.97	42419.87
543.14	42398.80
543.31	42614.13
543.48	42267.73
543.64	42700.73
543.81	42792.01
543.98	42658.60
544.15	42693.71
544.32	42759.25
544.48	43529.28
544.65	42780.31
544.82	43077.56
544.99	42665.63
545.16	42499.45
545.32	42466.68
545.49	43463.75
545.66	43159.48
545.83	42918.40
546.00	43007.34
546.16	42731.16
546.33	42466.68
546.50	42630.52
546.67	43126.71
546.83	42869.25
547.00	43503.54
547.17	43210.97
547.34	42920.74
547.50	43267.14
547.67	43650.99
547.84	43512.90
548.00	43899.09
548.17	43753.97
548.34	43328.00
548.51	43700.14
548.67	43435.66
548.84	43906.11
549.01	43386.51
549.18	43538.65
549.34	43709.50
549.51	43552.69
549.68	44072.29
549.84	43894.41
550.01	43658.01
550.18	43625.25
550.34	43796.10
550.51	43868.66
550.68	44123.78
550.84	43714.19
551.01	44189.31
551.18	43915.47
551.34	44271.23
551.51	43995.05
551.68	44107.40
551.84	44093.35
552.01	43927.17
552.18	44037.18
552.34	44268.89
552.51	44170.59
552.68	43999.73
552.84	44222.08
553.01	44528.69
553.18	44519.33
553.34	44259.53
553.51	44538.05
553.67	44439.75
553.84	44898.50
554.01	44648.06
554.17	44662.10
554.34	44629.34
554.51	44905.52
554.67	45104.46
554.84	44509.97
555.00	44421.03
555.17	44418.69
555.33	44587.21
555.50	44472.52
555.67	44341.45
555.83	44580.18
556.00	44673.81
556.16	44966.37
556.33	45043.61
556.50	44732.32
556.66	45172.34
556.83	44641.04
556.99	45326.81
557.16	45404.05
557.32	45263.62
557.49	44992.12
557.65	45013.18
557.82	44994.46
557.98	44959.35
558.15	45139.57
558.32	45160.64
558.48	44861.05
558.65	44912.54
558.81	44776.79
558.98	44641.04
559.14	45144.25
559.31	45116.17
559.47	45179.36
559.64	45287.03
559.80	45544.48
559.97	45366.60
560.13	44877.43
560.30	45132.55
560.46	45205.11
560.63	45572.57
560.79	45682.58
560.96	45642.79
561.12	45556.19
561.29	44938.29
561.45	45237.87
561.61	45350.22
561.78	45490.65
561.94	45174.68
562.11	45542.14
562.27	44811.90
562.44	45277.66
562.60	45406.39
562.77	45584.27
562.93	45294.05
563.10	45577.25
563.26	45184.04
563.42	45666.19
563.59	45418.10
563.75	45385.33
563.92	45542.14
564.08	45656.83
564.24	45778.54
564.41	45277.66
564.57	45642.79
564.74	45483.63
564.90	45371.28
565.07	45572.57
565.23	45528.10
565.39	45308.09
565.56	45705.98
565.72	44973.39
565.88	45535.12
566.05	45729.39
566.21	45144.25
566.38	45244.90
566.54	45837.05
566.70	45652.15
566.87	46000.89
567.03	45785.56
567.19	46256.01
567.36	45921.31
567.52	45778.54
567.68	45663.85
567.85	45904.93
568.01	45738.75
568.17	45581.93
568.34	45874.50
568.50	45776.20
568.66	45610.02
568.83	45652.15
568.99	45415.76
569.15	45624.06
569.32	45422.78
569.48	45633.42
569.64	46096.85
569.81	45656.83
569.97	45860.46
570.13	45375.97
570.30	45401.71
570.46	45598.32
570.62	45516.40
570.78	45394.69
570.95	45579.59
571.11	45904.93
571.27	45713.00
571.43	45727.05
571.60	46333.24
571.76	45855.78
571.92	45607.68
572.09	45769.18
572.25	45972.80
572.41	45771.52
572.57	46246.65
572.74	46321.54
572.90	46007.91
573.06	45764.49
573.22	45696.62
573.38	45794.92
573.55	45530.44
573.71	46256.01
573.87	46298.14
574.03	46450.27
574.20	46176.43
574.36	45757.47
574.52	46094.51
574.68	45825.35
574.84	46073.45
575.01	45804.28
575.17	45876.84
575.33	45673.21
575.49	45621.72
575.65	46103.87
575.82	45621.72
575.98	45612.36
576.14	46445.59
576.30	45902.59
576.46	45724.71
576.62	45652.15
576.79	46103.87
576.95	45874.50
577.11	45750.45
577.27	46005.57
577.43	45560.87
577.59	45649.81
577.75	45308.09
577.92	45361.92
578.08	45970.46
578.24	46036.00
578.40	45956.42
578.56	46143.66
578.72	46066.42
578.88	46040.68
579.04	46211.54
579.21	45787.90
579.37	45806.62
579.53	46124.94
579.69	45743.43
579.85	46153.02
580.01	45790.24
580.17	46160.05
580.33	45570.23
580.49	45968.12
580.65	45813.65
580.82	46028.98
580.98	46108.55
581.14	45645.13
581.30	46536.87
581.46	46005.57
581.62	46043.02
581.78	46424.53
581.94	46115.58
582.10	46216.22
582.26	46064.08
582.42	46050.04
582.58	46389.42
582.74	46375.37
582.90	46358.99
583.06	46307.50
583.22	46574.32
583.38	46506.44
583.54	46728.80
583.70	46071.10
583.86	46148.34
584.02	46227.92
584.18	46211.54
584.34	46057.06
584.50	46220.90
584.66	45914.29
584.82	45736.41
584.98	45991.53
585.14	46248.99
585.30	46183.45
585.46	45764.49
585.62	45488.31
585.78	45965.78
585.94	45925.99
586.10	46092.17
586.26	46426.87
586.42	46195.15
586.58	46330.90
586.74	46277.07
586.90	46036.00
587.06	45998.55
587.22	46253.67
587.38	45935.35
587.54	46148.34
587.70	46457.29
587.86	46490.06
588.02	46167.07
588.18	46244.30
588.34	45504.70
588.49	45436.82
588.65	45052.97
588.81	45720.02
588.97	45549.17
589.13	45617.04
589.29	46153.02
589.45	45766.84
589.61	45902.59
589.77	46153.02
589.93	46225.58
590.08	46171.75
