SpectraSuite Data File
++++++++++++++++++++++++++++++++++++
Date: Fri Oct 25 11:34:36 EDT 2013
User: price-jones
Dark Spectrum Present: No
Reference Spectrum Present: No
Number of Sampled Component Spectra: 1
Spectrometers: USB2+H05261
Integration Time (usec): 100000 (USB2+H05261)
Spectra Averaged: 1 (USB2+H05261)
Boxcar Smoothing: 0 (USB2+H05261)
Correct for Electrical Dark: No (USB2+H05261)
Strobe/Lamp Enabled: No (USB2+H05261)
Correct for Detector Non-linearity: No (USB2+H05261)
Correct for Stray Light: No (USB2+H05261)
Number of Pixels in Processed Spectrum: 2048
>>>>>Begin Processed Spectral Data<<<<<
365.73	290.23
365.92	290.23
366.12	290.23
366.32	236.39
366.52	173.20
366.72	182.56
366.91	196.60
367.11	189.58
367.31	203.63
367.51	145.11
367.70	105.32
367.90	166.18
368.10	196.60
368.30	217.67
368.49	145.11
368.69	180.22
368.89	224.69
369.09	220.01
369.28	257.46
369.48	142.77
369.68	182.56
369.87	259.80
370.07	262.14
370.27	325.33
370.47	313.63
370.66	507.90
370.86	517.26
371.06	512.58
371.25	592.16
371.45	500.87
371.65	524.28
371.84	543.00
372.04	540.66
372.24	528.96
372.44	636.63
372.63	674.07
372.83	505.56
373.03	627.26
373.22	582.79
373.42	538.32
373.62	566.41
373.81	578.11
374.01	624.92
374.21	624.92
374.40	601.52
374.60	648.33
374.79	571.09
374.99	580.45
375.19	615.56
375.38	660.03
375.58	615.56
375.78	690.46
375.97	711.52
376.17	720.88
376.37	627.26
376.56	702.16
376.76	627.26
376.95	690.46
377.15	638.97
377.35	718.54
377.54	681.10
377.74	617.90
377.93	702.16
378.13	645.99
378.33	664.71
378.52	608.54
378.72	706.84
378.91	664.71
379.11	685.78
379.31	638.97
379.50	676.41
379.70	770.04
379.89	765.36
380.09	739.61
380.28	723.23
380.48	695.14
380.68	744.29
380.87	744.29
381.07	732.59
381.26	678.76
381.46	674.07
381.65	655.35
381.85	695.14
382.04	781.74
382.24	758.33
382.43	746.63
382.63	777.06
382.83	788.76
383.02	816.85
383.22	798.12
383.41	809.83
383.61	774.72
383.80	868.34
384.00	774.72
384.19	706.84
384.39	737.27
384.58	791.10
384.78	795.78
384.97	763.01
385.17	828.55
385.36	821.53
385.56	823.87
385.75	777.06
385.95	851.96
386.14	795.78
386.34	861.32
386.53	891.74
386.72	725.57
386.92	896.43
387.11	816.85
387.31	919.83
387.50	887.06
387.70	936.21
387.89	844.93
388.09	894.08
388.28	863.66
388.48	875.36
388.67	931.53
388.86	898.77
389.06	877.70
389.25	990.05
389.45	919.83
389.64	947.92
389.84	957.28
390.03	973.66
390.22	990.05
390.42	940.90
390.61	950.26
390.81	968.98
391.00	943.24
391.19	985.37
391.39	898.77
391.58	952.60
391.78	938.55
391.97	1027.50
392.16	999.41
392.36	1057.92
392.55	1032.18
392.75	931.53
392.94	1050.90
393.13	994.73
393.33	1067.28
393.52	1011.11
393.71	1050.90
393.91	997.07
394.10	994.73
394.29	1093.03
394.49	968.98
394.68	1069.62
394.88	1055.58
395.07	1163.25
395.26	1067.28
395.46	1125.80
395.65	1060.26
395.84	1172.61
396.04	1198.35
396.23	1118.78
396.42	1097.71
396.62	1200.69
396.81	1167.93
397.00	1219.42
397.19	1193.67
397.39	1207.72
397.58	1217.08
397.77	1172.61
397.97	1259.21
398.16	1207.72
398.35	1097.71
398.55	1198.35
398.74	1224.10
398.93	1200.69
399.12	1219.42
399.32	1174.95
399.51	1287.29
399.70	1322.40
399.90	1324.74
400.09	1247.51
400.28	1310.70
400.47	1242.82
400.67	1418.36
400.86	1380.92
401.05	1350.49
401.24	1357.51
401.44	1441.77
401.63	1390.28
401.82	1401.98
402.01	1383.26
402.21	1338.79
402.40	1371.55
402.59	1378.58
402.78	1535.39
402.97	1441.77
403.17	1504.96
403.36	1434.75
403.55	1493.26
403.74	1495.60
403.93	1523.69
404.13	1579.86
404.32	1603.27
404.51	1563.48
404.70	1561.14
404.89	1593.90
405.09	1614.97
405.28	1650.08
405.47	1603.27
405.66	1556.46
405.85	1584.54
406.05	1753.06
406.24	1673.48
406.43	1687.53
406.62	1736.68
406.81	1776.47
407.00	1694.55
407.20	1762.42
407.39	1713.27
407.58	1687.53
407.77	1825.62
407.96	1750.72
408.15	1872.43
408.34	1797.53
408.54	1783.49
408.73	1708.59
408.92	1851.36
409.11	1888.81
409.30	1820.94
409.49	1909.88
409.68	1956.69
409.87	1827.96
410.07	1886.47
410.26	2017.54
410.45	1907.54
410.64	1930.94
410.83	1991.80
411.02	1952.01
411.21	2017.54
411.40	2031.58
411.59	2090.10
411.78	2256.28
411.98	2080.74
412.17	2104.14
412.36	2232.87
412.55	2150.95
412.74	2303.09
412.93	2197.76
413.12	2190.74
413.31	2202.44
413.50	2157.97
413.69	2282.02
413.88	2368.62
414.07	2286.70
414.26	2300.75
414.45	2300.75
414.64	2487.99
414.83	2546.50
415.02	2389.69
415.22	2497.35
415.41	2534.80
415.60	2506.71
415.79	2523.10
415.98	2689.28
416.17	2665.87
416.36	2635.44
416.55	2462.24
416.74	2663.53
416.93	2621.40
417.12	2693.96
417.31	2581.61
417.50	2644.81
417.69	2789.92
417.88	2768.85
418.07	2818.00
418.26	2757.15
418.45	2836.73
418.64	3056.74
418.83	2972.48
419.02	3000.57
419.21	2932.69
419.39	2928.01
419.58	2951.42
419.77	2935.03
419.96	2965.46
420.15	2944.39
420.34	3007.59
420.53	3075.46
420.72	3105.89
420.91	2974.82
421.10	3052.06
421.29	3105.89
421.48	3145.68
421.67	3131.64
421.86	3009.93
422.05	3220.58
422.24	3169.09
422.43	3185.47
422.61	3185.47
422.80	3274.41
422.99	3129.30
423.18	3304.84
423.37	3276.75
423.56	3251.00
423.75	3267.39
423.94	3066.10
424.13	3002.91
424.32	3098.87
424.50	3283.77
424.69	3293.13
424.88	3274.41
425.07	3372.71
425.26	3225.26
425.45	3328.24
425.64	3328.24
425.83	3258.03
426.01	3286.11
426.20	3325.90
426.39	3293.13
426.58	3323.56
426.77	3274.41
426.96	3382.07
427.15	3353.99
427.33	3368.03
427.52	3496.76
427.71	3365.69
427.90	3382.07
428.09	3454.63
428.28	3421.86
428.46	3588.04
428.65	3405.48
428.84	3506.12
429.03	3566.98
429.22	3419.52
429.40	3538.89
429.59	3702.73
429.78	3487.40
429.97	3433.57
430.16	3529.53
430.34	3716.77
430.53	3588.04
430.72	3751.88
430.91	3583.36
431.10	3651.24
431.28	3653.58
431.47	3735.50
431.66	3873.59
431.85	3667.62
432.03	3705.07
432.22	3871.25
432.41	3784.65
432.60	3859.54
432.79	3854.86
432.97	3911.04
433.16	3922.74
433.35	3880.61
433.54	3894.65
433.72	3941.46
433.91	3939.12
434.10	4044.45
434.28	3974.23
434.47	4021.04
434.66	3941.46
434.85	4065.51
435.03	4044.45
435.22	4147.43
435.41	4257.43
435.59	4074.87
435.78	4154.45
435.97	4070.19
436.16	4219.99
436.34	4189.56
436.53	4301.90
436.72	4365.10
436.90	4145.09
437.09	4374.46
437.28	4196.58
437.46	4294.88
437.65	4362.76
437.84	4339.35
438.02	4376.80
438.21	4276.16
438.40	4379.14
438.58	4542.98
438.77	4571.07
438.96	4484.47
439.14	4547.66
439.33	4727.88
439.52	4779.37
439.70	4535.96
439.89	4727.88
440.08	4629.58
440.26	4798.10
440.45	4788.74
440.63	4807.46
440.82	4861.29
441.01	4875.34
441.19	4933.85
441.38	4919.81
441.57	5013.43
441.75	4901.08
441.94	5214.71
442.12	5004.07
442.31	5263.86
442.50	5205.35
442.68	5114.07
442.87	5069.60
443.05	5191.31
443.24	5249.82
443.43	5212.37
443.61	5263.86
443.80	5387.91
443.98	5247.48
444.17	5111.73
444.35	5212.37
444.54	5301.31
444.73	5294.29
444.91	5322.38
445.10	5259.18
445.28	5413.66
445.47	5399.62
445.65	5256.84
445.84	5406.64
446.02	5427.70
446.21	5614.95
446.39	5364.51
446.58	5547.07
446.77	5563.45
446.95	5338.76
447.14	5563.45
447.32	5516.64
447.51	5589.20
447.69	5404.30
447.88	5572.82
448.06	5502.60
448.25	5493.24
448.43	5713.25
448.62	5643.03
448.80	5528.35
448.99	5657.07
449.17	5621.97
449.36	5540.05
449.54	5680.48
449.73	5832.62
449.91	5727.29
450.10	5612.60
450.28	5788.14
450.46	5991.77
450.65	5874.74
450.83	5851.34
451.02	5809.21
451.20	5914.53
451.39	5760.06
451.57	5907.51
451.76	5849.00
451.94	5977.73
452.13	5989.43
452.31	5905.17
452.49	5919.21
452.68	5956.66
452.86	5991.77
453.05	6108.80
453.23	6092.41
453.42	6001.13
453.60	6038.58
453.78	6066.67
453.97	6019.86
454.15	5977.73
454.34	6106.46
454.52	6284.34
454.70	6246.89
454.89	6249.23
455.07	6031.56
455.26	6305.40
455.44	6314.77
455.62	6394.34
455.81	6099.44
455.99	6436.47
456.17	6471.58
456.36	6506.69
456.54	6345.19
456.73	6476.26
456.91	6689.25
457.09	6658.82
457.28	6789.89
457.46	6590.95
457.64	6679.89
457.83	6665.85
458.01	6792.23
458.19	6860.11
458.38	6719.68
458.56	6815.64
458.74	6829.68
458.93	6789.89
459.11	6832.02
459.29	6857.77
459.48	6911.60
459.66	6942.03
459.84	6967.77
460.03	7225.23
460.21	6946.71
460.39	7105.87
460.57	7049.69
460.76	7206.51
460.94	7173.74
461.12	7124.59
461.31	7063.74
461.49	7056.72
461.67	7232.26
461.85	7243.96
462.04	7187.79
462.22	7653.55
462.40	7351.62
462.59	7339.92
462.77	7524.82
462.95	7412.48
463.13	7391.41
463.32	7372.69
463.50	7356.30
463.68	7513.12
463.86	7445.24
464.05	7470.99
464.23	7595.04
464.41	7564.61
464.59	7382.05
464.78	7782.28
464.96	7578.65
465.14	7449.93
465.32	7838.45
465.50	7702.70
465.69	7817.39
465.87	7730.79
466.05	7672.28
466.23	7662.91
466.41	7742.49
466.60	7978.89
466.78	7726.11
466.96	7789.30
467.14	7861.86
467.32	7705.04
467.51	7943.78
467.69	7758.88
467.87	7985.91
468.05	7920.37
468.23	7929.74
468.41	7866.54
468.60	8039.74
468.78	8060.80
468.96	8025.70
469.14	8131.02
469.32	8266.77
469.50	8212.94
469.69	8339.33
469.87	8166.13
470.05	8243.37
470.23	8306.56
470.41	8299.54
470.59	8573.38
470.77	8301.88
470.95	8475.08
471.14	8568.70
471.32	8311.24
471.50	8519.55
471.68	8615.51
471.86	8741.90
472.04	8739.56
472.22	8678.71
472.40	8624.87
472.58	8706.79
472.77	8767.65
472.95	8830.84
473.13	8957.23
473.31	8943.19
473.49	9191.28
473.67	8833.18
473.85	8872.97
474.03	9039.15
474.21	9118.73
474.39	9430.02
474.57	9212.35
474.75	9273.20
474.93	9472.15
475.12	9369.16
475.30	9584.49
475.48	9444.06
475.66	9820.89
475.84	9614.92
476.02	9671.09
476.20	9734.29
476.38	9884.08
476.56	9928.55
476.74	9818.55
476.92	10066.64
477.10	9935.57
477.28	10127.50
477.46	10169.63
477.64	10190.69
477.82	10368.57
478.00	10637.73
478.18	10551.14
478.36	10675.18
478.54	10703.27
478.72	11080.10
478.90	10841.36
479.08	10981.79
479.26	11068.39
479.44	11157.33
479.62	11075.42
479.80	11225.21
479.98	11166.70
480.16	11772.89
480.34	11449.90
480.52	11585.65
480.70	11578.63
480.88	11515.44
481.06	11552.88
481.24	11838.43
481.41	12063.12
481.59	12210.57
481.77	12035.03
481.95	12236.32
482.13	12145.04
482.31	12233.98
482.49	12470.37
482.67	12496.12
482.85	12547.61
483.03	12798.05
483.21	13043.81
483.39	12755.92
483.57	12966.57
483.74	13291.90
483.92	13357.44
484.10	13298.92
484.28	13614.90
484.46	13640.64
484.64	13930.87
484.82	13823.20
485.00	14050.24
485.18	14047.90
485.35	14544.09
485.53	14235.14
485.71	14303.01
485.89	14728.99
486.07	14572.18
486.25	14626.01
486.43	14607.28
486.61	14581.54
486.78	14967.73
486.96	15075.39
487.14	14972.41
487.32	15260.29
487.50	15510.73
487.68	15590.31
487.85	15599.67
488.03	15653.50
488.21	16233.96
488.39	16107.57
488.57	16470.35
488.75	16196.51
488.92	16538.23
489.10	16760.58
489.28	16491.41
489.46	16854.20
489.64	17020.38
489.81	17137.40
489.99	17167.83
490.17	17397.20
490.35	17343.37
490.53	17366.78
490.70	17673.39
490.88	17617.21
491.06	17755.30
491.24	17891.06
491.41	17956.59
491.59	18356.82
491.77	18150.85
491.95	18279.58
492.13	18214.05
492.30	18359.16
492.48	18429.38
492.66	18876.42
492.84	18810.89
493.01	19063.66
493.19	19241.54
493.37	18923.23
493.54	19398.36
493.72	19325.80
493.90	19541.13
494.08	19517.73
494.25	19744.76
494.43	19742.42
494.61	19852.42
494.79	20205.84
494.96	19754.12
495.14	20350.96
495.32	20372.02
495.49	20542.88
495.67	20634.16
495.85	20657.57
496.02	20952.48
496.20	21092.91
496.38	21298.88
496.55	21132.70
496.73	21425.26
496.91	21322.28
497.09	21546.97
497.26	21687.40
497.44	21865.28
497.62	21846.56
497.79	22054.87
497.97	22066.57
498.14	22192.96
498.32	22356.80
498.50	22562.76
498.67	22822.56
498.85	23019.17
499.03	22862.35
499.20	22553.40
499.38	23035.55
499.56	22822.56
499.73	22860.01
499.91	23543.45
500.08	23454.51
500.26	23147.90
500.44	23175.98
500.61	23405.36
500.79	23445.15
500.97	23648.77
501.14	23927.30
501.32	23990.49
501.49	23871.12
501.67	23978.79
501.84	24116.88
502.02	24233.91
502.20	24034.96
502.37	24261.99
502.55	24339.23
502.72	24414.13
502.90	24549.88
503.07	24542.86
503.25	24493.71
503.43	24435.19
503.60	25055.43
503.78	24973.52
503.95	24781.59
504.13	24882.24
504.30	25090.54
504.48	25235.66
504.65	25359.70
504.83	25532.90
505.01	25319.92
505.18	25984.63
505.36	25596.10
505.53	25745.89
505.71	25764.62
505.88	25666.31
506.06	25982.29
506.23	26230.38
506.41	25860.58
506.58	26120.38
506.76	26501.89
506.93	26314.64
507.11	26258.47
507.28	26623.59
507.46	26579.12
507.63	26450.39
507.81	26668.06
507.98	26859.99
508.16	26670.40
508.33	26806.16
508.50	27143.19
508.68	27136.17
508.85	27489.59
509.03	27611.30
509.20	27297.67
509.38	27585.55
509.55	27688.54
509.73	27513.00
509.90	27625.34
510.08	27428.74
510.25	27751.73
510.42	28053.66
510.60	27950.68
510.77	28308.78
510.95	28533.47
511.12	28273.67
511.30	28456.23
511.47	28769.86
511.64	27976.42
511.82	28645.82
511.99	28772.21
512.17	28814.34
512.34	28472.62
512.51	28971.15
512.69	29525.86
512.86	28996.90
513.04	29195.84
513.21	28992.22
513.38	29228.61
513.56	29436.92
513.73	29322.23
513.90	29387.77
514.08	29738.85
514.25	29788.00
514.43	29797.36
514.60	29673.31
514.77	29954.18
514.95	29813.74
515.12	29755.23
515.29	29827.79
515.47	30405.90
515.64	30153.12
515.81	29696.72
515.99	30436.33
516.16	30478.46
516.33	30679.74
516.51	30824.86
516.68	30670.38
516.85	30426.96
517.03	30792.09
517.20	30686.76
517.37	30888.05
517.54	31187.64
517.72	31065.93
517.89	31189.98
518.06	30925.50
518.24	31351.48
518.41	31248.49
518.58	31461.48
518.75	30984.01
518.93	31466.16
519.10	31592.55
519.27	31842.99
519.45	31704.90
519.62	31686.17
519.79	31735.32
519.96	31737.66
520.14	32180.03
520.31	31810.22
520.48	32472.59
520.65	32156.62
520.83	32655.15
521.00	32320.46
521.17	32362.59
521.34	32327.48
521.52	32634.09
521.69	32748.78
521.86	32669.20
522.03	32870.48
522.20	32992.19
522.38	33188.80
522.55	33081.13
522.72	33102.20
522.89	33291.78
523.07	33268.37
523.24	33420.51
523.41	33645.20
523.58	32861.12
523.75	33336.25
523.92	33525.83
524.10	33799.68
524.27	33500.09
524.44	33890.96
524.61	34178.84
524.78	33940.11
524.96	33844.15
525.13	34146.08
525.30	33886.28
525.47	34007.98
525.64	34139.05
525.81	34604.82
525.98	34323.96
526.16	34321.62
526.33	33923.72
526.50	34679.72
526.67	34068.84
526.84	34660.99
527.01	34778.02
527.18	34429.28
527.36	34735.89
527.53	34660.99
527.70	35180.59
527.87	35283.58
528.04	34307.57
528.21	35278.89
528.38	35077.61
528.55	35131.44
528.72	34693.76
528.89	35014.41
529.07	35424.01
529.24	35143.14
529.41	35793.81
529.58	35391.24
529.75	35133.78
529.92	35622.95
530.09	35337.41
530.26	35704.87
530.43	35552.74
530.60	35189.95
530.77	35328.05
530.94	35758.70
531.11	35688.49
531.28	35594.87
531.46	36044.25
531.63	36346.18
531.80	35639.34
531.97	36486.61
532.14	35999.78
532.31	36271.28
532.48	36376.61
532.65	36470.23
532.82	36243.20
532.99	36062.97
533.16	36210.43
533.33	36662.15
533.50	36353.20
533.67	36774.50
533.84	36704.28
534.01	36870.46
534.18	36964.08
534.35	37055.36
534.52	37078.77
534.69	37291.76
534.86	37476.66
535.03	37174.73
535.20	36980.46
535.37	37411.12
535.54	37338.57
535.71	37319.84
535.88	37354.95
536.05	37282.39
536.22	37603.05
536.38	37811.35
536.55	37385.38
536.72	37371.33
536.89	37291.76
537.06	37624.11
537.23	37862.85
537.40	37715.39
537.57	37801.99
537.74	37589.00
537.91	38038.39
538.08	37970.51
538.25	37633.47
538.42	37975.19
538.59	38417.55
538.75	38246.69
538.92	38258.40
539.09	38747.57
539.26	38242.01
539.43	37851.14
539.60	38389.47
539.77	38415.21
539.94	38328.61
540.11	38525.22
540.28	38499.47
540.44	38780.34
540.61	38323.93
540.78	38656.29
540.95	39023.75
541.12	38373.08
541.29	39061.20
541.46	38979.28
541.62	38838.85
541.79	38815.44
541.96	38595.43
542.13	38541.60
542.30	38852.89
542.47	39100.99
542.63	39147.80
542.80	39536.33
542.97	39346.75
543.14	39768.04
543.31	39533.99
543.48	39438.03
543.64	39672.08
543.81	39716.55
543.98	40170.61
544.15	39557.39
544.32	39718.89
544.48	40360.20
544.65	40055.93
544.82	39903.79
544.99	39824.22
545.16	40189.34
545.32	39852.30
545.49	40411.69
545.66	40086.36
545.83	40149.55
546.00	39985.71
546.16	40275.94
546.33	40491.27
546.50	39885.07
546.67	40526.38
546.83	39824.22
547.00	40596.59
547.17	40292.32
547.34	40715.96
547.50	40381.26
547.67	40659.79
547.84	40598.93
548.00	40627.02
548.17	40978.10
548.34	40687.87
548.51	41205.13
548.67	41275.35
548.84	41020.23
549.01	40903.20
549.18	40713.62
549.34	41095.13
549.51	41401.74
549.68	41155.98
549.84	40973.42
550.01	41570.25
550.18	40931.29
550.34	41102.15
550.51	41244.92
550.68	41249.60
550.84	40910.22
551.01	41867.50
551.18	41329.18
551.34	41425.14
551.51	41675.58
551.68	41455.57
551.84	41698.98
552.01	41724.73
552.18	41556.21
552.34	41359.61
552.51	41518.76
552.68	41010.87
552.84	41790.27
553.01	41565.57
553.18	42080.49
553.34	41652.17
553.51	41869.84
553.67	41600.68
553.84	42192.84
554.01	41888.57
554.17	42190.50
554.34	42382.42
554.51	42227.95
554.67	42225.60
554.84	42323.91
555.00	42391.78
555.17	41909.63
555.33	42485.40
555.50	42529.87
555.67	42548.60
555.83	42377.74
556.00	41942.40
556.16	42712.44
556.33	42646.90
556.50	42389.44
556.66	42349.65
556.83	42384.76
556.99	42864.57
557.16	42836.48
557.32	42836.48
557.49	43264.80
557.65	42714.78
557.82	42733.50
557.98	42808.40
558.15	42646.90
558.32	42918.40
558.48	42958.19
558.65	42579.03
558.81	42602.43
558.98	42864.57
559.14	43133.73
559.31	43065.86
559.47	43089.26
559.64	43407.58
559.80	42990.96
559.97	43166.50
560.13	42906.70
560.30	42787.33
560.46	43367.79
560.63	43283.53
560.79	43175.86
560.96	43253.10
561.12	42981.60
561.29	43136.07
561.45	43601.84
561.61	43115.01
561.78	43342.04
561.94	43285.87
562.11	43452.05
562.27	43449.70
562.44	43583.12
562.60	43475.45
562.77	43531.62
562.93	43201.61
563.10	43915.47
563.26	43325.66
563.42	43753.97
563.59	43217.99
563.75	43337.36
563.92	43292.89
564.08	43950.58
564.24	43938.88
564.41	43522.26
564.57	43681.42
564.74	43723.55
564.90	43566.73
565.07	43337.36
565.23	43508.22
565.39	43791.42
565.56	43552.69
565.72	43569.07
565.88	44051.22
566.05	44034.84
566.21	43973.98
566.38	43913.13
566.54	43587.80
566.70	43854.62
566.87	43672.06
567.03	43906.11
567.19	44116.76
567.36	44215.06
567.52	43943.56
567.68	43931.86
567.85	44041.86
568.01	44147.18
568.17	43814.83
568.34	44130.80
568.50	44285.28
568.66	43880.36
568.83	43658.01
568.99	43746.95
569.15	44069.95
569.32	43962.28
569.48	44023.14
569.64	44112.08
569.81	44182.29
569.97	44222.08
570.13	44477.20
570.30	44002.07
570.46	44102.71
570.62	44327.41
570.78	43887.39
570.95	43908.45
571.11	44676.15
571.27	44299.32
571.43	44233.78
571.60	44116.76
571.76	44226.76
571.92	44144.84
572.09	44030.16
572.25	44189.31
572.41	44442.09
572.57	44608.27
572.74	45134.89
572.90	43969.30
573.06	44287.62
573.22	44444.43
573.38	44786.15
573.55	44308.68
573.71	44870.41
573.87	44753.38
574.03	44912.54
574.20	44760.40
574.36	44566.14
574.52	44732.32
574.68	44521.67
574.84	44460.82
575.01	44793.17
575.17	44704.23
575.33	44397.62
575.49	44486.56
575.65	44540.39
575.82	44545.08
575.98	44439.75
576.14	44854.03
576.30	44921.90
576.46	44767.43
576.62	44552.10
576.79	44655.08
576.95	44559.12
577.11	44219.74
577.27	44411.67
577.43	44458.48
577.59	44591.89
577.75	44224.42
577.92	44655.08
578.08	44737.00
578.24	44741.68
578.40	45268.30
578.56	44582.52
578.72	44626.99
578.88	44989.78
579.04	44795.51
579.21	44765.09
579.37	44863.39
579.53	44364.85
579.69	44535.71
579.85	44804.88
580.01	44821.26
580.17	45254.26
580.33	44872.75
580.49	44924.24
580.65	44687.85
580.82	44655.08
580.98	44889.13
581.14	44687.85
581.30	44549.76
581.46	44863.39
581.62	44818.92
581.78	44479.54
581.94	44594.23
582.10	45041.27
582.26	45324.47
582.42	44886.79
582.58	44748.70
582.74	44746.36
582.90	45146.59
583.06	45277.66
583.22	45357.24
583.38	45153.62
583.54	45186.38
583.70	44858.71
583.86	44919.56
584.02	45160.64
584.18	45146.59
584.34	44816.58
584.50	45113.83
584.66	45172.34
584.82	44938.29
584.98	45345.54
585.14	44898.50
585.30	44526.35
585.46	45090.42
585.62	44788.49
585.78	44793.17
585.94	44617.63
586.10	44364.85
586.26	44479.54
586.42	44842.32
586.58	45067.02
586.74	44657.42
586.90	44945.31
587.06	44655.08
587.22	45478.95
587.38	45125.53
587.54	45036.59
587.70	45249.58
587.86	45109.14
588.02	44676.15
588.18	44914.88
588.34	45202.77
588.49	44718.28
588.65	45055.31
588.81	45195.74
588.97	45043.61
589.13	45350.22
589.29	44797.85
589.45	45443.84
589.61	45413.41
589.77	45263.62
589.93	45537.46
590.08	45265.96
590.24	45624.06
