SpectraSuite Data File
++++++++++++++++++++++++++++++++++++
Date: Fri Oct 25 11:33:44 EDT 2013
User: price-jones
Dark Spectrum Present: No
Reference Spectrum Present: No
Number of Sampled Component Spectra: 1
Spectrometers: USB2+H05261
Integration Time (usec): 100000 (USB2+H05261)
Spectra Averaged: 1 (USB2+H05261)
Boxcar Smoothing: 0 (USB2+H05261)
Correct for Electrical Dark: No (USB2+H05261)
Strobe/Lamp Enabled: No (USB2+H05261)
Correct for Detector Non-linearity: No (USB2+H05261)
Correct for Stray Light: No (USB2+H05261)
Number of Pixels in Processed Spectrum: 2048
>>>>>Begin Processed Spectral Data<<<<<
365.73	294.91
365.92	294.91
366.12	294.91
366.32	133.41
366.52	166.18
366.72	220.01
366.91	105.32
367.11	187.24
367.31	152.13
367.51	161.50
367.70	156.82
367.90	180.22
368.10	184.90
368.30	152.13
368.49	198.95
368.69	168.52
368.89	220.01
369.09	210.65
369.28	236.39
369.48	170.86
369.68	243.42
369.87	203.63
370.07	245.76
370.27	292.57
370.47	355.76
370.66	517.26
370.86	557.05
371.06	547.69
371.25	538.32
371.45	575.77
371.65	573.43
371.84	578.11
372.04	503.22
372.24	587.47
372.44	564.07
372.63	596.84
372.83	568.75
373.03	575.77
373.22	660.03
373.42	650.67
373.62	657.69
373.81	645.99
374.01	645.99
374.21	606.20
374.40	585.13
374.60	676.41
374.79	615.56
374.99	622.58
375.19	594.50
375.38	667.05
375.58	674.07
375.78	620.24
375.97	727.91
376.17	603.86
376.37	676.41
376.56	671.73
376.76	676.41
376.95	688.12
377.15	683.44
377.35	697.48
377.54	655.35
377.74	664.71
377.93	667.05
378.13	772.38
378.33	664.71
378.52	734.93
378.72	706.84
378.91	807.48
379.11	683.44
379.31	692.80
379.50	730.25
379.70	765.36
379.89	716.20
380.09	751.31
380.28	676.41
380.48	615.56
380.68	657.69
380.87	667.05
381.07	739.61
381.26	809.83
381.46	727.91
381.65	805.14
381.85	791.10
382.04	763.01
382.24	758.33
382.43	823.87
382.63	830.89
382.83	793.44
383.02	840.25
383.22	786.42
383.41	791.10
383.61	809.83
383.80	819.19
384.00	887.06
384.19	781.74
384.39	795.78
384.58	830.89
384.78	851.96
384.97	807.48
385.17	891.74
385.36	833.23
385.56	781.74
385.75	880.04
385.95	873.02
386.14	873.02
386.34	800.46
386.53	858.98
386.72	863.66
386.92	887.06
387.11	847.27
387.31	889.40
387.50	919.83
387.70	868.34
387.89	870.68
388.09	856.64
388.28	905.79
388.48	915.15
388.67	1032.18
388.86	924.51
389.06	936.21
389.25	978.34
389.45	971.32
389.64	884.72
389.84	938.55
390.03	978.34
390.22	947.92
390.42	933.87
390.61	924.51
390.81	1018.13
391.00	1048.56
391.19	983.02
391.39	1018.13
391.58	1001.75
391.78	1053.24
391.97	1086.01
392.16	1074.31
392.36	997.07
392.55	1144.52
392.75	1121.12
392.94	1078.99
393.13	1067.28
393.33	1116.44
393.52	1104.73
393.71	1102.39
393.91	1071.97
394.10	1104.73
394.29	1048.56
394.49	1135.16
394.68	1055.58
394.88	1191.33
395.07	1163.25
395.26	1149.20
395.46	1184.31
395.65	1261.55
395.84	1196.01
396.04	1280.27
396.23	1055.58
396.42	1177.29
396.62	1174.95
396.81	1212.40
397.00	1224.10
397.19	1188.99
397.39	1200.69
397.58	1291.98
397.77	1226.44
397.97	1371.55
398.16	1277.93
398.35	1256.87
398.55	1294.32
398.74	1252.19
398.93	1306.02
399.12	1352.83
399.32	1343.47
399.51	1329.42
399.70	1334.11
399.90	1341.13
400.09	1390.28
400.28	1406.66
400.47	1362.19
400.67	1399.64
400.86	1364.53
401.05	1441.77
401.24	1343.47
401.44	1474.54
401.63	1476.88
401.82	1453.47
402.01	1413.68
402.21	1423.05
402.40	1523.69
402.59	1507.30
402.78	1530.71
402.97	1437.09
403.17	1572.84
403.36	1509.65
403.55	1516.67
403.74	1624.33
403.93	1621.99
404.13	1570.50
404.32	1584.54
404.51	1563.48
404.70	1664.12
404.89	1575.18
405.09	1652.42
405.28	1603.27
405.47	1694.55
405.66	1643.06
405.85	1675.82
406.05	1675.82
406.24	1650.08
406.43	1767.10
406.62	1788.17
406.81	1837.32
407.00	1689.87
407.20	1701.57
407.39	1809.23
407.58	1797.53
407.77	1762.42
407.96	1863.07
408.15	1947.33
408.34	1832.64
408.54	1907.54
408.73	2040.95
408.92	1954.35
409.11	1975.41
409.30	2036.27
409.49	1923.92
409.68	1984.77
409.87	1916.90
410.07	2052.65
410.26	2005.84
410.45	2026.90
410.64	2073.71
410.83	2040.95
411.02	2052.65
411.21	2080.74
411.40	2188.40
411.59	2293.72
411.78	2179.04
411.98	2209.47
412.17	2188.40
412.36	2232.87
412.55	2183.72
412.74	2221.17
412.93	2307.77
413.12	2282.02
413.31	2476.29
413.50	2394.37
413.69	2429.48
413.88	2448.20
414.07	2429.48
414.26	2562.89
414.45	2562.89
414.64	2495.01
414.83	2511.39
415.02	2509.05
415.22	2499.69
415.41	2539.48
415.60	2586.29
415.79	2700.98
415.98	2733.75
416.17	2773.53
416.36	2778.22
416.55	2808.64
416.74	2759.49
416.93	2932.69
417.12	2808.64
417.31	2822.69
417.50	2792.26
417.69	3173.77
417.88	2937.37
418.07	2984.18
418.26	2951.42
418.45	3023.97
418.64	2995.89
418.83	3040.36
419.02	3030.99
419.21	2967.80
419.39	3136.32
419.58	3028.65
419.77	3208.87
419.96	3054.40
420.15	3302.50
420.34	3178.45
420.53	3166.74
420.72	3171.43
420.91	3351.65
421.10	3192.49
421.29	3346.97
421.48	3192.49
421.67	3311.86
421.86	3236.96
422.05	3391.44
422.24	3358.67
422.43	3316.54
422.61	3297.81
422.80	3358.67
422.99	3405.48
423.18	3403.14
423.37	3419.52
423.56	3473.36
423.75	3473.36
423.94	3262.71
424.13	3279.09
424.32	3267.39
424.50	3410.16
424.69	3564.64
424.88	3520.17
425.07	3414.84
425.26	3475.70
425.45	3407.82
425.64	3499.10
425.83	3419.52
426.01	3524.85
426.20	3520.17
426.39	3566.98
426.58	3447.61
426.77	3555.27
426.96	3583.36
427.15	3499.10
427.33	3564.64
427.52	3620.81
427.71	3503.78
427.90	3637.19
428.09	3606.77
428.28	3637.19
428.46	3665.28
428.65	3730.81
428.84	3660.60
429.03	3815.07
429.22	3770.60
429.40	3648.90
429.59	3803.37
429.78	3714.43
429.97	3569.32
430.16	3824.44
430.34	3768.26
430.53	3808.05
430.72	3889.97
430.91	3852.52
431.10	3889.97
431.28	3901.67
431.47	4011.68
431.66	4014.02
431.85	4002.32
432.03	4049.13
432.22	4131.05
432.41	4072.53
432.60	3969.55
432.79	4140.41
432.97	4224.67
433.16	4189.56
433.35	4070.19
433.54	4072.53
433.72	4138.07
433.91	4262.12
434.10	4163.81
434.28	3985.93
434.47	4126.36
434.66	4290.20
434.85	4224.67
435.03	4437.66
435.22	4245.73
435.41	4421.27
435.59	4430.63
435.78	4365.10
435.97	4447.02
436.16	4397.87
436.34	4355.74
436.53	4484.47
436.72	4690.43
436.90	4365.10
437.09	4601.49
437.28	4533.62
437.46	4507.87
437.65	4643.62
437.84	4596.81
438.02	4510.21
438.21	4526.60
438.40	4547.66
438.58	4730.22
438.77	4833.21
438.96	4880.02
439.14	4873.00
439.33	4957.25
439.52	4945.55
439.70	4898.74
439.89	5043.85
440.08	5018.11
440.26	5149.18
440.45	4997.04
440.63	5188.97
440.82	5151.52
441.01	5149.18
441.19	5135.14
441.38	5280.25
441.57	5334.08
441.75	5214.71
441.94	5568.13
442.12	5305.99
442.31	5434.72
442.50	5516.64
442.68	5324.72
442.87	5458.13
443.05	5666.44
443.24	5640.69
443.43	5427.70
443.61	5540.05
443.80	5584.52
443.98	5526.00
444.17	5238.12
444.35	5579.84
444.54	5605.58
444.73	5636.01
444.91	5680.48
445.10	5776.44
445.28	5694.52
445.47	5664.10
445.65	5631.33
445.84	5809.21
446.02	5788.14
446.21	5769.42
446.39	5727.29
446.58	5652.39
446.77	5841.98
446.95	5640.69
447.14	5795.17
447.32	5694.52
447.51	5877.09
447.69	5652.39
447.88	5708.57
448.06	5729.63
448.25	5820.91
448.43	5816.23
448.62	5898.15
448.80	5783.46
448.99	5994.11
449.17	5973.05
449.36	5715.59
449.54	5991.77
449.73	6193.06
449.91	5970.71
450.10	6015.18
450.28	6183.70
450.46	6202.42
450.65	6094.76
450.83	6179.01
451.02	6216.46
451.20	6216.46
451.39	6333.49
451.57	6160.29
451.76	6253.91
451.94	6300.72
452.13	6520.73
452.31	6216.46
452.49	6134.54
452.68	6307.74
452.86	6352.21
453.05	6534.78
453.23	6431.79
453.42	6410.73
453.60	6567.54
453.78	6455.20
453.97	6520.73
454.15	6396.68
454.34	6307.74
454.52	6480.94
454.70	6530.09
454.89	6726.70
455.07	6682.23
455.26	6832.02
455.44	6724.36
455.62	6853.09
455.81	6820.32
455.99	6930.33
456.17	6855.43
456.36	6881.18
456.54	6906.92
456.73	6892.88
456.91	7068.42
457.09	6853.09
457.28	7243.96
457.46	6949.05
457.64	7183.10
457.83	7002.88
458.01	7035.65
458.19	7105.87
458.38	6974.80
458.56	7159.70
458.74	7283.75
458.93	7169.06
459.11	7117.57
459.29	7190.13
459.48	7162.04
459.66	7344.60
459.84	7428.86
460.03	7555.25
460.21	7489.71
460.39	7328.22
460.57	7379.71
460.76	7405.46
460.94	7541.21
461.12	7623.12
461.31	7536.52
461.49	7398.43
461.67	7557.59
461.85	7772.92
462.04	7588.02
462.22	8203.58
462.40	7749.51
462.59	7786.96
462.77	7691.00
462.95	7751.85
463.13	7831.43
463.32	7815.05
463.50	7765.90
463.68	7946.12
463.86	7847.82
464.05	7864.20
464.23	7791.64
464.41	7866.54
464.59	7801.01
464.78	8004.63
464.96	7995.27
465.14	7978.89
465.32	8109.96
465.50	8180.17
465.69	8313.58
465.87	8039.74
466.05	8208.26
466.23	8203.58
466.41	8301.88
466.60	8379.12
466.78	8049.10
466.96	8203.58
467.14	8273.79
467.32	8231.66
467.51	8383.80
467.69	8189.53
467.87	8191.88
468.05	8294.86
468.23	8241.03
468.41	8409.54
468.60	8287.84
468.78	8379.12
468.96	8549.98
469.14	8709.13
469.32	8667.00
469.50	8339.33
469.69	8650.62
469.87	8833.18
470.05	8798.07
470.23	8652.96
470.41	8662.32
470.59	8901.06
470.77	8748.92
470.95	8826.16
471.14	8807.44
471.32	8777.01
471.50	9034.47
471.68	8964.25
471.86	9085.96
472.04	9034.47
472.22	9378.53
472.40	9266.18
472.58	9174.90
472.77	9268.52
472.95	9446.40
473.13	9898.13
473.31	9430.02
473.49	9465.13
473.67	9448.74
473.85	9542.36
474.03	9710.88
474.21	9804.50
474.39	9736.63
474.57	9867.70
474.75	9797.48
474.93	9980.04
475.12	9762.37
475.30	10125.16
475.48	10087.71
475.66	10076.01
475.84	10216.44
476.02	10314.74
476.20	10186.01
476.38	10478.58
476.56	10663.48
476.74	10551.14
476.92	10190.69
477.10	10555.82
477.28	10663.48
477.46	10656.46
477.64	10946.69
477.82	10913.92
478.00	11246.27
478.18	11253.30
478.36	11297.77
478.54	11248.61
478.72	11288.40
478.90	11536.50
479.08	11602.04
479.26	11723.74
479.44	11784.60
479.62	11847.79
479.80	11913.33
479.98	12180.15
480.16	12383.77
480.34	12177.81
480.52	12458.67
480.70	12376.75
480.88	12145.04
481.06	12290.15
481.24	12453.99
481.41	12524.21
481.59	12800.39
481.77	12961.89
481.95	12985.29
482.13	13104.66
482.31	13015.72
482.49	13551.70
482.67	13532.98
482.85	13530.64
483.03	13523.62
483.21	13650.00
483.39	13804.48
483.57	13769.37
483.74	13961.30
483.92	13940.23
484.10	14122.79
484.28	14300.67
484.46	14239.82
484.64	14717.29
484.82	14466.85
485.00	14420.04
485.18	14841.34
485.35	15140.93
485.53	14860.06
485.71	14991.13
485.89	15438.17
486.07	15143.27
486.25	15377.32
486.43	15681.59
486.61	15887.56
486.78	15990.54
486.96	15742.44
487.14	16336.94
487.32	16119.27
487.50	16376.73
487.68	16468.01
487.85	16697.38
488.03	16664.61
488.21	17212.30
488.39	16980.59
488.57	17296.56
488.75	17137.40
488.92	17640.62
489.10	17528.27
489.28	17671.04
489.46	17717.86
489.64	17617.21
489.81	17998.72
489.99	18331.08
490.17	18047.87
490.35	18483.21
490.53	18611.94
490.70	18530.02
490.88	18658.75
491.06	19058.98
491.24	18937.27
491.41	19161.97
491.59	19267.29
491.77	19201.76
491.95	19590.28
492.13	19501.34
492.30	19569.22
492.48	19796.25
492.66	20065.41
492.84	19829.02
493.01	20217.55
493.19	20156.69
493.37	20137.97
493.54	20730.12
493.72	20725.44
493.90	20442.24
494.08	21029.71
494.25	20936.09
494.43	21195.89
494.61	21268.45
494.79	20826.09
494.96	21188.87
495.14	21226.32
495.32	21628.89
495.49	21937.84
495.67	21820.81
495.85	22054.87
496.02	22333.39
496.20	22239.77
496.38	22642.34
496.55	22356.80
496.73	22750.01
496.91	22473.82
497.09	23014.49
497.26	22675.11
497.44	22560.42
497.62	23285.99
497.79	23304.71
497.97	23316.42
498.14	23204.07
498.32	23775.16
498.50	23616.01
498.67	23779.84
498.85	23702.61
499.03	24166.03
499.20	23990.49
499.38	24318.17
499.56	24519.45
499.73	24273.70
499.91	24613.07
500.08	24699.67
500.26	24372.00
500.44	24915.00
500.61	24690.31
500.79	24774.57
500.97	25099.90
501.14	25483.75
501.32	25088.20
501.49	25343.32
501.67	25722.49
501.84	25706.10
502.02	25294.17
502.20	25549.29
502.37	25518.86
502.55	25696.74
502.72	25865.26
502.90	26059.52
503.07	26066.55
503.25	26319.32
503.43	26071.23
503.60	26314.64
503.78	26359.11
503.95	26307.62
504.13	26597.85
504.30	26852.97
504.48	26602.53
504.65	26707.85
504.83	27171.28
505.01	27084.68
505.18	27281.28
505.36	27604.28
505.53	27332.78
505.71	27307.03
505.88	27431.08
506.06	27461.51
506.23	27477.89
506.41	27538.74
506.58	27765.78
506.76	27864.08
506.93	28144.94
507.11	28027.92
507.28	28453.89
507.46	28137.92
507.63	28591.98
507.81	28517.09
507.98	28313.46
508.16	28479.64
508.33	28783.91
508.50	29205.20
508.68	28786.25
508.85	29125.63
509.03	29153.71
509.20	28737.10
509.38	29256.70
509.55	29359.68
509.73	29174.78
509.90	29324.57
510.08	29654.59
510.25	28907.96
510.42	29411.17
510.60	29741.19
510.77	29914.39
510.95	30185.89
511.12	29975.24
511.30	29762.25
511.47	30389.52
511.64	30382.49
511.82	30511.22
511.99	30204.61
512.17	30775.70
512.34	30291.21
512.51	30696.13
512.69	30644.63
512.86	30522.93
513.04	30986.35
513.21	31072.95
513.38	31009.76
513.56	31199.34
513.73	31026.14
513.90	31248.49
514.08	31201.68
514.25	31676.81
514.43	31672.13
514.60	31873.42
514.77	31655.75
514.95	31889.80
515.12	32320.46
515.29	31814.90
515.47	31847.67
515.64	32252.58
515.81	32041.93
515.99	32201.09
516.16	32460.89
516.33	32500.68
516.51	32734.73
516.68	32505.36
516.85	32400.04
517.03	32865.80
517.20	32847.08
517.37	32608.34
517.54	32811.97
517.72	32697.28
517.89	32882.19
518.06	33088.15
518.24	33048.36
518.41	33076.45
518.58	33078.79
518.75	33170.07
518.93	33263.69
519.10	33350.29
519.27	33406.47
519.45	33673.29
519.62	33436.89
519.79	33546.90
519.96	33855.85
520.14	34120.33
520.31	33502.43
520.48	33993.94
520.65	34345.02
520.83	34291.19
521.00	34291.19
521.17	34211.61
521.34	34204.59
521.52	34890.37
521.69	34813.13
521.86	34771.00
522.03	34916.11
522.20	34848.24
522.38	34902.07
522.55	34958.24
522.72	35218.04
522.89	35260.17
523.07	35466.14
523.24	34925.47
523.41	35482.52
523.58	35166.55
523.75	35807.86
523.92	35597.21
524.10	35512.95
524.27	35545.72
524.44	36102.76
524.61	35978.72
524.78	35992.76
524.96	35906.16
525.13	36294.69
525.30	36149.57
525.47	36072.34
525.64	36725.35
525.81	36378.95
525.98	36261.92
526.16	35983.40
526.33	36320.43
526.50	36348.52
526.67	36549.81
526.84	36940.68
527.01	36395.33
527.18	36575.55
527.36	36664.49
527.53	37090.47
527.70	37343.25
527.87	37474.32
528.04	36926.63
528.21	37380.70
528.38	37338.57
528.55	37209.84
528.72	37331.54
528.89	37486.02
529.07	36987.49
529.24	37221.54
529.41	37486.02
529.58	37191.11
529.75	37422.83
529.92	37806.67
530.09	37816.04
530.26	37560.92
530.43	37780.93
530.60	37542.19
530.77	37865.19
530.94	37598.37
531.11	37736.46
531.28	38014.98
531.46	37926.04
531.63	38249.03
531.80	38251.38
531.97	38480.75
532.14	38260.74
532.31	38192.86
532.48	38539.26
532.65	38904.38
532.82	38281.80
532.99	38607.14
533.16	39014.39
533.33	38532.24
533.50	38822.47
533.67	38689.06
533.84	38089.88
534.01	38670.33
534.18	38829.49
534.35	39232.06
534.52	38986.30
534.69	39229.72
534.86	39821.87
535.03	39330.36
535.20	39768.04
535.37	39543.35
535.54	39533.99
535.71	39229.72
535.88	39566.76
536.05	39730.59
536.22	39557.39
536.38	39643.99
536.55	39875.71
536.72	40079.33
536.89	39618.25
537.06	39662.72
537.23	40025.50
537.40	39915.50
537.57	39667.40
537.74	39892.09
537.91	40112.10
538.08	40172.96
538.25	39859.32
538.42	40617.66
538.59	40470.20
538.75	40278.28
538.92	40449.14
539.09	40694.89
539.26	40502.97
539.43	40264.24
539.60	40685.53
539.77	40706.60
539.94	41069.38
540.11	40678.51
540.28	40701.92
540.44	40620.00
540.61	41177.04
540.78	40734.68
540.95	41209.81
541.12	41055.34
541.29	40980.44
541.46	41125.55
541.62	40912.56
541.79	41544.51
541.96	40851.71
542.13	40741.71
542.30	41273.01
542.47	41322.16
542.63	41446.21
542.80	41801.97
542.97	41780.90
543.14	41860.48
543.31	41970.49
543.48	41558.55
543.64	42103.90
543.81	41942.40
543.98	42115.60
544.15	41865.16
544.32	42164.75
544.48	42642.22
544.65	42178.79
544.82	42256.03
544.99	41834.74
545.16	42754.57
545.32	42089.85
545.49	42763.93
545.66	42588.39
545.83	42885.64
546.00	42562.64
546.16	42504.13
546.33	42579.03
546.50	42284.12
546.67	42731.16
546.83	41926.02
547.00	42677.33
547.17	42541.58
547.34	42939.47
547.50	43281.19
547.67	43044.79
547.84	43014.37
548.00	43508.22
548.17	43445.02
548.34	43555.03
548.51	43077.56
548.67	42958.19
548.84	43161.82
549.01	42909.04
549.18	43157.14
549.34	43283.53
549.51	43358.42
549.68	43374.81
549.84	43313.95
550.01	43606.52
550.18	43342.04
550.34	43812.49
550.51	43910.79
550.68	44151.87
550.84	43430.98
551.01	43826.53
551.18	43601.84
551.34	43660.35
551.51	43831.21
551.68	43700.14
551.84	43742.27
552.01	43894.41
552.18	43948.24
552.34	43627.59
552.51	44334.43
552.68	44371.88
552.84	43948.24
553.01	44240.81
553.18	44222.08
553.34	44037.18
553.51	43882.70
553.67	44460.82
553.84	44205.70
554.01	44289.96
554.17	44135.48
554.34	44634.02
554.51	44568.48
554.67	44774.45
554.84	44409.32
555.00	44477.20
555.17	44563.80
555.33	44795.51
555.50	44514.65
555.67	44577.84
555.83	44229.10
556.00	44945.31
556.16	45291.71
556.33	44842.32
556.50	45174.68
556.66	45064.67
556.83	44617.63
556.99	44921.90
557.16	45048.29
557.32	45399.37
557.49	45270.64
557.65	44861.05
557.82	44685.51
557.98	45382.99
558.15	45146.59
558.32	45673.21
558.48	45055.31
558.65	45319.79
558.81	45413.41
558.98	45050.63
559.14	45221.49
559.31	45118.51
559.47	45549.17
559.64	45291.71
559.80	45514.06
559.97	45764.49
560.13	45275.32
560.30	45193.40
560.46	45635.77
560.63	45748.11
560.79	45661.51
560.96	45942.38
561.12	45511.72
561.29	46080.47
561.45	46038.34
561.61	45640.45
561.78	45937.69
561.94	45485.97
562.11	45827.69
562.27	45619.38
562.44	45705.98
562.60	45710.66
562.77	45937.69
562.93	45853.44
563.10	46246.65
563.26	46033.66
563.42	46120.26
563.59	46082.81
563.75	45748.11
563.92	45886.20
564.08	45935.35
564.24	45851.09
564.41	45855.78
564.57	46300.48
564.74	46248.99
564.90	46108.55
565.07	46113.23
565.23	46295.80
565.39	45825.35
565.56	46358.99
565.72	45799.60
565.88	45984.51
566.05	46323.88
566.21	46103.87
566.38	46401.12
566.54	46216.22
566.70	46426.87
566.87	46492.40
567.03	46457.29
567.19	46253.67
567.36	46024.29
567.52	46396.44
567.68	46539.21
567.85	46326.22
568.01	46419.84
568.17	46843.48
568.34	46590.70
568.50	46649.22
568.66	45872.16
568.83	46066.42
568.99	46927.74
569.15	46557.94
569.32	46457.29
569.48	46534.53
569.64	46136.64
569.81	46824.76
569.97	46450.27
570.13	46497.08
570.30	46017.27
570.46	46885.61
570.62	46611.77
570.78	46286.43
570.95	46906.68
571.11	46848.16
571.27	46660.92
571.43	46466.66
571.60	46738.16
571.76	46532.19
571.92	46726.46
572.09	46623.47
572.25	46902.00
572.41	46564.96
572.57	47299.89
572.74	47203.92
572.90	46677.30
573.06	46796.67
573.22	46803.69
573.38	46974.55
573.55	46885.61
573.71	47430.96
573.87	47175.84
574.03	46780.29
574.20	46782.63
574.36	47040.09
574.52	46850.50
574.68	46866.89
574.84	47342.02
575.01	47117.32
575.17	46862.21
575.33	46885.61
575.49	46642.20
575.65	47459.04
575.82	47381.80
575.98	46997.96
576.14	47313.93
576.30	47295.21
576.46	47051.79
576.62	46993.28
576.79	47030.72
576.95	46878.59
577.11	46806.03
577.27	46890.29
577.43	46913.70
577.59	47019.02
577.75	46925.40
577.92	46532.19
578.08	46876.25
578.24	47105.62
578.40	47206.26
578.56	46965.19
578.72	47040.09
578.88	47304.57
579.04	47292.86
579.21	47253.08
579.37	47281.16
579.53	47250.74
579.69	47065.83
579.85	47269.46
580.01	47040.09
580.17	46976.89
580.33	47070.51
580.49	47405.21
580.65	47192.22
580.82	47002.64
580.98	47224.99
581.14	47196.90
581.30	46794.33
581.46	47325.63
581.62	47065.83
581.78	46946.47
581.94	47498.83
582.10	47330.31
582.26	47227.33
582.42	47241.37
582.58	47512.88
582.74	46983.91
582.90	47468.40
583.06	47613.52
583.22	47084.56
583.38	47746.93
583.54	47241.37
583.70	47185.20
583.86	47360.74
584.02	47543.30
584.18	48037.16
584.34	47318.61
584.50	47536.28
584.66	47552.66
584.82	47295.21
584.98	48053.54
585.14	47267.12
585.30	47175.84
585.46	47842.89
585.62	47496.49
585.78	47622.88
585.94	47208.61
586.10	47398.19
586.26	46979.23
586.42	47363.08
586.58	47416.91
586.74	47363.08
586.90	47232.01
587.06	47423.93
587.22	47856.93
587.38	47239.03
587.54	47592.45
587.70	47573.73
587.86	47459.04
588.02	47264.78
588.18	47393.51
588.34	47360.74
588.49	47306.91
588.65	47739.91
588.81	47641.60
588.97	47892.04
589.13	47625.22
589.29	47536.28
589.45	47737.57
589.61	47861.61
589.77	47702.46
589.93	47770.33
