SpectraSuite Data File
++++++++++++++++++++++++++++++++++++
Date: Fri Oct 25 11:22:58 EDT 2013
User: price-jones
Dark Spectrum Present: No
Reference Spectrum Present: No
Number of Sampled Component Spectra: 1
Spectrometers: USB2+H05261
Integration Time (usec): 100000 (USB2+H05261)
Spectra Averaged: 1 (USB2+H05261)
Boxcar Smoothing: 0 (USB2+H05261)
Correct for Electrical Dark: No (USB2+H05261)
Strobe/Lamp Enabled: No (USB2+H05261)
Correct for Detector Non-linearity: No (USB2+H05261)
Correct for Stray Light: No (USB2+H05261)
Number of Pixels in Processed Spectrum: 2048
>>>>>Begin Processed Spectral Data<<<<<
365.73	222.35
365.92	222.35
366.12	222.35
366.32	177.88
366.52	74.90
366.72	135.75
366.91	126.39
367.11	112.35
367.31	119.37
367.51	119.37
367.70	168.52
367.90	102.98
368.10	170.86
368.30	98.30
368.49	128.73
368.69	170.86
368.89	205.97
369.09	114.69
369.28	208.31
369.48	131.07
369.68	110.01
369.87	159.16
370.07	227.03
370.27	194.26
370.47	369.80
370.66	641.31
370.86	657.69
371.06	641.31
371.25	725.57
371.45	629.60
371.65	697.48
371.84	678.76
372.04	678.76
372.24	734.93
372.44	697.48
372.63	718.54
372.83	763.01
373.03	770.04
373.22	727.91
373.42	795.78
373.62	720.88
373.81	774.72
374.01	821.53
374.21	765.36
374.40	774.72
374.60	861.32
374.79	720.88
374.99	835.57
375.19	809.83
375.38	840.25
375.58	795.78
375.78	887.06
375.97	903.45
376.17	959.62
376.37	870.68
376.56	847.27
376.76	863.66
376.95	819.19
377.15	837.91
377.35	898.77
377.54	1011.11
377.74	933.87
377.93	823.87
378.13	1020.47
378.33	929.19
378.52	980.68
378.72	997.07
378.91	978.34
379.11	980.68
379.31	887.06
379.50	880.04
379.70	1018.13
379.89	924.51
380.09	1041.54
380.28	945.58
380.48	966.64
380.68	945.58
380.87	938.55
381.07	978.34
381.26	1025.15
381.46	994.73
381.65	1039.20
381.85	1001.75
382.04	1062.60
382.24	1062.60
382.43	1032.18
382.63	1046.22
382.83	1057.92
383.02	1025.15
383.22	1149.20
383.41	1086.01
383.61	1130.48
383.80	1093.03
384.00	1198.35
384.19	1167.93
384.39	1163.25
384.58	1186.65
384.78	1104.73
384.97	1219.42
385.17	1179.63
385.36	1048.56
385.56	1128.14
385.75	1156.22
385.95	1219.42
386.14	1203.04
386.34	1165.59
386.53	1158.57
386.72	1277.93
386.92	1156.22
387.11	1228.78
387.31	1200.69
387.50	1268.57
387.70	1188.99
387.89	1268.57
388.09	1334.11
388.28	1355.17
388.48	1268.57
388.67	1310.70
388.86	1301.34
389.06	1291.98
389.25	1334.11
389.45	1268.57
389.64	1362.19
389.84	1294.32
390.03	1329.42
390.22	1303.68
390.42	1348.15
390.61	1327.08
390.81	1369.21
391.00	1411.34
391.19	1465.18
391.39	1437.09
391.58	1434.75
391.78	1486.24
391.97	1493.26
392.16	1434.75
392.36	1504.96
392.55	1516.67
392.75	1462.83
392.94	1497.94
393.13	1579.86
393.33	1570.50
393.52	1533.05
393.71	1591.56
393.91	1556.46
394.10	1495.60
394.29	1654.76
394.49	1593.90
394.68	1633.69
394.88	1710.93
395.07	1624.33
395.26	1708.59
395.46	1732.00
395.65	1724.97
395.84	1739.02
396.04	1799.87
396.23	1797.53
396.42	1783.49
396.62	1774.13
396.81	1802.21
397.00	1879.45
397.19	1811.57
397.39	1776.47
397.58	1963.71
397.77	1783.49
397.97	1811.57
398.16	1790.51
398.35	1940.30
398.55	1823.28
398.74	1886.47
398.93	1998.82
399.12	1987.11
399.32	1914.56
399.51	2031.58
399.70	1947.33
399.90	2045.63
400.09	2012.86
400.28	2127.55
400.47	2050.31
400.67	2052.65
400.86	2066.69
401.05	2113.50
401.24	2207.13
401.44	2167.34
401.63	2127.55
401.82	2225.85
402.01	2183.72
402.21	2125.21
402.40	2188.40
402.59	2153.29
402.78	2197.76
402.97	2300.75
403.17	2209.47
403.36	2303.09
403.55	2221.17
403.74	2347.56
403.93	2246.91
404.13	2321.81
404.32	2427.14
404.51	2392.03
404.70	2469.27
404.89	2368.62
405.09	2518.42
405.28	2394.37
405.47	2495.01
405.66	2469.27
405.85	2420.11
406.05	2502.03
406.24	2548.84
406.43	2511.39
406.62	2588.63
406.81	2597.99
407.00	2588.63
407.20	2679.91
407.39	2534.80
407.58	2808.64
407.77	2708.00
407.96	2855.45
408.15	2719.70
408.34	2675.23
408.54	2897.58
408.73	2808.64
408.92	2801.62
409.11	2925.67
409.30	3035.67
409.49	2949.08
409.68	2918.65
409.87	2988.86
410.07	2911.63
410.26	3094.19
410.45	3077.80
410.64	3171.43
410.83	3042.70
411.02	3052.06
411.21	3112.91
411.40	3213.56
411.59	3365.69
411.78	3166.74
411.98	3225.26
412.17	3239.30
412.36	3389.10
412.55	3227.60
412.74	3487.40
412.93	3510.80
413.12	3410.16
413.31	3529.53
413.50	3585.70
413.69	3456.97
413.88	3585.70
414.07	3658.26
414.26	3829.12
414.45	3564.64
414.64	3730.81
414.83	3693.37
415.02	3613.79
415.22	3761.24
415.41	3990.61
415.60	3969.55
415.79	3871.25
415.98	3983.59
416.17	4084.23
416.36	3852.52
416.55	4175.52
416.74	4084.23
416.93	4145.09
417.12	4243.39
417.31	4182.54
417.50	4196.58
417.69	4311.27
417.88	4299.56
418.07	4294.88
418.26	4180.20
418.45	4404.89
418.64	4533.62
418.83	4379.14
419.02	4379.14
419.21	4571.07
419.39	4610.86
419.58	4416.59
419.77	4449.36
419.96	4498.51
420.15	4655.33
420.34	4638.94
420.53	4589.79
420.72	4840.23
420.91	4718.52
421.10	4725.54
421.29	4865.97
421.48	4821.50
421.67	4910.44
421.86	4830.87
422.05	4774.69
422.24	4823.84
422.43	4816.82
422.61	4910.44
422.80	4919.81
422.99	5060.24
423.18	5034.49
423.37	4856.61
423.56	5053.22
423.75	4868.31
423.94	4875.34
424.13	4692.77
424.32	4858.95
424.50	4990.02
424.69	5057.90
424.88	5121.09
425.07	4992.36
425.26	5078.96
425.45	4947.89
425.64	4961.94
425.83	5109.39
426.01	5018.11
426.20	5186.63
426.39	5114.07
426.58	5221.74
426.77	5153.86
426.96	5191.31
427.15	5128.11
427.33	5179.61
427.52	4997.04
427.71	5327.06
427.90	5303.65
428.09	5317.70
428.28	5268.55
428.46	5420.68
428.65	5404.30
428.84	5628.99
429.03	5626.65
429.22	5348.12
429.40	5467.49
429.59	5423.02
429.78	5378.55
429.97	5413.66
430.16	5530.69
430.34	5687.50
430.53	5710.91
430.72	5720.27
430.91	5767.08
431.10	5778.78
431.28	5844.32
431.47	5891.13
431.66	5851.34
431.85	5753.04
432.03	5959.00
432.22	6059.65
432.41	5820.91
432.60	5937.94
432.79	5870.06
432.97	5959.00
433.16	6047.94
433.35	6054.97
433.54	6181.35
433.72	6197.74
433.91	6207.10
434.10	6101.78
434.28	6171.99
434.47	6319.45
434.66	6319.45
434.85	6279.66
435.03	6148.59
435.22	6422.43
435.41	6574.56
435.59	6717.34
435.78	6394.34
435.97	6314.77
436.16	6445.84
436.34	6452.86
436.53	6612.01
436.72	6647.12
436.90	6609.67
437.09	6530.09
437.28	6583.93
437.46	6518.39
437.65	6658.82
437.84	6738.40
438.02	6841.39
438.21	6799.26
438.40	6923.30
438.58	7133.95
438.77	6998.20
438.96	7082.46
439.14	7267.36
439.33	7290.77
439.52	7229.91
439.70	7220.55
439.89	7349.28
440.08	7321.20
440.26	7461.63
440.45	7494.40
440.63	7515.46
440.82	7866.54
441.01	7648.87
441.19	7737.81
441.38	7775.26
441.57	7768.24
441.75	7765.90
441.94	8215.28
442.12	8011.65
442.31	7913.35
442.50	8060.80
442.68	8046.76
442.87	8081.87
443.05	8294.86
443.24	8329.97
443.43	8250.39
443.61	8322.94
443.80	8514.87
443.98	8077.19
444.17	7810.37
444.35	8292.52
444.54	8231.66
444.73	8409.54
444.91	8400.18
445.10	8414.23
445.28	8229.32
445.47	8379.12
445.65	8510.19
445.84	8439.97
446.02	8606.15
446.21	8723.18
446.39	8402.52
446.58	8734.88
446.77	8552.32
446.95	8393.16
447.14	8400.18
447.32	8692.75
447.51	8451.67
447.69	8608.49
447.88	8510.19
448.06	8568.70
448.25	8517.21
448.43	8652.96
448.62	8615.51
448.80	8681.05
448.99	8702.11
449.17	8802.75
449.36	8826.16
449.54	8898.72
449.73	8915.10
449.91	9018.08
450.10	9116.39
450.28	9224.05
450.46	9149.15
450.65	9034.47
450.83	9181.92
451.02	9090.64
451.20	9076.60
451.39	9114.05
451.57	9104.68
451.76	9085.96
451.94	9327.03
452.13	9460.45
452.31	9195.96
452.49	9172.56
452.68	9523.64
452.86	9472.15
453.05	9715.56
453.23	9420.66
453.42	9423.00
453.60	9493.21
453.78	9764.72
453.97	9696.84
454.15	9600.88
454.34	9488.53
454.52	9813.87
454.70	9900.47
454.89	9710.88
455.07	9804.50
455.26	9937.91
455.44	10017.49
455.62	10104.09
455.81	10134.52
455.99	10043.24
456.17	10171.97
456.36	10160.27
456.54	10242.18
456.73	10380.28
456.91	10504.32
457.09	10597.95
457.28	10382.62
457.46	10532.41
457.64	10656.46
457.83	10567.52
458.01	10333.47
458.19	10883.49
458.38	10635.39
458.56	10707.95
458.74	10520.71
458.93	10693.91
459.11	10698.59
459.29	10675.18
459.48	10974.77
459.66	10867.11
459.84	11138.61
460.03	10986.47
460.21	11122.23
460.39	10836.68
460.57	11087.12
460.76	11342.24
460.94	11300.11
461.12	11522.46
461.31	11250.96
461.49	11075.42
461.67	11180.74
461.85	11599.70
462.04	11304.79
462.22	11459.26
462.40	11721.40
462.59	11719.06
462.77	11304.79
462.95	11463.94
463.13	11531.82
463.32	11728.42
463.50	11730.76
463.68	11737.79
463.86	12114.61
464.05	11805.66
464.23	11882.90
464.41	12058.44
464.59	11866.52
464.78	12138.02
464.96	12257.39
465.14	11908.65
465.32	12166.10
465.50	11918.01
465.69	12205.89
465.87	12322.92
466.05	12138.02
466.23	12278.45
466.41	12273.77
466.60	12556.97
466.78	12145.04
466.96	12318.24
467.14	12367.39
467.32	12339.30
467.51	12734.85
467.69	12297.17
467.87	12552.29
468.05	12641.23
468.23	12669.32
468.41	12456.33
468.60	12727.83
468.78	12599.10
468.96	12535.91
469.14	12786.35
469.32	12947.84
469.50	12903.37
469.69	13132.75
469.87	13132.75
470.05	13153.81
470.23	13163.17
470.41	13151.47
470.59	13561.06
470.77	13380.84
470.95	13394.89
471.14	13736.60
471.32	13186.58
471.50	13603.19
471.68	13633.62
471.86	13425.31
472.04	13963.64
472.22	13900.44
472.40	13846.61
472.58	14029.17
472.77	14061.94
472.95	13942.57
473.13	14738.35
473.31	14274.93
473.49	14520.68
473.67	14228.12
473.85	14228.12
474.03	14506.64
474.21	14778.14
474.39	15105.82
474.57	14796.87
474.75	14888.15
474.93	14998.15
475.12	15098.80
475.30	15344.55
475.48	15300.08
475.66	15185.40
475.84	15272.00
476.02	15456.90
476.20	15527.11
476.38	15562.22
476.56	16035.01
476.74	16133.31
476.92	16006.92
477.10	16063.10
477.28	16027.99
477.46	16439.92
477.64	16657.59
477.82	16676.32
478.00	16870.58
478.18	16999.31
478.36	17121.02
478.54	17422.95
478.72	17673.39
478.90	17532.95
479.08	17804.46
479.26	17781.05
479.44	18040.85
479.62	18204.69
479.80	18195.32
479.98	18291.29
480.16	18459.81
480.34	18412.99
480.52	18960.68
480.70	18956.00
480.88	18501.93
481.06	18731.31
481.24	18757.05
481.41	19330.48
481.59	19594.96
481.77	19597.31
481.95	19700.29
482.13	20084.14
482.31	19681.56
482.49	20491.39
482.67	20428.20
482.85	20706.72
483.03	20957.16
483.21	20826.09
483.39	21172.49
483.57	21088.23
483.74	21467.39
483.92	21762.30
484.10	21291.85
484.28	21827.84
484.46	22167.21
484.64	22239.77
484.82	21940.18
485.00	22457.44
485.18	22948.95
485.35	23246.20
485.53	22892.78
485.71	23089.38
485.89	23779.84
486.07	23800.91
486.25	23660.48
486.43	23498.98
486.61	23995.17
486.78	24360.30
486.96	24620.10
487.14	24414.13
487.32	25027.35
487.50	25109.27
487.68	24994.58
487.85	25275.45
488.03	25659.29
488.21	26120.38
488.39	25788.02
488.57	26642.32
488.75	26403.58
488.92	26565.08
489.10	26719.56
489.28	26771.05
489.46	27285.97
489.64	27180.64
489.81	27777.48
489.99	27709.60
490.17	28037.28
490.35	28292.40
490.53	28486.66
490.70	28589.64
490.88	28830.72
491.06	29050.73
491.24	28856.46
491.41	29237.97
491.59	29373.72
491.77	29825.45
491.95	29729.48
492.13	30092.27
492.30	30232.70
492.48	30494.84
492.66	30558.03
492.84	30588.46
493.01	30719.53
493.19	30726.55
493.37	31192.32
493.54	31335.09
493.72	31367.86
493.90	31828.95
494.08	32418.76
494.25	32795.59
494.43	32364.93
494.61	32350.88
494.79	33008.58
494.96	32685.58
495.14	33055.39
495.32	33266.03
495.49	33743.50
495.67	33528.17
495.85	33729.46
496.02	33809.04
496.20	34136.71
496.38	34295.87
496.55	34312.25
496.73	34972.28
496.91	34780.36
497.09	35089.31
497.26	34988.67
497.44	35321.02
497.62	35594.87
497.79	36357.88
497.97	35739.98
498.14	36460.87
498.32	36254.90
498.50	36385.97
498.67	36613.00
498.85	36624.70
499.03	37668.58
499.20	37053.02
499.38	37387.72
499.56	37574.96
499.73	36992.17
499.91	37773.91
500.08	37586.66
500.26	37687.31
500.44	37642.84
500.61	38155.41
500.79	38330.95
500.97	38267.76
501.14	39297.59
501.32	39154.82
501.49	38567.35
501.67	39168.87
501.84	39344.41
502.02	38888.00
502.20	39246.10
502.37	39363.13
502.55	39999.76
502.72	39386.54
502.90	39952.94
503.07	39772.72
503.25	39899.11
503.43	39831.24
503.60	40500.63
503.78	40797.88
503.95	40580.21
504.13	41099.81
504.30	40900.86
504.48	40928.95
504.65	41069.38
504.83	41261.30
505.01	41397.06
505.18	41605.36
505.36	42068.79
505.53	41539.83
505.71	42199.86
505.88	41851.12
506.06	41853.46
506.23	42195.18
506.41	41942.40
506.58	42890.32
506.76	42265.39
506.93	42639.88
507.11	42639.88
507.28	43005.00
507.46	42845.85
507.63	43753.97
507.81	43629.93
507.98	43351.40
508.16	43934.20
508.33	43672.06
508.50	43934.20
508.68	43931.86
508.85	44535.71
509.03	43725.89
509.20	44390.60
509.38	44818.92
509.55	44774.45
509.73	44786.15
509.90	45223.83
510.08	44673.81
510.25	44659.76
510.42	45261.28
510.60	45450.86
510.77	45867.48
510.95	45738.75
511.12	45928.33
511.30	45743.43
511.47	45808.96
511.64	45481.29
511.82	46160.05
511.99	46436.23
512.17	46412.82
512.34	46220.90
512.51	46391.76
512.69	46511.13
512.86	46529.85
513.04	47224.99
513.21	47107.96
513.38	47110.30
513.56	47012.00
513.73	46717.09
513.90	47627.56
514.08	47260.10
514.25	47770.33
514.43	47861.61
514.60	47590.11
514.77	48046.52
514.95	47875.66
515.12	47840.55
515.29	47964.60
515.47	48090.99
515.64	48329.72
515.81	48355.47
515.99	48481.86
516.16	48736.98
516.33	48875.07
516.51	49195.72
516.68	49017.84
516.85	48884.43
517.03	48978.05
517.20	49155.93
517.37	48994.43
517.54	49251.89
517.72	49020.18
517.89	49144.23
518.06	49347.86
518.24	49528.08
518.41	49687.23
518.58	49769.15
518.75	49610.00
518.93	49701.28
519.10	49485.95
519.27	50024.27
519.45	50010.23
519.62	50031.29
519.79	50202.15
519.96	50363.65
520.14	50375.35
520.31	50216.19
520.48	50946.44
520.65	50808.35
520.83	50827.07
521.00	51035.38
521.17	50717.07
521.34	51199.22
521.52	50880.91
521.69	51178.15
521.86	51358.38
522.03	51580.73
522.20	51547.96
522.38	51995.00
522.55	51161.77
522.72	51323.27
522.89	51807.76
523.07	51978.62
523.24	51753.93
523.41	52123.73
523.58	51952.87
523.75	52067.56
523.92	52074.58
524.10	52179.90
524.27	52442.04
524.44	52371.83
524.61	52320.34
524.78	52500.56
524.96	52451.41
525.13	52633.97
525.30	52500.56
525.47	52701.84
525.64	52589.50
525.81	52940.58
525.98	52987.39
526.16	52750.99
526.33	52816.53
526.50	53343.15
526.67	52982.71
526.84	53165.27
527.01	53092.71
527.18	53373.58
527.36	53052.92
527.53	53275.27
527.70	53495.28
527.87	53558.48
528.04	53399.32
528.21	53591.25
528.38	53743.38
528.55	53963.39
528.72	53708.27
528.89	53680.19
529.07	53743.38
529.24	53724.66
529.41	53851.05
529.58	53911.90
529.75	54007.86
529.92	54138.93
530.09	54096.80
530.26	54239.57
530.43	54583.63
530.60	53762.11
530.77	54188.08
530.94	54319.15
531.11	54152.97
531.28	54487.67
531.46	54466.61
531.63	54504.06
531.80	54394.05
531.97	54808.32
532.14	54845.77
532.31	54932.37
532.48	54761.51
532.65	54862.16
532.82	54791.94
532.99	54820.03
533.16	54798.96
533.33	55009.61
533.50	55121.96
533.67	55018.97
533.84	55147.70
534.01	54796.62
534.18	55023.65
534.35	55526.87
534.52	55222.60
534.69	55421.55
534.86	55751.56
535.03	55332.60
535.20	55557.30
535.37	55419.20
535.54	55529.21
535.71	55241.32
535.88	55543.25
536.05	55660.28
536.22	55763.26
536.38	55765.60
536.55	55894.33
536.72	55840.50
536.89	55723.47
537.06	56097.96
537.23	56048.81
537.40	55781.99
537.57	55807.73
537.74	56348.40
537.91	56168.18
538.08	55992.64
538.25	56023.06
538.42	56299.25
538.59	56224.35
538.75	56130.73
538.92	56273.50
539.09	56310.95
539.26	56264.14
539.43	56390.53
539.60	56491.17
539.77	56444.36
539.94	56617.56
540.11	56757.99
540.28	56645.65
540.44	56402.23
540.61	56650.33
540.78	56673.73
540.95	56645.65
541.12	56772.03
541.29	56870.34
541.46	56872.68
541.62	56966.30
541.79	56949.92
541.96	56573.09
542.13	56903.10
542.30	56774.37
542.47	57237.80
542.63	57001.41
542.80	57050.56
542.97	57219.08
543.14	57186.31
543.31	57425.04
543.48	57368.87
543.64	57511.64
543.81	57551.43
543.98	57609.95
544.15	57373.55
544.32	57719.95
544.48	57731.65
544.65	57375.89
544.82	57441.43
544.99	57305.68
545.16	57778.46
545.32	57827.62
545.49	57769.10
545.66	57916.56
545.83	57881.45
546.00	57958.69
546.16	57860.38
546.33	57853.36
546.50	57832.30
546.67	57925.92
546.83	57829.96
547.00	58010.18
547.17	57989.11
547.34	57946.98
547.50	58078.05
547.67	58150.61
547.84	58141.25
548.00	58522.76
548.17	58522.76
548.34	58305.09
548.51	58438.50
548.67	58202.10
548.84	58417.43
549.01	58375.30
549.18	58248.91
549.34	58452.54
549.51	58251.25
549.68	58347.21
549.84	58330.83
550.01	58857.45
550.18	58801.28
550.34	58543.82
550.51	58492.33
550.68	58773.19
550.84	58457.22
551.01	58791.92
551.18	58511.05
551.34	58642.12
551.51	58777.87
551.68	58731.06
551.84	58637.44
552.01	58789.58
552.18	58686.59
552.34	58719.36
552.51	58930.01
552.68	58637.44
552.84	58911.28
553.01	59264.70
553.18	59194.49
553.34	59112.57
553.51	58944.05
553.67	59068.10
553.84	59023.63
554.01	58908.94
554.17	59143.00
554.34	59210.87
554.51	59150.02
554.67	59339.60
554.84	59194.49
555.00	59241.30
555.17	59278.75
555.33	59229.60
555.50	59159.38
555.67	59178.10
555.83	59229.60
556.00	59327.90
556.16	59601.74
556.33	59622.81
556.50	59559.61
556.66	59739.83
556.83	59264.70
556.99	59693.02
557.16	59763.24
557.32	59742.17
557.49	59760.90
557.65	59393.43
557.82	59423.86
557.98	59529.19
558.15	59636.85
558.32	59601.74
558.48	59620.47
558.65	59779.62
558.81	59814.73
558.98	59751.54
559.14	59746.86
559.31	59859.20
559.47	59807.71
559.64	60016.02
559.80	59913.03
559.97	59845.16
560.13	59788.98
560.30	59852.18
560.46	60001.97
560.63	59983.25
560.79	59927.08
560.96	60126.02
561.12	59917.71
561.29	59994.95
561.45	60044.10
561.61	60172.83
561.78	60067.51
561.94	59884.95
562.11	59931.76
562.27	60189.22
562.44	60168.15
562.60	60210.28
562.77	60079.21
562.93	60119.00
563.10	60095.60
563.26	60011.34
563.42	60233.69
563.59	60378.80
563.75	60121.34
563.92	60369.44
564.08	60259.43
564.24	60437.31
564.41	60334.33
564.57	60404.55
564.74	60367.10
564.90	60491.15
565.07	60331.99
565.23	60339.01
565.39	60336.67
565.56	60402.21
565.72	60456.04
565.88	60430.29
566.05	60212.62
566.21	60617.53
566.38	60406.89
566.54	60470.08
566.70	60631.58
566.87	60540.30
567.03	60451.36
567.19	60640.94
567.36	60512.21
567.52	60364.76
567.68	60680.73
567.85	60523.91
568.01	60640.94
568.17	60636.26
568.34	60633.92
568.50	60563.70
568.66	60439.65
568.83	60484.12
568.99	60444.33
569.15	60582.43
569.32	60406.89
569.48	60563.70
569.64	60610.51
569.81	60502.85
569.97	60596.47
570.13	60692.43
570.30	60736.90
570.46	60807.12
570.62	60804.78
570.78	60687.75
570.95	60870.31
571.11	60718.18
571.27	60568.38
571.43	60865.63
571.60	60816.48
571.76	60748.60
571.92	60952.23
572.09	60896.06
572.25	60743.92
572.41	60687.75
572.57	60844.57
572.74	61064.58
572.90	60914.78
573.06	60851.59
573.22	60729.88
573.38	60907.76
573.55	60975.64
573.71	60924.14
573.87	60807.12
574.03	60711.16
574.20	60858.61
574.36	60795.42
574.52	60910.10
574.68	60905.42
574.84	61031.81
575.01	60933.51
575.17	61059.90
575.33	61003.72
575.49	60823.50
575.65	61048.19
575.82	60956.91
575.98	60893.72
576.14	61202.67
576.30	60963.93
576.46	61106.71
576.62	60914.78
576.79	60959.25
576.95	60669.03
577.11	60914.78
577.27	60893.72
577.43	61010.74
577.59	60807.12
577.75	60914.78
577.92	61038.83
578.08	60980.32
578.24	61141.81
578.40	61176.92
578.56	61083.30
578.72	60807.12
578.88	60977.98
579.04	61305.65
579.21	61322.04
579.37	61153.52
579.53	61146.50
579.69	60975.64
579.85	61020.11
580.01	60837.54
580.17	60874.99
580.33	61106.71
580.49	61251.82
580.65	60992.02
580.82	61160.54
580.98	60882.02
581.14	61034.15
581.30	61066.92
581.46	60949.89
581.62	60973.30
581.78	61118.41
581.94	61104.37
582.10	61059.90
582.26	61256.50
582.42	60919.46
582.58	61174.58
582.74	61069.26
582.90	61209.69
583.06	61188.63
583.22	60968.61
583.38	61130.11
583.54	61153.52
583.70	61193.31
583.86	61158.20
584.02	61148.84
584.18	61300.97
584.34	61024.79
584.50	61345.44
584.66	61125.43
584.82	60905.42
584.98	61492.89
585.14	61223.73
585.30	61221.39
585.46	61244.80
585.62	61212.03
585.78	61235.44
585.94	61120.75
586.10	61099.68
586.26	61371.19
586.42	61235.44
586.58	61392.25
586.74	61394.59
586.90	61333.74
587.06	61125.43
587.22	61216.71
587.38	61228.41
587.54	61441.40
587.70	61324.38
587.86	61151.18
588.02	61261.18
588.18	61303.31
588.34	61340.76
