SpectraSuite Data File
++++++++++++++++++++++++++++++++++++
Date: Fri Oct 25 11:22:45 EDT 2013
User: price-jones
Dark Spectrum Present: No
Reference Spectrum Present: No
Number of Sampled Component Spectra: 1
Spectrometers: USB2+H05261
Integration Time (usec): 100000 (USB2+H05261)
Spectra Averaged: 1 (USB2+H05261)
Boxcar Smoothing: 0 (USB2+H05261)
Correct for Electrical Dark: No (USB2+H05261)
Strobe/Lamp Enabled: No (USB2+H05261)
Correct for Detector Non-linearity: No (USB2+H05261)
Correct for Stray Light: No (USB2+H05261)
Number of Pixels in Processed Spectrum: 2048
>>>>>Begin Processed Spectral Data<<<<<
365.73	224.69
365.92	224.69
366.12	224.69
366.32	205.97
366.52	131.07
366.72	175.54
366.91	154.48
367.11	152.13
367.31	65.54
367.51	168.52
367.70	84.26
367.90	91.28
368.10	88.94
368.30	100.64
368.49	138.09
368.69	110.01
368.89	126.39
369.09	121.71
369.28	149.79
369.48	210.65
369.68	117.03
369.87	224.69
370.07	231.71
370.27	250.44
370.47	269.16
370.66	603.86
370.86	631.94
371.06	636.63
371.25	711.52
371.45	683.44
371.65	655.35
371.84	718.54
372.04	734.93
372.24	685.78
372.44	730.25
372.63	746.63
372.83	678.76
373.03	765.36
373.22	699.82
373.42	716.20
373.62	788.76
373.81	823.87
374.01	774.72
374.21	774.72
374.40	781.74
374.60	851.96
374.79	863.66
374.99	788.76
375.19	905.79
375.38	875.36
375.58	748.97
375.78	812.17
375.97	812.17
376.17	858.98
376.37	807.48
376.56	823.87
376.76	858.98
376.95	844.93
377.15	877.70
377.35	840.25
377.54	798.12
377.74	861.32
377.93	866.00
378.13	898.77
378.33	976.00
378.52	882.38
378.72	898.77
378.91	915.15
379.11	910.47
379.31	898.77
379.50	842.59
379.70	961.96
379.89	966.64
380.09	959.62
380.28	966.64
380.48	983.02
380.68	1015.79
380.87	971.32
381.07	987.71
381.26	964.30
381.46	1022.81
381.65	1027.50
381.85	1027.50
382.04	1008.77
382.24	1050.90
382.43	1086.01
382.63	1069.62
382.83	1050.90
383.02	1074.31
383.22	1179.63
383.41	1034.52
383.61	1088.35
383.80	1090.69
384.00	1074.31
384.19	1102.39
384.39	1137.50
384.58	1102.39
384.78	1137.50
384.97	1139.84
385.17	1219.42
385.36	1146.86
385.56	1205.38
385.75	1111.75
385.95	1172.61
386.14	1139.84
386.34	1181.97
386.53	1193.67
386.72	1118.78
386.92	1315.38
387.11	1266.23
387.31	1240.48
387.50	1270.91
387.70	1284.95
387.89	1313.04
388.09	1224.10
388.28	1322.40
388.48	1289.64
388.67	1277.93
388.86	1387.94
389.06	1263.89
389.25	1334.11
389.45	1350.49
389.64	1310.70
389.84	1369.21
390.03	1425.39
390.22	1425.39
390.42	1406.66
390.61	1362.19
390.81	1472.20
391.00	1476.88
391.19	1453.47
391.39	1345.81
391.58	1462.83
391.78	1437.09
391.97	1493.26
392.16	1542.41
392.36	1451.13
392.55	1427.73
392.75	1533.05
392.94	1444.11
393.13	1586.88
393.33	1535.39
393.52	1610.29
393.71	1511.99
393.91	1537.73
394.10	1598.59
394.29	1645.40
394.49	1610.29
394.68	1591.56
394.88	1633.69
395.07	1638.38
395.26	1633.69
395.46	1746.04
395.65	1696.89
395.84	1802.21
396.04	1741.36
396.23	1675.82
396.42	1771.79
396.62	1795.19
396.81	1736.68
397.00	1750.72
397.19	1792.85
397.39	1818.60
397.58	1818.60
397.77	1753.06
397.97	1844.34
398.16	1774.13
398.35	1937.96
398.55	1949.67
398.74	1893.49
398.93	1989.46
399.12	1895.83
399.32	1940.30
399.51	1776.47
399.70	1905.20
399.90	1933.28
400.09	2045.63
400.28	2101.80
400.47	2092.44
400.67	2101.80
400.86	2008.18
401.05	2003.50
401.24	2190.74
401.44	2097.12
401.63	2083.08
401.82	2197.76
402.01	2038.61
402.21	2033.93
402.40	2232.87
402.59	2125.21
402.78	2225.85
402.97	2242.23
403.17	2211.81
403.36	2298.41
403.55	2235.21
403.74	2282.02
403.93	2349.90
404.13	2284.36
404.32	2363.94
404.51	2335.85
404.70	2375.64
404.89	2396.71
405.09	2455.22
405.28	2476.29
405.47	2452.88
405.66	2546.50
405.85	2459.90
406.05	2487.99
406.24	2541.82
406.43	2506.71
406.62	2619.06
406.81	2771.19
407.00	2588.63
407.20	2506.71
407.39	2717.36
407.58	2626.08
407.77	2693.96
407.96	2700.98
408.15	2750.13
408.34	2626.08
408.54	2775.88
408.73	2803.96
408.92	2867.16
409.11	2803.96
409.30	2860.13
409.49	2864.82
409.68	3042.70
409.87	2946.73
410.07	3047.38
410.26	2918.65
410.45	3038.02
410.64	3138.66
410.83	3089.51
411.02	3112.91
411.21	3169.09
411.40	3108.23
411.59	3239.30
411.78	3229.94
411.98	3176.11
412.17	3368.03
412.36	3346.97
412.55	3410.16
412.74	3459.31
412.93	3428.88
413.12	3391.44
413.31	3545.91
413.50	3438.25
413.69	3517.83
413.88	3592.72
414.07	3627.83
414.26	3679.32
414.45	3712.09
414.64	3667.62
414.83	3801.03
415.02	3709.75
415.22	3740.18
415.41	3915.72
415.60	3822.09
415.79	3929.76
415.98	3899.33
416.17	3948.48
416.36	3824.44
416.55	4074.87
416.74	4205.94
416.93	4058.49
417.12	4168.49
417.31	4187.22
417.50	4142.75
417.69	4463.40
417.88	4360.42
418.07	4252.75
418.26	4393.19
418.45	4327.65
418.64	4416.59
418.83	4479.79
419.02	4465.74
419.21	4465.74
419.39	4542.98
419.58	4484.47
419.77	4510.21
419.96	4496.17
420.15	4645.96
420.34	4587.45
420.53	4709.16
420.72	4709.16
420.91	4566.39
421.10	4697.46
421.29	4898.74
421.48	4629.58
421.67	4718.52
421.86	4777.03
422.05	4809.80
422.24	4807.46
422.43	4873.00
422.61	4847.25
422.80	4795.76
422.99	4884.70
423.18	5022.79
423.37	5071.94
423.56	4877.68
423.75	4912.78
423.94	4826.18
424.13	4552.34
424.32	4805.12
424.50	5135.14
424.69	5186.63
424.88	5095.35
425.07	5027.47
425.26	5039.17
425.45	4975.98
425.64	5048.54
425.83	4959.60
426.01	5081.30
426.20	5212.37
426.39	5043.85
426.58	5062.58
426.77	4971.30
426.96	5158.54
427.15	5184.29
427.33	5294.29
427.52	5195.99
427.71	5263.86
427.90	5158.54
428.09	5261.52
428.28	5343.44
428.46	5336.42
428.65	5476.85
428.84	5561.11
429.03	5638.35
429.22	5460.47
429.40	5589.20
429.59	5462.81
429.78	5322.38
429.97	5350.46
430.16	5359.83
430.34	5661.76
430.53	5657.07
430.72	5605.58
430.91	5696.86
431.10	5526.00
431.28	5951.98
431.47	5802.19
431.66	5998.79
431.85	5771.76
432.03	6043.26
432.22	6017.52
432.41	5975.39
432.60	5844.32
432.79	5996.45
432.97	6061.99
433.16	6066.67
433.35	6097.10
433.54	6328.81
433.72	6169.65
433.91	6045.60
434.10	6183.70
434.28	6066.67
434.47	6113.48
434.66	6223.48
434.85	6361.58
435.03	6338.17
435.22	6314.77
435.41	6413.07
435.59	6415.41
435.78	6494.99
435.97	6560.52
436.16	6455.20
436.34	6431.79
436.53	6609.67
436.72	6623.72
436.90	6455.20
437.09	6602.65
437.28	6476.26
437.46	6677.55
437.65	6686.91
437.84	6815.64
438.02	6754.79
438.21	6780.53
438.40	6785.21
438.58	7187.79
438.77	7035.65
438.96	6834.36
439.14	7166.72
439.33	7197.15
439.52	7225.23
439.70	7232.26
439.89	7414.82
440.08	7389.07
440.26	7531.84
440.45	7260.34
440.63	7454.61
440.82	7487.37
441.01	7538.87
441.19	7719.09
441.38	7810.37
441.57	7861.86
441.75	7901.65
441.94	7960.16
442.12	7953.14
442.31	8124.00
442.50	8198.90
442.68	8168.47
442.87	8088.89
443.05	8016.33
443.24	8294.86
443.43	8135.70
443.61	8128.68
443.80	8411.89
443.98	8037.40
444.17	7845.48
444.35	8301.88
444.54	8332.31
444.73	8252.73
444.91	8276.13
445.10	8308.90
445.28	8454.02
445.47	8346.35
445.65	8348.69
445.84	8582.74
446.02	8568.70
446.21	8524.23
446.39	8571.04
446.58	8535.93
446.77	8517.21
446.95	8271.45
447.14	8449.33
447.32	8636.58
447.51	8601.47
447.69	8535.93
447.88	8669.34
448.06	8547.64
448.25	8409.54
448.43	8603.81
448.62	8610.83
448.80	8531.25
448.99	8837.86
449.17	8760.63
449.36	8540.61
449.54	8861.27
449.73	8851.91
449.91	8894.04
450.10	8891.70
450.28	9338.74
450.46	8929.14
450.65	9060.21
450.83	9067.24
451.02	9114.05
451.20	9125.75
451.39	9287.25
451.57	8978.30
451.76	9202.99
451.94	9378.53
452.13	9401.93
452.31	9280.22
452.49	9219.37
452.68	9383.21
452.86	9378.53
453.05	9432.36
453.23	9577.47
453.42	9305.97
453.60	9469.81
453.78	9554.07
453.97	9582.15
454.15	9511.94
454.34	9387.89
454.52	9724.93
454.70	9858.34
454.89	9827.91
455.07	10040.90
455.26	9799.82
455.44	9893.44
455.62	9731.95
455.81	9930.89
455.99	9989.41
456.17	10115.80
456.36	10090.05
456.54	9975.36
456.73	10153.24
456.91	10321.76
457.09	10441.13
457.28	10691.57
457.46	10326.44
457.64	10668.16
457.83	10429.43
458.01	10497.30
458.19	10682.20
458.38	10609.65
458.56	10691.57
458.74	10832.00
458.93	10832.00
459.11	10878.81
459.29	10820.30
459.48	10892.85
459.66	10841.36
459.84	11040.31
460.03	10949.03
460.21	10932.64
460.39	10817.96
460.57	10958.39
460.76	11110.52
460.94	11094.14
461.12	11407.77
461.31	11274.36
461.49	11204.14
461.67	11262.66
461.85	11613.74
462.04	11304.79
462.22	11772.89
462.40	11667.57
462.59	11494.37
462.77	11440.54
462.95	11744.81
463.13	11768.21
463.32	11843.11
463.50	11941.41
463.68	11857.15
463.86	11915.67
464.05	11868.86
464.23	11618.42
464.41	11885.24
464.59	11777.58
464.78	12166.10
464.96	12081.85
465.14	11967.16
465.32	12009.29
465.50	12226.96
465.69	12287.81
465.87	12367.39
466.05	12128.66
466.23	12313.56
466.41	12149.72
466.60	12732.51
466.78	12294.83
466.96	12320.58
467.14	12669.32
467.32	12318.24
467.51	12465.69
467.69	12325.26
467.87	12477.40
468.05	12608.47
468.23	12491.44
468.41	12489.10
468.60	12837.84
468.78	12741.88
468.96	12826.14
469.14	12973.59
469.32	13043.81
469.50	12512.50
469.69	13207.64
469.87	13116.36
470.05	13554.04
470.23	13273.18
470.41	13095.30
470.59	13420.63
470.77	13296.58
470.95	13284.88
471.14	13561.06
471.32	13334.03
471.50	13699.16
471.68	13605.53
471.86	13792.78
472.04	13696.82
472.22	14207.05
472.40	13633.62
472.58	13870.01
472.77	13825.54
472.95	14359.19
473.13	14651.75
473.31	14129.81
473.49	14141.52
473.67	14207.05
473.85	14331.10
474.03	14710.27
474.21	14796.87
474.39	14771.12
474.57	15094.11
474.75	15021.56
474.93	14927.94
475.12	15051.99
475.30	15211.14
475.48	15211.14
475.66	15248.59
475.84	15351.57
476.02	15417.11
476.20	15580.95
476.38	15906.28
476.56	16063.10
476.74	15974.16
476.92	16044.37
477.10	15988.20
477.28	15992.88
477.46	16547.59
477.64	16503.12
477.82	16414.18
478.00	17097.61
478.18	16734.83
478.36	17048.46
478.54	17380.82
478.72	16968.88
478.90	17242.73
479.08	17476.78
479.26	17710.83
479.44	17961.27
479.62	17972.97
479.80	18237.45
479.98	18106.38
480.16	18686.84
480.34	18520.66
480.52	18672.79
480.70	18731.31
480.88	18838.97
481.06	18693.86
481.24	18855.36
481.41	19325.80
481.59	19550.49
481.77	19889.87
481.95	20032.65
482.13	19826.68
482.31	19838.38
482.49	20292.44
482.67	20512.46
482.85	20589.69
483.03	20664.59
483.21	20713.74
483.39	21158.44
483.57	20847.15
483.74	21404.20
483.92	21544.63
484.10	21329.30
484.28	21766.98
484.46	21996.35
484.64	22597.87
484.82	21827.84
485.00	22778.09
485.18	22822.56
485.35	23082.36
485.53	23077.68
485.71	22974.70
485.89	23623.03
486.07	23349.18
486.25	23653.45
486.43	23651.11
486.61	24224.54
486.78	24119.22
486.96	24301.78
487.14	24704.35
487.32	24741.80
487.50	24882.24
487.68	25305.87
487.85	25486.09
488.03	25919.09
488.21	26043.14
488.39	26106.34
488.57	26108.68
488.75	26499.55
488.92	26387.20
489.10	26939.57
489.28	27007.44
489.46	26902.12
489.64	27211.07
489.81	27402.99
489.99	28013.87
490.17	28100.47
490.35	28566.24
490.53	28617.73
490.70	28526.45
490.88	28381.34
491.06	28790.93
491.24	28479.64
491.41	28922.00
491.59	29259.04
491.77	29322.23
491.95	29757.57
492.13	29567.99
492.30	30045.46
492.48	30171.85
492.66	30476.12
492.84	30295.89
493.01	31075.29
493.19	30778.04
493.37	31227.43
493.54	31704.90
493.72	31756.39
493.90	31789.16
494.08	31566.81
494.25	32273.65
494.43	32367.27
494.61	32680.90
494.79	32865.80
494.96	32257.26
495.14	33083.47
495.32	33612.43
495.49	33493.07
495.67	33172.41
495.85	33811.38
496.02	34122.67
496.20	34216.29
496.38	34501.84
496.55	33940.11
496.73	35037.82
496.91	34738.23
497.09	34822.49
497.26	35185.27
497.44	35185.27
497.62	35674.45
497.79	36151.91
497.97	35796.15
498.14	36266.60
498.32	36622.36
498.50	36755.77
498.67	37015.57
498.85	36893.86
499.03	37240.26
499.20	36720.66
499.38	37113.87
499.56	37022.59
499.73	37418.14
499.91	37296.44
500.08	37476.66
500.26	37507.08
500.44	37778.59
500.61	37748.16
500.79	37933.06
500.97	38452.66
501.14	38576.71
501.32	39037.80
501.49	38925.45
501.67	38895.02
501.84	39030.77
502.02	39166.52
502.20	39325.68
502.37	39590.16
502.55	39283.55
502.72	39653.36
502.90	39913.16
503.07	39498.88
503.25	40133.17
503.43	39880.39
503.60	40568.51
503.78	40392.97
503.95	40505.31
504.13	40870.43
504.30	40582.55
504.48	40589.57
504.65	41186.41
504.83	41104.49
505.01	41434.50
505.18	41525.78
505.36	42052.41
505.53	41095.13
505.71	41808.99
505.88	41780.90
506.06	41862.82
506.23	42061.77
506.41	42108.58
506.58	42426.89
506.76	42183.48
506.93	42820.10
507.11	42548.60
507.28	42693.71
507.46	42939.47
507.63	42941.81
507.81	43337.36
507.98	43290.55
508.16	43253.10
508.33	43559.71
508.50	43838.23
508.68	44020.80
508.85	44275.91
509.03	43796.10
509.20	43995.05
509.38	44219.74
509.55	44250.17
509.73	44727.64
509.90	44528.69
510.08	44863.39
510.25	45174.68
510.42	45572.57
510.60	45411.07
510.77	45382.99
510.95	45673.21
511.12	45429.80
511.30	45296.39
511.47	45598.32
511.64	45287.03
511.82	46038.34
511.99	45944.72
512.17	46153.02
512.34	46218.56
512.51	46373.03
512.69	46300.48
512.86	47091.58
513.04	46944.12
513.21	46642.20
513.38	47349.04
513.56	47199.24
513.73	46546.23
513.90	47400.53
514.08	47019.02
514.25	47716.50
514.43	47447.34
514.60	47316.27
514.77	47526.92
514.95	47969.28
515.12	47941.19
515.29	48395.26
515.47	48142.48
515.64	48470.15
515.81	47999.71
515.99	48465.47
516.16	48802.51
516.33	48608.25
516.51	48949.96
516.68	48641.01
516.85	48353.13
517.03	49153.59
517.20	48807.19
517.37	48905.49
517.54	49034.22
517.72	49179.34
517.89	49226.15
518.06	49291.68
518.24	49317.43
518.41	49499.99
518.58	49645.10
518.75	49612.34
518.93	49979.80
519.10	50190.45
519.27	49991.50
519.45	49869.79
519.62	50192.79
519.79	49958.73
519.96	50454.93
520.14	50499.40
520.31	50260.66
520.48	50401.10
520.65	50625.79
520.83	50674.94
521.00	50848.14
521.17	50756.86
521.34	51206.24
521.52	51159.43
521.69	51009.64
521.86	51121.98
522.03	51498.81
522.20	51503.49
522.38	51526.89
522.55	51725.84
522.72	51732.86
522.89	51569.02
523.07	51910.74
523.24	51863.93
523.41	51934.15
523.58	51819.46
523.75	52538.01
523.92	51938.83
524.10	52046.49
524.27	52327.36
524.44	52032.45
524.61	52423.32
524.78	52186.92
524.96	52203.31
525.13	52385.87
525.30	52554.39
525.47	52816.53
525.64	52947.60
525.81	52886.74
525.98	52931.22
526.16	52825.89
526.33	52844.62
526.50	53141.86
526.67	52755.68
526.84	53422.73
527.01	53315.06
527.18	53090.37
527.36	53174.63
527.53	52963.98
527.70	53600.61
527.87	53504.65
528.04	53539.75
528.21	53514.01
528.38	53684.87
528.55	53872.11
528.72	53607.63
528.89	53820.62
529.07	53488.26
529.24	53668.48
529.41	53666.14
529.58	53640.40
529.75	53766.79
529.92	53958.71
530.09	53879.13
530.26	53916.58
530.43	54136.59
530.60	53977.43
530.77	53909.56
530.94	54319.15
531.11	54120.21
531.28	54417.46
531.46	54368.30
531.63	54588.31
531.80	54408.09
531.97	54593.00
532.14	54747.47
532.31	54953.44
532.48	54710.02
532.65	54646.83
532.82	54391.71
532.99	54962.80
533.16	54843.43
533.33	54911.31
533.50	55187.49
533.67	54967.48
533.84	54876.20
534.01	55103.23
534.18	55143.02
534.35	55337.29
534.52	55334.95
534.69	55339.63
534.86	55309.20
535.03	55105.57
535.20	55533.89
535.37	55749.22
535.54	55344.31
535.71	55590.06
535.88	55517.51
536.05	55508.14
536.22	55742.20
536.38	55994.98
536.55	55721.13
536.72	55882.63
536.89	55576.02
537.06	55920.08
537.23	56079.24
537.40	55529.21
537.57	55838.16
537.74	56006.68
537.91	56292.22
538.08	56154.13
538.25	56030.08
538.42	55955.19
538.59	56268.82
538.75	56027.74
538.92	55803.05
539.09	56231.37
539.26	56217.33
539.43	56245.41
539.60	56353.08
539.77	56617.56
539.94	56626.92
540.11	56437.34
540.28	56537.98
540.44	56563.73
540.61	56587.13
540.78	56222.01
540.95	56638.62
541.12	56526.28
541.29	56458.40
541.46	56757.99
541.62	56800.12
541.79	56905.44
541.96	56645.65
542.13	56743.95
542.30	56729.90
542.47	56914.81
542.63	56858.63
542.80	57057.58
542.97	57272.91
543.14	57373.55
543.31	57322.06
543.48	57490.58
543.64	57539.73
543.81	57551.43
543.98	57242.48
544.15	57488.24
544.32	57392.28
544.48	57766.76
544.65	57441.43
544.82	57499.94
544.99	57408.66
545.16	57605.26
545.32	57432.07
545.49	57865.06
545.66	57865.06
545.83	57675.48
546.00	57881.45
546.16	57883.79
546.33	57282.27
546.50	57556.11
546.67	57911.88
546.83	57521.01
547.00	57930.60
547.17	58033.58
547.34	57865.06
547.50	58024.22
547.67	58094.44
547.84	57932.94
548.00	58326.15
548.17	58415.09
548.34	58307.43
548.51	58480.63
548.67	58234.87
548.84	58485.31
549.01	58417.43
549.18	58314.45
549.34	58576.59
549.51	58391.68
549.68	58405.73
549.84	58485.31
550.01	58450.20
550.18	58494.67
550.34	58698.30
550.51	58770.85
550.68	58590.63
550.84	58475.94
551.01	59058.74
551.18	58677.23
551.34	58920.65
551.51	58869.15
551.68	58906.60
551.84	58702.98
552.01	58522.76
552.18	58812.98
552.34	58541.48
552.51	59070.44
552.68	58632.76
552.84	58925.33
553.01	59051.72
553.18	58986.18
553.34	58948.73
553.51	58939.37
553.67	58990.86
553.84	59065.76
554.01	59086.82
554.17	58866.81
554.34	59316.20
554.51	59096.19
554.67	59477.69
554.84	59021.29
555.00	59112.57
555.17	59131.29
555.33	59030.65
555.50	59147.68
555.67	59037.67
555.83	59222.58
556.00	59330.24
556.16	59454.29
556.33	59428.54
556.50	59531.53
556.66	59730.47
556.83	59295.13
556.99	59550.25
557.16	59767.92
557.32	59629.83
557.49	59767.92
557.65	59344.28
557.82	59498.76
557.98	59545.57
558.15	59566.63
558.32	59657.91
558.48	59496.42
558.65	59494.08
558.81	59576.00
558.98	59611.10
559.14	59913.03
559.31	59753.88
559.47	59898.99
559.64	59779.62
559.80	59861.54
559.97	59966.87
560.13	59632.17
560.30	59742.17
560.46	59744.51
560.63	59941.12
560.79	59854.52
560.96	60046.44
561.12	60193.90
561.29	59856.86
561.45	60083.89
561.61	59877.93
561.78	59952.82
561.94	59985.59
562.11	59957.50
562.27	59955.16
562.44	60163.47
562.60	60109.64
562.77	60069.85
562.93	59824.09
563.10	60231.35
563.26	60011.34
563.42	60353.05
563.59	60200.92
563.75	60107.30
563.92	60067.51
564.08	60079.21
564.24	60329.65
564.41	60149.43
564.57	60413.91
564.74	60346.03
564.90	60177.51
565.07	60322.63
565.23	59980.91
565.39	60313.26
565.56	60423.27
565.72	60322.63
565.88	60287.52
566.05	60158.79
566.21	60413.91
566.38	60285.18
566.54	60519.23
566.70	60631.58
566.87	60647.96
567.03	60322.63
567.19	60683.07
567.36	60367.10
567.52	60357.74
567.68	60488.80
567.85	60385.82
568.01	60535.62
568.17	60399.86
568.34	60626.90
568.50	60334.33
568.66	60247.73
568.83	60640.94
568.99	60488.80
569.15	60516.89
569.32	60554.34
569.48	60406.89
569.64	60769.67
569.81	60390.50
569.97	60549.66
570.13	60669.03
570.30	60491.15
570.46	60720.52
570.62	60608.17
570.78	60594.13
570.95	60654.98
571.11	60774.35
571.27	60605.83
571.43	60739.24
571.60	60975.64
571.76	60734.56
571.92	60760.31
572.09	60858.61
572.25	60732.22
572.41	60729.88
572.57	60568.38
572.74	60877.33
572.90	60757.97
573.06	60706.47
573.22	60748.60
573.38	60575.40
573.55	60753.29
573.71	60879.67
573.87	60694.77
574.03	60786.05
574.20	60956.91
574.36	60903.08
574.52	60839.89
574.68	61031.81
574.84	60893.72
575.01	60954.57
575.17	60774.35
575.33	60666.69
575.49	60757.97
575.65	61123.09
575.82	60963.93
575.98	60832.86
576.14	61071.60
576.30	60926.49
576.46	60933.51
576.62	60886.70
576.79	60910.10
576.95	60659.66
577.11	60877.33
577.27	60985.00
577.43	60928.83
577.59	60886.70
577.75	60790.73
577.92	61001.38
578.08	60956.91
578.24	60884.36
578.40	60973.30
578.56	61048.19
578.72	61041.17
578.88	61132.45
579.04	61123.09
579.21	60907.76
579.37	61169.90
579.53	61401.61
579.69	60804.78
579.85	60987.34
580.01	61069.26
580.17	60973.30
580.33	61013.08
580.49	61113.73
580.65	61132.45
580.82	61001.38
580.98	60973.30
581.14	60903.08
581.30	61219.05
581.46	61006.06
581.62	61041.17
581.78	60989.68
581.94	61174.58
582.10	61031.81
582.26	61197.99
582.42	61102.03
582.58	61132.45
582.74	60985.00
582.90	61010.74
583.06	60928.83
583.22	60807.12
583.38	61158.20
583.54	61160.54
583.70	61125.43
583.86	61118.41
584.02	61123.09
584.18	61343.10
584.34	60959.25
584.50	61113.73
584.66	61113.73
584.82	61099.68
584.98	61090.32
585.14	61183.94
585.30	60882.02
585.46	61080.96
585.62	61265.86
585.78	61380.55
585.94	60907.76
586.10	61064.58
586.26	61256.50
586.42	61331.40
586.58	61263.52
586.74	60963.93
586.90	61235.44
587.06	61146.50
587.22	61415.66
587.38	61092.66
587.54	61261.18
587.70	61434.38
587.86	61345.44
588.02	61305.65
588.18	61300.97
588.34	61109.05
588.49	61202.67
