SpectraSuite Data File
++++++++++++++++++++++++++++++++++++
Date: Fri Oct 25 11:25:28 EDT 2013
User: price-jones
Dark Spectrum Present: No
Reference Spectrum Present: No
Number of Sampled Component Spectra: 1
Spectrometers: USB2+H05261
Integration Time (usec): 100000 (USB2+H05261)
Spectra Averaged: 1 (USB2+H05261)
Boxcar Smoothing: 0 (USB2+H05261)
Correct for Electrical Dark: No (USB2+H05261)
Strobe/Lamp Enabled: No (USB2+H05261)
Correct for Detector Non-linearity: No (USB2+H05261)
Correct for Stray Light: No (USB2+H05261)
Number of Pixels in Processed Spectrum: 2048
>>>>>Begin Processed Spectral Data<<<<<
365.73	238.73
365.92	238.73
366.12	238.73
366.32	86.60
366.52	114.69
366.72	175.54
366.91	95.96
367.11	100.64
367.31	119.37
367.51	102.98
367.70	161.50
367.90	37.45
368.10	140.43
368.30	170.86
368.49	117.03
368.69	250.44
368.89	119.37
369.09	229.37
369.28	166.18
369.48	201.29
369.68	245.76
369.87	182.56
370.07	255.12
370.27	257.46
370.47	381.51
370.66	620.24
370.86	580.45
371.06	653.01
371.25	667.05
371.45	634.29
371.65	690.46
371.84	636.63
372.04	711.52
372.24	751.31
372.44	720.88
372.63	737.27
372.83	767.70
373.03	777.06
373.22	720.88
373.42	767.70
373.62	763.01
373.81	753.65
374.01	805.14
374.21	835.57
374.40	753.65
374.60	805.14
374.79	891.74
374.99	851.96
375.19	877.70
375.38	910.47
375.58	929.19
375.78	821.53
375.97	809.83
376.17	840.25
376.37	884.72
376.56	880.04
376.76	823.87
376.95	856.64
377.15	882.38
377.35	891.74
377.54	915.15
377.74	842.59
377.93	882.38
378.13	849.61
378.33	891.74
378.52	823.87
378.72	924.51
378.91	924.51
379.11	947.92
379.31	940.90
379.50	926.85
379.70	985.37
379.89	922.17
380.09	1015.79
380.28	987.71
380.48	966.64
380.68	952.60
380.87	961.96
381.07	997.07
381.26	1011.11
381.46	1015.79
381.65	1020.47
381.85	976.00
382.04	1029.84
382.24	1081.33
382.43	1022.81
382.63	1163.25
382.83	1039.20
383.02	1174.95
383.22	1067.28
383.41	1093.03
383.61	1132.82
383.80	1093.03
384.00	1097.71
384.19	1144.52
384.39	1116.44
384.58	1078.99
384.78	1158.57
384.97	1200.69
385.17	1207.72
385.36	1130.48
385.56	1179.63
385.75	1139.84
385.95	1160.91
386.14	1193.67
386.34	1177.29
386.53	1149.20
386.72	1153.88
386.92	1268.57
387.11	1242.82
387.31	1210.06
387.50	1177.29
387.70	1144.52
387.89	1296.66
388.09	1341.13
388.28	1231.12
388.48	1315.38
388.67	1324.74
388.86	1268.57
389.06	1263.89
389.25	1355.17
389.45	1303.68
389.64	1437.09
389.84	1446.45
390.03	1448.79
390.22	1329.42
390.42	1268.57
390.61	1275.59
390.81	1308.36
391.00	1355.17
391.19	1399.64
391.39	1418.36
391.58	1495.60
391.78	1589.22
391.97	1535.39
392.16	1401.98
392.36	1743.70
392.55	1500.28
392.75	1497.94
392.94	1523.69
393.13	1486.24
393.33	1481.56
393.52	1572.84
393.71	1556.46
393.91	1607.95
394.10	1526.03
394.29	1603.27
394.49	1554.12
394.68	1586.88
394.88	1514.33
395.07	1626.67
395.26	1626.67
395.46	1675.82
395.65	1689.87
395.84	1605.61
396.04	1664.12
396.23	1701.57
396.42	1736.68
396.62	1713.27
396.81	1729.66
397.00	1750.72
397.19	1832.64
397.39	1753.06
397.58	1884.13
397.77	1722.63
397.97	1809.23
398.16	1827.96
398.35	1863.07
398.55	1947.33
398.74	1830.30
398.93	1891.15
399.12	1921.58
399.32	1891.15
399.51	1874.77
399.70	2026.90
399.90	1928.60
400.09	1963.71
400.28	2043.29
400.47	2071.37
400.67	2050.31
400.86	2005.84
401.05	2062.01
401.24	2111.16
401.44	2038.61
401.63	2069.03
401.82	2122.87
402.01	2221.17
402.21	2069.03
402.40	2188.40
402.59	2183.72
402.78	2214.15
402.97	2181.38
403.17	2282.02
403.36	2305.43
403.55	2373.30
403.74	2312.45
403.93	2270.32
404.13	2289.04
404.32	2382.67
404.51	2424.80
404.70	2375.64
404.89	2450.54
405.09	2490.33
405.28	2581.61
405.47	2480.97
405.66	2502.03
405.85	2406.07
406.05	2530.12
406.24	2490.33
406.43	2534.80
406.62	2665.87
406.81	2677.57
407.00	2670.55
407.20	2567.57
407.39	2623.74
407.58	2644.81
407.77	2752.47
407.96	2738.43
408.15	2738.43
408.34	2640.12
408.54	2796.94
408.73	2771.19
408.92	2836.73
409.11	2801.62
409.30	2892.90
409.49	2801.62
409.68	3002.91
409.87	3023.97
410.07	2953.76
410.26	2963.12
410.45	3016.95
410.64	2942.05
410.83	3059.08
411.02	2918.65
411.21	3084.83
411.40	3138.66
411.59	3059.08
411.78	3208.87
411.98	3171.43
412.17	3215.90
412.36	3239.30
412.55	3342.28
412.74	3311.86
412.93	3417.18
413.12	3314.20
413.31	3508.46
413.50	3566.98
413.69	3417.18
413.88	3574.00
414.07	3550.59
414.26	3590.38
414.45	3515.48
414.64	3747.20
414.83	3805.71
415.02	3742.52
415.22	3749.54
415.41	4030.40
415.60	3953.16
415.79	3932.10
415.98	3932.10
416.17	3955.51
416.36	3798.69
416.55	3887.63
416.74	4007.00
416.93	4236.37
417.12	3960.19
417.31	4065.51
417.50	4355.74
417.69	4379.14
417.88	4280.84
418.07	4222.33
418.26	4245.73
418.45	4290.20
418.64	4484.47
418.83	4386.16
419.02	4510.21
419.21	4533.62
419.39	4692.77
419.58	4582.77
419.77	4402.55
419.96	4498.51
420.15	4472.76
420.34	4533.62
420.53	4631.92
420.72	4762.99
420.91	4599.15
421.10	4713.84
421.29	4781.71
421.48	4540.64
421.67	4688.09
421.86	4777.03
422.05	4683.41
422.24	4812.14
422.43	4828.53
422.61	5011.09
422.80	4755.97
422.99	5022.79
423.18	4943.21
423.37	5029.81
423.56	4985.34
423.75	5034.49
423.94	4723.20
424.13	4554.68
424.32	4716.18
424.50	4915.12
424.69	5149.18
424.88	4933.85
425.07	4873.00
425.26	5025.13
425.45	4957.25
425.64	4882.36
425.83	4842.57
426.01	5008.75
426.20	5107.05
426.39	5046.20
426.58	5067.26
426.77	5107.05
426.96	5085.98
427.15	5130.45
427.33	5039.17
427.52	5125.77
427.71	5158.54
427.90	5158.54
428.09	5317.70
428.28	5144.50
428.46	5380.89
428.65	5181.95
428.84	5490.90
429.03	5423.02
429.22	5362.17
429.40	5427.70
429.59	5523.66
429.78	5266.21
429.97	5188.97
430.16	5486.22
430.34	5561.11
430.53	5624.31
430.72	5619.63
430.91	5458.13
431.10	5680.48
431.28	5706.23
431.47	5867.72
431.66	5678.14
431.85	5795.17
432.03	5844.32
432.22	5923.90
432.41	5895.81
432.60	6015.18
432.79	5888.79
432.97	5975.39
433.16	6099.44
433.35	5928.58
433.54	6015.18
433.72	5919.21
433.91	6012.84
434.10	6155.61
434.28	6054.97
434.47	6078.37
434.66	6382.64
434.85	6326.47
435.03	6216.46
435.22	6232.85
435.41	6377.96
435.59	6242.21
435.78	6478.60
435.97	6455.20
436.16	6497.33
436.34	6413.07
436.53	6518.39
436.72	6574.56
436.90	6588.61
437.09	6717.34
437.28	6464.56
437.46	6700.95
437.65	6530.09
437.84	6780.53
438.02	6623.72
438.21	6785.21
438.40	6537.12
438.58	6834.36
438.77	7005.22
438.96	7045.01
439.14	7040.33
439.33	7187.79
439.52	7288.43
439.70	7246.30
439.89	7253.32
440.08	7234.60
440.26	7311.83
440.45	7396.09
440.63	7407.80
440.82	7499.08
441.01	7463.97
441.19	7660.57
441.38	7578.65
441.57	7531.84
441.75	7679.30
441.94	7915.69
442.12	7808.03
442.31	8112.30
442.50	7714.41
442.68	7875.90
442.87	8116.98
443.05	8156.77
443.24	8140.38
443.43	8079.53
443.61	8226.98
443.80	8264.43
443.98	7854.84
444.17	7922.71
444.35	8039.74
444.54	8285.50
444.73	8367.42
444.91	8271.45
445.10	8311.24
445.28	8280.82
445.47	8116.98
445.65	8287.84
445.84	8280.82
446.02	8229.32
446.21	8145.06
446.39	8358.05
446.58	8554.66
446.77	8355.71
446.95	8257.41
447.14	8262.09
447.32	8482.10
447.51	8479.76
447.69	8484.44
447.88	8376.78
448.06	8545.30
448.25	8451.67
448.43	8500.83
448.62	8468.06
448.80	8472.74
448.99	8659.98
449.17	8678.71
449.36	8685.73
449.54	8805.10
449.73	8793.39
449.91	9088.30
450.10	8891.70
450.28	9013.40
450.46	8950.21
450.65	9022.77
450.83	9069.58
451.02	8933.82
451.20	9137.45
451.39	8917.44
451.57	8964.25
451.76	8964.25
451.94	9184.26
452.13	9327.03
452.31	9132.77
452.49	9001.70
452.68	9427.68
452.86	9116.39
453.05	9423.00
453.23	9476.83
453.42	9240.44
453.60	9291.93
453.78	9652.37
453.97	9226.39
454.15	9369.16
454.34	9540.02
454.52	9490.87
454.70	9577.47
454.89	9635.99
455.07	9846.63
455.26	9540.02
455.44	10047.92
455.62	9907.49
455.81	9727.27
455.99	9830.25
456.17	9980.04
456.36	10078.35
456.54	10186.01
456.73	10335.81
456.91	10366.23
457.09	10331.12
457.28	10490.28
457.46	10169.63
457.64	10473.90
457.83	10586.24
458.01	10239.84
458.19	10714.97
458.38	10399.00
458.56	10635.39
458.74	10614.33
458.93	10651.78
459.11	10696.25
459.29	10693.91
459.48	10487.94
459.66	10822.64
459.84	10832.00
460.03	10932.64
460.21	10843.70
460.39	11026.26
460.57	10967.75
460.76	10991.16
460.94	11105.84
461.12	11260.32
461.31	11321.17
461.49	11145.63
461.67	11265.00
461.85	11468.62
462.04	11346.92
462.22	11751.83
462.40	11721.40
462.59	11424.15
462.77	11297.77
462.95	11534.16
463.13	11613.74
463.32	11470.97
463.50	11627.78
463.68	11714.38
463.86	11854.81
464.05	11681.61
464.23	11524.80
464.41	11730.76
464.59	11728.42
464.78	11964.82
464.96	11983.54
465.14	11782.26
465.32	11948.43
465.50	12161.42
465.69	11976.52
465.87	11831.41
466.05	12297.17
466.23	12191.85
466.41	12135.68
466.60	12470.37
466.78	12060.78
466.96	12030.35
467.14	12147.38
467.32	12226.96
467.51	12367.39
467.69	12266.75
467.87	12400.16
468.05	12435.27
468.23	12549.95
468.41	12442.29
468.60	12575.70
468.78	12606.13
468.96	12416.54
469.14	12772.30
469.32	12957.21
469.50	12514.84
469.69	12826.14
469.87	13036.78
470.05	13231.05
470.23	12842.52
470.41	13060.19
470.59	13329.35
470.77	13137.43
470.95	13345.73
471.14	13350.42
471.32	13231.05
471.50	13383.18
471.68	13446.38
471.86	13467.44
472.04	13593.83
472.22	13919.17
472.40	13500.21
472.58	13657.03
472.77	14019.81
472.95	13902.78
473.13	14422.38
473.31	13832.57
473.49	14127.47
473.67	14183.65
473.85	14235.14
474.03	14607.28
474.21	14665.80
474.39	14567.49
474.57	14808.57
474.75	14731.33
474.93	14799.21
475.12	14946.66
475.30	14775.80
475.48	14813.25
475.66	15129.22
475.84	15115.18
476.02	15133.90
476.20	15349.23
476.38	15747.12
476.56	15887.56
476.74	15737.76
476.92	15815.00
477.10	15843.09
477.28	16013.95
477.46	16187.14
477.64	16142.67
477.82	16472.69
478.00	16788.66
478.18	16503.12
478.36	16893.99
478.54	16966.54
478.72	17146.76
478.90	17310.60
479.08	17717.86
479.26	17673.39
479.44	17589.13
479.62	17762.33
479.80	18200.01
479.98	17942.55
480.16	18345.12
480.34	18073.62
480.52	18565.13
480.70	18405.97
480.88	18300.65
481.06	18705.56
481.24	18831.95
481.41	18948.98
481.59	19609.01
481.77	19049.62
481.95	19414.74
482.13	19365.59
482.31	19822.00
482.49	20023.28
482.67	19964.77
482.85	20271.38
483.03	20587.35
483.21	20304.15
483.39	20933.75
483.57	20709.06
483.74	20936.09
483.92	21436.97
484.10	21132.70
484.28	21635.91
484.46	21905.07
484.64	21940.18
484.82	21809.11
485.00	22111.04
485.18	22778.09
485.35	23082.36
485.53	22991.08
485.71	22897.46
485.89	23372.59
486.07	23386.63
486.25	23096.41
486.43	23611.32
486.61	23936.66
486.78	24009.22
486.96	23772.82
487.14	24147.31
487.32	24636.48
487.50	24641.16
487.68	24842.45
487.85	25212.25
488.03	25191.19
488.21	25556.31
488.39	25607.80
488.57	26122.72
488.75	25998.67
488.92	26363.79
489.10	26698.49
489.28	26494.86
489.46	27089.36
489.64	27040.21
489.81	27576.19
489.99	27365.54
490.17	27463.85
490.35	28191.75
490.53	28020.89
490.70	28240.90
490.88	28095.79
491.06	28844.76
491.24	29137.33
491.41	29064.77
491.59	29081.16
491.77	28889.23
491.95	29467.34
492.13	29607.78
492.30	29556.28
492.48	29851.19
492.66	29699.06
492.84	30157.80
493.01	30515.90
493.19	30862.30
493.37	30909.11
493.54	30888.05
493.72	31831.29
493.90	31587.87
494.08	31318.71
494.25	32034.91
494.43	31948.31
494.61	32561.53
494.79	32414.08
494.96	32503.02
495.14	32769.84
495.32	32631.75
495.49	33240.29
495.67	33188.80
495.85	33687.33
496.02	33773.93
496.20	34047.77
496.38	33584.35
496.55	34005.64
496.73	34679.72
496.91	34298.21
497.09	34576.73
497.26	34630.57
497.44	34572.05
497.62	34787.38
497.79	35681.47
497.97	35225.06
498.14	35873.39
498.32	35690.83
498.50	36299.37
498.67	36236.17
498.85	36484.27
499.03	36662.15
499.20	36474.91
499.38	36823.65
499.56	36772.16
499.73	37102.17
499.91	37209.84
500.08	37120.90
500.26	37326.86
500.44	37486.02
500.61	37680.28
500.79	37790.29
500.97	37596.03
501.14	38398.83
501.32	38560.33
501.49	38216.27
501.67	38586.07
501.84	38829.49
502.02	39136.10
502.20	38993.32
502.37	38909.07
502.55	38768.63
502.72	39178.23
502.90	39473.13
503.07	39189.93
503.25	39899.11
503.43	39505.90
503.60	40002.10
503.78	39938.90
503.95	39550.37
504.13	40509.99
504.30	40629.36
504.48	40231.47
504.65	40605.95
504.83	40772.13
505.01	41160.66
505.18	41172.36
505.36	41401.74
505.53	40760.43
505.71	41607.70
505.88	41518.76
506.06	41247.26
506.23	41446.21
506.41	41167.68
506.58	41537.49
506.76	42134.32
506.93	42693.71
507.11	41904.95
507.28	42752.23
507.46	42511.15
507.63	42656.26
507.81	42721.80
507.98	42824.78
508.16	43077.56
508.33	43569.07
508.50	43185.22
508.68	43372.47
508.85	43379.49
509.03	43636.95
509.20	43943.56
509.38	44432.73
509.55	44058.24
509.73	45146.59
509.90	44385.92
510.08	44261.87
510.25	44390.60
510.42	44725.30
510.60	44465.50
510.77	44598.91
510.95	45071.70
511.12	45207.45
511.30	44875.09
511.47	45359.58
511.64	45551.51
511.82	45713.00
511.99	45986.85
512.17	45783.22
512.34	45570.23
512.51	46220.90
512.69	46281.75
512.86	45944.72
513.04	46284.09
513.21	46256.01
513.38	46740.50
513.56	46735.82
513.73	46946.47
513.90	46820.08
514.08	46586.02
514.25	46878.59
514.43	47271.80
514.60	46850.50
514.77	47370.10
514.95	47573.73
515.12	47201.58
515.29	47384.15
515.47	47524.58
515.64	47840.55
515.81	47957.58
515.99	48142.48
516.16	47826.51
516.33	48011.41
516.51	48413.98
516.68	48112.05
516.85	48622.29
517.03	48662.08
517.20	48952.30
517.37	48591.86
517.54	48694.85
517.72	48439.73
517.89	48736.98
518.06	49043.59
518.24	49385.30
518.41	48985.07
518.58	48947.62
518.75	48662.08
518.93	49366.58
519.10	48996.77
519.27	49429.77
519.45	49469.56
519.62	49642.76
519.79	49762.13
519.96	49830.01
520.14	50026.61
520.31	49799.58
520.48	50483.01
520.65	50031.29
520.83	50422.16
521.00	50557.91
521.17	49993.84
521.34	50623.45
521.52	50644.51
521.69	50370.67
521.86	50911.33
522.03	50752.18
522.20	51215.60
522.38	51295.18
522.55	51288.16
522.72	51089.21
522.89	51126.66
523.07	51215.60
523.24	51393.48
523.41	51519.87
523.58	51264.75
523.75	51760.95
523.92	51477.74
524.10	51973.94
524.27	52177.56
524.44	51753.93
524.61	51938.83
524.78	51749.24
524.96	52264.16
525.13	52109.69
525.30	52210.33
525.47	52289.91
525.64	52121.39
525.81	52631.63
525.98	52388.21
526.16	52542.69
526.33	52479.49
526.50	52830.57
526.67	52570.77
526.84	52832.91
527.01	52839.93
527.18	52893.77
527.36	52545.03
527.53	53249.53
527.70	53153.57
527.87	53148.88
528.04	52954.62
528.21	53453.15
528.38	53172.29
528.55	53450.81
528.72	53303.36
528.89	52992.07
529.07	53081.01
529.24	53396.98
529.41	53593.59
529.58	53357.19
529.75	53734.02
529.92	53413.37
530.09	53717.64
530.26	53579.54
530.43	53839.34
530.60	53544.44
530.77	53609.97
530.94	53708.27
531.11	53727.00
531.28	53956.37
531.46	54031.27
531.63	54183.40
531.80	54150.63
531.97	54454.90
532.14	54295.75
532.31	54351.92
532.48	54419.80
532.65	54581.29
532.82	54459.58
532.99	54695.98
533.16	54361.28
533.33	54478.31
533.50	54646.83
533.67	54822.37
533.84	54389.37
534.01	54635.13
534.18	54768.54
534.35	55128.98
534.52	54836.41
534.69	55157.06
534.86	55070.46
535.03	54747.47
535.20	55096.21
535.37	55281.11
535.54	55302.18
535.71	55147.70
535.88	55264.73
536.05	55253.03
536.22	55313.88
536.38	55348.99
536.55	55351.33
536.72	55402.82
536.89	55353.67
537.06	55313.88
537.23	55561.98
537.40	55414.52
537.57	55810.07
537.74	55662.62
537.91	55784.33
538.08	55906.04
538.25	55517.51
538.42	55959.87
538.59	55920.08
538.75	55826.46
538.92	56062.85
539.09	55943.48
539.26	55847.52
539.43	56079.24
539.60	56041.79
539.77	55987.95
539.94	56437.34
540.11	56182.22
540.28	56147.11
540.44	56119.02
540.61	56147.11
540.78	56355.42
540.95	56119.02
541.12	56130.73
541.29	56385.85
541.46	56463.08
541.62	56502.87
541.79	56594.15
541.96	56266.48
542.13	56406.91
542.30	56420.95
542.47	56989.70
542.63	56662.03
542.80	56807.14
542.97	57038.86
543.14	56947.57
543.31	56992.04
543.48	56978.00
543.64	57298.65
543.81	57425.04
543.98	57298.65
544.15	57532.71
544.32	57378.23
544.48	57574.84
544.65	57198.01
544.82	57186.31
544.99	57162.90
545.16	57134.82
545.32	57200.35
545.49	57586.54
545.66	57780.81
545.83	57542.07
546.00	57748.04
546.16	57546.75
546.33	57457.81
546.50	57272.91
546.67	57483.56
546.83	57256.53
547.00	57682.50
547.17	57502.28
547.34	57455.47
547.50	57827.62
547.67	58141.25
547.84	57668.46
548.00	57932.94
548.17	57975.07
548.34	57972.73
548.51	58033.58
548.67	58047.63
548.84	58059.33
549.01	58045.29
549.18	57970.39
549.34	58216.14
549.51	58129.54
549.68	58054.65
549.84	58267.64
550.01	58365.94
550.18	58073.37
550.34	58316.79
550.51	58482.97
550.68	58511.05
550.84	58223.17
551.01	58447.86
551.18	58372.96
551.34	58403.39
551.51	58440.84
551.68	58202.10
551.84	58438.50
552.01	58347.21
552.18	58347.21
552.34	58471.26
552.51	58532.12
552.68	58328.49
552.84	58192.74
553.01	58686.59
553.18	58597.65
553.34	58768.51
553.51	58796.60
553.67	58681.91
553.84	58958.09
554.01	58695.95
554.17	58967.46
554.34	58979.16
554.51	58887.88
554.67	58787.24
554.84	58611.70
555.00	58944.05
555.17	58869.15
555.33	58887.88
555.50	58904.26
555.67	58922.99
555.83	58787.24
556.00	59173.42
556.16	59241.30
556.33	59269.39
556.50	59056.40
556.66	59264.70
556.83	58967.46
556.99	59222.58
557.16	59363.01
557.32	59245.98
557.49	59480.03
557.65	59217.89
557.82	59377.05
557.98	59227.26
558.15	59388.75
558.32	59372.37
558.48	59278.75
558.65	59281.09
558.81	59178.10
558.98	59285.77
559.14	59269.39
559.31	59498.76
559.47	59566.63
559.64	59517.48
559.80	59538.55
559.97	59505.78
560.13	59435.56
560.30	59618.13
560.46	59674.30
560.63	59564.29
560.79	59643.87
560.96	59625.15
561.12	59540.89
561.29	59627.49
561.45	59796.01
561.61	59653.23
561.78	59803.03
561.94	59686.00
562.11	59678.98
562.27	59854.52
562.44	59929.42
562.60	59788.98
562.77	60055.81
562.93	59772.60
563.10	59994.95
563.26	59845.16
563.42	60236.03
563.59	59847.50
563.75	59889.63
563.92	59798.35
564.08	59807.71
564.24	60023.04
564.41	59987.93
564.57	60074.53
564.74	60177.51
564.90	59990.27
565.07	60076.87
565.23	60083.89
565.39	59973.89
565.56	60268.79
565.72	60205.60
565.88	60123.68
566.05	59861.54
566.21	60030.06
566.38	60133.04
566.54	60205.60
566.70	60331.99
566.87	60261.77
567.03	60037.08
567.19	60353.05
567.36	60266.45
567.52	60154.11
567.68	60413.91
567.85	60355.39
568.01	60240.71
568.17	60224.32
568.34	60229.01
568.50	60348.37
568.66	60182.19
568.83	60334.33
568.99	60383.48
569.15	60224.32
569.32	60264.11
569.48	60397.52
569.64	60327.31
569.81	60278.16
569.97	60238.37
570.13	60275.82
570.30	60123.68
570.46	60367.10
570.62	60371.78
570.78	60324.97
570.95	60329.65
571.11	60444.33
571.27	60376.46
571.43	60439.65
571.60	60587.11
571.76	60486.46
571.92	60299.22
572.09	60467.74
572.25	60434.97
572.41	60540.30
572.57	60552.00
572.74	60591.79
572.90	60411.57
573.06	60439.65
573.22	60477.10
573.38	60427.95
573.55	60519.23
573.71	60594.13
573.87	60748.60
574.03	60587.11
574.20	60678.39
574.36	60477.10
574.52	60577.75
574.68	60645.62
574.84	60472.42
575.01	60512.21
575.17	60748.60
575.33	60631.58
575.49	60341.35
575.65	60559.02
575.82	60662.00
575.98	60907.76
576.14	60973.30
576.30	60687.75
576.46	60603.49
576.62	60535.62
576.79	60671.37
576.95	60420.93
577.11	60704.13
577.27	60767.33
577.43	60760.31
577.59	60610.51
577.75	60598.81
577.92	60523.91
578.08	60692.43
578.24	60800.10
578.40	60980.32
578.56	60676.05
578.72	60669.03
578.88	60966.27
579.04	61034.15
579.21	60912.44
579.37	60842.23
579.53	60992.02
579.69	60584.77
579.85	60816.48
580.01	60704.13
580.17	60615.19
580.33	60718.18
580.49	60893.72
580.65	60575.40
580.82	60732.22
580.98	60729.88
581.14	60657.32
581.30	60914.78
581.46	60797.76
581.62	60694.77
581.78	60563.70
581.94	60832.86
582.10	60732.22
582.26	60835.20
582.42	60753.29
582.58	60779.03
582.74	60814.14
582.90	60858.61
583.06	60687.75
583.22	60725.20
583.38	60760.31
583.54	61027.13
583.70	60795.42
583.86	60999.04
584.02	60776.69
584.18	60898.40
584.34	60760.31
584.50	61020.11
584.66	60659.66
584.82	60889.04
584.98	60985.00
585.14	60977.98
585.30	60800.10
585.46	60961.59
585.62	60860.95
585.78	61027.13
585.94	60701.79
586.10	61003.72
586.26	60977.98
586.42	60987.34
586.58	60928.83
586.74	60945.21
586.90	60959.25
587.06	61102.03
587.22	61160.54
587.38	60823.50
587.54	61179.26
587.70	61127.77
587.86	61017.77
588.02	60828.18
588.18	61104.37
588.34	61073.94
588.49	60781.37
