SpectraSuite Data File
++++++++++++++++++++++++++++++++++++
Date: Fri Oct 25 11:22:37 EDT 2013
User: price-jones
Dark Spectrum Present: No
Reference Spectrum Present: No
Number of Sampled Component Spectra: 1
Spectrometers: USB2+H05261
Integration Time (usec): 100000 (USB2+H05261)
Spectra Averaged: 1 (USB2+H05261)
Boxcar Smoothing: 0 (USB2+H05261)
Correct for Electrical Dark: No (USB2+H05261)
Strobe/Lamp Enabled: No (USB2+H05261)
Correct for Detector Non-linearity: No (USB2+H05261)
Correct for Stray Light: No (USB2+H05261)
Number of Pixels in Processed Spectrum: 2048
>>>>>Begin Processed Spectral Data<<<<<
365.73	259.80
365.92	259.80
366.12	259.80
366.32	102.98
366.52	145.11
366.72	182.56
366.91	191.92
367.11	149.79
367.31	156.82
367.51	168.52
367.70	124.05
367.90	149.79
368.10	84.26
368.30	138.09
368.49	102.98
368.69	156.82
368.89	126.39
369.09	147.45
369.28	196.60
369.48	191.92
369.68	161.50
369.87	231.71
370.07	194.26
370.27	220.01
370.47	362.78
370.66	641.31
370.86	594.50
371.06	690.46
371.25	669.39
371.45	669.39
371.65	688.12
371.84	674.07
372.04	662.37
372.24	692.80
372.44	713.86
372.63	734.93
372.83	753.65
373.03	760.67
373.22	727.91
373.42	805.14
373.62	697.48
373.81	699.82
374.01	802.80
374.21	767.70
374.40	856.64
374.60	863.66
374.79	849.61
374.99	800.46
375.19	861.32
375.38	830.89
375.58	842.59
375.78	800.46
375.97	891.74
376.17	877.70
376.37	908.13
376.56	851.96
376.76	816.85
376.95	891.74
377.15	887.06
377.35	866.00
377.54	875.36
377.74	901.11
377.93	919.83
378.13	936.21
378.33	952.60
378.52	851.96
378.72	950.26
378.91	894.08
379.11	957.28
379.31	947.92
379.50	856.64
379.70	959.62
379.89	1011.11
380.09	950.26
380.28	1067.28
380.48	1008.77
380.68	1006.43
380.87	1025.15
381.07	1011.11
381.26	1097.71
381.46	1008.77
381.65	1020.47
381.85	1062.60
382.04	1083.67
382.24	1067.28
382.43	1081.33
382.63	1067.28
382.83	1043.88
383.02	1135.16
383.22	1111.75
383.41	1090.69
383.61	1053.24
383.80	1128.14
384.00	1123.46
384.19	1123.46
384.39	1088.35
384.58	1233.46
384.78	1139.84
384.97	1179.63
385.17	1167.93
385.36	1198.35
385.56	1153.88
385.75	1160.91
385.95	1181.97
386.14	1294.32
386.34	1207.72
386.53	1221.76
386.72	1139.84
386.92	1287.29
387.11	1249.85
387.31	1231.12
387.50	1160.91
387.70	1196.01
387.89	1268.57
388.09	1266.23
388.28	1165.59
388.48	1247.51
388.67	1273.25
388.86	1252.19
389.06	1380.92
389.25	1385.60
389.45	1432.41
389.64	1282.61
389.84	1425.39
390.03	1315.38
390.22	1341.13
390.42	1418.36
390.61	1322.40
390.81	1366.87
391.00	1451.13
391.19	1350.49
391.39	1406.66
391.58	1483.90
391.78	1376.24
391.97	1486.24
392.16	1441.77
392.36	1589.22
392.55	1511.99
392.75	1565.82
392.94	1549.43
393.13	1643.06
393.33	1600.93
393.52	1547.09
393.71	1741.36
393.91	1511.99
394.10	1600.93
394.29	1554.12
394.49	1579.86
394.68	1521.35
394.88	1568.16
395.07	1664.12
395.26	1652.42
395.46	1563.48
395.65	1582.20
395.84	1762.42
396.04	1722.63
396.23	1675.82
396.42	1659.44
396.62	1671.14
396.81	1858.39
397.00	1764.76
397.19	1701.57
397.39	1865.41
397.58	1884.13
397.77	1830.30
397.97	1844.34
398.16	1863.07
398.35	1832.64
398.55	1865.41
398.74	1984.77
398.93	2019.88
399.12	1973.07
399.32	1935.62
399.51	1973.07
399.70	2038.61
399.90	2019.88
400.09	2099.46
400.28	2083.08
400.47	2069.03
400.67	2092.44
400.86	2071.37
401.05	2043.29
401.24	2132.23
401.44	2062.01
401.63	2169.68
401.82	2216.49
402.01	2160.31
402.21	2071.37
402.40	2122.87
402.59	2209.47
402.78	2251.60
402.97	2160.31
403.17	2216.49
403.36	2319.47
403.55	2345.22
403.74	2321.81
403.93	2293.72
404.13	2438.84
404.32	2338.20
404.51	2471.61
404.70	2499.69
404.89	2415.43
405.09	2471.61
405.28	2476.29
405.47	2473.95
405.66	2562.89
405.85	2502.03
406.05	2513.74
406.24	2621.40
406.43	2431.82
406.62	2729.06
406.81	2682.25
407.00	2626.08
407.20	2649.49
407.39	2717.36
407.58	2597.99
407.77	2677.57
407.96	2874.18
408.15	2780.56
408.34	2736.09
408.54	2864.82
408.73	2843.75
408.92	2923.33
409.11	2920.99
409.30	3000.57
409.49	3038.02
409.68	2855.45
409.87	2874.18
410.07	3000.57
410.26	3119.93
410.45	2967.80
410.64	3042.70
410.83	3068.44
411.02	3087.17
411.21	3185.47
411.40	3155.04
411.59	3136.32
411.78	3225.26
411.98	3236.96
412.17	3194.83
412.36	3300.16
412.55	3272.07
412.74	3492.08
412.93	3330.58
413.12	3293.13
413.31	3576.34
413.50	3461.65
413.69	3368.03
413.88	3693.37
414.07	3548.25
414.26	3606.77
414.45	3782.31
414.64	3772.94
414.83	3646.55
415.02	3843.16
415.22	3852.52
415.41	3847.84
415.60	3997.64
415.79	3908.69
415.98	3941.46
416.17	3779.97
416.36	3983.59
416.55	4021.04
416.74	4007.00
416.93	4121.68
417.12	4117.00
417.31	4086.58
417.50	4173.18
417.69	4461.06
417.88	4369.78
418.07	4318.29
418.26	4393.19
418.45	4353.40
418.64	4514.89
418.83	4414.25
419.02	4491.49
419.21	4638.94
419.39	4571.07
419.58	4472.76
419.77	4477.44
419.96	4514.89
420.15	4660.01
420.34	4629.58
420.53	4573.41
420.72	4868.31
420.91	4791.08
421.10	4788.74
421.29	4873.00
421.48	4954.91
421.67	4840.23
421.86	4851.93
422.05	4978.32
422.24	4849.59
422.43	4861.29
422.61	4931.51
422.80	5001.72
422.99	4894.06
423.18	5071.94
423.37	5048.54
423.56	4978.32
423.75	4908.10
423.94	5006.41
424.13	4566.39
424.32	4882.36
424.50	5020.45
424.69	5130.45
424.88	5149.18
425.07	5039.17
425.26	5004.07
425.45	5034.49
425.64	4961.94
425.83	4910.44
426.01	5104.71
426.20	5135.14
426.39	5139.82
426.58	4985.34
426.77	5095.35
426.96	5184.29
427.15	5128.11
427.33	5132.79
427.52	5076.62
427.71	5397.28
427.90	5357.49
428.09	5149.18
428.28	5551.75
428.46	5423.02
428.65	5322.38
428.84	5458.13
429.03	5633.67
429.22	5289.61
429.40	5600.90
429.59	5561.11
429.78	5249.82
429.97	5355.15
430.16	5486.22
430.34	5624.31
430.53	5750.70
430.72	5600.90
430.91	5827.93
431.10	5621.97
431.28	5818.57
431.47	5982.41
431.66	6080.71
431.85	5895.81
432.03	6106.46
432.22	6293.70
432.41	5804.53
432.60	5980.07
432.79	6017.52
432.97	6078.37
433.16	6017.52
433.35	6005.81
433.54	6031.56
433.72	6272.64
433.91	6251.57
434.10	6190.72
434.28	6169.65
434.47	6286.68
434.66	6136.88
434.85	6340.51
435.03	6424.77
435.22	6293.70
435.41	6593.29
435.59	6410.73
435.78	6544.14
435.97	6572.22
436.16	6415.41
436.34	6539.46
436.53	6649.46
436.72	6712.66
436.90	6469.24
437.09	6551.16
437.28	6509.03
437.46	6630.74
437.65	6569.88
437.84	6834.36
438.02	6789.89
438.21	6920.96
438.40	6626.06
438.58	7105.87
438.77	6899.90
438.96	6836.70
439.14	7152.68
439.33	7117.57
439.52	7269.70
439.70	7379.71
439.89	7293.11
440.08	7485.03
440.26	7576.31
440.45	7447.58
440.63	7384.39
440.82	7634.83
441.01	7595.04
441.19	7447.58
441.38	7854.84
441.57	7789.30
441.75	7962.50
441.94	8325.29
442.12	8063.15
442.31	8290.18
442.50	8243.37
442.68	7957.82
442.87	8259.75
443.05	8245.71
443.24	8308.90
443.43	8402.52
443.61	8180.17
443.80	8587.43
443.98	8236.35
444.17	8135.70
444.35	8161.45
444.54	8498.49
444.73	8402.52
444.91	8435.29
445.10	8414.23
445.28	8465.72
445.47	8524.23
445.65	8327.63
445.84	8353.37
446.02	8643.60
446.21	8486.78
446.39	8547.64
446.58	8608.49
446.77	8671.68
446.95	8421.25
447.14	8381.46
447.32	8624.87
447.51	8631.90
447.69	8557.00
447.88	8746.58
448.06	8526.57
448.25	8650.62
448.43	8538.27
448.62	8507.85
448.80	8718.50
448.99	8699.77
449.17	8908.08
449.36	8823.82
449.54	8940.85
449.73	8959.57
449.91	9303.63
450.10	8847.22
450.28	9027.45
450.46	9362.14
450.65	9036.81
450.83	9158.52
451.02	9287.25
451.20	9380.87
451.39	9179.58
451.57	9261.50
451.76	9263.84
451.94	9305.97
452.13	9392.57
452.31	9322.35
452.49	9247.46
452.68	9350.44
452.86	9390.23
453.05	9603.22
453.23	9596.20
453.42	9755.35
453.60	9334.06
453.78	9621.94
453.97	9638.33
454.15	9708.54
454.34	9511.94
454.52	9753.01
454.70	9764.72
454.89	9774.08
455.07	9783.44
455.26	9982.38
455.44	9874.72
455.62	9980.04
455.81	10164.95
455.99	10031.54
456.17	10008.13
456.36	10211.76
456.54	10335.81
456.73	10195.37
456.91	10403.68
457.09	10382.62
457.28	10597.95
457.46	10422.41
457.64	10700.93
457.83	10487.94
458.01	10459.85
458.19	10911.58
458.38	10796.89
458.56	10738.38
458.74	10626.03
458.93	10801.57
459.11	10846.04
459.29	10841.36
459.48	10916.26
459.66	11016.90
459.84	10841.36
460.03	11143.29
460.21	11204.14
460.39	11108.18
460.57	11068.39
460.76	11283.72
460.94	11360.96
461.12	11185.42
461.31	11176.06
461.49	11339.90
461.67	11557.57
461.85	11531.82
462.04	11412.45
462.22	12016.31
462.40	11789.28
462.59	11672.25
462.77	11728.42
462.95	11847.79
463.13	11702.68
463.32	11651.19
463.50	12107.59
463.68	11974.18
463.86	11957.80
464.05	11564.59
464.23	11833.75
464.41	11910.99
464.59	11913.33
464.78	12100.57
464.96	11868.86
465.14	11880.56
465.32	11985.88
465.50	12241.00
465.69	12432.93
465.87	12175.47
466.05	12348.67
466.23	12311.22
466.41	12315.90
466.60	12446.97
466.78	12081.85
466.96	12250.36
467.14	12498.46
467.32	12685.70
467.51	12636.55
467.69	12491.44
467.87	12442.29
468.05	12910.40
468.23	12793.37
468.41	12582.72
468.60	12699.75
468.78	12833.16
468.96	12872.95
469.14	12851.88
469.32	13233.39
469.50	12585.06
469.69	13273.18
469.87	13289.56
470.05	13235.73
470.23	13231.05
470.41	13240.41
470.59	13664.05
470.77	13085.94
470.95	13586.81
471.14	13757.67
471.32	13305.95
471.50	13619.58
471.68	13678.09
471.86	14022.15
472.04	13902.78
472.22	14267.91
472.40	13769.37
472.58	13956.61
472.77	14083.00
472.95	14462.17
473.13	14979.43
473.31	14501.96
473.49	14307.69
473.67	14305.35
473.85	14567.49
474.03	14726.65
474.21	14693.88
474.39	14876.44
474.57	14848.36
474.75	14946.66
474.93	15239.23
475.12	15229.87
475.30	15632.44
475.48	15431.15
475.66	15180.71
475.84	15513.07
476.02	15618.39
476.20	15459.24
476.38	15747.12
476.56	16304.17
476.74	15920.32
476.92	15997.56
477.10	15990.54
477.28	16475.03
477.46	16100.55
477.64	16411.84
477.82	16957.18
478.00	17214.64
478.18	16994.63
478.36	17273.15
478.54	17214.64
478.72	17233.36
478.90	17668.70
479.08	17886.37
479.26	17912.12
479.44	17909.78
479.62	17958.93
479.80	17839.56
479.98	18188.30
480.16	18773.44
480.34	18583.85
480.52	18682.16
480.70	18810.89
480.88	18506.62
481.06	18867.06
481.24	19023.87
481.41	19253.25
481.59	19658.16
481.77	19847.74
481.95	19988.18
482.13	19924.98
482.31	19716.67
482.49	20353.30
482.67	20208.19
482.85	20936.09
483.03	20966.52
483.21	20957.16
483.39	21261.43
483.57	21467.39
483.74	21472.07
483.92	21764.64
484.10	21488.46
484.28	21776.34
484.46	22232.75
484.64	22419.99
484.82	21827.84
485.00	22792.14
485.18	23192.37
485.35	23407.70
485.53	23091.73
485.71	23604.30
485.89	23566.85
486.07	23594.94
486.25	23915.59
486.43	23840.70
486.61	24137.94
486.78	24119.22
486.96	24367.32
487.14	24907.98
487.32	24744.14
487.50	25441.62
487.68	24889.26
487.85	25694.40
488.03	25766.96
488.21	26052.50
488.39	26073.57
488.57	26356.77
488.75	26616.57
488.92	26799.13
489.10	26764.03
489.28	27206.39
489.46	27644.07
489.64	27356.18
489.81	27988.13
489.99	27625.34
490.17	28219.84
490.35	28285.37
490.53	28240.90
490.70	29118.60
490.88	28936.04
491.06	29092.86
491.24	29420.53
491.41	29455.64
491.59	29867.58
491.77	29542.24
491.95	29806.72
492.13	30448.03
492.30	30651.66
492.48	30279.51
492.66	30305.26
492.84	30625.91
493.01	30930.18
493.19	30850.60
493.37	31505.95
493.54	31477.86
493.72	31988.10
493.90	31824.26
494.08	31983.42
494.25	32425.78
494.43	32135.56
494.61	32610.68
494.79	33034.32
494.96	32795.59
495.14	33151.35
495.32	33408.81
495.49	33542.22
495.67	33907.34
495.85	34232.68
496.02	34560.35
496.20	34630.57
496.38	34223.31
496.55	34672.70
496.73	35218.04
496.91	35070.59
497.09	35260.17
497.26	35229.74
497.44	34869.30
497.62	35817.22
497.79	36002.12
497.97	36121.49
498.14	36306.39
498.32	36928.97
498.50	36521.72
498.67	37137.28
498.85	36638.75
499.03	37228.56
499.20	37425.17
499.38	37357.29
499.56	37347.93
499.73	37474.32
499.91	37904.98
500.08	38197.54
500.26	37495.38
500.44	38073.49
500.61	38075.84
500.79	38466.70
500.97	38267.76
501.14	38836.51
501.32	39082.27
501.49	38871.62
501.67	38876.30
501.84	39639.31
502.02	39218.02
502.20	39709.53
502.37	39681.44
502.55	39641.65
502.72	40245.51
502.90	39969.33
503.07	39711.87
503.25	40460.84
503.43	40032.52
503.60	40552.12
503.78	40416.37
503.95	40559.14
504.13	40825.96
504.30	40678.51
504.48	40786.18
504.65	40999.16
504.83	41677.92
505.01	41820.69
505.18	41603.02
505.36	41766.86
505.53	41701.32
505.71	42124.96
505.88	42117.94
506.06	41991.55
506.23	42728.82
506.41	42270.08
506.58	42485.40
506.76	42483.06
506.93	42981.60
507.11	43112.67
507.28	43597.16
507.46	43133.73
507.63	43519.92
507.81	43487.15
507.98	43512.90
508.16	43576.09
508.33	43955.26
508.50	44271.23
508.68	43812.49
508.85	44634.02
509.03	44179.95
509.20	44421.03
509.38	45146.59
509.55	44545.08
509.73	44795.51
509.90	45043.61
510.08	44882.11
510.25	45106.80
510.42	45345.54
510.60	45799.60
510.77	45371.28
510.95	45427.46
511.12	45315.11
511.30	45914.29
511.47	45694.28
511.64	46195.15
511.82	46153.02
511.99	46270.05
512.17	46581.34
512.34	46218.56
512.51	46333.24
512.69	47070.51
512.86	46911.36
513.04	47320.95
513.21	46848.16
513.38	47192.22
513.56	47531.60
513.73	47491.81
513.90	47332.65
514.08	47344.36
514.25	48229.08
514.43	47772.67
514.60	48341.42
514.77	47868.64
514.95	48023.11
515.12	48013.75
515.29	48128.44
515.47	48196.31
515.64	48472.49
515.81	48554.41
515.99	48744.00
516.16	48924.22
516.33	48641.01
516.51	49193.38
516.68	49045.93
516.85	48671.44
517.03	49490.63
517.20	49233.17
517.37	49324.45
517.54	49141.89
517.72	49565.52
517.89	49441.48
518.06	49490.63
518.24	49640.42
518.41	50038.31
518.58	49560.84
518.75	49586.59
518.93	50106.19
519.10	49656.81
519.27	49977.46
519.45	50225.56
519.62	50373.01
519.79	50148.32
519.96	50202.15
520.14	50763.88
520.31	50115.55
520.48	50904.31
520.65	50728.77
520.83	51068.15
521.00	51075.17
521.17	51002.61
521.34	51009.64
521.52	51016.66
521.69	51271.78
521.86	51379.44
522.03	51877.97
522.20	51545.62
522.38	52126.07
522.55	51831.16
522.72	51536.26
522.89	51732.86
523.07	52198.63
523.24	51838.18
523.41	52090.96
523.58	51686.05
523.75	52287.57
523.92	51983.30
524.10	51880.31
524.27	52243.10
524.44	52399.91
524.61	52561.41
524.78	52472.47
524.96	52687.80
525.13	52683.12
525.30	52917.17
525.47	53010.79
525.64	52750.99
525.81	52966.32
525.98	53160.59
526.16	53003.77
526.33	53024.84
526.50	53160.59
526.67	53052.92
526.84	53120.80
527.01	53188.67
527.18	53008.45
527.36	53298.68
527.53	53212.08
527.70	53492.94
527.87	53773.81
528.04	53408.68
528.21	53759.76
528.38	53539.75
528.55	53869.77
528.72	53602.95
528.89	53719.98
529.07	53862.75
529.24	53703.59
529.41	53972.75
529.58	54057.01
529.75	53867.43
529.92	54202.13
530.09	54003.18
530.26	54176.38
530.43	54258.30
530.60	54171.70
530.77	54131.91
530.94	54419.80
531.11	54389.37
531.28	54511.08
531.46	54525.12
531.63	54918.33
531.80	54681.94
531.97	54607.04
532.14	54911.31
532.31	54843.43
532.48	55049.40
532.65	55220.26
532.82	54948.76
532.99	54944.08
533.16	54766.20
533.33	55323.24
533.50	55159.41
533.67	55136.00
533.84	55260.05
534.01	55299.84
534.18	55248.35
534.35	55627.51
534.52	55320.90
534.69	55533.89
534.86	55648.58
535.03	55545.59
535.20	55650.92
535.37	55487.08
535.54	55585.38
535.71	55419.20
535.88	55718.79
536.05	55798.37
536.22	55793.69
536.38	55894.33
536.55	55891.99
536.72	55943.48
536.89	56004.34
537.06	56060.51
537.23	55915.40
537.40	55884.97
537.57	56275.84
537.74	55873.27
537.91	56109.66
538.08	56081.58
538.25	55987.95
538.42	56236.05
538.59	56720.54
538.75	56104.98
538.92	56287.54
539.09	56432.66
539.26	56322.65
539.43	56360.10
539.60	56451.38
539.77	56671.39
539.94	56727.56
540.11	56704.16
540.28	56474.79
540.44	56676.07
540.61	56783.74
540.78	56741.61
540.95	56711.18
541.12	56741.61
541.29	56872.68
541.46	57073.96
541.62	56774.37
541.79	56793.10
541.96	56472.45
542.13	56947.57
542.30	57240.14
542.47	57102.05
542.63	57195.67
542.80	57006.09
542.97	57385.25
543.14	57382.91
543.31	57396.96
543.48	57450.79
543.64	57450.79
543.81	57558.45
543.98	57525.69
544.15	57635.69
544.32	57722.29
544.48	57965.71
544.65	57455.47
544.82	57497.60
544.99	57448.45
545.16	57535.05
545.32	57642.71
545.49	58143.59
545.66	58131.89
545.83	57846.34
546.00	58080.39
546.16	57909.53
546.33	57757.40
546.50	57935.28
546.67	58007.84
546.83	57729.31
547.00	58103.80
547.17	58152.95
547.34	57937.62
547.50	58220.83
547.67	58218.49
547.84	58279.34
548.00	58501.69
548.17	58504.03
548.34	58429.13
548.51	58501.69
548.67	58452.54
548.84	58534.46
549.01	58445.52
549.18	58485.31
549.34	58384.66
549.51	58485.31
549.68	58618.72
549.84	58658.51
550.01	58784.90
550.18	58562.54
550.34	58733.40
550.51	58932.35
550.68	58630.42
550.84	58585.95
551.01	58960.44
551.18	58651.48
551.34	58630.42
551.51	58930.01
551.68	58857.45
551.84	58848.09
552.01	58688.93
552.18	59157.04
552.34	58810.64
552.51	59047.04
552.68	59018.95
552.84	58958.09
553.01	59278.75
553.18	59199.17
553.34	59363.01
553.51	59063.42
553.67	59084.48
553.84	59201.51
554.01	59152.36
554.17	59365.35
554.34	59381.73
554.51	59253.00
554.67	59365.35
554.84	59297.47
555.00	59274.07
555.17	59255.34
555.33	59215.55
555.50	59185.13
555.67	59135.98
555.83	59215.55
556.00	59421.52
556.16	59618.13
556.33	59753.88
556.50	59491.74
556.66	59592.38
556.83	59337.26
556.99	59594.72
557.16	59842.82
557.32	59601.74
557.49	59774.94
557.65	59451.95
557.82	59859.20
557.98	59613.44
558.15	59590.04
558.32	59751.54
558.48	59522.16
558.65	59519.82
558.81	59798.35
558.98	59978.57
559.14	59976.23
559.31	59840.48
559.47	59969.21
559.64	60076.87
559.80	60109.64
559.97	60074.53
560.13	59777.28
560.30	59812.39
560.46	59952.82
560.63	59889.63
560.79	60020.70
560.96	60177.51
561.12	60203.26
561.29	60301.56
561.45	60030.06
561.61	60179.85
561.78	60320.29
561.94	60161.13
562.11	60149.43
562.27	60179.85
562.44	60303.90
562.60	60205.60
562.77	60186.88
562.93	59941.12
563.10	60273.48
563.26	60161.13
563.42	60427.95
563.59	60097.94
563.75	60413.91
563.92	60320.29
564.08	60310.92
564.24	60580.09
564.41	60425.61
564.57	60505.19
564.74	60388.16
564.90	60409.23
565.07	60437.31
565.23	60266.45
565.39	60273.48
565.56	60413.91
565.72	60383.48
565.88	60556.68
566.05	60329.65
566.21	60388.16
566.38	60708.82
566.54	60612.85
566.70	60640.94
566.87	60657.32
567.03	60549.66
567.19	60523.91
567.36	60570.72
567.52	60390.50
567.68	60687.75
567.85	60603.49
568.01	60685.41
568.17	60762.65
568.34	60706.47
568.50	60554.34
568.66	60472.42
568.83	60722.86
568.99	60680.73
569.15	60626.90
569.32	60769.67
569.48	60673.71
569.64	60823.50
569.81	60507.53
569.97	60624.56
570.13	60608.17
570.30	60526.25
570.46	60743.92
570.62	60804.78
570.78	60891.38
570.95	60736.90
571.11	60867.97
571.27	60678.39
571.43	60736.90
571.60	60942.87
571.76	60701.79
571.92	60966.27
572.09	60706.47
572.25	61001.38
572.41	60741.58
572.57	60959.25
572.74	61087.98
572.90	60938.19
573.06	60992.02
573.22	60994.36
573.38	60867.97
573.55	60783.71
573.71	60903.08
573.87	60753.29
574.03	60736.90
574.20	60809.46
574.36	60851.59
574.52	61139.47
574.68	61148.84
574.84	61057.56
575.01	60921.80
575.17	61113.73
575.33	60935.85
575.49	60846.91
575.65	61041.17
575.82	61137.13
575.98	60886.70
576.14	61237.78
576.30	61024.79
576.46	60975.64
576.62	60947.55
576.79	60996.70
576.95	60851.59
577.11	61221.39
577.27	61214.37
577.43	61254.16
577.59	61001.38
577.75	61029.47
577.92	60874.99
578.08	60935.85
578.24	61064.58
578.40	61268.20
578.56	61216.71
578.72	60945.21
578.88	61141.81
579.04	61226.07
579.21	61223.73
579.37	61254.16
579.53	61310.33
579.69	61106.71
579.85	61165.22
580.01	61186.28
580.17	61113.73
580.33	61197.99
580.49	61188.63
580.65	61087.98
580.82	61162.88
580.98	61059.90
581.14	61027.13
581.30	61254.16
581.46	61113.73
581.62	61106.71
581.78	61045.85
581.94	61116.07
582.10	61162.88
582.26	61247.14
582.42	61022.45
582.58	61036.49
582.74	61197.99
582.90	61247.14
583.06	61322.04
583.22	61078.62
583.38	61169.90
583.54	61172.24
583.70	61284.59
583.86	61242.46
584.02	60945.21
584.18	61448.42
584.34	61183.94
584.50	61183.94
584.66	61144.16
584.82	61071.60
584.98	61183.94
585.14	61258.84
585.30	61219.05
585.46	61052.87
585.62	61155.86
585.78	61420.34
585.94	61083.30
586.10	61167.56
586.26	61118.41
586.42	61586.52
586.58	61450.77
586.74	61450.77
586.90	61085.64
587.06	61223.73
587.22	61296.29
587.38	61340.76
587.54	61546.73
587.70	61305.65
587.86	61385.23
588.02	61148.84
588.18	61518.64
588.34	61408.64
