SpectraSuite Data File
++++++++++++++++++++++++++++++++++++
Date: Fri Oct 25 11:34:01 EDT 2013
User: price-jones
Dark Spectrum Present: No
Reference Spectrum Present: No
Number of Sampled Component Spectra: 1
Spectrometers: USB2+H05261
Integration Time (usec): 100000 (USB2+H05261)
Spectra Averaged: 1 (USB2+H05261)
Boxcar Smoothing: 0 (USB2+H05261)
Correct for Electrical Dark: No (USB2+H05261)
Strobe/Lamp Enabled: No (USB2+H05261)
Correct for Detector Non-linearity: No (USB2+H05261)
Correct for Stray Light: No (USB2+H05261)
Number of Pixels in Processed Spectrum: 2048
>>>>>Begin Processed Spectral Data<<<<<
365.73	285.55
365.92	285.55
366.12	285.55
366.32	184.90
366.52	145.11
366.72	248.10
366.91	156.82
367.11	227.03
367.31	133.41
367.51	210.65
367.70	205.97
367.90	184.90
368.10	110.01
368.30	117.03
368.49	170.86
368.69	187.24
368.89	168.52
369.09	180.22
369.28	217.67
369.48	252.78
369.68	337.04
369.87	238.73
370.07	243.42
370.27	332.36
370.47	308.95
370.66	423.64
370.86	489.17
371.06	592.16
371.25	620.24
371.45	545.34
371.65	622.58
371.84	472.79
372.04	543.00
372.24	615.56
372.44	578.11
372.63	634.29
372.83	620.24
373.03	667.05
373.22	580.45
373.42	643.65
373.62	608.54
373.81	674.07
374.01	690.46
374.21	566.41
374.40	706.84
374.60	667.05
374.79	627.26
374.99	603.86
375.19	606.20
375.38	601.52
375.58	699.82
375.78	702.16
375.97	650.67
376.17	671.73
376.37	685.78
376.56	650.67
376.76	685.78
376.95	716.20
377.15	664.71
377.35	723.23
377.54	615.56
377.74	704.50
377.93	622.58
378.13	706.84
378.33	734.93
378.52	660.03
378.72	704.50
378.91	763.01
379.11	758.33
379.31	669.39
379.50	620.24
379.70	685.78
379.89	732.59
380.09	732.59
380.28	711.52
380.48	835.57
380.68	751.31
380.87	732.59
381.07	746.63
381.26	779.40
381.46	854.30
381.65	741.95
381.85	791.10
382.04	678.76
382.24	711.52
382.43	688.12
382.63	786.42
382.83	861.32
383.02	753.65
383.22	770.04
383.41	737.27
383.61	826.21
383.80	727.91
384.00	723.23
384.19	823.87
384.39	830.89
384.58	795.78
384.78	861.32
384.97	791.10
385.17	793.44
385.36	945.58
385.56	856.64
385.75	828.55
385.95	847.27
386.14	854.30
386.34	896.43
386.53	873.02
386.72	842.59
386.92	896.43
387.11	863.66
387.31	851.96
387.50	898.77
387.70	908.13
387.89	945.58
388.09	917.49
388.28	936.21
388.48	898.77
388.67	933.87
388.86	908.13
389.06	884.72
389.25	924.51
389.45	945.58
389.64	957.28
389.84	1013.45
390.03	992.39
390.22	985.37
390.42	999.41
390.61	1004.09
390.81	924.51
391.00	959.62
391.19	964.30
391.39	1064.94
391.58	1027.50
391.78	1018.13
391.97	992.39
392.16	978.34
392.36	1076.65
392.55	1034.52
392.75	1022.81
392.94	1067.28
393.13	1057.92
393.33	1022.81
393.52	1071.97
393.71	1118.78
393.91	1062.60
394.10	1004.09
394.29	1034.52
394.49	1097.71
394.68	1130.48
394.88	1097.71
395.07	1107.07
395.26	1050.90
395.46	1128.14
395.65	1172.61
395.84	1156.22
396.04	1259.21
396.23	1165.59
396.42	1191.33
396.62	1270.91
396.81	1224.10
397.00	1214.74
397.19	1163.25
397.39	1226.44
397.58	1207.72
397.77	1235.80
397.97	1233.46
398.16	1245.16
398.35	1252.19
398.55	1259.21
398.74	1296.66
398.93	1364.53
399.12	1282.61
399.32	1355.17
399.51	1324.74
399.70	1359.85
399.90	1317.72
400.09	1341.13
400.28	1327.08
400.47	1301.34
400.67	1357.51
400.86	1289.64
401.05	1390.28
401.24	1430.07
401.44	1434.75
401.63	1455.81
401.82	1380.92
402.01	1441.77
402.21	1497.94
402.40	1479.22
402.59	1486.24
402.78	1469.86
402.97	1469.86
403.17	1481.56
403.36	1481.56
403.55	1577.52
403.74	1554.12
403.93	1504.96
404.13	1565.82
404.32	1554.12
404.51	1593.90
404.70	1619.65
404.89	1633.69
405.09	1703.91
405.28	1589.22
405.47	1614.97
405.66	1685.19
405.85	1717.95
406.05	1664.12
406.24	1689.87
406.43	1827.96
406.62	1743.70
406.81	1778.81
407.00	1748.38
407.20	1769.44
407.39	1699.23
407.58	1799.87
407.77	1839.66
407.96	1823.28
408.15	1867.75
408.34	1912.22
408.54	1893.49
408.73	1863.07
408.92	1860.73
409.11	1963.71
409.30	1973.07
409.49	1863.07
409.68	1956.69
409.87	1982.43
410.07	2104.14
410.26	2080.74
410.45	2038.61
410.64	1996.48
410.83	2146.27
411.02	2186.06
411.21	2190.74
411.40	2099.46
411.59	2155.63
411.78	2139.25
411.98	2179.04
412.17	2162.66
412.36	2263.30
412.55	2272.66
412.74	2396.71
412.93	2312.45
413.12	2246.91
413.31	2466.92
413.50	2347.56
413.69	2394.37
413.88	2466.92
414.07	2452.88
414.26	2525.44
414.45	2537.14
414.64	2450.54
414.83	2569.91
415.02	2523.10
415.22	2565.23
415.41	2621.40
415.60	2696.30
415.79	2607.36
415.98	2576.93
416.17	2654.17
416.36	2656.51
416.55	2764.17
416.74	2773.53
416.93	2740.77
417.12	2768.85
417.31	2895.24
417.50	2813.32
417.69	3016.95
417.88	2864.82
418.07	2871.84
418.26	2881.20
418.45	2939.71
418.64	3012.27
418.83	3066.10
419.02	2925.67
419.21	3028.65
419.39	3005.25
419.58	3005.25
419.77	2939.71
419.96	3108.23
420.15	3164.40
420.34	3082.49
420.53	3014.61
420.72	3232.28
420.91	3138.66
421.10	3218.24
421.29	3274.41
421.48	3166.74
421.67	3295.47
421.86	3236.96
422.05	3353.99
422.24	3169.09
422.43	3225.26
422.61	3246.32
422.80	3215.90
422.99	3262.71
423.18	3356.33
423.37	3375.05
423.56	3363.35
423.75	3342.28
423.94	3396.12
424.13	3143.34
424.32	3262.71
424.50	3403.14
424.69	3456.97
424.88	3445.27
425.07	3342.28
425.26	3377.39
425.45	3384.41
425.64	3372.71
425.83	3447.61
426.01	3349.31
426.20	3342.28
426.39	3485.06
426.58	3361.01
426.77	3454.63
426.96	3471.01
427.15	3527.19
427.33	3545.91
427.52	3597.40
427.71	3520.17
427.90	3555.27
428.09	3581.02
428.28	3674.64
428.46	3569.32
428.65	3513.14
428.84	3681.66
429.03	3662.94
429.22	3630.17
429.40	3667.62
429.59	3674.64
429.78	3618.47
429.97	3585.70
430.16	3798.69
430.34	3679.32
430.53	3833.80
430.72	3768.26
430.91	3728.47
431.10	3892.31
431.28	3847.84
431.47	3833.80
431.66	4051.47
431.85	3868.91
432.03	3974.23
432.22	4117.00
432.41	4091.26
432.60	4135.73
432.79	4058.49
432.97	4152.11
433.16	4135.73
433.35	3995.29
433.54	4147.43
433.72	4149.77
433.91	4161.47
434.10	4065.51
434.28	4121.68
434.47	4231.69
434.66	4217.65
434.85	4234.03
435.03	4313.61
435.22	4201.26
435.41	4386.16
435.59	4290.20
435.78	4245.73
435.97	4245.73
436.16	4337.01
436.34	4266.80
436.53	4287.86
436.72	4521.92
436.90	4400.21
437.09	4514.89
437.28	4215.30
437.46	4301.90
437.65	4442.34
437.84	4638.94
438.02	4517.23
438.21	4664.69
438.40	4519.57
438.58	4622.56
438.77	4854.27
438.96	4681.07
439.14	4844.91
439.33	4821.50
439.52	4744.27
439.70	4873.00
439.89	4901.08
440.08	4877.68
440.26	4978.32
440.45	4915.12
440.63	5062.58
440.82	5266.21
441.01	4938.53
441.19	5128.11
441.38	5074.28
441.57	5174.92
441.75	5221.74
441.94	5259.18
442.12	5308.34
442.31	5135.14
442.50	5420.68
442.68	5303.65
442.87	5385.57
443.05	5270.89
443.24	5490.90
443.43	5453.45
443.61	5350.46
443.80	5617.29
443.98	5458.13
444.17	5195.99
444.35	5577.50
444.54	5666.44
444.73	5540.05
444.91	5504.94
445.10	5511.96
445.28	5434.72
445.47	5490.90
445.65	5530.69
445.84	5715.59
446.02	5572.82
446.21	5495.58
446.39	5638.35
446.58	5706.23
446.77	5706.23
446.95	5455.79
447.14	5607.92
447.32	5661.76
447.51	5598.56
447.69	5643.03
447.88	5731.97
448.06	5659.42
448.25	5823.25
448.43	5668.78
448.62	5741.33
448.80	5837.30
448.99	5659.42
449.17	5771.76
449.36	5731.97
449.54	5743.67
449.73	5799.85
449.91	5961.34
450.10	6057.31
450.28	5942.62
450.46	6115.82
450.65	6134.54
450.83	6253.91
451.02	6120.50
451.20	6237.53
451.39	6085.39
451.57	6141.57
451.76	6033.90
451.94	6129.86
452.13	6223.48
452.31	6104.12
452.49	6022.20
452.68	6312.42
452.86	6340.51
453.05	6441.15
453.23	6162.63
453.42	6497.33
453.60	6139.23
453.78	6455.20
453.97	6361.58
454.15	6183.70
454.34	6282.00
454.52	6483.28
454.70	6450.52
454.89	6415.41
455.07	6595.63
455.26	6520.73
455.44	6565.20
455.62	6513.71
455.81	6750.10
455.99	6722.02
456.17	6843.73
456.36	6806.28
456.54	6836.70
456.73	6806.28
456.91	7002.88
457.09	7056.72
457.28	6927.99
457.46	6927.99
457.64	7012.24
457.83	6923.30
458.01	6853.09
458.19	7098.84
458.38	6918.62
458.56	7241.62
458.74	7122.25
458.93	6932.67
459.11	7145.66
459.29	7091.82
459.48	7265.02
459.66	7344.60
459.84	7239.28
460.03	7370.35
460.21	7283.75
460.39	7358.64
460.57	7475.67
460.76	7335.24
460.94	7391.41
461.12	7335.24
461.31	7370.35
461.49	7323.54
461.67	7332.90
461.85	7573.97
462.04	7499.08
462.22	7882.92
462.40	7721.43
462.59	7714.41
462.77	7531.84
462.95	7756.54
463.13	7648.87
463.32	7597.38
463.50	7777.60
463.68	7573.97
463.86	8006.97
464.05	7761.22
464.23	7740.15
464.41	7934.42
464.59	7777.60
464.78	7974.21
464.96	7845.48
465.14	7974.21
465.32	7906.33
465.50	7997.61
465.69	8044.42
465.87	7906.33
466.05	8070.17
466.23	7894.63
466.41	8128.68
466.60	8264.43
466.78	8081.87
466.96	8044.42
467.14	8079.53
467.32	8236.35
467.51	8269.11
467.69	8142.72
467.87	8145.06
468.05	8299.54
468.23	8100.59
468.41	8271.45
468.60	8266.77
468.78	8294.86
468.96	8308.90
469.14	8498.49
469.32	8674.03
469.50	8414.23
469.69	8622.53
469.87	8681.05
470.05	8837.86
470.23	8608.49
470.41	8833.18
470.59	8751.26
470.77	8645.94
470.95	8833.18
471.14	8844.88
471.32	8617.85
471.50	8844.88
471.68	8854.25
471.86	9013.40
472.04	8957.23
472.22	9142.13
472.40	9015.74
472.58	9130.43
472.77	9287.25
472.95	9174.90
473.13	9591.52
473.31	9221.71
473.49	9444.06
473.67	9228.73
473.85	9404.27
474.03	9530.66
474.21	9474.49
474.39	9427.68
474.57	9575.13
474.75	9769.40
474.93	9827.91
475.12	9603.22
475.30	9830.25
475.48	9809.19
475.66	10024.51
475.84	9919.19
476.02	10078.35
476.20	10050.26
476.38	10487.94
476.56	10413.04
476.74	10450.49
476.92	10459.85
477.10	10312.40
477.28	10551.14
477.46	10443.47
477.64	10792.21
477.82	10729.02
478.00	11014.56
478.18	11021.58
478.36	11026.26
478.54	11012.22
478.72	11257.98
478.90	11253.30
479.08	11389.05
479.26	11494.37
479.44	11489.69
479.62	11557.57
479.80	11634.80
479.98	11726.08
480.16	12191.85
480.34	11925.03
480.52	11971.84
480.70	12299.52
480.88	12049.08
481.06	12051.42
481.24	12224.62
481.41	12461.01
481.59	12507.82
481.77	12753.58
481.95	12657.62
482.13	12847.20
482.31	12947.84
482.49	13163.17
482.67	13078.91
482.85	13429.99
483.03	13371.48
483.21	13586.81
483.39	13444.04
483.57	13645.32
483.74	13561.06
483.92	13982.36
484.10	13757.67
484.28	14043.21
484.46	14335.78
484.64	14490.26
484.82	13961.30
485.00	14377.91
485.18	14682.18
485.35	14782.82
485.53	14792.19
485.71	15105.82
485.89	15267.31
486.07	15054.33
486.25	15068.37
486.43	15101.14
486.61	15552.86
486.78	15599.67
486.96	15520.09
487.14	15843.09
487.32	15964.79
487.50	15793.94
487.68	16308.85
487.85	16306.51
488.03	16563.97
488.21	16830.79
488.39	16975.91
488.57	17034.42
488.75	16917.39
488.92	17123.36
489.10	17003.99
489.28	17352.73
489.46	17394.86
489.64	17448.69
489.81	17657.00
489.99	18026.81
490.17	17989.36
490.35	18298.31
490.53	18106.38
490.70	18513.64
490.88	18167.24
491.06	18799.18
491.24	18698.54
491.41	18696.20
491.59	19000.47
491.77	18890.46
491.95	18899.83
492.13	19321.12
492.30	19447.51
492.48	19290.70
492.66	19552.84
492.84	19672.20
493.01	20123.93
493.19	19880.51
493.37	20116.90
493.54	19807.95
493.72	20280.74
493.90	20376.70
494.08	20599.05
494.25	20776.94
494.43	20636.50
494.61	20650.55
494.79	20926.73
494.96	20760.55
495.14	21289.51
495.32	21156.10
495.49	21348.03
495.67	21612.51
495.85	21750.60
496.02	21820.81
496.20	22169.55
496.38	22045.51
496.55	22127.42
496.73	22246.79
496.91	22485.53
497.09	22609.58
497.26	22419.99
497.44	22380.20
497.62	23005.13
497.79	23002.78
497.97	22520.63
498.14	23129.17
498.32	23545.79
498.50	23585.58
498.67	23337.48
498.85	23410.04
499.03	23800.91
499.20	23557.49
499.38	23793.89
499.56	23733.03
499.73	23939.00
499.91	24446.90
500.08	24400.08
500.26	24432.85
500.44	24250.29
500.61	24580.31
500.79	24332.21
500.97	24744.14
501.14	25095.22
501.32	25074.16
501.49	24613.07
501.67	25003.94
501.84	25371.41
502.02	25123.31
502.20	25394.81
502.37	25422.90
502.55	25458.01
502.72	25422.90
502.90	25319.92
503.07	25462.69
503.25	25570.35
503.43	25638.23
503.60	26073.57
503.78	26127.40
503.95	25766.96
504.13	25951.86
504.30	25951.86
504.48	26389.54
504.65	26609.55
504.83	26796.79
505.01	26712.53
505.18	26607.21
505.36	27229.79
505.53	26969.99
505.71	26864.67
505.88	27300.01
506.06	26684.45
506.23	27653.43
506.41	27274.26
506.58	27339.80
506.76	27379.59
506.93	27615.98
507.11	27482.57
507.28	27463.85
507.46	27569.17
507.63	27997.49
507.81	28112.17
507.98	28210.48
508.16	28196.43
508.33	28545.17
508.50	28180.05
508.68	28252.61
508.85	28903.28
509.03	28456.23
509.20	28503.04
509.38	28992.22
509.55	28779.23
509.73	28907.96
509.90	28725.39
510.08	29008.60
510.25	28884.55
510.42	29277.76
510.60	29139.67
510.77	29422.87
510.95	29809.06
511.12	29422.87
511.30	29378.40
511.47	29486.07
511.64	29614.80
511.82	30061.84
511.99	30010.35
512.17	30206.95
512.34	29336.27
512.51	30373.13
512.69	30431.65
512.86	30396.54
513.04	30764.00
513.21	30455.05
513.38	30698.47
513.56	30527.61
513.73	30714.85
513.90	30869.33
514.08	30541.65
514.25	31138.49
514.43	30888.05
514.60	31112.74
514.77	31143.17
514.95	31339.77
515.12	31473.18
515.29	31292.96
515.47	31365.52
515.64	31796.18
515.81	31168.91
515.99	31651.06
516.16	31798.52
516.33	31365.52
516.51	31632.34
516.68	31756.39
516.85	32067.68
517.03	32348.54
517.20	31871.07
517.37	32170.66
517.54	32285.35
517.72	32261.94
517.89	32444.51
518.06	32662.18
518.24	32421.10
518.41	32290.03
518.58	32393.01
518.75	32620.05
518.93	33244.97
519.10	32311.10
519.27	33106.88
519.45	33024.96
519.62	32992.19
519.79	33411.15
519.96	33516.47
520.14	33284.76
520.31	32971.13
520.48	33645.20
520.65	33282.42
520.83	33673.29
521.00	33848.83
521.17	33883.94
521.34	33727.12
521.52	34045.43
521.69	34242.04
521.86	34073.52
522.03	34202.25
522.20	34459.71
522.38	34881.00
522.55	34916.11
522.72	34422.26
522.89	34595.46
523.07	34803.77
523.24	34637.59
523.41	35051.86
523.58	34492.47
523.75	35260.17
523.92	35180.59
524.10	34848.24
524.27	34960.58
524.44	35538.69
524.61	34993.35
524.78	35239.11
524.96	35583.16
525.13	35716.58
525.30	35639.34
525.47	35548.06
525.64	35604.23
525.81	35864.03
525.98	36065.31
526.16	35814.88
526.33	35789.13
526.50	35950.63
526.67	36009.14
526.84	36222.13
527.01	36133.19
527.18	36081.70
527.36	36175.32
527.53	36297.03
527.70	36608.32
527.87	36479.59
528.04	36430.44
528.21	36655.13
528.38	36449.16
528.55	36713.64
528.72	36584.91
528.89	37097.49
529.07	36877.48
529.24	36093.40
529.41	37069.40
529.58	36662.15
529.75	36966.42
529.92	36879.82
530.09	37036.64
530.26	37134.94
530.43	37422.83
530.60	36774.50
530.77	37500.06
530.94	37319.84
531.11	36821.31
531.28	37102.17
531.46	37305.80
531.63	37827.74
531.80	37951.79
531.97	37202.82
532.14	37600.71
532.31	38139.03
532.48	37834.76
532.65	38471.39
532.82	37848.80
532.99	37916.68
533.16	37951.79
533.33	38209.25
533.50	38298.19
533.67	38075.84
533.84	37694.33
534.01	38270.10
534.18	38298.19
534.35	38813.10
534.52	38824.81
534.69	38803.74
534.86	38656.29
535.03	38562.67
535.20	38483.09
535.37	38857.57
535.54	39093.97
535.71	38759.27
535.88	38955.88
536.05	38478.41
536.22	38965.24
536.38	39201.63
536.55	39096.31
536.72	39676.76
536.89	39335.04
537.06	38916.09
537.23	39562.08
537.40	38937.15
537.57	39215.68
537.74	39571.44
537.91	39484.84
538.08	39178.23
538.25	39269.51
538.42	39622.93
538.59	39468.45
538.75	39653.36
538.92	40304.02
539.09	40165.93
539.26	39761.02
539.43	40105.08
539.60	40194.02
539.77	39948.26
539.94	40287.64
540.11	40018.48
540.28	40535.74
540.44	40072.31
540.61	39959.97
540.78	40423.39
540.95	39964.65
541.12	40261.90
541.29	40343.81
541.46	40397.65
541.62	40421.05
541.79	40594.25
541.96	40322.75
542.13	40479.57
542.30	40624.68
542.47	40617.66
542.63	40477.22
542.80	41076.40
542.97	41652.17
543.14	41308.11
543.31	41102.15
543.48	41041.29
543.64	41495.36
543.81	41504.72
543.98	41392.37
544.15	41577.28
544.32	41792.61
544.48	41792.61
544.65	41694.30
544.82	41539.83
544.99	41638.13
545.16	41071.72
545.32	41717.71
545.49	42113.26
545.66	41958.78
545.83	41888.57
546.00	41865.16
546.16	41422.80
546.33	41745.80
546.50	41708.35
546.67	42209.22
546.83	41883.89
547.00	42206.88
547.17	41837.08
547.34	42260.71
547.50	42057.09
547.67	42490.09
547.84	42146.03
548.00	42595.41
548.17	42513.49
548.34	42705.41
548.51	42618.81
548.67	42663.28
548.84	42436.25
549.01	43100.97
549.18	42820.10
549.34	42822.44
549.51	43306.93
549.68	43206.29
549.84	42614.13
550.01	42820.10
550.18	42541.58
550.34	42976.92
550.51	43414.60
550.68	43290.55
550.84	42679.67
551.01	43445.02
551.18	43091.60
551.34	42756.91
551.51	43428.64
551.68	43323.32
551.84	43051.81
552.01	43208.63
552.18	43260.12
552.34	43292.89
552.51	43274.16
552.68	43138.41
552.84	43491.83
553.01	43761.00
553.18	43423.96
553.34	43887.39
553.51	43810.15
553.67	43653.33
553.84	43721.21
554.01	43711.84
554.17	43683.76
554.34	44102.71
554.51	44002.07
554.67	44039.52
554.84	44055.90
555.00	43611.20
555.17	43412.26
555.33	44135.48
555.50	44254.85
555.67	44168.25
555.83	44032.50
556.00	44098.03
556.16	44715.93
556.33	44114.42
556.50	44039.52
556.66	44236.12
556.83	44308.68
556.99	44758.06
557.16	44215.06
557.32	44474.86
557.49	44512.31
557.65	44306.34
557.82	44327.41
557.98	44161.23
558.15	44177.61
558.32	44816.58
558.48	44495.92
558.65	44697.21
558.81	44795.51
558.98	44423.37
559.14	44758.06
559.31	44566.14
559.47	44825.94
559.64	44538.05
559.80	44905.52
559.97	45120.85
560.13	44734.66
560.30	44587.21
560.46	45125.53
560.63	45165.32
560.79	44818.92
560.96	45404.05
561.12	45359.58
561.29	44957.01
561.45	45022.54
561.61	44861.05
561.78	44907.86
561.94	44708.91
562.11	44964.03
562.27	45553.85
562.44	45174.68
562.60	45331.50
562.77	45368.94
562.93	45055.31
563.10	45518.74
563.26	45144.25
563.42	45883.86
563.59	44968.71
563.75	44814.24
563.92	45244.90
564.08	45050.63
564.24	45572.57
564.41	45265.96
564.57	45595.98
564.74	45057.65
564.90	45191.06
565.07	45132.55
565.23	45649.81
565.39	45141.91
565.56	45392.35
565.72	45160.64
565.88	45436.82
566.05	46066.42
566.21	45605.34
566.38	45846.41
566.54	45904.93
566.70	45729.39
566.87	45722.37
567.03	45490.65
567.19	46078.13
567.36	45677.90
567.52	45350.22
567.68	46010.25
567.85	45839.39
568.01	45970.46
568.17	45708.32
568.34	46220.90
568.50	45848.75
568.66	45818.33
568.83	45930.67
568.99	46057.06
569.15	46183.45
569.32	45783.22
569.48	45600.66
569.64	46316.86
569.81	46183.45
569.97	46031.32
570.13	45783.22
570.30	45830.03
570.46	46146.00
570.62	46026.63
570.78	46174.09
570.95	46124.94
571.11	46307.50
571.27	45811.31
571.43	45907.27
571.60	46387.08
571.76	45956.42
571.92	46075.79
572.09	45731.73
572.25	45684.92
572.41	45736.41
572.57	45984.51
572.74	46232.60
572.90	46260.69
573.06	46103.87
573.22	46312.18
573.38	46234.94
573.55	46445.59
573.71	46560.28
573.87	46387.08
574.03	46220.90
574.20	46536.87
574.36	46506.44
574.52	46092.17
574.68	46131.96
574.84	46494.74
575.01	46625.81
575.17	46234.94
575.33	46351.97
575.49	46096.85
575.65	46398.78
575.82	46389.42
575.98	46117.92
576.14	46731.14
576.30	46721.77
576.46	46651.56
576.62	46120.26
576.79	46937.10
576.95	46050.04
577.11	46396.44
577.27	46518.15
577.43	46763.90
577.59	46518.15
577.75	46054.72
577.92	46281.75
578.08	46471.34
578.24	46433.89
578.40	46417.50
578.56	46616.45
578.72	46412.82
578.88	46396.44
579.04	46562.62
579.21	46089.83
579.37	46593.04
579.53	46674.96
579.69	46181.11
579.85	46307.50
580.01	46567.30
580.17	46092.17
580.33	46656.24
580.49	46593.04
580.65	46920.72
580.82	46656.24
580.98	46508.79
581.14	46642.20
581.30	47033.07
581.46	46450.27
581.62	46600.07
581.78	46202.18
581.94	46644.54
582.10	46621.13
582.26	46815.40
582.42	46522.83
582.58	46850.50
582.74	46672.62
582.90	46827.10
583.06	47124.35
583.22	46342.61
583.38	46391.76
583.54	46763.90
583.70	46890.29
583.86	46829.44
584.02	46487.72
584.18	46864.55
584.34	46637.51
584.50	46831.78
584.66	46873.91
584.82	46667.94
584.98	47194.56
585.14	46440.91
585.30	46653.90
585.46	46579.00
585.62	46906.68
585.78	46836.46
585.94	46710.07
586.10	47229.67
586.26	46272.39
586.42	46476.02
586.58	46733.48
586.74	46721.77
586.90	46859.87
587.06	46586.02
587.22	46775.61
587.38	46796.67
587.54	47194.56
587.70	47157.11
587.86	46883.27
588.02	46539.21
588.18	46550.91
588.34	46681.98
588.49	47152.43
588.65	46454.95
588.81	46691.35
588.97	46955.83
589.13	47016.68
589.29	46925.40
589.45	47210.95
589.61	47086.90
589.77	47580.75
589.93	47033.07
590.08	47110.30
