SpectraSuite Data File
++++++++++++++++++++++++++++++++++++
Date: Fri Oct 25 10:47:18 EDT 2013
User: price-jones
Dark Spectrum Present: No
Reference Spectrum Present: No
Number of Sampled Component Spectra: 1
Spectrometers: USB2+H05261
Integration Time (usec): 100000 (USB2+H05261)
Spectra Averaged: 1 (USB2+H05261)
Boxcar Smoothing: 0 (USB2+H05261)
Correct for Electrical Dark: No (USB2+H05261)
Strobe/Lamp Enabled: No (USB2+H05261)
Correct for Detector Non-linearity: No (USB2+H05261)
Correct for Stray Light: No (USB2+H05261)
Number of Pixels in Processed Spectrum: 2048
>>>>>Begin Processed Spectral Data<<<<<
365.73	142.77
365.92	142.77
366.12	142.77
366.32	93.62
366.52	51.49
366.72	102.98
366.91	2.34
367.11	105.32
367.31	30.43
367.51	32.77
367.70	44.47
367.90	72.56
368.10	32.77
368.30	23.41
368.49	14.04
368.69	65.54
368.89	67.88
369.09	86.60
369.28	100.64
369.48	39.79
369.68	121.71
369.87	131.07
370.07	107.66
370.27	189.58
370.47	210.65
370.66	407.25
370.86	423.64
371.06	400.23
371.25	470.45
371.45	404.91
371.65	449.38
371.84	409.59
372.04	461.09
372.24	395.55
372.44	472.79
372.63	512.58
372.83	533.64
373.03	550.03
373.22	547.69
373.42	477.47
373.62	575.77
373.81	510.24
374.01	500.87
374.21	517.26
374.40	496.19
374.60	528.96
374.79	475.13
374.99	535.98
375.19	587.47
375.38	547.69
375.58	648.33
375.78	592.16
375.97	521.94
376.17	573.43
376.37	582.79
376.56	489.17
376.76	594.50
376.95	589.82
377.15	638.97
377.35	599.18
377.54	564.07
377.74	594.50
377.93	606.20
378.13	608.54
378.33	610.88
378.52	603.86
378.72	594.50
378.91	613.22
379.11	643.65
379.31	636.63
379.50	557.05
379.70	617.90
379.89	631.94
380.09	629.60
380.28	557.05
380.48	657.69
380.68	634.29
380.87	662.37
381.07	655.35
381.26	657.69
381.46	573.43
381.65	716.20
381.85	627.26
382.04	648.33
382.24	587.47
382.43	692.80
382.63	667.05
382.83	608.54
383.02	695.14
383.22	720.88
383.41	631.94
383.61	657.69
383.80	711.52
384.00	795.78
384.19	709.18
384.39	744.29
384.58	648.33
384.78	828.55
384.97	734.93
385.17	676.41
385.36	746.63
385.56	727.91
385.75	723.23
385.95	685.78
386.14	767.70
386.34	748.97
386.53	720.88
386.72	795.78
386.92	844.93
387.11	723.23
387.31	807.48
387.50	739.61
387.70	812.17
387.89	788.76
388.09	732.59
388.28	781.74
388.48	734.93
388.67	791.10
388.86	847.27
389.06	800.46
389.25	863.66
389.45	786.42
389.64	884.72
389.84	940.90
390.03	868.34
390.22	912.81
390.42	910.47
390.61	926.85
390.81	826.21
391.00	875.36
391.19	959.62
391.39	891.74
391.58	992.39
391.78	1008.77
391.97	912.81
392.16	938.55
392.36	990.05
392.55	898.77
392.75	957.28
392.94	973.66
393.13	947.92
393.33	922.17
393.52	1027.50
393.71	950.26
393.91	1004.09
394.10	919.83
394.29	964.30
394.49	1074.31
394.68	1083.67
394.88	1057.92
395.07	1032.18
395.26	1139.84
395.46	1006.43
395.65	1097.71
395.84	1163.25
396.04	1149.20
396.23	1116.44
396.42	1102.39
396.62	1109.41
396.81	1151.54
397.00	1060.26
397.19	1219.42
397.39	1240.48
397.58	1163.25
397.77	1093.03
397.97	1177.29
398.16	1153.88
398.35	1156.22
398.55	1214.74
398.74	1275.59
398.93	1313.04
399.12	1188.99
399.32	1291.98
399.51	1291.98
399.70	1380.92
399.90	1362.19
400.09	1324.74
400.28	1334.11
400.47	1261.55
400.67	1380.92
400.86	1341.13
401.05	1399.64
401.24	1313.04
401.44	1399.64
401.63	1324.74
401.82	1458.15
402.01	1497.94
402.21	1437.09
402.40	1460.49
402.59	1500.28
402.78	1486.24
402.97	1432.41
403.17	1369.21
403.36	1394.96
403.55	1509.65
403.74	1544.75
403.93	1568.16
404.13	1507.30
404.32	1591.56
404.51	1607.95
404.70	1668.80
404.89	1563.48
405.09	1687.53
405.28	1535.39
405.47	1530.71
405.66	1706.25
405.85	1778.81
406.05	1673.48
406.24	1664.12
406.43	1652.42
406.62	1769.44
406.81	1823.28
407.00	1764.76
407.20	1823.28
407.39	1755.40
407.58	1872.43
407.77	1764.76
407.96	1781.15
408.15	1916.90
408.34	1849.02
408.54	1867.75
408.73	1916.90
408.92	1898.17
409.11	1853.70
409.30	1888.81
409.49	1886.47
409.68	2059.67
409.87	1865.41
410.07	1975.41
410.26	1994.14
410.45	2017.54
410.64	1949.67
410.83	2029.24
411.02	2097.12
411.21	2190.74
411.40	2176.70
411.59	2221.17
411.78	2157.97
411.98	2221.17
412.17	2209.47
412.36	2153.29
412.55	2324.15
412.74	2230.53
412.93	2312.45
413.12	2221.17
413.31	2441.18
413.50	2375.64
413.69	2319.47
413.88	2464.58
414.07	2403.73
414.26	2466.92
414.45	2464.58
414.64	2466.92
414.83	2527.78
415.02	2569.91
415.22	2569.91
415.41	2597.99
415.60	2581.61
415.79	2745.45
415.98	2677.57
416.17	2717.36
416.36	2705.66
416.55	2693.96
416.74	2752.47
416.93	2738.43
417.12	2820.35
417.31	2803.96
417.50	2857.79
417.69	2942.05
417.88	2925.67
418.07	2930.35
418.26	2918.65
418.45	2960.78
418.64	2942.05
418.83	3131.64
419.02	2946.73
419.21	3091.85
419.39	3002.91
419.58	3073.12
419.77	3002.91
419.96	3056.74
420.15	3080.14
420.34	3049.72
420.53	3166.74
420.72	3122.27
420.91	3148.02
421.10	3325.90
421.29	3323.56
421.48	3042.70
421.67	3239.30
421.86	3089.51
422.05	3178.45
422.24	3239.30
422.43	3279.09
422.61	3328.24
422.80	3323.56
422.99	3234.62
423.18	3482.72
423.37	3389.10
423.56	3433.57
423.75	3358.67
423.94	3377.39
424.13	3178.45
424.32	3262.71
424.50	3358.67
424.69	3339.94
424.88	3435.91
425.07	3304.84
425.26	3346.97
425.45	3346.97
425.64	3421.86
425.83	3428.88
426.01	3386.76
426.20	3419.52
426.39	3421.86
426.58	3417.18
426.77	3426.54
426.96	3522.51
427.15	3478.04
427.33	3485.06
427.52	3485.06
427.71	3604.42
427.90	3548.25
428.09	3473.36
428.28	3590.38
428.46	3471.01
428.65	3536.55
428.84	3665.28
429.03	3840.82
429.22	3613.79
429.40	3620.81
429.59	3592.72
429.78	3545.91
429.97	3534.21
430.16	3751.88
430.34	3716.77
430.53	3775.28
430.72	3791.67
430.91	3686.34
431.10	3885.29
431.28	3882.95
431.47	3948.48
431.66	4051.47
431.85	3843.16
432.03	4032.74
432.22	4044.45
432.41	4077.21
432.60	3988.27
432.79	3964.87
432.97	3960.19
433.16	3962.53
433.35	4046.79
433.54	3866.56
433.72	4126.36
433.91	4168.49
434.10	4156.79
434.28	4004.66
434.47	4152.11
434.66	4107.64
434.85	4231.69
435.03	4112.32
435.22	4147.43
435.41	4264.46
435.59	4238.71
435.78	4374.46
435.97	4315.95
436.16	4454.04
436.34	4435.32
436.53	4376.80
436.72	4674.05
436.90	4500.85
437.09	4315.95
437.28	4402.55
437.46	4369.78
437.65	4486.81
437.84	4535.96
438.02	4503.19
438.21	4582.77
438.40	4475.10
438.58	4676.39
438.77	4762.99
438.96	4741.93
439.14	4844.91
439.33	4858.95
439.52	4842.57
439.70	4877.68
439.89	4898.74
440.08	4800.44
440.26	4884.70
440.45	4947.89
440.63	5081.30
440.82	5198.33
441.01	5188.97
441.19	5198.33
441.38	5231.10
441.57	5224.08
441.75	5294.29
441.94	5266.21
442.12	5327.06
442.31	5411.32
442.50	5408.98
442.68	5252.16
442.87	5401.96
443.05	5385.57
443.24	5493.24
443.43	5439.40
443.61	5364.51
443.80	5479.19
443.98	5336.42
444.17	5135.14
444.35	5612.60
444.54	5547.07
444.73	5596.22
444.91	5404.30
445.10	5343.44
445.28	5579.84
445.47	5451.11
445.65	5556.43
445.84	5636.01
446.02	5593.88
446.21	5584.52
446.39	5664.10
446.58	5680.48
446.77	5820.91
446.95	5570.48
447.14	5809.21
447.32	5767.08
447.51	5703.89
447.69	5797.51
447.88	5776.44
448.06	5722.61
448.25	5685.16
448.43	5654.73
448.62	5589.20
448.80	5589.20
448.99	5879.43
449.17	5713.25
449.36	5577.50
449.54	5907.51
449.73	5961.34
449.91	6094.76
450.10	5839.64
450.28	6050.28
450.46	6003.47
450.65	6183.70
450.83	6090.07
451.02	6071.35
451.20	6186.04
451.39	6167.31
451.57	6111.14
451.76	6183.70
451.94	6188.38
452.13	6225.82
452.31	6125.18
452.49	5996.45
452.68	6256.25
452.86	6174.33
453.05	6221.14
453.23	6399.02
453.42	6193.06
453.60	6291.36
453.78	6324.13
453.97	6267.95
454.15	6401.37
454.34	6209.44
454.52	6569.88
454.70	6417.75
454.89	6399.02
455.07	6518.39
455.26	6539.46
455.44	6651.80
455.62	6497.33
455.81	6541.80
455.99	6637.76
456.17	6492.65
456.36	6621.38
456.54	6768.83
456.73	6848.41
456.91	7148.00
457.09	6876.49
457.28	6841.39
457.46	6696.27
457.64	6885.86
457.83	6860.11
458.01	6766.49
458.19	7089.48
458.38	7035.65
458.56	6995.86
458.74	7129.27
458.93	7145.66
459.11	7148.00
459.29	7194.81
459.48	7215.87
459.66	7197.15
459.84	7180.76
460.03	7414.82
460.21	7159.70
460.39	7318.86
460.57	7239.28
460.76	7199.49
460.94	7335.24
461.12	7272.04
461.31	7377.37
461.49	7272.04
461.67	7393.75
461.85	7609.08
462.04	7417.16
462.22	7948.46
462.40	7440.56
462.59	7499.08
462.77	7625.47
462.95	7639.51
463.13	7503.76
463.32	7681.64
463.50	7728.45
463.68	7943.78
463.86	7985.91
464.05	7564.61
464.23	7721.43
464.41	7793.98
464.59	7550.57
464.78	7943.78
464.96	7885.26
465.14	7798.66
465.32	7770.58
465.50	7934.42
465.69	8168.47
465.87	7941.44
466.05	7896.97
466.23	7934.42
466.41	8011.65
466.60	8138.04
466.78	7899.31
466.96	7999.95
467.14	8128.68
467.32	8072.51
467.51	8149.75
467.69	7981.23
467.87	8037.40
468.05	8131.02
468.23	8140.38
468.41	8301.88
468.60	8161.45
468.78	8367.42
468.96	8119.32
469.14	8435.29
469.32	8376.78
469.50	8250.39
469.69	8500.83
469.87	8444.65
470.05	8552.32
470.23	8484.44
470.41	8461.04
470.59	8601.47
470.77	8521.89
470.95	8725.52
471.14	8882.33
471.32	8657.64
471.50	8870.63
471.68	8823.82
471.86	9022.77
472.04	8903.40
472.22	8961.91
472.40	8793.39
472.58	9048.51
472.77	9015.74
472.95	9020.42
473.13	9348.10
473.31	9263.84
473.49	9090.64
473.67	9202.99
473.85	9397.25
474.03	9432.36
474.21	9460.45
474.39	9551.73
474.57	9577.47
474.75	9507.26
474.93	9722.59
475.12	9722.59
475.30	9785.78
475.48	9874.72
475.66	9912.17
475.84	9762.37
476.02	9966.00
476.20	10033.88
476.38	10097.07
476.56	10340.49
476.74	10300.70
476.92	10312.40
477.10	10387.30
477.28	10525.39
477.46	10289.00
477.64	10420.06
477.82	10738.38
478.00	10806.25
478.18	11028.60
478.36	11066.05
478.54	10911.58
478.72	10960.73
478.90	11318.83
479.08	11147.97
479.26	11363.30
479.44	11452.24
479.62	11569.27
479.80	11611.40
479.98	11763.53
480.16	11927.37
480.34	11845.45
480.52	11960.14
480.70	11868.86
480.88	11932.05
481.06	11981.20
481.24	12065.46
481.41	12116.95
481.59	12493.78
481.77	12449.31
481.95	12493.78
482.13	12648.26
482.31	12465.69
482.49	12891.67
482.67	12809.75
482.85	13235.73
483.03	13078.91
483.21	13228.71
483.39	13327.01
483.57	13610.22
483.74	13720.22
483.92	13762.35
484.10	13692.13
484.28	13603.19
484.46	14080.66
484.64	14370.89
484.82	14134.50
485.00	14314.72
485.18	14249.18
485.35	14714.95
485.53	14354.51
485.71	14560.47
485.89	14686.86
486.07	14677.50
486.25	14637.71
486.43	15007.52
486.61	15260.29
486.78	15325.83
486.96	15236.89
487.14	15805.64
487.32	15836.06
487.50	15997.56
487.68	15988.20
487.85	16119.27
488.03	16269.06
488.21	16505.46
488.39	16540.57
488.57	16493.76
488.75	16599.08
488.92	16648.23
489.10	17095.27
489.28	17083.57
489.46	17436.99
489.64	17411.25
489.81	17804.46
489.99	17764.67
490.17	17591.47
490.35	18331.08
490.53	18057.23
490.70	18176.60
490.88	17933.18
491.06	18204.69
491.24	18288.95
491.41	18078.30
491.59	18560.45
491.77	18537.04
491.95	18658.75
492.13	18946.64
492.30	19084.73
492.48	19044.94
492.66	19477.94
492.84	19246.23
493.01	19517.73
493.19	19295.38
493.37	19758.80
493.54	19822.00
493.72	19838.38
493.90	20238.61
494.08	20198.82
494.25	20659.91
494.43	20545.22
494.61	20435.22
494.79	20692.68
494.96	20617.78
495.14	20999.29
495.32	21219.30
495.49	21179.51
495.67	21200.57
495.85	21130.36
496.02	21184.19
496.20	21195.89
496.38	21539.95
496.55	21722.51
496.73	22038.48
496.91	21937.84
497.09	22071.25
497.26	22237.43
497.44	22015.08
497.62	22391.91
497.79	22394.25
497.97	22691.49
498.14	22508.93
498.32	22768.73
498.50	22724.26
498.67	23147.90
498.85	23087.04
499.03	23199.39
499.20	23309.40
499.38	23424.08
499.56	23510.68
499.73	23449.83
499.91	23447.49
500.08	23777.50
500.26	23798.57
500.44	23763.46
500.61	23740.05
500.79	23798.57
500.97	23840.70
501.14	24360.30
501.32	24063.05
501.49	24273.70
501.67	24421.15
501.84	24692.65
502.02	24472.64
502.20	25039.05
502.37	25174.80
502.55	24886.92
502.72	24877.55
502.90	24992.24
503.07	24599.03
503.25	25116.29
503.43	24933.73
503.60	25336.30
503.78	25064.80
503.95	25308.21
504.13	25383.11
504.30	25486.09
504.48	25591.42
504.65	26026.76
504.83	25443.96
505.01	26092.29
505.18	26080.59
505.36	26256.13
505.53	26370.82
505.71	26618.91
505.88	26712.53
506.06	26148.46
506.23	26759.34
506.41	26338.05
506.58	26356.77
506.76	26792.11
506.93	27218.09
507.11	26955.95
507.28	26993.40
507.46	27033.19
507.63	26675.09
507.81	27157.24
507.98	27131.49
508.16	27309.37
508.33	27173.62
508.50	27782.16
508.68	27623.00
508.85	27770.46
509.03	27590.24
509.20	27953.02
509.38	28334.53
509.55	27978.76
509.73	28072.39
509.90	28016.21
510.08	27894.50
510.25	28177.71
510.42	28437.51
510.60	28793.27
510.77	28617.73
510.95	28669.22
511.12	28804.97
511.30	28957.11
511.47	29127.97
511.64	29434.58
511.82	29432.24
511.99	29235.63
512.17	28865.83
512.34	29050.73
512.51	29099.88
512.69	29551.60
512.86	29605.44
513.04	29780.98
513.21	29640.54
513.38	29949.50
513.56	29720.12
513.73	29539.90
513.90	29839.49
514.08	29834.81
514.25	30202.27
514.43	29762.25
514.60	30108.65
514.77	30132.06
514.95	30494.84
515.12	30529.95
515.29	30548.67
515.47	30546.33
515.64	30438.67
515.81	30155.46
515.99	30906.77
516.16	30862.30
516.33	30719.53
516.51	31175.94
516.68	30616.55
516.85	31054.23
517.03	31318.71
517.20	30747.62
517.37	31091.68
517.54	31337.43
517.72	31220.41
517.89	31164.23
518.06	31175.94
518.24	31351.48
518.41	31211.04
518.58	31662.77
518.75	31527.02
518.93	31866.39
519.10	31974.06
519.27	31707.24
519.45	31697.88
519.62	31660.43
519.79	32285.35
519.96	32236.20
520.14	32568.55
520.31	32198.75
520.48	32465.57
520.65	32741.75
520.83	32704.31
521.00	32589.62
521.17	32477.27
521.34	33027.30
521.52	32467.91
521.69	32814.31
521.86	33060.07
522.03	32973.47
522.20	32692.60
522.38	33116.24
522.55	33041.34
522.72	33191.14
522.89	33514.13
523.07	33830.10
523.24	33184.12
523.41	33518.81
523.58	33186.46
523.75	33759.89
523.92	33558.60
524.10	34227.99
524.27	34054.79
524.44	33944.79
524.61	34178.84
524.78	34253.74
524.96	34452.69
525.13	34546.31
525.30	34316.93
525.47	34588.44
525.64	34330.98
525.81	34345.02
525.98	34419.92
526.16	34338.00
526.33	34747.59
526.50	34974.63
526.67	34651.63
526.84	34501.84
527.01	34508.86
527.18	34808.45
527.36	34988.67
527.53	35189.95
527.70	35093.99
527.87	35379.54
528.04	35290.60
528.21	35075.27
528.38	34796.74
528.55	35314.00
528.72	35346.77
528.89	35304.64
529.07	35552.74
529.24	35412.31
529.41	35686.15
529.58	35592.53
529.75	35531.67
529.92	35672.10
530.09	35618.27
530.26	36025.53
530.43	35878.07
530.60	35679.13
530.77	35803.17
530.94	36353.20
531.11	35784.45
531.28	36252.56
531.46	36484.27
531.63	36306.39
531.80	36187.02
531.97	35971.69
532.14	36266.60
532.31	36208.09
532.48	36804.92
532.65	37249.63
532.82	36659.81
532.99	36699.60
533.16	36683.22
533.33	36332.14
533.50	37003.87
533.67	36847.05
533.84	36844.71
534.01	36779.18
534.18	36589.59
534.35	37251.97
534.52	36772.16
534.69	36666.83
534.86	37502.40
535.03	37106.85
535.20	37230.90
535.37	37359.63
535.54	37853.48
535.71	37469.64
535.88	37312.82
536.05	37642.84
536.22	37521.13
536.38	37567.94
536.55	37514.11
536.72	37797.31
536.89	37193.45
537.06	37553.90
537.23	38134.35
537.40	37666.24
537.57	37851.14
537.74	37401.76
537.91	38740.55
538.08	38237.33
538.25	37642.84
538.42	37581.98
538.59	38024.34
538.75	37883.91
538.92	38462.02
539.09	38569.69
539.26	37876.89
539.43	38506.49
539.60	37921.36
539.77	38321.59
539.94	38527.56
540.11	38485.43
540.28	38031.36
540.44	38059.45
540.61	38801.40
540.78	38735.87
540.95	38459.68
541.12	38497.13
541.29	38745.23
541.46	38581.39
541.62	38855.23
541.79	39161.84
541.96	38951.20
542.13	38934.81
542.30	38939.49
542.47	39051.84
542.63	38962.90
542.80	39328.02
542.97	39494.20
543.14	39480.16
543.31	39964.65
543.48	39838.26
543.64	39896.77
543.81	39459.09
543.98	39728.25
544.15	39632.29
544.32	39737.62
544.48	39915.50
544.65	39814.85
544.82	40245.51
544.99	39646.33
545.16	39721.23
545.32	39707.19
545.49	40304.02
545.66	40226.79
545.83	40084.01
546.00	40320.41
546.16	40208.06
546.33	39943.58
546.50	39658.04
546.67	40348.50
546.83	39597.18
547.00	39985.71
547.17	39981.03
547.34	40329.77
547.50	40758.09
547.67	40568.51
547.84	40407.01
548.00	40893.84
548.17	40811.92
548.34	40622.34
548.51	40769.79
548.67	40369.56
548.84	40851.71
549.01	40610.64
549.18	40217.43
549.34	40226.79
549.51	40964.06
549.68	41036.61
549.84	40755.75
550.01	41207.47
550.18	40460.84
550.34	40765.11
550.51	40825.96
550.68	41006.19
550.84	40488.93
551.01	41069.38
551.18	41060.02
551.34	40928.95
551.51	40973.42
551.68	41127.89
551.84	41139.60
552.01	41230.88
552.18	41027.25
552.34	41240.24
552.51	41521.10
552.68	41345.56
552.84	40964.06
553.01	41757.50
553.18	41326.84
553.34	41324.50
553.51	41081.08
553.67	41137.26
553.84	41507.06
554.01	41778.56
554.17	42129.64
554.34	41895.59
554.51	41846.44
554.67	41933.04
554.84	41778.56
555.00	42096.88
555.17	41460.25
555.33	42094.53
555.50	42052.41
555.67	41366.63
555.83	41530.47
556.00	42043.04
556.16	42120.28
556.33	42354.33
556.50	41968.15
556.66	42178.79
556.83	41797.29
556.99	42445.62
557.16	42382.42
557.32	42211.56
557.49	42347.31
557.65	41940.06
557.82	42251.35
557.98	41818.35
558.15	42085.17
558.32	42822.44
558.48	42143.69
558.65	42424.55
558.81	42410.51
558.98	42150.71
559.14	42401.14
559.31	42394.12
559.47	42590.73
559.64	42838.83
559.80	42862.23
559.97	42836.48
560.13	42424.55
560.30	42323.91
560.46	42543.92
560.63	42305.18
560.79	42792.01
560.96	42850.53
561.12	42862.23
561.29	42784.99
561.45	42649.24
561.61	43093.94
561.78	42522.85
561.94	42714.78
562.11	42653.92
562.27	42857.55
562.44	42756.91
562.60	42885.64
562.77	42440.93
562.93	43409.92
563.10	42916.06
563.26	42206.88
563.42	42902.02
563.59	42644.56
563.75	42808.40
563.92	42979.26
564.08	43239.06
564.24	43012.02
564.41	42993.30
564.57	42782.65
564.74	42829.46
564.90	43105.65
565.07	42965.21
565.23	43161.82
565.39	42969.90
565.56	43082.24
565.72	43014.37
565.88	43278.85
566.05	42658.60
566.21	43246.08
566.38	43138.41
566.54	42827.12
566.70	43122.03
566.87	43655.67
567.03	43220.33
567.19	43676.74
567.36	43325.66
567.52	43264.80
567.68	43494.18
567.85	43533.96
568.01	43225.01
568.17	43054.15
568.34	43215.65
568.50	43253.10
568.66	43416.94
568.83	43456.73
568.99	43283.53
569.15	43416.94
569.32	43117.35
569.48	43129.05
569.64	43519.92
569.81	43643.97
569.97	43686.10
570.13	43517.58
570.30	43344.38
570.46	43306.93
570.62	43178.20
570.78	43274.16
570.95	43257.78
571.11	43608.86
571.27	43409.92
571.43	43519.92
571.60	43508.22
571.76	43646.31
571.92	43665.03
572.09	43491.83
572.25	43480.13
572.41	43803.13
572.57	43765.68
572.74	43629.93
572.90	43744.61
573.06	43889.73
573.22	43606.52
573.38	42909.04
573.55	43447.36
573.71	43594.82
573.87	43449.70
574.03	43625.25
574.20	43648.65
574.36	43522.26
574.52	43587.80
574.68	43882.70
574.84	43573.75
575.01	43765.68
575.17	43761.00
575.33	43449.70
575.49	43821.85
575.65	44243.15
575.82	44135.48
575.98	43580.78
576.14	43969.30
576.30	43192.25
576.46	43199.27
576.62	43929.51
576.79	43512.90
576.95	43075.22
577.11	43716.53
577.27	44210.38
577.43	43601.84
577.59	44062.93
577.75	43522.26
577.92	43634.61
578.08	43636.95
578.24	43665.03
578.40	43725.89
578.56	43178.20
578.72	43735.25
578.88	44378.90
579.04	43871.00
579.21	43646.31
579.37	43517.58
579.53	43632.27
579.69	43681.42
579.85	44109.74
580.01	43569.07
580.17	43728.23
580.33	44289.96
580.49	43604.18
580.65	43894.41
580.82	43665.03
580.98	44013.77
581.14	43414.60
581.30	43938.88
581.46	43505.88
581.62	43894.41
581.78	43999.73
581.94	44254.85
582.10	43784.40
582.26	43943.56
582.42	43852.28
582.58	44062.93
582.74	43496.52
582.90	43964.62
583.06	43798.44
583.22	43796.10
583.38	44184.63
583.54	43796.10
583.70	43665.03
583.86	43407.58
584.02	43573.75
584.18	43775.04
584.34	43992.71
584.50	44278.25
584.66	44100.37
584.82	43538.65
584.98	44231.44
585.14	44252.51
585.30	43765.68
585.46	43915.47
585.62	43611.20
585.78	43611.20
585.94	43552.69
586.10	43655.67
586.26	43931.86
586.42	43962.28
586.58	44186.97
586.74	44062.93
586.90	43845.26
587.06	43503.54
587.22	44172.93
587.38	43995.05
587.54	44205.70
587.70	44416.35
587.86	44402.30
588.02	44266.55
588.18	43761.00
588.34	44065.27
588.49	43819.51
588.65	43784.40
588.81	43587.80
588.97	43723.55
589.13	43597.16
589.29	43936.54
589.45	43828.87
589.61	43622.90
589.77	44294.64
589.93	44210.38
590.08	44002.07
590.24	44069.95
590.40	44500.61
