SpectraSuite Data File
++++++++++++++++++++++++++++++++++++
Date: Fri Oct 25 11:23:01 EDT 2013
User: price-jones
Dark Spectrum Present: No
Reference Spectrum Present: No
Number of Sampled Component Spectra: 1
Spectrometers: USB2+H05261
Integration Time (usec): 100000 (USB2+H05261)
Spectra Averaged: 1 (USB2+H05261)
Boxcar Smoothing: 0 (USB2+H05261)
Correct for Electrical Dark: No (USB2+H05261)
Strobe/Lamp Enabled: No (USB2+H05261)
Correct for Detector Non-linearity: No (USB2+H05261)
Correct for Stray Light: No (USB2+H05261)
Number of Pixels in Processed Spectrum: 2048
>>>>>Begin Processed Spectral Data<<<<<
365.73	227.03
365.92	227.03
366.12	227.03
366.32	147.45
366.52	168.52
366.72	114.69
366.91	121.71
367.11	126.39
367.31	117.03
367.51	88.94
367.70	74.90
367.90	79.58
368.10	114.69
368.30	229.37
368.49	177.88
368.69	100.64
368.89	142.77
369.09	184.90
369.28	133.41
369.48	212.99
369.68	191.92
369.87	170.86
370.07	229.37
370.27	276.18
370.47	369.80
370.66	573.43
370.86	624.92
371.06	664.71
371.25	709.18
371.45	660.03
371.65	739.61
371.84	664.71
372.04	732.59
372.24	706.84
372.44	753.65
372.63	720.88
372.83	786.42
373.03	730.25
373.22	751.31
373.42	739.61
373.62	777.06
373.81	779.40
374.01	798.12
374.21	784.08
374.40	821.53
374.60	793.44
374.79	847.27
374.99	854.30
375.19	765.36
375.38	842.59
375.58	779.40
375.78	823.87
375.97	910.47
376.17	835.57
376.37	833.23
376.56	870.68
376.76	880.04
376.95	891.74
377.15	861.32
377.35	938.55
377.54	917.49
377.74	905.79
377.93	844.93
378.13	821.53
378.33	919.83
378.52	917.49
378.72	924.51
378.91	912.81
379.11	999.41
379.31	952.60
379.50	966.64
379.70	973.66
379.89	938.55
380.09	887.06
380.28	1029.84
380.48	990.05
380.68	983.02
380.87	971.32
381.07	1015.79
381.26	1046.22
381.46	1128.14
381.65	1095.37
381.85	1050.90
382.04	1071.97
382.24	1029.84
382.43	1097.71
382.63	992.39
382.83	1029.84
383.02	1095.37
383.22	1118.78
383.41	1090.69
383.61	1093.03
383.80	1139.84
384.00	1088.35
384.19	994.73
384.39	1139.84
384.58	1107.07
384.78	1102.39
384.97	1116.44
385.17	1071.97
385.36	1198.35
385.56	1198.35
385.75	1210.06
385.95	1287.29
386.14	1174.95
386.34	1146.86
386.53	1156.22
386.72	1198.35
386.92	1177.29
387.11	1167.93
387.31	1301.34
387.50	1174.95
387.70	1277.93
387.89	1231.12
388.09	1378.58
388.28	1315.38
388.48	1313.04
388.67	1359.85
388.86	1313.04
389.06	1453.47
389.25	1313.04
389.45	1296.66
389.64	1366.87
389.84	1411.34
390.03	1315.38
390.22	1366.87
390.42	1378.58
390.61	1479.22
390.81	1378.58
391.00	1453.47
391.19	1453.47
391.39	1401.98
391.58	1493.26
391.78	1418.36
391.97	1469.86
392.16	1455.81
392.36	1568.16
392.55	1451.13
392.75	1547.09
392.94	1549.43
393.13	1533.05
393.33	1495.60
393.52	1474.54
393.71	1586.88
393.91	1596.25
394.10	1598.59
394.29	1572.84
394.49	1596.25
394.68	1671.14
394.88	1640.72
395.07	1739.02
395.26	1680.50
395.46	1584.54
395.65	1673.48
395.84	1675.82
396.04	1748.38
396.23	1834.98
396.42	1809.23
396.62	1860.73
396.81	1664.12
397.00	1732.00
397.19	1865.41
397.39	1746.04
397.58	1827.96
397.77	1952.01
397.97	1874.77
398.16	1762.42
398.35	1834.98
398.55	1832.64
398.74	1914.56
398.93	2057.33
399.12	1898.17
399.32	1851.36
399.51	1933.28
399.70	2017.54
399.90	2005.84
400.09	2015.20
400.28	2038.61
400.47	2087.76
400.67	2099.46
400.86	2036.27
401.05	2015.20
401.24	2153.29
401.44	2190.74
401.63	2160.31
401.82	2143.93
402.01	2129.89
402.21	2106.48
402.40	2190.74
402.59	2223.51
402.78	2162.66
402.97	2270.32
403.17	2298.41
403.36	2354.58
403.55	2296.07
403.74	2244.57
403.93	2270.32
404.13	2389.69
404.32	2356.92
404.51	2296.07
404.70	2434.16
404.89	2422.45
405.09	2473.95
405.28	2406.07
405.47	2394.37
405.66	2565.23
405.85	2525.44
406.05	2436.50
406.24	2525.44
406.43	2668.21
406.62	2661.19
406.81	2693.96
407.00	2595.65
407.20	2614.38
407.39	2583.95
407.58	2677.57
407.77	2764.17
407.96	2672.89
408.15	2733.75
408.34	2813.32
408.54	2876.52
408.73	2651.83
408.92	2792.26
409.11	2827.37
409.30	2857.79
409.49	2867.16
409.68	2932.69
409.87	2942.05
410.07	2974.82
410.26	2981.84
410.45	3045.04
410.64	3103.55
410.83	3103.55
411.02	3157.38
411.21	3260.37
411.40	3199.51
411.59	3197.17
411.78	3218.24
411.98	3225.26
412.17	3309.52
412.36	3342.28
412.55	3330.58
412.74	3403.14
412.93	3407.82
413.12	3382.07
413.31	3527.19
413.50	3389.10
413.69	3475.70
413.88	3763.58
414.07	3592.72
414.26	3719.11
414.45	3672.30
414.64	3737.84
414.83	3721.45
415.02	3791.67
415.22	3882.95
415.41	3955.51
415.60	3885.29
415.79	3925.08
415.98	4058.49
416.17	3889.97
416.36	3974.23
416.55	3988.27
416.74	4107.64
416.93	4065.51
417.12	4250.41
417.31	4276.16
417.50	4238.71
417.69	4313.61
417.88	4224.67
418.07	4269.14
418.26	4292.54
418.45	4454.04
418.64	4638.94
418.83	4505.53
419.02	4484.47
419.21	4519.57
419.39	4552.34
419.58	4624.90
419.77	4542.98
419.96	4500.85
420.15	4695.11
420.34	4589.79
420.53	4770.01
420.72	4683.41
420.91	4706.82
421.10	4669.37
421.29	4821.50
421.48	4814.48
421.67	4812.14
421.86	4762.99
422.05	4880.02
422.24	4922.15
422.43	4805.12
422.61	4877.68
422.80	4901.08
422.99	5006.41
423.18	4901.08
423.37	5060.24
423.56	4905.76
423.75	4994.70
423.94	4849.59
424.13	4676.39
424.32	4765.33
424.50	4959.60
424.69	5170.24
424.88	5205.35
425.07	5097.69
425.26	4961.94
425.45	5027.47
425.64	5055.56
425.83	4992.36
426.01	5142.16
426.20	5123.43
426.39	5029.81
426.58	5053.22
426.77	5093.01
426.96	5341.10
427.15	5121.09
427.33	5364.51
427.52	5144.50
427.71	5331.74
427.90	5324.72
428.09	5291.95
428.28	5481.53
428.46	5446.43
428.65	5446.43
428.84	5579.84
429.03	5490.90
429.22	5355.15
429.40	5408.98
429.59	5631.33
429.78	5280.25
429.97	5291.95
430.16	5441.75
430.34	5654.73
430.53	5535.37
430.72	5598.56
430.91	5650.05
431.10	5565.79
431.28	5720.27
431.47	5682.82
431.66	5961.34
431.85	6066.67
432.03	5944.96
432.22	6038.58
432.41	5921.56
432.60	5865.38
432.79	5975.39
432.97	6101.78
433.16	6069.01
433.35	6092.41
433.54	6057.31
433.72	6092.41
433.91	6005.81
434.10	6230.51
434.28	6118.16
434.47	6249.23
434.66	6342.85
434.85	6300.72
435.03	6328.81
435.22	6223.48
435.41	6574.56
435.59	6473.92
435.78	6448.18
435.97	6670.53
436.16	6427.11
436.34	6380.30
436.53	6408.39
436.72	6719.68
436.90	6579.25
437.09	6782.87
437.28	6548.82
437.46	6567.54
437.65	6743.08
437.84	6808.62
438.02	6782.87
438.21	6857.77
438.40	6626.06
438.58	7087.14
438.77	7197.15
438.96	6885.86
439.14	7012.24
439.33	7180.76
439.52	7241.62
439.70	7248.64
439.89	7335.24
440.08	7552.91
440.26	7377.37
440.45	7463.97
440.63	7639.51
440.82	7896.97
441.01	7585.68
441.19	7623.12
441.38	7770.58
441.57	7691.00
441.75	7913.35
441.94	7892.29
442.12	8037.40
442.31	8056.12
442.50	8077.19
442.68	8035.06
442.87	8156.77
443.05	8212.94
443.24	8395.50
443.43	8353.37
443.61	8226.98
443.80	8210.60
443.98	7941.44
444.17	8004.63
444.35	8446.99
444.54	8484.44
444.73	8418.91
444.91	8437.63
445.10	8407.20
445.28	8461.04
445.47	8124.00
445.65	8362.73
445.84	8493.80
446.02	8573.38
446.21	8430.61
446.39	8503.17
446.58	8475.08
446.77	8402.52
446.95	8379.12
447.14	8439.97
447.32	8720.84
447.51	8533.59
447.69	8376.78
447.88	8664.66
448.06	8484.44
448.25	8428.27
448.43	8631.90
448.62	8603.81
448.80	8671.68
448.99	8664.66
449.17	8821.48
449.36	8765.31
449.54	8968.93
449.73	8901.06
449.91	8966.59
450.10	9149.15
450.28	9018.08
450.46	9135.11
450.65	9170.22
450.83	9160.86
451.02	8943.19
451.20	9259.16
451.39	9231.07
451.57	9163.20
451.76	9172.56
451.94	9273.20
452.13	9530.66
452.31	9561.09
452.49	9256.82
452.68	9453.42
452.86	9509.60
453.05	9706.20
453.23	9638.33
453.42	9369.16
453.60	9294.27
453.78	9692.16
453.97	9598.54
454.15	9565.77
454.34	9483.85
454.52	9603.22
454.70	9568.11
454.89	9886.42
455.07	9703.86
455.26	9764.72
455.44	10148.56
455.62	10031.54
455.81	10010.47
455.99	10178.99
456.17	10127.50
456.36	10225.80
456.54	10417.72
456.73	10216.44
456.91	10462.19
457.09	10562.84
457.28	10597.95
457.46	10476.24
457.64	10691.57
457.83	10424.75
458.01	10359.21
458.19	10855.40
458.38	10609.65
458.56	10679.86
458.74	10700.93
458.93	10698.59
459.11	10611.99
459.29	10799.23
459.48	10934.98
459.66	11021.58
459.84	10897.53
460.03	11016.90
460.21	11279.04
460.39	11052.01
460.57	11145.63
460.76	11087.12
460.94	10977.11
461.12	11185.42
461.31	11290.74
461.49	11070.73
461.67	11213.51
461.85	11379.68
462.04	11391.39
462.22	11564.59
462.40	11669.91
462.59	11648.85
462.77	11513.10
462.95	11728.42
463.13	11536.50
463.32	11777.58
463.50	11871.20
463.68	11765.87
463.86	12238.66
464.05	11641.82
464.23	11915.67
464.41	11838.43
464.59	11726.08
464.78	12304.20
464.96	12318.24
465.14	11800.98
465.32	12182.49
465.50	12156.74
465.69	12210.57
465.87	12273.77
466.05	12367.39
466.23	12215.26
466.41	12416.54
466.60	12456.33
466.78	12416.54
466.96	11997.59
467.14	12580.38
467.32	12215.26
467.51	12556.97
467.69	12479.74
467.87	12449.31
468.05	12650.60
468.23	12428.24
468.41	12540.59
468.60	12613.15
468.78	13029.76
468.96	12875.29
469.14	12879.97
469.32	13039.12
469.50	12720.81
469.69	13139.77
469.87	13355.10
470.05	13214.66
470.23	13411.27
470.41	13160.83
470.59	13394.89
470.77	13263.82
470.95	13465.10
471.14	13544.68
471.32	13111.68
471.50	13565.74
471.68	13645.32
471.86	13841.93
472.04	13898.10
472.22	14214.07
472.40	13848.95
472.58	13947.25
472.77	14097.05
472.95	14387.27
473.13	15035.60
473.31	14303.01
473.49	14111.09
473.67	14153.22
473.85	14413.02
474.03	14672.82
474.21	14801.55
474.39	14864.74
474.57	14789.85
474.75	14881.13
474.93	15105.82
475.12	15248.59
475.30	15187.74
475.48	15260.29
475.66	15246.25
475.84	15204.12
476.02	15297.74
476.20	15721.38
476.38	15733.08
476.56	16369.71
476.74	15990.54
476.92	15861.81
477.10	15800.96
477.28	16109.91
477.46	16585.04
477.64	16367.37
477.82	16610.78
478.00	17069.53
478.18	17163.15
478.36	17121.02
478.54	17032.08
478.72	17479.12
478.90	17607.85
479.08	17610.19
479.26	17895.74
479.44	17884.03
479.62	18099.36
479.80	18150.85
479.98	18087.66
480.16	18712.58
480.34	18288.95
480.52	18745.35
480.70	18993.45
480.88	18595.56
481.06	18967.70
481.24	19007.49
481.41	19122.18
481.59	19791.57
481.77	19639.44
481.95	19599.65
482.13	19648.80
482.31	19711.99
482.49	20563.95
482.67	20327.55
482.85	20725.44
483.03	20559.27
483.21	20922.05
483.39	21074.18
483.57	21249.72
483.74	21137.38
483.92	21699.11
484.10	21572.72
484.28	21755.28
484.46	22097.00
484.64	22689.15
484.82	22286.58
485.00	22625.96
485.18	22764.05
485.35	23295.35
485.53	23091.73
485.71	23264.92
485.89	23405.36
486.07	23566.85
486.25	23599.62
486.43	23744.73
486.61	24079.43
486.78	24283.06
486.96	24596.69
487.14	24966.49
487.32	24858.83
487.50	24992.24
487.68	25212.25
487.85	25329.28
488.03	25738.87
488.21	25874.62
488.39	26111.02
488.57	26354.43
488.75	26576.78
488.92	26817.86
489.10	26892.76
489.28	27072.98
489.46	27573.85
489.64	27452.14
489.81	27814.93
489.99	27791.52
490.17	28088.77
490.35	28261.97
490.53	28175.37
490.70	28807.31
490.88	28503.04
491.06	28943.06
491.24	29055.41
491.41	29221.59
491.59	29326.91
491.77	29626.50
491.95	30288.87
492.13	30218.66
492.30	30050.14
492.48	30380.15
492.66	30408.24
492.84	30609.53
493.01	30682.08
493.19	30803.79
493.37	31005.08
493.54	30979.33
493.72	31714.26
493.90	31562.12
494.08	31950.65
494.25	32318.12
494.43	32500.68
494.61	32636.43
494.79	32648.13
494.96	33020.28
495.14	33113.90
495.32	33486.04
495.49	33406.47
495.67	33134.96
495.85	33668.61
496.02	34050.11
496.20	34110.97
496.38	34555.67
496.55	34300.55
496.73	34983.99
496.91	35072.93
497.09	35065.91
497.26	35419.33
497.44	35152.51
497.62	35625.29
497.79	36002.12
497.97	36067.66
498.14	36172.98
498.32	36751.09
498.50	36491.29
498.67	36858.76
498.85	36692.58
499.03	37186.43
499.20	37057.70
499.38	37160.69
499.56	36985.15
499.73	37326.86
499.91	37755.18
500.08	37935.40
500.26	37261.33
500.44	38312.23
500.61	37724.75
500.79	38230.31
500.97	38370.74
501.14	38768.63
501.32	38728.84
501.49	39068.22
501.67	39089.29
501.84	39157.16
502.02	39171.21
502.20	39133.76
502.37	39636.97
502.55	39159.50
502.72	39477.82
502.90	40016.14
503.07	39559.73
503.25	39917.84
503.43	40020.82
503.60	40727.66
503.78	40643.40
503.95	40549.78
504.13	40638.72
504.30	41024.91
504.48	41060.02
504.65	40816.60
504.83	41031.93
505.01	41703.67
505.18	41642.81
505.36	41818.35
505.53	41460.25
505.71	41832.39
505.88	42583.71
506.06	42017.30
506.23	42462.00
506.41	42232.63
506.58	42396.46
506.76	42911.38
506.93	43103.31
507.11	42770.95
507.28	42700.73
507.46	42843.51
507.63	43126.71
507.81	43618.22
507.98	43232.04
508.16	43452.05
508.33	43831.21
508.50	44041.86
508.68	43803.13
508.85	44210.38
509.03	43859.30
509.20	44027.82
509.38	45038.93
509.55	45006.16
509.73	44374.22
509.90	44692.53
510.08	44919.56
510.25	45291.71
510.42	44823.60
510.60	44839.98
510.77	45661.51
510.95	45727.05
511.12	45610.02
511.30	45509.38
511.47	45539.80
511.64	46213.88
511.82	46164.73
511.99	45855.78
512.17	46532.19
512.34	46185.79
512.51	46761.56
512.69	47133.71
512.86	46469.00
513.04	47161.79
513.21	46712.41
513.38	47140.73
513.56	47290.52
513.73	47019.02
513.90	47475.43
514.08	46913.70
514.25	47622.88
514.43	48172.91
514.60	47653.31
514.77	47742.25
514.95	47959.92
515.12	47906.08
515.29	47789.06
515.47	48507.60
515.64	48191.63
515.81	48526.33
515.99	48495.90
516.16	48610.59
516.33	48458.45
516.51	48823.58
516.68	48786.13
516.85	49120.82
517.03	49240.19
517.20	49560.84
517.37	49052.95
517.54	49177.00
517.72	48739.32
517.89	49420.41
518.06	49778.51
518.24	49481.27
518.41	49628.72
518.58	49668.51
518.75	49301.04
518.93	49862.77
519.10	49621.70
519.27	49851.07
519.45	50251.30
519.62	49818.30
519.79	50274.71
519.96	50241.94
520.14	50401.10
520.31	50279.39
520.48	50714.73
520.65	50677.28
520.83	51044.74
521.00	50808.35
521.17	50899.63
521.34	50670.26
521.52	51330.29
521.69	51136.02
521.86	51363.06
522.03	51035.38
522.20	51835.84
522.38	51725.84
522.55	51505.83
522.72	51791.37
522.89	51540.94
523.07	51730.52
523.24	51922.44
523.41	52184.58
523.58	51824.14
523.75	52364.81
523.92	52193.95
524.10	52179.90
524.27	52449.06
524.44	52076.92
524.61	52397.57
524.78	52378.85
524.96	52514.60
525.13	52577.79
525.30	53055.26
525.47	52849.30
525.64	52889.09
525.81	52790.78
525.98	52779.08
526.16	52942.92
526.33	53029.52
526.50	53439.11
526.67	52844.62
526.84	53216.76
527.01	52954.62
527.18	53069.31
527.36	52982.71
527.53	53305.70
527.70	53790.19
527.87	53448.47
528.04	53228.46
528.21	53633.38
528.38	53523.37
528.55	53661.46
528.72	53631.04
528.89	53818.28
529.07	53825.30
529.24	53415.71
529.41	54012.54
529.58	53804.24
529.75	54024.25
529.92	54061.69
530.09	53961.05
530.26	54262.98
530.43	54209.15
530.60	54073.40
530.77	54202.13
530.94	54178.72
531.11	54394.05
531.28	54298.09
531.46	54309.79
531.63	54670.23
531.80	54564.91
531.97	54742.79
532.14	54761.51
532.31	54658.53
532.48	54932.37
532.65	54749.81
532.82	54864.50
532.99	54855.14
533.16	54714.70
533.33	54925.35
533.50	55320.90
533.67	55016.63
533.84	54983.86
534.01	55171.11
534.18	55033.02
534.35	55370.05
534.52	55206.22
534.69	55545.59
534.86	55732.84
535.03	55348.99
535.20	55592.40
535.37	55505.80
535.54	55704.75
535.71	55557.30
535.88	55622.83
536.05	55739.86
536.22	55742.20
536.38	55643.90
536.55	55641.56
536.72	55945.83
536.89	56002.00
537.06	55945.83
537.23	56046.47
537.40	56051.15
537.57	55936.46
537.74	55999.66
537.91	56140.09
538.08	56097.96
538.25	55931.78
538.42	56086.26
538.59	56282.86
538.75	56135.41
538.92	56516.92
539.09	56310.95
539.26	56212.65
539.43	56109.66
539.60	56491.17
539.77	56545.00
539.94	56729.90
540.11	56456.06
540.28	56591.81
540.44	56762.67
540.61	56748.63
540.78	56514.58
540.95	56676.07
541.12	56575.43
541.29	56694.80
541.46	56727.56
541.62	56596.49
541.79	56924.17
541.96	56860.97
542.13	57031.83
542.30	56802.46
542.47	56961.62
542.63	57153.54
542.80	57392.28
542.97	57261.21
543.14	57331.42
543.31	57387.60
543.48	57359.51
543.64	57701.23
543.81	57595.90
543.98	57471.85
544.15	57553.77
544.32	57822.93
544.48	57614.63
544.65	57769.10
544.82	57689.52
544.99	57418.02
545.16	57790.17
545.32	57591.22
545.49	57914.22
545.66	57935.28
545.83	57820.59
546.00	57689.52
546.16	57865.06
546.33	57656.76
546.50	57551.43
546.67	57822.93
546.83	57851.02
547.00	57991.45
547.17	57982.09
547.34	57939.96
547.50	58038.26
547.67	58258.27
547.84	58239.55
548.00	58302.74
548.17	58602.33
548.34	58223.17
548.51	58382.32
548.67	58513.39
548.84	58314.45
549.01	58375.30
549.18	58342.53
549.34	58405.73
549.51	58511.05
549.68	58639.78
549.84	58443.18
550.01	58674.89
550.18	58515.73
550.34	58628.08
550.51	58705.32
550.68	58611.70
550.84	58494.67
551.01	58784.90
551.18	58525.10
551.34	58567.23
551.51	58695.95
551.68	58817.66
551.84	58794.26
552.01	58731.06
552.18	59037.67
552.34	58550.84
552.51	58892.56
552.68	58805.96
552.84	58869.15
553.01	59084.48
553.18	58937.03
553.34	59077.46
553.51	58990.86
553.67	58913.62
553.84	59213.21
554.01	58993.20
554.17	59065.76
554.34	59070.44
554.51	59147.68
554.67	59334.92
554.84	59241.30
555.00	59150.02
555.17	58944.05
555.33	59458.97
555.50	59185.13
555.67	59421.52
555.83	59133.63
556.00	59320.88
556.16	59676.64
556.33	59330.24
556.50	59348.96
556.66	59440.24
556.83	59494.08
556.99	59749.20
557.16	59709.41
557.32	59875.58
557.49	59962.18
557.65	59657.91
557.82	59620.47
557.98	59468.33
558.15	59615.79
558.32	59686.00
558.48	59433.22
558.65	59674.30
558.81	59660.26
558.98	59662.60
559.14	59835.80
559.31	59849.84
559.47	59751.54
559.64	59842.82
559.80	59739.83
559.97	60046.44
560.13	59749.20
560.30	59767.92
560.46	59856.86
560.63	59994.95
560.79	60093.25
560.96	60186.88
561.12	60102.62
561.29	60069.85
561.45	60009.00
561.61	60060.49
561.78	59978.57
561.94	59999.63
562.11	59985.59
562.27	60025.38
562.44	60109.64
562.60	60165.81
562.77	60172.83
562.93	60034.74
563.10	60264.11
563.26	60093.25
563.42	60559.02
563.59	60231.35
563.75	60219.64
563.92	60205.60
564.08	60303.90
564.24	60243.05
564.41	60186.88
564.57	60360.08
564.74	60285.18
564.90	60254.75
565.07	60411.57
565.23	60371.78
565.39	60346.03
565.56	60371.78
565.72	60219.64
565.88	60399.86
566.05	60266.45
566.21	60294.54
566.38	60362.42
566.54	60371.78
566.70	60444.33
566.87	60563.70
567.03	60231.35
567.19	60659.66
567.36	60577.75
567.52	60334.33
567.68	60673.71
567.85	60530.93
568.01	60498.17
568.17	60266.45
568.34	60687.75
568.50	60392.84
568.66	60491.15
568.83	60601.15
568.99	60434.97
569.15	60580.09
569.32	60807.12
569.48	60449.02
569.64	60722.86
569.81	60790.73
569.97	60631.58
570.13	60528.59
570.30	60486.46
570.46	60582.43
570.62	60886.70
570.78	60577.75
570.95	60669.03
571.11	60832.86
571.27	60638.60
571.43	60870.31
571.60	60994.36
571.76	60725.20
571.92	61080.96
572.09	60795.42
572.25	60605.83
572.41	60741.58
572.57	60774.35
572.74	60921.80
572.90	60753.29
573.06	60954.57
573.22	60687.75
573.38	60732.22
573.55	60842.23
573.71	61083.30
573.87	60741.58
574.03	60357.74
574.20	60867.97
574.36	60767.33
574.52	60797.76
574.68	60856.27
574.84	61095.00
575.01	61095.00
575.17	60987.34
575.33	60832.86
575.49	60898.40
575.65	60839.89
575.82	61043.51
575.98	61034.15
576.14	60999.04
576.30	61113.73
576.46	60856.27
576.62	60917.12
576.79	60743.92
576.95	60926.49
577.11	60917.12
577.27	60846.91
577.43	60999.04
577.59	60865.63
577.75	60835.20
577.92	60736.90
578.08	60860.95
578.24	60872.65
578.40	60980.32
578.56	61097.34
578.72	60973.30
578.88	61256.50
579.04	61202.67
579.21	61284.59
579.37	61169.90
579.53	61146.50
579.69	60772.01
579.85	60975.64
580.01	61092.66
580.17	60954.57
580.33	61160.54
580.49	61059.90
580.65	61069.26
580.82	60905.42
580.98	60968.61
581.14	61031.81
581.30	61111.39
581.46	61132.45
581.62	61162.88
581.78	60903.08
581.94	61258.84
582.10	61205.01
582.26	61045.85
582.42	61102.03
582.58	61240.12
582.74	61125.43
582.90	61165.22
583.06	60947.55
583.22	61045.85
583.38	61043.51
583.54	61071.60
583.70	61125.43
583.86	61130.11
584.02	60992.02
584.18	61251.82
584.34	61111.39
584.50	61235.44
584.66	61087.98
584.82	60977.98
584.98	61076.28
585.14	61270.54
585.30	60989.68
585.46	61132.45
585.62	61221.39
585.78	61190.97
585.94	61034.15
586.10	61249.48
586.26	61223.73
586.42	61399.27
586.58	61453.11
586.74	61336.08
586.90	61336.08
587.06	61013.08
587.22	61284.59
587.38	61214.37
587.54	61483.53
587.70	61602.90
587.86	61251.82
588.02	61310.33
588.18	61462.47
588.34	61289.27
588.49	61176.92
