SpectraSuite Data File
++++++++++++++++++++++++++++++++++++
Date: Fri Oct 25 11:34:08 EDT 2013
User: price-jones
Dark Spectrum Present: No
Reference Spectrum Present: No
Number of Sampled Component Spectra: 1
Spectrometers: USB2+H05261
Integration Time (usec): 100000 (USB2+H05261)
Spectra Averaged: 1 (USB2+H05261)
Boxcar Smoothing: 0 (USB2+H05261)
Correct for Electrical Dark: No (USB2+H05261)
Strobe/Lamp Enabled: No (USB2+H05261)
Correct for Detector Non-linearity: No (USB2+H05261)
Correct for Stray Light: No (USB2+H05261)
Number of Pixels in Processed Spectrum: 2048
>>>>>Begin Processed Spectral Data<<<<<
365.73	248.10
365.92	248.10
366.12	248.10
366.32	229.37
366.52	170.86
366.72	264.48
366.91	191.92
367.11	154.48
367.31	175.54
367.51	154.48
367.70	177.88
367.90	196.60
368.10	126.39
368.30	238.73
368.49	222.35
368.69	180.22
368.89	173.20
369.09	196.60
369.28	215.33
369.48	166.18
369.68	271.50
369.87	266.82
370.07	215.33
370.27	292.57
370.47	294.91
370.66	533.64
370.86	526.62
371.06	545.34
371.25	564.07
371.45	514.92
371.65	507.90
371.84	505.56
372.04	543.00
372.24	547.69
372.44	568.75
372.63	622.58
372.83	582.79
373.03	573.43
373.22	622.58
373.42	573.43
373.62	561.73
373.81	615.56
374.01	575.77
374.21	702.16
374.40	641.31
374.60	568.75
374.79	589.82
374.99	624.92
375.19	683.44
375.38	662.37
375.58	608.54
375.78	608.54
375.97	692.80
376.17	695.14
376.37	669.39
376.56	699.82
376.76	676.41
376.95	627.26
377.15	589.82
377.35	674.07
377.54	622.58
377.74	688.12
377.93	643.65
378.13	807.48
378.33	695.14
378.52	662.37
378.72	720.88
378.91	758.33
379.11	676.41
379.31	720.88
379.50	688.12
379.70	695.14
379.89	753.65
380.09	706.84
380.28	767.70
380.48	767.70
380.68	669.39
380.87	706.84
381.07	746.63
381.26	784.08
381.46	753.65
381.65	688.12
381.85	856.64
382.04	784.08
382.24	774.72
382.43	861.32
382.63	767.70
382.83	753.65
383.02	744.29
383.22	699.82
383.41	821.53
383.61	828.55
383.80	828.55
384.00	837.91
384.19	814.51
384.39	854.30
384.58	730.25
384.78	816.85
384.97	847.27
385.17	774.72
385.36	840.25
385.56	823.87
385.75	882.38
385.95	837.91
386.14	842.59
386.34	788.76
386.53	870.68
386.72	868.34
386.92	943.24
387.11	854.30
387.31	816.85
387.50	875.36
387.70	849.61
387.89	863.66
388.09	849.61
388.28	912.81
388.48	882.38
388.67	828.55
388.86	901.11
389.06	866.00
389.25	849.61
389.45	983.02
389.64	952.60
389.84	994.73
390.03	978.34
390.22	1013.45
390.42	933.87
390.61	973.66
390.81	983.02
391.00	966.64
391.19	966.64
391.39	1074.31
391.58	1001.75
391.78	968.98
391.97	983.02
392.16	1025.15
392.36	1015.79
392.55	1050.90
392.75	1081.33
392.94	1032.18
393.13	1093.03
393.33	1034.52
393.52	1004.09
393.71	1090.69
393.91	978.34
394.10	1057.92
394.29	1111.75
394.49	1048.56
394.68	1123.46
394.88	1128.14
395.07	1078.99
395.26	1074.31
395.46	1135.16
395.65	1167.93
395.84	1210.06
396.04	1144.52
396.23	1235.80
396.42	1247.51
396.62	1139.84
396.81	1221.76
397.00	1287.29
397.19	1191.33
397.39	1203.04
397.58	1303.68
397.77	1217.08
397.97	1306.02
398.16	1256.87
398.35	1259.21
398.55	1224.10
398.74	1221.76
398.93	1378.58
399.12	1280.27
399.32	1240.48
399.51	1336.45
399.70	1284.95
399.90	1277.93
400.09	1221.76
400.28	1376.24
400.47	1289.64
400.67	1390.28
400.86	1324.74
401.05	1425.39
401.24	1416.02
401.44	1392.62
401.63	1446.45
401.82	1434.75
402.01	1352.83
402.21	1373.89
402.40	1448.79
402.59	1460.49
402.78	1434.75
402.97	1462.83
403.17	1509.65
403.36	1565.82
403.55	1483.90
403.74	1652.42
403.93	1668.80
404.13	1661.78
404.32	1537.73
404.51	1624.33
404.70	1558.80
404.89	1605.61
405.09	1699.23
405.28	1640.72
405.47	1722.63
405.66	1701.57
405.85	1640.72
406.05	1645.40
406.24	1659.44
406.43	1689.87
406.62	1774.13
406.81	1823.28
407.00	1743.70
407.20	1687.53
407.39	1668.80
407.58	1753.06
407.77	1813.92
407.96	1820.94
408.15	1921.58
408.34	1827.96
408.54	1853.70
408.73	1785.83
408.92	1809.23
409.11	1935.62
409.30	1963.71
409.49	1980.09
409.68	1928.60
409.87	2085.42
410.07	2031.58
410.26	2099.46
410.45	2071.37
410.64	2132.23
410.83	2153.29
411.02	2129.89
411.21	2153.29
411.40	2101.80
411.59	2115.84
411.78	2153.29
411.98	2200.10
412.17	2165.00
412.36	2136.91
412.55	2300.75
412.74	2235.21
412.93	2256.28
413.12	2284.36
413.31	2459.90
413.50	2431.82
413.69	2317.13
413.88	2431.82
414.07	2473.95
414.26	2530.12
414.45	2448.20
414.64	2457.56
414.83	2385.01
415.02	2534.80
415.22	2689.28
415.41	2586.29
415.60	2544.16
415.79	2576.93
415.98	2757.15
416.17	2609.70
416.36	2691.62
416.55	2661.19
416.74	2670.55
416.93	2700.98
417.12	2832.05
417.31	2920.99
417.50	2836.73
417.69	2963.12
417.88	2960.78
418.07	2862.48
418.26	2988.86
418.45	2806.30
418.64	2981.84
418.83	3047.38
419.02	3033.33
419.21	3131.64
419.39	3073.12
419.58	3054.40
419.77	2986.52
419.96	3063.76
420.15	3073.12
420.34	3126.96
420.53	3075.46
420.72	3166.74
420.91	3068.44
421.10	3236.96
421.29	3234.62
421.48	3094.19
421.67	3077.80
421.86	3222.92
422.05	3171.43
422.24	3281.43
422.43	3253.34
422.61	3321.22
422.80	3365.69
422.99	3335.26
423.18	3353.99
423.37	3398.46
423.56	3311.86
423.75	3197.17
423.94	3234.62
424.13	3145.68
424.32	3269.73
424.50	3442.93
424.69	3375.05
424.88	3405.48
425.07	3328.24
425.26	3361.01
425.45	3304.84
425.64	3218.24
425.83	3375.05
426.01	3344.63
426.20	3426.54
426.39	3377.39
426.58	3344.63
426.77	3520.17
426.96	3447.61
427.15	3414.84
427.33	3407.82
427.52	3513.14
427.71	3534.21
427.90	3548.25
428.09	3550.59
428.28	3616.13
428.46	3578.68
428.65	3536.55
428.84	3592.72
429.03	3665.28
429.22	3623.15
429.40	3805.71
429.59	3822.09
429.78	3609.11
429.97	3410.16
430.16	3721.45
430.34	3723.79
430.53	3857.20
430.72	3887.63
430.91	3873.59
431.10	3768.26
431.28	3735.50
431.47	3953.16
431.66	3864.22
431.85	3962.53
432.03	3969.55
432.22	4138.07
432.41	3962.53
432.60	3988.27
432.79	4002.32
432.97	4042.11
433.16	4025.72
433.35	4131.05
433.54	4114.66
433.72	4119.34
433.91	4028.06
434.10	4060.83
434.28	4133.39
434.47	4215.30
434.66	4126.36
434.85	4341.69
435.03	4280.84
435.22	4245.73
435.41	4416.59
435.59	4283.18
435.78	4290.20
435.97	4161.47
436.16	4299.56
436.34	4339.35
436.53	4390.84
436.72	4458.72
436.90	4407.23
437.09	4304.25
437.28	4250.41
437.46	4334.67
437.65	4472.76
437.84	4540.64
438.02	4535.96
438.21	4482.13
438.40	4491.49
438.58	4620.22
438.77	4793.42
438.96	4538.30
439.14	4889.38
439.33	4788.74
439.52	4772.35
439.70	4753.63
439.89	4753.63
440.08	4767.67
440.26	5025.13
440.45	5057.90
440.63	4887.04
440.82	5125.77
441.01	4992.36
441.19	4983.00
441.38	5177.26
441.57	5055.56
441.75	5036.83
441.94	5308.34
442.12	5287.27
442.31	5074.28
442.50	5364.51
442.68	5228.76
442.87	5472.17
443.05	5348.12
443.24	5399.62
443.43	5352.81
443.61	5455.79
443.80	5558.77
443.98	5359.83
444.17	5270.89
444.35	5526.00
444.54	5626.65
444.73	5465.15
444.91	5331.74
445.10	5490.90
445.28	5500.26
445.47	5563.45
445.65	5544.73
445.84	5675.80
446.02	5703.89
446.21	5668.78
446.39	5643.03
446.58	5614.95
446.77	5668.78
446.95	5313.02
447.14	5619.63
447.32	5643.03
447.51	5549.41
447.69	5619.63
447.88	5802.19
448.06	5682.82
448.25	5596.22
448.43	5696.86
448.62	5666.44
448.80	5624.31
448.99	5841.98
449.17	5680.48
449.36	5612.60
449.54	5708.57
449.73	6052.63
449.91	6073.69
450.10	5914.53
450.28	5928.58
450.46	5942.62
450.65	5860.70
450.83	6050.28
451.02	5973.05
451.20	6099.44
451.39	5907.51
451.57	6024.54
451.76	6080.71
451.94	6132.20
452.13	6221.14
452.31	6193.06
452.49	6033.90
452.68	6305.40
452.86	6218.80
453.05	6200.08
453.23	6408.39
453.42	6270.30
453.60	6080.71
453.78	6492.65
453.97	6296.04
454.15	6347.53
454.34	6249.23
454.52	6377.96
454.70	6373.28
454.89	6443.49
455.07	6462.22
455.26	6466.90
455.44	6600.31
455.62	6459.88
455.81	6464.56
455.99	6485.62
456.17	6616.69
456.36	6609.67
456.54	6546.48
456.73	6846.07
456.91	6949.05
457.09	6935.01
457.28	6820.32
457.46	6635.42
457.64	6881.18
457.83	6832.02
458.01	6878.83
458.19	7096.50
458.38	6953.73
458.56	6986.50
458.74	6977.14
458.93	7012.24
459.11	7110.55
459.29	7103.53
459.48	7323.54
459.66	7194.81
459.84	7159.70
460.03	7250.98
460.21	7311.83
460.39	7091.82
460.57	7304.81
460.76	7323.54
460.94	7370.35
461.12	7393.75
461.31	7155.02
461.49	7335.24
461.67	7040.33
461.85	7463.97
462.04	7487.37
462.22	7705.04
462.40	7660.57
462.59	7597.38
462.77	7541.21
462.95	7382.05
463.13	7588.02
463.32	7803.35
463.50	7702.70
463.68	7894.63
463.86	7733.13
464.05	7564.61
464.23	7749.51
464.41	7903.99
464.59	7707.38
464.78	7859.52
464.96	7716.75
465.14	7644.19
465.32	7852.50
465.50	7896.97
465.69	8049.10
465.87	7850.16
466.05	7805.69
466.23	7915.69
466.41	8107.62
466.60	8035.06
466.78	7763.56
466.96	8159.11
467.14	8124.00
467.32	8154.43
467.51	8133.36
467.69	7969.52
467.87	8107.62
468.05	8376.78
468.23	8222.30
468.41	8128.68
468.60	8395.50
468.78	8358.05
468.96	8320.60
469.14	8472.74
469.32	8517.21
469.50	8210.60
469.69	8533.59
469.87	8580.40
470.05	8681.05
470.23	8648.28
470.41	8557.00
470.59	8795.73
470.77	8416.57
470.95	8730.20
471.14	8877.65
471.32	8503.17
471.50	8940.85
471.68	8870.63
471.86	8814.46
472.04	8826.16
472.22	9191.28
472.40	8919.78
472.58	9015.74
472.77	9060.21
472.95	9312.99
473.13	9511.94
473.31	9142.13
473.49	9334.06
473.67	9064.89
473.85	9558.75
474.03	9664.07
474.21	9495.55
474.39	9397.25
474.57	9703.86
474.75	9605.56
474.93	9769.40
475.12	9788.12
475.30	9767.06
475.48	9596.20
475.66	9783.44
475.84	9898.13
476.02	10071.33
476.20	10061.96
476.38	10113.45
476.56	10354.53
476.74	10289.00
476.92	10237.50
477.10	10373.25
477.28	10424.75
477.46	10394.32
477.64	10270.27
477.82	10635.39
478.00	10986.47
478.18	10934.98
478.36	10918.60
478.54	10984.13
478.72	11229.89
478.90	11169.04
479.08	11173.72
479.26	11447.56
479.44	11470.97
479.62	11702.68
479.80	11630.12
479.98	11602.04
480.16	12173.13
480.34	11763.53
480.52	11969.50
480.70	11936.73
480.88	12006.95
481.06	12107.59
481.24	12133.34
481.41	12301.86
481.59	12477.40
481.77	12575.70
481.95	12449.31
482.13	12772.30
482.31	12772.30
482.49	13006.36
482.67	12879.97
482.85	12868.27
483.03	13280.20
483.21	13254.45
483.39	13570.43
483.57	13231.05
483.74	13830.23
483.92	13509.57
484.10	13638.30
484.28	14066.62
484.46	14251.52
484.64	14541.75
484.82	14174.28
485.00	14270.25
485.18	14581.54
485.35	14806.23
485.53	14848.36
485.71	14949.00
485.89	15044.96
486.07	14998.15
486.25	14878.79
486.43	15129.22
486.61	15215.82
486.78	15403.07
486.96	15520.09
487.14	15873.51
487.32	15796.28
487.50	15922.66
487.68	16032.67
487.85	16442.26
488.03	16182.46
488.21	16505.46
488.39	16664.61
488.57	16638.87
488.75	16788.66
488.92	16931.44
489.10	16980.59
489.28	16938.46
489.46	17544.66
489.64	17334.01
489.81	17823.18
489.99	17881.69
490.17	17741.26
490.35	18171.92
490.53	18321.71
490.70	18270.22
490.88	18178.94
491.06	18490.23
491.24	18532.36
491.41	18506.62
491.59	18810.89
491.77	18623.64
491.95	18656.41
492.13	19344.53
492.30	19129.20
492.48	19337.51
492.66	19370.27
492.84	19534.11
493.01	19674.54
493.19	19847.74
493.37	19709.65
493.54	20114.56
493.72	20205.84
493.90	19969.45
494.08	20425.86
494.25	20706.72
494.43	20542.88
494.61	20514.80
494.79	20713.74
494.96	21090.57
495.14	21118.65
495.32	21387.82
495.49	21263.77
495.67	21378.45
495.85	21418.24
496.02	21626.55
496.20	21556.33
496.38	21680.38
496.55	21790.39
496.73	22380.20
496.91	22366.16
497.09	22136.79
497.26	22223.39
497.44	21991.67
497.62	22551.06
497.79	22530.00
497.97	22855.33
498.14	23288.33
498.32	23220.45
498.50	22944.27
498.67	23421.74
498.85	23475.57
499.03	23480.25
499.20	23510.68
499.38	24203.48
499.56	23623.03
499.73	23981.13
499.91	24086.45
500.08	24203.48
500.26	24196.46
500.44	24273.70
500.61	24130.92
500.79	24187.10
500.97	24664.57
501.14	24826.06
501.32	24496.05
501.49	24243.27
501.67	25006.28
501.84	25167.78
502.02	24790.95
502.20	25146.72
502.37	24994.58
502.55	25113.95
502.72	25165.44
502.90	25521.20
503.07	25390.13
503.25	25127.99
503.43	25436.94
503.60	25855.90
503.78	25937.82
503.95	25586.74
504.13	25717.81
504.30	26202.30
504.48	25961.22
504.65	26544.02
504.83	26422.31
505.01	26478.48
505.18	26586.15
505.36	26291.24
505.53	26302.94
505.71	26822.54
505.88	27063.61
506.06	26698.49
506.23	26993.40
506.41	26654.02
506.58	27262.56
506.76	26913.82
506.93	27178.30
507.11	27367.88
507.28	27328.10
507.46	27751.73
507.63	27679.18
507.81	27910.89
507.98	27630.02
508.16	27796.20
508.33	27744.71
508.50	27805.56
508.68	28201.11
508.85	28573.26
509.03	28175.37
509.20	28533.47
509.38	28393.04
509.55	28421.13
509.73	28716.03
509.90	28779.23
510.08	28898.59
510.25	28847.10
510.42	28648.16
510.60	29280.10
510.77	29266.06
510.95	29235.63
511.12	29006.26
511.30	29233.29
511.47	29221.59
511.64	29289.46
511.82	29656.93
511.99	29532.88
512.17	29738.85
512.34	29422.87
512.51	30129.72
512.69	30216.32
512.86	30251.42
513.04	30281.85
513.21	30441.01
513.38	30206.95
513.56	30190.57
513.73	30146.10
513.90	30728.89
514.08	30384.83
514.25	30974.65
514.43	30864.64
514.60	30518.25
514.77	30972.31
514.95	31409.99
515.12	30719.53
515.29	31189.98
515.47	31084.65
515.64	31374.88
515.81	31297.64
515.99	31447.44
516.16	31740.00
516.33	31157.21
516.51	31803.20
516.68	31580.85
516.85	31054.23
517.03	31723.62
517.20	32149.60
517.37	32004.49
517.54	32180.03
517.72	32400.04
517.89	32067.68
518.06	32135.56
518.24	32191.73
518.41	32079.38
518.58	32180.03
518.75	32208.11
518.93	32577.92
519.10	32624.73
519.27	32992.19
519.45	32751.12
519.62	32914.95
519.79	33125.60
519.96	32936.02
520.14	33106.88
520.31	32800.27
520.48	33149.01
520.65	33111.56
520.83	33862.87
521.00	33713.08
521.17	33270.72
521.34	33067.09
521.52	34024.37
521.69	33778.61
521.86	33759.89
522.03	34235.02
522.20	34096.92
522.38	34129.69
522.55	34408.22
522.72	34134.37
522.89	34075.86
523.07	34686.74
523.24	34099.26
523.41	34670.36
523.58	33907.34
523.75	34724.19
523.92	34677.38
524.10	35007.39
524.27	34595.46
524.44	34864.62
524.61	35124.42
524.78	35147.82
524.96	35255.49
525.13	35503.59
525.30	35129.10
525.47	35665.08
525.64	35512.95
525.81	35566.78
525.98	35201.66
526.16	35367.84
526.33	35573.80
526.50	35889.77
526.67	35250.81
526.84	35758.70
527.01	36034.89
527.18	35849.99
527.36	36205.75
527.53	35894.46
527.70	36353.20
527.87	36306.39
528.04	35889.77
528.21	36046.59
528.38	36275.96
528.55	36229.15
528.72	36428.10
528.89	36257.24
529.07	36503.00
529.24	36203.41
529.41	36861.10
529.58	36566.19
529.75	36769.82
529.92	36655.13
530.09	37287.07
530.26	36708.96
530.43	37062.38
530.60	36563.85
530.77	37092.81
530.94	37092.81
531.11	36807.26
531.28	37308.14
531.46	37469.64
531.63	36996.85
531.80	37270.69
531.97	37563.26
532.14	37273.03
532.31	37497.72
532.48	37745.82
532.65	37764.54
532.82	37661.56
532.99	37511.77
533.16	37408.78
533.33	38024.34
533.50	37626.45
533.67	38150.73
533.84	37589.00
534.01	38019.66
534.18	37652.20
534.35	38272.44
534.52	38291.16
534.69	38305.21
534.86	38181.16
535.03	38314.57
535.20	38373.08
535.37	38740.55
535.54	38223.29
535.71	38534.58
535.88	38623.52
536.05	38543.94
536.22	39412.28
536.38	38930.13
536.55	38820.13
536.72	38658.63
536.89	38480.75
537.06	38787.36
537.23	39496.54
537.40	38721.82
537.57	38871.62
537.74	39143.12
537.91	39068.22
538.08	38946.51
538.25	38522.88
538.42	39449.73
538.59	39503.56
538.75	40006.78
538.92	39627.61
539.09	39604.20
539.26	39096.31
539.43	39475.48
539.60	39756.34
539.77	39445.05
539.94	40121.46
540.11	39805.49
540.28	39976.35
540.44	39643.99
540.61	39908.47
540.78	39578.46
540.95	39821.87
541.12	39842.94
541.29	39730.59
541.46	39873.37
541.62	40257.21
541.79	40144.87
541.96	39533.99
542.13	39959.97
542.30	40423.39
542.47	40297.00
542.63	40722.98
542.80	40322.75
542.97	41202.79
543.14	40935.97
543.31	40814.26
543.48	40713.62
543.64	41029.59
543.81	41174.70
543.98	41308.11
544.15	41029.59
544.32	40994.48
544.48	41464.93
544.65	41347.90
544.82	41256.62
544.99	41242.58
545.16	41212.15
545.32	41493.02
545.49	41610.04
545.66	41418.12
545.83	41750.48
546.00	41893.25
546.16	41764.52
546.33	41628.77
546.50	41418.12
546.67	41448.55
546.83	41268.33
547.00	41769.20
547.17	41366.63
547.34	41689.62
547.50	41656.85
547.67	42260.71
547.84	42267.73
548.00	42426.89
548.17	42630.52
548.34	42274.76
548.51	42387.10
548.67	42131.98
548.84	42160.07
549.01	42621.16
549.18	42284.12
549.34	42857.55
549.51	42031.34
549.68	42752.23
549.84	41911.97
550.01	42342.63
550.18	42363.70
550.34	42272.42
550.51	42988.62
550.68	42817.76
550.84	42628.18
551.01	42911.38
551.18	42347.31
551.34	42653.92
551.51	43119.69
551.68	42981.60
551.84	42930.11
552.01	42738.18
552.18	42738.18
552.34	42642.22
552.51	43356.08
552.68	42656.26
552.84	42656.26
553.01	43077.56
553.18	42909.04
553.34	43386.51
553.51	42939.47
553.67	43255.44
553.84	43143.09
554.01	43217.99
554.17	43271.82
554.34	43583.12
554.51	43536.30
554.67	43524.60
554.84	43484.81
555.00	43473.11
555.17	43711.84
555.33	44062.93
555.50	43810.15
555.67	43842.92
555.83	43604.18
556.00	43978.67
556.16	44215.06
556.33	43885.04
556.50	43894.41
556.66	43768.02
556.83	43428.64
556.99	44311.02
557.16	44371.88
557.32	44243.15
557.49	44128.46
557.65	43739.93
557.82	44093.35
557.98	43999.73
558.15	43920.15
558.32	43709.50
558.48	43856.96
558.65	44367.20
558.81	44381.24
558.98	43945.90
559.14	44083.99
559.31	44083.99
559.47	44327.41
559.64	44322.72
559.80	44463.16
559.97	44648.06
560.13	44135.48
560.30	44617.63
560.46	44617.63
560.63	44769.77
560.79	44861.05
560.96	44636.36
561.12	44793.17
561.29	44811.90
561.45	44669.12
561.61	44425.71
561.78	44402.30
561.94	44708.91
562.11	44423.37
562.27	44732.32
562.44	44516.99
562.60	44994.46
562.77	44706.57
562.93	44877.43
563.10	44884.45
563.26	44788.49
563.42	45385.33
563.59	45017.86
563.75	44566.14
563.92	44921.90
564.08	44568.48
564.24	45420.44
564.41	45272.98
564.57	45399.37
564.74	45338.52
564.90	45013.18
565.07	44603.59
565.23	45277.66
565.39	45193.40
565.56	45315.11
565.72	45003.82
565.88	44774.45
566.05	45118.51
566.21	44975.73
566.38	45006.16
566.54	45170.00
566.70	45443.84
566.87	45474.27
567.03	44973.39
567.19	45698.96
567.36	45551.51
567.52	45155.96
567.68	45544.48
567.85	45301.07
568.01	45439.16
568.17	45483.63
568.34	45434.48
568.50	45429.80
568.66	45289.37
568.83	45581.93
568.99	45219.15
569.15	45228.51
569.32	45230.85
569.48	45230.85
569.64	46202.18
569.81	45556.19
569.97	45701.30
570.13	45935.35
570.30	45434.48
570.46	45340.86
570.62	45593.64
570.78	45895.56
570.95	45514.06
571.11	45830.03
571.27	45530.44
571.43	45324.47
571.60	45481.29
571.76	45696.62
571.92	45485.97
572.09	45991.53
572.25	45975.14
572.41	45773.86
572.57	45591.30
572.74	46363.67
572.90	45963.44
573.06	45972.80
573.22	45982.16
573.38	46043.02
573.55	46099.19
573.71	46188.13
573.87	45467.25
574.03	45928.33
574.20	46239.62
574.36	45827.69
574.52	46391.76
574.68	45956.42
574.84	46089.83
575.01	46398.78
575.17	45963.44
575.33	46366.01
575.49	45722.37
575.65	46064.08
575.82	46045.36
575.98	46082.81
576.14	46099.19
576.30	45825.35
576.46	46199.83
576.62	45780.88
576.79	46218.56
576.95	45455.54
577.11	45757.47
577.27	45617.04
577.43	45998.55
577.59	45996.21
577.75	45928.33
577.92	45881.52
578.08	45773.86
578.24	45951.74
578.40	46529.85
578.56	46373.03
578.72	46136.64
578.88	46059.40
579.04	46653.90
579.21	46138.98
579.37	46354.31
579.53	46497.08
579.69	45815.99
579.85	46167.07
580.01	46277.07
580.17	46284.09
580.33	46431.55
580.49	46160.05
580.65	46169.41
580.82	46225.58
580.98	45680.24
581.14	45865.14
581.30	46258.35
581.46	45965.78
581.62	45940.04
581.78	46356.65
581.94	45942.38
582.10	46293.46
582.26	45933.01
582.42	46562.62
582.58	46337.93
582.74	46281.75
582.90	46375.37
583.06	46691.35
583.22	45961.10
583.38	46513.47
583.54	46237.28
583.70	46380.06
583.86	46312.18
584.02	46190.47
584.18	46511.13
584.34	46328.56
584.50	46761.56
584.66	46555.60
584.82	46555.60
584.98	46632.83
585.14	46677.30
585.30	46071.10
585.46	46590.70
585.62	46092.17
585.78	46518.15
585.94	45799.60
586.10	46354.31
586.26	46216.22
586.42	46064.08
586.58	46391.76
586.74	46618.79
586.90	46344.95
587.06	46148.34
587.22	46307.50
587.38	46129.62
587.54	46227.92
587.70	46897.31
587.86	46581.34
588.02	46562.62
588.18	46213.88
588.34	46232.60
588.49	46513.47
588.65	46153.02
588.81	45982.16
588.97	46803.69
589.13	46616.45
589.29	46768.58
589.45	46564.96
589.61	46782.63
589.77	46576.66
589.93	46508.79
590.08	46965.19
