SpectraSuite Data File
++++++++++++++++++++++++++++++++++++
Date: Fri Oct 25 10:44:19 EDT 2013
User: price-jones
Dark Spectrum Present: No
Reference Spectrum Present: No
Number of Sampled Component Spectra: 1
Spectrometers: USB2+H05261
Integration Time (usec): 100000 (USB2+H05261)
Spectra Averaged: 1 (USB2+H05261)
Boxcar Smoothing: 0 (USB2+H05261)
Correct for Electrical Dark: No (USB2+H05261)
Strobe/Lamp Enabled: No (USB2+H05261)
Correct for Detector Non-linearity: No (USB2+H05261)
Correct for Stray Light: No (USB2+H05261)
Number of Pixels in Processed Spectrum: 2048
>>>>>Begin Processed Spectral Data<<<<<
365.73	95.96
365.92	95.96
366.12	95.96
366.32	11.70
366.52	4.68
366.72	0.00
366.91	14.04
367.11	56.17
367.31	63.19
367.51	58.51
367.70	9.36
367.90	21.06
368.10	0.00
368.30	18.72
368.49	46.81
368.69	63.19
368.89	0.00
369.09	28.09
369.28	44.47
369.48	63.19
369.68	7.02
369.87	121.71
370.07	86.60
370.27	107.66
370.47	273.84
370.66	388.53
370.86	470.45
371.06	468.11
371.25	458.74
371.45	484.49
371.65	451.72
371.84	475.13
372.04	468.11
372.24	493.85
372.44	479.81
372.63	582.79
372.83	500.87
373.03	552.37
373.22	486.83
373.42	505.56
373.62	486.83
373.81	512.58
374.01	603.86
374.21	578.11
374.40	552.37
374.60	526.62
374.79	568.75
374.99	638.97
375.19	636.63
375.38	650.67
375.58	596.84
375.78	594.50
375.97	650.67
376.17	613.22
376.37	554.71
376.56	571.09
376.76	573.43
376.95	587.47
377.15	641.31
377.35	690.46
377.54	664.71
377.74	683.44
377.93	620.24
378.13	660.03
378.33	692.80
378.52	690.46
378.72	734.93
378.91	674.07
379.11	634.29
379.31	650.67
379.50	664.71
379.70	704.50
379.89	739.61
380.09	645.99
380.28	636.63
380.48	671.73
380.68	786.42
380.87	746.63
381.07	711.52
381.26	802.80
381.46	718.54
381.65	774.72
381.85	730.25
382.04	716.20
382.24	720.88
382.43	662.37
382.63	734.93
382.83	711.52
383.02	741.95
383.22	814.51
383.41	739.61
383.61	772.38
383.80	816.85
384.00	692.80
384.19	767.70
384.39	837.91
384.58	842.59
384.78	866.00
384.97	903.45
385.17	777.06
385.36	880.04
385.56	889.40
385.75	903.45
385.95	833.23
386.14	828.55
386.34	884.72
386.53	901.11
386.72	830.89
386.92	959.62
387.11	919.83
387.31	940.90
387.50	784.08
387.70	882.38
387.89	908.13
388.09	842.59
388.28	863.66
388.48	924.51
388.67	997.07
388.86	1008.77
389.06	1013.45
389.25	1027.50
389.45	961.96
389.64	1020.47
389.84	1029.84
390.03	1097.71
390.22	1071.97
390.42	961.96
390.61	987.71
390.81	1118.78
391.00	1090.69
391.19	1013.45
391.39	1132.82
391.58	1022.81
391.78	1043.88
391.97	1034.52
392.16	1008.77
392.36	1060.26
392.55	1102.39
392.75	950.26
392.94	976.00
393.13	1163.25
393.33	973.66
393.52	1067.28
393.71	1102.39
393.91	1219.42
394.10	1165.59
394.29	1174.95
394.49	1193.67
394.68	1191.33
394.88	1233.46
395.07	1277.93
395.26	1184.31
395.46	1217.08
395.65	1313.04
395.84	1345.81
396.04	1291.98
396.23	1245.16
396.42	1205.38
396.62	1291.98
396.81	1341.13
397.00	1284.95
397.19	1376.24
397.39	1425.39
397.58	1420.71
397.77	1376.24
397.97	1411.34
398.16	1469.86
398.35	1502.62
398.55	1481.56
398.74	1453.47
398.93	1521.35
399.12	1523.69
399.32	1607.95
399.51	1516.67
399.70	1640.72
399.90	1586.88
400.09	1612.63
400.28	1734.34
400.47	1577.52
400.67	1710.93
400.86	1617.31
401.05	1685.19
401.24	1851.36
401.44	1820.94
401.63	1743.70
401.82	1739.02
402.01	1877.11
402.21	1774.13
402.40	1825.62
402.59	1867.75
402.78	1776.47
402.97	1884.13
403.17	1802.21
403.36	1879.45
403.55	1975.41
403.74	2001.16
403.93	1895.83
404.13	1907.54
404.32	1935.62
404.51	1837.32
404.70	1959.03
404.89	1893.49
405.09	2076.06
405.28	2071.37
405.47	2036.27
405.66	2087.76
405.85	2029.24
406.05	1980.09
406.24	2031.58
406.43	2054.99
406.62	2148.61
406.81	2076.06
407.00	2172.02
407.20	2169.68
407.39	2132.23
407.58	2090.10
407.77	2211.81
407.96	2265.64
408.15	2342.88
408.34	2324.15
408.54	2310.11
408.73	2267.98
408.92	2349.90
409.11	2523.10
409.30	2466.92
409.49	2349.90
409.68	2380.32
409.87	2305.43
410.07	2408.41
410.26	2506.71
410.45	2403.73
410.64	2464.58
410.83	2567.57
411.02	2609.70
411.21	2696.30
411.40	2626.08
411.59	2677.57
411.78	2839.07
411.98	2754.81
412.17	2750.13
412.36	2806.30
412.55	2822.69
412.74	2822.69
412.93	2899.92
413.12	2787.58
413.31	2986.52
413.50	2890.56
413.69	2871.84
413.88	3126.96
414.07	2988.86
414.26	3038.02
414.45	3056.74
414.64	3150.36
414.83	3173.77
415.02	3087.17
415.22	3087.17
415.41	3272.07
415.60	3332.92
415.79	3251.00
415.98	3208.87
416.17	3389.10
416.36	3358.67
416.55	3372.71
416.74	3321.22
416.93	3300.16
417.12	3487.40
417.31	3494.42
417.50	3616.13
417.69	3719.11
417.88	3583.36
418.07	3473.36
418.26	3517.83
418.45	3557.61
418.64	3709.75
418.83	3571.66
419.02	3648.90
419.21	3541.23
419.39	3693.37
419.58	3712.09
419.77	3651.24
419.96	3873.59
420.15	3730.81
420.34	3878.27
420.53	3712.09
420.72	3899.33
420.91	3868.91
421.10	3922.74
421.29	3960.19
421.48	3936.78
421.67	4114.66
421.86	3889.97
422.05	4014.02
422.24	3941.46
422.43	4018.70
422.61	4098.28
422.80	4084.23
422.99	3971.89
423.18	3950.82
423.37	4060.83
423.56	3992.95
423.75	4011.68
423.94	3985.93
424.13	3756.56
424.32	3967.21
424.50	4074.87
424.69	4131.05
424.88	4093.60
425.07	4128.70
425.26	3908.69
425.45	4004.66
425.64	3985.93
425.83	4032.74
426.01	4369.78
426.20	4198.92
426.39	4046.79
426.58	4100.62
426.77	4056.15
426.96	4124.02
427.15	4117.00
427.33	4308.93
427.52	4269.14
427.71	4358.08
427.90	4255.09
428.09	4500.85
428.28	4241.05
428.46	4252.75
428.65	4191.90
428.84	4353.40
429.03	4402.55
429.22	4243.39
429.40	4250.41
429.59	4067.85
429.78	4023.38
429.97	4098.28
430.16	4126.36
430.34	4208.28
430.53	4353.40
430.72	4269.14
430.91	4320.63
431.10	4449.36
431.28	4732.56
431.47	4704.48
431.66	5032.15
431.85	4746.61
432.03	4704.48
432.22	4760.65
432.41	4861.29
432.60	4751.29
432.79	4889.38
432.97	4765.33
433.16	4877.68
433.35	4699.80
433.54	4770.01
433.72	4917.47
433.91	4837.89
434.10	4849.59
434.28	4975.98
434.47	4894.06
434.66	5057.90
434.85	5034.49
435.03	5224.08
435.22	4926.83
435.41	5338.76
435.59	5151.52
435.78	5254.50
435.97	5280.25
436.16	5153.86
436.34	5107.05
436.53	5385.57
436.72	5334.08
436.90	5273.23
437.09	5408.98
437.28	5329.40
437.46	5455.79
437.65	5324.72
437.84	5348.12
438.02	5270.89
438.21	5359.83
438.40	5273.23
438.58	5441.75
438.77	5533.03
438.96	5715.59
439.14	5750.70
439.33	5645.37
439.52	5849.00
439.70	5802.19
439.89	5724.95
440.08	5940.28
440.26	6059.65
440.45	5973.05
440.63	6108.80
440.82	6181.35
441.01	6087.73
441.19	6073.69
441.38	6179.01
441.57	6464.56
441.75	6384.98
441.94	6417.75
442.12	6356.90
442.31	6579.25
442.50	6527.75
442.68	6572.22
442.87	6490.31
443.05	6532.44
443.24	6534.78
443.43	6670.53
443.61	6562.86
443.80	6794.58
443.98	6675.21
444.17	6401.37
444.35	6773.51
444.54	6881.18
444.73	6707.98
444.91	6715.00
445.10	6780.53
445.28	6649.46
445.47	6562.86
445.65	6705.63
445.84	6670.53
446.02	6729.04
446.21	6644.78
446.39	6862.45
446.58	6935.01
446.77	6839.05
446.95	6820.32
447.14	7068.42
447.32	6878.83
447.51	6913.94
447.69	6967.77
447.88	6991.18
448.06	6949.05
448.25	6883.52
448.43	7119.91
448.62	6747.76
448.80	7030.97
448.99	7035.65
449.17	6911.60
449.36	7140.97
449.54	7204.17
449.73	7403.11
449.91	7197.15
450.10	7595.04
450.28	7503.76
450.46	7550.57
450.65	7344.60
450.83	7503.76
451.02	7515.46
451.20	7538.87
451.39	7407.80
451.57	7410.14
451.76	7445.24
451.94	7344.60
452.13	7459.29
452.31	7297.79
452.49	7311.83
452.68	7520.14
452.86	7410.14
453.05	7379.71
453.23	7513.12
453.42	7716.75
453.60	7510.78
453.78	7901.65
453.97	7405.46
454.15	7658.23
454.34	7651.21
454.52	7953.14
454.70	7775.26
454.89	7770.58
455.07	7829.09
455.26	8084.21
455.44	7866.54
455.62	8044.42
455.81	8119.32
455.99	8124.00
456.17	8030.38
456.36	8191.88
456.54	8121.66
456.73	8372.10
456.91	8386.14
457.09	8313.58
457.28	8248.05
457.46	8304.22
457.64	8505.51
457.83	8332.31
458.01	8177.83
458.19	8615.51
458.38	8231.66
458.56	8599.13
458.74	8629.56
458.93	8358.05
459.11	8557.00
459.29	8484.44
459.48	8517.21
459.66	8418.91
459.84	8664.66
460.03	8678.71
460.21	8901.06
460.39	8823.82
460.57	8631.90
460.76	8868.29
460.94	8980.64
461.12	8999.36
461.31	8894.04
461.49	8952.55
461.67	9008.72
461.85	9163.20
462.04	9109.36
462.22	9371.50
462.40	9565.77
462.59	8957.23
462.77	9202.99
462.95	9277.88
463.13	9041.49
463.32	9210.01
463.50	9305.97
463.68	9338.74
463.86	9383.21
464.05	9446.40
464.23	9294.27
464.41	9224.05
464.59	9200.65
464.78	9483.85
464.96	9427.68
465.14	9373.85
465.32	9619.60
465.50	9643.01
465.69	9657.05
465.87	9481.51
466.05	9451.08
466.23	9465.13
466.41	9305.97
466.60	9621.94
466.78	9465.13
466.96	9542.36
467.14	9537.68
467.32	9755.35
467.51	9738.97
467.69	9633.64
467.87	9647.69
468.05	9944.94
468.23	9633.64
468.41	9671.09
468.60	9982.38
468.78	9813.87
468.96	9884.08
469.14	9994.09
469.32	10083.03
469.50	9682.80
469.69	10207.08
469.87	9958.98
470.05	10059.62
470.23	10087.71
470.41	10143.88
470.59	10076.01
470.77	10260.91
470.95	10300.70
471.14	10499.64
471.32	10469.22
471.50	10740.72
471.68	10628.37
471.86	10593.26
472.04	10773.49
472.22	10963.07
472.40	10593.26
472.58	10785.19
472.77	10974.77
472.95	10757.10
473.13	11068.39
473.31	10972.43
473.49	10836.68
473.67	10998.18
473.85	11068.39
474.03	11389.05
474.21	11206.48
474.39	11190.10
474.57	11335.21
474.75	11754.17
474.93	11573.95
475.12	11452.24
475.30	11562.25
475.48	11648.85
475.66	11597.35
475.84	11555.22
476.02	11875.88
476.20	11810.34
476.38	11695.66
476.56	12002.27
476.74	11992.90
476.92	12121.63
477.10	12313.56
477.28	12531.23
477.46	12409.52
477.64	12556.97
477.82	12617.83
478.00	12917.42
478.18	13069.55
478.36	12959.55
478.54	13118.70
478.72	13184.24
478.90	13516.59
479.08	13394.89
479.26	13462.76
479.44	13502.55
479.62	13891.08
479.80	13708.52
479.98	13799.80
480.16	14071.30
480.34	14064.28
480.52	14284.29
480.70	14118.11
480.88	14253.86
481.06	14359.19
481.24	14319.40
481.41	14649.41
481.59	14967.73
481.77	14967.73
481.95	14874.10
482.13	15012.20
482.31	15047.30
482.49	15452.22
482.67	15346.89
482.85	15426.47
483.03	15442.85
483.21	15859.47
483.39	15854.79
483.57	15737.76
483.74	15955.43
483.92	16208.21
484.10	16292.47
484.28	16575.67
484.46	16645.89
484.64	16753.55
484.82	16362.69
485.00	16814.41
485.18	16891.65
485.35	17139.74
485.53	16692.70
485.71	16697.38
485.89	16723.13
486.07	16908.03
486.25	16982.93
486.43	17071.87
486.61	17514.23
486.78	17577.42
486.96	18050.21
487.14	18125.11
487.32	18270.22
487.50	18581.51
487.68	18853.02
487.85	18743.01
488.03	19023.87
488.21	19241.54
488.39	19082.39
488.57	19192.39
488.75	19386.66
488.92	19543.47
489.10	20123.93
489.28	20053.71
489.46	20292.44
489.64	20086.48
489.81	20688.00
489.99	20893.96
490.17	20950.14
490.35	21228.66
490.53	20879.92
490.70	21041.42
490.88	21034.39
491.06	21308.24
491.24	21022.69
491.41	21727.19
491.59	21460.37
491.77	21394.84
491.95	21626.55
492.13	21823.16
492.30	22082.95
492.48	22082.95
492.66	22450.42
492.84	22419.99
493.01	22677.45
493.19	22579.15
493.37	22757.03
493.54	22838.95
493.72	23274.29
493.90	23192.37
494.08	23690.90
494.25	24070.07
494.43	24020.92
494.61	24318.17
494.79	24437.53
494.96	23857.08
495.14	23868.78
495.32	24173.05
495.49	24381.36
495.67	24872.87
495.85	24751.17
496.02	24584.99
496.20	25053.09
496.38	24996.92
496.55	25357.36
496.73	25825.47
496.91	25284.81
497.09	26026.76
497.26	25544.61
497.44	25921.43
497.62	26326.35
497.79	26408.26
497.97	26001.01
498.14	26176.55
498.32	26204.64
498.50	26176.55
498.67	26799.13
498.85	26899.78
499.03	27171.28
499.20	26822.54
499.38	26656.36
499.56	26902.12
499.73	27007.44
499.91	27138.51
500.08	27187.66
500.26	27007.44
500.44	27484.91
500.61	27433.42
500.79	27204.05
500.97	27606.62
501.14	28013.87
501.32	27697.90
501.49	28030.26
501.67	27831.31
501.84	28060.68
502.02	28009.19
502.20	28322.82
502.37	28615.39
502.55	28390.70
502.72	28699.65
502.90	28737.10
503.07	28685.61
503.25	28837.74
503.43	28641.14
503.60	29216.91
503.78	29015.62
503.95	29163.08
504.13	29420.53
504.30	29378.40
504.48	29333.93
504.65	29633.52
504.83	29905.02
505.01	29921.41
505.18	29900.34
505.36	30415.26
505.53	30253.76
505.71	30558.03
505.88	30000.99
506.06	30391.86
506.23	30522.93
506.41	30389.52
506.58	30632.93
506.76	30761.66
506.93	30733.57
507.11	31070.61
507.28	30803.79
507.46	30803.79
507.63	30801.45
507.81	30747.62
507.98	31248.49
508.16	31271.90
508.33	31175.94
508.50	31498.93
508.68	31866.39
508.85	31819.58
509.03	31885.12
509.20	32051.30
509.38	31943.63
509.55	31971.72
509.73	32055.98
509.90	31899.16
510.08	32135.56
510.25	32161.30
510.42	32772.18
510.60	32453.87
510.77	32929.00
510.95	32835.38
511.12	32673.88
511.30	33006.23
511.47	33535.20
511.64	33207.52
511.82	33530.51
511.99	32760.48
512.17	32947.72
512.34	33165.39
512.51	33085.81
512.69	33734.14
512.86	33511.79
513.04	33479.02
513.21	33722.44
513.38	33537.54
513.56	33876.91
513.73	33614.77
513.90	33841.81
514.08	33755.21
514.25	33895.64
514.43	33933.09
514.60	33670.95
514.77	33958.83
514.95	34342.68
515.12	34841.21
515.29	34668.02
515.47	34677.38
515.64	34923.13
515.81	35047.18
515.99	34361.40
516.16	34433.96
516.33	34422.26
516.51	34513.54
516.68	34309.91
516.85	34010.32
517.03	34635.25
517.20	34693.76
517.37	34616.52
517.54	35077.61
517.72	35325.71
517.89	34583.76
518.06	34649.29
518.24	35049.52
518.41	35351.45
518.58	35171.23
518.75	35318.68
518.93	35360.81
519.10	35732.96
519.27	35592.53
519.45	36004.46
519.62	36292.35
519.79	36285.33
519.96	36121.49
520.14	36217.45
520.31	36327.45
520.48	36128.51
520.65	36404.69
520.83	37034.30
521.00	36903.23
521.17	36795.56
521.34	36666.83
521.52	36985.15
521.69	36837.69
521.86	37139.62
522.03	37177.07
522.20	37340.91
522.38	37443.89
522.55	37628.79
522.72	37518.79
522.89	37401.76
523.07	37455.59
523.24	37570.28
523.41	37769.22
523.58	37696.67
523.75	38529.90
523.92	38450.32
524.10	38263.08
524.27	38249.03
524.44	38148.39
524.61	38190.52
524.78	38480.75
524.96	38562.67
525.13	38405.85
525.30	38726.50
525.47	38766.29
525.64	38763.95
525.81	38689.06
525.98	38710.12
526.16	38333.29
526.33	37820.72
526.50	38487.77
526.67	38050.09
526.84	38190.52
527.01	38148.39
527.18	38707.78
527.36	38831.83
527.53	39475.48
527.70	39349.09
527.87	39297.59
528.04	39562.08
528.21	39276.53
528.38	39651.02
528.55	39651.02
528.72	39997.41
528.89	40205.72
529.07	39786.77
529.24	39597.18
529.41	39828.90
529.58	39854.64
529.75	39381.85
529.92	40072.31
530.09	40060.61
530.26	40048.91
530.43	40137.85
530.60	39976.35
530.77	40142.53
530.94	40589.57
531.11	40399.99
531.28	40648.08
531.46	40673.83
531.63	40863.41
531.80	40774.47
531.97	40294.66
532.14	40467.86
532.31	40528.72
532.48	40390.62
532.65	40566.16
532.82	40669.15
532.99	40739.36
533.16	40666.81
533.33	40697.24
533.50	41139.60
533.67	40825.96
533.84	40720.64
534.01	40652.76
534.18	41256.62
534.35	41170.02
534.52	41441.53
534.69	41308.11
534.86	41291.73
535.03	41596.00
535.20	41846.44
535.37	41853.46
535.54	42033.68
535.71	41563.23
535.88	41619.41
536.05	41530.47
536.22	41661.54
536.38	41509.40
536.55	41275.35
536.72	41841.76
536.89	41539.83
537.06	41900.27
537.23	42059.43
537.40	42080.49
537.57	41860.48
537.74	42295.82
537.91	42366.04
538.08	41755.16
538.25	41820.69
538.42	42223.26
538.59	42433.91
538.75	42220.92
538.92	42003.25
539.09	41804.31
539.26	42181.13
539.43	42714.78
539.60	42113.26
539.77	41923.68
539.94	42562.64
540.11	42057.09
540.28	42469.02
540.44	42309.86
540.61	41883.89
540.78	41977.51
540.95	42213.90
541.12	42415.19
541.29	42616.47
541.46	43047.13
541.62	43192.25
541.79	42967.55
541.96	42572.00
542.13	42726.48
542.30	42546.26
542.47	42988.62
542.63	43063.52
542.80	42939.47
542.97	43430.98
543.14	43739.93
543.31	43344.38
543.48	43585.46
543.64	43597.16
543.81	43821.85
543.98	43938.88
544.15	43749.29
544.32	44208.04
544.48	43826.53
544.65	43807.81
544.82	43875.68
544.99	43814.83
545.16	43873.34
545.32	43667.37
545.49	44519.33
545.66	44362.51
545.83	44369.54
546.00	44353.15
546.16	43976.33
546.33	44275.91
546.50	43634.61
546.67	44201.02
546.83	43346.72
547.00	44271.23
547.17	44254.85
547.34	43920.15
547.50	44528.69
547.67	44402.30
547.84	44470.18
548.00	44406.98
548.17	45200.43
548.34	44626.99
548.51	44898.50
548.67	44425.71
548.84	44767.43
549.01	44425.71
549.18	44687.85
549.34	44648.06
549.51	44863.39
549.68	45078.72
549.84	44823.60
550.01	44954.67
550.18	44839.98
550.34	44713.59
550.51	44493.58
550.68	44886.79
550.84	44603.59
551.01	44882.11
551.18	45331.50
551.34	44685.51
551.51	45202.77
551.68	44949.99
551.84	45242.56
552.01	45078.72
552.18	45029.57
552.34	45132.55
552.51	45020.20
552.68	44966.37
552.84	45291.71
553.01	45275.32
553.18	45027.23
553.34	45382.99
553.51	45319.79
553.67	45645.13
553.84	45872.16
554.01	45411.07
554.17	45708.32
554.34	45815.99
554.51	45792.58
554.67	45940.04
554.84	45593.64
555.00	45715.34
555.17	45155.96
555.33	45434.48
555.50	45237.87
555.67	45525.76
555.83	45778.54
556.00	46033.66
556.16	46153.02
556.33	45354.90
556.50	45722.37
556.66	45762.15
556.83	45361.92
556.99	45766.84
557.16	46007.91
557.32	45951.74
557.49	46312.18
557.65	45663.85
557.82	45614.70
557.98	46005.57
558.15	45783.22
558.32	46319.20
558.48	45998.55
558.65	46021.95
558.81	45106.80
558.98	45439.16
559.14	45713.00
559.31	45778.54
559.47	45900.25
559.64	46026.63
559.80	45581.93
559.97	46209.20
560.13	46080.47
560.30	45881.52
560.46	46068.76
560.63	46281.75
560.79	46452.61
560.96	46358.99
561.12	46206.86
561.29	46370.69
561.45	46150.68
561.61	46218.56
561.78	46347.29
561.94	45984.51
562.11	45996.21
562.27	46295.80
562.44	46230.26
562.60	46700.71
562.77	46667.94
562.93	46375.37
563.10	46904.34
563.26	46110.89
563.42	46712.41
563.59	46169.41
563.75	46220.90
563.92	46466.66
564.08	46677.30
564.24	46731.14
564.41	46366.01
564.57	46539.21
564.74	46593.04
564.90	46602.41
565.07	46768.58
565.23	46770.93
565.39	46529.85
565.56	46529.85
565.72	46160.05
565.88	46358.99
566.05	46653.90
566.21	46300.48
566.38	46595.38
566.54	46466.66
566.70	46862.21
566.87	46972.21
567.03	46447.93
567.19	47311.59
567.36	46586.02
567.52	46555.60
567.68	46939.44
567.85	46497.08
568.01	46569.64
568.17	46602.41
568.34	46433.89
568.50	46906.68
568.66	46256.01
568.83	46595.38
568.99	46604.75
569.15	46864.55
569.32	46497.08
569.48	46377.72
569.64	46770.93
569.81	46932.42
569.97	46749.86
570.13	46389.42
570.30	46384.74
570.46	46450.27
570.62	46504.10
570.78	46452.61
570.95	46459.63
571.11	46670.28
571.27	46405.80
571.43	46756.88
571.60	47056.47
571.76	46810.71
571.92	46885.61
572.09	46909.02
572.25	46951.15
572.41	46426.87
572.57	46955.83
572.74	46941.78
572.90	46625.81
573.06	46801.35
573.22	47217.97
573.38	46714.75
573.55	46894.97
573.71	46937.10
573.87	47147.75
574.03	46766.24
574.20	46862.21
574.36	46820.08
574.52	47049.45
574.68	46724.11
574.84	46635.17
575.01	46712.41
575.17	46567.30
575.33	46525.17
575.49	46326.22
575.65	46983.91
575.82	47054.13
575.98	46398.78
576.14	47248.39
576.30	46766.24
576.46	46927.74
576.62	46534.53
576.79	46878.59
576.95	46628.15
577.11	46820.08
577.27	47217.97
577.43	46787.31
577.59	46855.18
577.75	46707.73
577.92	46473.68
578.08	46447.93
578.24	46401.12
578.40	46801.35
578.56	46784.97
578.72	46899.65
578.88	46909.02
579.04	47208.61
579.21	47030.72
579.37	46387.08
579.53	46679.64
579.69	46890.29
579.85	46766.24
580.01	47426.28
580.17	47327.97
580.33	47096.26
580.49	47112.64
580.65	47028.38
580.82	46862.21
580.98	47042.43
581.14	46773.27
581.30	47391.17
581.46	46953.49
581.62	46841.14
581.78	47065.83
581.94	47047.11
582.10	46897.31
582.26	47196.90
582.42	47100.94
582.58	47023.70
582.74	46806.03
582.90	47112.64
583.06	47079.88
583.22	47194.56
583.38	47133.71
583.54	47327.97
583.70	47129.03
583.86	47182.86
584.02	46864.55
584.18	46810.71
584.34	46944.12
584.50	46958.17
584.66	47079.88
584.82	46712.41
584.98	47388.83
585.14	46897.31
585.30	46625.81
585.46	46927.74
585.62	46799.01
585.78	46777.95
585.94	46855.18
586.10	46909.02
586.26	46890.29
586.42	47206.26
586.58	47452.02
586.74	47150.09
586.90	46775.61
587.06	47105.62
587.22	46761.56
587.38	46539.21
587.54	47023.70
587.70	46981.57
587.86	46852.84
588.02	46993.28
588.18	46813.05
588.34	46869.23
588.49	46735.82
588.65	46157.70
588.81	46349.63
588.97	46429.21
589.13	46401.12
589.29	46433.89
589.45	46618.79
589.61	46871.57
589.77	47084.56
589.93	46916.04
