SpectraSuite Data File
++++++++++++++++++++++++++++++++++++
Date: Fri Oct 25 11:25:22 EDT 2013
User: price-jones
Dark Spectrum Present: No
Reference Spectrum Present: No
Number of Sampled Component Spectra: 1
Spectrometers: USB2+H05261
Integration Time (usec): 100000 (USB2+H05261)
Spectra Averaged: 1 (USB2+H05261)
Boxcar Smoothing: 0 (USB2+H05261)
Correct for Electrical Dark: No (USB2+H05261)
Strobe/Lamp Enabled: No (USB2+H05261)
Correct for Detector Non-linearity: No (USB2+H05261)
Correct for Stray Light: No (USB2+H05261)
Number of Pixels in Processed Spectrum: 2048
>>>>>Begin Processed Spectral Data<<<<<
365.73	229.37
365.92	229.37
366.12	229.37
366.32	166.18
366.52	194.26
366.72	196.60
366.91	170.86
367.11	100.64
367.31	198.95
367.51	140.43
367.70	168.52
367.90	124.05
368.10	163.84
368.30	159.16
368.49	110.01
368.69	84.26
368.89	166.18
369.09	210.65
369.28	154.48
369.48	187.24
369.68	149.79
369.87	259.80
370.07	212.99
370.27	266.82
370.47	362.78
370.66	540.66
370.86	631.94
371.06	697.48
371.25	627.26
371.45	638.97
371.65	713.86
371.84	638.97
372.04	657.69
372.24	744.29
372.44	753.65
372.63	692.80
372.83	704.50
373.03	755.99
373.22	767.70
373.42	767.70
373.62	788.76
373.81	763.01
374.01	774.72
374.21	833.23
374.40	727.91
374.60	844.93
374.79	964.30
374.99	866.00
375.19	866.00
375.38	887.06
375.58	880.04
375.78	873.02
375.97	847.27
376.17	901.11
376.37	875.36
376.56	828.55
376.76	943.24
376.95	882.38
377.15	940.90
377.35	889.40
377.54	952.60
377.74	826.21
377.93	912.81
378.13	903.45
378.33	915.15
378.52	973.66
378.72	908.13
378.91	952.60
379.11	903.45
379.31	966.64
379.50	889.40
379.70	926.85
379.89	978.34
380.09	922.17
380.28	950.26
380.48	971.32
380.68	938.55
380.87	954.94
381.07	961.96
381.26	973.66
381.46	952.60
381.65	1174.95
381.85	1076.65
382.04	1062.60
382.24	1034.52
382.43	1039.20
382.63	1104.73
382.83	1156.22
383.02	1104.73
383.22	1090.69
383.41	1025.15
383.61	1083.67
383.80	1153.88
384.00	1088.35
384.19	1078.99
384.39	1121.12
384.58	1177.29
384.78	1121.12
384.97	1130.48
385.17	1144.52
385.36	1097.71
385.56	1188.99
385.75	1029.84
385.95	1198.35
386.14	1233.46
386.34	1224.10
386.53	1174.95
386.72	1179.63
386.92	1252.19
387.11	1289.64
387.31	1277.93
387.50	1167.93
387.70	1247.51
387.89	1212.40
388.09	1240.48
388.28	1200.69
388.48	1303.68
388.67	1306.02
388.86	1315.38
389.06	1261.55
389.25	1345.81
389.45	1423.05
389.64	1327.08
389.84	1376.24
390.03	1373.89
390.22	1369.21
390.42	1329.42
390.61	1331.76
390.81	1439.43
391.00	1401.98
391.19	1406.66
391.39	1460.49
391.58	1390.28
391.78	1385.60
391.97	1490.92
392.16	1486.24
392.36	1610.29
392.55	1530.71
392.75	1507.30
392.94	1521.35
393.13	1458.15
393.33	1570.50
393.52	1521.35
393.71	1610.29
393.91	1687.53
394.10	1579.86
394.29	1582.20
394.49	1455.81
394.68	1659.44
394.88	1621.99
395.07	1624.33
395.26	1610.29
395.46	1732.00
395.65	1614.97
395.84	1795.19
396.04	1774.13
396.23	1818.60
396.42	1802.21
396.62	1771.79
396.81	1750.72
397.00	1717.95
397.19	1820.94
397.39	1732.00
397.58	1802.21
397.77	1816.26
397.97	1863.07
398.16	1762.42
398.35	1942.64
398.55	1809.23
398.74	1830.30
398.93	1959.03
399.12	1820.94
399.32	1827.96
399.51	1963.71
399.70	2036.27
399.90	1886.47
400.09	1996.48
400.28	2010.52
400.47	2043.29
400.67	2047.97
400.86	1975.41
401.05	2106.48
401.24	2097.12
401.44	1956.69
401.63	2129.89
401.82	2211.81
402.01	2071.37
402.21	2190.74
402.40	2118.18
402.59	2169.68
402.78	2134.57
402.97	2207.13
403.17	2270.32
403.36	2221.17
403.55	2235.21
403.74	2415.43
403.93	2361.60
404.13	2298.41
404.32	2342.88
404.51	2272.66
404.70	2455.22
404.89	2420.11
405.09	2504.37
405.28	2502.03
405.47	2478.63
405.66	2429.48
405.85	2539.48
406.05	2448.20
406.24	2513.74
406.43	2558.21
406.62	2588.63
406.81	2576.93
407.00	2602.68
407.20	2567.57
407.39	2537.14
407.58	2602.68
407.77	2752.47
407.96	2642.46
408.15	2771.19
408.34	2633.10
408.54	2808.64
408.73	2782.90
408.92	2853.11
409.11	2803.96
409.30	2878.86
409.49	2923.33
409.68	2937.37
409.87	2754.81
410.07	2960.78
410.26	2918.65
410.45	2953.76
410.64	2967.80
410.83	2949.08
411.02	3014.61
411.21	3108.23
411.40	3073.12
411.59	3234.62
411.78	3094.19
411.98	3133.98
412.17	3239.30
412.36	3335.26
412.55	3251.00
412.74	3398.46
412.93	3351.65
413.12	3295.47
413.31	3634.85
413.50	3456.97
413.69	3400.80
413.88	3562.30
414.07	3487.40
414.26	3581.02
414.45	3618.47
414.64	3578.68
414.83	3716.77
415.02	3798.69
415.22	3866.56
415.41	3772.94
415.60	3808.05
415.79	3866.56
415.98	4016.36
416.17	3999.98
416.36	3845.50
416.55	4067.85
416.74	4161.47
416.93	3999.98
417.12	3992.95
417.31	4227.01
417.50	4159.13
417.69	4278.50
417.88	4393.19
418.07	4231.69
418.26	4252.75
418.45	4191.90
418.64	4531.28
418.83	4360.42
419.02	4514.89
419.21	4365.10
419.39	4404.89
419.58	4395.53
419.77	4510.21
419.96	4643.62
420.15	4606.17
420.34	4512.55
420.53	4669.37
420.72	4587.45
420.91	4465.74
421.10	4655.33
421.29	4643.62
421.48	4681.07
421.67	4723.20
421.86	4634.26
422.05	4676.39
422.24	4720.86
422.43	4814.48
422.61	4833.21
422.80	4957.25
422.99	4760.65
423.18	5013.43
423.37	4968.96
423.56	4861.29
423.75	5064.92
423.94	4798.10
424.13	4650.64
424.32	4723.20
424.50	4910.44
424.69	5156.20
424.88	4961.94
425.07	5004.07
425.26	5006.41
425.45	4933.85
425.64	4905.76
425.83	4987.68
426.01	5078.96
426.20	4943.21
426.39	4975.98
426.58	4835.55
426.77	4971.30
426.96	5048.54
427.15	5085.98
427.33	5275.57
427.52	5170.24
427.71	5107.05
427.90	5207.69
428.09	5254.50
428.28	5439.40
428.46	5277.91
428.65	5284.93
428.84	5504.94
429.03	5530.69
429.22	5294.29
429.40	5408.98
429.59	5537.71
429.78	5245.14
429.97	5233.44
430.16	5376.21
430.34	5432.38
430.53	5526.00
430.72	5640.69
430.91	5610.26
431.10	5420.68
431.28	5746.02
431.47	5685.16
431.66	5849.00
431.85	5867.72
432.03	5717.93
432.22	5907.51
432.41	5975.39
432.60	5891.13
432.79	5994.11
432.97	5947.30
433.16	5914.53
433.35	5963.68
433.54	6087.73
433.72	6038.58
433.91	6040.92
434.10	5994.11
434.28	5907.51
434.47	6244.55
434.66	6338.17
434.85	6232.85
435.03	6352.21
435.22	6087.73
435.41	6455.20
435.59	6368.60
435.78	6223.48
435.97	6305.40
436.16	6375.62
436.34	6204.76
436.53	6422.43
436.72	6761.81
436.90	6443.49
437.09	6462.22
437.28	6555.84
437.46	6523.07
437.65	6502.01
437.84	6810.96
438.02	6609.67
438.21	6766.49
438.40	6649.46
438.58	6759.47
438.77	7124.59
438.96	6991.18
439.14	6953.73
439.33	7138.63
439.52	6946.71
439.70	7173.74
439.89	7281.41
440.08	7325.88
440.26	7187.79
440.45	7157.36
440.63	7311.83
440.82	7597.38
441.01	7297.79
441.19	7578.65
441.38	7637.17
441.57	7597.38
441.75	7971.86
441.94	7964.84
442.12	7850.16
442.31	7747.17
442.50	7990.59
442.68	7768.24
442.87	7852.50
443.05	8084.21
443.24	8145.06
443.43	8154.43
443.61	8079.53
443.80	8383.80
443.98	7969.52
444.17	7906.33
444.35	7955.48
444.54	8245.71
444.73	8294.86
444.91	8152.09
445.10	8397.84
445.28	8329.97
445.47	8266.77
445.65	8259.75
445.84	8327.63
446.02	8573.38
446.21	8479.76
446.39	8355.71
446.58	8503.17
446.77	8313.58
446.95	8280.82
447.14	8173.15
447.32	8568.70
447.51	8322.94
447.69	8442.31
447.88	8526.57
448.06	8360.39
448.25	8353.37
448.43	8425.93
448.62	8418.91
448.80	8428.27
448.99	8706.79
449.17	8690.41
449.36	8528.91
449.54	8777.01
449.73	8856.59
449.91	8652.96
450.10	8882.33
450.28	9020.42
450.46	9060.21
450.65	9046.17
450.83	9095.32
451.02	8791.05
451.20	8982.98
451.39	9029.79
451.57	9067.24
451.76	8917.44
451.94	8957.23
452.13	9188.94
452.31	9018.08
452.49	9018.08
452.68	9252.14
452.86	9198.31
453.05	9453.42
453.23	9458.10
453.42	9320.01
453.60	9188.94
453.78	9483.85
453.97	9118.73
454.15	9610.24
454.34	9427.68
454.52	9591.52
454.70	9657.05
454.89	9755.35
455.07	9820.89
455.26	9713.22
455.44	9891.10
455.62	9853.66
455.81	9738.97
455.99	10052.60
456.17	9949.62
456.36	9928.55
456.54	10003.45
456.73	10242.18
456.91	10225.80
457.09	10333.47
457.28	10478.58
457.46	10136.86
457.64	10108.77
457.83	10511.35
458.01	10324.10
458.19	10609.65
458.38	10672.84
458.56	10607.31
458.74	10623.69
458.93	10588.58
459.11	10668.16
459.29	10693.91
459.48	10581.56
459.66	10513.69
459.84	10696.25
460.03	10904.56
460.21	10836.68
460.39	10993.50
460.57	10916.26
460.76	10789.87
460.94	10995.84
461.12	11140.95
461.31	11059.03
461.49	10951.37
461.67	10918.60
461.85	11363.30
462.04	11206.48
462.22	11728.42
462.40	11265.00
462.59	11398.41
462.77	11246.27
462.95	11433.52
463.13	11253.30
463.32	11466.28
463.50	11587.99
463.68	11632.46
463.86	11702.68
464.05	11690.98
464.23	11578.63
464.41	11866.52
464.59	11770.55
464.78	12046.74
464.96	11882.90
465.14	11707.36
465.32	12245.68
465.50	11932.05
465.69	12063.12
465.87	12053.76
466.05	11908.65
466.23	12006.95
466.41	11995.25
466.60	12318.24
466.78	11925.03
466.96	12142.70
467.14	12028.01
467.32	12325.26
467.51	12365.05
467.69	12173.13
467.87	12334.62
468.05	12376.75
468.23	12568.68
468.41	12327.60
468.60	12482.08
468.78	12723.15
468.96	12533.57
469.14	12620.17
469.32	12826.14
469.50	12493.78
469.69	12720.81
469.87	12926.78
470.05	12943.16
470.23	12985.29
470.41	13116.36
470.59	13268.50
470.77	12987.63
470.95	13097.64
471.14	13479.15
471.32	12882.31
471.50	13703.84
471.68	13415.95
471.86	13387.86
472.04	13612.56
472.22	13776.39
472.40	13481.49
472.58	13977.68
472.77	13872.36
472.95	14071.30
473.13	14305.35
473.31	13968.32
473.49	14097.05
473.67	14005.77
473.85	14134.50
474.03	14436.42
474.21	14394.29
474.39	14768.78
474.57	14831.97
474.75	14941.98
474.93	14747.72
475.12	14733.67
475.30	15066.03
475.48	14974.75
475.66	14970.07
475.84	15035.60
476.02	15138.58
476.20	15180.71
476.38	15330.51
476.56	15646.48
476.74	15889.90
476.92	15599.67
477.10	15714.36
477.28	16208.21
477.46	16009.26
477.64	16159.06
477.82	16346.30
478.00	16769.94
478.18	16526.52
478.36	16561.63
478.54	16781.64
478.72	16994.63
478.90	17174.85
479.08	17474.44
479.26	17600.83
479.44	17572.74
479.62	17731.90
479.80	18031.49
479.98	18101.70
480.16	18448.10
480.34	17933.18
480.52	18244.48
480.70	18253.84
480.88	18352.14
481.06	18583.85
481.24	18576.83
481.41	19023.87
481.59	19073.03
481.77	19503.68
481.95	19183.03
482.13	19288.35
482.31	19484.96
482.49	19878.17
482.67	19995.20
482.85	20240.95
483.03	20470.33
483.21	20404.79
483.39	20985.24
483.57	20549.90
483.74	21380.79
483.92	21167.80
484.10	21050.78
484.28	21565.70
484.46	21694.43
484.64	22092.32
484.82	21928.48
485.00	22532.34
485.18	22295.94
485.35	22803.84
485.53	22647.02
485.71	22459.78
485.89	23124.49
486.07	23124.49
486.25	22876.40
486.43	23222.80
486.61	23840.70
486.78	23721.33
486.96	23936.66
487.14	24257.31
487.32	24444.56
487.50	24926.71
487.68	24896.28
487.85	24947.77
488.03	25216.93
488.21	25535.24
488.39	25413.54
488.57	25923.77
488.75	25825.47
488.92	26312.30
489.10	26188.25
489.28	26529.97
489.46	26841.26
489.64	27005.10
489.81	27651.09
489.99	27468.53
490.17	27658.11
490.35	27765.78
490.53	27960.04
490.70	28173.03
490.88	28119.20
491.06	28552.20
491.24	28641.14
491.41	28947.75
491.59	29142.01
491.77	28912.64
491.95	29060.09
492.13	29668.63
492.30	29591.39
492.48	29486.07
492.66	29701.40
492.84	30239.72
493.01	30291.21
493.19	30190.57
493.37	30595.48
493.54	30712.51
493.72	31285.94
493.90	31232.11
494.08	31637.02
494.25	31763.41
494.43	31976.40
494.61	32203.43
494.79	32669.20
494.96	31952.99
495.14	32320.46
495.32	32606.00
495.49	33324.55
495.67	33139.65
495.85	32861.12
496.02	33673.29
496.20	33518.81
496.38	34265.44
496.55	33869.89
496.73	34593.12
496.91	34440.98
497.09	34326.30
497.26	34946.54
497.44	34630.57
497.62	34782.70
497.79	35328.05
497.97	35372.52
498.14	35463.80
498.32	35882.75
498.50	35775.09
498.67	35676.79
498.85	35461.46
499.03	36311.07
499.20	36444.48
499.38	36285.33
499.56	36378.95
499.73	37109.19
499.91	36980.46
500.08	37607.73
500.26	37158.34
500.44	37631.13
500.61	37909.66
500.79	37785.61
500.97	37579.64
501.14	38281.80
501.32	38389.47
501.49	37982.21
501.67	38293.50
501.84	38665.65
502.02	38218.61
502.20	38323.93
502.37	38972.26
502.55	39009.71
502.72	39112.69
502.90	39093.97
503.07	39285.89
503.25	39344.41
503.43	38976.94
503.60	39358.45
503.78	40233.81
503.95	40149.55
504.13	39959.97
504.30	40414.03
504.48	40456.16
504.65	40690.21
504.83	40645.74
505.01	41310.46
505.18	40727.66
505.36	41116.19
505.53	40746.39
505.71	41111.51
505.88	41352.58
506.06	41027.25
506.23	41525.78
506.41	41675.58
506.58	41610.04
506.76	41593.66
506.93	41855.80
507.11	41935.38
507.28	42190.50
507.46	42415.19
507.63	42742.86
507.81	42876.27
507.98	42167.09
508.16	42932.45
508.33	42953.51
508.50	43000.32
508.68	43276.51
508.85	43498.86
509.03	43398.21
509.20	43917.81
509.38	44046.54
509.55	43768.02
509.73	44016.11
509.90	44226.76
510.08	44315.70
510.25	44093.35
510.42	44975.73
510.60	44781.47
510.77	45071.70
510.95	45125.53
511.12	44989.78
511.30	44839.98
511.47	45022.54
511.64	45460.23
511.82	45535.12
511.99	45191.06
512.17	45371.28
512.34	45408.73
512.51	46021.95
512.69	46131.96
512.86	46005.57
513.04	46094.51
513.21	46202.18
513.38	46265.37
513.56	46309.84
513.73	46525.17
513.90	46342.61
514.08	46218.56
514.25	46480.70
514.43	46944.12
514.60	46925.40
514.77	46972.21
514.95	47327.97
515.12	47028.38
515.29	47203.92
515.47	47702.46
515.64	47662.67
515.81	47166.48
515.99	47714.16
516.16	47704.80
516.33	47606.50
516.51	48257.17
516.68	47971.62
516.85	48729.95
517.03	48622.29
517.20	48849.32
517.37	48793.15
517.54	48296.95
517.72	48905.49
517.89	48500.58
518.06	48935.92
518.24	48942.94
518.41	48846.98
518.58	48949.96
518.75	48734.63
518.93	48956.99
519.10	49132.53
519.27	49954.05
519.45	49301.04
519.62	49682.55
519.79	49741.06
519.96	49443.82
520.14	49661.49
520.31	49734.04
520.48	50197.47
520.65	50075.76
520.83	50529.83
521.00	50323.86
521.17	50113.21
521.34	50581.32
521.52	50361.31
521.69	50646.85
521.86	50934.74
522.03	50796.65
522.20	50878.57
522.38	51334.97
522.55	51047.08
522.72	51203.90
522.89	51175.81
523.07	51519.87
523.24	51161.77
523.41	51276.46
523.58	51086.87
523.75	51676.69
523.92	51550.30
524.10	51763.29
524.27	51702.43
524.44	51672.01
524.61	51934.15
524.78	51840.53
524.96	51859.25
525.13	52392.89
525.30	52303.95
525.47	52481.83
525.64	52226.71
525.81	52280.55
525.98	52624.60
526.16	52177.56
526.33	52289.91
526.50	52123.73
526.67	52479.49
526.84	52664.39
527.01	52610.56
527.18	52720.57
527.36	52505.24
527.53	52708.86
527.70	52741.63
527.87	53420.39
528.04	52896.11
528.21	52992.07
528.38	53219.10
528.55	53338.47
528.72	52940.58
528.89	53113.78
529.07	53289.32
529.24	53282.30
529.41	53338.47
529.58	53654.44
529.75	53469.54
529.92	53581.88
530.09	53801.89
530.26	53677.85
530.43	53797.21
530.60	53766.79
530.77	53656.78
530.94	53949.35
531.11	53750.40
531.28	53998.50
531.46	53703.59
531.63	54080.42
531.80	54026.59
531.97	54330.86
532.14	54218.51
532.31	54202.13
532.48	54316.81
532.65	54293.41
532.82	54291.07
532.99	54384.69
533.16	54169.36
533.33	54546.18
533.50	54829.39
533.67	54688.96
533.84	54763.85
534.01	54508.74
534.18	54894.92
534.35	55072.81
534.52	54768.54
534.69	55086.85
534.86	54899.61
535.03	54798.96
535.20	55159.41
535.37	55105.57
535.54	54915.99
535.71	54866.84
535.88	55187.49
536.05	55154.72
536.22	55210.90
536.38	55358.35
536.55	55470.70
536.72	55466.02
536.89	55456.65
537.06	55487.08
537.23	55585.38
537.40	55356.01
537.57	55702.41
537.74	55456.65
537.91	55870.93
538.08	55700.07
538.25	55707.09
538.42	55833.48
538.59	56037.11
538.75	55487.08
538.92	55938.80
539.09	55980.93
539.26	55793.69
539.43	55868.59
539.60	56212.65
539.77	56032.42
539.94	56254.78
540.11	55976.25
540.28	56140.09
540.44	56198.60
540.61	56112.00
540.78	55980.93
540.95	56165.84
541.12	56161.15
541.29	56240.73
541.46	56072.21
541.62	56296.91
541.79	56652.67
541.96	56083.92
542.13	56341.38
542.30	56465.42
542.47	56757.99
542.63	56582.45
542.80	56926.51
542.97	56926.51
543.14	57036.51
543.31	56886.72
543.48	56856.29
543.64	57263.55
543.81	57162.90
543.98	57092.69
544.15	57172.27
544.32	57279.93
544.48	57389.94
544.65	57235.46
544.82	57113.75
544.99	57137.16
545.16	57198.01
545.32	56973.32
545.49	57401.64
545.66	57478.88
545.83	57326.74
546.00	57577.18
546.16	57310.36
546.33	57434.41
546.50	57165.24
546.67	57413.34
546.83	57078.64
547.00	57542.07
547.17	57286.95
547.34	57506.96
547.50	57944.64
547.67	57881.45
547.84	57851.02
548.00	57846.34
548.17	57939.96
548.34	58087.42
548.51	58127.20
548.67	58040.60
548.84	57818.25
549.01	58087.42
549.18	58136.57
549.34	58078.05
549.51	58049.97
549.68	58265.30
549.84	57951.66
550.01	58281.68
550.18	58017.20
550.34	58185.72
550.51	58330.83
550.68	58216.14
550.84	58075.71
551.01	58171.67
551.18	58127.20
551.34	57972.73
551.51	58181.04
551.68	58340.19
551.84	58337.85
552.01	58286.36
552.18	58316.79
552.34	58176.36
552.51	58436.16
552.68	58361.26
552.84	58445.52
553.01	58649.14
553.18	58700.64
553.34	58684.25
553.51	58562.54
553.67	58639.78
553.84	58850.43
554.01	58679.57
554.17	58915.96
554.34	58719.36
554.51	58698.30
554.67	58906.60
554.84	58714.68
555.00	58925.33
555.17	58838.73
555.33	58817.66
555.50	58710.00
555.67	58707.66
555.83	58880.86
556.00	58864.47
556.16	59334.92
556.33	58969.80
556.50	59021.29
556.66	58841.07
556.83	58857.45
556.99	59386.41
557.16	59358.33
557.32	59538.55
557.49	59386.41
557.65	59234.28
557.82	59215.55
557.98	59241.30
558.15	59285.77
558.32	59388.75
558.48	59171.08
558.65	59234.28
558.81	59311.52
558.98	59454.29
559.14	59433.22
559.31	59341.94
559.47	59543.23
559.64	59531.53
559.80	59594.72
559.97	59533.87
560.13	59503.44
560.30	59501.10
560.46	59657.91
560.63	59437.90
560.79	59482.37
560.96	59620.47
561.12	59723.45
561.29	59648.55
561.45	59522.16
561.61	59772.60
561.78	59676.64
561.94	59536.21
562.11	59444.93
562.27	59580.68
562.44	59756.22
562.60	59817.07
562.77	59889.63
562.93	59817.07
563.10	59849.84
563.26	59791.33
563.42	60083.89
563.59	59877.93
563.75	59725.79
563.92	59767.92
564.08	59744.51
564.24	59957.50
564.41	59943.46
564.57	59856.86
564.74	59873.24
564.90	59831.11
565.07	59798.35
565.23	59592.38
565.39	59941.12
565.56	59894.31
565.72	59980.91
565.88	60079.21
566.05	59929.42
566.21	59948.14
566.38	60219.64
566.54	60229.01
566.70	60343.69
566.87	60137.72
567.03	59793.67
567.19	60296.88
567.36	60104.96
567.52	59980.91
567.68	60280.50
567.85	60107.30
568.01	60292.20
568.17	60074.53
568.34	60261.77
568.50	60102.62
568.66	59945.80
568.83	60231.35
568.99	60205.60
569.15	60027.72
569.32	60280.50
569.48	60046.44
569.64	60278.16
569.81	60163.47
569.97	60210.28
570.13	60114.32
570.30	60039.42
570.46	60341.35
570.62	60271.14
570.78	60217.30
570.95	60144.75
571.11	60425.61
571.27	60198.58
571.43	60322.63
571.60	60331.99
571.76	60285.18
571.92	60444.33
572.09	60364.76
572.25	60168.15
572.41	60374.12
572.57	60420.93
572.74	60687.75
572.90	60430.29
573.06	60392.84
573.22	60477.10
573.38	60500.51
573.55	60381.14
573.71	60605.83
573.87	60505.19
574.03	60507.53
574.20	60582.43
574.36	60587.11
574.52	60556.68
574.68	60427.95
574.84	60453.70
575.01	60811.80
575.17	60446.68
575.33	60409.23
575.49	60676.05
575.65	60542.64
575.82	60662.00
575.98	60701.79
576.14	60788.39
576.30	60662.00
576.46	60779.03
576.62	60493.49
576.79	60460.72
576.95	60573.06
577.11	60612.85
577.27	60741.58
577.43	60666.69
577.59	60631.58
577.75	60540.30
577.92	60540.30
578.08	60741.58
578.24	60685.41
578.40	60772.01
578.56	60645.62
578.72	60790.73
578.88	60633.92
579.04	60645.62
579.21	60662.00
579.37	60687.75
579.53	60793.07
579.69	60420.93
579.85	60500.51
580.01	60570.72
580.17	60636.26
580.33	60795.42
580.49	60683.07
580.65	60757.97
580.82	60652.64
580.98	60697.11
581.14	60699.45
581.30	60767.33
581.46	60736.90
581.62	60715.84
581.78	60537.96
581.94	60577.75
582.10	60552.00
582.26	60769.67
582.42	60640.94
582.58	60736.90
582.74	60797.76
582.90	60764.99
583.06	60680.73
583.22	60364.76
583.38	60701.79
583.54	60769.67
583.70	60718.18
583.86	60790.73
584.02	60713.50
584.18	60767.33
584.34	60605.83
584.50	60811.80
584.66	60636.26
584.82	60832.86
584.98	61151.18
585.14	60734.56
585.30	60774.35
585.46	60818.82
585.62	60739.24
585.78	61027.13
585.94	60659.66
586.10	60863.29
586.26	60940.53
586.42	60884.36
586.58	60870.31
586.74	60809.46
586.90	60790.73
587.06	60715.84
587.22	60982.66
587.38	60825.84
587.54	61029.47
587.70	61134.79
587.86	60891.38
588.02	60708.82
588.18	60924.14
588.34	60849.25
588.49	60945.21
