SpectraSuite Data File
++++++++++++++++++++++++++++++++++++
Date: Fri Oct 25 11:34:04 EDT 2013
User: price-jones
Dark Spectrum Present: No
Reference Spectrum Present: No
Number of Sampled Component Spectra: 1
Spectrometers: USB2+H05261
Integration Time (usec): 100000 (USB2+H05261)
Spectra Averaged: 1 (USB2+H05261)
Boxcar Smoothing: 0 (USB2+H05261)
Correct for Electrical Dark: No (USB2+H05261)
Strobe/Lamp Enabled: No (USB2+H05261)
Correct for Detector Non-linearity: No (USB2+H05261)
Correct for Stray Light: No (USB2+H05261)
Number of Pixels in Processed Spectrum: 2048
>>>>>Begin Processed Spectral Data<<<<<
365.73	355.76
365.92	355.76
366.12	355.76
366.32	138.09
366.52	184.90
366.72	203.63
366.91	53.83
367.11	224.69
367.31	194.26
367.51	159.16
367.70	133.41
367.90	231.71
368.10	163.84
368.30	191.92
368.49	128.73
368.69	182.56
368.89	205.97
369.09	189.58
369.28	208.31
369.48	117.03
369.68	224.69
369.87	173.20
370.07	231.71
370.27	367.46
370.47	262.14
370.66	437.68
370.86	503.22
371.06	519.60
371.25	582.79
371.45	573.43
371.65	601.52
371.84	564.07
372.04	634.29
372.24	561.73
372.44	554.71
372.63	603.86
372.83	596.84
373.03	650.67
373.22	617.90
373.42	578.11
373.62	638.97
373.81	638.97
374.01	690.46
374.21	610.88
374.40	624.92
374.60	674.07
374.79	603.86
374.99	681.10
375.19	622.58
375.38	638.97
375.58	578.11
375.78	711.52
375.97	676.41
376.17	723.23
376.37	788.76
376.56	676.41
376.76	688.12
376.95	655.35
377.15	678.76
377.35	702.16
377.54	725.57
377.74	730.25
377.93	720.88
378.13	683.44
378.33	695.14
378.52	723.23
378.72	730.25
378.91	699.82
379.11	772.38
379.31	711.52
379.50	681.10
379.70	753.65
379.89	858.98
380.09	683.44
380.28	692.80
380.48	720.88
380.68	720.88
380.87	751.31
381.07	669.39
381.26	674.07
381.46	730.25
381.65	821.53
381.85	784.08
382.04	755.99
382.24	751.31
382.43	777.06
382.63	772.38
382.83	739.61
383.02	805.14
383.22	866.00
383.41	898.77
383.61	765.36
383.80	809.83
384.00	744.29
384.19	718.54
384.39	861.32
384.58	835.57
384.78	812.17
384.97	786.42
385.17	828.55
385.36	858.98
385.56	861.32
385.75	889.40
385.95	898.77
386.14	840.25
386.34	814.51
386.53	807.48
386.72	812.17
386.92	889.40
387.11	882.38
387.31	938.55
387.50	819.19
387.70	926.85
387.89	933.87
388.09	910.47
388.28	917.49
388.48	866.00
388.67	943.24
388.86	964.30
389.06	964.30
389.25	973.66
389.45	968.98
389.64	896.43
389.84	915.15
390.03	994.73
390.22	952.60
390.42	901.11
390.61	938.55
390.81	978.34
391.00	947.92
391.19	968.98
391.39	1057.92
391.58	1034.52
391.78	1013.45
391.97	1011.11
392.16	1029.84
392.36	1050.90
392.55	1027.50
392.75	1043.88
392.94	1020.47
393.13	1013.45
393.33	973.66
393.52	1034.52
393.71	1090.69
393.91	980.68
394.10	1100.05
394.29	1008.77
394.49	1074.31
394.68	1060.26
394.88	1095.37
395.07	1144.52
395.26	1210.06
395.46	990.05
395.65	1121.12
395.84	1088.35
396.04	1151.54
396.23	1107.07
396.42	1303.68
396.62	1165.59
396.81	1109.41
397.00	1256.87
397.19	1191.33
397.39	1137.50
397.58	1240.48
397.77	1203.04
397.97	1228.78
398.16	1231.12
398.35	1259.21
398.55	1193.67
398.74	1289.64
398.93	1313.04
399.12	1196.01
399.32	1324.74
399.51	1315.38
399.70	1341.13
399.90	1219.42
400.09	1287.29
400.28	1359.85
400.47	1336.45
400.67	1275.59
400.86	1294.32
401.05	1387.94
401.24	1423.05
401.44	1371.55
401.63	1502.62
401.82	1423.05
402.01	1310.70
402.21	1490.92
402.40	1474.54
402.59	1336.45
402.78	1521.35
402.97	1504.96
403.17	1495.60
403.36	1486.24
403.55	1479.22
403.74	1493.26
403.93	1561.14
404.13	1586.88
404.32	1589.22
404.51	1624.33
404.70	1612.63
404.89	1575.18
405.09	1699.23
405.28	1610.29
405.47	1647.74
405.66	1727.32
405.85	1671.14
406.05	1692.21
406.24	1708.59
406.43	1694.55
406.62	1760.08
406.81	1851.36
407.00	1776.47
407.20	1743.70
407.39	1837.32
407.58	1849.02
407.77	1797.53
407.96	1837.32
408.15	1888.81
408.34	1823.28
408.54	1874.77
408.73	1881.79
408.92	1954.35
409.11	2040.95
409.30	1916.90
409.49	1895.83
409.68	2050.31
409.87	1952.01
410.07	2040.95
410.26	1984.77
410.45	1944.99
410.64	2073.71
410.83	2176.70
411.02	1977.75
411.21	2097.12
411.40	2078.40
411.59	2174.36
411.78	2228.19
411.98	2211.81
412.17	2143.93
412.36	2125.21
412.55	2260.96
412.74	2197.76
412.93	2223.51
413.12	2291.38
413.31	2403.73
413.50	2300.75
413.69	2333.51
413.88	2452.88
414.07	2401.39
414.26	2413.09
414.45	2462.24
414.64	2499.69
414.83	2534.80
415.02	2502.03
415.22	2511.39
415.41	2555.86
415.60	2626.08
415.79	2628.42
415.98	2523.10
416.17	2677.57
416.36	2705.66
416.55	2799.28
416.74	2825.03
416.93	2693.96
417.12	2710.34
417.31	2700.98
417.50	2853.11
417.69	2890.56
417.88	2862.48
418.07	2815.66
418.26	2885.88
418.45	2874.18
418.64	2951.42
418.83	2916.31
419.02	3047.38
419.21	3183.13
419.39	3009.93
419.58	3098.87
419.77	2995.89
419.96	3136.32
420.15	3129.30
420.34	3124.62
420.53	3157.38
420.72	3173.77
420.91	3187.81
421.10	3211.22
421.29	3227.60
421.48	3267.39
421.67	3248.66
421.86	3269.73
422.05	3243.98
422.24	3234.62
422.43	3262.71
422.61	3192.49
422.80	3290.79
422.99	3358.67
423.18	3344.63
423.37	3361.01
423.56	3197.17
423.75	3318.88
423.94	3323.56
424.13	3150.36
424.32	3138.66
424.50	3417.18
424.69	3676.98
424.88	3431.23
425.07	3379.73
425.26	3368.03
425.45	3344.63
425.64	3302.50
425.83	3517.83
426.01	3466.33
426.20	3410.16
426.39	3353.99
426.58	3302.50
426.77	3414.84
426.96	3527.19
427.15	3639.53
427.33	3489.74
427.52	3473.36
427.71	3630.17
427.90	3588.04
428.09	3590.38
428.28	3637.19
428.46	3545.91
428.65	3597.40
428.84	3662.94
429.03	3660.60
429.22	3637.19
429.40	3742.52
429.59	3698.05
429.78	3562.30
429.97	3588.04
430.16	3705.07
430.34	3709.75
430.53	3840.82
430.72	3866.56
430.91	3733.15
431.10	3911.04
431.28	3946.14
431.47	3878.27
431.66	3904.01
431.85	3716.77
432.03	3864.22
432.22	4072.53
432.41	4002.32
432.60	3925.08
432.79	4004.66
432.97	3960.19
433.16	4133.39
433.35	3953.16
433.54	4138.07
433.72	4060.83
433.91	4154.45
434.10	4086.58
434.28	4124.02
434.47	4124.02
434.66	4255.09
434.85	4297.22
435.03	4161.47
435.22	4196.58
435.41	4451.70
435.59	4315.95
435.78	4287.86
435.97	4365.10
436.16	4243.39
436.34	4297.22
436.53	4409.57
436.72	4407.23
436.90	4311.27
437.09	4477.44
437.28	4409.57
437.46	4365.10
437.65	4535.96
437.84	4535.96
438.02	4475.10
438.21	4327.65
438.40	4528.94
438.58	4648.30
438.77	4739.58
438.96	4786.40
439.14	4856.61
439.33	4833.21
439.52	4784.06
439.70	4847.25
439.89	4901.08
440.08	4833.21
440.26	4828.53
440.45	4910.44
440.63	4837.89
440.82	5144.50
441.01	4936.19
441.19	4947.89
441.38	5191.31
441.57	5064.92
441.75	5069.60
441.94	5186.63
442.12	5310.68
442.31	5352.81
442.50	5451.11
442.68	5481.53
442.87	5348.12
443.05	5298.97
443.24	5596.22
443.43	5647.71
443.61	5441.75
443.80	5696.86
443.98	5249.82
444.17	5085.98
444.35	5406.64
444.54	5282.59
444.73	5514.30
444.91	5514.30
445.10	5614.95
445.28	5579.84
445.47	5504.94
445.65	5472.17
445.84	5675.80
446.02	5671.12
446.21	5666.44
446.39	5619.63
446.58	5598.56
446.77	5565.79
446.95	5504.94
447.14	5516.64
447.32	5685.16
447.51	5584.52
447.69	5636.01
447.88	5738.99
448.06	5706.23
448.25	5591.54
448.43	5760.06
448.62	5584.52
448.80	5748.36
448.99	5783.46
449.17	5762.40
449.36	5762.40
449.54	5731.97
449.73	5909.85
449.91	5900.49
450.10	6099.44
450.28	5996.45
450.46	5916.87
450.65	5949.64
450.83	6076.03
451.02	6005.81
451.20	6045.60
451.39	6134.54
451.57	5888.79
451.76	6005.81
451.94	6010.50
452.13	6235.19
452.31	6197.74
452.49	6010.50
452.68	6136.88
452.86	6115.82
453.05	6174.33
453.23	6356.90
453.42	6197.74
453.60	6242.21
453.78	6087.73
453.97	6193.06
454.15	6200.08
454.34	6207.10
454.52	6450.52
454.70	6354.55
454.89	6471.58
455.07	6490.31
455.26	6494.99
455.44	6427.11
455.62	6623.72
455.81	6558.18
455.99	6686.91
456.17	6551.16
456.36	6558.18
456.54	6693.93
456.73	6621.38
456.91	6946.71
457.09	6897.56
457.28	6881.18
457.46	6958.41
457.64	6953.73
457.83	6909.26
458.01	6878.83
458.19	7040.33
458.38	6925.65
458.56	7002.88
458.74	6981.82
458.93	7089.48
459.11	7033.31
459.29	6953.73
459.48	7150.34
459.66	7112.89
459.84	7349.28
460.03	7302.47
460.21	7456.95
460.39	7293.11
460.57	7323.54
460.76	7318.86
460.94	7316.51
461.12	7391.41
461.31	7431.20
461.49	7178.42
461.67	7377.37
461.85	7590.36
462.04	7356.30
462.22	7911.01
462.40	7543.55
462.59	7513.12
462.77	7353.96
462.95	7599.72
463.13	7758.88
463.32	7754.19
463.50	7534.18
463.68	7768.24
463.86	7756.54
464.05	7672.28
464.23	7597.38
464.41	7796.32
464.59	7543.55
464.78	7805.69
464.96	7878.24
465.14	7756.54
465.32	7852.50
465.50	7969.52
465.69	8032.72
465.87	7969.52
466.05	7941.44
466.23	7852.50
466.41	8170.81
466.60	8074.85
466.78	7892.29
466.96	7969.52
467.14	8114.64
467.32	8070.17
467.51	8095.91
467.69	8121.66
467.87	8203.58
468.05	8292.52
468.23	8105.28
468.41	7985.91
468.60	8212.94
468.78	8355.71
468.96	8362.73
469.14	8353.37
469.32	8475.08
469.50	8409.54
469.69	8498.49
469.87	8524.23
470.05	8561.68
470.23	8510.19
470.41	8638.92
470.59	8690.41
470.77	8730.20
470.95	8795.73
471.14	8727.86
471.32	8863.61
471.50	8898.72
471.68	8966.59
471.86	8905.74
472.04	9057.87
472.22	9022.77
472.40	8912.76
472.58	9088.30
472.77	9217.03
472.95	9102.34
473.13	9289.59
473.31	9329.38
473.49	9242.78
473.67	9254.48
473.85	9359.80
474.03	9451.08
474.21	9561.09
474.39	9591.52
474.57	9699.18
474.75	9647.69
474.93	9680.46
475.12	9652.37
475.30	9881.74
475.48	9799.82
475.66	9919.19
475.84	9848.97
476.02	10132.18
476.20	10092.39
476.38	10094.73
476.56	10422.41
476.74	10497.30
476.92	10342.83
477.10	10010.47
477.28	10434.11
477.46	10466.88
477.64	10520.71
477.82	10707.95
478.00	10869.45
478.18	10918.60
478.36	10890.51
478.54	11087.12
478.72	11040.31
478.90	11250.96
479.08	11405.43
479.26	11386.71
479.44	11470.97
479.62	11737.79
479.80	11805.66
479.98	11784.60
480.16	11918.01
480.34	11791.62
480.52	12128.66
480.70	11859.49
480.88	11941.41
481.06	12308.88
481.24	12346.33
481.41	12203.55
481.59	12386.12
481.77	12594.42
481.95	12610.81
482.13	12720.81
482.31	12784.01
482.49	12863.58
482.67	13011.04
482.85	13083.59
483.03	13179.56
483.21	13289.56
483.39	13532.98
483.57	13591.49
483.74	13549.36
483.92	13762.35
484.10	13760.01
484.28	14080.66
484.46	14064.28
484.64	14230.46
484.82	13942.57
485.00	14111.09
485.18	14455.15
485.35	14850.70
485.53	14665.80
485.71	14960.70
485.89	15126.88
486.07	15154.97
486.25	15009.86
486.43	15208.80
486.61	15489.67
486.78	15501.37
486.96	15669.89
487.14	16072.46
487.32	15775.21
487.50	15953.09
487.68	16084.16
487.85	16271.40
488.03	16453.97
488.21	16744.19
488.39	16837.81
488.57	16695.04
488.75	16582.70
488.92	16854.20
489.10	17163.15
489.28	17039.10
489.46	17214.64
489.64	17341.03
489.81	17802.11
489.99	17628.92
490.17	17696.79
490.35	18022.12
490.53	18338.10
490.70	18324.05
490.88	18366.18
491.06	18485.55
491.24	18609.60
491.41	18647.05
491.59	18810.89
491.77	18731.31
491.95	18991.11
492.13	18878.76
492.30	19381.98
492.48	19187.71
492.66	19318.78
492.84	19513.05
493.01	19613.69
493.19	19894.55
493.37	20006.90
493.54	19934.34
493.72	19995.20
493.90	20039.67
494.08	20210.53
494.25	20552.24
494.43	20575.65
494.61	20585.01
494.79	20697.36
494.96	20898.64
495.14	21249.72
495.32	21132.70
495.49	21490.80
495.67	21163.12
495.85	21675.70
496.02	21884.01
496.20	22040.82
496.38	21834.86
496.55	22111.04
496.73	22480.85
496.91	21893.37
497.09	22174.24
497.26	22724.26
497.44	22471.48
497.62	22614.26
497.79	23154.92
497.97	22504.25
498.14	23152.58
498.32	23388.97
498.50	23522.38
498.67	23168.96
498.85	23349.18
499.03	23339.82
499.20	23821.97
499.38	23639.41
499.56	23857.08
499.73	24121.56
499.91	24135.60
500.08	24086.45
500.26	24079.43
500.44	24261.99
500.61	24346.25
500.79	24477.32
500.97	24734.78
501.14	24994.58
501.32	24706.70
501.49	24816.70
501.67	24769.89
501.84	25266.08
502.02	24994.58
502.20	24889.26
502.37	25324.60
502.55	25090.54
502.72	25160.76
502.90	25221.61
503.07	25439.28
503.25	25296.51
503.43	25378.43
503.60	25804.41
503.78	25816.11
503.95	25682.70
504.13	25862.92
504.30	26258.47
504.48	26312.30
504.65	26366.13
504.83	26560.40
505.01	26485.50
505.18	26232.72
505.36	26471.46
505.53	26757.00
505.71	26424.65
505.88	26930.20
506.06	26597.85
506.23	26934.88
506.41	27171.28
506.58	27281.28
506.76	27005.10
506.93	27599.60
507.11	27250.86
507.28	27534.06
507.46	27311.71
507.63	27517.68
507.81	28086.43
507.98	27880.46
508.16	27810.25
508.33	28161.33
508.50	28350.91
508.68	28105.15
508.85	28051.32
509.03	28320.48
509.20	28425.81
509.38	28753.48
509.55	28489.00
509.73	28884.55
509.90	28418.78
510.08	29074.13
510.25	28603.69
510.42	29266.06
510.60	29195.84
510.77	29158.39
510.95	29530.54
511.12	29252.02
511.30	29132.65
511.47	29575.01
511.64	29617.14
511.82	29673.31
511.99	29277.76
512.17	30125.04
512.34	30199.93
512.51	30000.99
512.69	30157.80
512.86	29816.08
513.04	30195.25
513.21	30183.55
513.38	30422.28
513.56	30644.63
513.73	30398.88
513.90	30326.32
514.08	30525.27
514.25	30923.16
514.43	30749.96
514.60	31089.34
514.77	30995.71
514.95	31349.14
515.12	31229.77
515.29	31110.40
515.47	31281.26
515.64	31318.71
515.81	31723.62
515.99	31580.85
516.16	32023.21
516.33	31477.86
516.51	31732.98
516.68	31608.93
516.85	31669.79
517.03	31999.80
517.20	32205.77
517.37	32116.83
517.54	32037.25
517.72	32074.70
517.89	32093.43
518.06	32327.48
518.24	31978.74
518.41	32203.43
518.58	32484.30
518.75	32170.66
518.93	32643.45
519.10	32596.64
519.27	33088.15
519.45	32779.20
519.62	32910.27
519.79	33027.30
519.96	33078.79
520.14	33378.38
520.31	32720.69
520.48	33240.29
520.65	33090.49
520.83	33415.83
521.00	34092.24
521.17	33502.43
521.34	33626.48
521.52	33905.00
521.69	33876.91
521.86	33525.83
522.03	34087.56
522.20	34363.75
522.38	34382.47
522.55	34075.86
522.72	34326.30
522.89	34590.78
523.07	34899.73
523.24	34328.64
523.41	35103.35
523.58	34209.27
523.75	34581.42
523.92	34300.55
524.10	34852.92
524.27	34703.12
524.44	35105.70
524.61	34895.05
524.78	35215.70
524.96	35426.35
525.13	35587.85
525.30	35606.57
525.47	35374.86
525.64	35194.64
525.81	35449.75
525.98	35864.03
526.16	35711.89
526.33	35892.12
526.50	35957.65
526.67	35566.78
526.84	35852.33
527.01	35641.68
527.18	35948.29
527.36	36278.30
527.53	36432.78
527.70	36549.81
527.87	36266.60
528.04	36163.62
528.21	36149.57
528.38	36409.37
528.55	36144.89
528.72	36114.47
528.89	36271.28
529.07	36306.39
529.24	36437.46
529.41	36683.22
529.58	36900.89
529.75	37188.77
529.92	37174.73
530.09	36833.01
530.26	36996.85
530.43	36900.89
530.60	36713.64
530.77	36758.11
530.94	37017.91
531.11	36715.98
531.28	37427.51
531.46	36898.55
531.63	37397.08
531.80	37310.48
531.97	37680.28
532.14	37649.86
532.31	37717.73
532.48	37542.19
532.65	38366.06
532.82	37563.26
532.99	38459.68
533.16	37759.86
533.33	38092.22
533.50	38099.24
533.67	38218.61
533.84	37811.35
534.01	37954.13
534.18	38169.46
534.35	38518.20
534.52	38745.23
534.69	38845.87
534.86	38988.64
535.03	38181.16
535.20	38590.75
535.37	38990.98
535.54	38958.22
535.71	38834.17
535.88	38775.66
536.05	38455.00
536.22	39115.03
536.38	38742.89
536.55	39199.29
536.72	38642.24
536.89	38457.34
537.06	38866.94
537.23	39295.25
537.40	38834.17
537.57	38960.56
537.74	39033.11
537.91	39564.42
538.08	39248.44
538.25	38752.25
538.42	39419.30
538.59	39676.76
538.75	39264.83
538.92	40126.14
539.09	39796.13
539.26	39665.06
539.43	39686.12
539.60	39618.25
539.77	39651.02
539.94	40128.48
540.11	39796.13
540.28	40004.44
540.44	39779.74
540.61	39969.33
540.78	39873.37
540.95	40163.59
541.12	40168.27
541.29	40114.44
541.46	40311.05
541.62	40203.38
541.79	40355.52
541.96	40076.99
542.13	39856.98
542.30	40222.11
542.47	41015.55
542.63	40528.72
542.80	40453.82
542.97	40924.27
543.14	40917.25
543.31	40575.53
543.48	41167.68
543.64	41298.75
543.81	41691.96
543.98	41174.70
544.15	41017.89
544.32	41186.41
544.48	41530.47
544.65	41139.60
544.82	41371.31
544.99	40919.59
545.16	41137.26
545.32	41273.01
545.49	41862.82
545.66	41808.99
545.83	41930.70
546.00	41876.86
546.16	41825.37
546.33	41698.98
546.50	41663.88
546.67	41689.62
546.83	41415.78
547.00	41902.61
547.17	41921.34
547.34	41340.88
547.50	41975.17
547.67	41806.65
547.84	41979.85
548.00	42267.73
548.17	42642.22
548.34	42394.12
548.51	42548.60
548.67	42611.79
548.84	42176.45
549.01	42253.69
549.18	42593.07
549.34	42682.01
549.51	42504.13
549.68	42487.74
549.84	42782.65
550.01	42520.51
550.18	42726.48
550.34	42799.04
550.51	42239.65
550.68	42815.42
550.84	42534.56
551.01	43058.84
551.18	42784.99
551.34	42726.48
551.51	43089.26
551.68	43203.95
551.84	42532.22
552.01	42834.14
552.18	43030.75
552.34	42808.40
552.51	42782.65
552.68	43241.40
552.84	43084.58
553.01	43618.22
553.18	43234.38
553.34	42995.64
553.51	43234.38
553.67	43416.94
553.84	43632.27
554.01	43728.23
554.17	43246.08
554.34	43653.33
554.51	43519.92
554.67	43639.29
554.84	43264.80
555.00	43569.07
555.17	43833.55
555.33	43971.64
555.50	43381.83
555.67	43599.50
555.83	43744.61
556.00	43761.00
556.16	43833.55
556.33	44023.14
556.50	44046.54
556.66	44219.74
556.83	43704.82
556.99	44341.45
557.16	44540.39
557.32	44535.71
557.49	44477.20
557.65	43922.49
557.82	44081.65
557.98	44591.89
558.15	43906.11
558.32	44575.50
558.48	44020.80
558.65	44451.45
558.81	44636.36
558.98	44524.01
559.14	44477.20
559.31	44507.63
559.47	44371.88
559.64	44378.90
559.80	44294.64
559.97	44601.25
560.13	44360.17
560.30	44687.85
560.46	44729.98
560.63	44545.08
560.79	45132.55
560.96	45083.40
561.12	44964.03
561.29	44673.81
561.45	45069.36
561.61	44701.89
561.78	44701.89
561.94	44460.82
562.11	44903.18
562.27	44762.75
562.44	44711.25
562.60	45120.85
562.77	45223.83
562.93	44727.64
563.10	45329.16
563.26	44720.62
563.42	45593.64
563.59	44793.17
563.75	44907.86
563.92	45247.24
564.08	44793.17
564.24	45514.06
564.41	45195.74
564.57	45226.17
564.74	45048.29
564.90	45038.93
565.07	45153.62
565.23	45226.17
565.39	45205.11
565.56	45514.06
565.72	45177.02
565.88	45394.69
566.05	45567.89
566.21	45757.47
566.38	45577.25
566.54	45106.80
566.70	45350.22
566.87	45141.91
567.03	45312.77
567.19	45530.44
567.36	45368.94
567.52	45242.56
567.68	45872.16
567.85	45333.84
568.01	45354.90
568.17	45326.81
568.34	45631.08
568.50	45785.56
568.66	45492.99
568.83	45492.99
568.99	45787.90
569.15	45780.88
569.32	45146.59
569.48	45720.02
569.64	45949.40
569.81	45574.91
569.97	45921.31
570.13	45556.19
570.30	45457.88
570.46	45930.67
570.62	45830.03
570.78	46052.38
570.95	45741.09
571.11	46036.00
571.27	45860.46
571.43	45572.57
571.60	46045.36
571.76	45558.53
571.92	45666.19
572.09	45928.33
572.25	45947.06
572.41	46108.55
572.57	45907.27
572.74	46190.47
572.90	45645.13
573.06	46136.64
573.22	45979.82
573.38	45773.86
573.55	45951.74
573.71	46239.62
573.87	46279.41
574.03	46080.47
574.20	45998.55
574.36	46028.98
574.52	46330.90
574.68	45783.22
574.84	46485.38
575.01	46192.81
575.17	46298.14
575.33	46319.20
575.49	45851.09
575.65	45977.48
575.82	46279.41
575.98	46110.89
576.14	46237.28
576.30	46614.11
576.46	46000.89
576.62	45965.78
576.79	45577.25
576.95	45801.94
577.11	45865.14
577.27	46047.70
577.43	45900.25
577.59	46061.74
577.75	45937.69
577.92	46033.66
578.08	46143.66
578.24	46415.16
578.40	45949.40
578.56	46183.45
578.72	46197.49
578.88	46607.09
579.04	46616.45
579.21	46265.37
579.37	46555.60
579.53	46358.99
579.69	46075.79
579.85	45888.54
580.01	46204.52
580.17	46099.19
580.33	46351.97
580.49	46267.71
580.65	46216.22
580.82	46351.97
580.98	46555.60
581.14	46272.39
581.30	46181.11
581.46	45862.80
581.62	46279.41
581.78	46211.54
581.94	46518.15
582.10	46314.52
582.26	46501.76
582.42	46085.15
582.58	46232.60
582.74	46384.74
582.90	46426.87
583.06	46642.20
583.22	46342.61
583.38	46337.93
583.54	46501.76
583.70	46735.82
583.86	46422.19
584.02	46611.77
584.18	46822.42
584.34	46206.86
584.50	46490.06
584.66	47026.04
584.82	46791.99
584.98	46660.92
585.14	46265.37
585.30	47004.98
585.46	46492.40
585.62	46358.99
585.78	46415.16
585.94	46052.38
586.10	46429.21
586.26	46117.92
586.42	46548.57
586.58	46611.77
586.74	46485.38
586.90	46476.02
587.06	46499.42
587.22	47049.45
587.38	46366.01
587.54	46354.31
587.70	46878.59
587.86	46527.51
588.02	47058.81
588.18	46483.04
588.34	46483.04
588.49	46859.87
588.65	46686.67
588.81	46333.24
588.97	46717.09
589.13	46583.68
589.29	46461.97
589.45	46742.84
589.61	46387.08
589.77	46934.76
589.93	46939.44
590.08	46717.09
