SpectraSuite Data File
++++++++++++++++++++++++++++++++++++
Date: Fri Oct 25 11:25:47 EDT 2013
User: price-jones
Dark Spectrum Present: No
Reference Spectrum Present: No
Number of Sampled Component Spectra: 1
Spectrometers: USB2+H05261
Integration Time (usec): 100000 (USB2+H05261)
Spectra Averaged: 1 (USB2+H05261)
Boxcar Smoothing: 0 (USB2+H05261)
Correct for Electrical Dark: No (USB2+H05261)
Strobe/Lamp Enabled: No (USB2+H05261)
Correct for Detector Non-linearity: No (USB2+H05261)
Correct for Stray Light: No (USB2+H05261)
Number of Pixels in Processed Spectrum: 2048
>>>>>Begin Processed Spectral Data<<<<<
365.73	227.03
365.92	227.03
366.12	227.03
366.32	224.69
366.52	208.31
366.72	187.24
366.91	88.94
367.11	98.30
367.31	170.86
367.51	114.69
367.70	140.43
367.90	248.10
368.10	175.54
368.30	201.29
368.49	152.13
368.69	175.54
368.89	161.50
369.09	88.94
369.28	112.35
369.48	203.63
369.68	147.45
369.87	177.88
370.07	215.33
370.27	201.29
370.47	311.29
370.66	610.88
370.86	636.63
371.06	631.94
371.25	730.25
371.45	650.67
371.65	699.82
371.84	669.39
372.04	669.39
372.24	737.27
372.44	732.59
372.63	716.20
372.83	716.20
373.03	849.61
373.22	730.25
373.42	777.06
373.62	819.19
373.81	793.44
374.01	821.53
374.21	739.61
374.40	770.04
374.60	861.32
374.79	807.48
374.99	816.85
375.19	858.98
375.38	854.30
375.58	849.61
375.78	807.48
375.97	812.17
376.17	980.68
376.37	849.61
376.56	812.17
376.76	863.66
376.95	884.72
377.15	901.11
377.35	875.36
377.54	952.60
377.74	844.93
377.93	821.53
378.13	947.92
378.33	987.71
378.52	978.34
378.72	964.30
378.91	987.71
379.11	945.58
379.31	947.92
379.50	968.98
379.70	1004.09
379.89	1015.79
380.09	961.96
380.28	964.30
380.48	964.30
380.68	1022.81
380.87	940.90
381.07	1046.22
381.26	1090.69
381.46	931.53
381.65	1057.92
381.85	1022.81
382.04	1018.13
382.24	990.05
382.43	1046.22
382.63	1057.92
382.83	1090.69
383.02	1128.14
383.22	1107.07
383.41	1053.24
383.61	1100.05
383.80	1104.73
384.00	1067.28
384.19	1083.67
384.39	1156.22
384.58	1104.73
384.78	1130.48
384.97	1102.39
385.17	1104.73
385.36	1179.63
385.56	1210.06
385.75	1151.54
385.95	1172.61
386.14	1233.46
386.34	1167.93
386.53	1219.42
386.72	1128.14
386.92	1275.59
387.11	1299.00
387.31	1249.85
387.50	1261.55
387.70	1247.51
387.89	1263.89
388.09	1226.44
388.28	1306.02
388.48	1212.40
388.67	1270.91
388.86	1233.46
389.06	1284.95
389.25	1303.68
389.45	1355.17
389.64	1308.36
389.84	1411.34
390.03	1387.94
390.22	1336.45
390.42	1357.51
390.61	1387.94
390.81	1313.04
391.00	1423.05
391.19	1401.98
391.39	1420.71
391.58	1455.81
391.78	1488.58
391.97	1409.00
392.16	1509.65
392.36	1528.37
392.55	1465.18
392.75	1481.56
392.94	1507.30
393.13	1507.30
393.33	1481.56
393.52	1554.12
393.71	1528.37
393.91	1544.75
394.10	1521.35
394.29	1575.18
394.49	1643.06
394.68	1556.46
394.88	1647.74
395.07	1645.40
395.26	1617.31
395.46	1685.19
395.65	1746.04
395.84	1743.70
396.04	1792.85
396.23	1750.72
396.42	1743.70
396.62	1762.42
396.81	1755.40
397.00	1781.15
397.19	1806.89
397.39	1708.59
397.58	1802.21
397.77	1797.53
397.97	1865.41
398.16	1870.09
398.35	1937.96
398.55	1963.71
398.74	1937.96
398.93	1923.92
399.12	1893.49
399.32	1884.13
399.51	1846.68
399.70	1940.30
399.90	1940.30
400.09	2115.84
400.28	2043.29
400.47	1952.01
400.67	2001.16
400.86	2008.18
401.05	1994.14
401.24	2162.66
401.44	2211.81
401.63	2118.18
401.82	2181.38
402.01	2019.88
402.21	2165.00
402.40	2165.00
402.59	2253.94
402.78	2172.02
402.97	2179.04
403.17	2237.55
403.36	2279.68
403.55	2303.09
403.74	2321.81
403.93	2363.94
404.13	2401.39
404.32	2380.32
404.51	2356.92
404.70	2509.05
404.89	2265.64
405.09	2537.14
405.28	2406.07
405.47	2530.12
405.66	2495.01
405.85	2530.12
406.05	2483.31
406.24	2485.65
406.43	2595.65
406.62	2590.97
406.81	2506.71
407.00	2595.65
407.20	2473.95
407.39	2698.64
407.58	2682.25
407.77	2684.59
407.96	2761.83
408.15	2661.19
408.34	2686.94
408.54	2857.79
408.73	2850.77
408.92	2801.62
409.11	2932.69
409.30	3019.29
409.49	2885.88
409.68	2778.22
409.87	3021.63
410.07	2850.77
410.26	2930.35
410.45	2953.76
410.64	2944.39
410.83	3117.59
411.02	3124.62
411.21	3227.60
411.40	3286.11
411.59	3337.60
411.78	3141.00
411.98	3152.70
412.17	3059.08
412.36	3351.65
412.55	3241.64
412.74	3454.63
412.93	3424.20
413.12	3328.24
413.31	3520.17
413.50	3382.07
413.69	3510.80
413.88	3463.99
414.07	3552.93
414.26	3534.21
414.45	3583.36
414.64	3723.79
414.83	3758.90
415.02	3775.28
415.22	3794.01
415.41	3915.72
415.60	3990.61
415.79	3969.55
415.98	3889.97
416.17	4009.34
416.36	4053.81
416.55	3964.87
416.74	4032.74
416.93	4100.62
417.12	4203.60
417.31	4109.98
417.50	4231.69
417.69	4381.48
417.88	4266.80
418.07	4243.39
418.26	4266.80
418.45	4339.35
418.64	4435.32
418.83	4524.26
419.02	4337.01
419.21	4402.55
419.39	4470.42
419.58	4477.44
419.77	4500.85
419.96	4486.81
420.15	4599.15
420.34	4500.85
420.53	4447.02
420.72	4746.61
420.91	4636.60
421.10	4793.42
421.29	4865.97
421.48	4674.05
421.67	4723.20
421.86	4784.06
422.05	4896.40
422.24	4861.29
422.43	4870.65
422.61	4814.48
422.80	4880.02
422.99	4826.18
423.18	5032.15
423.37	5097.69
423.56	5172.58
423.75	5013.43
423.94	4835.55
424.13	4578.09
424.32	4645.96
424.50	4915.12
424.69	5081.30
424.88	5081.30
425.07	4971.30
425.26	4802.78
425.45	4952.57
425.64	4835.55
425.83	4959.60
426.01	5060.24
426.20	5022.79
426.39	4968.96
426.58	5029.81
426.77	4898.74
426.96	5177.26
427.15	5104.71
427.33	5193.65
427.52	5205.35
427.71	5294.29
427.90	5142.16
428.09	5167.90
428.28	5254.50
428.46	5172.58
428.65	5235.78
428.84	5413.66
429.03	5551.75
429.22	5238.12
429.40	5334.08
429.59	5350.46
429.78	5383.23
429.97	5135.14
430.16	5406.64
430.34	5530.69
430.53	5689.84
430.72	5596.22
430.91	5535.37
431.10	5610.26
431.28	5619.63
431.47	5926.24
431.66	5785.80
431.85	5706.23
432.03	5834.96
432.22	5900.49
432.41	5926.24
432.60	5935.60
432.79	6005.81
432.97	5823.25
433.16	6080.71
433.35	5989.43
433.54	6087.73
433.72	6136.88
433.91	5975.39
434.10	6169.65
434.28	6001.13
434.47	6291.36
434.66	6104.12
434.85	6256.25
435.03	6396.68
435.22	6441.15
435.41	6635.42
435.59	6338.17
435.78	6340.51
435.97	6394.34
436.16	6476.26
436.34	6209.44
436.53	6457.54
436.72	6642.44
436.90	6401.37
437.09	6590.95
437.28	6438.81
437.46	6518.39
437.65	6567.54
437.84	6846.07
438.02	6815.64
438.21	6668.19
438.40	6665.85
438.58	6911.60
438.77	6972.46
438.96	6820.32
439.14	7084.80
439.33	7330.56
439.52	7246.30
439.70	7169.06
439.89	7433.54
440.08	7363.33
440.26	7211.19
440.45	7499.08
440.63	7459.29
440.82	7557.59
441.01	7494.40
441.19	7515.46
441.38	7485.03
441.57	7784.62
441.75	7648.87
441.94	7929.74
442.12	7777.60
442.31	8002.29
442.50	7882.92
442.68	8044.42
442.87	8067.83
443.05	8187.19
443.24	8191.88
443.43	8187.19
443.61	8163.79
443.80	8266.77
443.98	7953.14
444.17	7845.48
444.35	8212.94
444.54	8276.13
444.73	8276.13
444.91	8166.13
445.10	8430.61
445.28	8177.83
445.47	8065.49
445.65	8461.04
445.84	8484.44
446.02	8362.73
446.21	8517.21
446.39	8226.98
446.58	8430.61
446.77	8496.14
446.95	8053.78
447.14	8446.99
447.32	8428.27
447.51	8252.73
447.69	8430.61
447.88	8278.47
448.06	8489.12
448.25	8374.44
448.43	8580.40
448.62	8617.85
448.80	8486.78
448.99	8603.81
449.17	8697.43
449.36	8566.36
449.54	8849.57
449.73	8891.70
449.91	9170.22
450.10	8908.08
450.28	8919.78
450.46	9247.46
450.65	8987.66
450.83	8854.25
451.02	8954.89
451.20	9001.70
451.39	9210.01
451.57	9177.24
451.76	9085.96
451.94	9135.11
452.13	9195.96
452.31	9186.60
452.49	8945.53
452.68	9404.27
452.86	9376.19
453.05	9348.10
453.23	9224.05
453.42	9383.21
453.60	9423.00
453.78	9556.41
453.97	9383.21
454.15	9411.29
454.34	9296.61
454.52	9584.49
454.70	9558.75
454.89	9708.54
455.07	9650.03
455.26	9724.93
455.44	9664.07
455.62	9832.59
455.81	9863.02
455.99	10078.35
456.17	10223.46
456.36	9928.55
456.54	9966.00
456.73	10113.45
456.91	10270.27
457.09	10349.85
457.28	10448.15
457.46	10420.06
457.64	10335.81
457.83	10593.26
458.01	10223.46
458.19	10696.25
458.38	10562.84
458.56	10583.90
458.74	10661.14
458.93	10679.86
459.11	10794.55
459.29	10626.03
459.48	10607.31
459.66	10656.46
459.84	10773.49
460.03	10754.76
460.21	10916.26
460.39	10881.15
460.57	11030.94
460.76	11054.35
460.94	11112.86
461.12	10881.15
461.31	11030.94
461.49	11265.00
461.67	10958.39
461.85	11370.32
462.04	11169.04
462.22	11864.18
462.40	11564.59
462.59	11513.10
462.77	11108.18
462.95	11414.79
463.13	11513.10
463.32	11648.85
463.50	11604.38
463.68	11730.76
463.86	11817.36
464.05	11527.14
464.23	11611.40
464.41	11812.68
464.59	11515.44
464.78	12243.34
464.96	12025.67
465.14	11836.09
465.32	11925.03
465.50	12105.25
465.69	12079.50
465.87	12056.10
466.05	12065.46
466.23	12116.95
466.41	12084.19
466.60	12262.07
466.78	12042.06
466.96	12173.13
467.14	12255.04
467.32	12400.16
467.51	12212.92
467.69	12093.55
467.87	12571.02
468.05	12564.00
468.23	12409.52
468.41	12477.40
468.60	12444.63
468.78	12566.34
468.96	12578.04
469.14	12666.98
469.32	12702.09
469.50	12636.55
469.69	12961.89
469.87	13069.55
470.05	13149.13
470.23	12966.57
470.41	12975.93
470.59	13142.11
470.77	12858.90
470.95	13184.24
471.14	13504.89
471.32	12884.65
471.50	13577.45
471.68	13497.87
471.86	13699.16
472.04	13673.41
472.22	13771.71
472.40	13591.49
472.58	13909.80
472.77	13762.35
472.95	14281.95
473.13	14466.85
473.31	13853.63
473.49	14122.79
473.67	14113.43
473.85	14305.35
474.03	14464.51
474.21	14473.87
474.39	14391.95
474.57	14724.31
474.75	14883.47
474.93	15183.06
475.12	14759.42
475.30	14892.83
475.48	14785.16
475.66	14932.62
475.84	15016.88
476.02	15302.42
476.20	15337.53
476.38	15648.82
476.56	15829.04
476.74	15836.06
476.92	15810.32
477.10	15733.08
477.28	16194.17
477.46	16013.95
477.64	15840.75
477.82	16372.05
478.00	16840.15
478.18	16688.02
478.36	16844.84
478.54	17128.04
478.72	17116.34
478.90	17439.33
479.08	17481.46
479.26	17626.57
479.44	17666.36
479.62	17879.35
479.80	17680.41
479.98	17991.70
480.16	18438.74
480.34	18111.07
480.52	18459.81
480.70	18803.86
480.88	18232.77
481.06	18424.70
481.24	18920.89
481.41	18897.49
481.59	19377.30
481.77	19381.98
481.95	19215.80
482.13	19566.88
482.31	19489.64
482.49	20308.83
482.67	19953.07
482.85	20257.34
483.03	20669.27
483.21	20680.97
483.39	20912.69
483.57	20526.50
483.74	20807.36
483.92	21149.08
484.10	21139.72
484.28	21656.98
484.46	22120.40
484.64	22270.20
484.82	21872.31
485.00	22008.06
485.18	22595.53
485.35	22742.99
485.53	22838.95
485.71	22813.20
485.89	23356.21
486.07	23323.44
486.25	23269.61
486.43	23707.29
486.61	23821.97
486.78	24112.20
486.96	24168.37
487.14	24315.83
487.32	24615.41
487.50	24381.36
487.68	24638.82
487.85	24971.18
488.03	25263.74
488.21	25734.19
488.39	25715.47
488.57	25944.84
488.75	26017.40
488.92	26178.89
489.10	26307.62
489.28	26504.23
489.46	26944.25
489.64	26518.27
489.81	27435.76
489.99	27484.91
490.17	27445.12
490.35	27908.55
490.53	28130.90
490.70	28245.58
490.88	28393.04
491.06	28371.97
491.24	28582.62
491.41	29149.03
491.59	29350.32
491.77	29287.12
491.95	29156.05
492.13	29546.92
492.30	29727.14
492.48	29993.97
492.66	29965.88
492.84	30195.25
493.01	30466.75
493.19	30265.47
493.37	31058.91
493.54	30817.83
493.72	31171.25
493.90	31082.31
494.08	31599.57
494.25	31901.50
494.43	31772.77
494.61	32177.68
494.79	32084.06
494.96	32650.47
495.14	32926.66
495.32	32842.40
495.49	33237.95
495.67	32989.85
495.85	33284.76
496.02	33139.65
496.20	33614.77
496.38	33570.30
496.55	33895.64
496.73	34705.46
496.91	34401.19
497.09	34593.12
497.26	34721.85
497.44	34448.00
497.62	35342.09
497.79	35833.60
497.97	35154.85
498.14	35531.67
498.32	36222.13
498.50	35686.15
498.67	36517.04
498.85	36252.56
499.03	36781.52
499.20	36168.30
499.38	36774.50
499.56	36725.35
499.73	36863.44
499.91	37109.19
500.08	37071.75
500.26	37338.57
500.44	37282.39
500.61	37074.09
500.79	37518.79
500.97	37951.79
501.14	38036.05
501.32	38026.68
501.49	38080.52
501.67	38476.07
501.84	38497.13
502.02	38548.62
502.20	38663.31
502.37	39309.30
502.55	38747.57
502.72	39435.69
502.90	39463.77
503.07	39620.59
503.25	39339.72
503.43	39192.27
503.60	39854.64
503.78	39732.93
503.95	39978.69
504.13	40247.85
504.30	40673.83
504.48	40449.14
504.65	40425.73
504.83	41188.75
505.01	41195.77
505.18	40919.59
505.36	41481.31
505.53	41312.80
505.71	41418.12
505.88	41532.81
506.06	40783.83
506.23	41689.62
506.41	41553.87
506.58	42129.64
506.76	41588.98
506.93	42553.28
507.11	41968.15
507.28	42291.14
507.46	42279.44
507.63	42717.12
507.81	43044.79
507.98	42724.14
508.16	43047.13
508.33	43379.49
508.50	43365.45
508.68	43330.34
508.85	43681.42
509.03	43660.35
509.20	43552.69
509.38	43892.07
509.55	44289.96
509.73	43873.34
509.90	44322.72
510.08	44161.23
510.25	44657.42
510.42	44470.18
510.60	45233.19
510.77	44776.79
510.95	44992.12
511.12	44896.16
511.30	45125.53
511.47	44945.31
511.64	45432.14
511.82	45904.93
511.99	45116.17
512.17	45579.59
512.34	45645.13
512.51	45991.53
512.69	46361.33
512.86	46117.92
513.04	46096.85
513.21	46487.72
513.38	46160.05
513.56	46983.91
513.73	46632.83
513.90	46316.86
514.08	47072.85
514.25	47309.25
514.43	47178.18
514.60	47035.41
514.77	47157.11
514.95	47484.79
515.12	47421.59
515.29	47327.97
515.47	47896.72
515.64	47767.99
515.81	47634.58
515.99	47845.23
516.16	48053.54
516.33	47906.08
516.51	48409.30
516.68	48144.82
516.85	48409.30
517.03	48861.02
517.20	48474.84
517.37	48774.42
517.54	48790.81
517.72	48788.47
517.89	48725.27
518.06	49137.21
518.24	49013.16
518.41	49099.76
518.58	49076.35
518.75	48802.51
518.93	49256.57
519.10	49265.94
519.27	49570.21
519.45	49687.23
519.62	49916.61
519.79	49914.26
519.96	49918.95
520.14	50211.51
520.31	49673.19
520.48	50471.31
520.65	49963.42
520.83	50358.97
521.00	50419.82
521.17	50340.24
521.34	50604.72
521.52	50719.41
521.69	50604.72
521.86	50738.13
522.03	50913.67
522.20	51021.34
522.38	51414.55
522.55	51026.02
522.72	51140.71
522.89	51236.67
523.07	51447.32
523.24	51559.66
523.41	51592.43
523.58	51236.67
523.75	51562.00
523.92	51646.26
524.10	51594.77
524.27	51796.06
524.44	51948.19
524.61	51929.47
524.78	52107.35
524.96	51866.27
525.13	52062.88
525.30	52032.45
525.47	52273.52
525.64	52044.15
525.81	52289.91
525.98	52580.13
526.16	52287.57
526.33	52619.92
526.50	52790.78
526.67	52388.21
526.84	52711.20
527.01	52467.79
527.18	52694.82
527.36	52786.10
527.53	52884.40
527.70	53141.86
527.87	53195.70
528.04	52947.60
528.21	53081.01
528.38	53198.04
528.55	53488.26
528.72	53104.41
528.89	53422.73
529.07	53160.59
529.24	53474.22
529.41	53619.33
529.58	53495.28
529.75	53591.25
529.92	53703.59
530.09	53684.87
530.26	53832.32
530.43	53794.87
530.60	53710.61
530.77	53579.54
530.94	53860.41
531.11	53619.33
531.28	54012.54
531.46	53968.07
531.63	54218.51
531.80	53818.28
531.97	54384.69
532.14	54328.52
532.31	54309.79
532.48	54248.94
532.65	54309.79
532.82	54237.23
532.99	54356.60
533.16	54260.64
533.33	54408.09
533.50	54773.22
533.67	54534.48
533.84	54452.56
534.01	54691.30
534.18	54855.14
534.35	55070.46
534.52	54824.71
534.69	54810.67
534.86	55063.44
535.03	54738.11
535.20	54918.33
535.37	55091.53
535.54	55145.36
535.71	55231.96
535.88	55458.99
536.05	55236.64
536.22	55171.11
536.38	55709.43
536.55	55700.07
536.72	55667.30
536.89	55248.35
537.06	55501.12
537.23	55639.22
537.40	55332.60
537.57	55557.30
537.74	55489.42
537.91	55660.28
538.08	55784.33
538.25	55648.58
538.42	55569.00
538.59	55819.44
538.75	55718.79
538.92	55632.19
539.09	55959.87
539.26	56060.51
539.43	55873.27
539.60	56147.11
539.77	55987.95
539.94	56278.18
540.11	56069.87
540.28	56179.88
540.44	56313.29
540.61	56179.88
540.78	56285.20
540.95	56203.28
541.12	56397.55
541.29	56236.05
541.46	56172.86
541.62	56502.87
541.79	56615.22
541.96	56207.97
542.13	56353.08
542.30	56470.11
542.47	56699.48
542.63	56776.72
542.80	56638.62
542.97	57139.50
543.14	57132.48
543.31	57083.33
543.48	56949.92
543.64	57268.23
543.81	57361.85
543.98	57249.50
544.15	57228.44
544.32	57235.46
544.48	57401.64
544.65	57120.77
544.82	57148.86
544.99	57240.14
545.16	57340.78
545.32	57237.80
545.49	57602.92
545.66	57418.02
545.83	57509.30
546.00	57670.80
546.16	57635.69
546.33	57411.00
546.50	57354.83
546.67	57675.48
546.83	57181.63
547.00	57497.60
547.17	57415.68
547.34	57602.92
547.50	57806.55
547.67	58005.50
547.84	57935.28
548.00	57846.34
548.17	57916.56
548.34	58024.22
548.51	58064.01
548.67	57989.11
548.84	57998.48
549.01	57902.51
549.18	58232.53
549.34	58056.99
549.51	58134.23
549.68	58078.05
549.84	58185.72
550.01	58443.18
550.18	58321.47
550.34	58375.30
550.51	58497.01
550.68	58092.10
550.84	58195.08
551.01	58330.83
551.18	58241.89
551.34	58464.24
551.51	58351.90
551.68	58384.66
551.84	58351.90
552.01	58237.21
552.18	58595.31
552.34	58391.68
552.51	58445.52
552.68	58632.76
552.84	58513.39
553.01	58773.19
553.18	58693.61
553.34	58670.21
553.51	58665.53
553.67	58763.83
553.84	58717.02
554.01	58740.42
554.17	58787.24
554.34	58761.49
554.51	58981.50
554.67	58925.33
554.84	58878.52
555.00	58965.12
555.17	59037.67
555.33	58782.55
555.50	59187.47
555.67	58962.78
555.83	58745.11
556.00	58915.96
556.16	59386.41
556.33	59140.66
556.50	59112.57
556.66	59140.66
556.83	58693.61
556.99	59353.65
557.16	59505.78
557.32	59292.79
557.49	59508.12
557.65	59302.15
557.82	59234.28
557.98	59210.87
558.15	59187.47
558.32	59250.66
558.48	59234.28
558.65	59318.54
558.81	59409.82
558.98	59501.10
559.14	59299.81
559.31	59519.82
559.47	59470.67
559.64	59627.49
559.80	59510.46
559.97	59772.60
560.13	59671.96
560.30	59627.49
560.46	59522.16
560.63	59646.21
560.79	59686.00
560.96	59976.23
561.12	59686.00
561.29	59763.24
561.45	59711.75
561.61	59805.37
561.78	59508.12
561.94	59590.04
562.11	59667.28
562.27	59711.75
562.44	59908.35
562.60	60165.81
562.77	59980.91
562.93	59777.28
563.10	60095.60
563.26	59760.90
563.42	60060.49
563.59	59821.75
563.75	59711.75
563.92	60046.44
564.08	59875.58
564.24	59880.27
564.41	60086.23
564.57	59828.77
564.74	59901.33
564.90	59971.55
565.07	60133.04
565.23	59887.29
565.39	60121.34
565.56	60053.47
565.72	59943.46
565.88	60116.66
566.05	60100.28
566.21	60037.08
566.38	60231.35
566.54	59943.46
566.70	60165.81
566.87	60376.46
567.03	60006.65
567.19	60278.16
567.36	60126.02
567.52	60172.83
567.68	60451.36
567.85	60161.13
568.01	60381.14
568.17	60140.07
568.34	60308.58
568.50	60210.28
568.66	60273.48
568.83	60334.33
568.99	60193.90
569.15	60233.69
569.32	60425.61
569.48	60367.10
569.64	60439.65
569.81	60364.76
569.97	60369.44
570.13	60268.79
570.30	60257.09
570.46	60170.49
570.62	60381.14
570.78	60465.40
570.95	60392.84
571.11	60505.19
571.27	60353.05
571.43	60470.08
571.60	60647.96
571.76	60477.10
571.92	60439.65
572.09	60446.68
572.25	60430.29
572.41	60346.03
572.57	60484.12
572.74	60552.00
572.90	60376.46
573.06	60526.25
573.22	60472.42
573.38	60610.51
573.55	60446.68
573.71	60814.14
573.87	60481.78
574.03	60406.89
574.20	60451.36
574.36	60376.46
574.52	60631.58
574.68	60624.56
574.84	60544.98
575.01	60500.51
575.17	60542.64
575.33	60563.70
575.49	60552.00
575.65	60807.12
575.82	60711.16
575.98	60640.94
576.14	60793.07
576.30	60828.18
576.46	60580.09
576.62	60556.68
576.79	60636.26
576.95	60467.74
577.11	60685.41
577.27	60591.79
577.43	60470.08
577.59	60521.57
577.75	60495.83
577.92	60449.02
578.08	60685.41
578.24	60694.77
578.40	60779.03
578.56	60851.59
578.72	60697.11
578.88	60839.89
579.04	60931.17
579.21	60694.77
579.37	60977.98
579.53	60804.78
579.69	60718.18
579.85	60659.66
580.01	60601.15
580.17	60453.70
580.33	60860.95
580.49	60830.52
580.65	60814.14
580.82	60556.68
580.98	60828.18
581.14	60652.64
581.30	60757.97
581.46	60741.58
581.62	60872.65
581.78	60739.24
581.94	60821.16
582.10	60624.56
582.26	60575.40
582.42	60774.35
582.58	60830.52
582.74	60736.90
582.90	60931.17
583.06	60795.42
583.22	60559.02
583.38	60739.24
583.54	60912.44
583.70	60741.58
583.86	60982.66
584.02	60828.18
584.18	60959.25
584.34	60793.07
584.50	60715.84
584.66	61008.40
584.82	60647.96
584.98	61176.92
585.14	60903.08
585.30	60708.82
585.46	60622.22
585.62	60942.87
585.78	61090.32
585.94	60732.22
586.10	61003.72
586.26	60863.29
586.42	60842.23
586.58	61069.26
586.74	61043.51
586.90	60809.46
587.06	60905.42
587.22	61031.81
587.38	61055.21
587.54	60968.61
587.70	61071.60
587.86	61034.15
588.02	60743.92
588.18	61148.84
588.34	60987.34
588.49	61155.86
