SpectraSuite Data File
++++++++++++++++++++++++++++++++++++
Date: Fri Oct 25 10:43:26 EDT 2013
User: price-jones
Dark Spectrum Present: No
Reference Spectrum Present: No
Number of Sampled Component Spectra: 1
Spectrometers: USB2+H05261
Integration Time (usec): 100000 (USB2+H05261)
Spectra Averaged: 1 (USB2+H05261)
Boxcar Smoothing: 0 (USB2+H05261)
Correct for Electrical Dark: No (USB2+H05261)
Strobe/Lamp Enabled: No (USB2+H05261)
Correct for Detector Non-linearity: No (USB2+H05261)
Correct for Stray Light: No (USB2+H05261)
Number of Pixels in Processed Spectrum: 2048
>>>>>Begin Processed Spectral Data<<<<<
365.73	133.41
365.92	133.41
366.12	133.41
366.32	9.36
366.52	0.00
366.72	49.15
366.91	37.45
367.11	32.77
367.31	25.75
367.51	0.00
367.70	0.00
367.90	0.00
368.10	0.00
368.30	63.19
368.49	18.72
368.69	95.96
368.89	0.00
369.09	49.15
369.28	67.88
369.48	9.36
369.68	105.32
369.87	79.58
370.07	161.50
370.27	91.28
370.47	161.50
370.66	390.87
370.86	351.08
371.06	486.83
371.25	517.26
371.45	435.34
371.65	573.43
371.84	442.36
372.04	435.34
372.24	484.49
372.44	414.27
372.63	543.00
372.83	458.74
373.03	510.24
373.22	491.51
373.42	521.94
373.62	512.58
373.81	440.02
374.01	552.37
374.21	559.39
374.40	606.20
374.60	517.26
374.79	575.77
374.99	557.05
375.19	603.86
375.38	547.69
375.58	566.41
375.78	599.18
375.97	617.90
376.17	592.16
376.37	657.69
376.56	557.05
376.76	585.13
376.95	573.43
377.15	571.09
377.35	571.09
377.54	711.52
377.74	678.76
377.93	653.01
378.13	606.20
378.33	692.80
378.52	692.80
378.72	748.97
378.91	662.37
379.11	664.71
379.31	653.01
379.50	631.94
379.70	638.97
379.89	744.29
380.09	702.16
380.28	615.56
380.48	643.65
380.68	697.48
380.87	732.59
381.07	653.01
381.26	627.26
381.46	720.88
381.65	671.73
381.85	622.58
382.04	660.03
382.24	699.82
382.43	716.20
382.63	671.73
382.83	615.56
383.02	739.61
383.22	716.20
383.41	727.91
383.61	697.48
383.80	753.65
384.00	793.44
384.19	840.25
384.39	758.33
384.58	774.72
384.78	856.64
384.97	772.38
385.17	709.18
385.36	791.10
385.56	849.61
385.75	772.38
385.95	823.87
386.14	809.83
386.34	847.27
386.53	875.36
386.72	786.42
386.92	837.91
387.11	894.08
387.31	830.89
387.50	732.59
387.70	844.93
387.89	870.68
388.09	887.06
388.28	961.96
388.48	978.34
388.67	851.96
388.86	863.66
389.06	903.45
389.25	1011.11
389.45	992.39
389.64	1036.86
389.84	999.41
390.03	908.13
390.22	1008.77
390.42	1057.92
390.61	1015.79
390.81	968.98
391.00	978.34
391.19	1121.12
391.39	1055.58
391.58	1043.88
391.78	1015.79
391.97	1034.52
392.16	1076.65
392.36	1018.13
392.55	1018.13
392.75	929.19
392.94	980.68
393.13	994.73
393.33	947.92
393.52	985.37
393.71	1102.39
393.91	1109.41
394.10	1139.84
394.29	1128.14
394.49	1128.14
394.68	1158.57
394.88	1132.82
395.07	1270.91
395.26	1121.12
395.46	1207.72
395.65	1198.35
395.84	1200.69
396.04	1263.89
396.23	1210.06
396.42	1156.22
396.62	1151.54
396.81	1177.29
397.00	1238.14
397.19	1245.16
397.39	1252.19
397.58	1390.28
397.77	1418.36
397.97	1378.58
398.16	1362.19
398.35	1327.08
398.55	1406.66
398.74	1324.74
398.93	1507.30
399.12	1434.75
399.32	1406.66
399.51	1476.88
399.70	1558.80
399.90	1528.37
400.09	1521.35
400.28	1624.33
400.47	1554.12
400.67	1610.29
400.86	1664.12
401.05	1746.04
401.24	1643.06
401.44	1659.44
401.63	1664.12
401.82	1673.48
402.01	1614.97
402.21	1657.10
402.40	1741.36
402.59	1654.76
402.78	1579.86
402.97	1687.53
403.17	1736.68
403.36	1739.02
403.55	1778.81
403.74	1886.47
403.93	1823.28
404.13	1849.02
404.32	1776.47
404.51	1809.23
404.70	1839.66
404.89	1760.08
405.09	1970.73
405.28	1933.28
405.47	1872.43
405.66	1933.28
405.85	1940.30
406.05	1937.96
406.24	2012.86
406.43	1994.14
406.62	2064.35
406.81	2052.65
407.00	2047.97
407.20	1994.14
407.39	2073.71
407.58	2090.10
407.77	2099.46
407.96	2153.29
408.15	2127.55
408.34	2118.18
408.54	2097.12
408.73	2267.98
408.92	2221.17
409.11	2183.72
409.30	2172.02
409.49	2338.20
409.68	2342.88
409.87	2200.10
410.07	2324.15
410.26	2284.36
410.45	2338.20
410.64	2317.13
410.83	2450.54
411.02	2497.35
411.21	2457.56
411.40	2532.46
411.59	2485.65
411.78	2513.74
411.98	2546.50
412.17	2644.81
412.36	2605.02
412.55	2665.87
412.74	2583.95
412.93	2771.19
413.12	2621.40
413.31	2827.37
413.50	2717.36
413.69	2672.89
413.88	2761.83
414.07	2881.20
414.26	2867.16
414.45	2731.41
414.64	2860.13
414.83	3061.42
415.02	2883.54
415.22	2958.44
415.41	3068.44
415.60	3005.25
415.79	3019.29
415.98	3218.24
416.17	3157.38
416.36	2993.55
416.55	3138.66
416.74	3162.06
416.93	3208.87
417.12	3171.43
417.31	3246.32
417.50	3220.58
417.69	3220.58
417.88	3391.44
418.07	3187.81
418.26	3215.90
418.45	3400.80
418.64	3543.57
418.83	3503.78
419.02	3426.54
419.21	3513.14
419.39	3332.92
419.58	3517.83
419.77	3379.73
419.96	3440.59
420.15	3391.44
420.34	3686.34
420.53	3651.24
420.72	3644.21
420.91	3686.34
421.10	3637.19
421.29	3751.88
421.48	3651.24
421.67	3770.60
421.86	3658.26
422.05	3761.24
422.24	3684.00
422.43	3693.37
422.61	3768.26
422.80	3939.12
422.99	3836.14
423.18	3742.52
423.37	3885.29
423.56	3847.84
423.75	3932.10
423.94	3728.47
424.13	3552.93
424.32	3681.66
424.50	3815.07
424.69	3901.67
424.88	4121.68
425.07	3925.08
425.26	3913.38
425.45	3822.09
425.64	3847.84
425.83	3789.33
426.01	3969.55
426.20	3873.59
426.39	3822.09
426.58	3803.37
426.77	3857.20
426.96	3845.50
427.15	3812.73
427.33	3985.93
427.52	3920.40
427.71	3971.89
427.90	4079.55
428.09	4060.83
428.28	4138.07
428.46	4133.39
428.65	4131.05
428.84	4126.36
429.03	4079.55
429.22	4088.92
429.40	4077.21
429.59	4016.36
429.78	3915.72
429.97	3889.97
430.16	3859.54
430.34	4142.75
430.53	3999.98
430.72	4070.19
430.91	4077.21
431.10	4205.94
431.28	4283.18
431.47	4690.43
431.66	4564.04
431.85	4365.10
432.03	4603.83
432.22	4505.53
432.41	4477.44
432.60	4526.60
432.79	4697.46
432.97	4739.58
433.16	4594.47
433.35	4465.74
433.54	4648.30
433.72	4535.96
433.91	4564.04
434.10	4643.62
434.28	4711.50
434.47	4652.98
434.66	4877.68
434.85	4861.29
435.03	4833.21
435.22	4945.55
435.41	5015.77
435.59	4919.81
435.78	4966.62
435.97	5174.92
436.16	5071.94
436.34	5142.16
436.53	4919.81
436.72	5060.24
436.90	4814.48
437.09	5062.58
437.28	5062.58
437.46	4854.27
437.65	5034.49
437.84	5195.99
438.02	4980.66
438.21	5125.77
438.40	4994.70
438.58	5132.79
438.77	5277.91
438.96	5198.33
439.14	5497.92
439.33	5437.06
439.52	5451.11
439.70	5535.37
439.89	5495.58
440.08	5474.51
440.26	5654.73
440.45	5596.22
440.63	5722.61
440.82	5741.33
441.01	5750.70
441.19	5933.26
441.38	6099.44
441.57	5930.92
441.75	6005.81
441.94	6141.57
442.12	6171.99
442.31	6242.21
442.50	6057.31
442.68	6106.46
442.87	6202.42
443.05	6209.44
443.24	6406.05
443.43	6146.25
443.61	6338.17
443.80	6497.33
443.98	6197.74
444.17	6071.35
444.35	6115.82
444.54	6274.98
444.73	6483.28
444.91	6377.96
445.10	6487.96
445.28	6223.48
445.47	6214.12
445.65	6122.84
445.84	6291.36
446.02	6527.75
446.21	6384.98
446.39	6317.11
446.58	6551.16
446.77	6431.79
446.95	6352.21
447.14	6527.75
447.32	6642.44
447.51	6628.40
447.69	6459.88
447.88	6413.07
448.06	6569.88
448.25	6462.22
448.43	6457.54
448.62	6612.01
448.80	6527.75
448.99	6588.61
449.17	6752.45
449.36	6693.93
449.54	6960.75
449.73	6932.67
449.91	6906.92
450.10	6839.05
450.28	7115.23
450.46	6979.48
450.65	7220.55
450.83	7030.97
451.02	6981.82
451.20	7145.66
451.39	7012.24
451.57	6944.37
451.76	7007.56
451.94	7129.27
452.13	7045.01
452.31	7028.63
452.49	7042.67
452.68	7005.22
452.86	6911.60
453.05	7166.72
453.23	7325.88
453.42	7140.97
453.60	7178.42
453.78	7339.92
453.97	7173.74
454.15	7325.88
454.34	7213.53
454.52	7400.77
454.70	7300.13
454.89	7356.30
455.07	7449.93
455.26	7475.67
455.44	7456.95
455.62	7435.88
455.81	7545.89
455.99	7538.87
456.17	7531.84
456.36	7714.41
456.54	7721.43
456.73	7611.42
456.91	7932.08
457.09	7817.39
457.28	8152.09
457.46	7847.82
457.64	7957.82
457.83	7934.42
458.01	7875.90
458.19	8004.63
458.38	7929.74
458.56	8100.59
458.74	8142.72
458.93	7999.95
459.11	8077.19
459.29	7845.48
459.48	8053.78
459.66	8194.22
459.84	8191.88
460.03	8360.39
460.21	8315.92
460.39	8465.72
460.57	8311.24
460.76	8407.20
460.94	8407.20
461.12	8435.29
461.31	8594.45
461.49	8400.18
461.67	8428.27
461.85	8746.58
462.04	8589.77
462.22	8908.08
462.40	8739.56
462.59	8706.79
462.77	8734.88
462.95	8875.31
463.13	8678.71
463.32	8690.41
463.50	8608.49
463.68	8760.63
463.86	8753.60
464.05	8706.79
464.23	8622.53
464.41	8737.22
464.59	8456.36
464.78	9083.62
464.96	9121.07
465.14	8985.32
465.32	9149.15
465.50	8922.12
465.69	8954.89
465.87	9153.84
466.05	8891.70
466.23	9025.11
466.41	8889.35
466.60	9212.35
466.78	9200.65
466.96	9039.15
467.14	8936.17
467.32	9011.06
467.51	9249.80
467.69	9146.81
467.87	9046.17
468.05	9142.13
468.23	9256.82
468.41	9095.32
468.60	9111.71
468.78	9357.46
468.96	9247.46
469.14	9500.23
469.32	9619.60
469.50	9415.98
469.69	9423.00
469.87	9736.63
470.05	9729.61
470.23	9596.20
470.41	9502.58
470.59	9727.27
470.77	9542.36
470.95	9799.82
471.14	9804.50
471.32	9657.05
471.50	10113.45
471.68	10043.24
471.86	10216.44
472.04	10099.41
472.22	10520.71
472.40	10038.56
472.58	10125.16
472.77	10558.16
472.95	10314.74
473.13	10555.82
473.31	10258.57
473.49	10162.61
473.67	10345.17
473.85	10373.25
474.03	10874.13
474.21	10700.93
474.39	10773.49
474.57	10675.18
474.75	10778.17
474.93	10778.17
475.12	10768.80
475.30	10939.66
475.48	10810.93
475.66	11030.94
475.84	11066.05
476.02	11023.92
476.20	11253.30
476.38	11470.97
476.56	11667.57
476.74	11616.08
476.92	11513.10
477.10	11442.88
477.28	11936.73
477.46	11784.60
477.64	11798.64
477.82	12184.83
478.00	12322.92
478.18	12046.74
478.36	12128.66
478.54	12580.38
478.72	12444.63
478.90	12531.23
479.08	12814.43
479.26	12748.90
479.44	12730.17
479.62	12812.09
479.80	12863.58
479.98	13163.17
480.16	13296.58
480.34	13160.83
480.52	13235.73
480.70	13727.24
480.88	13305.95
481.06	13411.27
481.24	13687.45
481.41	13895.76
481.59	14113.43
481.77	14005.77
481.95	14143.86
482.13	13818.52
482.31	14253.86
482.49	14628.35
482.67	14221.10
482.85	14569.83
483.03	14745.38
483.21	14939.64
483.39	15143.27
483.57	14876.44
483.74	15279.02
483.92	15208.80
484.10	15323.49
484.28	15440.51
484.46	15772.87
484.64	16079.48
484.82	15754.15
485.00	15971.82
485.18	16065.44
485.35	16112.25
485.53	15854.79
485.71	15882.88
485.89	15779.89
486.07	16079.48
486.25	16400.13
486.43	16475.03
486.61	16643.55
486.78	16961.86
486.96	16968.88
487.14	17158.47
487.32	17413.59
487.50	17731.90
487.68	17860.63
487.85	17809.14
488.03	18115.75
488.21	18270.22
488.39	18090.00
488.57	18663.43
488.75	18630.66
488.92	18806.20
489.10	18843.65
489.28	18967.70
489.46	19417.08
489.64	19255.59
489.81	19922.64
489.99	19672.20
490.17	19910.94
490.35	19695.61
490.53	19908.60
490.70	20386.07
490.88	20133.29
491.06	20456.28
491.24	20271.38
491.41	20175.42
491.59	20416.49
491.77	20133.29
491.95	20568.63
492.13	20840.13
492.30	20767.57
492.48	21149.08
492.66	21266.11
492.84	21458.03
493.01	21666.34
493.19	21521.23
493.37	21785.71
493.54	21745.92
493.72	22155.51
493.90	21989.33
494.08	22410.63
494.25	22403.61
494.43	22831.93
494.61	22518.29
494.79	23168.96
494.96	23028.53
495.14	22820.22
495.32	23171.30
495.49	23337.48
495.67	23351.52
495.85	23690.90
496.02	23686.22
496.20	23744.73
496.38	24063.05
496.55	24020.92
496.73	24367.32
496.91	24212.84
497.09	24500.73
497.26	24790.95
497.44	24477.32
497.62	24746.48
497.79	24865.85
497.97	24596.69
498.14	25102.25
498.32	25156.08
498.50	24952.45
498.67	25228.63
498.85	25694.40
499.03	25933.14
499.20	25518.86
499.38	26003.35
499.56	25956.54
499.73	25649.93
499.91	25631.21
500.08	25806.75
500.26	26251.45
500.44	26197.62
500.61	26150.81
500.79	26143.78
500.97	26230.38
501.14	26588.49
501.32	26506.57
501.49	26728.92
501.67	26745.30
501.84	26838.92
502.02	26974.67
502.20	27007.44
502.37	27243.84
502.55	27030.85
502.72	27496.61
502.90	27721.30
503.07	27644.07
503.25	27583.21
503.43	27222.77
503.60	27470.87
503.78	27742.37
503.95	27623.00
504.13	27800.88
504.30	27716.62
504.48	28500.70
504.65	28194.09
504.83	28442.19
505.01	28268.99
505.18	28276.01
505.36	28804.97
505.53	28907.96
505.71	28826.04
505.88	29142.01
506.06	28961.79
506.23	29219.25
506.41	29102.22
506.58	29167.76
506.76	29645.23
506.93	29406.49
507.11	29235.63
507.28	29315.21
507.46	29242.65
507.63	29507.13
507.81	29628.84
507.98	29600.76
508.16	30000.99
508.33	30183.55
508.50	30382.49
508.68	30412.92
508.85	30703.15
509.03	30129.72
509.20	30354.41
509.38	30668.04
509.55	30740.60
509.73	30663.36
509.90	30817.83
510.08	30677.40
510.25	30691.44
510.42	31232.11
510.60	30960.61
510.77	31463.82
510.95	31166.57
511.12	31622.98
511.30	31393.61
511.47	31728.30
511.64	31541.06
511.82	31782.13
511.99	32030.23
512.17	31821.92
512.34	31826.60
512.51	31728.30
512.69	32385.99
512.86	31683.83
513.04	32446.85
513.21	32189.39
513.38	32025.55
513.56	31910.86
513.73	32002.14
513.90	32463.23
514.08	32566.21
514.25	32711.33
514.43	32425.78
514.60	32355.57
514.77	32655.15
514.95	32968.79
515.12	32954.74
515.29	32907.93
515.47	33450.94
515.64	33228.59
515.81	33362.00
515.99	33202.84
516.16	32959.42
516.33	32872.82
516.51	33603.07
516.68	32739.41
516.85	33172.41
517.03	33291.78
517.20	33738.82
517.37	33750.52
517.54	34099.26
517.72	33893.30
517.89	33294.12
518.06	33593.71
518.24	33570.30
518.41	33916.70
518.58	34162.46
518.75	33993.94
518.93	34010.32
519.10	34005.64
519.27	34377.79
519.45	34766.32
519.62	34916.11
519.79	34749.93
519.96	35084.63
520.14	34668.02
520.31	34448.00
520.48	35274.21
520.65	34464.39
520.83	35136.12
521.00	34995.69
521.17	34955.90
521.34	35299.96
521.52	35765.73
521.69	35243.79
521.86	35438.05
522.03	35739.98
522.20	35665.08
522.38	35936.59
522.55	35796.15
522.72	35800.83
522.89	35585.50
523.07	36278.30
523.24	35651.04
523.41	36439.80
523.58	35805.52
523.75	36952.38
523.92	36723.01
524.10	36835.35
524.27	36706.62
524.44	36271.28
524.61	36582.57
524.78	36556.83
524.96	37172.39
525.13	37048.34
525.30	36872.80
525.47	37057.70
525.64	36737.05
525.81	37029.62
525.98	37020.25
526.16	36797.90
526.33	36570.87
526.50	36643.43
526.67	36779.18
526.84	36858.76
527.01	36933.65
527.18	37399.42
527.36	37368.99
527.53	37982.21
527.70	38099.24
527.87	37455.59
528.04	37195.79
528.21	37626.45
528.38	37565.60
528.55	38167.12
528.72	38253.72
528.89	38398.83
529.07	38433.94
529.24	37893.27
529.41	38073.49
529.58	38300.53
529.75	38012.64
529.92	38321.59
530.09	38476.07
530.26	38866.94
530.43	38431.60
530.60	38415.21
530.77	38494.79
530.94	39065.88
531.11	38586.07
531.28	38745.23
531.46	38621.18
531.63	38686.71
531.80	38808.42
531.97	39063.54
532.14	38181.16
532.31	38815.44
532.48	38787.36
532.65	39393.56
532.82	38796.72
532.99	39697.83
533.16	39503.56
533.33	39580.80
533.50	39250.78
533.67	39016.73
533.84	39175.89
534.01	39548.03
534.18	39133.76
534.35	40020.82
534.52	39367.81
534.69	39903.79
534.86	39838.26
535.03	39796.13
535.20	39533.99
535.37	39981.03
535.54	40556.80
535.71	40416.37
535.88	40236.15
536.05	40011.46
536.22	40392.97
536.38	40758.09
536.55	39901.45
536.72	40526.38
536.89	40009.12
537.06	40158.91
537.23	40694.89
537.40	40435.10
537.57	40341.47
537.74	40746.39
537.91	41003.85
538.08	40491.27
538.25	40559.14
538.42	40783.83
538.59	40570.85
538.75	40566.16
538.92	40961.72
539.09	40435.10
539.26	40884.48
539.43	40755.75
539.60	40521.69
539.77	40683.19
539.94	40615.32
540.11	40327.43
540.28	41422.80
540.44	40865.75
540.61	40919.59
540.78	40556.80
540.95	40779.15
541.12	41095.13
541.29	40926.61
541.46	41258.96
541.62	41420.46
541.79	41373.65
541.96	41020.23
542.13	41020.23
542.30	41219.17
542.47	41698.98
542.63	41504.72
542.80	41883.89
542.97	41958.78
543.14	41762.18
543.31	41956.44
543.48	41394.71
543.64	42251.35
543.81	42085.17
543.98	42246.67
544.15	42057.09
544.32	42291.14
544.48	42396.46
544.65	42344.97
544.82	42155.39
544.99	41694.30
545.16	42256.03
545.32	42106.24
545.49	42822.44
545.66	42789.67
545.83	42450.30
546.00	42780.31
546.16	42312.20
546.33	42487.74
546.50	42429.23
546.67	42618.81
546.83	42230.29
547.00	42071.13
547.17	42548.60
547.34	42316.89
547.50	42525.19
547.67	43005.00
547.84	42710.10
548.00	42986.28
548.17	43440.34
548.34	43089.26
548.51	43552.69
548.67	43068.20
548.84	43241.40
549.01	43047.13
549.18	43405.23
549.34	43175.86
549.51	43072.88
549.68	43620.56
549.84	43482.47
550.01	43225.01
550.18	43107.99
550.34	43599.50
550.51	43063.52
550.68	43180.54
550.84	42628.18
551.01	43349.06
551.18	43452.05
551.34	43140.75
551.51	43702.48
551.68	43889.73
551.84	43419.28
552.01	43522.26
552.18	43274.16
552.34	43606.52
552.51	43735.25
552.68	43379.49
552.84	43768.02
553.01	43725.89
553.18	43580.78
553.34	43620.56
553.51	43889.73
553.67	43583.12
553.84	44165.91
554.01	44175.27
554.17	44163.57
554.34	44189.31
554.51	44217.40
554.67	44123.78
554.84	44217.40
555.00	43538.65
555.17	43784.40
555.33	44334.43
555.50	43962.28
555.67	43732.91
555.83	44414.01
556.00	44093.35
556.16	44388.26
556.33	44191.65
556.50	44418.69
556.66	44191.65
556.83	43964.62
556.99	44280.60
557.16	44566.14
557.32	44561.46
557.49	44767.43
557.65	44179.95
557.82	44648.06
557.98	44357.83
558.15	44928.92
558.32	44521.67
558.48	44634.02
558.65	44783.81
558.81	44566.14
558.98	44554.44
559.14	44161.23
559.31	44538.05
559.47	44662.10
559.64	44584.86
559.80	44737.00
559.97	44591.89
560.13	44779.13
560.30	44509.97
560.46	44545.08
560.63	44645.72
560.79	44818.92
560.96	45144.25
561.12	44830.62
561.29	44638.70
561.45	44847.00
561.61	44725.30
561.78	44889.13
561.94	44423.37
562.11	44395.28
562.27	44758.06
562.44	44898.50
562.60	44938.29
562.77	45062.33
562.93	44994.46
563.10	45038.93
563.26	44411.67
563.42	45202.77
563.59	44734.66
563.75	44872.75
563.92	45144.25
564.08	45071.70
564.24	45483.63
564.41	45247.24
564.57	45006.16
564.74	45371.28
564.90	45048.29
565.07	45088.08
565.23	44921.90
565.39	45057.65
565.56	44842.32
565.72	45366.60
565.88	45076.38
566.05	44837.64
566.21	45155.96
566.38	44905.52
566.54	44975.73
566.70	45305.75
566.87	46050.04
567.03	45265.96
567.19	45631.08
567.36	45427.46
567.52	45406.39
567.68	45364.26
567.85	45326.81
568.01	45265.96
568.17	45069.36
568.34	45619.38
568.50	45003.82
568.66	45067.02
568.83	45343.20
568.99	44938.29
569.15	45132.55
569.32	45392.35
569.48	45237.87
569.64	45834.71
569.81	45097.44
569.97	45549.17
570.13	45687.26
570.30	44765.09
570.46	45048.29
570.62	44877.43
570.78	44573.16
570.95	44650.40
571.11	45460.23
571.27	45132.55
571.43	45055.31
571.60	45497.67
571.76	45118.51
571.92	45380.65
572.09	45530.44
572.25	45844.07
572.41	45492.99
572.57	45656.83
572.74	45717.68
572.90	45134.89
573.06	45525.76
573.22	45511.72
573.38	45944.72
573.55	45429.80
573.71	45457.88
573.87	45551.51
574.03	45549.17
574.20	45380.65
574.36	45464.91
574.52	45586.61
574.68	45399.37
574.84	45340.86
575.01	45177.02
575.17	45443.84
575.33	45528.10
575.49	45272.98
575.65	45769.18
575.82	45441.50
575.98	45083.40
576.14	45474.27
576.30	45663.85
576.46	45235.53
576.62	45081.06
576.79	45296.39
576.95	45478.95
577.11	45462.57
577.27	45354.90
577.43	45471.93
577.59	45713.00
577.75	45127.87
577.92	45095.10
578.08	45003.82
578.24	45249.58
578.40	45439.16
578.56	45436.82
578.72	45640.45
578.88	45886.20
579.04	45738.75
579.21	45530.44
579.37	45221.49
579.53	45553.85
579.69	45296.39
579.85	45347.88
580.01	45680.24
580.17	45308.09
580.33	45485.97
580.49	45296.39
580.65	45233.19
580.82	45691.94
580.98	45282.34
581.14	45139.57
581.30	45705.98
581.46	45460.23
581.62	45230.85
581.78	45659.17
581.94	45888.54
582.10	45652.15
582.26	45453.20
582.42	45500.01
582.58	45415.76
582.74	45361.92
582.90	45638.11
583.06	45949.40
583.22	45766.84
583.38	45516.40
583.54	45308.09
583.70	45441.50
583.86	45443.84
584.02	45350.22
584.18	45790.24
584.34	45525.76
584.50	45771.52
584.66	45811.31
584.82	45579.59
584.98	45928.33
585.14	45790.24
585.30	45233.19
585.46	45663.85
585.62	45317.45
585.78	45595.98
585.94	45237.87
586.10	45394.69
586.26	45287.03
586.42	46309.84
586.58	46064.08
586.74	45904.93
586.90	45708.32
587.06	45530.44
587.22	45921.31
587.38	45808.96
587.54	45429.80
587.70	45595.98
587.86	45385.33
588.02	45661.51
588.18	45769.18
588.34	45235.53
588.49	45195.74
588.65	44989.78
588.81	45095.10
588.97	45429.80
589.13	45305.75
589.29	45048.29
589.45	45106.80
589.61	45305.75
589.77	45724.71
589.93	45708.32
590.08	45476.61
