SpectraSuite Data File
++++++++++++++++++++++++++++++++++++
Date: Fri Oct 25 11:33:27 EDT 2013
User: price-jones
Dark Spectrum Present: No
Reference Spectrum Present: No
Number of Sampled Component Spectra: 1
Spectrometers: USB2+H05261
Integration Time (usec): 100000 (USB2+H05261)
Spectra Averaged: 1 (USB2+H05261)
Boxcar Smoothing: 0 (USB2+H05261)
Correct for Electrical Dark: No (USB2+H05261)
Strobe/Lamp Enabled: No (USB2+H05261)
Correct for Detector Non-linearity: No (USB2+H05261)
Correct for Stray Light: No (USB2+H05261)
Number of Pixels in Processed Spectrum: 2048
>>>>>Begin Processed Spectral Data<<<<<
365.73	229.37
365.92	229.37
366.12	229.37
366.32	175.54
366.52	231.71
366.72	208.31
366.91	168.52
367.11	229.37
367.31	117.03
367.51	184.90
367.70	168.52
367.90	140.43
368.10	163.84
368.30	124.05
368.49	177.88
368.69	234.05
368.89	283.20
369.09	198.95
369.28	187.24
369.48	227.03
369.68	238.73
369.87	250.44
370.07	215.33
370.27	220.01
370.47	308.95
370.66	428.32
370.86	491.51
371.06	531.30
371.25	571.09
371.45	533.64
371.65	500.87
371.84	594.50
372.04	578.11
372.24	568.75
372.44	547.69
372.63	573.43
372.83	641.31
373.03	514.92
373.22	533.64
373.42	681.10
373.62	692.80
373.81	660.03
374.01	674.07
374.21	638.97
374.40	674.07
374.60	650.67
374.79	645.99
374.99	631.94
375.19	634.29
375.38	620.24
375.58	606.20
375.78	690.46
375.97	674.07
376.17	683.44
376.37	702.16
376.56	699.82
376.76	704.50
376.95	641.31
377.15	603.86
377.35	671.73
377.54	657.69
377.74	725.57
377.93	737.27
378.13	655.35
378.33	697.48
378.52	608.54
378.72	727.91
378.91	727.91
379.11	734.93
379.31	723.23
379.50	664.71
379.70	786.42
379.89	809.83
380.09	744.29
380.28	711.52
380.48	723.23
380.68	802.80
380.87	688.12
381.07	699.82
381.26	777.06
381.46	791.10
381.65	765.36
381.85	720.88
382.04	629.60
382.24	751.31
382.43	746.63
382.63	755.99
382.83	767.70
383.02	854.30
383.22	851.96
383.41	809.83
383.61	795.78
383.80	854.30
384.00	840.25
384.19	774.72
384.39	798.12
384.58	856.64
384.78	795.78
384.97	779.40
385.17	805.14
385.36	870.68
385.56	903.45
385.75	847.27
385.95	788.76
386.14	866.00
386.34	884.72
386.53	894.08
386.72	826.21
386.92	908.13
387.11	868.34
387.31	868.34
387.50	908.13
387.70	884.72
387.89	854.30
388.09	875.36
388.28	936.21
388.48	919.83
388.67	938.55
388.86	936.21
389.06	875.36
389.25	985.37
389.45	992.39
389.64	945.58
389.84	1041.54
390.03	987.71
390.22	966.64
390.42	987.71
390.61	985.37
390.81	968.98
391.00	1036.86
391.19	1050.90
391.39	933.87
391.58	940.90
391.78	1020.47
391.97	1064.94
392.16	954.94
392.36	1062.60
392.55	1034.52
392.75	999.41
392.94	1062.60
393.13	1125.80
393.33	1064.94
393.52	1081.33
393.71	1181.97
393.91	1153.88
394.10	1057.92
394.29	1081.33
394.49	1055.58
394.68	1076.65
394.88	999.41
395.07	1146.86
395.26	1043.88
395.46	1142.18
395.65	1196.01
395.84	1193.67
396.04	1238.14
396.23	1160.91
396.42	1196.01
396.62	1315.38
396.81	1252.19
397.00	1263.89
397.19	1252.19
397.39	1310.70
397.58	1315.38
397.77	1235.80
397.97	1231.12
398.16	1299.00
398.35	1327.08
398.55	1268.57
398.74	1240.48
398.93	1338.79
399.12	1301.34
399.32	1313.04
399.51	1348.15
399.70	1430.07
399.90	1357.51
400.09	1310.70
400.28	1416.02
400.47	1359.85
400.67	1359.85
400.86	1376.24
401.05	1357.51
401.24	1434.75
401.44	1432.41
401.63	1385.60
401.82	1448.79
402.01	1462.83
402.21	1420.71
402.40	1511.99
402.59	1465.18
402.78	1537.73
402.97	1509.65
403.17	1448.79
403.36	1540.07
403.55	1488.58
403.74	1591.56
403.93	1692.21
404.13	1638.38
404.32	1621.99
404.51	1631.35
404.70	1612.63
404.89	1593.90
405.09	1636.03
405.28	1647.74
405.47	1645.40
405.66	1717.95
405.85	1636.03
406.05	1804.55
406.24	1720.29
406.43	1774.13
406.62	1736.68
406.81	1827.96
407.00	1750.72
407.20	1790.51
407.39	1729.66
407.58	1823.28
407.77	1891.15
407.96	1984.77
408.15	1935.62
408.34	1900.52
408.54	1832.64
408.73	1874.77
408.92	1849.02
409.11	1987.11
409.30	1921.58
409.49	2052.65
409.68	2017.54
409.87	1954.35
410.07	2080.74
410.26	2113.50
410.45	2024.56
410.64	2136.91
410.83	2197.76
411.02	2052.65
411.21	2174.36
411.40	2150.95
411.59	2216.49
411.78	2132.23
411.98	2188.40
412.17	2251.60
412.36	2256.28
412.55	2265.64
412.74	2270.32
412.93	2272.66
413.12	2303.09
413.31	2438.84
413.50	2406.07
413.69	2457.56
413.88	2401.39
414.07	2441.18
414.26	2576.93
414.45	2590.97
414.64	2499.69
414.83	2548.84
415.02	2640.12
415.22	2684.59
415.41	2696.30
415.60	2637.78
415.79	2757.15
415.98	2806.30
416.17	2771.19
416.36	2686.94
416.55	2785.24
416.74	2864.82
416.93	2794.60
417.12	2820.35
417.31	2885.88
417.50	2848.43
417.69	3009.93
417.88	2988.86
418.07	2902.26
418.26	2958.44
418.45	2937.37
418.64	3190.15
418.83	3042.70
419.02	3094.19
419.21	3218.24
419.39	2928.01
419.58	3115.25
419.77	3091.85
419.96	3038.02
420.15	3030.99
420.34	3192.49
420.53	3112.91
420.72	3255.69
420.91	3290.79
421.10	3211.22
421.29	3318.88
421.48	3213.56
421.67	3314.20
421.86	3309.52
422.05	3300.16
422.24	3248.66
422.43	3283.77
422.61	3375.05
422.80	3421.86
422.99	3318.88
423.18	3398.46
423.37	3431.23
423.56	3501.44
423.75	3332.92
423.94	3295.47
424.13	3302.50
424.32	3197.17
424.50	3382.07
424.69	3658.26
424.88	3363.35
425.07	3449.95
425.26	3403.14
425.45	3428.88
425.64	3403.14
425.83	3492.08
426.01	3566.98
426.20	3459.31
426.39	3428.88
426.58	3489.74
426.77	3456.97
426.96	3440.59
427.15	3550.59
427.33	3616.13
427.52	3487.40
427.71	3693.37
427.90	3562.30
428.09	3644.21
428.28	3705.07
428.46	3583.36
428.65	3735.50
428.84	3864.22
429.03	3889.97
429.22	3613.79
429.40	3803.37
429.59	3744.86
429.78	3672.30
429.97	3772.94
430.16	3775.28
430.34	3726.13
430.53	3859.54
430.72	3918.06
430.91	3847.84
431.10	3794.01
431.28	3829.12
431.47	3971.89
431.66	3948.48
431.85	3992.95
432.03	4056.15
432.22	4227.01
432.41	4051.47
432.60	4109.98
432.79	4163.81
432.97	4067.85
433.16	4004.66
433.35	3999.98
433.54	4117.00
433.72	4337.01
433.91	4318.29
434.10	4159.13
434.28	4100.62
434.47	4276.16
434.66	4379.14
434.85	4161.47
435.03	4306.59
435.22	4383.82
435.41	4400.21
435.59	4472.76
435.78	4372.12
435.97	4468.08
436.16	4432.97
436.34	4381.48
436.53	4425.95
436.72	4435.32
436.90	4299.56
437.09	4505.53
437.28	4503.19
437.46	4451.70
437.65	4547.66
437.84	4690.43
438.02	4472.76
438.21	4594.47
438.40	4521.92
438.58	4924.49
438.77	4870.65
438.96	4840.23
439.14	4940.87
439.33	4947.89
439.52	4858.95
439.70	4896.40
439.89	5095.35
440.08	5111.73
440.26	5090.67
440.45	5076.62
440.63	5020.45
440.82	5076.62
441.01	5107.05
441.19	5132.79
441.38	5247.48
441.57	5135.14
441.75	5383.23
441.94	5364.51
442.12	5373.87
442.31	5404.30
442.50	5607.92
442.68	5270.89
442.87	5423.02
443.05	5427.70
443.24	5612.60
443.43	5626.65
443.61	5664.10
443.80	5565.79
443.98	5486.22
444.17	5355.15
444.35	5563.45
444.54	5673.46
444.73	5621.97
444.91	5650.05
445.10	5785.80
445.28	5654.73
445.47	5666.44
445.65	5626.65
445.84	5722.61
446.02	5645.37
446.21	5750.70
446.39	5771.76
446.58	5591.54
446.77	5682.82
446.95	5692.18
447.14	5631.33
447.32	5792.83
447.51	5738.99
447.69	5916.87
447.88	5638.35
448.06	5650.05
448.25	5729.63
448.43	5783.46
448.62	5813.89
448.80	5729.63
448.99	5738.99
449.17	5905.17
449.36	5753.04
449.54	5891.13
449.73	6022.20
449.91	6073.69
450.10	6078.37
450.28	6167.31
450.46	6122.84
450.65	6083.05
450.83	6176.67
451.02	6169.65
451.20	6090.07
451.39	6282.00
451.57	6157.95
451.76	6188.38
451.94	6061.99
452.13	6300.72
452.31	6366.26
452.49	6209.44
452.68	6246.89
452.86	6260.93
453.05	6424.77
453.23	6338.17
453.42	6516.05
453.60	6368.60
453.78	6382.64
453.97	6207.10
454.15	6586.27
454.34	6382.64
454.52	6434.13
454.70	6637.76
454.89	6630.74
455.07	6583.93
455.26	6743.08
455.44	6815.64
455.62	6689.25
455.81	6832.02
455.99	6738.40
456.17	6661.16
456.36	6607.33
456.54	7033.31
456.73	6918.62
456.91	6998.20
457.09	7101.19
457.28	7157.36
457.46	7145.66
457.64	7208.85
457.83	7110.55
458.01	7019.27
458.19	7152.68
458.38	7133.95
458.56	7236.94
458.74	7197.15
458.93	7250.98
459.11	7190.13
459.29	7157.36
459.48	7414.82
459.66	7227.57
459.84	7508.44
460.03	7536.52
460.21	7351.62
460.39	7386.73
460.57	7332.90
460.76	7382.05
460.94	7543.55
461.12	7398.43
461.31	7602.06
461.49	7492.05
461.67	7702.70
461.85	7826.75
462.04	7585.68
462.22	8154.43
462.40	7611.42
462.59	7672.28
462.77	7737.81
462.95	7791.64
463.13	7751.85
463.32	7702.70
463.50	7873.56
463.68	8072.51
463.86	8018.68
464.05	7730.79
464.23	8105.28
464.41	8124.00
464.59	7775.26
464.78	8088.89
464.96	7983.57
465.14	7978.89
465.32	8044.42
465.50	8095.91
465.69	8226.98
465.87	8299.54
466.05	8035.06
466.23	8224.64
466.41	8229.32
466.60	8449.33
466.78	8198.90
466.96	8243.37
467.14	8093.57
467.32	8170.81
467.51	8376.78
467.69	8379.12
467.87	8344.01
468.05	8248.05
468.23	8271.45
468.41	8290.18
468.60	8313.58
468.78	8507.85
468.96	8449.33
469.14	8524.23
469.32	8414.23
469.50	8463.38
469.69	8580.40
469.87	8861.27
470.05	8716.16
470.23	8910.42
470.41	8788.71
470.59	9036.81
470.77	8805.10
470.95	9064.89
471.14	9146.81
471.32	8849.57
471.50	9092.98
471.68	8847.22
471.86	9069.58
472.04	9111.71
472.22	9324.69
472.40	9123.41
472.58	9256.82
472.77	9502.58
472.95	9383.21
473.13	9671.09
473.31	9446.40
473.49	9605.56
473.67	9483.85
473.85	9579.81
474.03	9841.95
474.21	9731.95
474.39	9811.53
474.57	9863.02
474.75	10033.88
474.93	9984.73
475.12	10059.62
475.30	10146.22
475.48	9909.83
475.66	10296.02
475.84	10092.39
476.02	10256.23
476.20	10204.74
476.38	10429.43
476.56	10602.63
476.74	10719.65
476.92	10691.57
477.10	10520.71
477.28	10754.76
477.46	10665.82
477.64	10693.91
477.82	10937.32
478.00	11346.92
478.18	10832.00
478.36	11208.83
478.54	11417.13
478.72	11143.29
478.90	11777.58
479.08	11438.20
479.26	11833.75
479.44	11709.70
479.62	11852.47
479.80	11906.31
479.98	12100.57
480.16	12512.50
480.34	11983.54
480.52	12456.33
480.70	12365.05
480.88	12173.13
481.06	12493.78
481.24	12381.43
481.41	12479.74
481.59	12477.40
481.77	12954.87
481.95	12819.11
482.13	13015.72
482.31	12779.32
482.49	13327.01
482.67	13579.79
482.85	13741.29
483.03	13434.68
483.21	13781.07
483.39	13862.99
483.57	13678.09
483.74	13837.25
483.92	14134.50
484.10	14171.94
484.28	14092.37
484.46	14471.53
484.64	14576.86
484.82	14195.35
485.00	14801.55
485.18	15042.62
485.35	14984.11
485.53	15166.67
485.71	15293.06
485.89	15632.44
486.07	15353.91
486.25	15599.67
486.43	15707.34
486.61	15817.34
486.78	15934.37
486.96	15885.22
487.14	16248.00
487.32	16112.25
487.50	16219.91
487.68	16498.44
487.85	16547.59
488.03	16957.18
488.21	17123.36
488.39	17081.23
488.57	17170.17
488.75	17240.39
488.92	17359.75
489.10	17523.59
489.28	17537.63
489.46	18108.72
489.64	17888.71
489.81	18185.96
489.99	18162.56
490.17	18068.94
490.35	18356.82
490.53	18649.39
490.70	18764.07
490.88	18675.13
491.06	18799.18
491.24	19190.05
491.41	19180.69
491.59	19257.93
491.77	19047.28
491.95	19185.37
492.13	19672.20
492.30	19566.88
492.48	19634.75
492.66	19913.28
492.84	19784.55
493.01	20098.18
493.19	20283.08
493.37	20320.53
493.54	20573.31
493.72	20566.29
493.90	20524.16
494.08	20931.41
494.25	21238.02
494.43	21055.46
494.61	21200.57
494.79	21418.24
494.96	21408.88
495.14	21362.07
495.32	22019.76
495.49	21465.05
495.67	21713.15
495.85	22197.64
496.02	22082.95
496.20	22228.07
496.38	22602.55
496.55	22160.19
496.73	22920.87
496.91	22934.91
497.09	22710.22
497.26	22970.02
497.44	22822.56
497.62	23274.29
497.79	23555.15
497.97	23309.40
498.14	23545.79
498.32	23711.97
498.50	23707.29
498.67	24077.09
498.85	23756.44
499.03	23847.72
499.20	24334.55
499.38	24273.70
499.56	24599.03
499.73	24343.91
499.91	24456.26
500.08	24603.71
500.26	24683.29
500.44	24893.94
500.61	25027.35
500.79	24828.40
500.97	25032.03
501.14	25076.50
501.32	25343.32
501.49	25577.37
501.67	25598.44
501.84	25741.21
502.02	25671.00
502.20	26115.70
502.37	25745.89
502.55	25680.36
502.72	25647.59
502.90	26099.31
503.07	25823.13
503.25	25811.43
503.43	26099.31
503.60	26588.49
503.78	26742.96
503.95	26225.70
504.13	26785.09
504.30	26595.51
504.48	26895.10
504.65	27098.72
504.83	26925.52
505.01	27222.77
505.18	27271.92
505.36	27524.70
505.53	27101.06
505.71	27690.88
505.88	27878.12
506.06	27391.29
506.23	27728.33
506.41	27527.04
506.58	27775.14
506.76	27669.81
506.93	28004.51
507.11	27807.90
507.28	28203.46
507.46	28271.33
507.63	28725.39
507.81	28498.36
507.98	28360.27
508.16	28865.83
508.33	28793.27
508.50	28851.78
508.68	28910.30
508.85	29312.87
509.03	29010.94
509.20	28985.19
509.38	29254.36
509.55	29261.38
509.73	29511.81
509.90	29624.16
510.08	29457.98
510.25	29677.99
510.42	29841.83
510.60	30167.16
510.77	29919.07
510.95	30115.67
511.12	30169.51
511.30	30125.04
511.47	30295.89
511.64	30148.44
511.82	30590.80
511.99	30532.29
512.17	30761.66
512.34	30366.11
512.51	30866.98
512.69	30632.93
512.86	30469.09
513.04	30813.15
513.21	31330.41
513.38	31049.55
513.56	31393.61
513.73	31054.23
513.90	31405.31
514.08	31150.19
514.25	31672.13
514.43	31311.69
514.60	31503.61
514.77	31639.36
514.95	31889.80
515.12	31960.02
515.29	32018.53
515.47	31590.21
515.64	32079.38
515.81	31798.52
515.99	32095.77
516.16	32570.90
516.33	32453.87
516.51	32662.18
516.68	32613.02
516.85	32456.21
517.03	32769.84
517.20	32900.91
517.37	32987.51
517.54	33125.60
517.72	33195.82
517.89	33450.94
518.06	33205.18
518.24	33179.43
518.41	33397.10
518.58	33188.80
518.75	33369.02
518.93	33631.16
519.10	33350.29
519.27	33652.22
519.45	33467.32
519.62	34291.19
519.79	33986.92
519.96	33888.62
520.14	33722.44
520.31	33806.70
520.48	33965.85
520.65	34115.65
520.83	34513.54
521.00	34043.09
521.17	34782.70
521.34	34677.38
521.52	34822.49
521.69	34242.04
521.86	34944.20
522.03	35040.16
522.20	34574.39
522.38	35056.54
522.55	35531.67
522.72	35105.70
522.89	35377.20
523.07	35229.74
523.24	35571.46
523.41	35248.47
523.58	35005.05
523.75	35346.77
523.92	35524.65
524.10	35845.30
524.27	35761.05
524.44	35950.63
524.61	35796.15
524.78	35847.64
524.96	36245.54
525.13	36268.94
525.30	36245.54
525.47	36280.64
525.64	35765.73
525.81	36514.70
525.98	36605.98
526.16	36294.69
526.33	36493.63
526.50	36727.69
526.67	36816.63
526.84	36891.52
527.01	36966.42
527.18	36751.09
527.36	36790.88
527.53	36779.18
527.70	37013.23
527.87	37364.31
528.04	37188.77
528.21	37031.96
528.38	37015.57
528.55	37352.61
528.72	37031.96
528.89	37589.00
529.07	37242.60
529.24	37200.47
529.41	37816.04
529.58	37364.31
529.75	37427.51
529.92	37713.05
530.09	38157.75
530.26	37696.67
530.43	37881.57
530.60	37516.45
530.77	37860.51
530.94	37750.50
531.11	38068.81
531.28	37757.52
531.46	38141.37
531.63	38352.02
531.80	38263.08
531.97	38794.38
532.14	38504.15
532.31	38768.63
532.48	38843.53
532.65	38766.29
532.82	38419.89
532.99	38906.73
533.16	38852.89
533.33	38593.09
533.50	39199.29
533.67	38883.32
533.84	38665.65
534.01	38911.41
534.18	39028.43
534.35	39838.26
534.52	39168.87
534.69	39784.43
534.86	39438.03
535.03	39505.90
535.20	39346.75
535.37	39889.75
535.54	39679.10
535.71	39711.87
535.88	39791.45
536.05	39803.15
536.22	39945.92
536.38	40252.53
536.55	39541.01
536.72	39840.60
536.89	39459.09
537.06	39438.03
537.23	40364.88
537.40	39927.20
537.57	39875.71
537.74	40158.91
537.91	40233.81
538.08	40542.76
538.25	39997.41
538.42	40390.62
538.59	40760.43
538.75	40240.83
538.92	40765.11
539.09	40762.77
539.26	40444.46
539.43	40458.50
539.60	40804.90
539.77	40385.94
539.94	40725.32
540.11	40954.69
540.28	40708.94
540.44	40795.54
540.61	40692.55
540.78	40769.79
540.95	40992.14
541.12	40589.57
541.29	40715.96
541.46	41088.10
541.62	41130.23
541.79	41544.51
541.96	40898.52
542.13	41177.04
542.30	41476.63
542.47	41469.61
542.63	41586.64
542.80	41567.91
542.97	42045.38
543.14	42143.69
543.31	41797.29
543.48	41474.29
543.64	42340.29
543.81	42433.91
543.98	42513.49
544.15	42021.98
544.32	42361.36
544.48	42572.00
544.65	42328.59
544.82	42113.26
544.99	42377.74
545.16	42616.47
545.32	42564.98
545.49	42808.40
545.66	42763.93
545.83	42939.47
546.00	42836.48
546.16	42541.58
546.33	42560.30
546.50	42836.48
546.67	42787.33
546.83	42131.98
547.00	42864.57
547.17	42803.72
547.34	42808.40
547.50	43152.46
547.67	43299.91
547.84	43255.44
548.00	42981.60
548.17	43639.29
548.34	43660.35
548.51	43393.53
548.67	43140.75
548.84	43358.42
549.01	43346.72
549.18	43552.69
549.34	43599.50
549.51	43615.88
549.68	43819.51
549.84	43611.20
550.01	44105.06
550.18	43379.49
550.34	43833.55
550.51	43800.79
550.68	43859.30
550.84	43262.46
551.01	44119.10
551.18	43800.79
551.34	43653.33
551.51	43966.96
551.68	43894.41
551.84	44154.21
552.01	43831.21
552.18	43957.60
552.34	43496.52
552.51	44069.95
552.68	44332.09
552.84	44474.86
553.01	44399.96
553.18	44051.22
553.34	44065.27
553.51	44463.16
553.67	44573.16
553.84	44343.79
554.01	44561.46
554.17	44318.04
554.34	44687.85
554.51	44619.97
554.67	45326.81
554.84	44622.31
555.00	44835.30
555.17	44556.78
555.33	45162.98
555.50	44769.77
555.67	44699.55
555.83	44907.86
556.00	45020.20
556.16	45521.08
556.33	44779.13
556.50	45015.52
556.66	44891.48
556.83	45036.59
556.99	45476.61
557.16	45137.23
557.32	45036.59
557.49	45013.18
557.65	44985.10
557.82	45375.97
557.98	44971.05
558.15	45441.50
558.32	44910.20
558.48	45198.09
558.65	45612.36
558.81	45221.49
558.98	45581.93
559.14	45357.24
559.31	45305.75
559.47	45340.86
559.64	45310.43
559.80	45705.98
559.97	45745.77
560.13	45097.44
560.30	45549.17
560.46	46068.76
560.63	45684.92
560.79	45989.19
560.96	45947.06
561.12	45972.80
561.29	46148.34
561.45	46024.29
561.61	45261.28
561.78	45530.44
561.94	45717.68
562.11	45787.90
562.27	45797.26
562.44	45595.98
562.60	46050.04
562.77	46117.92
562.93	45998.55
563.10	46288.77
563.26	45624.06
563.42	46490.06
563.59	45940.04
563.75	46101.53
563.92	46160.05
564.08	46103.87
564.24	46120.26
564.41	46017.27
564.57	45989.19
564.74	46272.39
564.90	46148.34
565.07	46333.24
565.23	45872.16
565.39	46157.70
565.56	46527.51
565.72	46073.45
565.88	46089.83
566.05	46291.12
566.21	46349.63
566.38	46536.87
566.54	46253.67
566.70	46557.94
566.87	46220.90
567.03	46469.00
567.19	46305.16
567.36	46213.88
567.52	46600.07
567.68	46738.16
567.85	46602.41
568.01	46696.03
568.17	46323.88
568.34	46696.03
568.50	46656.24
568.66	46148.34
568.83	46471.34
568.99	46115.58
569.15	47091.58
569.32	46885.61
569.48	47086.90
569.64	46649.22
569.81	46724.11
569.97	46742.84
570.13	46557.94
570.30	46429.21
570.46	46534.53
570.62	47061.15
570.78	47112.64
570.95	46770.93
571.11	46883.27
571.27	46569.64
571.43	46782.63
571.60	46848.16
571.76	46698.37
571.92	46843.48
572.09	46925.40
572.25	46370.69
572.41	46698.37
572.57	47119.66
572.74	47297.55
572.90	46738.16
573.06	47159.45
573.22	47002.64
573.38	46890.29
573.55	46803.69
573.71	47199.24
573.87	47199.24
574.03	46902.00
574.20	47246.05
574.36	46820.08
574.52	46937.10
574.68	47004.98
574.84	47206.26
575.01	47164.14
575.17	47283.50
575.33	47302.23
575.49	46986.25
575.65	47068.17
575.82	47154.77
575.98	47487.13
576.14	47330.31
576.30	47395.85
576.46	47007.32
576.62	46780.29
576.79	47117.32
576.95	47131.37
577.11	47124.35
577.27	47091.58
577.43	47306.91
577.59	47054.13
577.75	47016.68
577.92	46763.90
578.08	47281.16
578.24	47187.54
578.40	47353.72
578.56	47145.41
578.72	47484.79
578.88	47447.34
579.04	47304.57
579.21	47061.15
579.37	47547.98
579.53	47447.34
579.69	47110.30
579.85	47426.28
580.01	47526.92
580.17	47152.43
580.33	47426.28
580.49	47482.45
580.65	46972.21
580.82	47440.32
580.98	47110.30
581.14	46997.96
581.30	47796.08
581.46	47445.00
581.62	46993.28
581.78	47461.38
581.94	47552.66
582.10	46960.51
582.26	47847.57
582.42	47405.21
582.58	47037.75
582.74	47456.70
582.90	47278.82
583.06	47473.09
583.22	47449.68
583.38	47215.63
583.54	47775.02
583.70	47636.92
583.86	47870.98
584.02	47297.55
584.18	47934.17
584.34	47704.80
584.50	47501.17
584.66	47414.57
584.82	47737.57
584.98	47833.53
585.14	47653.31
585.30	47243.71
585.46	47435.64
585.62	47030.72
585.78	47992.68
585.94	47194.56
586.10	47810.12
586.26	47288.18
586.42	47555.00
586.58	47594.79
586.74	47620.54
586.90	47459.04
587.06	47840.55
587.22	47775.02
587.38	47552.66
587.54	47665.01
587.70	47873.32
587.86	47489.47
588.02	47533.94
588.18	47767.99
588.34	47468.40
588.49	47674.37
588.65	47166.48
588.81	47386.49
588.97	47870.98
589.13	47885.02
589.29	47227.33
589.45	47629.90
589.61	47868.64
589.77	47782.04
589.93	48126.10
590.08	48018.43
