SpectraSuite Data File
++++++++++++++++++++++++++++++++++++
Date: Fri Oct 25 10:44:21 EDT 2013
User: price-jones
Dark Spectrum Present: No
Reference Spectrum Present: No
Number of Sampled Component Spectra: 1
Spectrometers: USB2+H05261
Integration Time (usec): 100000 (USB2+H05261)
Spectra Averaged: 1 (USB2+H05261)
Boxcar Smoothing: 0 (USB2+H05261)
Correct for Electrical Dark: No (USB2+H05261)
Strobe/Lamp Enabled: No (USB2+H05261)
Correct for Detector Non-linearity: No (USB2+H05261)
Correct for Stray Light: No (USB2+H05261)
Number of Pixels in Processed Spectrum: 2048
>>>>>Begin Processed Spectral Data<<<<<
365.73	124.05
365.92	124.05
366.12	124.05
366.32	4.68
366.52	0.00
366.72	63.19
366.91	0.00
367.11	9.36
367.31	21.06
367.51	0.00
367.70	0.00
367.90	44.47
368.10	65.54
368.30	28.09
368.49	14.04
368.69	42.13
368.89	23.41
369.09	77.24
369.28	37.45
369.48	32.77
369.68	102.98
369.87	32.77
370.07	177.88
370.27	88.94
370.47	243.42
370.66	400.23
370.86	475.13
371.06	440.02
371.25	510.24
371.45	409.59
371.65	440.02
371.84	472.79
372.04	484.49
372.24	425.98
372.44	519.60
372.63	538.32
372.83	547.69
373.03	510.24
373.22	472.79
373.42	503.22
373.62	519.60
373.81	559.39
374.01	648.33
374.21	566.41
374.40	603.86
374.60	620.24
374.79	685.78
374.99	580.45
375.19	606.20
375.38	674.07
375.58	519.60
375.78	615.56
375.97	589.82
376.17	655.35
376.37	662.37
376.56	599.18
376.76	610.88
376.95	648.33
377.15	608.54
377.35	641.31
377.54	725.57
377.74	678.76
377.93	716.20
378.13	622.58
378.33	695.14
378.52	615.56
378.72	730.25
378.91	739.61
379.11	711.52
379.31	653.01
379.50	683.44
379.70	699.82
379.89	716.20
380.09	643.65
380.28	643.65
380.48	730.25
380.68	657.69
380.87	748.97
381.07	746.63
381.26	739.61
381.46	739.61
381.65	702.16
381.85	678.76
382.04	641.31
382.24	706.84
382.43	739.61
382.63	711.52
382.83	758.33
383.02	732.59
383.22	723.23
383.41	765.36
383.61	751.31
383.80	833.23
384.00	826.21
384.19	821.53
384.39	758.33
384.58	840.25
384.78	809.83
384.97	777.06
385.17	800.46
385.36	784.08
385.56	863.66
385.75	791.10
385.95	912.81
386.14	828.55
386.34	861.32
386.53	884.72
386.72	795.78
386.92	875.36
387.11	926.85
387.31	961.96
387.50	847.27
387.70	887.06
387.89	901.11
388.09	905.79
388.28	819.19
388.48	926.85
388.67	858.98
388.86	947.92
389.06	980.68
389.25	1006.43
389.45	976.00
389.64	968.98
389.84	1076.65
390.03	1057.92
390.22	1067.28
390.42	1069.62
390.61	1100.05
390.81	997.07
391.00	1121.12
391.19	1086.01
391.39	1107.07
391.58	1102.39
391.78	1069.62
391.97	1142.18
392.16	1135.16
392.36	1062.60
392.55	938.55
392.75	1074.31
392.94	980.68
393.13	966.64
393.33	976.00
393.52	1015.79
393.71	1102.39
393.91	1142.18
394.10	1121.12
394.29	1163.25
394.49	1203.04
394.68	1289.64
394.88	1306.02
395.07	1331.76
395.26	1254.53
395.46	1336.45
395.65	1268.57
395.84	1231.12
396.04	1320.06
396.23	1207.72
396.42	1196.01
396.62	1181.97
396.81	1198.35
397.00	1259.21
397.19	1331.76
397.39	1254.53
397.58	1446.45
397.77	1394.96
397.97	1481.56
398.16	1540.07
398.35	1483.90
398.55	1577.52
398.74	1514.33
398.93	1481.56
399.12	1668.80
399.32	1535.39
399.51	1549.43
399.70	1696.89
399.90	1647.74
400.09	1596.25
400.28	1755.40
400.47	1741.36
400.67	1729.66
400.86	1757.74
401.05	1734.34
401.24	1720.29
401.44	1795.19
401.63	1736.68
401.82	1825.62
402.01	1710.93
402.21	1785.83
402.40	1851.36
402.59	1774.13
402.78	1806.89
402.97	1886.47
403.17	1842.00
403.36	1914.56
403.55	1930.94
403.74	1975.41
403.93	1909.88
404.13	1998.82
404.32	1973.07
404.51	1933.28
404.70	1963.71
404.89	1984.77
405.09	2129.89
405.28	1996.48
405.47	2150.95
405.66	1996.48
405.85	2022.22
406.05	2031.58
406.24	2029.24
406.43	2071.37
406.62	2083.08
406.81	2286.70
407.00	2190.74
407.20	2134.57
407.39	2134.57
407.58	2188.40
407.77	2223.51
407.96	2380.32
408.15	2356.92
408.34	2410.75
408.54	2415.43
408.73	2441.18
408.92	2338.20
409.11	2363.94
409.30	2427.14
409.49	2356.92
409.68	2312.45
409.87	2347.56
410.07	2392.03
410.26	2523.10
410.45	2485.65
410.64	2572.25
410.83	2600.34
411.02	2525.44
411.21	2700.98
411.40	2649.49
411.59	2698.64
411.78	2677.57
411.98	2691.62
412.17	2775.88
412.36	2890.56
412.55	2801.62
412.74	2773.53
412.93	2841.41
413.12	2829.71
413.31	2965.46
413.50	2869.50
413.69	2965.46
413.88	3101.21
414.07	3068.44
414.26	3047.38
414.45	3089.51
414.64	3091.85
414.83	3236.96
415.02	3225.26
415.22	3314.20
415.41	3255.69
415.60	3321.22
415.79	3215.90
415.98	3279.09
416.17	3428.88
416.36	3300.16
416.55	3276.75
416.74	3471.01
416.93	3358.67
417.12	3398.46
417.31	3454.63
417.50	3410.16
417.69	3695.71
417.88	3693.37
418.07	3595.06
418.26	3538.89
418.45	3578.68
418.64	3735.50
418.83	3777.62
419.02	3688.68
419.21	3676.98
419.39	3667.62
419.58	3595.06
419.77	3639.53
419.96	3721.45
420.15	3714.43
420.34	3854.86
420.53	3899.33
420.72	3997.64
420.91	3990.61
421.10	4039.76
421.29	4063.17
421.48	3957.85
421.67	4046.79
421.86	3971.89
422.05	3742.52
422.24	3908.69
422.43	3915.72
422.61	3962.53
422.80	4098.28
422.99	4079.55
423.18	4081.89
423.37	4004.66
423.56	4117.00
423.75	4168.49
423.94	4039.76
424.13	3808.05
424.32	3927.42
424.50	4264.46
424.69	4114.66
424.88	4032.74
425.07	3962.53
425.26	3918.06
425.45	4102.96
425.64	4070.19
425.83	4231.69
426.01	4140.41
426.20	4131.05
426.39	4217.65
426.58	4037.42
426.77	4142.75
426.96	4049.13
427.15	4161.47
427.33	4215.30
427.52	4241.05
427.71	4308.93
427.90	4262.12
428.09	4348.72
428.28	4318.29
428.46	4217.65
428.65	4327.65
428.84	4383.82
429.03	4304.25
429.22	4161.47
429.40	4196.58
429.59	4231.69
429.78	3983.59
429.97	3974.23
430.16	4224.67
430.34	4175.52
430.53	4255.09
430.72	4369.78
430.91	4409.57
431.10	4512.55
431.28	4770.01
431.47	4732.56
431.66	4809.80
431.85	4755.97
432.03	4791.08
432.22	4793.42
432.41	4837.89
432.60	4765.33
432.79	4896.40
432.97	5088.32
433.16	5116.41
433.35	4922.15
433.54	4882.36
433.72	4875.34
433.91	4854.27
434.10	4919.81
434.28	4915.12
434.47	5111.73
434.66	5011.09
434.85	5111.73
435.03	5156.20
435.22	5118.75
435.41	5310.68
435.59	5233.44
435.78	5385.57
435.97	5259.18
436.16	5336.42
436.34	5296.63
436.53	5481.53
436.72	5439.40
436.90	5322.38
437.09	5320.04
437.28	5174.92
437.46	5458.13
437.65	5275.57
437.84	5455.79
438.02	5291.95
438.21	5343.44
438.40	5254.50
438.58	5699.20
438.77	5458.13
438.96	5650.05
439.14	5673.46
439.33	5863.04
439.52	5877.09
439.70	6015.18
439.89	5968.37
440.08	6050.28
440.26	5813.89
440.45	5933.26
440.63	6059.65
440.82	6366.26
441.01	6345.19
441.19	6214.12
441.38	6319.45
441.57	6499.67
441.75	6296.04
441.94	6342.85
442.12	6623.72
442.31	6642.44
442.50	6604.99
442.68	6476.26
442.87	6574.56
443.05	6548.82
443.24	6698.61
443.43	6661.16
443.61	6813.30
443.80	6909.26
443.98	6544.14
444.17	6607.33
444.35	6817.98
444.54	6918.62
444.73	6710.32
444.91	6785.21
445.10	6707.98
445.28	6679.89
445.47	6733.72
445.65	6413.07
445.84	6738.40
446.02	6782.87
446.21	6740.74
446.39	6560.52
446.58	7056.72
446.77	6864.79
446.95	6876.49
447.14	7052.03
447.32	6902.24
447.51	6796.92
447.69	6946.71
447.88	6944.37
448.06	6909.26
448.25	7115.23
448.43	7073.10
448.62	6820.32
448.80	6942.03
448.99	7066.08
449.17	7162.04
449.36	7119.91
449.54	7356.30
449.73	7428.86
449.91	7276.73
450.10	7438.22
450.28	7562.27
450.46	7606.74
450.65	7449.93
450.83	7398.43
451.02	7604.40
451.20	7442.90
451.39	7428.86
451.57	7576.31
451.76	7382.05
451.94	7379.71
452.13	7632.49
452.31	7588.02
452.49	7279.07
452.68	7356.30
452.86	7400.77
453.05	7517.80
453.23	7651.21
453.42	7564.61
453.60	7665.25
453.78	7995.27
453.97	7573.97
454.15	7639.51
454.34	7875.90
454.52	7833.77
454.70	7822.07
454.89	7803.35
455.07	7651.21
455.26	7859.52
455.44	8051.44
455.62	8049.10
455.81	8025.70
455.99	8093.57
456.17	8271.45
456.36	8124.00
456.54	8285.50
456.73	8358.05
456.91	8535.93
457.09	8365.07
457.28	8571.04
457.46	8313.58
457.64	8554.66
457.83	8355.71
458.01	8369.76
458.19	8641.26
458.38	8381.46
458.56	8519.55
458.74	8524.23
458.93	8423.59
459.11	8596.79
459.29	8592.11
459.48	8652.96
459.66	8545.30
459.84	8655.30
460.03	8833.18
460.21	8816.80
460.39	8805.10
460.57	8830.84
460.76	8919.78
460.94	9034.47
461.12	8917.44
461.31	8992.34
461.49	9027.45
461.67	8863.61
461.85	9149.15
462.04	9011.06
462.22	9385.55
462.40	9221.71
462.59	9001.70
462.77	9219.37
462.95	9305.97
463.13	9149.15
463.32	9303.63
463.50	9329.38
463.68	9167.88
463.86	9172.56
464.05	9170.22
464.23	9317.67
464.41	9359.80
464.59	9163.20
464.78	9598.54
464.96	9359.80
465.14	9458.10
465.32	9483.85
465.50	9652.37
465.69	9764.72
465.87	9570.45
466.05	9703.86
466.23	9341.08
466.41	9575.13
466.60	9659.39
466.78	9348.10
466.96	9479.17
467.14	9607.90
467.32	9729.61
467.51	9813.87
467.69	9511.94
467.87	9626.62
468.05	9991.75
468.23	9865.36
468.41	9991.75
468.60	9923.87
468.78	9811.53
468.96	9795.14
469.14	10017.49
469.32	10057.28
469.50	9760.03
469.69	10038.56
469.87	10214.10
470.05	10143.88
470.23	9998.77
470.41	10148.56
470.59	10216.44
470.77	10017.49
470.95	10225.80
471.14	10389.64
471.32	10363.89
471.50	10471.56
471.68	10853.06
471.86	10733.70
472.04	10633.05
472.22	10960.73
472.40	10593.26
472.58	10778.17
472.77	10799.23
472.95	10794.55
473.13	11190.10
473.31	10871.79
473.49	10827.32
473.67	10895.19
473.85	11307.13
474.03	11337.56
474.21	11253.30
474.39	11590.33
474.57	11279.04
474.75	11564.59
474.93	11482.67
475.12	11487.35
475.30	11723.74
475.48	11817.36
475.66	11822.05
475.84	11606.72
476.02	11864.18
476.20	12020.99
476.38	11894.60
476.56	12077.16
476.74	12383.77
476.92	12180.15
477.10	12224.62
477.28	12606.13
477.46	12451.65
477.64	12617.83
477.82	12924.44
478.00	12903.37
478.18	13097.64
478.36	12922.10
478.54	12865.92
478.72	13151.47
478.90	13399.57
479.08	13467.44
479.26	13558.72
479.44	13738.94
479.62	13685.11
479.80	13722.56
479.98	13919.17
480.16	14139.18
480.34	14012.79
480.52	14197.69
480.70	14300.67
480.88	14064.28
481.06	14406.00
481.24	14473.87
481.41	14609.62
481.59	15051.99
481.77	14787.50
481.95	14904.53
482.13	15246.25
482.31	15112.84
482.49	15398.38
482.67	15042.62
482.85	15386.68
483.03	15655.84
483.21	15997.56
483.39	15791.59
483.57	15955.43
483.74	16287.79
483.92	16088.84
484.10	16222.25
484.28	16334.60
484.46	16580.36
484.64	16954.84
484.82	16599.08
485.00	16776.96
485.18	17081.23
485.35	17144.42
485.53	16882.28
485.71	16596.74
485.89	17128.04
486.07	17055.48
486.25	17076.55
486.43	17490.82
486.61	17640.62
486.78	17699.13
486.96	18036.17
487.14	18326.39
487.32	18270.22
487.50	18600.24
487.68	18787.48
487.85	18747.69
488.03	19012.17
488.21	19449.85
488.39	19035.58
488.57	19084.73
488.75	19433.47
488.92	19990.52
489.10	20067.75
489.28	19946.05
489.46	20353.30
489.64	20079.46
489.81	20704.38
489.99	20767.57
490.17	20664.59
490.35	20975.88
490.53	20596.71
490.70	21172.49
490.88	21195.89
491.06	21516.54
491.24	21706.13
491.41	21193.55
491.59	21537.61
491.77	21343.35
491.95	21734.21
492.13	21977.63
492.30	22443.40
492.48	22438.72
492.66	22485.53
492.84	22572.13
493.01	22761.71
493.19	22632.98
493.37	22998.10
493.54	23122.15
493.72	23393.65
493.90	22878.74
494.08	23524.72
494.25	23910.91
494.43	24063.05
494.61	24198.80
494.79	24271.36
494.96	23981.13
495.14	24304.12
495.32	24395.40
495.49	24673.93
495.67	24718.40
495.85	24877.55
496.02	24875.21
496.20	25071.82
496.38	25144.38
496.55	25373.75
496.73	25900.37
496.91	25773.98
497.09	26026.76
497.26	26092.29
497.44	25617.16
497.62	25823.13
497.79	26103.99
497.97	26010.37
498.14	25830.15
498.32	26361.45
498.50	26199.96
498.67	26820.20
498.85	27035.53
499.03	27051.91
499.20	27367.88
499.38	27016.80
499.56	27386.61
499.73	26906.80
499.91	27374.91
500.08	27452.14
500.26	27204.05
500.44	27426.40
500.61	27761.09
500.79	27159.58
500.97	27889.82
501.14	28121.54
501.32	27676.83
501.49	27838.33
501.67	28034.94
501.84	28343.89
502.02	28105.15
502.20	28636.45
502.37	28699.65
502.55	28591.98
502.72	29036.69
502.90	29371.38
503.07	28486.66
503.25	29429.90
503.43	28781.57
503.60	28931.36
503.78	28678.58
503.95	29235.63
504.13	29579.69
504.30	29771.61
504.48	29270.74
504.65	29551.60
504.83	30010.35
505.01	29965.88
505.18	29895.66
505.36	30106.31
505.53	30464.41
505.71	30888.05
505.88	30513.56
506.06	30073.54
506.23	30562.72
506.41	30213.98
506.58	30625.91
506.76	30749.96
506.93	31082.31
507.11	31241.47
507.28	31302.32
507.46	30260.79
507.63	31002.74
507.81	30876.35
507.98	31016.78
508.16	31239.13
508.33	31384.24
508.50	31637.02
508.68	31571.49
508.85	32055.98
509.03	31669.79
509.20	31681.49
509.38	31749.37
509.55	31978.74
509.73	32294.71
509.90	32418.76
510.08	32154.28
510.25	31901.50
510.42	32348.54
510.60	33001.55
510.77	33069.43
510.95	32711.33
511.12	33198.16
511.30	33427.53
511.47	33174.75
511.64	33303.48
511.82	33390.08
511.99	33060.07
512.17	33228.59
512.34	33408.81
512.51	33392.42
512.69	33713.08
512.86	33425.19
513.04	33677.97
513.21	33841.81
513.38	33722.44
513.56	34106.29
513.73	33837.12
513.90	34082.88
514.08	33617.11
514.25	34356.72
514.43	34284.17
514.60	34330.98
514.77	33893.30
514.95	34574.39
515.12	34478.43
515.29	34253.74
515.47	34745.25
515.64	34937.18
515.81	34705.46
515.99	34625.89
516.16	34864.62
516.33	34508.86
516.51	34323.96
516.68	34396.51
516.85	34127.35
517.03	34202.25
517.20	34869.30
517.37	35152.51
517.54	35611.25
517.72	34689.08
517.89	35110.38
518.06	34979.31
518.24	35000.37
518.41	35119.74
518.58	35178.25
518.75	35545.72
518.93	35768.07
519.10	35543.38
519.27	35805.52
519.45	35611.25
519.62	36046.59
519.79	36371.92
519.96	36048.93
520.14	36474.91
520.31	35803.17
520.48	36245.54
520.65	36570.87
520.83	36748.75
521.00	36884.50
521.17	37083.45
521.34	37043.66
521.52	37144.30
521.69	36472.57
521.86	37268.35
522.03	37324.52
522.20	37579.64
522.38	37778.59
522.55	37385.38
522.72	37439.21
522.89	37148.98
523.07	37706.03
523.24	37345.59
523.41	37904.98
523.58	37890.93
523.75	38562.67
523.92	38396.49
524.10	38288.82
524.27	38293.50
524.44	38113.28
524.61	38143.71
524.78	38284.14
524.96	38548.62
525.13	38527.56
525.30	38569.69
525.47	38827.15
525.64	38848.21
525.81	38834.17
525.98	38600.12
526.16	38323.93
526.33	38499.47
526.50	38607.14
526.67	38532.24
526.84	38635.22
527.01	38199.88
527.18	38557.99
527.36	38953.54
527.53	39049.50
527.70	39182.91
527.87	39215.68
528.04	39363.13
528.21	39199.29
528.38	39728.25
528.55	39480.16
528.72	40025.50
528.89	40261.90
529.07	39936.56
529.24	39693.15
529.41	39761.02
529.58	39597.18
529.75	39707.19
529.92	39849.96
530.09	39903.79
530.26	39943.58
530.43	40116.78
530.60	40561.48
530.77	40004.44
530.94	40399.99
531.11	40123.80
531.28	40411.69
531.46	41029.59
531.63	40739.36
531.80	40624.68
531.97	40713.62
532.14	40208.06
532.31	39894.43
532.48	40100.40
532.65	40814.26
532.82	40610.64
532.99	41074.06
533.16	40514.67
533.33	40751.07
533.50	41626.43
533.67	41022.57
533.84	40802.56
534.01	41200.45
534.18	40968.74
534.35	41518.76
534.52	40992.14
534.69	41567.91
534.86	41439.18
535.03	41467.27
535.20	41991.55
535.37	42071.13
535.54	41439.18
535.71	41296.41
535.88	41553.87
536.05	41581.96
536.22	41825.37
536.38	41830.05
536.55	41818.35
536.72	41394.71
536.89	41888.57
537.06	41909.63
537.23	42230.29
537.40	41937.72
537.57	42316.89
537.74	41748.14
537.91	42464.34
538.08	42436.25
538.25	42122.62
538.42	41895.59
538.59	42150.71
538.75	42249.01
538.92	42279.44
539.09	42227.95
539.26	42263.05
539.43	42546.26
539.60	42143.69
539.77	42382.42
539.94	42330.93
540.11	42373.06
540.28	42529.87
540.44	42389.44
540.61	42450.30
540.78	42230.29
540.95	42550.94
541.12	42480.72
541.29	42553.28
541.46	42817.76
541.62	42794.36
541.79	42827.12
541.96	42733.50
542.13	42436.25
542.30	42759.25
542.47	42939.47
542.63	42693.71
542.80	42897.34
542.97	43491.83
543.14	43655.67
543.31	43562.05
543.48	43723.55
543.64	43662.69
543.81	44013.77
543.98	43721.21
544.15	43625.25
544.32	43578.43
544.48	44083.99
544.65	43772.70
544.82	43981.01
544.99	43852.28
545.16	43604.18
545.32	43489.49
545.49	44395.28
545.66	44336.77
545.83	44327.41
546.00	44453.79
546.16	44299.32
546.33	44383.58
546.50	44151.87
546.67	44212.72
546.83	43882.70
547.00	43737.59
547.17	43854.62
547.34	44299.32
547.50	44432.73
547.67	44559.12
547.84	44676.15
548.00	44816.58
548.17	44849.35
548.34	44861.05
548.51	44629.34
548.67	44755.72
548.84	44753.38
549.01	44479.54
549.18	44734.66
549.34	44708.91
549.51	45111.49
549.68	45013.18
549.84	44945.31
550.01	45366.60
550.18	44299.32
550.34	44933.60
550.51	44774.45
550.68	44720.62
550.84	44786.15
551.01	44980.42
551.18	45123.19
551.34	44992.12
551.51	45088.08
551.68	45385.33
551.84	45139.57
552.01	45120.85
552.18	44954.67
552.34	45272.98
552.51	45052.97
552.68	44587.21
552.84	45336.18
553.01	45485.97
553.18	45511.72
553.34	45305.75
553.51	44715.93
553.67	45467.25
553.84	45968.12
554.01	45741.09
554.17	45308.09
554.34	45893.22
554.51	45764.49
554.67	45661.51
554.84	45621.72
555.00	45745.77
555.17	45607.68
555.33	45682.58
555.50	45593.64
555.67	45457.88
555.83	46031.32
556.00	45881.52
556.16	45818.33
556.33	45815.99
556.50	46188.13
556.66	45830.03
556.83	45434.48
556.99	46314.52
557.16	46312.18
557.32	46117.92
557.49	46190.47
557.65	45865.14
557.82	45979.82
557.98	46410.48
558.15	45811.31
558.32	45848.75
558.48	45879.18
558.65	46218.56
558.81	45867.48
558.98	45989.19
559.14	46138.98
559.31	46138.98
559.47	45993.87
559.64	46181.11
559.80	46300.48
559.97	46220.90
560.13	45888.54
560.30	46246.65
560.46	46600.07
560.63	46768.58
560.79	46494.74
560.96	46382.40
561.12	45900.25
561.29	46209.20
561.45	46124.94
561.61	46211.54
561.78	46490.06
561.94	45970.46
562.11	46143.66
562.27	46295.80
562.44	46115.58
562.60	46625.81
562.77	46735.82
562.93	46567.30
563.10	46644.54
563.26	46033.66
563.42	46581.34
563.59	46962.85
563.75	46464.32
563.92	46494.74
564.08	46719.43
564.24	46417.50
564.41	46461.97
564.57	46288.77
564.74	46735.82
564.90	46590.70
565.07	46735.82
565.23	46630.49
565.39	46438.57
565.56	46344.95
565.72	46197.49
565.88	46412.82
566.05	46316.86
566.21	46534.53
566.38	46279.41
566.54	46733.48
566.70	46876.25
566.87	46738.16
567.03	46768.58
567.19	47320.95
567.36	46822.42
567.52	46754.54
567.68	46899.65
567.85	46141.32
568.01	46649.22
568.17	46354.31
568.34	46707.73
568.50	46880.93
568.66	46632.83
568.83	46841.14
568.99	46274.73
569.15	46555.60
569.32	46176.43
569.48	46829.44
569.64	46728.80
569.81	46738.16
569.97	46546.23
570.13	46396.44
570.30	46153.02
570.46	46426.87
570.62	46447.93
570.78	45823.01
570.95	46291.12
571.11	46403.46
571.27	46604.75
571.43	46623.47
571.60	46403.46
571.76	46691.35
571.92	46899.65
572.09	46974.55
572.25	47063.49
572.41	46766.24
572.57	47065.83
572.74	47187.54
572.90	46829.44
573.06	47084.56
573.22	47028.38
573.38	46960.51
573.55	46820.08
573.71	46965.19
573.87	47356.06
574.03	46796.67
574.20	47075.19
574.36	46885.61
574.52	47021.36
574.68	47035.41
574.84	46635.17
575.01	46403.46
575.17	46770.93
575.33	46815.40
575.49	46576.66
575.65	46827.10
575.82	47203.92
575.98	46607.09
576.14	46939.44
576.30	47262.44
576.46	46712.41
576.62	46817.74
576.79	46717.09
576.95	46295.80
577.11	46876.25
577.27	47030.72
577.43	46810.71
577.59	47145.41
577.75	46834.12
577.92	46382.40
578.08	46712.41
578.24	46438.57
578.40	46492.40
578.56	46567.30
578.72	47224.99
578.88	46892.63
579.04	46934.76
579.21	46656.24
579.37	46817.74
579.53	46686.67
579.69	46932.42
579.85	46967.53
580.01	46899.65
580.17	46979.23
580.33	47096.26
580.49	47133.71
580.65	47028.38
580.82	46646.88
580.98	46920.72
581.14	46581.34
581.30	47288.18
581.46	47241.37
581.62	47079.88
581.78	46887.95
581.94	47194.56
582.10	46916.04
582.26	47023.70
582.42	46892.63
582.58	47285.84
582.74	47103.28
582.90	47196.90
583.06	47154.77
583.22	47072.85
583.38	47697.78
583.54	47215.63
583.70	46979.23
583.86	47423.93
584.02	46993.28
584.18	47103.28
584.34	47285.84
584.50	46904.34
584.66	46955.83
584.82	46705.39
584.98	46862.21
585.14	47367.76
585.30	46887.95
585.46	47047.11
585.62	46967.53
585.78	46667.94
585.94	46752.20
586.10	47077.54
586.26	46838.80
586.42	46909.02
586.58	47332.65
586.74	47068.17
586.90	47234.35
587.06	46845.82
587.22	46932.42
587.38	46590.70
587.54	47203.92
587.70	47056.47
587.86	47079.88
588.02	47086.90
588.18	47154.77
588.34	46698.37
588.49	46553.26
588.65	46267.71
588.81	46440.91
588.97	46518.15
589.13	46426.87
589.29	46607.09
589.45	46419.84
589.61	46588.36
589.77	47255.42
589.93	46927.74
