SpectraSuite Data File
++++++++++++++++++++++++++++++++++++
Date: Fri Oct 25 10:48:28 EDT 2013
User: price-jones
Dark Spectrum Present: No
Reference Spectrum Present: No
Number of Sampled Component Spectra: 1
Spectrometers: USB2+H05261
Integration Time (usec): 100000 (USB2+H05261)
Spectra Averaged: 1 (USB2+H05261)
Boxcar Smoothing: 0 (USB2+H05261)
Correct for Electrical Dark: No (USB2+H05261)
Strobe/Lamp Enabled: No (USB2+H05261)
Correct for Detector Non-linearity: No (USB2+H05261)
Correct for Stray Light: No (USB2+H05261)
Number of Pixels in Processed Spectrum: 2048
>>>>>Begin Processed Spectral Data<<<<<
365.73	196.60
365.92	196.60
366.12	196.60
366.32	35.11
366.52	60.85
366.72	107.66
366.91	46.81
367.11	42.13
367.31	51.49
367.51	11.70
367.70	84.26
367.90	102.98
368.10	133.41
368.30	53.83
368.49	0.00
368.69	63.19
368.89	79.58
369.09	72.56
369.28	67.88
369.48	88.94
369.68	95.96
369.87	95.96
370.07	77.24
370.27	196.60
370.47	147.45
370.66	346.40
370.86	407.25
371.06	461.09
371.25	514.92
371.45	493.85
371.65	519.60
371.84	456.40
372.04	507.90
372.24	587.47
372.44	472.79
372.63	493.85
372.83	550.03
373.03	461.09
373.22	496.19
373.42	496.19
373.62	545.34
373.81	587.47
374.01	585.13
374.21	587.47
374.40	505.56
374.60	557.05
374.79	601.52
374.99	533.64
375.19	573.43
375.38	564.07
375.58	564.07
375.78	608.54
375.97	596.84
376.17	648.33
376.37	678.76
376.56	580.45
376.76	662.37
376.95	657.69
377.15	660.03
377.35	660.03
377.54	568.75
377.74	685.78
377.93	648.33
378.13	594.50
378.33	681.10
378.52	692.80
378.72	664.71
378.91	585.13
379.11	704.50
379.31	606.20
379.50	631.94
379.70	697.48
379.89	634.29
380.09	685.78
380.28	734.93
380.48	746.63
380.68	634.29
380.87	699.82
381.07	777.06
381.26	746.63
381.46	653.01
381.65	685.78
381.85	732.59
382.04	732.59
382.24	709.18
382.43	786.42
382.63	683.44
382.83	711.52
383.02	711.52
383.22	812.17
383.41	758.33
383.61	795.78
383.80	786.42
384.00	739.61
384.19	835.57
384.39	821.53
384.58	861.32
384.78	779.40
384.97	828.55
385.17	767.70
385.36	795.78
385.56	840.25
385.75	774.72
385.95	774.72
386.14	819.19
386.34	915.15
386.53	898.77
386.72	800.46
386.92	842.59
387.11	917.49
387.31	961.96
387.50	950.26
387.70	924.51
387.89	910.47
388.09	898.77
388.28	887.06
388.48	875.36
388.67	933.87
388.86	1048.56
389.06	961.96
389.25	985.37
389.45	1107.07
389.64	964.30
389.84	1036.86
390.03	999.41
390.22	1088.35
390.42	987.71
390.61	968.98
390.81	1036.86
391.00	1064.94
391.19	1043.88
391.39	1121.12
391.58	1095.37
391.78	1086.01
391.97	1118.78
392.16	1086.01
392.36	1057.92
392.55	1086.01
392.75	1083.67
392.94	1004.09
393.13	964.30
393.33	971.32
393.52	1153.88
393.71	1081.33
393.91	1137.50
394.10	1020.47
394.29	1228.78
394.49	1130.48
394.68	1273.25
394.88	1210.06
395.07	1254.53
395.26	1284.95
395.46	1247.51
395.65	1308.36
395.84	1228.78
396.04	1287.29
396.23	1280.27
396.42	1100.05
396.62	1301.34
396.81	1266.23
397.00	1331.76
397.19	1348.15
397.39	1371.55
397.58	1352.83
397.77	1350.49
397.97	1458.15
398.16	1355.17
398.35	1511.99
398.55	1509.65
398.74	1514.33
398.93	1502.62
399.12	1558.80
399.32	1427.73
399.51	1516.67
399.70	1565.82
399.90	1593.90
400.09	1629.01
400.28	1619.65
400.47	1600.93
400.67	1715.61
400.86	1720.29
401.05	1605.61
401.24	1682.85
401.44	1629.01
401.63	1715.61
401.82	1760.08
402.01	1732.00
402.21	1736.68
402.40	1753.06
402.59	1717.95
402.78	1827.96
402.97	1734.34
403.17	1797.53
403.36	1715.61
403.55	1820.94
403.74	1867.75
403.93	1863.07
404.13	1788.17
404.32	1849.02
404.51	1895.83
404.70	1856.04
404.89	1942.64
405.09	2003.50
405.28	2033.93
405.47	2015.20
405.66	2017.54
405.85	2057.33
406.05	2015.20
406.24	1933.28
406.43	2033.93
406.62	2129.89
406.81	2153.29
407.00	2054.99
407.20	2125.21
407.39	2015.20
407.58	2118.18
407.77	2172.02
407.96	2183.72
408.15	2296.07
408.34	2249.25
408.54	2361.60
408.73	2282.02
408.92	2399.05
409.11	2317.13
409.30	2377.98
409.49	2253.94
409.68	2225.85
409.87	2347.56
410.07	2342.88
410.26	2342.88
410.45	2347.56
410.64	2436.50
410.83	2583.95
411.02	2574.59
411.21	2602.68
411.40	2609.70
411.59	2663.53
411.78	2649.49
411.98	2607.36
412.17	2635.44
412.36	2539.48
412.55	2651.83
412.74	2731.41
412.93	2736.09
413.12	2682.25
413.31	2780.56
413.50	2796.94
413.69	2827.37
413.88	2808.64
414.07	2897.58
414.26	2944.39
414.45	2850.77
414.64	3110.57
414.83	2981.84
415.02	2995.89
415.22	3138.66
415.41	3112.91
415.60	3124.62
415.79	3201.85
415.98	3398.46
416.17	3279.09
416.36	3143.34
416.55	3145.68
416.74	3318.88
416.93	3234.62
417.12	3258.03
417.31	3307.18
417.50	3398.46
417.69	3482.72
417.88	3442.93
418.07	3386.76
418.26	3501.44
418.45	3405.48
418.64	3674.64
418.83	3576.34
419.02	3527.19
419.21	3597.40
419.39	3695.71
419.58	3564.64
419.77	3468.67
419.96	3592.72
420.15	3660.60
420.34	3700.39
420.53	3669.96
420.72	3847.84
420.91	3735.50
421.10	3861.88
421.29	3892.31
421.48	3735.50
421.67	4037.42
421.86	3765.92
422.05	3843.16
422.24	3765.92
422.43	3812.73
422.61	3875.93
422.80	3915.72
422.99	3955.51
423.18	3880.61
423.37	3948.48
423.56	4051.47
423.75	3960.19
423.94	3904.01
424.13	3772.94
424.32	3833.80
424.50	4060.83
424.69	4016.36
424.88	3929.76
425.07	3875.93
425.26	3864.22
425.45	3892.31
425.64	4112.32
425.83	4046.79
426.01	4170.83
426.20	4028.06
426.39	4014.02
426.58	3997.64
426.77	3932.10
426.96	4060.83
427.15	4044.45
427.33	4039.76
427.52	4131.05
427.71	4133.39
427.90	4079.55
428.09	4170.83
428.28	4140.41
428.46	4070.19
428.65	4189.56
428.84	4248.07
429.03	4332.33
429.22	4205.94
429.40	4154.45
429.59	4117.00
429.78	3932.10
429.97	4053.81
430.16	4222.33
430.34	4250.41
430.53	4152.11
430.72	4117.00
430.91	4262.12
431.10	4400.21
431.28	4566.39
431.47	4578.09
431.66	4610.86
431.85	4545.32
432.03	4596.81
432.22	4608.51
432.41	4652.98
432.60	4676.39
432.79	4713.84
432.97	4870.65
433.16	4854.27
433.35	4755.97
433.54	4636.60
433.72	4678.73
433.91	4594.47
434.10	4688.09
434.28	4844.91
434.47	4800.44
434.66	4954.91
434.85	4901.08
435.03	5046.20
435.22	5057.90
435.41	4863.63
435.59	5064.92
435.78	5078.96
435.97	5170.24
436.16	5200.67
436.34	5198.33
436.53	5104.71
436.72	5151.52
436.90	5018.11
437.09	5130.45
437.28	5121.09
437.46	5195.99
437.65	5210.03
437.84	5163.22
438.02	5275.57
438.21	5102.37
438.40	5193.65
438.58	5518.98
438.77	5500.26
438.96	5380.89
439.14	5542.39
439.33	5591.54
439.52	5668.78
439.70	5673.46
439.89	5750.70
440.08	5743.67
440.26	5813.89
440.45	5834.96
440.63	5865.38
440.82	5926.24
441.01	5961.34
441.19	5947.30
441.38	6071.35
441.57	5947.30
441.75	6143.91
441.94	6450.52
442.12	6553.50
442.31	6424.77
442.50	6274.98
442.68	6237.53
442.87	6293.70
443.05	6258.59
443.24	6572.22
443.43	6492.65
443.61	6450.52
443.80	6696.27
443.98	6363.92
444.17	6197.74
444.35	6450.52
444.54	6661.16
444.73	6427.11
444.91	6541.80
445.10	6455.20
445.28	6443.49
445.47	6551.16
445.65	6396.68
445.84	6420.09
446.02	6530.09
446.21	6565.20
446.39	6431.79
446.58	6560.52
446.77	6623.72
446.95	6724.36
447.14	6649.46
447.32	6595.63
447.51	6644.78
447.69	6593.29
447.88	6773.51
448.06	6686.91
448.25	6672.87
448.43	6815.64
448.62	6773.51
448.80	6789.89
448.99	6827.34
449.17	6895.22
449.36	6932.67
449.54	6937.35
449.73	7037.99
449.91	6988.84
450.10	6965.43
450.28	7304.81
450.46	7075.44
450.65	7204.17
450.83	7225.23
451.02	7159.70
451.20	7318.86
451.39	7192.47
451.57	7260.34
451.76	7201.83
451.94	7190.13
452.13	7332.90
452.31	7295.45
452.49	7133.95
452.68	7267.36
452.86	7197.15
453.05	7241.62
453.23	7384.39
453.42	7300.13
453.60	7066.08
453.78	7433.54
453.97	7246.30
454.15	7335.24
454.34	7297.79
454.52	7569.29
454.70	7398.43
454.89	7538.87
455.07	7480.35
455.26	7602.06
455.44	7726.11
455.62	7784.62
455.81	7695.68
455.99	7735.47
456.17	7903.99
456.36	7808.03
456.54	7763.56
456.73	8042.08
456.91	7911.01
457.09	7978.89
457.28	8196.56
457.46	8102.93
457.64	7974.21
457.83	8187.19
458.01	7875.90
458.19	8184.85
458.38	8229.32
458.56	8257.41
458.74	8250.39
458.93	8138.04
459.11	8266.77
459.29	8341.67
459.48	8241.03
459.66	8166.13
459.84	8383.80
460.03	8578.06
460.21	8383.80
460.39	8472.74
460.57	8472.74
460.76	8507.85
460.94	8702.11
461.12	8793.39
461.31	8784.03
461.49	8788.71
461.67	8610.83
461.85	8947.87
462.04	8610.83
462.22	9245.12
462.40	9027.45
462.59	8870.63
462.77	8842.54
462.95	8973.61
463.13	8931.48
463.32	8847.22
463.50	9188.94
463.68	8961.91
463.86	8978.30
464.05	8884.67
464.23	8910.42
464.41	9116.39
464.59	8884.67
464.78	9153.84
464.96	9174.90
465.14	9029.79
465.32	9394.91
465.50	9341.08
465.69	9247.46
465.87	9231.07
466.05	9198.31
466.23	9329.38
466.41	9331.72
466.60	9345.76
466.78	9418.32
466.96	9214.69
467.14	9270.86
467.32	9338.74
467.51	9643.01
467.69	9081.28
467.87	9458.10
468.05	9626.62
468.23	9525.98
468.41	9486.19
468.60	9331.72
468.78	9626.62
468.96	9577.47
469.14	9659.39
469.32	9816.21
469.50	9441.72
469.69	9811.53
469.87	9689.82
470.05	9891.10
470.23	9699.18
470.41	9912.17
470.59	10045.58
470.77	10080.69
470.95	9893.44
471.14	10057.28
471.32	10068.98
471.50	10345.17
471.68	10431.77
471.86	10246.87
472.04	10307.72
472.22	10520.71
472.40	10399.00
472.58	10567.52
472.77	10347.51
472.95	10661.14
473.13	11103.50
473.31	10448.15
473.49	10427.09
473.67	10654.12
473.85	10717.31
474.03	10813.28
474.21	10796.89
474.39	10993.50
474.57	11002.86
474.75	11159.67
474.93	11470.97
475.12	11257.98
475.30	11272.02
475.48	11267.34
475.66	11321.17
475.84	11169.04
476.02	11358.62
476.20	11583.31
476.38	11885.24
476.56	11880.56
476.74	11690.98
476.92	11894.60
477.10	11709.70
477.28	12248.02
477.46	12070.14
477.64	12102.91
477.82	12259.73
478.00	12767.62
478.18	12587.40
478.36	12702.09
478.54	12821.45
478.72	12978.27
478.90	13001.68
479.08	12992.31
479.26	13043.81
479.44	13282.54
479.62	13317.65
479.80	13167.85
479.98	13671.07
480.16	13544.68
480.34	13544.68
480.52	13703.84
480.70	13769.37
480.88	13678.09
481.06	13984.70
481.24	13963.64
481.41	14207.05
481.59	14665.80
481.77	14317.06
481.95	14527.71
482.13	14733.67
482.31	14394.29
482.49	15030.92
482.67	14885.81
482.85	14906.87
483.03	15192.42
483.21	15197.10
483.39	15410.09
483.57	15433.49
483.74	15681.59
483.92	15686.27
484.10	15950.75
484.28	15927.35
484.46	16166.08
484.64	16606.10
484.82	16081.82
485.00	16348.64
485.18	16259.70
485.35	16460.99
485.53	16163.74
485.71	16203.53
485.89	16727.81
486.07	16723.13
486.25	16498.44
486.43	16922.07
486.61	17235.70
486.78	17385.50
486.96	17387.84
487.14	17626.57
487.32	17781.05
487.50	18104.04
487.68	18221.07
487.85	18202.35
488.03	18735.99
488.21	18761.73
488.39	18389.59
488.57	18679.82
488.75	18803.86
488.92	19047.28
489.10	19543.47
489.28	19381.98
489.46	19653.48
489.64	19693.27
489.81	20325.21
489.99	20217.55
490.17	20119.24
490.35	20383.73
490.53	20617.78
490.70	20465.64
490.88	20554.58
491.06	20606.08
491.24	20800.34
491.41	21055.46
491.59	20606.08
491.77	20945.45
491.95	21144.40
492.13	21132.70
492.30	21390.16
492.48	21994.01
492.66	21614.85
492.84	22312.33
493.01	22246.79
493.19	22436.38
493.37	22405.95
493.54	22391.91
493.72	22567.45
493.90	22630.64
494.08	23197.05
494.25	23178.33
494.43	22986.40
494.61	23618.35
494.79	23515.36
494.96	23583.24
495.14	23510.68
495.32	24084.11
495.49	24130.92
495.67	23896.87
495.85	24196.46
496.02	24245.61
496.20	24439.87
496.38	24496.05
496.55	24620.10
496.73	25170.12
496.91	24627.12
497.09	24849.47
497.26	25268.42
497.44	24788.61
497.62	25333.96
497.79	25823.13
497.97	25633.55
498.14	25369.07
498.32	25900.37
498.50	25914.41
498.67	26307.62
498.85	25958.88
499.03	26422.31
499.20	26565.08
499.38	26087.61
499.56	26548.70
499.73	26544.02
499.91	26675.09
500.08	26925.52
500.26	26609.55
500.44	26892.76
500.61	26717.22
500.79	26651.68
500.97	27023.83
501.14	27557.47
501.32	27243.84
501.49	27208.73
501.67	27651.09
501.84	27662.79
502.02	27435.76
502.20	27857.06
502.37	28116.86
502.55	27690.88
502.72	28212.82
502.90	27922.59
503.07	28421.13
503.25	28140.26
503.43	28371.97
503.60	28311.12
503.78	28386.02
503.95	28339.21
504.13	28751.14
504.30	28706.67
504.48	29057.75
504.65	29074.13
504.83	29355.00
505.01	29252.02
505.18	29132.65
505.36	29575.01
505.53	29638.20
505.71	30237.38
505.88	29806.72
506.06	29837.15
506.23	29645.23
506.41	29619.48
506.58	30134.40
506.76	29860.55
506.93	30314.62
507.11	30143.76
507.28	30249.08
507.46	30213.98
507.63	30087.59
507.81	30768.68
507.98	30221.00
508.16	30567.40
508.33	30742.94
508.50	30778.04
508.68	30759.32
508.85	31363.18
509.03	31159.55
509.20	31386.58
509.38	31360.84
509.55	31817.24
509.73	31374.88
509.90	31587.87
510.08	31424.03
510.25	31531.70
510.42	31885.12
510.60	31988.10
510.77	32093.43
510.95	32187.05
511.12	32566.21
511.30	32432.80
511.47	32409.40
511.64	32730.05
511.82	32650.47
511.99	32432.80
512.17	32486.64
512.34	32751.12
512.51	32973.47
512.69	32910.27
512.86	32538.13
513.04	33219.22
513.21	32790.91
513.38	33177.09
513.56	33055.39
513.73	33212.20
513.90	33298.80
514.08	32833.04
514.25	33301.14
514.43	33434.55
514.60	33675.63
514.77	33460.30
514.95	33624.14
515.12	33823.08
515.29	33998.62
515.47	34146.08
515.64	34281.83
515.81	34162.46
515.99	33965.85
516.16	34064.16
516.33	33888.62
516.51	33991.60
516.68	33502.43
516.85	33785.63
517.03	33572.64
517.20	34155.44
517.37	34185.86
517.54	34799.08
517.72	34576.73
517.89	34354.38
518.06	34319.28
518.24	34630.57
518.41	34513.54
518.58	34888.03
518.75	34881.00
518.93	35122.08
519.10	35344.43
519.27	35201.66
519.45	35019.10
519.62	35842.96
519.79	35309.32
519.96	35730.62
520.14	36175.32
520.31	35309.32
520.48	36079.36
520.65	35845.30
520.83	36161.28
521.00	36226.81
521.17	36112.13
521.34	36259.58
521.52	36804.92
521.69	36603.64
521.86	36711.30
522.03	36720.66
522.20	36725.35
522.38	36961.74
522.55	37069.40
522.72	36730.03
522.89	36744.07
523.07	36737.05
523.24	37242.60
523.41	37071.75
523.58	36992.17
523.75	37816.04
523.92	37415.80
524.10	37706.03
524.27	37504.74
524.44	38087.54
524.61	37614.75
524.78	38050.09
524.96	37610.07
525.13	37928.38
525.30	38232.65
525.47	37886.25
525.64	38251.38
525.81	37982.21
525.98	37745.82
526.16	37790.29
526.33	37776.25
526.50	37787.95
526.67	37773.91
526.84	38216.27
527.01	37886.25
527.18	38087.54
527.36	38286.48
527.53	38382.45
527.70	38747.57
527.87	38632.88
528.04	38440.96
528.21	39077.58
528.38	38806.08
528.55	38831.83
528.72	39264.83
528.89	39405.26
529.07	39171.21
529.24	38710.12
529.41	39208.65
529.58	39098.65
529.75	39075.24
529.92	39442.71
530.09	39622.93
530.26	39571.44
530.43	39690.80
530.60	39196.95
530.77	39721.23
530.94	39864.00
531.11	39709.53
531.28	39386.54
531.46	39423.98
531.63	40383.60
531.80	40048.91
531.97	40013.80
532.14	39831.24
532.31	39643.99
532.48	40320.41
532.65	40278.28
532.82	39807.83
532.99	39892.09
533.16	39723.57
533.33	40360.20
533.50	40355.52
533.67	40605.95
533.84	40278.28
534.01	40666.81
534.18	40570.85
534.35	41109.17
534.52	40542.76
534.69	40706.60
534.86	40755.75
535.03	40762.77
535.20	40886.82
535.37	41539.83
535.54	41565.57
535.71	41010.87
535.88	41160.66
536.05	41092.79
536.22	41511.74
536.38	41495.36
536.55	41106.83
536.72	40760.43
536.89	40835.33
537.06	41305.77
537.23	41457.91
537.40	41315.14
537.57	41352.58
537.74	41408.76
537.91	41846.44
538.08	41862.82
538.25	41535.15
538.42	41455.57
538.59	41909.63
538.75	41406.42
538.92	41670.90
539.09	41759.84
539.26	42150.71
539.43	41977.51
539.60	41628.77
539.77	41439.18
539.94	41731.75
540.11	41425.14
540.28	41563.23
540.44	42075.81
540.61	41886.23
540.78	41687.28
540.95	42106.24
541.12	42218.58
541.29	42148.37
541.46	41846.44
541.62	42646.90
541.79	42511.15
541.96	41869.84
542.13	42426.89
542.30	42506.47
542.47	42321.57
542.63	42286.46
542.80	42359.02
542.97	43075.22
543.14	43356.08
543.31	42939.47
543.48	42845.85
543.64	43728.23
543.81	43384.17
543.98	43044.79
544.15	42902.02
544.32	42911.38
544.48	43449.70
544.65	43196.93
544.82	43379.49
544.99	42838.83
545.16	43318.64
545.32	43395.87
545.49	43569.07
545.66	43346.72
545.83	43695.46
546.00	43442.68
546.16	44027.82
546.33	43409.92
546.50	43131.39
546.67	43873.34
546.83	43295.23
547.00	43054.15
547.17	43323.32
547.34	44123.78
547.50	43562.05
547.67	44264.21
547.84	43952.92
548.00	44069.95
548.17	44327.41
548.34	43988.03
548.51	44343.79
548.67	44362.51
548.84	44212.72
549.01	44165.91
549.18	44285.28
549.34	44399.96
549.51	44648.06
549.68	44713.59
549.84	44226.76
550.01	44481.88
550.18	44446.77
550.34	44074.63
550.51	44554.44
550.68	44491.24
550.84	44048.88
551.01	44786.15
551.18	44521.67
551.34	44570.82
551.51	44535.71
551.68	44711.25
551.84	44905.52
552.01	44519.33
552.18	44659.76
552.34	44802.53
552.51	44809.56
552.68	44566.14
552.84	45284.68
553.01	45139.57
553.18	44861.05
553.34	45254.26
553.51	44512.31
553.67	45008.50
553.84	45368.94
554.01	45270.64
554.17	45385.33
554.34	45436.82
554.51	44966.37
554.67	45504.70
554.84	45586.61
555.00	44989.78
555.17	45141.91
555.33	45265.96
555.50	45172.34
555.67	45425.12
555.83	45408.73
556.00	45661.51
556.16	45860.46
556.33	45703.64
556.50	45703.64
556.66	45448.52
556.83	45235.53
556.99	45961.10
557.16	45631.08
557.32	45432.14
557.49	45684.92
557.65	45200.43
557.82	45628.74
557.98	45422.78
558.15	45453.20
558.32	45380.65
558.48	45408.73
558.65	45497.67
558.81	45895.56
558.98	45347.88
559.14	45680.24
559.31	45979.82
559.47	45649.81
559.64	45942.38
559.80	45832.37
559.97	45759.81
560.13	45799.60
560.30	46003.23
560.46	46190.47
560.63	45865.14
560.79	45956.42
560.96	46583.68
561.12	45881.52
561.29	45848.75
561.45	45921.31
561.61	46033.66
561.78	45808.96
561.94	45907.27
562.11	46101.53
562.27	45860.46
562.44	45696.62
562.60	46457.29
562.77	46040.68
562.93	46021.95
563.10	46270.05
563.26	46080.47
563.42	46433.89
563.59	45963.44
563.75	45867.48
563.92	46562.62
564.08	46511.13
564.24	46089.83
564.41	46127.28
564.57	46539.21
564.74	46209.20
564.90	46183.45
565.07	46426.87
565.23	46078.13
565.39	46291.12
565.56	46270.05
565.72	45972.80
565.88	46185.79
566.05	46384.74
566.21	46396.44
566.38	45783.22
566.54	46068.76
566.70	46583.68
566.87	46869.23
567.03	46408.14
567.19	46852.84
567.36	46377.72
567.52	46415.16
567.68	46780.29
567.85	46354.31
568.01	46078.13
568.17	46052.38
568.34	46461.97
568.50	46373.03
568.66	46190.47
568.83	46649.22
568.99	46138.98
569.15	46174.09
569.32	46050.04
569.48	46422.19
569.64	46761.56
569.81	46328.56
569.97	46452.61
570.13	46827.10
570.30	45947.06
570.46	46295.80
570.62	46124.94
570.78	46494.74
570.95	46167.07
571.11	46225.58
571.27	46356.65
571.43	46649.22
571.60	46471.34
571.76	46532.19
571.92	46499.42
572.09	46586.02
572.25	46534.53
572.41	46440.91
572.57	47035.41
572.74	47143.07
572.90	46972.21
573.06	46803.69
573.22	46777.95
573.38	47054.13
573.55	46403.46
573.71	46726.46
573.87	46740.50
574.03	46485.38
574.20	46831.78
574.36	46408.14
574.52	46791.99
574.68	46892.63
574.84	46916.04
575.01	46939.44
575.17	46738.16
575.33	46403.46
575.49	46681.98
575.65	46962.85
575.82	46700.71
575.98	46536.87
576.14	47143.07
576.30	46703.05
576.46	46377.72
576.62	46637.51
576.79	46485.38
576.95	46115.58
577.11	46506.44
577.27	46597.73
577.43	46834.12
577.59	46190.47
577.75	46852.84
577.92	46312.18
578.08	46134.30
578.24	46012.59
578.40	46738.16
578.56	46422.19
578.72	46752.20
578.88	46763.90
579.04	46569.64
579.21	46993.28
579.37	46951.15
579.53	46721.77
579.69	46710.07
579.85	46700.71
580.01	46864.55
580.17	46857.52
580.33	47180.52
580.49	47012.00
580.65	47056.47
580.82	46557.94
580.98	46670.28
581.14	46768.58
581.30	46499.42
581.46	46508.79
581.62	47224.99
581.78	47199.24
581.94	47166.48
582.10	46644.54
582.26	47063.49
582.42	46780.29
582.58	46644.54
582.74	46705.39
582.90	46862.21
583.06	47201.58
583.22	46656.24
583.38	47000.30
583.54	46906.68
583.70	47058.81
583.86	46836.46
584.02	46146.00
584.18	46595.38
584.34	46777.95
584.50	46953.49
584.66	46452.61
584.82	46630.49
584.98	47168.82
585.14	47012.00
585.30	46724.11
585.46	46766.24
585.62	46721.77
585.78	46988.60
585.94	46586.02
586.10	46555.60
586.26	46721.77
586.42	47210.95
586.58	46738.16
586.74	47028.38
586.90	46862.21
587.06	46679.64
587.22	46433.89
587.38	46766.24
587.54	46997.96
587.70	46836.46
587.86	46791.99
588.02	47257.76
588.18	47152.43
588.34	46548.57
588.49	46597.73
588.65	46174.09
588.81	46370.69
588.97	46412.82
589.13	46621.13
589.29	46611.77
589.45	46534.53
589.61	46836.46
589.77	47051.79
589.93	46691.35
