SpectraSuite Data File
++++++++++++++++++++++++++++++++++++
Date: Fri Oct 25 11:23:18 EDT 2013
User: price-jones
Dark Spectrum Present: No
Reference Spectrum Present: No
Number of Sampled Component Spectra: 1
Spectrometers: USB2+H05261
Integration Time (usec): 100000 (USB2+H05261)
Spectra Averaged: 1 (USB2+H05261)
Boxcar Smoothing: 0 (USB2+H05261)
Correct for Electrical Dark: No (USB2+H05261)
Strobe/Lamp Enabled: No (USB2+H05261)
Correct for Detector Non-linearity: No (USB2+H05261)
Correct for Stray Light: No (USB2+H05261)
Number of Pixels in Processed Spectrum: 2048
>>>>>Begin Processed Spectral Data<<<<<
365.73	147.45
365.92	147.45
366.12	147.45
366.32	124.05
366.52	110.01
366.72	86.60
366.91	95.96
367.11	135.75
367.31	121.71
367.51	131.07
367.70	74.90
367.90	152.13
368.10	102.98
368.30	187.24
368.49	102.98
368.69	88.94
368.89	117.03
369.09	191.92
369.28	156.82
369.48	266.82
369.68	128.73
369.87	182.56
370.07	248.10
370.27	180.22
370.47	313.63
370.66	571.09
370.86	713.86
371.06	601.52
371.25	711.52
371.45	610.88
371.65	650.67
371.84	723.23
372.04	730.25
372.24	669.39
372.44	709.18
372.63	697.48
372.83	774.72
373.03	772.38
373.22	671.73
373.42	765.36
373.62	746.63
373.81	720.88
374.01	814.51
374.21	873.02
374.40	674.07
374.60	877.70
374.79	903.45
374.99	819.19
375.19	837.91
375.38	950.26
375.58	833.23
375.78	898.77
375.97	837.91
376.17	882.38
376.37	905.79
376.56	851.96
376.76	854.30
376.95	884.72
377.15	875.36
377.35	910.47
377.54	910.47
377.74	891.74
377.93	873.02
378.13	976.00
378.33	819.19
378.52	945.58
378.72	933.87
378.91	973.66
379.11	924.51
379.31	889.40
379.50	947.92
379.70	1039.20
379.89	1032.18
380.09	858.98
380.28	924.51
380.48	1015.79
380.68	957.28
380.87	997.07
381.07	999.41
381.26	1001.75
381.46	985.37
381.65	1083.67
381.85	1100.05
382.04	1055.58
382.24	1060.26
382.43	1086.01
382.63	1083.67
382.83	1088.35
383.02	1081.33
383.22	1064.94
383.41	1022.81
383.61	1130.48
383.80	1137.50
384.00	1146.86
384.19	1149.20
384.39	1177.29
384.58	1184.31
384.78	1076.65
384.97	1050.90
385.17	1191.33
385.36	1200.69
385.56	1135.16
385.75	1104.73
385.95	1226.44
386.14	1151.54
386.34	1210.06
386.53	1210.06
386.72	1228.78
386.92	1196.01
387.11	1315.38
387.31	1184.31
387.50	1238.14
387.70	1315.38
387.89	1299.00
388.09	1289.64
388.28	1200.69
388.48	1224.10
388.67	1418.36
388.86	1324.74
389.06	1277.93
389.25	1327.08
389.45	1366.87
389.64	1352.83
389.84	1432.41
390.03	1355.17
390.22	1467.52
390.42	1399.64
390.61	1465.18
390.81	1352.83
391.00	1348.15
391.19	1465.18
391.39	1462.83
391.58	1406.66
391.78	1544.75
391.97	1430.07
392.16	1444.11
392.36	1689.87
392.55	1497.94
392.75	1542.41
392.94	1486.24
393.13	1554.12
393.33	1600.93
393.52	1591.56
393.71	1680.50
393.91	1621.99
394.10	1638.38
394.29	1610.29
394.49	1516.67
394.68	1561.14
394.88	1582.20
395.07	1673.48
395.26	1727.32
395.46	1717.95
395.65	1813.92
395.84	1722.63
396.04	1771.79
396.23	1750.72
396.42	1776.47
396.62	1795.19
396.81	1842.00
397.00	1732.00
397.19	1736.68
397.39	1865.41
397.58	1907.54
397.77	1942.64
397.97	1867.75
398.16	1830.30
398.35	1832.64
398.55	1926.26
398.74	1867.75
398.93	1933.28
399.12	1914.56
399.32	1952.01
399.51	1935.62
399.70	2008.18
399.90	2043.29
400.09	1956.69
400.28	2040.95
400.47	2038.61
400.67	2127.55
400.86	2092.44
401.05	2008.18
401.24	2162.66
401.44	2076.06
401.63	2293.72
401.82	2232.87
402.01	2195.42
402.21	2307.77
402.40	2326.49
402.59	2221.17
402.78	2239.89
402.97	2356.92
403.17	2296.07
403.36	2333.51
403.55	2272.66
403.74	2385.01
403.93	2370.96
404.13	2401.39
404.32	2471.61
404.51	2415.43
404.70	2375.64
404.89	2396.71
405.09	2385.01
405.28	2546.50
405.47	2567.57
405.66	2534.80
405.85	2555.86
406.05	2581.61
406.24	2560.55
406.43	2661.19
406.62	2546.50
406.81	2663.53
407.00	2490.33
407.20	2607.36
407.39	2649.49
407.58	2738.43
407.77	2703.32
407.96	2815.66
408.15	2853.11
408.34	2822.69
408.54	2846.09
408.73	2895.24
408.92	2953.76
409.11	2888.22
409.30	2963.12
409.49	2958.44
409.68	3035.67
409.87	2958.44
410.07	2995.89
410.26	3028.65
410.45	3110.57
410.64	3075.46
410.83	3143.34
411.02	3194.83
411.21	3122.27
411.40	3129.30
411.59	3126.96
411.78	3206.53
411.98	3325.90
412.17	3260.37
412.36	3339.94
412.55	3379.73
412.74	3300.16
412.93	3513.14
413.12	3468.67
413.31	3625.49
413.50	3522.51
413.69	3503.78
413.88	3609.11
414.07	3620.81
414.26	3674.64
414.45	3765.92
414.64	3719.11
414.83	3744.86
415.02	3805.71
415.22	3896.99
415.41	3754.22
415.60	3957.85
415.79	3878.27
415.98	4086.58
416.17	4032.74
416.36	3904.01
416.55	4051.47
416.74	4142.75
416.93	4035.08
417.12	4124.02
417.31	4177.86
417.50	4250.41
417.69	4393.19
417.88	4264.46
418.07	4255.09
418.26	4269.14
418.45	4545.32
418.64	4608.51
418.83	4648.30
419.02	4425.95
419.21	4587.45
419.39	4578.09
419.58	4519.57
419.77	4585.11
419.96	4631.92
420.15	4704.48
420.34	4758.31
420.53	4627.24
420.72	4610.86
420.91	4823.84
421.10	4795.76
421.29	4887.04
421.48	4730.22
421.67	4901.08
421.86	4826.18
422.05	4842.57
422.24	4688.09
422.43	4943.21
422.61	4950.23
422.80	4957.25
422.99	5013.43
423.18	5039.17
423.37	4992.36
423.56	5055.56
423.75	4915.12
423.94	5090.67
424.13	4655.33
424.32	4896.40
424.50	5043.85
424.69	5191.31
424.88	5210.03
425.07	5123.43
425.26	4947.89
425.45	5048.54
425.64	4959.60
425.83	5107.05
426.01	5050.88
426.20	5179.61
426.39	5027.47
426.58	5224.08
426.77	4905.76
426.96	5198.33
427.15	5111.73
427.33	5294.29
427.52	5210.03
427.71	5289.61
427.90	5373.87
428.09	5270.89
428.28	5406.64
428.46	5497.92
428.65	5420.68
428.84	5575.16
429.03	5650.05
429.22	5373.87
429.40	5425.36
429.59	5511.96
429.78	5444.09
429.97	5378.55
430.16	5547.07
430.34	5542.39
430.53	5547.07
430.72	5645.37
430.91	5720.27
431.10	5591.54
431.28	5640.69
431.47	5874.74
431.66	5879.43
431.85	5891.13
432.03	5884.11
432.22	6090.07
432.41	6216.46
432.60	5959.00
432.79	6200.08
432.97	6106.46
433.16	6024.54
433.35	6153.27
433.54	6200.08
433.72	6420.09
433.91	6061.99
434.10	6209.44
434.28	6132.20
434.47	6216.46
434.66	6408.39
434.85	6321.79
435.03	6347.53
435.22	6232.85
435.41	6562.86
435.59	6586.27
435.78	6459.88
435.97	6541.80
436.16	6614.35
436.34	6574.56
436.53	6492.65
436.72	6654.14
436.90	6696.27
437.09	6689.25
437.28	6455.20
437.46	6731.38
437.65	6616.69
437.84	6810.96
438.02	6923.30
438.21	6778.19
438.40	6736.06
438.58	7005.22
438.77	7091.82
438.96	6904.58
439.14	7178.42
439.33	7288.43
439.52	7344.60
439.70	7187.79
439.89	7503.76
440.08	7520.14
440.26	7438.22
440.45	7513.12
440.63	7489.71
440.82	7784.62
441.01	7646.53
441.19	7625.47
441.38	7653.55
441.57	7742.49
441.75	8028.04
441.94	8121.66
442.12	8205.92
442.31	8154.43
442.50	8315.92
442.68	8011.65
442.87	8086.55
443.05	8152.09
443.24	8292.52
443.43	8362.73
443.61	8161.45
443.80	8542.96
443.98	8107.62
444.17	7824.41
444.35	8414.23
444.54	8428.27
444.73	8414.23
444.91	8421.25
445.10	8315.92
445.28	8435.29
445.47	8358.05
445.65	8362.73
445.84	8381.46
446.02	8374.44
446.21	8383.80
446.39	8531.25
446.58	8669.34
446.77	8365.07
446.95	8339.33
447.14	8533.59
447.32	8587.43
447.51	8500.83
447.69	8493.80
447.88	8575.72
448.06	8517.21
448.25	8475.08
448.43	8697.43
448.62	8800.41
448.80	8671.68
448.99	8805.10
449.17	8786.37
449.36	8688.07
449.54	8842.54
449.73	9135.11
449.91	9111.71
450.10	9036.81
450.28	9034.47
450.46	9083.62
450.65	9114.05
450.83	9224.05
451.02	9167.88
451.20	9514.28
451.39	9371.50
451.57	9294.27
451.76	9142.13
451.94	9369.16
452.13	9448.74
452.31	9322.35
452.49	9100.00
452.68	9413.63
452.86	9544.70
453.05	9654.71
453.23	9605.56
453.42	9530.66
453.60	9441.72
453.78	9635.99
453.97	9385.55
454.15	9584.49
454.34	9572.79
454.52	9916.85
454.70	9902.81
454.89	9734.29
455.07	9916.85
455.26	10026.86
455.44	10136.86
455.62	9870.04
455.81	10061.96
455.99	10200.05
456.17	10305.38
456.36	10244.52
456.54	10225.80
456.73	10279.63
456.91	10761.78
457.09	10523.05
457.28	10623.69
457.46	10518.37
457.64	10867.11
457.83	10588.58
458.01	10450.49
458.19	10764.12
458.38	10691.57
458.56	10829.66
458.74	10892.85
458.93	10869.45
459.11	11122.23
459.29	10768.80
459.48	10960.73
459.66	11096.48
459.84	11159.67
460.03	11159.67
460.21	11124.57
460.39	11260.32
460.57	11030.94
460.76	11243.93
460.94	11262.66
461.12	11265.00
461.31	11398.41
461.49	11187.76
461.67	11330.53
461.85	11772.89
462.04	11393.73
462.22	11611.40
462.40	11854.81
462.59	11520.12
462.77	11321.17
462.95	11705.02
463.13	11665.23
463.32	11777.58
463.50	11960.14
463.68	11868.86
463.86	11901.62
464.05	11929.71
464.23	11768.21
464.41	12175.47
464.59	11803.32
464.78	12400.16
464.96	12109.93
465.14	12088.87
465.32	12362.71
465.50	12351.01
465.69	12332.28
465.87	12339.30
466.05	12217.60
466.23	12594.42
466.41	12437.61
466.60	12776.98
466.78	12292.49
466.96	12084.19
467.14	12475.06
467.32	12531.23
467.51	12856.56
467.69	12287.81
467.87	12554.63
468.05	12826.14
468.23	12608.47
468.41	12477.40
468.60	12943.16
468.78	12931.46
468.96	12657.62
469.14	12971.25
469.32	13202.96
469.50	12861.24
469.69	13163.17
469.87	13338.71
470.05	13149.13
470.23	13401.91
470.41	13392.55
470.59	13385.52
470.77	13528.30
470.95	13514.25
471.14	13806.82
471.32	13446.38
471.50	13678.09
471.68	13989.38
471.86	13647.66
472.04	13783.41
472.22	14448.13
472.40	13935.55
472.58	13982.36
472.77	14101.73
472.95	14307.69
473.13	14925.60
473.31	14239.82
473.49	14504.30
473.67	14150.88
473.85	14478.55
474.03	14609.62
474.21	14757.08
474.39	15007.52
474.57	14881.13
474.75	15047.30
474.93	15140.93
475.12	15014.54
475.30	15403.07
475.48	15136.24
475.66	15339.87
475.84	15365.62
476.02	15798.62
476.20	15508.39
476.38	15730.74
476.56	16465.67
476.74	15910.96
476.92	16030.33
477.10	16053.73
477.28	16540.57
477.46	16395.45
477.64	16535.88
477.82	16767.60
478.00	17242.73
478.18	17170.17
478.36	17092.93
478.54	17305.92
478.72	17303.58
478.90	17790.41
479.08	17935.53
479.26	17799.77
479.44	17799.77
479.62	17869.99
479.80	18384.91
479.98	18359.16
480.16	18878.76
480.34	18586.19
480.52	18820.25
480.70	18773.44
480.88	18644.71
481.06	19119.84
481.24	19527.09
481.41	19405.38
481.59	19557.52
481.77	19555.18
481.95	19964.77
482.13	20140.31
482.31	19976.47
482.49	20680.97
482.67	20613.10
482.85	20854.17
483.03	20762.89
483.21	21198.23
483.39	21247.38
483.57	21102.27
483.74	21518.89
483.92	21336.32
484.10	21422.92
484.28	21979.97
484.46	22333.39
484.64	22431.69
484.82	22389.56
485.00	22424.67
485.18	23173.64
485.35	23009.81
485.53	22670.43
485.71	23466.21
485.89	23857.08
486.07	23276.63
486.25	23271.95
486.43	23817.29
486.61	23915.59
486.78	24205.82
486.96	24545.20
487.14	25008.62
487.32	24882.24
487.50	24936.07
487.68	25090.54
487.85	25823.13
488.03	25724.83
488.21	26045.48
488.39	26293.58
488.57	26422.31
488.75	26740.62
488.92	26862.33
489.10	27082.34
489.28	27150.21
489.46	27442.78
489.64	27737.69
489.81	28336.87
489.99	27887.48
490.17	28205.80
490.35	28599.01
490.53	28589.64
490.70	28730.08
490.88	28687.95
491.06	28933.70
491.24	29085.84
491.41	28989.88
491.59	29656.93
491.77	29656.93
491.95	29837.15
492.13	30244.40
492.30	30312.28
492.48	30492.50
492.66	30391.86
492.84	31051.89
493.01	31115.08
493.19	31079.97
493.37	31337.43
493.54	31763.41
493.72	31805.54
493.90	32350.88
494.08	32360.25
494.25	32669.20
494.43	32259.60
494.61	32439.82
494.79	32706.65
494.96	32872.82
495.14	32957.08
495.32	33687.33
495.49	33436.89
495.67	33827.76
495.85	34321.62
496.02	34218.63
496.20	34548.65
496.38	34469.07
496.55	34440.98
496.73	34925.47
496.91	34988.67
497.09	35189.95
497.26	35604.23
497.44	35185.27
497.62	35463.80
497.79	36091.06
497.97	35857.01
498.14	36318.09
498.32	36407.03
498.50	36589.59
498.67	36921.95
498.85	36748.75
499.03	37090.47
499.20	37301.12
499.38	37280.05
499.56	37364.31
499.73	37612.41
499.91	37738.80
500.08	37851.14
500.26	37715.39
500.44	37343.25
500.61	38218.61
500.79	38167.12
500.97	38621.18
501.14	38911.41
501.32	38948.85
501.49	39105.67
501.67	39267.17
501.84	39218.02
502.02	39178.23
502.20	39615.91
502.37	39964.65
502.55	39587.82
502.72	40149.55
502.90	39983.37
503.07	39873.37
503.25	40348.50
503.43	39922.52
503.60	40456.16
503.78	40870.43
503.95	40790.86
504.13	41181.73
504.30	41057.68
504.48	40727.66
504.65	41495.36
504.83	41518.76
505.01	41720.05
505.18	41806.65
505.36	42314.55
505.53	41778.56
505.71	41846.44
505.88	42637.54
506.06	41940.06
506.23	42363.70
506.41	42122.62
506.58	42373.06
506.76	42630.52
506.93	42810.74
507.11	42651.58
507.28	43035.43
507.46	43304.59
507.63	43407.58
507.81	43732.91
507.98	43686.10
508.16	43770.36
508.33	43913.13
508.50	43770.36
508.68	44266.55
508.85	44531.03
509.03	44278.25
509.20	44769.77
509.38	45062.33
509.55	44741.68
509.73	45205.11
509.90	44858.71
510.08	44964.03
510.25	45158.30
510.42	45289.37
510.60	45408.73
510.77	45495.33
510.95	45869.82
511.12	45689.60
511.30	45233.19
511.47	45710.66
511.64	45771.52
511.82	46478.36
511.99	46021.95
512.17	46344.95
512.34	46366.01
512.51	46759.22
512.69	46920.72
512.86	46663.26
513.04	46873.91
513.21	47033.07
513.38	47367.76
513.56	47114.98
513.73	47269.46
513.90	47398.19
514.08	47482.45
514.25	48053.54
514.43	47887.36
514.60	47723.52
514.77	47662.67
514.95	47885.02
515.12	47952.90
515.29	48121.41
515.47	48540.37
515.64	48800.17
515.81	48425.68
515.99	48788.47
516.16	48999.12
516.33	48846.98
516.51	49064.65
516.68	48952.30
516.85	48839.96
517.03	49577.23
517.20	49169.97
517.37	49219.13
517.54	49499.99
517.72	49698.94
517.89	49223.81
518.06	49537.44
518.24	49825.32
518.41	49521.05
518.58	49722.34
518.75	49382.96
518.93	49745.75
519.10	49610.00
519.27	49961.08
519.45	50333.22
519.62	50363.65
519.79	50230.24
519.96	50478.33
520.14	50679.62
520.31	50564.93
520.48	50916.01
520.65	50880.91
520.83	51119.64
521.00	51021.34
521.17	51098.58
521.34	51210.92
521.52	51159.43
521.69	51133.68
521.86	51655.62
522.03	51711.80
522.20	51540.94
522.38	52006.70
522.55	51765.63
522.72	51910.74
522.89	51756.27
523.07	52095.64
523.24	51812.44
523.41	52116.71
523.58	52189.27
523.75	52245.44
523.92	52313.31
524.10	52236.08
524.27	52315.65
524.44	52292.25
524.61	52545.03
524.78	52720.57
524.96	52605.88
525.13	52633.97
525.30	52690.14
525.47	53041.22
525.64	52701.84
525.81	53139.52
525.98	52980.37
526.16	53172.29
526.33	53233.14
526.50	53251.87
526.67	53216.76
526.84	53439.11
527.01	53118.46
527.18	53535.07
527.36	53544.44
527.53	53404.00
527.70	53773.81
527.87	53766.79
528.04	53631.04
528.21	53951.69
528.38	53616.99
528.55	54106.16
528.72	53661.46
528.89	54021.90
529.07	53600.61
529.24	53811.26
529.41	54197.44
529.58	53750.40
529.75	54035.95
529.92	53993.82
530.09	54347.24
530.26	54251.28
530.43	54382.35
530.60	54078.08
530.77	54230.21
530.94	54419.80
531.11	54038.29
531.28	54326.17
531.46	54724.07
531.63	54824.71
531.80	54667.89
531.97	54625.76
532.14	54717.04
532.31	54820.03
532.48	54930.03
532.65	55140.68
532.82	54787.26
532.99	55021.31
533.16	55157.06
533.33	55133.66
533.50	55482.40
533.67	55145.36
533.84	55192.17
534.01	55175.79
534.18	55381.76
534.35	55765.60
534.52	55423.89
534.69	55840.50
534.86	55526.87
535.03	55381.76
535.20	55564.32
535.37	55648.58
535.54	55777.31
535.71	55519.85
535.88	55573.68
536.05	55945.83
536.22	56009.02
536.38	55980.93
536.55	55910.72
536.72	55896.67
536.89	55725.81
537.06	55941.14
537.23	56128.39
537.40	55908.38
537.57	55976.25
537.74	56224.35
537.91	56329.67
538.08	56329.67
538.25	56156.47
538.42	56203.28
538.59	56456.06
538.75	56310.95
538.92	56259.46
539.09	56612.88
539.26	56563.73
539.43	56545.00
539.60	56509.89
539.77	56713.52
539.94	56622.24
540.11	56647.99
540.28	56650.33
540.44	56650.33
540.61	56844.59
540.78	56687.78
540.95	56666.71
541.12	56612.88
541.29	56905.44
541.46	57099.71
541.62	56987.36
541.79	57027.15
541.96	56961.62
542.13	56788.42
542.30	57368.87
542.47	57174.61
542.63	57113.75
542.80	57214.40
542.97	57340.78
543.14	57387.60
543.31	57282.27
543.48	57649.74
543.64	57638.03
543.81	57841.66
543.98	57495.26
544.15	57715.27
544.32	57485.90
544.48	57708.25
544.65	57586.54
544.82	57741.02
544.99	57488.24
545.16	57839.32
545.32	57680.16
545.49	57846.34
545.66	58213.80
545.83	58159.97
546.00	58064.01
546.16	57836.98
546.33	57598.24
546.50	57654.42
546.67	58145.93
546.83	57874.43
547.00	58120.18
547.17	58183.38
547.34	58092.10
547.50	58117.84
547.67	58365.94
547.84	58255.93
548.00	58230.19
548.17	58721.70
548.34	58630.42
548.51	58642.12
548.67	58836.39
548.84	58632.76
549.01	58239.55
549.18	58599.99
549.34	58635.10
549.51	58702.98
549.68	58607.01
549.84	58639.78
550.01	58747.45
550.18	58499.35
550.34	58927.67
550.51	58960.44
550.68	58550.84
550.84	58408.07
551.01	58810.64
551.18	58843.41
551.34	58845.75
551.51	58824.68
551.68	58887.88
551.84	58925.33
552.01	58927.67
552.18	59124.27
552.34	58798.94
552.51	58990.86
552.68	58939.37
552.84	59082.14
553.01	59147.68
553.18	59150.02
553.34	59213.21
553.51	58831.71
553.67	58988.52
553.84	59201.51
554.01	59274.07
554.17	59245.98
554.34	59400.46
554.51	59281.09
554.67	59339.60
554.84	59426.20
555.00	59222.58
555.17	59084.48
555.33	59236.62
555.50	59234.28
555.67	59346.62
555.83	59255.34
556.00	59358.33
556.16	59718.77
556.33	59639.19
556.50	59465.99
556.66	59793.67
556.83	59451.95
556.99	59540.89
557.16	59746.86
557.32	59774.94
557.49	60001.97
557.65	59604.08
557.82	59597.06
557.98	59676.64
558.15	59634.51
558.32	59744.51
558.48	59613.44
558.65	59788.98
558.81	59772.60
558.98	59735.15
559.14	60044.10
559.31	59955.16
559.47	60079.21
559.64	59964.52
559.80	60090.91
559.97	60023.04
560.13	59763.24
560.30	59833.46
560.46	59929.42
560.63	60104.96
560.79	60205.60
560.96	60034.74
561.12	60231.35
561.29	59987.93
561.45	60184.54
561.61	60032.40
561.78	60158.79
561.94	60313.26
562.11	60233.69
562.27	60205.60
562.44	60465.40
562.60	60247.73
562.77	60111.98
562.93	60009.00
563.10	60360.08
563.26	60062.83
563.42	60477.10
563.59	60203.26
563.75	60296.88
563.92	60430.29
564.08	60210.28
564.24	60533.28
564.41	60313.26
564.57	60427.95
564.74	60626.90
564.90	60486.46
565.07	60383.48
565.23	60221.98
565.39	60353.05
565.56	60390.50
565.72	60498.17
565.88	60633.92
566.05	60488.80
566.21	60484.12
566.38	60552.00
566.54	60554.34
566.70	60818.82
566.87	60746.26
567.03	60444.33
567.19	60832.86
567.36	60587.11
567.52	60561.36
567.68	60713.50
567.85	60811.80
568.01	60769.67
568.17	60657.32
568.34	60718.18
568.50	60549.66
568.66	60549.66
568.83	60643.28
568.99	60395.18
569.15	60743.92
569.32	60591.79
569.48	60493.49
569.64	60811.80
569.81	60779.03
569.97	60608.17
570.13	60886.70
570.30	60587.11
570.46	60865.63
570.62	60879.67
570.78	60750.94
570.95	60762.65
571.11	60956.91
571.27	60891.38
571.43	60832.86
571.60	60977.98
571.76	60886.70
571.92	60985.00
572.09	60669.03
572.25	60959.25
572.41	60835.20
572.57	60968.61
572.74	60954.57
572.90	61031.81
573.06	60706.47
573.22	60956.91
573.38	60935.85
573.55	60844.57
573.71	61254.16
573.87	60900.74
574.03	60893.72
574.20	60910.10
574.36	60917.12
574.52	60935.85
574.68	61188.63
574.84	61085.64
575.01	61029.47
575.17	61169.90
575.33	60900.74
575.49	60795.42
575.65	61130.11
575.82	61092.66
575.98	61118.41
576.14	61127.77
576.30	61359.48
576.46	61120.75
576.62	60956.91
576.79	61031.81
576.95	60882.02
577.11	61263.52
577.27	61160.54
577.43	61123.09
577.59	60912.44
577.75	61125.43
577.92	60999.04
578.08	61083.30
578.24	61244.80
578.40	61193.31
578.56	61240.12
578.72	61181.60
578.88	61181.60
579.04	61315.01
579.21	61258.84
579.37	61380.55
579.53	61429.70
579.69	61062.24
579.85	61165.22
580.01	61244.80
580.17	61059.90
580.33	61071.60
580.49	61272.88
580.65	61104.37
580.82	61069.26
580.98	61031.81
581.14	61043.51
581.30	61209.69
581.46	61085.64
581.62	61282.25
581.78	61247.14
581.94	61183.94
582.10	60999.04
582.26	61165.22
582.42	61057.56
582.58	61291.61
582.74	61219.05
582.90	61200.33
583.06	61200.33
583.22	60963.93
583.38	61298.63
583.54	61270.54
583.70	61219.05
583.86	61396.93
584.02	61087.98
584.18	61403.95
584.34	61343.10
584.50	61254.16
584.66	61134.79
584.82	61237.78
584.98	61443.74
585.14	61186.28
585.30	61113.73
585.46	61188.63
585.62	61329.06
585.78	61446.08
585.94	60999.04
586.10	61340.76
586.26	61296.29
586.42	61289.27
586.58	61415.66
586.74	61310.33
586.90	61303.31
587.06	61137.13
587.22	61361.82
587.38	61378.21
587.54	61455.45
587.70	61502.26
587.86	61387.57
588.02	61230.75
588.18	61546.73
588.34	61429.70
588.49	61291.61
