SpectraSuite Data File
++++++++++++++++++++++++++++++++++++
Date: Fri Oct 25 11:23:10 EDT 2013
User: price-jones
Dark Spectrum Present: No
Reference Spectrum Present: No
Number of Sampled Component Spectra: 1
Spectrometers: USB2+H05261
Integration Time (usec): 100000 (USB2+H05261)
Spectra Averaged: 1 (USB2+H05261)
Boxcar Smoothing: 0 (USB2+H05261)
Correct for Electrical Dark: No (USB2+H05261)
Strobe/Lamp Enabled: No (USB2+H05261)
Correct for Detector Non-linearity: No (USB2+H05261)
Correct for Stray Light: No (USB2+H05261)
Number of Pixels in Processed Spectrum: 2048
>>>>>Begin Processed Spectral Data<<<<<
365.73	170.86
365.92	170.86
366.12	170.86
366.32	191.92
366.52	100.64
366.72	170.86
366.91	114.69
367.11	159.16
367.31	131.07
367.51	117.03
367.70	135.75
367.90	102.98
368.10	156.82
368.30	114.69
368.49	133.41
368.69	124.05
368.89	126.39
369.09	74.90
369.28	98.30
369.48	100.64
369.68	124.05
369.87	203.63
370.07	241.08
370.27	212.99
370.47	327.68
370.66	653.01
370.86	592.16
371.06	751.31
371.25	702.16
371.45	641.31
371.65	713.86
371.84	645.99
372.04	702.16
372.24	692.80
372.44	730.25
372.63	758.33
372.83	648.33
373.03	667.05
373.22	758.33
373.42	777.06
373.62	748.97
373.81	779.40
374.01	826.21
374.21	866.00
374.40	774.72
374.60	800.46
374.79	692.80
374.99	870.68
375.19	830.89
375.38	873.02
375.58	889.40
375.78	898.77
375.97	842.59
376.17	840.25
376.37	823.87
376.56	833.23
376.76	873.02
376.95	889.40
377.15	952.60
377.35	894.08
377.54	884.72
377.74	901.11
377.93	938.55
378.13	1022.81
378.33	952.60
378.52	868.34
378.72	976.00
378.91	922.17
379.11	1006.43
379.31	915.15
379.50	971.32
379.70	936.21
379.89	961.96
380.09	922.17
380.28	987.71
380.48	1027.50
380.68	997.07
380.87	978.34
381.07	1057.92
381.26	1039.20
381.46	1020.47
381.65	1048.56
381.85	1011.11
382.04	1076.65
382.24	1163.25
382.43	1046.22
382.63	1100.05
382.83	1090.69
383.02	1053.24
383.22	1055.58
383.41	1128.14
383.61	1090.69
383.80	1144.52
384.00	1076.65
384.19	1097.71
384.39	1156.22
384.58	1125.80
384.78	1083.67
384.97	1156.22
385.17	1081.33
385.36	1186.65
385.56	1198.35
385.75	1210.06
385.95	1188.99
386.14	1107.07
386.34	1270.91
386.53	1203.04
386.72	1200.69
386.92	1341.13
387.11	1315.38
387.31	1291.98
387.50	1226.44
387.70	1245.16
387.89	1362.19
388.09	1191.33
388.28	1238.14
388.48	1350.49
388.67	1289.64
388.86	1263.89
389.06	1308.36
389.25	1324.74
389.45	1324.74
389.64	1329.42
389.84	1444.11
390.03	1406.66
390.22	1369.21
390.42	1320.06
390.61	1406.66
390.81	1359.85
391.00	1420.71
391.19	1465.18
391.39	1511.99
391.58	1448.79
391.78	1500.28
391.97	1472.20
392.16	1530.71
392.36	1549.43
392.55	1521.35
392.75	1554.12
392.94	1453.47
393.13	1516.67
393.33	1603.27
393.52	1516.67
393.71	1563.48
393.91	1650.08
394.10	1621.99
394.29	1521.35
394.49	1586.88
394.68	1682.85
394.88	1612.63
395.07	1565.82
395.26	1699.23
395.46	1746.04
395.65	1748.38
395.84	1724.97
396.04	1760.08
396.23	1781.15
396.42	1762.42
396.62	1818.60
396.81	1769.44
397.00	1769.44
397.19	1760.08
397.39	1865.41
397.58	1867.75
397.77	1881.79
397.97	1806.89
398.16	1827.96
398.35	1909.88
398.55	1802.21
398.74	1877.11
398.93	1928.60
399.12	1980.09
399.32	1912.22
399.51	1893.49
399.70	1991.80
399.90	2069.03
400.09	2003.50
400.28	2045.63
400.47	2003.50
400.67	2115.84
400.86	1994.14
401.05	2132.23
401.24	2043.29
401.44	2073.71
401.63	2167.34
401.82	2200.10
402.01	2193.08
402.21	2279.68
402.40	2214.15
402.59	2174.36
402.78	2242.23
402.97	2209.47
403.17	2188.40
403.36	2246.91
403.55	2300.75
403.74	2333.51
403.93	2394.37
404.13	2455.22
404.32	2347.56
404.51	2359.26
404.70	2401.39
404.89	2335.85
405.09	2490.33
405.28	2506.71
405.47	2410.75
405.66	2324.15
405.85	2534.80
406.05	2588.63
406.24	2525.44
406.43	2567.57
406.62	2686.94
406.81	2661.19
407.00	2607.36
407.20	2656.51
407.39	2548.84
407.58	2705.66
407.77	2782.90
407.96	2787.58
408.15	2752.47
408.34	2698.64
408.54	2745.45
408.73	2778.22
408.92	2829.71
409.11	2958.44
409.30	2956.10
409.49	3019.29
409.68	2972.48
409.87	2841.41
410.07	3094.19
410.26	3054.40
410.45	2904.60
410.64	3148.02
410.83	3038.02
411.02	3105.89
411.21	3229.94
411.40	3122.27
411.59	3286.11
411.78	3213.56
411.98	3365.69
412.17	3323.56
412.36	3316.54
412.55	3396.12
412.74	3517.83
412.93	3370.37
413.12	3358.67
413.31	3545.91
413.50	3550.59
413.69	3391.44
413.88	3595.06
414.07	3651.24
414.26	3543.57
414.45	3730.81
414.64	3632.51
414.83	3791.67
415.02	3744.86
415.22	3789.33
415.41	3850.18
415.60	3911.04
415.79	3969.55
415.98	4021.04
416.17	3971.89
416.36	4028.06
416.55	4119.34
416.74	4102.96
416.93	4039.76
417.12	4189.56
417.31	4135.73
417.50	4142.75
417.69	4257.43
417.88	4360.42
418.07	4219.99
418.26	4262.12
418.45	4423.61
418.64	4559.36
418.83	4540.64
419.02	4402.55
419.21	4486.81
419.39	4622.56
419.58	4545.32
419.77	4552.34
419.96	4566.39
420.15	4592.13
420.34	4542.98
420.53	4662.35
420.72	4784.06
420.91	4685.75
421.10	4788.74
421.29	4823.84
421.48	4760.65
421.67	4802.78
421.86	4725.54
422.05	4821.50
422.24	4795.76
422.43	4968.96
422.61	5053.22
422.80	4933.85
422.99	4835.55
423.18	5029.81
423.37	5039.17
423.56	4917.47
423.75	4767.67
423.94	4851.93
424.13	4573.41
424.32	4851.93
424.50	4994.70
424.69	5071.94
424.88	5046.20
425.07	4954.91
425.26	4919.81
425.45	5057.90
425.64	5008.75
425.83	5093.01
426.01	5139.82
426.20	5027.47
426.39	5055.56
426.58	4959.60
426.77	5205.35
426.96	5020.45
427.15	5193.65
427.33	5188.97
427.52	5320.04
427.71	5188.97
427.90	5231.10
428.09	5371.53
428.28	5621.97
428.46	5401.96
428.65	5270.89
428.84	5458.13
429.03	5605.58
429.22	5287.27
429.40	5579.84
429.59	5652.39
429.78	5366.85
429.97	5142.16
430.16	5479.19
430.34	5612.60
430.53	5692.18
430.72	5706.23
430.91	5746.02
431.10	5750.70
431.28	5923.90
431.47	5767.08
431.66	5785.80
431.85	5813.89
432.03	6026.88
432.22	6118.16
432.41	6015.18
432.60	6136.88
432.79	6022.20
432.97	6036.24
433.16	6059.65
433.35	5914.53
433.54	6106.46
433.72	6235.19
433.91	6090.07
434.10	6207.10
434.28	6132.20
434.47	6324.13
434.66	6179.01
434.85	6340.51
435.03	6284.34
435.22	6361.58
435.41	6345.19
435.59	6356.90
435.78	6427.11
435.97	6551.16
436.16	6497.33
436.34	6312.42
436.53	6630.74
436.72	6665.85
436.90	6672.87
437.09	6539.46
437.28	6604.99
437.46	6808.62
437.65	6684.57
437.84	6623.72
438.02	6883.52
438.21	6888.20
438.40	6787.55
438.58	6972.46
438.77	6965.43
438.96	7087.14
439.14	7262.68
439.33	7155.02
439.52	7140.97
439.70	7159.70
439.89	7459.29
440.08	7545.89
440.26	7463.97
440.45	7262.68
440.63	7585.68
440.82	7611.42
441.01	7485.03
441.19	7775.26
441.38	7665.25
441.57	7751.85
441.75	7838.45
441.94	8023.36
442.12	7894.63
442.31	8086.55
442.50	8142.72
442.68	8060.80
442.87	8098.25
443.05	8201.24
443.24	8318.26
443.43	8098.25
443.61	8177.83
443.80	8610.83
443.98	8112.30
444.17	8013.99
444.35	8156.77
444.54	8484.44
444.73	8210.60
444.91	8437.63
445.10	8439.97
445.28	8241.03
445.47	8400.18
445.65	8271.45
445.84	8526.57
446.02	8601.47
446.21	8561.68
446.39	8346.35
446.58	8512.53
446.77	8669.34
446.95	8360.39
447.14	8304.22
447.32	8547.64
447.51	8486.78
447.69	8512.53
447.88	8641.26
448.06	8610.83
448.25	8500.83
448.43	8709.13
448.62	8454.02
448.80	8786.37
448.99	8800.41
449.17	9013.40
449.36	8990.00
449.54	8840.20
449.73	8961.91
449.91	9247.46
450.10	9078.94
450.28	9146.81
450.46	8943.19
450.65	9200.65
450.83	9034.47
451.02	9100.00
451.20	9242.78
451.39	9291.93
451.57	9029.79
451.76	9107.02
451.94	9128.09
452.13	9387.89
452.31	9235.75
452.49	9343.42
452.68	9385.55
452.86	9303.63
453.05	9605.56
453.23	9462.79
453.42	9619.60
453.60	9366.82
453.78	9596.20
453.97	9240.44
454.15	9790.46
454.34	9462.79
454.52	9713.22
454.70	9638.33
454.89	9703.86
455.07	9937.91
455.26	10036.22
455.44	10153.24
455.62	10026.86
455.81	10054.94
455.99	10209.42
456.17	10001.11
456.36	10101.75
456.54	10169.63
456.73	10195.37
456.91	10703.27
457.09	10408.36
457.28	10705.61
457.46	10359.21
457.64	10614.33
457.83	10499.64
458.01	10572.20
458.19	11023.92
458.38	10630.71
458.56	10794.55
458.74	10796.89
458.93	10717.31
459.11	10593.26
459.29	10841.36
459.48	10904.56
459.66	11246.27
459.84	11077.76
460.03	11016.90
460.21	11152.65
460.39	11066.05
460.57	10930.30
460.76	11108.18
460.94	11248.61
461.12	11332.87
461.31	11150.31
461.49	11424.15
461.67	11199.46
461.85	11676.93
462.04	11314.15
462.22	11534.16
462.40	11716.72
462.59	11559.91
462.77	11597.35
462.95	11688.64
463.13	11428.84
463.32	11712.04
463.50	11985.88
463.68	11920.35
463.86	11983.54
464.05	11887.58
464.23	11978.86
464.41	11941.41
464.59	11873.54
464.78	12166.10
464.96	12177.81
465.14	11978.86
465.32	12159.08
465.50	12388.46
465.69	12358.03
465.87	12196.53
466.05	12222.28
466.23	12358.03
466.41	12257.39
466.60	12444.63
466.78	12093.55
466.96	12468.03
467.14	12023.33
467.32	12526.55
467.51	12711.45
467.69	12362.71
467.87	12397.82
468.05	12664.64
468.23	12559.31
468.41	12657.62
468.60	12613.15
468.78	12947.84
468.96	12498.46
469.14	13118.70
469.32	12982.95
469.50	12652.94
469.69	13097.64
469.87	13233.39
470.05	13041.46
470.23	13327.01
470.41	12971.25
470.59	13635.96
470.77	13444.04
470.95	13469.78
471.14	13472.12
471.32	13055.51
471.50	13577.45
471.68	13563.40
471.86	13652.34
472.04	14005.77
472.22	14352.16
472.40	13750.65
472.58	13757.67
472.77	14083.00
472.95	14394.29
473.13	14576.86
473.31	14136.84
473.49	14122.79
473.67	13893.42
473.85	14647.07
474.03	14588.56
474.21	14801.55
474.39	14855.38
474.57	14911.55
474.75	15225.18
474.93	15063.69
475.12	14974.75
475.30	15232.21
475.48	15229.87
475.66	15253.27
475.84	15161.99
476.02	15463.92
476.20	15641.80
476.38	15810.32
476.56	16168.42
476.74	16280.77
476.92	16081.82
477.10	15920.32
477.28	16327.58
477.46	16397.79
477.64	16587.38
477.82	16563.97
478.00	17207.62
478.18	16856.54
478.36	17085.91
478.54	17301.24
478.72	17184.21
478.90	17219.32
479.08	17682.75
479.26	17731.90
479.44	17811.48
479.62	18005.74
479.80	18050.21
479.98	18424.70
480.16	18693.86
480.34	18513.64
480.52	18853.02
480.70	18799.18
480.88	18494.91
481.06	18569.81
481.24	19168.99
481.41	19377.30
481.59	19564.54
481.77	19440.49
481.95	19910.94
482.13	19599.65
482.31	20020.94
482.49	20629.48
482.67	20505.43
482.85	20484.37
483.03	20563.95
483.21	20994.61
483.39	21364.41
483.57	20950.14
483.74	21458.03
483.92	21432.29
484.10	21120.99
484.28	22038.48
484.46	22097.00
484.64	22373.18
484.82	22286.58
485.00	22862.35
485.18	22930.23
485.35	23316.42
485.53	22941.93
485.71	23288.33
485.89	23819.63
486.07	23328.12
486.25	23644.09
486.43	23648.77
486.61	24121.56
486.78	24320.51
486.96	24549.88
487.14	24987.56
487.32	24636.48
487.50	24772.23
487.68	25057.78
487.85	25537.59
488.03	26033.78
488.21	26309.96
488.39	25923.77
488.57	26122.72
488.75	26356.77
488.92	26555.72
489.10	26642.32
489.28	27152.55
489.46	27131.49
489.64	27271.92
489.81	27847.69
489.99	28191.75
490.17	28479.64
490.35	28393.04
490.53	28268.99
490.70	28793.27
490.88	28790.93
491.06	28863.49
491.24	28975.83
491.41	29371.38
491.59	29432.24
491.77	29591.39
491.95	29832.47
492.13	30054.82
492.30	29909.71
492.48	30253.76
492.66	30480.80
492.84	30567.40
493.01	30930.18
493.19	30712.51
493.37	31299.98
493.54	31761.07
493.72	31906.18
493.90	31648.72
494.08	32231.52
494.25	32610.68
494.43	32584.94
494.61	32453.87
494.79	32905.59
494.96	32893.89
495.14	32868.14
495.32	33291.78
495.49	33457.96
495.67	33495.41
495.85	33930.75
496.02	33813.72
496.20	34333.32
496.38	34438.64
496.55	34415.24
496.73	35211.02
496.91	35131.44
497.09	34855.26
497.26	35412.31
497.44	35089.31
497.62	35910.84
497.79	36210.43
497.97	35555.08
498.14	36268.94
498.32	36322.77
498.50	36348.52
498.67	37043.66
498.85	36947.70
499.03	37394.74
499.20	37127.92
499.38	37081.11
499.56	37380.70
499.73	37282.39
499.91	37893.27
500.08	37851.14
500.26	37703.69
500.44	37834.76
500.61	38520.54
500.79	38195.20
500.97	38183.50
501.14	38895.02
501.32	39068.22
501.49	38845.87
501.67	38930.13
501.84	39283.55
502.02	38958.22
502.20	39269.51
502.37	39711.87
502.55	39152.48
502.72	39302.28
502.90	39969.33
503.07	39732.93
503.25	40369.56
503.43	40189.34
503.60	40165.93
503.78	40432.75
503.95	40882.14
504.13	40825.96
504.30	41095.13
504.48	41113.85
504.65	40713.62
504.83	41481.31
505.01	41383.01
505.18	41404.08
505.36	41598.34
505.53	41448.55
505.71	41832.39
505.88	41933.04
506.06	42003.25
506.23	43026.07
506.41	42089.85
506.58	42333.27
506.76	42548.60
506.93	42635.20
507.11	42710.10
507.28	43253.10
507.46	42855.21
507.63	43007.34
507.81	43901.43
507.98	43140.75
508.16	43674.40
508.33	43821.85
508.50	43899.09
508.68	43791.42
508.85	44322.72
509.03	44177.61
509.20	44442.09
509.38	44233.78
509.55	44933.60
509.73	44940.63
509.90	44973.39
510.08	44776.79
510.25	44729.98
510.42	44914.88
510.60	45492.99
510.77	45500.01
510.95	45925.99
511.12	45411.07
511.30	45619.38
511.47	45790.24
511.64	45940.04
511.82	46284.09
511.99	46216.22
512.17	46391.76
512.34	46260.69
512.51	46358.99
512.69	46855.18
512.86	46745.18
513.04	46791.99
513.21	47131.37
513.38	47194.56
513.56	47035.41
513.73	46976.89
513.90	47491.81
514.08	47210.95
514.25	47615.86
514.43	47934.17
514.60	47723.52
514.77	48009.07
514.95	48060.56
515.12	47805.44
515.29	47707.14
515.47	48526.33
515.64	48364.83
515.81	48119.07
515.99	48526.33
516.16	48879.75
516.33	48797.83
516.51	49125.50
516.68	48732.29
516.85	49045.93
517.03	49563.18
517.20	49563.18
517.37	49134.87
517.54	49216.78
517.72	49315.09
517.89	49544.46
518.06	49879.16
518.24	49322.11
518.41	49495.31
518.58	50007.89
518.75	49462.54
518.93	49961.08
519.10	49441.48
519.27	50110.87
519.45	49827.66
519.62	50066.40
519.79	50557.91
519.96	50323.86
520.14	50365.99
520.31	50293.43
520.48	50890.27
520.65	50700.68
520.83	50798.99
521.00	50841.12
521.17	50639.83
521.34	50735.79
521.52	51114.96
521.69	51227.31
521.86	51452.00
522.03	51601.79
522.20	51529.23
522.38	51927.13
522.55	52126.07
522.72	51449.66
522.89	51550.30
523.07	51943.51
523.24	51522.21
523.41	51875.63
523.58	51459.02
523.75	52032.45
523.92	52032.45
524.10	52088.62
524.27	52149.48
524.44	52453.75
524.61	52212.67
524.78	52355.44
524.96	52577.79
525.13	52748.65
525.30	52615.24
525.47	52514.60
525.64	52708.86
525.81	52954.62
525.98	52762.70
526.16	52526.30
526.33	53083.35
526.50	53062.29
526.67	53081.01
526.84	53286.98
527.01	53003.77
527.18	53008.45
527.36	53263.57
527.53	53221.44
527.70	53422.73
527.87	53794.87
528.04	53535.07
528.21	53628.69
528.38	53427.41
528.55	53860.41
528.72	53607.63
528.89	53743.38
529.07	53792.53
529.24	53476.56
529.41	53879.13
529.58	53804.24
529.75	53911.90
529.92	53649.76
530.09	53944.67
530.26	54162.34
530.43	54216.17
530.60	54059.35
530.77	54438.52
530.94	54223.19
531.11	53975.09
531.28	54440.86
531.46	54209.15
531.63	54576.61
531.80	54319.15
531.97	54534.48
532.14	54742.79
532.31	54672.57
532.48	54742.79
532.65	54857.48
532.82	54726.41
532.99	55058.76
533.16	54789.60
533.33	54934.71
533.50	54918.33
533.67	55117.28
533.84	54911.31
534.01	55203.88
534.18	55250.69
534.35	55379.42
534.52	55128.98
534.69	55566.66
534.86	55503.46
535.03	55318.56
535.20	55351.33
535.37	55536.23
535.54	55557.30
535.71	55318.56
535.88	55686.03
536.05	55543.25
536.22	55810.07
536.38	55924.76
536.55	55789.01
536.72	55835.82
536.89	55805.39
537.06	56048.81
537.23	55887.31
537.40	55936.46
537.57	55934.12
537.74	56128.39
537.91	56250.09
538.08	56210.31
538.25	56109.66
538.42	56140.09
538.59	56432.66
538.75	56243.07
538.92	56308.61
539.09	56484.15
539.26	56179.88
539.43	56376.48
539.60	56460.74
539.77	56507.55
539.94	56807.14
540.11	56481.81
540.28	56673.73
540.44	56554.36
540.61	56437.34
540.78	56638.62
540.95	56596.49
541.12	56566.07
541.29	56563.73
541.46	56935.87
541.62	56961.62
541.79	57055.24
541.96	56643.30
542.13	56837.57
542.30	56750.97
542.47	57080.98
542.63	57277.59
542.80	57123.11
542.97	57230.78
543.14	57401.64
543.31	57268.23
543.48	57698.89
543.64	57694.21
543.81	57563.14
543.98	57673.14
544.15	57546.75
544.32	57677.82
544.48	57633.35
544.65	57560.79
544.82	57652.08
544.99	57396.96
545.16	57565.48
545.32	57635.69
545.49	57661.44
545.66	58099.12
545.83	57853.36
546.00	57888.47
546.16	57895.49
546.33	57724.63
546.50	57860.38
546.67	58148.27
546.83	57523.35
547.00	57942.30
547.17	57979.75
547.34	58117.84
547.50	58204.44
547.67	58410.41
547.84	58260.62
548.00	58246.57
548.17	58403.39
548.34	58223.17
548.51	58667.87
548.67	58337.85
548.84	58253.59
549.01	58209.12
549.18	58312.11
549.34	58440.84
549.51	58656.17
549.68	58272.32
549.84	58405.73
550.01	58588.29
550.18	58429.13
550.34	58635.10
550.51	58674.89
550.68	58693.61
550.84	58504.03
551.01	58866.81
551.18	58658.51
551.34	58763.83
551.51	58794.26
551.68	58714.68
551.84	58831.71
552.01	58621.06
552.18	58941.71
552.34	58796.60
552.51	58834.05
552.68	58656.17
552.84	58873.84
553.01	59096.19
553.18	58838.73
553.34	59105.55
553.51	58653.82
553.67	59126.61
553.84	59157.04
554.01	59208.53
554.17	59166.40
554.34	59220.23
554.51	59213.21
554.67	59227.26
554.84	58967.46
555.00	59199.17
555.17	59236.62
555.33	59391.09
555.50	59114.91
555.67	59157.04
555.83	59330.24
556.00	59161.72
556.16	59592.38
556.33	59327.90
556.50	59496.42
556.66	59714.09
556.83	59365.35
556.99	59788.98
557.16	59753.88
557.32	59627.49
557.49	59772.60
557.65	59433.22
557.82	59552.59
557.98	59505.78
558.15	59650.89
558.32	59674.30
558.48	59416.84
558.65	59519.82
558.81	59777.28
558.98	59803.03
559.14	59906.01
559.31	59814.73
559.47	59875.58
559.64	59955.16
559.80	59955.16
559.97	59964.52
560.13	59765.58
560.30	59866.22
560.46	60025.38
560.63	60004.31
560.79	59976.23
560.96	60128.36
561.12	60069.85
561.29	59969.21
561.45	60037.08
561.61	59906.01
561.78	60086.23
561.94	60123.68
562.11	59753.88
562.27	60135.38
562.44	60186.88
562.60	60294.54
562.77	60191.56
562.93	60051.12
563.10	60214.96
563.26	60041.76
563.42	60013.68
563.59	60151.77
563.75	60261.77
563.92	60219.64
564.08	60224.32
564.24	60561.36
564.41	60292.20
564.57	60533.28
564.74	60341.35
564.90	60404.55
565.07	60186.88
565.23	60488.80
565.39	60287.52
565.56	60233.69
565.72	60221.98
565.88	60559.02
566.05	60320.29
566.21	60392.84
566.38	60427.95
566.54	60343.69
566.70	60622.22
566.87	60561.36
567.03	60404.55
567.19	60678.39
567.36	60444.33
567.52	60542.64
567.68	60647.96
567.85	60470.08
568.01	60954.57
568.17	60542.64
568.34	60512.21
568.50	60535.62
568.66	60404.55
568.83	60612.85
568.99	60514.55
569.15	60502.85
569.32	60708.82
569.48	60650.30
569.64	60750.94
569.81	60631.58
569.97	60683.07
570.13	60530.93
570.30	60563.70
570.46	60851.59
570.62	60837.54
570.78	60580.09
570.95	60720.52
571.11	60889.04
571.27	60647.96
571.43	60692.43
571.60	60828.18
571.76	60823.50
571.92	60846.91
572.09	60828.18
572.25	60867.97
572.41	60860.95
572.57	60671.37
572.74	60874.99
572.90	60720.52
573.06	60755.63
573.22	60690.09
573.38	60821.16
573.55	60882.02
573.71	60989.68
573.87	60837.54
574.03	60654.98
574.20	60896.06
574.36	60860.95
574.52	60767.33
574.68	60851.59
574.84	60954.57
575.01	61076.28
575.17	60954.57
575.33	60846.91
575.49	60814.14
575.65	60818.82
575.82	61102.03
575.98	60882.02
576.14	61345.44
576.30	61022.45
576.46	60851.59
576.62	60865.63
576.79	60786.05
576.95	60853.93
577.11	60912.44
577.27	61001.38
577.43	61015.43
577.59	60844.57
577.75	60994.36
577.92	61003.72
578.08	61059.90
578.24	61160.54
578.40	61230.75
578.56	61160.54
578.72	60994.36
578.88	61179.26
579.04	61268.20
579.21	61064.58
579.37	61064.58
579.53	61338.42
579.69	60903.08
579.85	61148.84
580.01	60968.61
580.17	60938.19
580.33	61095.00
580.49	61162.88
580.65	61003.72
580.82	60924.14
580.98	61062.24
581.14	60989.68
581.30	61137.13
581.46	60977.98
581.62	61272.88
581.78	60872.65
581.94	61095.00
582.10	61118.41
582.26	61102.03
582.42	61130.11
582.58	61104.37
582.74	61006.06
582.90	61099.68
583.06	61118.41
583.22	60999.04
583.38	61006.06
583.54	61219.05
583.70	61181.60
583.86	61197.99
584.02	60931.17
584.18	61111.39
584.34	61221.39
584.50	61183.94
584.66	61064.58
584.82	61006.06
584.98	61233.10
585.14	61331.40
585.30	61258.84
585.46	61099.68
585.62	61251.82
585.78	61289.27
585.94	61120.75
586.10	61144.16
586.26	61123.09
586.42	61104.37
586.58	61450.77
586.74	61336.08
586.90	61298.63
587.06	61249.48
587.22	61373.53
587.38	61286.93
587.54	61380.55
587.70	61436.72
587.86	61392.25
588.02	61312.67
588.18	61425.02
588.34	61277.57
