SpectraSuite Data File
++++++++++++++++++++++++++++++++++++
Date: Fri Oct 25 11:23:09 EDT 2013
User: price-jones
Dark Spectrum Present: No
Reference Spectrum Present: No
Number of Sampled Component Spectra: 1
Spectrometers: USB2+H05261
Integration Time (usec): 100000 (USB2+H05261)
Spectra Averaged: 1 (USB2+H05261)
Boxcar Smoothing: 0 (USB2+H05261)
Correct for Electrical Dark: No (USB2+H05261)
Strobe/Lamp Enabled: No (USB2+H05261)
Correct for Detector Non-linearity: No (USB2+H05261)
Correct for Stray Light: No (USB2+H05261)
Number of Pixels in Processed Spectrum: 2048
>>>>>Begin Processed Spectral Data<<<<<
365.73	245.76
365.92	245.76
366.12	245.76
366.32	161.50
366.52	70.22
366.72	119.37
366.91	102.98
367.11	124.05
367.31	117.03
367.51	154.48
367.70	117.03
367.90	166.18
368.10	65.54
368.30	65.54
368.49	60.85
368.69	173.20
368.89	163.84
369.09	168.52
369.28	131.07
369.48	147.45
369.68	215.33
369.87	182.56
370.07	166.18
370.27	262.14
370.47	330.02
370.66	622.58
370.86	662.37
371.06	631.94
371.25	634.29
371.45	617.90
371.65	706.84
371.84	587.47
372.04	704.50
372.24	751.31
372.44	695.14
372.63	767.70
372.83	779.40
373.03	718.54
373.22	784.08
373.42	683.44
373.62	704.50
373.81	720.88
374.01	849.61
374.21	842.59
374.40	767.70
374.60	826.21
374.79	795.78
374.99	826.21
375.19	805.14
375.38	842.59
375.58	793.44
375.78	896.43
375.97	844.93
376.17	891.74
376.37	875.36
376.56	840.25
376.76	765.36
376.95	905.79
377.15	947.92
377.35	870.68
377.54	908.13
377.74	896.43
377.93	861.32
378.13	901.11
378.33	980.68
378.52	938.55
378.72	854.30
378.91	952.60
379.11	917.49
379.31	922.17
379.50	933.87
379.70	1062.60
379.89	959.62
380.09	1006.43
380.28	968.98
380.48	980.68
380.68	961.96
380.87	936.21
381.07	966.64
381.26	1050.90
381.46	968.98
381.65	1128.14
381.85	980.68
382.04	1069.62
382.24	1022.81
382.43	1102.39
382.63	1109.41
382.83	1111.75
383.02	1160.91
383.22	1046.22
383.41	1109.41
383.61	1102.39
383.80	1203.04
384.00	1174.95
384.19	1050.90
384.39	1114.10
384.58	1177.29
384.78	1118.78
384.97	1090.69
385.17	1181.97
385.36	1158.57
385.56	1137.50
385.75	1123.46
385.95	1233.46
386.14	1188.99
386.34	1207.72
386.53	1228.78
386.72	1235.80
386.92	1296.66
387.11	1238.14
387.31	1259.21
387.50	1207.72
387.70	1217.08
387.89	1291.98
388.09	1315.38
388.28	1301.34
388.48	1359.85
388.67	1364.53
388.86	1366.87
389.06	1334.11
389.25	1376.24
389.45	1411.34
389.64	1338.79
389.84	1420.71
390.03	1441.77
390.22	1409.00
390.42	1409.00
390.61	1327.08
390.81	1329.42
391.00	1394.96
391.19	1467.52
391.39	1434.75
391.58	1476.88
391.78	1441.77
391.97	1469.86
392.16	1455.81
392.36	1561.14
392.55	1535.39
392.75	1453.47
392.94	1504.96
393.13	1659.44
393.33	1584.54
393.52	1540.07
393.71	1610.29
393.91	1619.65
394.10	1593.90
394.29	1584.54
394.49	1467.52
394.68	1533.05
394.88	1540.07
395.07	1636.03
395.26	1750.72
395.46	1701.57
395.65	1673.48
395.84	1657.10
396.04	1764.76
396.23	1802.21
396.42	1811.57
396.62	1799.87
396.81	1844.34
397.00	1806.89
397.19	1856.04
397.39	1755.40
397.58	1865.41
397.77	1811.57
397.97	1867.75
398.16	1987.11
398.35	1919.24
398.55	1881.79
398.74	1820.94
398.93	1961.37
399.12	1984.77
399.32	1947.33
399.51	1916.90
399.70	2073.71
399.90	2012.86
400.09	2017.54
400.28	2122.87
400.47	2073.71
400.67	2078.40
400.86	2019.88
401.05	2036.27
401.24	2104.14
401.44	2181.38
401.63	2265.64
401.82	2104.14
402.01	2078.40
402.21	2153.29
402.40	2167.34
402.59	2188.40
402.78	2155.63
402.97	2256.28
403.17	2218.83
403.36	2183.72
403.55	2347.56
403.74	2380.32
403.93	2314.79
404.13	2410.75
404.32	2389.69
404.51	2408.41
404.70	2410.75
404.89	2361.60
405.09	2567.57
405.28	2502.03
405.47	2441.18
405.66	2562.89
405.85	2605.02
406.05	2595.65
406.24	2637.78
406.43	2567.57
406.62	2605.02
406.81	2649.49
407.00	2558.21
407.20	2712.68
407.39	2581.61
407.58	2801.62
407.77	2857.79
407.96	2801.62
408.15	2780.56
408.34	2672.89
408.54	2832.05
408.73	2782.90
408.92	2839.07
409.11	3002.91
409.30	2860.13
409.49	2979.50
409.68	3038.02
409.87	3033.33
410.07	3000.57
410.26	3038.02
410.45	3028.65
410.64	3030.99
410.83	3173.77
411.02	3222.92
411.21	3246.32
411.40	3194.83
411.59	3213.56
411.78	3353.99
411.98	3246.32
412.17	3290.79
412.36	3339.94
412.55	3353.99
412.74	3417.18
412.93	3487.40
413.12	3375.05
413.31	3541.23
413.50	3555.27
413.69	3454.63
413.88	3557.61
414.07	3550.59
414.26	3632.51
414.45	3747.20
414.64	3627.83
414.83	3779.97
415.02	3920.40
415.22	3819.75
415.41	3943.80
415.60	3852.52
415.79	4021.04
415.98	4067.85
416.17	4147.43
416.36	3981.25
416.55	4037.42
416.74	4189.56
416.93	4102.96
417.12	4212.96
417.31	4194.24
417.50	4306.59
417.69	4362.76
417.88	4334.67
418.07	4362.76
418.26	4304.25
418.45	4315.95
418.64	4444.68
418.83	4493.83
419.02	4411.91
419.21	4498.51
419.39	4613.20
419.58	4545.32
419.77	4447.02
419.96	4753.63
420.15	4573.41
420.34	4582.77
420.53	4645.96
420.72	4711.50
420.91	4629.58
421.10	4765.33
421.29	4770.01
421.48	4636.60
421.67	4723.20
421.86	4713.84
422.05	4940.87
422.24	4875.34
422.43	4851.93
422.61	4964.28
422.80	5060.24
422.99	4844.91
423.18	4947.89
423.37	4938.53
423.56	4880.02
423.75	4945.55
423.94	4873.00
424.13	4648.30
424.32	4844.91
424.50	4961.94
424.69	5144.50
424.88	5128.11
425.07	4896.40
425.26	4971.30
425.45	5015.77
425.64	5074.28
425.83	4985.34
426.01	5095.35
426.20	5125.77
426.39	5085.98
426.58	5118.75
426.77	5146.84
426.96	5139.82
427.15	4999.38
427.33	5221.74
427.52	5247.48
427.71	5212.37
427.90	5224.08
428.09	5317.70
428.28	5427.70
428.46	5432.38
428.65	5465.15
428.84	5537.71
429.03	5689.84
429.22	5446.43
429.40	5570.48
429.59	5572.82
429.78	5458.13
429.97	5441.75
430.16	5507.28
430.34	5701.54
430.53	5668.78
430.72	5687.50
430.91	5593.88
431.10	5462.81
431.28	5961.34
431.47	5996.45
431.66	5916.87
431.85	5973.05
432.03	5966.03
432.22	5961.34
432.41	6207.10
432.60	5977.73
432.79	5963.68
432.97	6057.31
433.16	6209.44
433.35	6134.54
433.54	6157.95
433.72	6174.33
433.91	6214.12
434.10	6160.29
434.28	6209.44
434.47	6370.94
434.66	6399.02
434.85	6413.07
435.03	6396.68
435.22	6242.21
435.41	6649.46
435.59	6595.63
435.78	6553.50
435.97	6583.93
436.16	6492.65
436.34	6511.37
436.53	6459.88
436.72	6869.47
436.90	6373.28
437.09	6782.87
437.28	6537.12
437.46	6679.89
437.65	6668.19
437.84	6703.29
438.02	6927.99
438.21	6848.41
438.40	6902.24
438.58	7077.78
438.77	7288.43
438.96	7049.69
439.14	7199.49
439.33	7194.81
439.52	7297.79
439.70	7190.13
439.89	7442.90
440.08	7534.18
440.26	7414.82
440.45	7414.82
440.63	7557.59
440.82	7801.01
441.01	7485.03
441.19	7618.44
441.38	7866.54
441.57	7784.62
441.75	7927.39
441.94	8180.17
442.12	8042.08
442.31	8152.09
442.50	8065.49
442.68	8028.04
442.87	8290.18
443.05	8184.85
443.24	8601.47
443.43	8313.58
443.61	8400.18
443.80	8402.52
443.98	8182.51
444.17	7875.90
444.35	8299.54
444.54	8351.03
444.73	8423.59
444.91	8215.28
445.10	8439.97
445.28	8561.68
445.47	8322.94
445.65	8339.33
445.84	8631.90
446.02	8468.06
446.21	8678.71
446.39	8421.25
446.58	8519.55
446.77	8514.87
446.95	8505.51
447.14	8512.53
447.32	8737.22
447.51	8631.90
447.69	8470.40
447.88	8580.40
448.06	8685.73
448.25	8439.97
448.43	8559.34
448.62	8655.30
448.80	8631.90
448.99	8638.92
449.17	8716.16
449.36	8732.54
449.54	8924.46
449.73	8961.91
449.91	9198.31
450.10	9041.49
450.28	9217.03
450.46	9015.74
450.65	9156.18
450.83	9130.43
451.02	8978.30
451.20	9411.29
451.39	9327.03
451.57	9128.09
451.76	9301.29
451.94	9217.03
452.13	9521.30
452.31	9439.38
452.49	9111.71
452.68	9336.40
452.86	9439.38
453.05	9624.28
453.23	9659.39
453.42	9348.10
453.60	9394.91
453.78	9626.62
453.97	9561.09
454.15	9650.03
454.34	9605.56
454.52	9614.92
454.70	9912.17
454.89	9928.55
455.07	9973.02
455.26	10108.77
455.44	10076.01
455.62	10209.42
455.81	9902.81
455.99	10031.54
456.17	10146.22
456.36	10366.23
456.54	10326.44
456.73	10459.85
456.91	10518.37
457.09	10544.11
457.28	10888.17
457.46	10321.76
457.64	10499.64
457.83	10843.70
458.01	10532.41
458.19	10794.55
458.38	10883.49
458.56	10832.00
458.74	10661.14
458.93	10869.45
459.11	10785.19
459.29	10920.94
459.48	10668.16
459.66	10794.55
459.84	10888.17
460.03	11307.13
460.21	10991.16
460.39	10965.41
460.57	11096.48
460.76	11265.00
460.94	11328.19
461.12	11253.30
461.31	11302.45
461.49	11311.81
461.67	11176.06
461.85	11515.44
462.04	11442.88
462.22	11616.08
462.40	11569.27
462.59	11407.77
462.77	11768.21
462.95	11613.74
463.13	11894.60
463.32	11723.74
463.50	11777.58
463.68	12159.08
463.86	11997.59
464.05	11772.89
464.23	11880.56
464.41	12002.27
464.59	11784.60
464.78	12446.97
464.96	12053.76
465.14	12163.76
465.32	12372.07
465.50	11943.75
465.69	12334.62
465.87	12140.36
466.05	12233.98
466.23	12458.67
466.41	12402.50
466.60	12571.02
466.78	12538.25
466.96	12287.81
467.14	12360.37
467.32	12437.61
467.51	12683.36
467.69	12461.01
467.87	12542.93
468.05	12737.20
468.23	12608.47
468.41	12458.67
468.60	12547.61
468.78	12678.68
468.96	12730.17
469.14	13020.40
469.32	13191.26
469.50	12858.90
469.69	13160.83
469.87	13170.19
470.05	13118.70
470.23	13252.11
470.41	13097.64
470.59	13434.68
470.77	13422.97
470.95	13507.23
471.14	13614.90
471.32	13357.44
471.50	13525.96
471.68	13973.00
471.86	13738.94
472.04	13771.71
472.22	14221.10
472.40	13830.23
472.58	14010.45
472.77	14146.20
472.95	14272.59
473.13	14728.99
473.31	14066.62
473.49	14352.16
473.67	14185.99
473.85	14394.29
474.03	14771.12
474.21	14672.82
474.39	14869.42
474.57	14670.48
474.75	14939.64
474.93	15154.97
475.12	14949.00
475.30	15194.76
475.48	15103.48
475.66	15183.06
475.84	15536.48
476.02	15384.34
476.20	15220.50
476.38	15653.50
476.56	16187.14
476.74	16086.50
476.92	15960.11
477.10	15985.86
477.28	16161.40
477.46	16678.66
477.64	16652.91
477.82	16610.78
478.00	17137.40
478.18	17114.00
478.36	17404.22
478.54	16996.97
478.72	17387.84
478.90	17551.68
479.08	17902.76
479.26	17771.69
479.44	18164.90
479.62	17951.91
479.80	18157.88
479.98	18640.03
480.16	18876.42
480.34	18401.29
480.52	18902.17
480.70	18972.38
480.88	18651.73
481.06	18970.04
481.24	19042.60
481.41	19225.16
481.59	19576.24
481.77	19751.78
481.95	19873.49
482.13	19910.94
482.31	20049.03
482.49	20444.58
482.67	20425.86
482.85	20734.81
483.03	20933.75
483.21	20924.39
483.39	21081.21
483.57	21022.69
483.74	21287.17
483.92	21460.37
484.10	21436.97
484.28	21830.18
484.46	21970.61
484.64	22562.76
484.82	22354.46
485.00	22787.46
485.18	23204.07
485.35	23236.84
485.53	22953.63
485.71	23211.09
485.89	23594.94
486.07	23232.16
486.25	23468.55
486.43	23845.38
486.61	24311.14
486.78	24149.65
486.96	24332.21
487.14	24753.51
487.32	24732.44
487.50	25109.27
487.68	25385.45
487.85	25560.99
488.03	26249.11
488.21	26141.44
488.39	25905.05
488.57	26263.15
488.75	26632.96
488.92	27094.04
489.10	27215.75
489.28	27124.47
489.46	27449.80
489.64	27503.64
489.81	27463.85
489.99	27941.32
490.17	28112.17
490.35	28484.32
490.53	28374.31
490.70	28980.51
490.88	28514.75
491.06	29205.20
491.24	29357.34
491.41	29460.32
491.59	29776.30
491.77	29481.39
491.95	29563.31
492.13	30103.97
492.30	30307.60
492.48	30452.71
492.66	30602.50
492.84	30628.25
493.01	30988.69
493.19	31440.42
493.37	31311.69
493.54	31510.63
493.72	32383.65
493.90	31817.24
494.08	32348.54
494.25	32105.13
494.43	32395.35
494.61	32781.54
494.79	32980.49
494.96	32872.82
495.14	33090.49
495.32	33450.94
495.49	33362.00
495.67	33619.46
495.85	33631.16
496.02	34464.39
496.20	34052.45
496.38	34501.84
496.55	34227.99
496.73	35569.12
496.91	35047.18
497.09	35503.59
497.26	35353.79
497.44	35089.31
497.62	35995.10
497.79	36175.32
497.97	36020.84
498.14	36116.81
498.32	36521.72
498.50	37036.64
498.67	36968.76
498.85	36589.59
499.03	37017.91
499.20	37439.21
499.38	37254.31
499.56	37584.32
499.73	38075.84
499.91	37951.79
500.08	38469.04
500.26	38038.39
500.44	37794.97
500.61	38230.31
500.79	38183.50
500.97	38319.25
501.14	38913.75
501.32	38937.15
501.49	39152.48
501.67	39297.59
501.84	39129.08
502.02	38820.13
502.20	39648.68
502.37	39526.97
502.55	39681.44
502.72	39590.16
502.90	39782.09
503.07	40198.70
503.25	40182.32
503.43	40308.71
503.60	39978.69
503.78	40835.33
503.95	40893.84
504.13	40800.22
504.30	41303.43
504.48	40797.88
504.65	41411.10
504.83	41350.24
505.01	41860.48
505.18	41640.47
505.36	41886.23
505.53	41233.22
505.71	41895.59
505.88	42284.12
506.06	41883.89
506.23	42593.07
506.41	41865.16
506.58	42614.13
506.76	42855.21
506.93	43316.29
507.11	42997.98
507.28	43002.66
507.46	43473.11
507.63	43585.46
507.81	43569.07
507.98	43178.20
508.16	43438.00
508.33	43934.20
508.50	43686.10
508.68	44250.17
508.85	44048.88
509.03	44217.40
509.20	44524.01
509.38	44898.50
509.55	44910.20
509.73	44624.65
509.90	45050.63
510.08	45184.04
510.25	45076.38
510.42	45282.34
510.60	45294.05
510.77	45399.37
510.95	45890.88
511.12	45631.08
511.30	45794.92
511.47	45942.38
511.64	46143.66
511.82	46387.08
511.99	46265.37
512.17	46164.73
512.34	46307.50
512.51	46478.36
512.69	46834.12
512.86	46878.59
513.04	47271.80
513.21	46937.10
513.38	47473.09
513.56	47657.99
513.73	46979.23
513.90	47501.17
514.08	47559.69
514.25	47716.50
514.43	47826.51
514.60	48076.94
514.77	47835.87
514.95	47856.93
515.12	48107.37
515.29	48051.20
515.47	48383.55
515.64	48224.40
515.81	48121.41
515.99	48425.68
516.16	48781.45
516.33	48603.56
516.51	48854.00
516.68	49013.16
516.85	49132.53
517.03	49277.64
517.20	49301.04
517.37	49160.61
517.54	49373.60
517.72	49347.86
517.89	49397.01
518.06	49825.32
518.24	49614.68
518.41	49998.52
518.58	50153.00
518.75	49584.25
518.93	50040.65
519.10	50115.55
519.27	50263.00
519.45	50185.77
519.62	49982.14
519.79	50272.37
519.96	50541.53
520.14	50536.85
520.31	50508.76
520.48	51203.90
520.65	50567.27
520.83	50934.74
521.00	50838.78
521.17	51014.32
521.34	51107.94
521.52	51086.87
521.69	51215.60
521.86	51543.28
522.03	51215.60
522.20	51559.66
522.38	52027.77
522.55	51990.32
522.72	51676.69
522.89	51554.98
523.07	52006.70
523.24	51798.40
523.41	52170.54
523.58	51702.43
523.75	52301.61
523.92	52170.54
524.10	52320.34
524.27	52505.24
524.44	52467.79
524.61	52437.36
524.78	52545.03
524.96	52711.20
525.13	52559.07
525.30	52994.41
525.47	53041.22
525.64	52938.24
525.81	52926.53
525.98	53092.71
526.16	52856.32
526.33	53289.32
526.50	53081.01
526.67	53027.18
526.84	53371.24
527.01	53034.20
527.18	53148.88
527.36	53373.58
527.53	53146.54
527.70	53518.69
527.87	53640.40
528.04	53539.75
528.21	53764.45
528.38	53776.15
528.55	53797.21
528.72	53614.65
528.89	53886.15
529.07	53996.16
529.24	53787.85
529.41	53727.00
529.58	53851.05
529.75	53869.77
529.92	54096.80
530.09	54255.96
530.26	54497.03
530.43	54237.23
530.60	54241.92
530.77	54223.19
530.94	54384.69
531.11	54298.09
531.28	54532.14
531.46	54738.11
531.63	54660.87
531.80	54588.31
531.97	54780.24
532.14	54738.11
532.31	55075.15
532.48	54904.29
532.65	55138.34
532.82	54735.77
532.99	55089.19
533.16	54775.56
533.33	54934.71
533.50	55096.21
533.67	55042.38
533.84	55077.49
534.01	55327.92
534.18	55428.57
534.35	55594.74
534.52	55318.56
534.69	55330.26
534.86	55351.33
535.03	55517.51
535.20	55599.43
535.37	55561.98
535.54	55587.72
535.71	55620.49
535.88	55765.60
536.05	55664.96
536.22	55880.29
536.38	55978.59
536.55	55873.27
536.72	55922.42
536.89	55732.84
537.06	56123.71
537.23	55966.89
537.40	56030.08
537.57	55819.44
537.74	56165.84
537.91	56509.89
538.08	56156.47
538.25	56002.00
538.42	56236.05
538.59	56357.76
538.75	56093.28
538.92	56371.80
539.09	56573.09
539.26	56559.05
539.43	56430.32
539.60	56540.32
539.77	56449.04
539.94	56662.03
540.11	56638.62
540.28	56741.61
540.44	56720.54
540.61	56837.57
540.78	56662.03
540.95	56706.50
541.12	56619.90
541.29	56554.36
541.46	56790.76
541.62	56858.63
541.79	56947.57
541.96	56655.01
542.13	57167.58
542.30	57080.98
542.47	57193.33
542.63	57073.96
542.80	57284.61
542.97	57406.32
543.14	57293.97
543.31	57607.61
543.48	57453.13
543.64	57577.18
543.81	57680.16
543.98	57588.88
544.15	57614.63
544.32	57794.85
544.48	57858.04
544.65	57425.04
544.82	57977.41
544.99	57621.65
545.16	57558.45
545.32	57577.18
545.49	57944.64
545.66	58024.22
545.83	58059.33
546.00	57822.93
546.16	57881.45
546.33	57750.38
546.50	57848.68
546.67	57991.45
546.83	57710.59
547.00	57977.41
547.17	58078.05
547.34	58145.93
547.50	58265.30
547.67	58260.62
547.84	58323.81
548.00	58248.91
548.17	58693.61
548.34	58403.39
548.51	58480.63
548.67	58658.51
548.84	58478.28
549.01	58473.60
549.18	58452.54
549.34	58513.39
549.51	58614.04
549.68	58485.31
549.84	58646.80
550.01	58555.52
550.18	58489.99
550.34	58688.93
550.51	58637.44
550.68	58649.14
550.84	58497.01
551.01	58761.49
551.18	58639.78
551.34	58824.68
551.51	58670.21
551.68	59032.99
551.84	58850.43
552.01	58953.41
552.18	58658.51
552.34	58904.26
552.51	59023.63
552.68	58979.16
552.84	58843.41
553.01	59245.98
553.18	59180.45
553.34	59007.25
553.51	59110.23
553.67	59208.53
553.84	59367.69
554.01	59004.91
554.17	59355.99
554.34	59426.20
554.51	58913.62
554.67	59267.05
554.84	59157.04
555.00	59173.42
555.17	59231.94
555.33	59264.70
555.50	59262.36
555.67	59288.11
555.83	59110.23
556.00	59192.15
556.16	59746.86
556.33	59571.32
556.50	59428.54
556.66	59772.60
556.83	59583.02
556.99	59590.04
557.16	59810.05
557.32	59709.41
557.49	59770.26
557.65	59444.93
557.82	59636.85
557.98	59564.29
558.15	59641.53
558.32	59803.03
558.48	59667.28
558.65	59643.87
558.81	59650.89
558.98	59774.94
559.14	59845.16
559.31	59859.20
559.47	60217.30
559.64	59994.95
559.80	59920.05
559.97	59774.94
560.13	59894.31
560.30	60102.62
560.46	60140.07
560.63	59969.21
560.79	59877.93
560.96	60083.89
561.12	60214.96
561.29	60083.89
561.45	60154.11
561.61	60046.44
561.78	60032.40
561.94	59969.21
562.11	60076.87
562.27	60030.06
562.44	60081.55
562.60	60229.01
562.77	60341.35
562.93	60004.31
563.10	60240.71
563.26	60212.62
563.42	60348.37
563.59	60254.75
563.75	60207.94
563.92	60392.84
564.08	60420.93
564.24	60303.90
564.41	60327.31
564.57	60409.23
564.74	60236.03
564.90	60327.31
565.07	60329.65
565.23	60622.22
565.39	60357.74
565.56	60390.50
565.72	60509.87
565.88	60495.83
566.05	60444.33
566.21	60303.90
566.38	60596.47
566.54	60636.26
566.70	60619.88
566.87	60704.13
567.03	60444.33
567.19	60640.94
567.36	60605.83
567.52	60570.72
567.68	60825.84
567.85	60739.24
568.01	60818.82
568.17	60514.55
568.34	60720.52
568.50	60570.72
568.66	60615.19
568.83	60624.56
568.99	60453.70
569.15	60552.00
569.32	60587.11
569.48	60631.58
569.64	60720.52
569.81	60657.32
569.97	60608.17
570.13	60788.39
570.30	60678.39
570.46	60802.44
570.62	60839.89
570.78	60800.10
570.95	60835.20
571.11	60903.08
571.27	60683.07
571.43	60767.33
571.60	60963.93
571.76	60821.16
571.92	60889.04
572.09	60774.35
572.25	60910.10
572.41	60802.44
572.57	60917.12
572.74	60968.61
572.90	60781.37
573.06	60830.52
573.22	60825.84
573.38	61167.56
573.55	60961.59
573.71	61066.92
573.87	61097.34
574.03	60786.05
574.20	61048.19
574.36	60949.89
574.52	60963.93
574.68	60987.34
574.84	61010.74
575.01	61029.47
575.17	60846.91
575.33	61024.79
575.49	60860.95
575.65	61183.94
575.82	61010.74
575.98	60954.57
576.14	61219.05
576.30	60956.91
576.46	60935.85
576.62	60989.68
576.79	60867.97
576.95	60727.54
577.11	60999.04
577.27	61106.71
577.43	60975.64
577.59	60994.36
577.75	60945.21
577.92	60804.78
578.08	61151.18
578.24	61076.28
578.40	61226.07
578.56	61139.47
578.72	60947.55
578.88	61179.26
579.04	61284.59
579.21	60926.49
579.37	61333.74
579.53	61219.05
579.69	60968.61
579.85	61186.28
580.01	60940.53
580.17	61052.87
580.33	61350.12
580.49	61155.86
580.65	61258.84
580.82	60900.74
580.98	60963.93
581.14	61038.83
581.30	61109.05
581.46	61209.69
581.62	61151.18
581.78	61085.64
581.94	61380.55
582.10	61352.46
582.26	61277.57
582.42	61214.37
582.58	61247.14
582.74	61286.93
582.90	61146.50
583.06	61197.99
583.22	60949.89
583.38	61263.52
583.54	61422.68
583.70	61174.58
583.86	61282.25
584.02	61148.84
584.18	61258.84
584.34	61357.14
584.50	61193.31
584.66	61340.76
584.82	60966.27
584.98	61240.12
585.14	61305.65
585.30	61134.79
585.46	61148.84
585.62	61347.78
585.78	61366.51
585.94	61015.43
586.10	61244.80
586.26	61195.65
586.42	61296.29
586.58	61361.82
586.74	61343.10
586.90	61195.65
587.06	61223.73
587.22	61375.87
587.38	61347.78
587.54	61518.64
587.70	61520.98
587.86	61471.83
588.02	61303.31
588.18	61448.42
588.34	61347.78
588.49	61303.31
