SpectraSuite Data File
++++++++++++++++++++++++++++++++++++
Date: Fri Oct 25 11:25:12 EDT 2013
User: price-jones
Dark Spectrum Present: No
Reference Spectrum Present: No
Number of Sampled Component Spectra: 1
Spectrometers: USB2+H05261
Integration Time (usec): 100000 (USB2+H05261)
Spectra Averaged: 1 (USB2+H05261)
Boxcar Smoothing: 0 (USB2+H05261)
Correct for Electrical Dark: No (USB2+H05261)
Strobe/Lamp Enabled: No (USB2+H05261)
Correct for Detector Non-linearity: No (USB2+H05261)
Correct for Stray Light: No (USB2+H05261)
Number of Pixels in Processed Spectrum: 2048
>>>>>Begin Processed Spectral Data<<<<<
365.73	269.16
365.92	269.16
366.12	269.16
366.32	198.95
366.52	152.13
366.72	147.45
366.91	201.29
367.11	107.66
367.31	46.81
367.51	114.69
367.70	159.16
367.90	131.07
368.10	154.48
368.30	149.79
368.49	138.09
368.69	248.10
368.89	95.96
369.09	180.22
369.28	191.92
369.48	135.75
369.68	198.95
369.87	173.20
370.07	189.58
370.27	194.26
370.47	325.33
370.66	561.73
370.86	648.33
371.06	643.65
371.25	706.84
371.45	617.90
371.65	674.07
371.84	634.29
372.04	720.88
372.24	739.61
372.44	695.14
372.63	767.70
372.83	683.44
373.03	760.67
373.22	791.10
373.42	704.50
373.62	734.93
373.81	826.21
374.01	847.27
374.21	854.30
374.40	798.12
374.60	809.83
374.79	739.61
374.99	805.14
375.19	755.99
375.38	896.43
375.58	889.40
375.78	908.13
375.97	931.53
376.17	976.00
376.37	868.34
376.56	849.61
376.76	833.23
376.95	837.91
377.15	945.58
377.35	936.21
377.54	936.21
377.74	889.40
377.93	926.85
378.13	896.43
378.33	919.83
378.52	849.61
378.72	943.24
378.91	938.55
379.11	851.96
379.31	968.98
379.50	1032.18
379.70	933.87
379.89	966.64
380.09	931.53
380.28	1015.79
380.48	968.98
380.68	917.49
380.87	985.37
381.07	957.28
381.26	1086.01
381.46	1004.09
381.65	1006.43
381.85	1046.22
382.04	1060.26
382.24	1034.52
382.43	1086.01
382.63	1064.94
382.83	1034.52
383.02	1069.62
383.22	1067.28
383.41	1062.60
383.61	1078.99
383.80	1062.60
384.00	1095.37
384.19	1132.82
384.39	1111.75
384.58	1153.88
384.78	1165.59
384.97	1240.48
385.17	1188.99
385.36	1111.75
385.56	1214.74
385.75	1097.71
385.95	1268.57
386.14	1177.29
386.34	1184.31
386.53	1170.27
386.72	1238.14
386.92	1214.74
387.11	1196.01
387.31	1263.89
387.50	1245.16
387.70	1228.78
387.89	1352.83
388.09	1303.68
388.28	1317.72
388.48	1315.38
388.67	1249.85
388.86	1301.34
389.06	1205.38
389.25	1357.51
389.45	1256.87
389.64	1401.98
389.84	1357.51
390.03	1310.70
390.22	1299.00
390.42	1315.38
390.61	1341.13
390.81	1270.91
391.00	1394.96
391.19	1409.00
391.39	1444.11
391.58	1488.58
391.78	1413.68
391.97	1483.90
392.16	1521.35
392.36	1509.65
392.55	1535.39
392.75	1469.86
392.94	1472.20
393.13	1600.93
393.33	1516.67
393.52	1526.03
393.71	1521.35
393.91	1657.10
394.10	1561.14
394.29	1577.52
394.49	1523.69
394.68	1696.89
394.88	1624.33
395.07	1710.93
395.26	1617.31
395.46	1652.42
395.65	1699.23
395.84	1746.04
396.04	1762.42
396.23	1844.34
396.42	1715.61
396.62	1675.82
396.81	1790.51
397.00	1769.44
397.19	1799.87
397.39	1762.42
397.58	1783.49
397.77	1797.53
397.97	1816.26
398.16	1849.02
398.35	1914.56
398.55	1825.62
398.74	1970.73
398.93	1956.69
399.12	1980.09
399.32	1926.26
399.51	1980.09
399.70	1984.77
399.90	1940.30
400.09	1968.39
400.28	2064.35
400.47	2054.99
400.67	2069.03
400.86	2104.14
401.05	2099.46
401.24	2087.76
401.44	2064.35
401.63	2099.46
401.82	2097.12
402.01	2125.21
402.21	2101.80
402.40	2122.87
402.59	2120.53
402.78	2186.06
402.97	2307.77
403.17	2260.96
403.36	2195.42
403.55	2282.02
403.74	2275.00
403.93	2361.60
404.13	2377.98
404.32	2406.07
404.51	2300.75
404.70	2267.98
404.89	2387.35
405.09	2459.90
405.28	2424.80
405.47	2487.99
405.66	2497.35
405.85	2513.74
406.05	2502.03
406.24	2548.84
406.43	2590.97
406.62	2476.29
406.81	2668.21
407.00	2422.45
407.20	2628.42
407.39	2602.68
407.58	2703.32
407.77	2663.53
407.96	2757.15
408.15	2712.68
408.34	2775.88
408.54	2743.11
408.73	2813.32
408.92	2810.98
409.11	2794.60
409.30	2883.54
409.49	2862.48
409.68	2970.14
409.87	2874.18
410.07	2829.71
410.26	2939.71
410.45	2911.63
410.64	3084.83
410.83	3005.25
411.02	3141.00
411.21	3082.49
411.40	2995.89
411.59	3201.85
411.78	3173.77
411.98	3110.57
412.17	3248.66
412.36	3117.59
412.55	3375.05
412.74	3417.18
412.93	3300.16
413.12	3325.90
413.31	3405.48
413.50	3410.16
413.69	3489.74
413.88	3613.79
414.07	3571.66
414.26	3730.81
414.45	3588.04
414.64	3641.87
414.83	3775.28
415.02	3676.98
415.22	3817.41
415.41	3735.50
415.60	3829.12
415.79	4042.11
415.98	3922.74
416.17	3971.89
416.36	3871.25
416.55	3936.78
416.74	4030.40
416.93	4079.55
417.12	4088.92
417.31	4126.36
417.50	4049.13
417.69	4238.71
417.88	4397.87
418.07	4308.93
418.26	4252.75
418.45	4203.60
418.64	4461.06
418.83	4365.10
419.02	4407.23
419.21	4477.44
419.39	4437.66
419.58	4355.74
419.77	4458.72
419.96	4411.91
420.15	4409.57
420.34	4589.79
420.53	4334.67
420.72	4507.87
420.91	4634.26
421.10	4634.26
421.29	4723.20
421.48	4610.86
421.67	4774.69
421.86	4652.98
422.05	4695.11
422.24	4669.37
422.43	4898.74
422.61	4863.63
422.80	5069.60
422.99	4880.02
423.18	4751.29
423.37	5022.79
423.56	5109.39
423.75	4762.99
423.94	4945.55
424.13	4695.11
424.32	4767.67
424.50	4929.17
424.69	4978.32
424.88	5137.48
425.07	5034.49
425.26	4903.42
425.45	5053.22
425.64	4912.78
425.83	4940.87
426.01	4863.63
426.20	4994.70
426.39	5039.17
426.58	5057.90
426.77	4985.34
426.96	5135.14
427.15	5247.48
427.33	5273.23
427.52	5104.71
427.71	5102.37
427.90	5238.12
428.09	5142.16
428.28	5233.44
428.46	5345.78
428.65	5378.55
428.84	5497.92
429.03	5497.92
429.22	5256.84
429.40	5275.57
429.59	5568.13
429.78	5266.21
429.97	5203.01
430.16	5315.36
430.34	5392.59
430.53	5715.59
430.72	5596.22
430.91	5617.29
431.10	5607.92
431.28	5722.61
431.47	5694.52
431.66	5860.70
431.85	5701.54
432.03	5799.85
432.22	5731.97
432.41	5959.00
432.60	6012.84
432.79	5827.93
432.97	5919.21
433.16	5884.11
433.35	5853.68
433.54	6097.10
433.72	6038.58
433.91	6026.88
434.10	6127.52
434.28	5959.00
434.47	6171.99
434.66	6113.48
434.85	6282.00
435.03	6342.85
435.22	6293.70
435.41	6436.47
435.59	6349.87
435.78	6328.81
435.97	6406.05
436.16	6305.40
436.34	6303.06
436.53	6450.52
436.72	6607.33
436.90	6307.74
437.09	6743.08
437.28	6431.79
437.46	6623.72
437.65	6427.11
437.84	6719.68
438.02	6700.95
438.21	6757.13
438.40	6766.49
438.58	6958.41
438.77	7023.95
438.96	6689.25
439.14	6977.14
439.33	7124.59
439.52	7089.48
439.70	7232.26
439.89	7487.37
440.08	7398.43
440.26	7339.92
440.45	7412.48
440.63	7506.10
440.82	7735.47
441.01	7506.10
441.19	7360.98
441.38	7534.18
441.57	7712.07
441.75	7845.48
441.94	7901.65
442.12	8004.63
442.31	7901.65
442.50	7922.71
442.68	7875.90
442.87	7988.25
443.05	7999.95
443.24	8039.74
443.43	7990.59
443.61	8100.59
443.80	8374.44
443.98	8107.62
444.17	7906.33
444.35	8161.45
444.54	8344.01
444.73	8229.32
444.91	8283.16
445.10	8304.22
445.28	8198.90
445.47	8131.02
445.65	8308.90
445.84	8379.12
446.02	8439.97
446.21	8430.61
446.39	8381.46
446.58	8437.63
446.77	8264.43
446.95	8053.78
447.14	8358.05
447.32	8379.12
447.51	8428.27
447.69	8535.93
447.88	8573.38
448.06	8217.62
448.25	8444.65
448.43	8500.83
448.62	8475.08
448.80	8561.68
448.99	8376.78
449.17	8610.83
449.36	8538.27
449.54	8966.59
449.73	8887.01
449.91	8858.93
450.10	8905.74
450.28	9181.92
450.46	8980.64
450.65	8950.21
450.83	8891.70
451.02	8870.63
451.20	9235.75
451.39	9104.68
451.57	9029.79
451.76	9146.81
451.94	9055.53
452.13	9277.88
452.31	9289.59
452.49	9088.30
452.68	9315.33
452.86	9247.46
453.05	9350.44
453.23	9500.23
453.42	9451.08
453.60	9315.33
453.78	9481.51
453.97	9296.61
454.15	9577.47
454.34	9745.99
454.52	9600.88
454.70	9558.75
454.89	9694.50
455.07	9802.16
455.26	9640.67
455.44	9963.66
455.62	9769.40
455.81	9884.08
455.99	9848.97
456.17	9951.96
456.36	9914.51
456.54	10132.18
456.73	10188.35
456.91	10258.57
457.09	10361.55
457.28	10459.85
457.46	10279.63
457.64	10356.87
457.83	10270.27
458.01	10256.23
458.19	10422.41
458.38	10546.45
458.56	10780.51
458.74	10509.01
458.93	10808.59
459.11	10626.03
459.29	10497.30
459.48	10691.57
459.66	10876.47
459.84	10874.13
460.03	10967.75
460.21	11080.10
460.39	10934.98
460.57	10930.30
460.76	10995.84
460.94	11176.06
461.12	11059.03
461.31	11136.27
461.49	10881.15
461.67	11052.01
461.85	11307.13
462.04	11267.34
462.22	11775.24
462.40	11541.18
462.59	11555.22
462.77	11293.08
462.95	11466.28
463.13	11489.69
463.32	11716.72
463.50	11552.88
463.68	11744.81
463.86	11941.41
464.05	11496.71
464.23	11709.70
464.41	11705.02
464.59	11686.29
464.78	12035.03
464.96	11770.55
465.14	11693.32
465.32	12067.80
465.50	11941.41
465.69	12100.57
465.87	11843.11
466.05	12091.21
466.23	12112.27
466.41	12072.48
466.60	12365.05
466.78	12011.63
466.96	12278.45
467.14	12205.89
467.32	12477.40
467.51	12348.67
467.69	12116.95
467.87	12322.92
468.05	12613.15
468.23	12273.77
468.41	12521.87
468.60	12463.35
468.78	12681.02
468.96	12320.58
469.14	12776.98
469.32	12723.15
469.50	12753.58
469.69	12950.18
469.87	13095.30
470.05	13060.19
470.23	13046.15
470.41	13018.06
470.59	13364.46
470.77	13224.03
470.95	13146.79
471.14	13483.83
471.32	12854.22
471.50	13448.72
471.68	13558.72
471.86	13736.60
472.04	13500.21
472.22	13984.70
472.40	13640.64
472.58	13891.08
472.77	14157.90
472.95	14148.54
473.13	14448.13
473.31	13860.65
473.49	13989.38
473.67	14005.77
473.85	14326.42
474.03	14623.67
474.21	14396.64
474.39	14682.18
474.57	14600.26
474.75	14623.67
474.93	14888.15
475.12	14829.63
475.30	15147.95
475.48	15014.54
475.66	15005.17
475.84	15213.48
476.02	15087.09
476.20	15110.50
476.38	15800.96
476.56	15761.17
476.74	15868.83
476.92	15557.54
477.10	15728.40
477.28	15878.19
477.46	15971.82
477.64	16353.32
477.82	16381.41
478.00	16980.59
478.18	16872.92
478.36	16641.21
478.54	16954.84
478.72	16999.31
478.90	17263.79
479.08	17446.35
479.26	17467.42
479.44	17448.69
479.62	17694.45
479.80	17823.18
479.98	17781.05
480.16	18492.57
480.34	18066.60
480.52	18501.93
480.70	18532.36
480.88	18359.16
481.06	18670.45
481.24	18700.88
481.41	19096.43
481.59	19363.25
481.77	19393.68
481.95	19674.54
482.13	19510.71
482.31	19482.62
482.49	19967.11
482.67	19822.00
482.85	20285.42
483.03	20622.46
483.21	20732.47
483.39	20386.07
483.57	20751.19
483.74	20973.54
483.92	20952.48
484.10	21177.17
484.28	21378.45
484.46	21867.63
484.64	22546.38
484.82	21781.03
485.00	22190.62
485.18	22675.11
485.35	22670.43
485.53	22401.27
485.71	23002.78
485.89	23733.03
486.07	23094.07
486.25	22927.89
486.43	23611.32
486.61	23625.37
486.78	23833.68
486.96	23777.50
487.14	24353.27
487.32	24074.75
487.50	24760.53
487.68	24807.34
487.85	24802.66
488.03	24968.84
488.21	25556.31
488.39	25654.61
488.57	25947.18
488.75	25986.97
488.92	26185.91
489.10	26455.08
489.28	26593.17
489.46	26869.35
489.64	26869.35
489.81	27655.77
489.99	27243.84
490.17	27599.60
490.35	27651.09
490.53	27751.73
490.70	28240.90
490.88	28238.56
491.06	28856.46
491.24	28465.60
491.41	29017.96
491.59	29244.99
491.77	28952.43
491.95	29317.55
492.13	29722.46
492.30	29575.01
492.48	29467.34
492.66	29867.58
492.84	29977.58
493.01	30532.29
493.19	30707.83
493.37	30775.70
493.54	30696.13
493.72	31271.90
493.90	31026.14
494.08	31604.25
494.25	31655.75
494.43	31690.85
494.61	31704.90
494.79	32217.47
494.96	32505.36
495.14	32456.21
495.32	32879.85
495.49	33113.90
495.67	33223.90
495.85	33263.69
496.02	33200.50
496.20	33418.17
496.38	33408.81
496.55	34024.37
496.73	34724.19
496.91	34443.32
497.09	34485.45
497.26	34459.71
497.44	34527.58
497.62	34890.37
497.79	35461.46
497.97	35164.21
498.14	35253.15
498.32	35924.88
498.50	35955.31
498.67	36559.17
498.85	36299.37
499.03	36563.85
499.20	36325.11
499.38	36517.04
499.56	36935.99
499.73	36959.40
499.91	36938.33
500.08	37357.29
500.26	37111.53
500.44	37090.47
500.61	37387.72
500.79	37708.37
500.97	38129.67
501.14	38387.13
501.32	38150.73
501.49	38031.36
501.67	38506.49
501.84	38785.02
502.02	38883.32
502.20	39082.27
502.37	39079.92
502.55	39084.61
502.72	39276.53
502.90	39470.79
503.07	38948.85
503.25	39374.83
503.43	39480.16
503.60	39746.98
503.78	40058.27
503.95	40069.97
504.13	40311.05
504.30	40245.51
504.48	40582.55
504.65	40449.14
504.83	40992.14
505.01	40996.82
505.18	40917.25
505.36	41188.75
505.53	40950.01
505.71	41083.42
505.88	41233.22
506.06	41378.33
506.23	41848.78
506.41	41979.85
506.58	41617.07
506.76	41668.56
506.93	41944.74
507.11	41865.16
507.28	42501.79
507.46	42436.25
507.63	43002.66
507.81	42927.77
507.98	42983.94
508.16	42693.71
508.33	43320.98
508.50	43288.21
508.68	43033.09
508.85	43842.92
509.03	43374.81
509.20	43866.32
509.38	44292.30
509.55	43859.30
509.73	44222.08
509.90	44346.13
510.08	44212.72
510.25	43981.01
510.42	44514.65
510.60	44767.43
510.77	44966.37
510.95	45226.17
511.12	44961.69
511.30	44865.73
511.47	44971.05
511.64	45195.74
511.82	45621.72
511.99	45116.17
512.17	45441.50
512.34	45420.44
512.51	46185.79
512.69	46007.91
512.86	45759.81
513.04	46382.40
513.21	46078.13
513.38	46424.53
513.56	46209.20
513.73	46611.77
513.90	47000.30
514.08	46609.43
514.25	46836.46
514.43	46632.83
514.60	47304.57
514.77	47550.32
514.95	47281.16
515.12	47014.34
515.29	47529.26
515.47	47374.78
515.64	47695.44
515.81	47814.80
515.99	47887.36
516.16	48098.01
516.33	47995.03
516.51	48439.73
516.68	48128.44
516.85	48158.86
517.03	48495.90
517.20	48442.07
517.37	48474.84
517.54	48851.66
517.72	48900.81
517.89	48769.74
518.06	48772.08
518.24	48753.36
518.41	48996.77
518.58	49310.41
518.75	48790.81
518.93	49371.26
519.10	49233.17
519.27	49375.94
519.45	49652.12
519.62	49890.86
519.79	49542.12
519.96	49865.11
520.14	49813.62
520.31	50181.09
520.48	50115.55
520.65	50110.87
520.83	50239.60
521.00	50501.74
521.17	50328.54
521.34	50319.18
521.52	50630.47
521.69	50876.22
521.86	50766.22
522.03	50822.39
522.20	51126.66
522.38	51545.62
522.55	51351.35
522.72	50988.57
522.89	51166.45
523.07	51419.23
523.24	51419.23
523.41	51554.98
523.58	51185.18
523.75	51641.58
523.92	51475.40
524.10	51798.40
524.27	51920.10
524.44	51866.27
524.61	51880.31
524.78	51903.72
524.96	51913.08
525.13	52060.54
525.30	52193.95
525.47	52161.18
525.64	52259.48
525.81	52247.78
525.98	52306.29
526.16	52392.89
526.33	52343.74
526.50	52449.06
526.67	52605.88
526.84	52612.90
527.01	52802.49
527.18	52645.67
527.36	52790.78
527.53	52793.12
527.70	53418.05
527.87	53191.01
528.04	52956.96
528.21	52992.07
528.38	53104.41
528.55	53286.98
528.72	53265.91
528.89	52896.11
529.07	53148.88
529.24	53104.41
529.41	53352.51
529.58	53385.28
529.75	53429.75
529.92	53530.39
530.09	53469.54
530.26	53895.52
530.43	53900.20
530.60	53401.66
530.77	53815.94
530.94	53904.88
531.11	53968.07
531.28	54035.95
531.46	54267.66
531.63	54012.54
531.80	53895.52
531.97	54138.93
532.14	54291.07
532.31	54241.92
532.48	54368.30
532.65	54225.53
532.82	54461.93
532.99	54571.93
533.16	54422.14
533.33	54504.06
533.50	54590.66
533.67	54665.55
533.84	54520.44
534.01	54485.33
534.18	54724.07
534.35	54990.89
534.52	55028.34
534.69	54850.45
534.86	55121.96
535.03	54756.83
535.20	54908.97
535.37	55276.43
535.54	55325.58
535.71	55182.81
535.88	55309.20
536.05	55297.50
536.22	55423.89
536.38	55360.69
536.55	55274.09
536.72	55196.85
536.89	55316.22
537.06	55451.97
537.23	55578.36
537.40	55248.35
537.57	55632.19
537.74	55594.74
537.91	56046.47
538.08	55737.52
538.25	55456.65
538.42	55679.00
538.59	55861.57
538.75	55391.12
538.92	55800.71
539.09	55966.89
539.26	56069.87
539.43	55987.95
539.60	56158.81
539.77	55985.61
539.94	56446.70
540.11	56097.96
540.28	56032.42
540.44	56566.07
540.61	56151.79
540.78	56229.03
540.95	56184.56
541.12	56151.79
541.29	56402.23
541.46	56278.18
541.62	56367.12
541.79	56587.13
541.96	56126.05
542.13	56362.44
542.30	56568.41
542.47	56762.67
542.63	56673.73
542.80	56872.68
542.97	56926.51
543.14	56898.42
543.31	56807.14
543.48	57134.82
543.64	57092.69
543.81	57097.37
543.98	57293.97
544.15	56968.64
544.32	57130.14
544.48	57556.11
544.65	57443.77
544.82	57244.82
544.99	57022.47
545.16	57364.19
545.32	57219.08
545.49	57586.54
545.66	57581.86
545.83	57155.88
546.00	57600.58
546.16	57499.94
546.33	57542.07
546.50	57219.08
546.67	57616.97
546.83	57254.18
547.00	57687.18
547.17	57600.58
547.34	57488.24
547.50	57820.59
547.67	57881.45
547.84	57717.61
548.00	57827.62
548.17	58007.84
548.34	57925.92
548.51	58075.71
548.67	58040.60
548.84	58012.52
549.01	58068.69
549.18	57951.66
549.34	58024.22
549.51	58291.04
549.68	58094.44
549.84	58073.37
550.01	58223.17
550.18	58124.86
550.34	58361.26
550.51	58410.41
550.68	58277.00
550.84	57963.37
551.01	58459.56
551.18	57911.88
551.34	58253.59
551.51	58592.97
551.68	58279.34
551.84	58246.57
552.01	58323.81
552.18	58494.67
552.34	58326.15
552.51	58358.92
552.68	58262.96
552.84	58438.50
553.01	58733.40
553.18	58728.72
553.34	58728.72
553.51	58468.92
553.67	58604.67
553.84	58841.07
554.01	58623.40
554.17	58876.18
554.34	58749.79
554.51	58899.58
554.67	58920.65
554.84	58850.43
555.00	58932.35
555.17	58691.27
555.33	58974.48
555.50	58869.15
555.67	59042.35
555.83	58876.18
556.00	58944.05
556.16	59257.68
556.33	58981.50
556.50	58997.88
556.66	59166.40
556.83	59042.35
556.99	59269.39
557.16	59341.94
557.32	59440.24
557.49	59285.77
557.65	59161.72
557.82	59161.72
557.98	59391.09
558.15	58995.54
558.32	59377.05
558.48	59154.70
558.65	59269.39
558.81	59278.75
558.98	59447.27
559.14	59529.19
559.31	59433.22
559.47	59503.44
559.64	59540.89
559.80	59604.08
559.97	59742.17
560.13	59484.72
560.30	59594.72
560.46	59456.63
560.63	59538.55
560.79	59554.93
560.96	59629.83
561.12	59489.40
561.29	59620.47
561.45	59678.98
561.61	59561.95
561.78	59463.65
561.94	59583.02
562.11	59721.11
562.27	59585.36
562.44	59796.01
562.60	59798.35
562.77	59992.61
562.93	59606.42
563.10	60079.21
563.26	59840.48
563.42	60055.81
563.59	59693.02
563.75	59615.79
563.92	59716.43
564.08	59891.97
564.24	60210.28
564.41	59791.33
564.57	60154.11
564.74	60072.19
564.90	59945.80
565.07	59943.46
565.23	59913.03
565.39	59934.10
565.56	60151.77
565.72	60097.94
565.88	59849.84
566.05	59856.86
566.21	60123.68
566.38	60158.79
566.54	60100.28
566.70	60217.30
566.87	60308.58
567.03	59994.95
567.19	60217.30
567.36	60128.36
567.52	60140.07
567.68	60353.05
567.85	60273.48
568.01	60310.92
568.17	60156.45
568.34	60247.73
568.50	60142.41
568.66	60210.28
568.83	60210.28
568.99	60023.04
569.15	60060.49
569.32	60238.37
569.48	60224.32
569.64	60376.46
569.81	60236.03
569.97	60020.70
570.13	60236.03
570.30	60423.27
570.46	60346.03
570.62	60353.05
570.78	60243.05
570.95	60425.61
571.11	60484.12
571.27	60364.76
571.43	60212.62
571.60	60437.31
571.76	60245.39
571.92	60502.85
572.09	60243.05
572.25	60271.14
572.41	60329.65
572.57	60598.81
572.74	60467.74
572.90	60460.72
573.06	60390.50
573.22	60474.76
573.38	60420.93
573.55	60472.42
573.71	60544.98
573.87	60502.85
574.03	60505.19
574.20	60542.64
574.36	60411.57
574.52	60458.38
574.68	60371.78
574.84	60832.86
575.01	60671.37
575.17	60378.80
575.33	60444.33
575.49	60484.12
575.65	60575.40
575.82	60577.75
575.98	60566.04
576.14	60851.59
576.30	60619.88
576.46	60547.32
576.62	60554.34
576.79	60657.32
576.95	60498.17
577.11	60643.28
577.27	60470.08
577.43	60676.05
577.59	60715.84
577.75	60566.04
577.92	60427.95
578.08	60542.64
578.24	60720.52
578.40	60786.05
578.56	60591.79
578.72	60715.84
578.88	60809.46
579.04	60774.35
579.21	60685.41
579.37	60748.60
579.53	60736.90
579.69	60603.49
579.85	60596.47
580.01	60797.76
580.17	60566.04
580.33	60846.91
580.49	60718.18
580.65	60680.73
580.82	60790.73
580.98	60516.89
581.14	60678.39
581.30	60755.63
581.46	60858.61
581.62	60896.06
581.78	60743.92
581.94	60966.27
582.10	60582.43
582.26	60528.59
582.42	60687.75
582.58	60905.42
582.74	60722.86
582.90	60741.58
583.06	61013.08
583.22	60591.79
583.38	60706.47
583.54	61057.56
583.70	60893.72
583.86	60863.29
584.02	60809.46
584.18	60900.74
584.34	60949.89
584.50	60760.31
584.66	60727.54
584.82	60870.31
584.98	60982.66
585.14	60938.19
585.30	60748.60
585.46	60753.29
585.62	60874.99
585.78	61045.85
585.94	60676.05
586.10	60795.42
586.26	60893.72
586.42	60949.89
586.58	61148.84
586.74	60949.89
586.90	60853.93
587.06	60687.75
587.22	61008.40
587.38	60807.12
587.54	61057.56
587.70	61080.96
587.86	60762.65
588.02	60823.50
588.18	61153.52
588.34	60814.14
588.49	61020.11
