SpectraSuite Data File
++++++++++++++++++++++++++++++++++++
Date: Fri Oct 25 10:47:02 EDT 2013
User: price-jones
Dark Spectrum Present: No
Reference Spectrum Present: No
Number of Sampled Component Spectra: 1
Spectrometers: USB2+H05261
Integration Time (usec): 100000 (USB2+H05261)
Spectra Averaged: 1 (USB2+H05261)
Boxcar Smoothing: 0 (USB2+H05261)
Correct for Electrical Dark: No (USB2+H05261)
Strobe/Lamp Enabled: No (USB2+H05261)
Correct for Detector Non-linearity: No (USB2+H05261)
Correct for Stray Light: No (USB2+H05261)
Number of Pixels in Processed Spectrum: 2048
>>>>>Begin Processed Spectral Data<<<<<
365.73	79.58
365.92	79.58
366.12	79.58
366.32	110.01
366.52	98.30
366.72	21.06
366.91	51.49
367.11	49.15
367.31	0.00
367.51	56.17
367.70	91.28
367.90	42.13
368.10	32.77
368.30	105.32
368.49	84.26
368.69	74.90
368.89	49.15
369.09	35.11
369.28	39.79
369.48	72.56
369.68	60.85
369.87	91.28
370.07	161.50
370.27	105.32
370.47	210.65
370.66	491.51
370.86	351.08
371.06	425.98
371.25	428.32
371.45	425.98
371.65	463.43
371.84	430.66
372.04	454.06
372.24	433.00
372.44	388.53
372.63	514.92
372.83	526.62
373.03	433.00
373.22	454.06
373.42	465.77
373.62	477.47
373.81	571.09
374.01	596.84
374.21	608.54
374.40	554.71
374.60	603.86
374.79	641.31
374.99	585.13
375.19	636.63
375.38	582.79
375.58	538.32
375.78	613.22
375.97	589.82
376.17	587.47
376.37	528.96
376.56	617.90
376.76	601.52
376.95	575.77
377.15	627.26
377.35	631.94
377.54	699.82
377.74	638.97
377.93	610.88
378.13	650.67
378.33	674.07
378.52	599.18
378.72	615.56
378.91	624.92
379.11	667.05
379.31	622.58
379.50	627.26
379.70	702.16
379.89	748.97
380.09	662.37
380.28	624.92
380.48	713.86
380.68	620.24
380.87	667.05
381.07	641.31
381.26	741.95
381.46	781.74
381.65	699.82
381.85	671.73
382.04	683.44
382.24	662.37
382.43	753.65
382.63	697.48
382.83	601.52
383.02	615.56
383.22	748.97
383.41	723.23
383.61	697.48
383.80	795.78
384.00	772.38
384.19	842.59
384.39	688.12
384.58	744.29
384.78	758.33
384.97	814.51
385.17	786.42
385.36	835.57
385.56	826.21
385.75	809.83
385.95	739.61
386.14	891.74
386.34	861.32
386.53	706.84
386.72	784.08
386.92	887.06
387.11	915.15
387.31	863.66
387.50	844.93
387.70	828.55
387.89	784.08
388.09	791.10
388.28	819.19
388.48	847.27
388.67	924.51
388.86	929.19
389.06	856.64
389.25	1025.15
389.45	971.32
389.64	985.37
389.84	964.30
390.03	926.85
390.22	908.13
390.42	819.19
390.61	997.07
390.81	973.66
391.00	851.96
391.19	980.68
391.39	898.77
391.58	959.62
391.78	1027.50
391.97	1006.43
392.16	931.53
392.36	1048.56
392.55	873.02
392.75	950.26
392.94	1018.13
393.13	966.64
393.33	985.37
393.52	1027.50
393.71	1041.54
393.91	1015.79
394.10	1088.35
394.29	1041.54
394.49	1097.71
394.68	1107.07
394.88	1270.91
395.07	1146.86
395.26	1132.82
395.46	1135.16
395.65	1100.05
395.84	1151.54
396.04	1245.16
396.23	1200.69
396.42	1128.14
396.62	1132.82
396.81	1139.84
397.00	1125.80
397.19	1233.46
397.39	1303.68
397.58	1343.47
397.77	1210.06
397.97	1277.93
398.16	1306.02
398.35	1394.96
398.55	1371.55
398.74	1355.17
398.93	1394.96
399.12	1322.40
399.32	1301.34
399.51	1350.49
399.70	1366.87
399.90	1455.81
400.09	1434.75
400.28	1465.18
400.47	1558.80
400.67	1533.05
400.86	1446.45
401.05	1411.34
401.24	1558.80
401.44	1526.03
401.63	1600.93
401.82	1568.16
402.01	1526.03
402.21	1600.93
402.40	1544.75
402.59	1596.25
402.78	1706.25
402.97	1643.06
403.17	1582.20
403.36	1678.16
403.55	1746.04
403.74	1727.32
403.93	1734.34
404.13	1732.00
404.32	1633.69
404.51	1671.14
404.70	1746.04
404.89	1678.16
405.09	1778.81
405.28	1781.15
405.47	1792.85
405.66	1781.15
405.85	1785.83
406.05	1898.17
406.24	1846.68
406.43	1935.62
406.62	1914.56
406.81	1905.20
407.00	1966.05
407.20	1898.17
407.39	1860.73
407.58	1949.67
407.77	1975.41
407.96	1973.07
408.15	2129.89
408.34	1996.48
408.54	2071.37
408.73	2108.82
408.92	2153.29
409.11	2169.68
409.30	2204.78
409.49	2005.84
409.68	2043.29
409.87	2136.91
410.07	2263.30
410.26	2214.15
410.45	2300.75
410.64	2120.53
410.83	2244.57
411.02	2324.15
411.21	2368.62
411.40	2387.35
411.59	2352.24
411.78	2497.35
411.98	2476.29
412.17	2455.22
412.36	2366.28
412.55	2427.14
412.74	2527.78
412.93	2509.05
413.12	2492.67
413.31	2607.36
413.50	2537.14
413.69	2670.55
413.88	2750.13
414.07	2663.53
414.26	2682.25
414.45	2731.41
414.64	2710.34
414.83	2810.98
415.02	2881.20
415.22	2747.79
415.41	2923.33
415.60	2717.36
415.79	2963.12
415.98	3117.59
416.17	3082.49
416.36	2995.89
416.55	2972.48
416.74	3150.36
416.93	2928.01
417.12	2902.26
417.31	3094.19
417.50	3110.57
417.69	3148.02
417.88	3197.17
418.07	3126.96
418.26	3246.32
418.45	3220.58
418.64	3353.99
418.83	3164.40
419.02	3255.69
419.21	3253.34
419.39	3351.65
419.58	3211.22
419.77	3155.04
419.96	3337.60
420.15	3323.56
420.34	3396.12
420.53	3574.00
420.72	3592.72
420.91	3370.37
421.10	3513.14
421.29	3620.81
421.48	3588.04
421.67	3452.29
421.86	3506.12
422.05	3604.42
422.24	3506.12
422.43	3623.15
422.61	3658.26
422.80	3609.11
422.99	3651.24
423.18	3803.37
423.37	3707.41
423.56	3728.47
423.75	3742.52
423.94	3557.61
424.13	3440.59
424.32	3407.82
424.50	3660.60
424.69	3735.50
424.88	3686.34
425.07	3604.42
425.26	3597.40
425.45	3655.92
425.64	3576.34
425.83	3517.83
426.01	3784.65
426.20	3730.81
426.39	3707.41
426.58	3550.59
426.77	3758.90
426.96	3763.58
427.15	3737.84
427.33	3824.44
427.52	3817.41
427.71	3854.86
427.90	3838.48
428.09	3892.31
428.28	3990.61
428.46	4004.66
428.65	3929.76
428.84	3990.61
429.03	3927.42
429.22	3810.39
429.40	4032.74
429.59	3831.46
429.78	3791.67
429.97	3782.31
430.16	3817.41
430.34	3873.59
430.53	3925.08
430.72	3852.52
430.91	4046.79
431.10	4072.53
431.28	4182.54
431.47	4428.29
431.66	4257.43
431.85	4117.00
432.03	4201.26
432.22	4432.97
432.41	4458.72
432.60	4308.93
432.79	4383.82
432.97	4489.15
433.16	4376.80
433.35	4437.66
433.54	4374.46
433.72	4388.50
433.91	4449.36
434.10	4468.08
434.28	4353.40
434.47	4447.02
434.66	4535.96
434.85	4634.26
435.03	4636.60
435.22	4627.24
435.41	4777.03
435.59	4690.43
435.78	4826.18
435.97	4610.86
436.16	4706.82
436.34	4713.84
436.53	4709.16
436.72	4812.14
436.90	4720.86
437.09	4807.46
437.28	4760.65
437.46	4702.14
437.65	4938.53
437.84	5057.90
438.02	4877.68
438.21	4905.76
438.40	4830.87
438.58	5081.30
438.77	4957.25
438.96	5039.17
439.14	4966.62
439.33	5200.67
439.52	5198.33
439.70	5181.95
439.89	5277.91
440.08	5387.91
440.26	5284.93
440.45	5336.42
440.63	5408.98
440.82	5481.53
441.01	5502.60
441.19	5521.32
441.38	5699.20
441.57	5518.98
441.75	5717.93
441.94	5783.46
442.12	5724.95
442.31	5844.32
442.50	5916.87
442.68	5860.70
442.87	5813.89
443.05	5921.56
443.24	6057.31
443.43	5968.37
443.61	5907.51
443.80	6127.52
443.98	5834.96
444.17	5844.32
444.35	6071.35
444.54	6059.65
444.73	5977.73
444.91	6066.67
445.10	6050.28
445.28	6033.90
445.47	5980.07
445.65	5980.07
445.84	5949.64
446.02	6209.44
446.21	5994.11
446.39	6136.88
446.58	6207.10
446.77	6174.33
446.95	6171.99
447.14	5954.32
447.32	6373.28
447.51	6146.25
447.69	6169.65
447.88	6314.77
448.06	6352.21
448.25	6239.87
448.43	6146.25
448.62	6207.10
448.80	6221.14
448.99	6265.61
449.17	6356.90
449.36	6422.43
449.54	6469.24
449.73	6473.92
449.91	6614.35
450.10	6712.66
450.28	6609.67
450.46	6621.38
450.65	6586.27
450.83	6539.46
451.02	6647.12
451.20	6729.04
451.39	6724.36
451.57	6661.16
451.76	6509.03
451.94	6656.48
452.13	6815.64
452.31	6602.65
452.49	6441.15
452.68	6864.79
452.86	6717.34
453.05	6806.28
453.23	6841.39
453.42	6867.13
453.60	6747.76
453.78	6960.75
453.97	6963.09
454.15	6846.07
454.34	6853.09
454.52	6956.07
454.70	6965.43
454.89	7021.61
455.07	6970.12
455.26	7084.80
455.44	7220.55
455.62	7192.47
455.81	7026.29
455.99	7311.83
456.17	7250.98
456.36	7241.62
456.54	7351.62
456.73	7529.50
456.91	7639.51
457.09	7496.74
457.28	7424.18
457.46	7585.68
457.64	7719.09
457.83	7576.31
458.01	7424.18
458.19	7548.23
458.38	7557.59
458.56	7702.70
458.74	7618.44
458.93	7562.27
459.11	7646.53
459.29	7611.42
459.48	7864.20
459.66	7754.19
459.84	7793.98
460.03	8013.99
460.21	7653.55
460.39	7831.43
460.57	8102.93
460.76	8013.99
460.94	7978.89
461.12	8025.70
461.31	8093.57
461.49	8006.97
461.67	8107.62
461.85	8142.72
462.04	8049.10
462.22	8681.05
462.40	8301.88
462.59	8124.00
462.77	8124.00
462.95	8224.64
463.13	8156.77
463.32	8372.10
463.50	8411.89
463.68	8215.28
463.86	8219.96
464.05	8376.78
464.23	8322.94
464.41	8484.44
464.59	8388.48
464.78	8685.73
464.96	8479.76
465.14	8276.13
465.32	8531.25
465.50	8854.25
465.69	8596.79
465.87	8641.26
466.05	8774.67
466.23	8486.78
466.41	8683.39
466.60	8966.59
466.78	8814.46
466.96	8872.97
467.14	8716.16
467.32	8765.31
467.51	9050.85
467.69	8718.50
467.87	8875.31
468.05	8678.71
468.23	8779.35
468.41	8872.97
468.60	8805.10
468.78	9020.42
468.96	9015.74
469.14	9181.92
469.32	9107.02
469.50	8926.80
469.69	9212.35
469.87	9118.73
470.05	9111.71
470.23	9139.79
470.41	9341.08
470.59	9483.85
470.77	9359.80
470.95	9352.78
471.14	9516.62
471.32	9329.38
471.50	9811.53
471.68	9610.24
471.86	9556.41
472.04	9675.77
472.22	9708.54
472.40	9675.77
472.58	9722.59
472.77	9689.82
472.95	10036.22
473.13	10153.24
473.31	9872.38
473.49	9813.87
473.67	9991.75
473.85	10005.79
474.03	10064.30
474.21	10303.04
474.39	10228.14
474.57	10232.82
474.75	10658.80
474.93	10296.02
475.12	10326.44
475.30	10654.12
475.48	10487.94
475.66	10560.50
475.84	10614.33
476.02	10757.10
476.20	10796.89
476.38	10904.56
476.56	11035.63
476.74	11087.12
476.92	11157.33
477.10	11059.03
477.28	11382.03
477.46	11246.27
477.64	11248.61
477.82	11330.53
478.00	11843.11
478.18	11590.33
478.36	11960.14
478.54	11782.26
478.72	11962.48
478.90	12142.70
479.08	12269.09
479.26	12255.04
479.44	12304.20
479.62	12430.59
479.80	12388.46
479.98	12411.86
480.16	12905.71
480.34	12732.51
480.52	12926.78
480.70	12898.69
480.88	12931.46
481.06	12952.52
481.24	13156.15
481.41	13605.53
481.59	13570.43
481.77	13675.75
481.95	13619.58
482.13	13486.17
482.31	13706.18
482.49	14279.61
482.67	13834.91
482.85	14052.58
483.03	14363.87
483.21	14277.27
483.39	14380.25
483.57	14347.48
483.74	14602.60
483.92	14885.81
484.10	14621.33
484.28	15103.48
484.46	15370.30
484.64	15300.08
484.82	15005.17
485.00	15215.82
485.18	15396.04
485.35	15602.01
485.53	15218.16
485.71	15267.31
485.89	15721.38
486.07	15882.88
486.25	15782.23
486.43	15803.30
486.61	16243.32
486.78	16343.96
486.96	16107.57
487.14	16561.63
487.32	16655.25
487.50	16716.11
487.68	17177.19
487.85	17415.93
488.03	17310.60
488.21	17554.02
488.39	17376.14
488.57	17465.08
488.75	17891.06
488.92	18073.62
489.10	18061.91
489.28	18024.47
489.46	18387.25
489.64	18757.05
489.81	18878.76
489.99	18956.00
490.17	19082.39
490.35	19206.44
490.53	19351.55
490.70	19559.86
490.88	19335.17
491.06	19269.63
491.24	19737.74
491.41	19580.92
491.59	19798.59
491.77	19829.02
491.95	19789.23
492.13	20240.95
492.30	20503.09
492.48	20320.53
492.66	20709.06
492.84	20664.59
493.01	20861.19
493.19	20676.29
493.37	20961.84
493.54	21111.63
493.72	21125.68
493.90	21041.42
494.08	21788.05
494.25	21804.43
494.43	22015.08
494.61	21888.69
494.79	22216.36
494.96	22022.10
495.14	22155.51
495.32	22480.85
495.49	22195.30
495.67	22382.54
495.85	22649.36
496.02	22775.75
496.20	22927.89
496.38	23159.60
496.55	22829.59
496.73	23740.05
496.91	23215.77
497.09	23379.61
497.26	23817.29
497.44	23789.20
497.62	23775.16
497.79	23817.29
497.97	23864.10
498.14	24393.06
498.32	24137.94
498.50	24283.06
498.67	24718.40
498.85	24552.22
499.03	24936.07
499.20	24903.30
499.38	24917.34
499.56	25207.57
499.73	25355.02
499.91	24999.26
500.08	25474.39
500.26	25139.69
500.44	25198.21
500.61	25481.41
500.79	25240.34
500.97	25645.25
501.14	25867.60
501.32	25729.51
501.49	26466.78
501.67	26164.85
501.84	26384.86
502.02	25883.98
502.20	26309.96
502.37	26080.59
502.55	26441.03
502.72	26789.77
502.90	26422.31
503.07	26813.18
503.25	26644.66
503.43	27009.78
503.60	26904.46
503.78	26857.65
503.95	26824.88
504.13	26946.59
504.30	27342.14
504.48	27377.25
504.65	27346.82
504.83	28016.21
505.01	27679.18
505.18	27784.50
505.36	28194.09
505.53	28072.39
505.71	27913.23
505.88	28493.68
506.06	27765.78
506.23	28112.17
506.41	28137.92
506.58	28107.49
506.76	28697.31
506.93	28879.87
507.11	28250.27
507.28	28519.43
507.46	28683.27
507.63	28606.03
507.81	29062.43
507.98	29113.92
508.16	29165.42
508.33	29149.03
508.50	29362.02
508.68	29195.84
508.85	29692.04
509.03	29596.07
509.20	29523.52
509.38	29743.53
509.55	29979.92
509.73	30108.65
509.90	29848.85
510.08	29858.21
510.25	29851.19
510.42	30309.94
510.60	30263.13
510.77	30485.48
510.95	30691.44
511.12	30553.35
511.30	30595.48
511.47	31269.56
511.64	30661.02
511.82	30775.70
511.99	30408.24
512.17	30883.37
512.34	30637.61
512.51	31065.93
512.69	31016.78
512.86	31278.92
513.04	31718.94
513.21	31601.91
513.38	31686.17
513.56	31241.47
513.73	31400.63
513.90	31744.69
514.08	31737.66
514.25	31927.25
514.43	31950.65
514.60	31772.77
514.77	31821.92
514.95	32514.72
515.12	31777.45
515.29	32554.51
515.47	32385.99
515.64	32620.05
515.81	32065.34
515.99	32451.53
516.16	32692.60
516.33	32598.98
516.51	32348.54
516.68	32154.28
516.85	32091.09
517.03	32751.12
517.20	32617.71
517.37	32994.53
517.54	33008.58
517.72	32992.19
517.89	33116.24
518.06	32615.37
518.24	32826.01
518.41	33013.26
518.58	33137.30
518.75	33333.91
518.93	33586.69
519.10	34031.39
519.27	33495.41
519.45	33766.91
519.62	33668.61
519.79	33862.87
519.96	34031.39
520.14	33923.72
520.31	34202.25
520.48	34171.82
520.65	34057.14
520.83	34565.03
521.00	34487.79
521.17	34202.25
521.34	34443.32
521.52	34618.86
521.69	34487.79
521.86	34913.77
522.03	34836.53
522.20	34857.60
522.38	34649.29
522.55	35047.18
522.72	34778.02
522.89	35534.01
523.07	35093.99
523.24	34988.67
523.41	35281.24
523.58	35412.31
523.75	35459.12
523.92	35955.31
524.10	35632.32
524.27	35772.75
524.44	35688.49
524.61	35859.35
524.78	36079.36
524.96	35800.83
525.13	36453.84
525.30	36149.57
525.47	36451.50
525.64	36290.01
525.81	36456.18
525.98	36378.95
526.16	36341.50
526.33	36231.49
526.50	36268.94
526.67	36243.20
526.84	36456.18
527.01	36070.00
527.18	36624.70
527.36	36730.03
527.53	36879.82
527.70	36854.08
527.87	37120.90
528.04	37273.03
528.21	37050.68
528.38	37151.32
528.55	37338.57
528.72	37148.98
528.89	37654.54
529.07	37364.31
529.24	37361.97
529.41	37401.76
529.58	37544.53
529.75	36896.20
529.92	37684.97
530.09	37368.99
530.26	37783.27
530.43	37993.92
530.60	37624.11
530.77	37764.54
530.94	38092.22
531.11	37951.79
531.28	37872.21
531.46	38061.79
531.63	38286.48
531.80	37979.87
531.97	38366.06
532.14	37928.38
532.31	38136.69
532.48	38143.71
532.65	38223.29
532.82	38497.13
532.99	38763.95
533.16	38754.59
533.33	38452.66
533.50	38653.95
533.67	38658.63
533.84	38525.22
534.01	38607.14
534.18	38871.62
534.35	39276.53
534.52	38677.35
534.69	39182.91
534.86	39311.64
535.03	38817.78
535.20	39363.13
535.37	39604.20
535.54	39346.75
535.71	39096.31
535.88	38967.58
536.05	39206.31
536.22	39332.70
536.38	39311.64
536.55	39597.18
536.72	39110.35
536.89	39044.82
537.06	39690.80
537.23	39199.29
537.40	40069.97
537.57	39969.33
537.74	39632.29
537.91	39894.43
538.08	39995.07
538.25	40055.93
538.42	40187.00
538.59	40453.82
538.75	39639.31
538.92	40062.95
539.09	40259.55
539.26	40495.95
539.43	39941.24
539.60	40259.55
539.77	39817.19
539.94	40151.89
540.11	40130.83
540.28	40236.15
540.44	40240.83
540.61	40315.73
540.78	40425.73
540.95	40512.33
541.12	40301.68
541.29	40519.35
541.46	40395.31
541.62	40280.62
541.79	40917.25
541.96	40376.58
542.13	40884.48
542.30	40687.87
542.47	40907.88
542.63	40942.99
542.80	41188.75
542.97	40980.44
543.14	41474.29
543.31	40830.65
543.48	41516.42
543.64	42075.81
543.81	41497.70
543.98	41574.94
544.15	41385.35
544.32	41706.01
544.48	42122.62
544.65	41567.91
544.82	41811.33
544.99	41500.04
545.16	41647.49
545.32	41504.72
545.49	42054.75
545.66	42183.48
545.83	42082.83
546.00	42131.98
546.16	41588.98
546.33	41984.53
546.50	41701.32
546.67	42047.72
546.83	41947.08
547.00	42443.27
547.17	41603.02
547.34	41797.29
547.50	41991.55
547.67	42408.17
547.84	41818.35
548.00	42344.97
548.17	42859.89
548.34	42609.45
548.51	42579.03
548.67	42117.94
548.84	42569.66
549.01	42450.30
549.18	42342.63
549.34	42527.53
549.51	42710.10
549.68	42686.69
549.84	43002.66
550.01	42440.93
550.18	42560.30
550.34	42979.26
550.51	42698.39
550.68	42431.57
550.84	42471.36
551.01	42738.18
551.18	42930.11
551.34	42522.85
551.51	43026.07
551.68	42658.60
551.84	43246.08
552.01	42707.76
552.18	43145.44
552.34	42604.77
552.51	43351.40
552.68	43075.22
552.84	42815.42
553.01	43466.09
553.18	43192.25
553.34	43470.77
553.51	42899.68
553.67	43164.16
553.84	43662.69
554.01	43583.12
554.17	43658.01
554.34	43594.82
554.51	43473.11
554.67	43746.95
554.84	43667.37
555.00	43739.93
555.17	43398.21
555.33	43459.07
555.50	43667.37
555.67	43232.04
555.83	43658.01
556.00	43398.21
556.16	43887.39
556.33	43856.96
556.50	43405.23
556.66	44067.61
556.83	43421.62
556.99	44046.54
557.16	43835.89
557.32	44175.27
557.49	43599.50
557.65	43438.00
557.82	43789.08
557.98	43391.19
558.15	43899.09
558.32	44261.87
558.48	43948.24
558.65	44107.40
558.81	44011.43
558.98	44210.38
559.14	44172.93
559.31	44243.15
559.47	44151.87
559.64	44184.63
559.80	44182.29
559.97	44442.09
560.13	43943.56
560.30	44390.60
560.46	44346.13
560.63	44170.59
560.79	44465.50
560.96	44224.42
561.12	44051.22
561.29	44521.67
561.45	44446.77
561.61	44350.81
561.78	44545.08
561.94	44243.15
562.11	43896.75
562.27	44561.46
562.44	44208.04
562.60	44921.90
562.77	44837.64
562.93	44381.24
563.10	44568.48
563.26	44137.82
563.42	45174.68
563.59	44463.16
563.75	44765.09
563.92	44774.45
564.08	44514.65
564.24	44605.93
564.41	44928.92
564.57	44306.34
564.74	44687.85
564.90	44748.70
565.07	44552.10
565.23	44713.59
565.39	44987.44
565.56	45015.52
565.72	44294.64
565.88	44978.07
566.05	44196.34
566.21	44685.51
566.38	44652.74
566.54	44584.86
566.70	44921.90
566.87	45226.17
567.03	44760.40
567.19	45256.60
567.36	44949.99
567.52	44842.32
567.68	45027.23
567.85	45003.82
568.01	45261.28
568.17	44304.00
568.34	44994.46
568.50	44783.81
568.66	44861.05
568.83	45134.89
568.99	44788.49
569.15	44823.60
569.32	45172.34
569.48	44900.84
569.64	44816.58
569.81	45048.29
569.97	44996.80
570.13	44942.97
570.30	44729.98
570.46	44755.72
570.62	44807.22
570.78	44507.63
570.95	44926.58
571.11	45488.31
571.27	44648.06
571.43	45097.44
571.60	45148.93
571.76	44978.07
571.92	45170.00
572.09	44830.62
572.25	45567.89
572.41	45067.02
572.57	45146.59
572.74	45406.39
572.90	45106.80
573.06	44996.80
573.22	45083.40
573.38	45074.04
573.55	45022.54
573.71	44982.76
573.87	45090.42
574.03	44758.06
574.20	45010.84
574.36	44872.75
574.52	45254.26
574.68	45240.21
574.84	45460.23
575.01	44961.69
575.17	45483.63
575.33	44877.43
575.49	45038.93
575.65	44830.62
575.82	45720.02
575.98	45172.34
576.14	45425.12
576.30	45045.95
576.46	45055.31
576.62	44765.09
576.79	45219.15
576.95	45001.48
577.11	45069.36
577.27	45621.72
577.43	45532.78
577.59	45469.59
577.75	45116.17
577.92	44835.30
578.08	45074.04
578.24	44587.21
578.40	45141.91
578.56	44877.43
578.72	45457.88
578.88	45626.40
579.04	44973.39
579.21	44910.20
579.37	45289.37
579.53	45076.38
579.69	45216.81
579.85	45275.32
580.01	45312.77
580.17	45471.93
580.33	45258.94
580.49	45301.07
580.65	45034.25
580.82	45558.53
580.98	45371.28
581.14	45181.70
581.30	45797.26
581.46	45628.74
581.62	45296.39
581.78	45694.28
581.94	45258.94
582.10	45291.71
582.26	45500.01
582.42	45507.04
582.58	45469.59
582.74	45425.12
582.90	45371.28
583.06	45497.67
583.22	45310.43
583.38	45324.47
583.54	45322.13
583.70	45111.49
583.86	45219.15
584.02	45088.08
584.18	45099.78
584.34	45324.47
584.50	46010.25
584.66	45436.82
584.82	45188.72
584.98	45687.26
585.14	45359.58
585.30	45258.94
585.46	45315.11
585.62	45375.97
585.78	45172.34
585.94	45081.06
586.10	45167.66
586.26	45277.66
586.42	45675.55
586.58	45436.82
586.74	45219.15
586.90	45694.28
587.06	45350.22
587.22	45488.31
587.38	44896.16
587.54	45745.77
587.70	45815.99
587.86	45872.16
588.02	45502.35
588.18	45518.74
588.34	45167.66
588.49	44893.82
588.65	44996.80
588.81	45057.65
588.97	45380.65
589.13	44994.46
589.29	45387.67
589.45	45315.11
589.61	45432.14
589.77	45745.77
589.93	45022.54
590.08	45799.60
590.24	45406.39
