SpectraSuite Data File
++++++++++++++++++++++++++++++++++++
Date: Fri Oct 25 11:34:17 EDT 2013
User: price-jones
Dark Spectrum Present: No
Reference Spectrum Present: No
Number of Sampled Component Spectra: 1
Spectrometers: USB2+H05261
Integration Time (usec): 100000 (USB2+H05261)
Spectra Averaged: 1 (USB2+H05261)
Boxcar Smoothing: 0 (USB2+H05261)
Correct for Electrical Dark: No (USB2+H05261)
Strobe/Lamp Enabled: No (USB2+H05261)
Correct for Detector Non-linearity: No (USB2+H05261)
Correct for Stray Light: No (USB2+H05261)
Number of Pixels in Processed Spectrum: 2048
>>>>>Begin Processed Spectral Data<<<<<
365.73	367.46
365.92	367.46
366.12	367.46
366.32	184.90
366.52	196.60
366.72	128.73
366.91	189.58
367.11	182.56
367.31	173.20
367.51	161.50
367.70	215.33
367.90	189.58
368.10	152.13
368.30	147.45
368.49	131.07
368.69	166.18
368.89	210.65
369.09	201.29
369.28	224.69
369.48	177.88
369.68	248.10
369.87	278.52
370.07	231.71
370.27	287.89
370.47	271.50
370.66	505.56
370.86	440.02
371.06	535.98
371.25	608.54
371.45	557.05
371.65	573.43
371.84	512.58
372.04	594.50
372.24	571.09
372.44	620.24
372.63	601.52
372.83	592.16
373.03	620.24
373.22	561.73
373.42	587.47
373.62	568.75
373.81	601.52
374.01	667.05
374.21	676.41
374.40	627.26
374.60	669.39
374.79	624.92
374.99	681.10
375.19	606.20
375.38	711.52
375.58	603.86
375.78	681.10
375.97	655.35
376.17	650.67
376.37	683.44
376.56	809.83
376.76	599.18
376.95	634.29
377.15	718.54
377.35	758.33
377.54	648.33
377.74	676.41
377.93	737.27
378.13	683.44
378.33	709.18
378.52	711.52
378.72	718.54
378.91	657.69
379.11	660.03
379.31	758.33
379.50	667.05
379.70	741.95
379.89	727.91
380.09	763.01
380.28	711.52
380.48	753.65
380.68	660.03
380.87	713.86
381.07	662.37
381.26	802.80
381.46	767.70
381.65	734.93
381.85	692.80
382.04	746.63
382.24	823.87
382.43	755.99
382.63	737.27
382.83	772.38
383.02	842.59
383.22	786.42
383.41	812.17
383.61	861.32
383.80	842.59
384.00	744.29
384.19	779.40
384.39	873.02
384.58	770.04
384.78	821.53
384.97	856.64
385.17	842.59
385.36	866.00
385.56	833.23
385.75	849.61
385.95	833.23
386.14	866.00
386.34	844.93
386.53	830.89
386.72	861.32
386.92	870.68
387.11	908.13
387.31	922.17
387.50	889.40
387.70	875.36
387.89	840.25
388.09	863.66
388.28	922.17
388.48	992.39
388.67	983.02
388.86	936.21
389.06	926.85
389.25	1025.15
389.45	947.92
389.64	964.30
389.84	980.68
390.03	903.45
390.22	1008.77
390.42	990.05
390.61	943.24
390.81	898.77
391.00	901.11
391.19	1006.43
391.39	994.73
391.58	968.98
391.78	983.02
391.97	1018.13
392.16	950.26
392.36	1018.13
392.55	968.98
392.75	1064.94
392.94	990.05
393.13	1071.97
393.33	1067.28
393.52	1151.54
393.71	1102.39
393.91	1067.28
394.10	1041.54
394.29	1027.50
394.49	1074.31
394.68	1043.88
394.88	1100.05
395.07	1188.99
395.26	1102.39
395.46	1086.01
395.65	1123.46
395.84	1076.65
396.04	1095.37
396.23	1214.74
396.42	1158.57
396.62	1128.14
396.81	1177.29
397.00	1188.99
397.19	1179.63
397.39	1158.57
397.58	1242.82
397.77	1224.10
397.97	1163.25
398.16	1217.08
398.35	1186.65
398.55	1287.29
398.74	1245.16
398.93	1291.98
399.12	1310.70
399.32	1252.19
399.51	1345.81
399.70	1254.53
399.90	1364.53
400.09	1324.74
400.28	1345.81
400.47	1352.83
400.67	1268.57
400.86	1352.83
401.05	1341.13
401.24	1336.45
401.44	1434.75
401.63	1465.18
401.82	1453.47
402.01	1430.07
402.21	1458.15
402.40	1409.00
402.59	1488.58
402.78	1519.01
402.97	1462.83
403.17	1425.39
403.36	1451.13
403.55	1521.35
403.74	1568.16
403.93	1591.56
404.13	1509.65
404.32	1610.29
404.51	1600.93
404.70	1675.82
404.89	1645.40
405.09	1654.76
405.28	1596.25
405.47	1675.82
405.66	1668.80
405.85	1703.91
406.05	1624.33
406.24	1706.25
406.43	1722.63
406.62	1823.28
406.81	1750.72
407.00	1851.36
407.20	1727.32
407.39	1675.82
407.58	1895.83
407.77	1795.19
407.96	1858.39
408.15	1856.04
408.34	1923.92
408.54	1860.73
408.73	1825.62
408.92	1842.00
409.11	1797.53
409.30	1956.69
409.49	1919.24
409.68	1949.67
409.87	2031.58
410.07	2026.90
410.26	2012.86
410.45	2026.90
410.64	2015.20
410.83	2003.50
411.02	2038.61
411.21	1956.69
411.40	2076.06
411.59	2183.72
411.78	2085.42
411.98	2200.10
412.17	2282.02
412.36	2197.76
412.55	2256.28
412.74	2279.68
412.93	2188.40
413.12	2232.87
413.31	2366.28
413.50	2399.05
413.69	2387.35
413.88	2443.52
414.07	2495.01
414.26	2443.52
414.45	2473.95
414.64	2408.41
414.83	2459.90
415.02	2499.69
415.22	2581.61
415.41	2597.99
415.60	2700.98
415.79	2504.37
415.98	2689.28
416.17	2722.04
416.36	2597.99
416.55	2771.19
416.74	2686.94
416.93	2670.55
417.12	2773.53
417.31	2848.43
417.50	2808.64
417.69	2883.54
417.88	2946.73
418.07	2834.39
418.26	3042.70
418.45	3038.02
418.64	3045.04
418.83	2967.80
419.02	3075.46
419.21	3059.08
419.39	3038.02
419.58	3054.40
419.77	3040.36
419.96	2953.76
420.15	3176.11
420.34	3225.26
420.53	3066.10
420.72	3222.92
420.91	3080.14
421.10	3070.78
421.29	3129.30
421.48	3141.00
421.67	3307.18
421.86	3239.30
422.05	3267.39
422.24	3255.69
422.43	3295.47
422.61	3232.28
422.80	3358.67
422.99	3251.00
423.18	3386.76
423.37	3316.54
423.56	3323.56
423.75	3272.07
423.94	3302.50
424.13	3122.27
424.32	3201.85
424.50	3400.80
424.69	3417.18
424.88	3365.69
425.07	3337.60
425.26	3279.09
425.45	3222.92
425.64	3274.41
425.83	3239.30
426.01	3433.57
426.20	3201.85
426.39	3440.59
426.58	3410.16
426.77	3267.39
426.96	3522.51
427.15	3478.04
427.33	3707.41
427.52	3344.63
427.71	3356.33
427.90	3407.82
428.09	3620.81
428.28	3454.63
428.46	3534.21
428.65	3578.68
428.84	3599.74
429.03	3676.98
429.22	3634.85
429.40	3721.45
429.59	3693.37
429.78	3679.32
429.97	3548.25
430.16	3641.87
430.34	3730.81
430.53	3899.33
430.72	3861.88
430.91	3730.81
431.10	3969.55
431.28	3840.82
431.47	3882.95
431.66	3913.38
431.85	3908.69
432.03	3845.50
432.22	3983.59
432.41	4044.45
432.60	4014.02
432.79	3995.29
432.97	3971.89
433.16	4086.58
433.35	4051.47
433.54	3995.29
433.72	4072.53
433.91	4070.19
434.10	4049.13
434.28	4025.72
434.47	4224.67
434.66	4098.28
434.85	4191.90
435.03	4196.58
435.22	4351.06
435.41	4285.52
435.59	4278.50
435.78	4276.16
435.97	4376.80
436.16	4337.01
436.34	4362.76
436.53	4315.95
436.72	4477.44
436.90	4271.48
437.09	4461.06
437.28	4308.93
437.46	4444.68
437.65	4299.56
437.84	4367.44
438.02	4411.91
438.21	4482.13
438.40	4477.44
438.58	4601.49
438.77	4580.43
438.96	4634.26
439.14	4683.41
439.33	4678.73
439.52	4713.84
439.70	4805.12
439.89	4887.04
440.08	4929.17
440.26	4891.72
440.45	4781.71
440.63	5006.41
440.82	5027.47
441.01	4945.55
441.19	5008.75
441.38	5006.41
441.57	5107.05
441.75	5224.08
441.94	5322.38
442.12	5195.99
442.31	5329.40
442.50	5294.29
442.68	5444.09
442.87	5284.93
443.05	5413.66
443.24	5476.85
443.43	5275.57
443.61	5352.81
443.80	5509.62
443.98	5373.87
444.17	5158.54
444.35	5320.04
444.54	5434.72
444.73	5357.49
444.91	5509.62
445.10	5399.62
445.28	5607.92
445.47	5394.93
445.65	5488.56
445.84	5640.69
446.02	5612.60
446.21	5591.54
446.39	5530.69
446.58	5605.58
446.77	5652.39
446.95	5479.19
447.14	5638.35
447.32	5678.14
447.51	5731.97
447.69	5516.64
447.88	5577.50
448.06	5685.16
448.25	5563.45
448.43	5640.69
448.62	5771.76
448.80	5650.05
448.99	5678.14
449.17	5696.86
449.36	5708.57
449.54	5954.32
449.73	5872.40
449.91	5973.05
450.10	5928.58
450.28	5980.07
450.46	5942.62
450.65	5893.47
450.83	5991.77
451.02	6003.47
451.20	5870.06
451.39	6050.28
451.57	6017.52
451.76	6071.35
451.94	6033.90
452.13	6097.10
452.31	6099.44
452.49	5959.00
452.68	6085.39
452.86	6083.05
453.05	6026.88
453.23	6296.04
453.42	6207.10
453.60	6108.80
453.78	6387.32
453.97	6031.56
454.15	6324.13
454.34	6216.46
454.52	6464.56
454.70	6403.71
454.89	6368.60
455.07	6403.71
455.26	6436.47
455.44	6586.27
455.62	6370.94
455.81	6590.95
455.99	6497.33
456.17	6513.71
456.36	6541.80
456.54	6637.76
456.73	6822.66
456.91	6825.00
457.09	6825.00
457.28	6848.41
457.46	6876.49
457.64	6869.47
457.83	7033.31
458.01	6890.54
458.19	6839.05
458.38	6909.26
458.56	6949.05
458.74	6876.49
458.93	7014.59
459.11	7042.67
459.29	7066.08
459.48	6998.20
459.66	7288.43
459.84	7035.65
460.03	7304.81
460.21	7080.12
460.39	7201.83
460.57	7169.06
460.76	7173.74
460.94	7531.84
461.12	7255.66
461.31	7260.34
461.49	7218.21
461.67	7262.68
461.85	7489.71
462.04	7377.37
462.22	7850.16
462.40	7569.29
462.59	7258.00
462.77	7431.20
462.95	7674.62
463.13	7599.72
463.32	7665.25
463.50	7707.38
463.68	7578.65
463.86	7840.79
464.05	7581.00
464.23	7571.63
464.41	7822.07
464.59	7698.02
464.78	7873.56
464.96	7812.71
465.14	7625.47
465.32	7887.61
465.50	7918.03
465.69	7845.48
465.87	7981.23
466.05	7918.03
466.23	7833.77
466.41	7983.57
466.60	7908.67
466.78	8004.63
466.96	7920.37
467.14	8028.04
467.32	8051.44
467.51	8135.70
467.69	7866.54
467.87	8018.68
468.05	8105.28
468.23	7763.56
468.41	8081.87
468.60	8114.64
468.78	8208.26
468.96	8208.26
469.14	8311.24
469.32	8449.33
469.50	8318.26
469.69	8491.46
469.87	8430.61
470.05	8521.89
470.23	8592.11
470.41	8416.57
470.59	8645.94
470.77	8589.77
470.95	8465.72
471.14	8603.81
471.32	8699.77
471.50	8795.73
471.68	8748.92
471.86	8542.96
472.04	8709.13
472.22	9062.55
472.40	8793.39
472.58	8982.98
472.77	9081.28
472.95	9135.11
473.13	9467.47
473.31	9020.42
473.49	9179.58
473.67	9228.73
473.85	9378.53
474.03	9324.69
474.21	9547.05
474.39	9741.31
474.57	9394.91
474.75	9607.90
474.93	9659.39
475.12	9741.31
475.30	9870.04
475.48	9617.26
475.66	9872.38
475.84	9806.84
476.02	9891.10
476.20	9863.02
476.38	10061.96
476.56	10305.38
476.74	10090.05
476.92	10560.50
477.10	10281.97
477.28	10366.23
477.46	10480.92
477.64	10532.41
477.82	10775.83
478.00	10918.60
478.18	10899.87
478.36	10932.64
478.54	10876.47
478.72	11105.84
478.90	11021.58
479.08	11222.87
479.26	11061.37
479.44	11400.75
479.62	11503.73
479.80	11419.47
479.98	11754.17
480.16	11782.26
480.34	11824.39
480.52	11999.93
480.70	11985.88
480.88	11779.92
481.06	11669.91
481.24	12100.57
481.41	12264.41
481.59	12325.26
481.77	12329.94
481.95	12400.16
482.13	12442.29
482.31	12479.74
482.49	12774.64
482.67	13048.49
482.85	13013.38
483.03	13146.79
483.21	13233.39
483.39	13472.12
483.57	13088.28
483.74	13589.15
483.92	13598.51
484.10	13458.08
484.28	13825.54
484.46	14113.43
484.64	14291.31
484.82	13951.93
485.00	14108.75
485.18	14417.70
485.35	14609.62
485.53	14579.20
485.71	14707.93
485.89	15094.11
486.07	14918.57
486.25	14817.93
486.43	15227.53
486.61	15339.87
486.78	15412.43
486.96	15279.02
487.14	15782.23
487.32	15562.22
487.50	15948.41
487.68	15885.22
487.85	15925.00
488.03	16596.74
488.21	16587.38
488.39	16180.12
488.57	16496.10
488.75	16409.50
488.92	16734.83
489.10	16828.45
489.28	16908.03
489.46	17465.08
489.64	17179.53
489.81	17502.53
489.99	17748.28
490.17	17820.84
490.35	18031.49
490.53	17989.36
490.70	18022.12
490.88	17888.71
491.06	18265.54
491.24	18366.18
491.41	18164.90
491.59	18607.26
491.77	18487.89
491.95	18874.08
492.13	18831.95
492.30	18970.04
492.48	19152.60
492.66	19138.56
492.84	19061.32
493.01	19524.75
493.19	19527.09
493.37	19660.50
493.54	19934.34
493.72	20032.65
493.90	19686.25
494.08	20372.02
494.25	20203.50
494.43	20407.13
494.61	20645.87
494.79	20739.49
494.96	20521.82
495.14	20865.88
495.32	20704.38
495.49	21202.91
495.67	20844.81
495.85	21216.96
496.02	21553.99
496.20	21881.67
496.38	21518.89
496.55	21649.96
496.73	22396.59
496.91	22043.17
497.09	22057.21
497.26	22368.50
497.44	22462.12
497.62	22286.58
497.79	22913.84
497.97	22609.58
498.14	22656.39
498.32	22658.73
498.50	23089.38
498.67	23005.13
498.85	23117.47
499.03	23304.71
499.20	23302.37
499.38	23307.05
499.56	23386.63
499.73	23658.14
499.91	23608.98
500.08	23721.33
500.26	23758.78
500.44	24154.33
500.61	23957.72
500.79	23974.11
500.97	24393.06
501.14	24510.09
501.32	24470.30
501.49	24748.82
501.67	24575.62
501.84	24671.59
502.02	24805.00
502.20	24615.41
502.37	25032.03
502.55	24641.16
502.72	24711.38
502.90	25165.44
503.07	24957.13
503.25	25109.27
503.43	25268.42
503.60	25556.31
503.78	25720.15
503.95	25633.55
504.13	25678.02
504.30	26291.24
504.48	25680.36
504.65	26279.54
504.83	26288.90
505.01	26265.49
505.18	26429.33
505.36	26827.22
505.53	26511.25
505.71	26726.58
505.88	26532.31
506.06	26436.35
506.23	26560.40
506.41	27002.76
506.58	26918.50
506.76	27098.72
506.93	27218.09
507.11	27117.45
507.28	27604.28
507.46	27302.35
507.63	27522.36
507.81	27424.06
507.98	27349.16
508.16	27562.15
508.33	27882.80
508.50	27922.59
508.68	27754.07
508.85	28271.33
509.03	27946.00
509.20	28278.35
509.38	28346.23
509.55	28690.29
509.73	28559.22
509.90	28414.10
510.08	28545.17
510.25	28189.41
510.42	28924.34
510.60	28814.34
510.77	29275.42
510.95	28917.32
511.12	28678.58
511.30	28973.49
511.47	29254.36
511.64	29071.79
511.82	29544.58
511.99	29268.40
512.17	29530.54
512.34	29783.32
512.51	30010.35
512.69	29991.62
512.86	30050.14
513.04	30134.40
513.21	30157.80
513.38	30466.75
513.56	30272.49
513.73	29919.07
513.90	30534.63
514.08	30328.66
514.25	30541.65
514.43	30501.86
514.60	30778.04
514.77	30546.33
514.95	30803.79
515.12	30658.68
515.29	31009.76
515.47	30909.11
515.64	31211.04
515.81	30609.53
515.99	31374.88
516.16	31587.87
516.33	31328.07
516.51	30972.31
516.68	31386.58
516.85	31709.58
517.03	31365.52
517.20	31662.77
517.37	31927.25
517.54	32121.51
517.72	31796.18
517.89	31915.54
518.06	32018.53
518.24	32299.39
518.41	31995.12
518.58	31798.52
518.75	31981.08
518.93	32048.96
519.10	32105.13
519.27	32493.66
519.45	32299.39
519.62	32533.45
519.79	32411.74
519.96	32484.30
520.14	32814.31
520.31	32811.97
520.48	33031.98
520.65	33106.88
520.83	33439.23
521.00	33488.38
521.17	33273.06
521.34	33099.86
521.52	33301.14
521.69	33408.81
521.86	33174.75
522.03	33806.70
522.20	34129.69
522.38	33907.34
522.55	33778.61
522.72	33682.65
522.89	33886.28
523.07	34487.79
523.24	34087.56
523.41	33949.47
523.58	33991.60
523.75	34532.26
523.92	34431.62
524.10	34206.93
524.27	34380.13
524.44	34815.47
524.61	34932.50
524.78	34459.71
524.96	35000.37
525.13	34707.80
525.30	34871.64
525.47	34969.94
525.64	34653.97
525.81	34864.62
525.98	35145.48
526.16	35192.30
526.33	34878.66
526.50	35344.43
526.67	34824.83
526.84	35140.80
527.01	35620.61
527.18	35358.47
527.36	35468.48
527.53	35842.96
527.70	35470.82
527.87	36318.09
528.04	35967.01
528.21	35779.77
528.38	36212.77
528.55	36013.82
528.72	36198.73
528.89	35992.76
529.07	36184.68
529.24	36165.96
529.41	36353.20
529.58	36467.89
529.75	36306.39
529.92	36671.51
530.09	36566.19
530.26	36591.94
530.43	36690.24
530.60	36493.63
530.77	36650.45
530.94	36636.41
531.11	36739.39
531.28	36708.96
531.46	36755.77
531.63	36760.45
531.80	37102.17
531.97	37258.99
532.14	37109.19
532.31	37067.06
532.48	37289.42
532.65	37385.38
532.82	37453.25
532.99	37436.87
533.16	37230.90
533.33	37570.28
533.50	37748.16
533.67	37701.35
533.84	37277.71
534.01	37476.66
534.18	37893.27
534.35	38141.37
534.52	37682.62
534.69	38148.39
534.86	38213.93
535.03	37956.47
535.20	38225.63
535.37	38352.02
535.54	38239.67
535.71	38134.35
535.88	38328.61
536.05	38136.69
536.22	38789.70
536.38	38120.31
536.55	38323.93
536.72	38419.89
536.89	38693.74
537.06	38733.53
537.23	38850.55
537.40	38665.65
537.57	38824.81
537.74	38841.19
537.91	39012.05
538.08	38827.15
538.25	38700.76
538.42	38792.04
538.59	39391.22
538.75	39084.61
538.92	39264.83
539.09	39592.50
539.26	39236.74
539.43	39105.67
539.60	39049.50
539.77	38897.36
539.94	39868.69
540.11	39070.56
540.28	39592.50
540.44	39419.30
540.61	39264.83
540.78	39330.36
540.95	39674.42
541.12	39239.08
541.29	39536.33
541.46	39988.05
541.62	39686.12
541.79	40168.27
541.96	39578.46
542.13	39573.78
542.30	39927.20
542.47	39924.86
542.63	40076.99
542.80	40498.29
542.97	40722.98
543.14	40156.57
543.31	40491.27
543.48	40430.41
543.64	40629.36
543.81	40673.83
543.98	40926.61
544.15	40851.71
544.32	40996.82
544.48	41109.17
544.65	40821.28
544.82	41209.81
544.99	40676.17
545.16	41055.34
545.32	40891.50
545.49	41404.08
545.66	41457.91
545.83	41228.54
546.00	41003.85
546.16	41280.03
546.33	40748.73
546.50	40844.69
546.67	41289.39
546.83	40507.65
547.00	41385.35
547.17	41223.86
547.34	41413.44
547.50	41956.44
547.67	41764.52
547.84	41673.24
548.00	41834.74
548.17	42075.81
548.34	41727.07
548.51	42101.56
548.67	41684.94
548.84	41797.29
549.01	41598.34
549.18	42033.68
549.34	42054.75
549.51	42218.58
549.68	41846.44
549.84	42019.64
550.01	42162.41
550.18	41851.12
550.34	42005.59
550.51	42686.69
550.68	42841.17
550.84	42302.84
551.01	42630.52
551.18	41996.23
551.34	42504.13
551.51	42471.36
551.68	42384.76
551.84	42504.13
552.01	42033.68
552.18	42464.34
552.34	42590.73
552.51	42745.20
552.68	42618.81
552.84	42593.07
553.01	43002.66
553.18	42848.19
553.34	43047.13
553.51	42649.24
553.67	43430.98
553.84	43438.00
554.01	43143.09
554.17	43023.73
554.34	43241.40
554.51	43475.45
554.67	43660.35
554.84	43299.91
555.00	43419.28
555.17	42883.30
555.33	43306.93
555.50	43426.30
555.67	43328.00
555.83	43356.08
556.00	43536.30
556.16	44004.41
556.33	43746.95
556.50	43714.19
556.66	43426.30
556.83	43454.39
556.99	43639.29
557.16	43840.57
557.32	43709.50
557.49	43871.00
557.65	43515.24
557.82	44065.27
557.98	43849.94
558.15	43250.76
558.32	43821.85
558.48	43962.28
558.65	43704.82
558.81	43517.58
558.98	43758.66
559.14	43564.39
559.31	43753.97
559.47	44149.53
559.64	43988.03
559.80	43938.88
559.97	44402.30
560.13	43906.11
560.30	44299.32
560.46	44470.18
560.63	44273.57
560.79	44292.30
560.96	44395.28
561.12	44399.96
561.29	44533.37
561.45	44416.35
561.61	43962.28
561.78	44048.88
561.94	44406.98
562.11	44346.13
562.27	44329.75
562.44	44414.01
562.60	44428.05
562.77	44472.52
562.93	44484.22
563.10	44715.93
563.26	44341.45
563.42	44584.86
563.59	44329.75
563.75	44449.11
563.92	44498.26
564.08	44671.46
564.24	44486.56
564.41	44554.44
564.57	44575.50
564.74	45001.48
564.90	44669.12
565.07	44669.12
565.23	44568.48
565.39	44645.72
565.56	45228.51
565.72	44507.63
565.88	44697.21
566.05	44638.70
566.21	44734.66
566.38	44690.19
566.54	45361.92
566.70	45212.13
566.87	45059.99
567.03	44734.66
567.19	44989.78
567.36	45052.97
567.52	44957.01
567.68	44732.32
567.85	45406.39
568.01	45237.87
568.17	45518.74
568.34	45244.90
568.50	44961.69
568.66	44825.94
568.83	44891.48
568.99	45097.44
569.15	45010.84
569.32	44774.45
569.48	44594.23
569.64	45146.59
569.81	45235.53
569.97	45471.93
570.13	45727.05
570.30	45106.80
570.46	45371.28
570.62	45319.79
570.78	45397.03
570.95	45338.52
571.11	45415.76
571.27	45240.21
571.43	45308.09
571.60	45340.86
571.76	45188.72
571.92	45214.47
572.09	45343.20
572.25	45460.23
572.41	45319.79
572.57	45436.82
572.74	45963.44
572.90	45350.22
573.06	45483.63
573.22	45436.82
573.38	45738.75
573.55	45240.21
573.71	45837.05
573.87	45998.55
574.03	45827.69
574.20	45427.46
574.36	45713.00
574.52	45776.20
574.68	45577.25
574.84	45605.34
575.01	45757.47
575.17	45916.63
575.33	45521.08
575.49	45485.97
575.65	45830.03
575.82	45687.26
575.98	45415.76
576.14	45546.82
576.30	45893.22
576.46	45502.35
576.62	45357.24
576.79	45848.75
576.95	45352.56
577.11	45422.78
577.27	45619.38
577.43	45743.43
577.59	45972.80
577.75	45806.62
577.92	45546.82
578.08	45600.66
578.24	45542.14
578.40	46260.69
578.56	45925.99
578.72	45612.36
578.88	45872.16
579.04	45691.94
579.21	45715.34
579.37	45659.17
579.53	46134.30
579.69	45963.44
579.85	45705.98
580.01	45780.88
580.17	45338.52
580.33	46263.03
580.49	46129.62
580.65	45841.73
580.82	45364.26
580.98	45713.00
581.14	45312.77
581.30	46094.51
581.46	45677.90
581.62	45638.11
581.78	45558.53
581.94	46232.60
582.10	45797.26
582.26	46003.23
582.42	45284.68
582.58	45579.59
582.74	46061.74
582.90	45930.67
583.06	46387.08
583.22	45710.66
583.38	45935.35
583.54	45977.48
583.70	45694.28
583.86	46075.79
584.02	45806.62
584.18	46195.15
584.34	46103.87
584.50	46024.29
584.66	45968.12
584.82	46068.76
584.98	46703.05
585.14	45918.97
585.30	45720.02
585.46	46253.67
585.62	45832.37
585.78	45993.87
585.94	45811.31
586.10	45984.51
586.26	45591.30
586.42	46019.61
586.58	46312.18
586.74	46314.52
586.90	45837.05
587.06	46333.24
587.22	46351.97
587.38	46171.75
587.54	46445.59
587.70	46405.80
587.86	46368.35
588.02	46031.32
588.18	45921.31
588.34	45867.48
588.49	46178.77
588.65	45993.87
588.81	46131.96
588.97	46354.31
589.13	46419.84
589.29	46445.59
589.45	46326.22
589.61	46178.77
589.77	46265.37
589.93	46052.38
590.08	46646.88
