SpectraSuite Data File
++++++++++++++++++++++++++++++++++++
Date: Fri Oct 25 11:23:46 EDT 2013
User: price-jones
Dark Spectrum Present: No
Reference Spectrum Present: No
Number of Sampled Component Spectra: 1
Spectrometers: USB2+H05261
Integration Time (usec): 100000 (USB2+H05261)
Spectra Averaged: 1 (USB2+H05261)
Boxcar Smoothing: 0 (USB2+H05261)
Correct for Electrical Dark: No (USB2+H05261)
Strobe/Lamp Enabled: No (USB2+H05261)
Correct for Detector Non-linearity: No (USB2+H05261)
Correct for Stray Light: No (USB2+H05261)
Number of Pixels in Processed Spectrum: 2048
>>>>>Begin Processed Spectral Data<<<<<
365.73	236.39
365.92	236.39
366.12	236.39
366.32	175.54
366.52	159.16
366.72	152.13
366.91	142.77
367.11	72.56
367.31	107.66
367.51	133.41
367.70	133.41
367.90	124.05
368.10	84.26
368.30	166.18
368.49	105.32
368.69	173.20
368.89	229.37
369.09	154.48
369.28	198.95
369.48	159.16
369.68	159.16
369.87	180.22
370.07	217.67
370.27	245.76
370.47	337.04
370.66	507.90
370.86	603.86
371.06	674.07
371.25	645.99
371.45	725.57
371.65	671.73
371.84	657.69
372.04	678.76
372.24	732.59
372.44	741.95
372.63	697.48
372.83	758.33
373.03	727.91
373.22	746.63
373.42	706.84
373.62	763.01
373.81	849.61
374.01	851.96
374.21	805.14
374.40	866.00
374.60	781.74
374.79	784.08
374.99	873.02
375.19	809.83
375.38	882.38
375.58	828.55
375.78	840.25
375.97	830.89
376.17	866.00
376.37	880.04
376.56	802.80
376.76	823.87
376.95	844.93
377.15	805.14
377.35	840.25
377.54	938.55
377.74	844.93
377.93	903.45
378.13	950.26
378.33	938.55
378.52	889.40
378.72	954.94
378.91	912.81
379.11	863.66
379.31	976.00
379.50	933.87
379.70	952.60
379.89	1015.79
380.09	980.68
380.28	952.60
380.48	983.02
380.68	964.30
380.87	954.94
381.07	997.07
381.26	1036.86
381.46	973.66
381.65	1076.65
381.85	1022.81
382.04	1055.58
382.24	1011.11
382.43	1083.67
382.63	938.55
382.83	1006.43
383.02	1088.35
383.22	1097.71
383.41	1060.26
383.61	1074.31
383.80	1116.44
384.00	1088.35
384.19	1121.12
384.39	1165.59
384.58	1165.59
384.78	1226.44
384.97	1158.57
385.17	1153.88
385.36	1193.67
385.56	1205.38
385.75	1193.67
385.95	1217.08
386.14	1203.04
386.34	1249.85
386.53	1200.69
386.72	1188.99
386.92	1238.14
387.11	1179.63
387.31	1263.89
387.50	1228.78
387.70	1259.21
387.89	1287.29
388.09	1256.87
388.28	1301.34
388.48	1270.91
388.67	1249.85
388.86	1341.13
389.06	1401.98
389.25	1423.05
389.45	1336.45
389.64	1362.19
389.84	1455.81
390.03	1366.87
390.22	1399.64
390.42	1303.68
390.61	1413.68
390.81	1441.77
391.00	1390.28
391.19	1437.09
391.39	1418.36
391.58	1469.86
391.78	1439.43
391.97	1476.88
392.16	1373.89
392.36	1476.88
392.55	1497.94
392.75	1570.50
392.94	1458.15
393.13	1523.69
393.33	1444.11
393.52	1645.40
393.71	1661.78
393.91	1659.44
394.10	1636.03
394.29	1762.42
394.49	1614.97
394.68	1626.67
394.88	1654.76
395.07	1696.89
395.26	1558.80
395.46	1682.85
395.65	1654.76
395.84	1675.82
396.04	1764.76
396.23	1640.72
396.42	1710.93
396.62	1734.34
396.81	1806.89
397.00	1846.68
397.19	1809.23
397.39	1832.64
397.58	1870.09
397.77	1778.81
397.97	1905.20
398.16	1818.60
398.35	1872.43
398.55	1844.34
398.74	1942.64
398.93	1874.77
399.12	1886.47
399.32	1900.52
399.51	1905.20
399.70	1907.54
399.90	2022.22
400.09	2024.56
400.28	1994.14
400.47	2043.29
400.67	2038.61
400.86	2111.16
401.05	2080.74
401.24	2258.62
401.44	2160.31
401.63	2146.27
401.82	2176.70
402.01	2143.93
402.21	2174.36
402.40	2239.89
402.59	2239.89
402.78	2218.83
402.97	2267.98
403.17	2216.49
403.36	2267.98
403.55	2296.07
403.74	2361.60
403.93	2392.03
404.13	2382.67
404.32	2438.84
404.51	2317.13
404.70	2548.84
404.89	2415.43
405.09	2464.58
405.28	2452.88
405.47	2548.84
405.66	2628.42
405.85	2623.74
406.05	2530.12
406.24	2614.38
406.43	2576.93
406.62	2560.55
406.81	2726.72
407.00	2553.52
407.20	2672.89
407.39	2595.65
407.58	2726.72
407.77	2700.98
407.96	2656.51
408.15	2717.36
408.34	2642.46
408.54	2857.79
408.73	2785.24
408.92	2899.92
409.11	2944.39
409.30	2918.65
409.49	2916.31
409.68	3019.29
409.87	2958.44
410.07	3023.97
410.26	3070.78
410.45	2972.48
410.64	3063.76
410.83	3126.96
411.02	3169.09
411.21	3166.74
411.40	3066.10
411.59	3281.43
411.78	3164.40
411.98	3286.11
412.17	3251.00
412.36	3368.03
412.55	3344.63
412.74	3398.46
412.93	3407.82
413.12	3379.73
413.31	3478.04
413.50	3513.14
413.69	3480.38
413.88	3562.30
414.07	3620.81
414.26	3676.98
414.45	3684.00
414.64	3733.15
414.83	3772.94
415.02	3812.73
415.22	3859.54
415.41	3976.57
415.60	3899.33
415.79	3896.99
415.98	3988.27
416.17	4009.34
416.36	4009.34
416.55	4072.53
416.74	4081.89
416.93	4149.77
417.12	4177.86
417.31	4222.33
417.50	4262.12
417.69	4421.27
417.88	4248.07
418.07	4147.43
418.26	4299.56
418.45	4372.12
418.64	4484.47
418.83	4425.95
419.02	4472.76
419.21	4528.94
419.39	4681.07
419.58	4599.15
419.77	4400.21
419.96	4690.43
420.15	4716.18
420.34	4554.68
420.53	4699.80
420.72	4734.90
420.91	4493.83
421.10	4837.89
421.29	4898.74
421.48	4669.37
421.67	4709.16
421.86	4760.65
422.05	4835.55
422.24	4903.42
422.43	4861.29
422.61	4830.87
422.80	4999.38
422.99	4814.48
423.18	4917.47
423.37	4964.28
423.56	5062.58
423.75	4952.57
423.94	4737.24
424.13	4734.90
424.32	4716.18
424.50	5109.39
424.69	5188.97
424.88	5294.29
425.07	4933.85
425.26	4887.04
425.45	5085.98
425.64	4919.81
425.83	4980.66
426.01	5123.43
426.20	4924.49
426.39	5121.09
426.58	5121.09
426.77	5165.56
426.96	5144.50
427.15	5139.82
427.33	5111.73
427.52	5156.20
427.71	5144.50
427.90	5245.14
428.09	5413.66
428.28	5366.85
428.46	5378.55
428.65	5291.95
428.84	5455.79
429.03	5369.19
429.22	5322.38
429.40	5540.05
429.59	5654.73
429.78	5277.91
429.97	5104.71
430.16	5509.62
430.34	5593.88
430.53	5678.14
430.72	5638.35
430.91	5631.33
431.10	5668.78
431.28	5673.46
431.47	5783.46
431.66	5944.96
431.85	5762.40
432.03	5900.49
432.22	5980.07
432.41	5827.93
432.60	6019.86
432.79	6176.67
432.97	5968.37
433.16	6108.80
433.35	6099.44
433.54	6232.85
433.72	6141.57
433.91	6052.63
434.10	6284.34
434.28	6164.97
434.47	6258.59
434.66	6188.38
434.85	6406.05
435.03	6303.06
435.22	6171.99
435.41	6469.24
435.59	6340.51
435.78	6483.28
435.97	6377.96
436.16	6401.37
436.34	6377.96
436.53	6370.94
436.72	6698.61
436.90	6548.82
437.09	6450.52
437.28	6387.32
437.46	6806.28
437.65	6684.57
437.84	6710.32
438.02	6736.06
438.21	6869.47
438.40	6792.23
438.58	6925.65
438.77	7035.65
438.96	7087.14
439.14	7112.89
439.33	7155.02
439.52	7162.04
439.70	7393.75
439.89	7335.24
440.08	7501.42
440.26	7618.44
440.45	7323.54
440.63	7662.91
440.82	7784.62
441.01	7508.44
441.19	7817.39
441.38	7712.07
441.57	7817.39
441.75	7946.12
441.94	7939.10
442.12	8006.97
442.31	8021.02
442.50	8152.09
442.68	8016.33
442.87	8173.15
443.05	8219.96
443.24	8189.53
443.43	8173.15
443.61	8257.41
443.80	8571.04
443.98	8065.49
444.17	7840.79
444.35	8425.93
444.54	8276.13
444.73	8367.42
444.91	8341.67
445.10	8276.13
445.28	8393.16
445.47	8386.14
445.65	8458.70
445.84	8493.80
446.02	8360.39
446.21	8456.36
446.39	8514.87
446.58	8400.18
446.77	8402.52
446.95	8163.79
447.14	8622.53
447.32	8617.85
447.51	8491.46
447.69	8549.98
447.88	8362.73
448.06	8601.47
448.25	8489.12
448.43	8702.11
448.62	8697.43
448.80	8795.73
448.99	8606.15
449.17	8833.18
449.36	8690.41
449.54	8910.42
449.73	8938.51
449.91	9104.68
450.10	9109.36
450.28	9170.22
450.46	9109.36
450.65	9139.79
450.83	9034.47
451.02	9107.02
451.20	9156.18
451.39	9324.69
451.57	9015.74
451.76	9041.49
451.94	9312.99
452.13	9432.36
452.31	9364.48
452.49	9125.75
452.68	9371.50
452.86	9362.14
453.05	9394.91
453.23	9507.26
453.42	9689.82
453.60	9490.87
453.78	9692.16
453.97	9434.70
454.15	9586.83
454.34	9437.04
454.52	9813.87
454.70	9767.06
454.89	9781.10
455.07	9839.61
455.26	9830.25
455.44	9970.68
455.62	9659.39
455.81	10026.86
455.99	10267.93
456.17	10148.56
456.36	10263.25
456.54	10120.48
456.73	10321.76
456.91	10387.30
457.09	10403.68
457.28	10525.39
457.46	10328.78
457.64	10801.57
457.83	10523.05
458.01	10422.41
458.19	10764.12
458.38	10647.10
458.56	10724.33
458.74	10670.50
458.93	10611.99
459.11	10785.19
459.29	10836.68
459.48	10998.18
459.66	10794.55
459.84	11119.89
460.03	11183.08
460.21	10871.79
460.39	10960.73
460.57	11208.83
460.76	11307.13
460.94	11042.65
461.12	11279.04
461.31	11501.39
461.49	11176.06
461.67	11194.78
461.85	11641.82
462.04	11360.96
462.22	11721.40
462.40	11779.92
462.59	11480.33
462.77	11267.34
462.95	11595.01
463.13	11716.72
463.32	11723.74
463.50	11590.33
463.68	11843.11
463.86	11880.56
464.05	11887.58
464.23	11967.16
464.41	11882.90
464.59	11831.41
464.78	12238.66
464.96	11983.54
465.14	11960.14
465.32	12126.32
465.50	12131.00
465.69	12475.06
465.87	11976.52
466.05	12301.86
466.23	12194.19
466.41	12231.64
466.60	12308.88
466.78	12205.89
466.96	12393.14
467.14	12245.68
467.32	12404.84
467.51	12697.41
467.69	12138.02
467.87	12212.92
468.05	12706.77
468.23	12241.00
468.41	12339.30
468.60	12540.59
468.78	12952.52
468.96	12645.91
469.14	13036.78
469.32	13217.01
469.50	12966.57
469.69	13383.18
469.87	13228.71
470.05	13268.50
470.23	13039.12
470.41	13217.01
470.59	13570.43
470.77	13107.00
470.95	13467.44
471.14	13652.34
471.32	13329.35
471.50	13596.17
471.68	13715.54
471.86	13692.13
472.04	13855.97
472.22	13956.61
472.40	13937.89
472.58	13884.06
472.77	14073.64
472.95	14380.25
473.13	14675.16
473.31	14202.37
473.49	14181.31
473.67	14047.90
473.85	14113.43
474.03	14920.92
474.21	14771.12
474.39	14717.29
474.57	14714.95
474.75	15044.96
474.93	14984.11
475.12	15087.09
475.30	15220.50
475.48	15110.50
475.66	15508.39
475.84	15346.89
476.02	15576.27
476.20	15522.43
476.38	15737.76
476.56	15854.79
476.74	16053.73
476.92	15913.30
477.10	15896.92
477.28	16315.87
477.46	16290.13
477.64	16404.81
477.82	16617.80
478.00	16896.33
478.18	17013.35
478.36	17078.89
478.54	17289.54
478.72	17350.39
478.90	17167.83
479.08	17490.82
479.26	18104.04
479.44	17755.30
479.62	17914.46
479.80	18190.64
479.98	18574.49
480.16	18555.77
480.34	18476.19
480.52	18750.03
480.70	18700.88
480.88	18574.49
481.06	18661.09
481.24	18911.53
481.41	19035.58
481.59	19405.38
481.77	19559.86
481.95	19398.36
482.13	20084.14
482.31	19613.69
482.49	20383.73
482.67	20231.59
482.85	20348.62
483.03	20793.32
483.21	21132.70
483.39	20964.18
483.57	21053.12
483.74	21357.39
483.92	21638.25
484.10	21427.60
484.28	21776.34
484.46	22094.66
484.64	22441.06
484.82	22396.59
485.00	22298.28
485.18	22590.85
485.35	23096.41
485.53	22724.26
485.71	22944.27
485.89	23756.44
486.07	23513.02
486.25	23611.32
486.43	23831.33
486.61	23908.57
486.78	24690.31
486.96	24182.42
487.14	24833.08
487.32	24584.99
487.50	25191.19
487.68	25104.59
487.85	25392.47
488.03	25853.56
488.21	26258.47
488.39	25797.38
488.57	26169.53
488.75	26331.03
488.92	26764.03
489.10	26536.99
489.28	27056.59
489.46	27353.84
489.64	27000.42
489.81	27768.12
489.99	28027.92
490.17	27873.44
490.35	28460.91
490.53	28706.67
490.70	28900.94
490.88	28086.43
491.06	29036.69
491.24	29188.82
491.41	29355.00
491.59	29415.85
491.77	29565.65
491.95	30040.78
492.13	29991.62
492.30	29977.58
492.48	30263.13
492.66	30281.85
492.84	30242.06
493.01	30878.69
493.19	30775.70
493.37	31143.17
493.54	31463.82
493.72	31740.00
493.90	31693.19
494.08	31732.98
494.25	32446.85
494.43	32149.60
494.61	32266.63
494.79	32575.58
494.96	32727.71
495.14	32868.14
495.32	33144.33
495.49	33158.37
495.67	33488.38
495.85	33734.14
496.02	34078.20
496.20	34148.42
496.38	34094.58
496.55	34136.71
496.73	35297.62
496.91	34703.12
497.09	35047.18
497.26	35461.46
497.44	35332.73
497.62	36229.15
497.79	36275.96
497.97	35796.15
498.14	35913.18
498.32	36547.47
498.50	36739.39
498.67	36973.44
498.85	36641.09
499.03	37046.00
499.20	37071.75
499.38	37195.79
499.56	37411.12
499.73	37418.14
499.91	37621.77
500.08	37949.45
500.26	37516.45
500.44	37813.70
500.61	37909.66
500.79	37848.80
500.97	38089.88
501.14	39098.65
501.32	38436.28
501.49	39023.75
501.67	38880.98
501.84	38995.67
502.02	39381.85
502.20	39082.27
502.37	39533.99
502.55	39299.94
502.72	39328.02
502.90	39601.86
503.07	39473.13
503.25	40121.46
503.43	39632.29
503.60	40137.85
503.78	40685.53
503.95	40612.98
504.13	40678.51
504.30	41031.93
504.48	41132.57
504.65	40893.84
504.83	41139.60
505.01	41827.71
505.18	41406.42
505.36	41883.89
505.53	41535.15
505.71	41743.45
505.88	42218.58
506.06	41752.82
506.23	42197.52
506.41	42073.47
506.58	42562.64
506.76	42328.59
506.93	42742.86
507.11	42586.05
507.28	43056.50
507.46	42972.24
507.63	43540.99
507.81	43550.35
507.98	42979.26
508.16	43398.21
508.33	43723.55
508.50	43414.60
508.68	44091.01
508.85	43959.94
509.03	43840.57
509.20	44383.58
509.38	44816.58
509.55	44643.38
509.73	44584.86
509.90	44823.60
510.08	45048.29
510.25	44954.67
510.42	44968.71
510.60	45130.21
510.77	45434.48
510.95	46028.98
511.12	45343.20
511.30	45823.01
511.47	45525.76
511.64	45518.74
511.82	45954.08
511.99	46176.43
512.17	46045.36
512.34	46363.67
512.51	46965.19
512.69	46527.51
512.86	46782.63
513.04	47136.05
513.21	47124.35
513.38	46995.62
513.56	46976.89
513.73	47065.83
513.90	47601.82
514.08	46717.09
514.25	47360.74
514.43	47433.30
514.60	47852.25
514.77	47838.21
514.95	48306.32
515.12	47325.63
515.29	47681.39
515.47	48236.10
515.64	48390.58
515.81	48090.99
515.99	48444.41
516.16	48664.42
516.33	48418.66
516.51	49378.28
516.68	48514.62
516.85	48772.08
517.03	49560.84
517.20	49432.11
517.37	48814.21
517.54	49336.15
517.72	49219.13
517.89	49492.97
518.06	49317.43
518.24	49521.05
518.41	49294.02
518.58	49350.20
518.75	49485.95
518.93	49883.84
519.10	49429.77
519.27	49961.08
519.45	49631.06
519.62	50213.85
519.79	50096.83
519.96	50052.36
520.14	50291.09
520.31	50494.72
520.48	50419.82
520.65	50684.30
520.83	51023.68
521.00	51070.49
521.17	50787.28
521.34	50885.59
521.52	50934.74
521.69	51178.15
521.86	50923.04
522.03	51421.57
522.20	51800.74
522.38	51494.13
522.55	51468.38
522.72	51468.38
522.89	51608.81
523.07	51786.69
523.24	51709.46
523.41	51842.87
523.58	51814.78
523.75	52011.38
523.92	51896.70
524.10	52083.94
524.27	52271.18
524.44	52346.08
524.61	52200.97
524.78	52554.39
524.96	52306.29
525.13	52584.82
525.30	52584.82
525.47	53045.90
525.64	52533.32
525.81	52842.27
525.98	53118.46
526.16	52853.98
526.33	52828.23
526.50	53195.70
526.67	52966.32
526.84	53031.86
527.01	53137.18
527.18	53354.85
527.36	53212.08
527.53	53116.12
527.70	53755.08
527.87	53506.99
528.04	53476.56
528.21	53396.98
528.38	53598.27
528.55	53897.86
528.72	53535.07
528.89	53677.85
529.07	53535.07
529.24	53425.07
529.41	53991.48
529.58	53764.45
529.75	54035.95
529.92	54101.48
530.09	54052.33
530.26	54143.61
530.43	54365.96
530.60	54035.95
530.77	54267.66
530.94	54185.74
531.11	54122.55
531.28	54169.36
531.46	54333.20
531.63	54560.23
531.80	54548.53
531.97	54677.25
532.14	54674.91
532.31	54688.96
532.48	54803.64
532.65	54742.79
532.82	54569.59
532.99	55049.40
533.16	54831.73
533.33	55037.70
533.50	55224.94
533.67	55033.02
533.84	54979.18
534.01	55075.15
534.18	55014.29
534.35	55468.36
534.52	55358.35
534.69	55400.48
534.86	55711.77
535.03	55222.60
535.20	55351.33
535.37	55215.58
535.54	55576.02
535.71	55489.42
535.88	55688.37
536.05	55552.62
536.22	55690.71
536.38	55936.46
536.55	55889.65
536.72	55828.80
536.89	55646.24
537.06	55931.78
537.23	55840.50
537.40	55854.54
537.57	55934.12
537.74	56112.00
537.91	56182.22
538.08	55978.59
538.25	56074.55
538.42	56093.28
538.59	56444.36
538.75	56191.58
538.92	56170.52
539.09	56383.51
539.26	56310.95
539.43	56360.10
539.60	56587.13
539.77	56327.33
539.94	56779.06
540.11	56645.65
540.28	56722.88
540.44	56739.27
540.61	56486.49
540.78	56554.36
540.95	56610.54
541.12	56748.63
541.29	56395.21
541.46	56779.06
541.62	56830.55
541.79	57041.20
541.96	56552.02
542.13	56762.67
542.30	56900.76
542.47	57242.48
542.63	57092.69
542.80	56914.81
542.97	57038.86
543.14	57413.34
543.31	57324.40
543.48	57523.35
543.64	57619.31
543.81	57401.64
543.98	57432.07
544.15	57411.00
544.32	57612.29
544.48	57577.18
544.65	57705.91
544.82	57499.94
544.99	57373.55
545.16	57525.69
545.32	57577.18
545.49	57825.28
545.66	57787.83
545.83	57909.53
546.00	57769.10
546.16	57799.53
546.33	57860.38
546.50	57509.30
546.67	57949.32
546.83	57558.45
547.00	57886.13
547.17	57893.15
547.34	58089.76
547.50	58045.29
547.67	58213.80
547.84	58010.18
548.00	58141.25
548.17	58244.23
548.34	58349.56
548.51	58372.96
548.67	58382.32
548.84	58340.19
549.01	58113.16
549.18	58134.23
549.34	58302.74
549.51	58302.74
549.68	58578.93
549.84	58564.88
550.01	58693.61
550.18	58506.37
550.34	58557.86
550.51	58656.17
550.68	58539.14
550.84	58497.01
551.01	58838.73
551.18	58492.33
551.34	58632.76
551.51	58820.00
551.68	58967.46
551.84	58749.79
552.01	58838.73
552.18	58922.99
552.34	58733.40
552.51	58595.31
552.68	58525.10
552.84	58845.75
553.01	59051.72
553.18	58869.15
553.34	58990.86
553.51	58834.05
553.67	59002.56
553.84	58934.69
554.01	59201.51
554.17	59213.21
554.34	59028.31
554.51	59257.68
554.67	59505.78
554.84	59138.32
555.00	59194.49
555.17	59276.41
555.33	58974.48
555.50	59302.15
555.67	59044.69
555.83	59238.96
556.00	59316.20
556.16	59690.68
556.33	59517.48
556.50	59295.13
556.66	59547.91
556.83	59292.79
556.99	59557.27
557.16	59613.44
557.32	59564.29
557.49	59693.02
557.65	59346.62
557.82	59700.04
557.98	59611.10
558.15	59531.53
558.32	59786.64
558.48	59653.23
558.65	59615.79
558.81	59678.98
558.98	59796.01
559.14	59742.17
559.31	59749.20
559.47	59798.35
559.64	59990.27
559.80	59882.61
559.97	59702.38
560.13	59821.75
560.30	59730.47
560.46	59788.98
560.63	59875.58
560.79	60046.44
560.96	59936.44
561.12	60037.08
561.29	59959.84
561.45	59952.82
561.61	59793.67
561.78	60137.72
561.94	60156.45
562.11	59959.84
562.27	60200.92
562.44	60151.77
562.60	60250.07
562.77	60219.64
562.93	60076.87
563.10	60294.54
563.26	59875.58
563.42	60315.61
563.59	60116.66
563.75	60147.09
563.92	60177.51
564.08	60243.05
564.24	60355.39
564.41	60320.29
564.57	60360.08
564.74	60413.91
564.90	60322.63
565.07	60346.03
565.23	60210.28
565.39	60186.88
565.56	60224.32
565.72	60420.93
565.88	60292.20
566.05	60362.42
566.21	60493.49
566.38	60399.86
566.54	60411.57
566.70	60439.65
566.87	60484.12
567.03	60331.99
567.19	60556.68
567.36	60528.59
567.52	60303.90
567.68	60697.11
567.85	60519.23
568.01	60659.66
568.17	60411.57
568.34	60383.48
568.50	60523.91
568.66	60404.55
568.83	60451.36
568.99	60451.36
569.15	60530.93
569.32	60502.85
569.48	60521.57
569.64	60673.71
569.81	60676.05
569.97	60563.70
570.13	60458.38
570.30	60528.59
570.46	60598.81
570.62	60631.58
570.78	60540.30
570.95	60804.78
571.11	60685.41
571.27	60741.58
571.43	60779.03
571.60	60851.59
571.76	60727.54
571.92	60598.81
572.09	60690.09
572.25	60755.63
572.41	60523.91
572.57	60587.11
572.74	60931.17
572.90	60750.94
573.06	60886.70
573.22	60748.60
573.38	60865.63
573.55	60687.75
573.71	60977.98
573.87	60828.18
574.03	60662.00
574.20	60891.38
574.36	60718.18
574.52	61013.08
574.68	60938.19
574.84	60870.31
575.01	61034.15
575.17	60884.36
575.33	60963.93
575.49	60811.80
575.65	60865.63
575.82	60959.25
575.98	60952.23
576.14	60973.30
576.30	60961.59
576.46	60673.71
576.62	61001.38
576.79	61071.60
576.95	60739.24
577.11	60999.04
577.27	61057.56
577.43	60762.65
577.59	60889.04
577.75	60783.71
577.92	60800.10
578.08	60900.74
578.24	61003.72
578.40	60940.53
578.56	61104.37
578.72	60900.74
578.88	61080.96
579.04	61169.90
579.21	61172.24
579.37	60987.34
579.53	61057.56
579.69	61099.68
579.85	61043.51
580.01	60928.83
580.17	60935.85
580.33	60889.04
580.49	61172.24
580.65	61237.78
580.82	60999.04
580.98	60893.72
581.14	61090.32
581.30	61137.13
581.46	60727.54
581.62	61111.39
581.78	60947.55
581.94	61205.01
582.10	60821.16
582.26	61219.05
582.42	61020.11
582.58	61073.94
582.74	60893.72
582.90	61059.90
583.06	61116.07
583.22	61113.73
583.38	61158.20
583.54	60987.34
583.70	61045.85
583.86	60851.59
584.02	61087.98
584.18	61261.18
584.34	61102.03
584.50	61137.13
584.66	61179.26
584.82	60898.40
584.98	61322.04
585.14	61307.99
585.30	61043.51
585.46	61272.88
585.62	61008.40
585.78	61329.06
585.94	61073.94
586.10	61153.52
586.26	61092.66
586.42	61319.70
586.58	61249.48
586.74	61373.53
586.90	61055.21
587.06	61095.00
587.22	61179.26
587.38	61120.75
587.54	61263.52
587.70	61219.05
587.86	61183.94
588.02	61233.10
588.18	61343.10
588.34	61043.51
588.49	61193.31
