SpectraSuite Data File
++++++++++++++++++++++++++++++++++++
Date: Fri Oct 25 11:24:06 EDT 2013
User: price-jones
Dark Spectrum Present: No
Reference Spectrum Present: No
Number of Sampled Component Spectra: 1
Spectrometers: USB2+H05261
Integration Time (usec): 100000 (USB2+H05261)
Spectra Averaged: 1 (USB2+H05261)
Boxcar Smoothing: 0 (USB2+H05261)
Correct for Electrical Dark: No (USB2+H05261)
Strobe/Lamp Enabled: No (USB2+H05261)
Correct for Detector Non-linearity: No (USB2+H05261)
Correct for Stray Light: No (USB2+H05261)
Number of Pixels in Processed Spectrum: 2048
>>>>>Begin Processed Spectral Data<<<<<
365.73	203.63
365.92	203.63
366.12	203.63
366.32	114.69
366.52	152.13
366.72	98.30
366.91	140.43
367.11	175.54
367.31	110.01
367.51	175.54
367.70	119.37
367.90	210.65
368.10	107.66
368.30	142.77
368.49	234.05
368.69	119.37
368.89	107.66
369.09	126.39
369.28	124.05
369.48	175.54
369.68	88.94
369.87	215.33
370.07	187.24
370.27	315.97
370.47	351.08
370.66	589.82
370.86	552.37
371.06	678.76
371.25	734.93
371.45	638.97
371.65	683.44
371.84	601.52
372.04	692.80
372.24	641.31
372.44	734.93
372.63	791.10
372.83	690.46
373.03	833.23
373.22	704.50
373.42	709.18
373.62	800.46
373.81	755.99
374.01	835.57
374.21	807.48
374.40	772.38
374.60	842.59
374.79	795.78
374.99	821.53
375.19	798.12
375.38	861.32
375.58	858.98
375.78	887.06
375.97	870.68
376.17	805.14
376.37	849.61
376.56	875.36
376.76	844.93
376.95	854.30
377.15	898.77
377.35	894.08
377.54	873.02
377.74	957.28
377.93	847.27
378.13	919.83
378.33	957.28
378.52	957.28
378.72	976.00
378.91	957.28
379.11	940.90
379.31	844.93
379.50	997.07
379.70	889.40
379.89	1039.20
380.09	910.47
380.28	978.34
380.48	929.19
380.68	1011.11
380.87	959.62
381.07	1004.09
381.26	1081.33
381.46	1055.58
381.65	973.66
381.85	1104.73
382.04	1057.92
382.24	1006.43
382.43	1036.86
382.63	1074.31
382.83	1179.63
383.02	1156.22
383.22	1160.91
383.41	1050.90
383.61	1048.56
383.80	1069.62
384.00	1163.25
384.19	1043.88
384.39	1081.33
384.58	1100.05
384.78	1144.52
384.97	1163.25
385.17	1200.69
385.36	1144.52
385.56	1144.52
385.75	1203.04
385.95	1149.20
386.14	1137.50
386.34	1163.25
386.53	1203.04
386.72	1167.93
386.92	1191.33
387.11	1219.42
387.31	1158.57
387.50	1259.21
387.70	1249.85
387.89	1252.19
388.09	1338.79
388.28	1249.85
388.48	1315.38
388.67	1310.70
388.86	1345.81
389.06	1404.32
389.25	1376.24
389.45	1334.11
389.64	1369.21
389.84	1310.70
390.03	1451.13
390.22	1411.34
390.42	1287.29
390.61	1401.98
390.81	1483.90
391.00	1401.98
391.19	1441.77
391.39	1519.01
391.58	1469.86
391.78	1469.86
391.97	1401.98
392.16	1488.58
392.36	1579.86
392.55	1495.60
392.75	1486.24
392.94	1502.62
393.13	1617.31
393.33	1514.33
393.52	1486.24
393.71	1523.69
393.91	1596.25
394.10	1535.39
394.29	1640.72
394.49	1645.40
394.68	1603.27
394.88	1507.30
395.07	1598.59
395.26	1680.50
395.46	1703.91
395.65	1638.38
395.84	1715.61
396.04	1736.68
396.23	1797.53
396.42	1717.95
396.62	1844.34
396.81	1776.47
397.00	1778.81
397.19	1750.72
397.39	1813.92
397.58	1827.96
397.77	1839.66
397.97	1893.49
398.16	1870.09
398.35	2005.84
398.55	1832.64
398.74	1886.47
398.93	1959.03
399.12	1996.48
399.32	1935.62
399.51	1888.81
399.70	2008.18
399.90	1982.43
400.09	2078.40
400.28	2069.03
400.47	1989.46
400.67	2202.44
400.86	2029.24
401.05	2003.50
401.24	2052.65
401.44	2165.00
401.63	2256.28
401.82	2108.82
402.01	2146.27
402.21	2160.31
402.40	2260.96
402.59	2200.10
402.78	2235.21
402.97	2179.04
403.17	2289.04
403.36	2186.06
403.55	2267.98
403.74	2377.98
403.93	2427.14
404.13	2544.16
404.32	2359.26
404.51	2415.43
404.70	2466.92
404.89	2401.39
405.09	2574.59
405.28	2473.95
405.47	2469.27
405.66	2583.95
405.85	2511.39
406.05	2450.54
406.24	2473.95
406.43	2490.33
406.62	2562.89
406.81	2609.70
407.00	2658.85
407.20	2537.14
407.39	2600.34
407.58	2787.58
407.77	2693.96
407.96	2752.47
408.15	2785.24
408.34	2761.83
408.54	2813.32
408.73	2822.69
408.92	2818.00
409.11	2878.86
409.30	2906.95
409.49	2913.97
409.68	2892.90
409.87	3026.31
410.07	2869.50
410.26	2937.37
410.45	2991.20
410.64	2916.31
410.83	3101.21
411.02	3091.85
411.21	3157.38
411.40	3136.32
411.59	3199.51
411.78	3115.25
411.98	3368.03
412.17	3321.22
412.36	3351.65
412.55	3349.31
412.74	3541.23
412.93	3438.25
413.12	3424.20
413.31	3499.10
413.50	3442.93
413.69	3517.83
413.88	3562.30
414.07	3557.61
414.26	3676.98
414.45	3658.26
414.64	3648.90
414.83	3840.82
415.02	3871.25
415.22	3857.20
415.41	3826.78
415.60	3927.42
415.79	3943.80
415.98	3997.64
416.17	4119.34
416.36	3908.69
416.55	3962.53
416.74	4053.81
416.93	4039.76
417.12	4009.34
417.31	4128.70
417.50	4168.49
417.69	4315.95
417.88	4250.41
418.07	4086.58
418.26	4231.69
418.45	4311.27
418.64	4489.15
418.83	4322.97
419.02	4421.27
419.21	4461.06
419.39	4559.36
419.58	4418.93
419.77	4571.07
419.96	4636.60
420.15	4407.23
420.34	4674.05
420.53	4657.67
420.72	4559.36
420.91	4739.58
421.10	4931.51
421.29	4847.25
421.48	4674.05
421.67	4847.25
421.86	4821.50
422.05	4961.94
422.24	4889.38
422.43	4933.85
422.61	4788.74
422.80	4882.36
422.99	4968.96
423.18	5060.24
423.37	5013.43
423.56	5001.72
423.75	4746.61
423.94	5022.79
424.13	4645.96
424.32	4837.89
424.50	4959.60
424.69	5104.71
424.88	5097.69
425.07	5071.94
425.26	4898.74
425.45	4961.94
425.64	4992.36
425.83	5004.07
426.01	4973.64
426.20	5100.03
426.39	4968.96
426.58	5069.60
426.77	5193.65
426.96	5181.95
427.15	5233.44
427.33	5158.54
427.52	5172.58
427.71	5207.69
427.90	5247.48
428.09	5444.09
428.28	5568.13
428.46	5444.09
428.65	5416.00
428.84	5472.17
429.03	5387.91
429.22	5413.66
429.40	5504.94
429.59	5465.15
429.78	5259.18
429.97	5296.63
430.16	5493.24
430.34	5610.26
430.53	5760.06
430.72	5568.13
430.91	5757.72
431.10	5762.40
431.28	5872.40
431.47	5757.72
431.66	5921.56
431.85	5846.66
432.03	5802.19
432.22	6022.20
432.41	5834.96
432.60	5867.72
432.79	6031.56
432.97	6169.65
433.16	6115.82
433.35	5940.28
433.54	6022.20
433.72	6204.76
433.91	6071.35
434.10	6296.04
434.28	6167.31
434.47	6305.40
434.66	6244.55
434.85	6389.66
435.03	6483.28
435.22	6380.30
435.41	6520.73
435.59	6445.84
435.78	6436.47
435.97	6373.28
436.16	6516.05
436.34	6525.41
436.53	6502.01
436.72	6729.04
436.90	6443.49
437.09	6595.63
437.28	6471.58
437.46	6743.08
437.65	6726.70
437.84	6764.15
438.02	6738.40
438.21	6794.58
438.40	6789.89
438.58	6843.73
438.77	7040.33
438.96	7016.93
439.14	7155.02
439.33	7087.14
439.52	7136.29
439.70	7269.70
439.89	7494.40
440.08	7365.67
440.26	7267.36
440.45	7442.90
440.63	7543.55
440.82	7562.27
441.01	7775.26
441.19	7756.54
441.38	7913.35
441.57	7777.60
441.75	7826.75
441.94	7960.16
442.12	8037.40
442.31	8091.23
442.50	7962.50
442.68	7845.48
442.87	8156.77
443.05	8231.66
443.24	8156.77
443.43	8175.49
443.61	8084.21
443.80	8205.92
443.98	8091.23
444.17	7810.37
444.35	8250.39
444.54	8503.17
444.73	8285.50
444.91	8294.86
445.10	8297.20
445.28	8107.62
445.47	8395.50
445.65	8367.42
445.84	8561.68
446.02	8678.71
446.21	8615.51
446.39	8402.52
446.58	8409.54
446.77	8475.08
446.95	8362.73
447.14	8423.59
447.32	8669.34
447.51	8610.83
447.69	8615.51
447.88	8294.86
448.06	8690.41
448.25	8482.10
448.43	8674.03
448.62	8657.64
448.80	8835.52
448.99	8777.01
449.17	8842.54
449.36	8858.93
449.54	8844.88
449.73	8858.93
449.91	9179.58
450.10	8982.98
450.28	8982.98
450.46	9282.56
450.65	8896.38
450.83	9142.13
451.02	8826.16
451.20	9221.71
451.39	9369.16
451.57	9104.68
451.76	8884.67
451.94	9238.09
452.13	9497.89
452.31	9172.56
452.49	9149.15
452.68	9334.06
452.86	9261.50
453.05	9366.82
453.23	9549.39
453.42	9455.76
453.60	9191.28
453.78	9465.13
453.97	9413.63
454.15	9589.17
454.34	9727.27
454.52	9846.63
454.70	9533.00
454.89	9715.56
455.07	9797.48
455.26	9949.62
455.44	10129.84
455.62	10022.17
455.81	9961.32
455.99	10033.88
456.17	10113.45
456.36	10008.13
456.54	10181.33
456.73	10331.12
456.91	10396.66
457.09	10431.77
457.28	10595.61
457.46	10361.55
457.64	10274.95
457.83	10471.56
458.01	10377.94
458.19	10569.86
458.38	10719.65
458.56	10710.29
458.74	10768.80
458.93	10881.15
459.11	10991.16
459.29	10855.40
459.48	10780.51
459.66	11073.07
459.84	10956.05
460.03	10930.30
460.21	11052.01
460.39	10988.82
460.57	10946.69
460.76	11136.27
460.94	11190.10
461.12	11101.16
461.31	11236.91
461.49	11180.74
461.67	11077.76
461.85	11627.78
462.04	11414.79
462.22	11768.21
462.40	11653.53
462.59	11419.47
462.77	11698.00
462.95	11595.01
463.13	11836.09
463.32	11623.10
463.50	11887.58
463.68	11800.98
463.86	11918.01
464.05	11555.22
464.23	11620.76
464.41	11800.98
464.59	11910.99
464.78	12154.40
464.96	12056.10
465.14	11990.56
465.32	12091.21
465.50	12123.98
465.69	12386.12
465.87	12133.34
466.05	12273.77
466.23	12250.36
466.41	12393.14
466.60	12575.70
466.78	12140.36
466.96	12248.02
467.14	12271.43
467.32	12360.37
467.51	12676.34
467.69	12191.85
467.87	12498.46
468.05	12781.67
468.23	12339.30
468.41	12535.91
468.60	12706.77
468.78	12908.05
468.96	12400.16
469.14	12786.35
469.32	13057.85
469.50	12706.77
469.69	12786.35
469.87	13315.31
470.05	13006.36
470.23	13144.45
470.41	13160.83
470.59	13336.37
470.77	13081.25
470.95	13415.95
471.14	13652.34
471.32	13146.79
471.50	13738.94
471.68	13722.56
471.86	13689.79
472.04	13774.05
472.22	13879.38
472.40	13710.86
472.58	13991.72
472.77	13933.21
472.95	14113.43
473.13	14878.79
473.31	14160.24
473.49	14094.71
473.67	14314.72
473.85	14188.33
474.03	14827.29
474.21	14696.22
474.39	14817.93
474.57	14719.63
474.75	15080.07
474.93	14846.02
475.12	15016.88
475.30	15272.00
475.48	15047.30
475.66	15084.75
475.84	14911.55
476.02	15311.78
476.20	15442.85
476.38	15765.85
476.56	16236.30
476.74	15861.81
476.92	15990.54
477.10	15857.13
477.28	16058.42
477.46	16400.13
477.64	16091.18
477.82	16594.40
478.00	16945.48
478.18	16704.40
478.36	16978.25
478.54	17214.64
478.72	17378.48
478.90	17425.29
479.08	17678.07
479.26	17465.08
479.44	17624.23
479.62	18040.85
479.80	18043.19
479.98	18352.14
480.16	18539.38
480.34	18431.72
480.52	18637.69
480.70	18443.42
480.88	18438.74
481.06	18757.05
481.24	18504.28
481.41	19257.93
481.59	19583.26
481.77	19597.31
481.95	19480.28
482.13	19690.93
482.31	19484.96
482.49	20290.10
482.67	20276.06
482.85	20514.80
483.03	20814.38
483.21	20741.83
483.39	21069.50
483.57	20947.79
483.74	21256.75
483.92	21336.32
484.10	21460.37
484.28	21572.72
484.46	21914.44
484.64	22256.15
484.82	21954.22
485.00	22750.01
485.18	22960.66
485.35	22845.97
485.53	23030.87
485.71	23108.11
485.89	23613.66
486.07	23442.81
486.25	23534.09
486.43	23997.51
486.61	23686.22
486.78	24154.33
486.96	24432.85
487.14	24587.33
487.32	24573.28
487.50	24957.13
487.68	25022.67
487.85	25556.31
488.03	25422.90
488.21	25834.83
488.39	25867.60
488.57	26279.54
488.75	26419.97
488.92	26314.64
489.10	26710.19
489.28	26909.14
489.46	27257.88
489.64	27213.41
489.81	27871.10
489.99	27496.61
490.17	28041.96
490.35	28112.17
490.53	28367.29
490.70	28205.80
490.88	28290.06
491.06	29081.16
491.24	29144.35
491.41	29345.64
491.59	29081.16
491.77	29329.25
491.95	29757.57
492.13	30005.67
492.30	30576.76
492.48	30038.44
492.66	30185.89
492.84	30719.53
493.01	31157.21
493.19	30836.56
493.37	31094.02
493.54	31388.92
493.72	31185.30
493.90	31756.39
494.08	31756.39
494.25	32189.39
494.43	31667.45
494.61	32634.09
494.79	32535.79
494.96	32479.61
495.14	32912.61
495.32	33457.96
495.49	33464.98
495.67	33467.32
495.85	33502.43
496.02	33975.22
496.20	34136.71
496.38	34202.25
496.55	34448.00
496.73	35150.17
496.91	34546.31
497.09	34843.56
497.26	35082.29
497.44	35005.05
497.62	35311.66
497.79	36123.83
497.97	35550.40
498.14	36271.28
498.32	36428.10
498.50	36280.64
498.67	36421.08
498.85	36718.32
499.03	36875.14
499.20	37347.93
499.38	36786.20
499.56	37460.27
499.73	37432.19
499.91	37380.70
500.08	37886.25
500.26	37507.08
500.44	37860.51
500.61	37722.41
500.79	37703.69
500.97	38319.25
501.14	38609.48
501.32	38763.95
501.49	38803.74
501.67	38946.51
501.84	39508.24
502.02	38939.49
502.20	39241.42
502.37	39234.40
502.55	39267.17
502.72	39875.71
502.90	39681.44
503.07	39697.83
503.25	40194.02
503.43	39583.14
503.60	40018.48
503.78	40418.71
503.95	40542.76
504.13	40858.73
504.30	40940.65
504.48	40610.64
504.65	41013.21
504.83	40980.44
505.01	41553.87
505.18	41584.30
505.36	41289.39
505.53	41518.76
505.71	41661.54
505.88	41949.42
506.06	41425.14
506.23	42115.60
506.41	41879.21
506.58	42333.27
506.76	42368.38
506.93	42885.64
507.11	42635.20
507.28	42506.47
507.46	42553.28
507.63	43283.53
507.81	43243.74
507.98	43489.49
508.16	43124.37
508.33	43374.81
508.50	43868.66
508.68	43627.59
508.85	44191.65
509.03	44261.87
509.20	44233.78
509.38	44535.71
509.55	44399.96
509.73	44615.29
509.90	44711.25
510.08	44832.96
510.25	44847.00
510.42	45001.48
510.60	45436.82
510.77	45116.17
510.95	45289.37
511.12	45237.87
511.30	45090.42
511.47	45600.66
511.64	45453.20
511.82	45830.03
511.99	46043.02
512.17	46089.83
512.34	46258.35
512.51	46501.76
512.69	46649.22
512.86	46728.80
513.04	46653.90
513.21	46939.44
513.38	46983.91
513.56	47157.11
513.73	46890.29
513.90	47035.41
514.08	46902.00
514.25	47283.50
514.43	47496.49
514.60	47562.03
514.77	47084.56
514.95	47711.82
515.12	47657.99
515.29	47650.97
515.47	48051.20
515.64	48250.14
515.81	48030.13
515.99	48505.26
516.16	48666.76
516.33	48767.40
516.51	48751.02
516.68	48587.18
516.85	48669.10
517.03	49247.21
517.20	49268.28
517.37	48818.89
517.54	48928.90
517.72	49261.26
517.89	49207.42
518.06	49191.04
518.24	49371.26
518.41	49179.34
518.58	49436.80
518.75	49401.69
518.93	49628.72
519.10	49890.86
519.27	49982.14
519.45	49755.11
519.62	49975.12
519.79	50174.06
519.96	50021.93
520.14	50532.17
520.31	50253.64
520.48	50642.17
520.65	50494.72
520.83	50529.83
521.00	50506.42
521.17	50522.80
521.34	50770.90
521.52	50836.44
521.69	50747.50
521.86	51150.07
522.03	50974.53
522.20	51859.25
522.38	51625.20
522.55	51161.77
522.72	51564.34
522.89	51538.60
523.07	51576.04
523.24	51533.92
523.41	51594.77
523.58	51508.17
523.75	52009.04
523.92	52179.90
524.10	52051.17
524.27	51990.32
524.44	51936.49
524.61	52540.35
524.78	52362.46
524.96	52292.25
525.13	52266.50
525.30	52320.34
525.47	52310.97
525.64	52463.11
525.81	52807.17
525.98	52734.61
526.16	52657.37
526.33	52589.50
526.50	52879.72
526.67	52809.51
526.84	52893.77
527.01	53261.23
527.18	53141.86
527.36	53055.26
527.53	53298.68
527.70	53394.64
527.87	53476.56
528.04	53359.53
528.21	53687.21
528.38	53373.58
528.55	53769.13
528.72	53691.89
528.89	53673.16
529.07	53586.57
529.24	53432.09
529.41	53837.00
529.58	53717.64
529.75	53642.74
529.92	53705.93
530.09	54148.29
530.26	54045.31
530.43	54279.36
530.60	53860.41
530.77	54059.35
530.94	54213.83
531.11	54094.46
531.28	54265.32
531.46	54370.64
531.63	54169.36
531.80	54473.63
531.97	54593.00
532.14	54644.49
532.31	54618.74
532.48	54703.00
532.65	54836.41
532.82	54403.41
532.99	54688.96
533.16	54777.90
533.33	54703.00
533.50	55105.57
533.67	54838.75
533.84	54597.68
534.01	55180.47
534.18	55124.30
534.35	55271.75
534.52	55150.04
534.69	55379.42
534.86	55192.17
535.03	55098.55
535.20	55150.04
535.37	55494.10
535.54	55440.27
535.71	55414.52
535.88	55489.42
536.05	55409.84
536.22	55781.99
536.38	55756.24
536.55	55618.15
536.72	55791.35
536.89	55622.83
537.06	55620.49
537.23	55887.31
537.40	55725.81
537.57	55824.12
537.74	55798.37
537.91	55922.42
538.08	55941.14
538.25	55861.57
538.42	55990.30
538.59	56301.59
538.75	56229.03
538.92	56041.79
539.09	56163.50
539.26	56467.76
539.43	56257.12
539.60	56172.86
539.77	56193.92
539.94	56390.53
540.11	56472.45
540.28	56254.78
540.44	56755.65
540.61	56371.80
540.78	56559.05
540.95	56498.19
541.12	56514.58
541.29	56570.75
541.46	56477.13
541.62	56793.10
541.79	56633.94
541.96	56362.44
542.13	56685.43
542.30	56767.35
542.47	56900.76
542.63	57183.97
542.80	56853.95
542.97	56985.02
543.14	57120.77
543.31	57174.61
543.48	57399.30
543.64	57504.62
543.81	57530.37
543.98	57439.09
544.15	57677.82
544.32	57429.72
544.48	57776.12
544.65	57413.34
544.82	57392.28
544.99	57301.00
545.16	57663.78
545.32	57584.20
545.49	57738.68
545.66	58068.69
545.83	57663.78
546.00	57921.24
546.16	57829.96
546.33	57631.01
546.50	57787.83
546.67	57902.51
546.83	57551.43
547.00	58068.69
547.17	57998.48
547.34	57949.32
547.50	57970.39
547.67	58171.67
547.84	58080.39
548.00	58136.57
548.17	58447.86
548.34	58258.27
548.51	58314.45
548.67	58269.98
548.84	58225.51
549.01	58164.65
549.18	58227.85
549.34	58429.13
549.51	58485.31
549.68	58473.60
549.84	58356.58
550.01	58562.54
550.18	58309.77
550.34	58450.20
550.51	58532.12
550.68	58635.10
550.84	58368.28
551.01	58401.05
551.18	58822.34
551.34	58660.85
551.51	58597.65
551.68	58450.20
551.84	58763.83
552.01	58543.82
552.18	58665.53
552.34	58595.31
552.51	58983.84
552.68	58726.38
552.84	58787.24
553.01	58960.44
553.18	58862.13
553.34	58845.75
553.51	59042.35
553.67	59002.56
553.84	59152.36
554.01	59220.23
554.17	59082.14
554.34	59238.96
554.51	58838.73
554.67	59131.29
554.84	59040.01
555.00	58960.44
555.17	59103.21
555.33	59079.80
555.50	59222.58
555.67	59103.21
555.83	59121.93
556.00	59274.07
556.16	59407.48
556.33	59498.76
556.50	59309.18
556.66	59533.87
556.83	59285.77
556.99	59398.12
557.16	59611.10
557.32	59465.99
557.49	59730.47
557.65	59224.92
557.82	59203.85
557.98	59344.28
558.15	59482.37
558.32	59526.84
558.48	59538.55
558.65	59412.16
558.81	59529.19
558.98	59760.90
559.14	59800.69
559.31	59887.29
559.47	59779.62
559.64	59826.43
559.80	59781.96
559.97	59938.78
560.13	59707.07
560.30	59590.04
560.46	59859.20
560.63	59840.48
560.79	59861.54
560.96	59751.54
561.12	59838.14
561.29	59861.54
561.45	60156.45
561.61	59983.25
561.78	60004.31
561.94	60013.68
562.11	59763.24
562.27	59973.89
562.44	59983.25
562.60	60156.45
562.77	60154.11
562.93	59985.59
563.10	60133.04
563.26	59917.71
563.42	60168.15
563.59	60114.32
563.75	60086.23
563.92	60175.17
564.08	60142.41
564.24	60303.90
564.41	60214.96
564.57	60156.45
564.74	60212.62
564.90	60353.05
565.07	60140.07
565.23	60170.49
565.39	60058.15
565.56	60350.71
565.72	60102.62
565.88	60446.68
566.05	60280.50
566.21	60133.04
566.38	60374.12
566.54	60392.84
566.70	60331.99
566.87	60339.01
567.03	60142.41
567.19	60601.15
567.36	60411.57
567.52	60266.45
567.68	60659.66
567.85	60582.43
568.01	60664.35
568.17	60369.44
568.34	60554.34
568.50	60523.91
568.66	60383.48
568.83	60385.82
568.99	60402.21
569.15	60692.43
569.32	60418.59
569.48	60498.17
569.64	60797.76
569.81	60411.57
569.97	60605.83
570.13	60643.28
570.30	60465.40
570.46	60519.23
570.62	60390.50
570.78	60650.30
570.95	60638.60
571.11	60678.39
571.27	60676.05
571.43	60514.55
571.60	60470.08
571.76	60610.51
571.92	60617.53
572.09	60540.30
572.25	60633.92
572.41	60772.01
572.57	60713.50
572.74	60816.48
572.90	60662.00
573.06	60837.54
573.22	60797.76
573.38	60743.92
573.55	60647.96
573.71	60783.71
573.87	60842.23
574.03	60580.09
574.20	60814.14
574.36	60814.14
574.52	60879.67
574.68	60662.00
574.84	60816.48
575.01	60741.58
575.17	60507.53
575.33	60905.42
575.49	60774.35
575.65	60860.95
575.82	60858.61
575.98	61080.96
576.14	60931.17
576.30	61038.83
576.46	61029.47
576.62	60879.67
576.79	60832.86
576.95	60727.54
577.11	60924.14
577.27	60795.42
577.43	60949.89
577.59	60788.39
577.75	60587.11
577.92	60776.69
578.08	60809.46
578.24	60802.44
578.40	60989.68
578.56	61059.90
578.72	61013.08
578.88	61055.21
579.04	61132.45
579.21	60996.70
579.37	61153.52
579.53	61111.39
579.69	60954.57
579.85	60835.20
580.01	60743.92
580.17	60830.52
580.33	61109.05
580.49	61186.28
580.65	61024.79
580.82	60858.61
580.98	60905.42
581.14	60872.65
581.30	61001.38
581.46	60779.03
581.62	60980.32
581.78	61066.92
581.94	61041.17
582.10	60935.85
582.26	61125.43
582.42	60989.68
582.58	61029.47
582.74	60977.98
582.90	61048.19
583.06	60961.59
583.22	60889.04
583.38	60982.66
583.54	61006.06
583.70	60994.36
583.86	61052.87
584.02	61073.94
584.18	61062.24
584.34	61038.83
584.50	60935.85
584.66	60977.98
584.82	60924.14
584.98	61226.07
585.14	61240.12
585.30	60949.89
585.46	61059.90
585.62	61085.64
585.78	61099.68
585.94	61127.77
586.10	61069.26
586.26	61197.99
586.42	61158.20
586.58	61418.00
586.74	61153.52
586.90	60985.00
587.06	60987.34
587.22	61293.95
587.38	61160.54
587.54	61284.59
587.70	61291.61
587.86	61251.82
588.02	61235.44
588.18	61352.46
588.34	61141.81
588.49	61104.37
