SpectraSuite Data File
++++++++++++++++++++++++++++++++++++
Date: Fri Oct 25 11:23:43 EDT 2013
User: price-jones
Dark Spectrum Present: No
Reference Spectrum Present: No
Number of Sampled Component Spectra: 1
Spectrometers: USB2+H05261
Integration Time (usec): 100000 (USB2+H05261)
Spectra Averaged: 1 (USB2+H05261)
Boxcar Smoothing: 0 (USB2+H05261)
Correct for Electrical Dark: No (USB2+H05261)
Strobe/Lamp Enabled: No (USB2+H05261)
Correct for Detector Non-linearity: No (USB2+H05261)
Correct for Stray Light: No (USB2+H05261)
Number of Pixels in Processed Spectrum: 2048
>>>>>Begin Processed Spectral Data<<<<<
365.73	196.60
365.92	196.60
366.12	196.60
366.32	156.82
366.52	145.11
366.72	184.90
366.91	79.58
367.11	74.90
367.31	163.84
367.51	142.77
367.70	180.22
367.90	189.58
368.10	138.09
368.30	107.66
368.49	128.73
368.69	152.13
368.89	168.52
369.09	133.41
369.28	166.18
369.48	149.79
369.68	177.88
369.87	224.69
370.07	243.42
370.27	299.59
370.47	334.70
370.66	594.50
370.86	645.99
371.06	692.80
371.25	627.26
371.45	667.05
371.65	624.92
371.84	641.31
372.04	660.03
372.24	664.71
372.44	657.69
372.63	667.05
372.83	767.70
373.03	807.48
373.22	706.84
373.42	791.10
373.62	844.93
373.81	814.51
374.01	777.06
374.21	765.36
374.40	807.48
374.60	842.59
374.79	833.23
374.99	858.98
375.19	891.74
375.38	805.14
375.58	830.89
375.78	793.44
375.97	781.74
376.17	889.40
376.37	837.91
376.56	847.27
376.76	915.15
376.95	882.38
377.15	851.96
377.35	861.32
377.54	833.23
377.74	929.19
377.93	940.90
378.13	945.58
378.33	938.55
378.52	905.79
378.72	968.98
378.91	919.83
379.11	887.06
379.31	980.68
379.50	983.02
379.70	896.43
379.89	966.64
380.09	943.24
380.28	976.00
380.48	973.66
380.68	990.05
380.87	978.34
381.07	891.74
381.26	1001.75
381.46	957.28
381.65	1013.45
381.85	1027.50
382.04	997.07
382.24	1025.15
382.43	1071.97
382.63	1086.01
382.83	1081.33
383.02	1116.44
383.22	1083.67
383.41	1116.44
383.61	1062.60
383.80	1043.88
384.00	1107.07
384.19	1053.24
384.39	1111.75
384.58	1153.88
384.78	1118.78
384.97	1111.75
385.17	1203.04
385.36	1121.12
385.56	1156.22
385.75	1149.20
385.95	1153.88
386.14	1212.40
386.34	1160.91
386.53	1228.78
386.72	1188.99
386.92	1324.74
387.11	1240.48
387.31	1324.74
387.50	1179.63
387.70	1163.25
387.89	1261.55
388.09	1240.48
388.28	1242.82
388.48	1387.94
388.67	1299.00
388.86	1245.16
389.06	1366.87
389.25	1240.48
389.45	1336.45
389.64	1352.83
389.84	1376.24
390.03	1423.05
390.22	1437.09
390.42	1425.39
390.61	1348.15
390.81	1348.15
391.00	1430.07
391.19	1425.39
391.39	1387.94
391.58	1441.77
391.78	1458.15
391.97	1476.88
392.16	1446.45
392.36	1437.09
392.55	1537.73
392.75	1469.86
392.94	1409.00
393.13	1530.71
393.33	1519.01
393.52	1549.43
393.71	1619.65
393.91	1575.18
394.10	1626.67
394.29	1626.67
394.49	1673.48
394.68	1652.42
394.88	1629.01
395.07	1661.78
395.26	1626.67
395.46	1593.90
395.65	1673.48
395.84	1696.89
396.04	1722.63
396.23	1696.89
396.42	1762.42
396.62	1830.30
396.81	1823.28
397.00	1760.08
397.19	1743.70
397.39	1806.89
397.58	1853.70
397.77	1860.73
397.97	1802.21
398.16	1790.51
398.35	1867.75
398.55	1849.02
398.74	1907.54
398.93	1940.30
399.12	1877.11
399.32	1877.11
399.51	1846.68
399.70	2045.63
399.90	1933.28
400.09	2008.18
400.28	2073.71
400.47	2008.18
400.67	2080.74
400.86	2083.08
401.05	2157.97
401.24	2172.02
401.44	2204.78
401.63	2153.29
401.82	2165.00
402.01	2148.61
402.21	2097.12
402.40	2090.10
402.59	2176.70
402.78	2239.89
402.97	2237.55
403.17	2223.51
403.36	2270.32
403.55	2338.20
403.74	2260.96
403.93	2349.90
404.13	2340.54
404.32	2401.39
404.51	2298.41
404.70	2375.64
404.89	2382.67
405.09	2389.69
405.28	2478.63
405.47	2410.75
405.66	2546.50
405.85	2464.58
406.05	2527.78
406.24	2593.31
406.43	2579.27
406.62	2511.39
406.81	2710.34
407.00	2558.21
407.20	2588.63
407.39	2590.97
407.58	2738.43
407.77	2693.96
407.96	2761.83
408.15	2696.30
408.34	2764.17
408.54	2752.47
408.73	2789.92
408.92	2864.82
409.11	2782.90
409.30	2984.18
409.49	2991.20
409.68	2920.99
409.87	2916.31
410.07	2862.48
410.26	2937.37
410.45	2916.31
410.64	3089.51
410.83	3082.49
411.02	3187.81
411.21	3239.30
411.40	3213.56
411.59	3087.17
411.78	3255.69
411.98	3185.47
412.17	3227.60
412.36	3309.52
412.55	3365.69
412.74	3368.03
412.93	3356.33
413.12	3288.45
413.31	3564.64
413.50	3515.48
413.69	3522.51
413.88	3637.19
414.07	3681.66
414.26	3595.06
414.45	3735.50
414.64	3653.58
414.83	3880.61
415.02	3836.14
415.22	3817.41
415.41	3885.29
415.60	3868.91
415.79	3826.78
415.98	3789.33
416.17	3999.98
416.36	3901.67
416.55	4037.42
416.74	4173.18
416.93	4173.18
417.12	4042.11
417.31	4035.08
417.50	4189.56
417.69	4107.64
417.88	4278.50
418.07	4166.15
418.26	4250.41
418.45	4315.95
418.64	4376.80
418.83	4542.98
419.02	4489.15
419.21	4461.06
419.39	4573.41
419.58	4397.87
419.77	4528.94
419.96	4580.43
420.15	4585.11
420.34	4667.03
420.53	4695.11
420.72	4603.83
420.91	4798.10
421.10	4774.69
421.29	4711.50
421.48	4699.80
421.67	4816.82
421.86	4762.99
422.05	4760.65
422.24	4922.15
422.43	4816.82
422.61	4861.29
422.80	4980.66
422.99	4840.23
423.18	4945.55
423.37	4975.98
423.56	4997.04
423.75	4873.00
423.94	4870.65
424.13	4725.54
424.32	4788.74
424.50	5114.07
424.69	5032.15
424.88	5053.22
425.07	4891.72
425.26	4997.04
425.45	4809.80
425.64	5121.09
425.83	5008.75
426.01	4936.19
426.20	5071.94
426.39	4936.19
426.58	5050.88
426.77	4983.00
426.96	5114.07
427.15	5160.88
427.33	5226.42
427.52	5093.01
427.71	5158.54
427.90	5301.31
428.09	5348.12
428.28	5366.85
428.46	5270.89
428.65	5263.86
428.84	5380.89
429.03	5521.32
429.22	5357.49
429.40	5355.15
429.59	5397.28
429.78	5327.06
429.97	5181.95
430.16	5603.24
430.34	5706.23
430.53	5591.54
430.72	5783.46
430.91	5788.14
431.10	5636.01
431.28	5914.53
431.47	5849.00
431.66	6012.84
431.85	5647.71
432.03	5916.87
432.22	6050.28
432.41	5886.45
432.60	5959.00
432.79	6050.28
432.97	6019.86
433.16	5886.45
433.35	6150.93
433.54	6157.95
433.72	6108.80
433.91	6120.50
434.10	6235.19
434.28	6235.19
434.47	6223.48
434.66	6148.59
434.85	6368.60
435.03	6289.02
435.22	6183.70
435.41	6441.15
435.59	6478.60
435.78	6441.15
435.97	6548.82
436.16	6450.52
436.34	6466.90
436.53	6630.74
436.72	6642.44
436.90	6502.01
437.09	6588.61
437.28	6527.75
437.46	6483.28
437.65	6764.15
437.84	6771.17
438.02	6775.85
438.21	6665.85
438.40	6782.87
438.58	6853.09
438.77	7023.95
438.96	6927.99
439.14	7096.50
439.33	7255.66
439.52	7133.95
439.70	7419.50
439.89	7459.29
440.08	7410.14
440.26	7400.77
440.45	7180.76
440.63	7419.50
440.82	7714.41
441.01	7363.33
441.19	7662.91
441.38	7831.43
441.57	7691.00
441.75	7747.17
441.94	7735.47
442.12	8037.40
442.31	8053.78
442.50	8037.40
442.68	8184.85
442.87	8004.63
443.05	8035.06
443.24	8074.85
443.43	8184.85
443.61	8236.35
443.80	8425.93
443.98	8147.40
444.17	7772.92
444.35	8234.00
444.54	8355.71
444.73	8243.37
444.91	8280.82
445.10	8201.24
445.28	8318.26
445.47	8276.13
445.65	8315.92
445.84	8388.48
446.02	8493.80
446.21	8444.65
446.39	8355.71
446.58	8418.91
446.77	8580.40
446.95	8311.24
447.14	8547.64
447.32	8725.52
447.51	8475.08
447.69	8423.59
447.88	8519.55
448.06	8542.96
448.25	8428.27
448.43	8606.15
448.62	8624.87
448.80	8512.53
448.99	8519.55
449.17	8685.73
449.36	8671.68
449.54	8896.38
449.73	9029.79
449.91	9109.36
450.10	8978.30
450.28	9179.58
450.46	9158.52
450.65	8968.93
450.83	9013.40
451.02	8975.95
451.20	9015.74
451.39	9102.34
451.57	9228.73
451.76	9104.68
451.94	9219.37
452.13	9439.38
452.31	9542.36
452.49	8954.89
452.68	9341.08
452.86	9448.74
453.05	9399.59
453.23	9507.26
453.42	9334.06
453.60	9493.21
453.78	9614.92
453.97	9430.02
454.15	9561.09
454.34	9563.43
454.52	9729.61
454.70	9584.49
454.89	10036.22
455.07	9633.64
455.26	9870.04
455.44	10076.01
455.62	9926.21
455.81	9977.70
455.99	9886.42
456.17	10160.27
456.36	9991.75
456.54	10359.21
456.73	10190.69
456.91	10604.97
457.09	10480.92
457.28	10644.76
457.46	10326.44
457.64	10691.57
457.83	10642.42
458.01	10377.94
458.19	10923.28
458.38	10501.98
458.56	10754.76
458.74	10724.33
458.93	10670.50
459.11	10904.56
459.29	10623.69
459.48	10913.92
459.66	10752.42
459.84	10934.98
460.03	10988.82
460.21	11103.50
460.39	11094.14
460.57	11164.36
460.76	11166.70
460.94	11229.89
461.12	11136.27
461.31	11286.06
461.49	11143.29
461.67	11269.68
461.85	11597.35
462.04	11290.74
462.22	11522.46
462.40	11747.15
462.59	11344.58
462.77	11501.39
462.95	11756.51
463.13	11616.08
463.32	11740.13
463.50	11681.61
463.68	11679.27
463.86	11749.49
464.05	11599.70
464.23	11918.01
464.41	11929.71
464.59	11644.17
464.78	12217.60
464.96	12093.55
465.14	11637.14
465.32	12170.79
465.50	12152.06
465.69	12032.69
465.87	12058.44
466.05	12013.97
466.23	12095.89
466.41	12285.47
466.60	12439.95
466.78	12159.08
466.96	12184.83
467.14	12437.61
467.32	12659.96
467.51	12592.08
467.69	12175.47
467.87	12599.10
468.05	12695.07
468.23	12360.37
468.41	12458.67
468.60	12666.98
468.78	12812.09
468.96	12556.97
469.14	12908.05
469.32	13046.15
469.50	12674.00
469.69	12982.95
469.87	12861.24
470.05	13202.96
470.23	13270.84
470.41	13219.35
470.59	13451.06
470.77	13378.50
470.95	13219.35
471.14	13514.25
471.32	13081.25
471.50	13664.05
471.68	13809.16
471.86	13603.19
472.04	13738.94
472.22	14279.61
472.40	13603.19
472.58	14164.92
472.77	14256.20
472.95	14083.00
473.13	14661.12
473.31	14127.47
473.49	14010.45
473.67	14319.40
473.85	14251.52
474.03	14864.74
474.21	14618.99
474.39	14787.50
474.57	15084.75
474.75	14958.36
474.93	15126.88
475.12	15056.67
475.30	14930.28
475.48	15133.90
475.66	14956.02
475.84	15403.07
476.02	15323.49
476.20	15449.88
476.38	15611.37
476.56	16035.01
476.74	16035.01
476.92	15882.88
477.10	15824.36
477.28	16311.19
477.46	16212.89
477.64	16278.43
477.82	16374.39
478.00	16844.84
478.18	16877.60
478.36	16989.95
478.54	17088.25
478.72	17371.46
478.90	17710.83
479.08	17886.37
479.26	17738.92
479.44	18001.06
479.62	17865.31
479.80	17998.72
479.98	18115.75
480.16	18965.36
480.34	18490.23
480.52	18841.31
480.70	18960.68
480.88	18672.79
481.06	18712.58
481.24	18724.29
481.41	19225.16
481.59	19232.18
481.77	19501.34
481.95	19475.60
482.13	20105.20
482.31	19932.00
482.49	20051.37
482.67	20322.87
482.85	20582.67
483.03	20673.95
483.21	20683.31
483.39	20992.26
483.57	20809.70
483.74	21591.44
483.92	21523.57
484.10	21039.08
484.28	21848.90
484.46	22422.33
484.64	22391.91
484.82	22183.60
485.00	22274.88
485.18	22677.45
485.35	22932.57
485.53	22649.36
485.71	23356.21
485.89	23559.83
486.07	23278.97
486.25	23700.26
486.43	23866.44
486.61	24170.71
486.78	23733.03
486.96	24182.42
487.14	24657.54
487.32	24521.79
487.50	25125.65
487.68	25324.60
487.85	25205.23
488.03	25586.74
488.21	25825.47
488.39	25972.92
488.57	26256.13
488.75	26235.06
488.92	26555.72
489.10	26689.13
489.28	27222.77
489.46	26965.31
489.64	27267.24
489.81	27725.99
489.99	27777.48
490.17	27955.36
490.35	28023.23
490.53	28297.08
490.70	28521.77
490.88	28421.13
491.06	28868.17
491.24	28797.95
491.41	29024.98
491.59	29205.20
491.77	29371.38
491.95	29848.85
492.13	29816.08
492.30	30188.23
492.48	30169.51
492.66	30312.28
492.84	30625.91
493.01	30724.21
493.19	30785.07
493.37	31417.01
493.54	31145.51
493.72	31524.68
493.90	31487.23
494.08	32238.54
494.25	31709.58
494.43	32107.47
494.61	32496.00
494.79	32835.38
494.96	32598.98
495.14	33081.13
495.32	33200.50
495.49	33345.61
495.67	33397.10
495.85	33710.74
496.02	34291.19
496.20	33954.15
496.38	34183.52
496.55	34412.90
496.73	35070.59
496.91	34532.26
497.09	34902.07
497.26	35606.57
497.44	35316.34
497.62	35515.29
497.79	36187.02
497.97	35433.37
498.14	36325.11
498.32	36081.70
498.50	36484.27
498.67	36659.81
498.85	36456.18
499.03	36898.55
499.20	36575.55
499.38	37076.43
499.56	37074.09
499.73	37205.16
499.91	37776.25
500.08	37701.35
500.26	37691.99
500.44	37738.80
500.61	38047.75
500.79	37977.53
500.97	38426.92
501.14	38731.18
501.32	38363.72
501.49	38820.13
501.67	39105.67
501.84	39044.82
502.02	38787.36
502.20	39311.64
502.37	39604.20
502.55	39566.76
502.72	39688.46
502.90	39894.43
503.07	39971.67
503.25	40161.25
503.43	39976.35
503.60	40357.86
503.78	40315.73
503.95	40591.91
504.13	40669.15
504.30	40825.96
504.48	40760.43
504.65	40957.03
504.83	41420.46
505.01	41497.70
505.18	41013.21
505.36	41811.33
505.53	41347.90
505.71	42260.71
505.88	41808.99
506.06	41635.79
506.23	42181.13
506.41	42244.33
506.58	42361.36
506.76	42319.23
506.93	42438.59
507.11	42698.39
507.28	42593.07
507.46	43196.93
507.63	42838.83
507.81	43669.72
507.98	42967.55
508.16	42827.12
508.33	43365.45
508.50	43484.81
508.68	43761.00
508.85	43976.33
509.03	43910.79
509.20	44406.98
509.38	44240.81
509.55	44751.04
509.73	44652.74
509.90	44781.47
510.08	44868.07
510.25	44694.87
510.42	45097.44
510.60	45331.50
510.77	45200.43
510.95	45443.84
511.12	45455.54
511.30	45443.84
511.47	45560.87
511.64	45745.77
511.82	46103.87
511.99	45523.42
512.17	45759.81
512.34	46263.03
512.51	46452.61
512.69	46635.17
512.86	46557.94
513.04	46834.12
513.21	46941.78
513.38	46976.89
513.56	46993.28
513.73	47096.26
513.90	47667.35
514.08	47269.46
514.25	47215.63
514.43	47810.12
514.60	47435.64
514.77	47756.29
514.95	47868.64
515.12	47760.97
515.29	47840.55
515.47	48182.27
515.64	48189.29
515.81	48177.59
515.99	48219.72
516.16	48486.54
516.33	48179.93
516.51	48765.06
516.68	48610.59
516.85	48446.75
517.03	49188.70
517.20	49029.54
517.37	49022.52
517.54	49453.18
517.72	48940.60
517.89	49270.62
518.06	49450.84
518.24	49455.52
518.41	49539.78
518.58	49476.58
518.75	49244.87
518.93	49916.61
519.10	49918.95
519.27	50145.98
519.45	50052.36
519.62	49827.66
519.79	50232.58
519.96	50164.70
520.14	50302.79
520.31	50197.47
520.48	50731.11
520.65	50672.60
520.83	51089.21
521.00	50684.30
521.17	50637.49
521.34	50838.78
521.52	50696.00
521.69	51016.66
521.86	51311.56
522.03	51075.17
522.20	51487.10
522.38	51634.56
522.55	51540.94
522.72	51379.44
522.89	51288.16
523.07	51791.37
523.24	51728.18
523.41	51697.75
523.58	51774.99
523.75	51906.06
523.92	52285.23
524.10	52109.69
524.27	52011.38
524.44	52348.42
524.61	52523.96
524.78	52528.64
524.96	52231.40
525.13	52102.67
525.30	52729.93
525.47	52416.30
525.64	52598.86
525.81	52865.68
525.98	52952.28
526.16	52692.48
526.33	53078.67
526.50	52940.58
526.67	53050.58
526.84	53022.50
527.01	52844.62
527.18	52802.49
527.36	53139.52
527.53	52963.98
527.70	53373.58
527.87	53471.88
528.04	53244.85
528.21	53427.41
528.38	53354.85
528.55	53366.55
528.72	53457.84
528.89	53614.65
529.07	53483.58
529.24	53759.76
529.41	53897.86
529.58	53673.16
529.75	53722.32
529.92	53755.08
530.09	54040.63
530.26	53954.03
530.43	54152.97
530.60	53820.62
530.77	54040.63
530.94	54078.08
531.11	54529.80
531.28	54262.98
531.46	54003.18
531.63	54333.20
531.80	54508.74
531.97	54387.03
532.14	54611.72
532.31	54775.56
532.48	54745.13
532.65	54824.71
532.82	54504.06
532.99	54761.51
533.16	54712.36
533.33	54824.71
533.50	55004.93
533.67	55054.08
533.84	54787.26
534.01	54972.16
534.18	54955.78
534.35	55671.98
534.52	55189.83
534.69	55208.56
534.86	55407.50
535.03	55103.23
535.20	55358.35
535.37	55395.80
535.54	55662.62
535.71	55152.38
535.88	55753.90
536.05	55629.85
536.22	55470.70
536.38	55646.24
536.55	55627.51
536.72	55728.16
536.89	55501.12
537.06	55695.39
537.23	55966.89
537.40	55910.72
537.57	55777.31
537.74	55847.52
537.91	56032.42
538.08	55971.57
538.25	55711.77
538.42	55917.74
538.59	56437.34
538.75	56147.11
538.92	56175.20
539.09	56292.22
539.26	56381.16
539.43	56156.47
539.60	56404.57
539.77	56261.80
539.94	56680.75
540.11	56420.95
540.28	56472.45
540.44	56566.07
540.61	56416.27
540.78	56596.49
540.95	56383.51
541.12	56437.34
541.29	56474.79
541.46	56516.92
541.62	56669.05
541.79	56788.42
541.96	56547.34
542.13	56739.27
542.30	56973.32
542.47	56956.94
542.63	57001.41
542.80	57057.58
542.97	57095.03
543.14	57251.84
543.31	57359.51
543.48	57144.18
543.64	57549.09
543.81	57645.05
543.98	57392.28
544.15	57448.45
544.32	57492.92
544.48	57790.17
544.65	57286.95
544.82	57640.37
544.99	57432.07
545.16	57506.96
545.32	57539.73
545.49	57886.13
545.66	57958.69
545.83	57607.61
546.00	57722.29
546.16	57748.04
546.33	57745.70
546.50	57485.90
546.67	57844.00
546.83	57549.09
547.00	57979.75
547.17	57888.47
547.34	57745.70
547.50	58361.26
547.67	58244.23
547.84	58155.29
548.00	58260.62
548.17	58337.85
548.34	58307.43
548.51	58464.24
548.67	58417.43
548.84	58337.85
549.01	58115.50
549.18	58188.06
549.34	58351.90
549.51	58387.00
549.68	58274.66
549.84	58365.94
550.01	58482.97
550.18	58291.04
550.34	58614.04
550.51	58653.82
550.68	58574.25
550.84	58260.62
551.01	58838.73
551.18	58553.18
551.34	58695.95
551.51	58805.96
551.68	58691.27
551.84	58590.63
552.01	58487.65
552.18	58679.57
552.34	58724.04
552.51	58831.71
552.68	58581.27
552.84	58677.23
553.01	59355.99
553.18	59021.29
553.34	59063.42
553.51	59058.74
553.67	58983.84
553.84	59260.02
554.01	58967.46
554.17	59269.39
554.34	59065.76
554.51	59042.35
554.67	59089.16
554.84	59063.42
555.00	59248.32
555.17	59049.38
555.33	59348.96
555.50	59112.57
555.67	59166.40
555.83	58852.77
556.00	59124.27
556.16	59561.95
556.33	59341.94
556.50	59501.10
556.66	59131.29
556.83	59547.91
556.99	59554.93
557.16	59475.35
557.32	59835.80
557.49	59957.50
557.65	59386.41
557.82	59564.29
557.98	59489.40
558.15	59554.93
558.32	59760.90
558.48	59496.42
558.65	59728.13
558.81	59578.34
558.98	59662.60
559.14	59760.90
559.31	59798.35
559.47	59887.29
559.64	59718.77
559.80	59849.84
559.97	59711.75
560.13	59681.32
560.30	59826.43
560.46	59669.62
560.63	59924.74
560.79	59859.20
560.96	59922.40
561.12	59938.78
561.29	59945.80
561.45	59898.99
561.61	59866.22
561.78	59810.05
561.94	59882.61
562.11	59973.89
562.27	59938.78
562.44	60023.04
562.60	60013.68
562.77	59969.21
562.93	59882.61
563.10	60292.20
563.26	59796.01
563.42	60383.48
563.59	60097.94
563.75	60374.12
563.92	60142.41
564.08	59992.61
564.24	60182.19
564.41	60212.62
564.57	60149.43
564.74	60163.47
564.90	60198.58
565.07	60161.13
565.23	60292.20
565.39	60254.75
565.56	60203.26
565.72	60317.95
565.88	60329.65
566.05	60205.60
566.21	60186.88
566.38	60341.35
566.54	60395.18
566.70	60458.38
566.87	60306.24
567.03	60273.48
567.19	60664.35
567.36	60336.67
567.52	60362.42
567.68	60523.91
567.85	60336.67
568.01	60544.98
568.17	60395.18
568.34	60556.68
568.50	60460.72
568.66	60226.66
568.83	60629.24
568.99	60411.57
569.15	60612.85
569.32	60369.44
569.48	60460.72
569.64	60736.90
569.81	60788.39
569.97	60458.38
570.13	60638.60
570.30	60350.71
570.46	60537.96
570.62	60587.11
570.78	60633.92
570.95	60764.99
571.11	60697.11
571.27	60573.06
571.43	60619.88
571.60	60729.88
571.76	60837.54
571.92	60926.49
572.09	60793.07
572.25	60697.11
572.41	60683.07
572.57	60732.22
572.74	60928.83
572.90	60839.89
573.06	60776.69
573.22	60659.66
573.38	60753.29
573.55	60828.18
573.71	61102.03
573.87	60884.36
574.03	60484.12
574.20	60694.77
574.36	60507.53
574.52	60928.83
574.68	60704.13
574.84	60706.47
575.01	60917.12
575.17	60954.57
575.33	60795.42
575.49	60711.16
575.65	60856.27
575.82	60975.64
575.98	60921.80
576.14	61015.43
576.30	60914.78
576.46	60865.63
576.62	60713.50
576.79	60786.05
576.95	60757.97
577.11	60994.36
577.27	61020.11
577.43	60823.50
577.59	60732.22
577.75	60650.30
577.92	60912.44
578.08	60963.93
578.24	60872.65
578.40	61146.50
578.56	61080.96
578.72	60727.54
578.88	61010.74
579.04	61141.81
579.21	60938.19
579.37	61205.01
579.53	61055.21
579.69	60760.31
579.85	60931.17
580.01	61006.06
580.17	60867.97
580.33	61137.13
580.49	61045.85
580.65	61036.49
580.82	60917.12
580.98	60865.63
581.14	60882.02
581.30	61125.43
581.46	60851.59
581.62	61052.87
581.78	60800.10
581.94	61116.07
582.10	61041.17
582.26	60982.66
582.42	60954.57
582.58	61104.37
582.74	61066.92
582.90	60903.08
583.06	61022.45
583.22	60905.42
583.38	61020.11
583.54	61205.01
583.70	61055.21
583.86	61017.77
584.02	60917.12
584.18	61230.75
584.34	61235.44
584.50	60999.04
584.66	60926.49
584.82	60975.64
584.98	61223.73
585.14	61235.44
585.30	60874.99
585.46	61020.11
585.62	61221.39
585.78	61137.13
585.94	60900.74
586.10	61127.77
586.26	61134.79
586.42	61221.39
586.58	61130.11
586.74	61095.00
586.90	61015.43
587.06	60973.30
587.22	61221.39
587.38	61146.50
587.54	61336.08
587.70	61307.99
587.86	61305.65
588.02	61212.03
588.18	61289.27
588.34	61322.04
588.49	61209.69
