SpectraSuite Data File
++++++++++++++++++++++++++++++++++++
Date: Fri Oct 25 10:48:25 EDT 2013
User: price-jones
Dark Spectrum Present: No
Reference Spectrum Present: No
Number of Sampled Component Spectra: 1
Spectrometers: USB2+H05261
Integration Time (usec): 100000 (USB2+H05261)
Spectra Averaged: 1 (USB2+H05261)
Boxcar Smoothing: 0 (USB2+H05261)
Correct for Electrical Dark: No (USB2+H05261)
Strobe/Lamp Enabled: No (USB2+H05261)
Correct for Detector Non-linearity: No (USB2+H05261)
Correct for Stray Light: No (USB2+H05261)
Number of Pixels in Processed Spectrum: 2048
>>>>>Begin Processed Spectral Data<<<<<
365.73	147.45
365.92	147.45
366.12	147.45
366.32	35.11
366.52	49.15
366.72	11.70
366.91	14.04
367.11	46.81
367.31	86.60
367.51	60.85
367.70	105.32
367.90	18.72
368.10	93.62
368.30	0.00
368.49	11.70
368.69	23.41
368.89	131.07
369.09	32.77
369.28	53.83
369.48	53.83
369.68	53.83
369.87	42.13
370.07	124.05
370.27	100.64
370.47	210.65
370.66	386.19
370.86	447.04
371.06	425.98
371.25	521.94
371.45	442.36
371.65	472.79
371.84	465.77
372.04	484.49
372.24	442.36
372.44	514.92
372.63	491.51
372.83	594.50
373.03	507.90
373.22	526.62
373.42	554.71
373.62	538.32
373.81	489.17
374.01	524.28
374.21	547.69
374.40	596.84
374.60	543.00
374.79	561.73
374.99	594.50
375.19	559.39
375.38	603.86
375.58	559.39
375.78	613.22
375.97	603.86
376.17	627.26
376.37	624.92
376.56	596.84
376.76	599.18
376.95	636.63
377.15	645.99
377.35	606.20
377.54	650.67
377.74	620.24
377.93	706.84
378.13	692.80
378.33	692.80
378.52	709.18
378.72	631.94
378.91	734.93
379.11	730.25
379.31	660.03
379.50	645.99
379.70	660.03
379.89	720.88
380.09	706.84
380.28	695.14
380.48	718.54
380.68	709.18
380.87	606.20
381.07	704.50
381.26	748.97
381.46	655.35
381.65	709.18
381.85	674.07
382.04	734.93
382.24	755.99
382.43	688.12
382.63	582.79
382.83	751.31
383.02	711.52
383.22	770.04
383.41	725.57
383.61	772.38
383.80	835.57
384.00	816.85
384.19	772.38
384.39	805.14
384.58	739.61
384.78	819.19
384.97	912.81
385.17	802.80
385.36	795.78
385.56	784.08
385.75	704.50
385.95	793.44
386.14	802.80
386.34	835.57
386.53	898.77
386.72	821.53
386.92	774.72
387.11	877.70
387.31	870.68
387.50	847.27
387.70	880.04
387.89	875.36
388.09	868.34
388.28	910.47
388.48	891.74
388.67	964.30
388.86	971.32
389.06	917.49
389.25	976.00
389.45	976.00
389.64	842.59
389.84	877.70
390.03	973.66
390.22	954.94
390.42	987.71
390.61	1027.50
390.81	966.64
391.00	952.60
391.19	1060.26
391.39	1046.22
391.58	978.34
391.78	1015.79
391.97	999.41
392.16	980.68
392.36	1029.84
392.55	1027.50
392.75	1086.01
392.94	971.32
393.13	1041.54
393.33	1046.22
393.52	1069.62
393.71	1137.50
393.91	1137.50
394.10	1104.73
394.29	1158.57
394.49	1104.73
394.68	1160.91
394.88	1231.12
395.07	1256.87
395.26	1174.95
395.46	1093.03
395.65	1181.97
395.84	1163.25
396.04	1186.65
396.23	1137.50
396.42	1135.16
396.62	1151.54
396.81	1135.16
397.00	1231.12
397.19	1240.48
397.39	1369.21
397.58	1338.79
397.77	1320.06
397.97	1397.30
398.16	1416.02
398.35	1338.79
398.55	1390.28
398.74	1418.36
398.93	1427.73
399.12	1465.18
399.32	1488.58
399.51	1423.05
399.70	1561.14
399.90	1497.94
400.09	1549.43
400.28	1554.12
400.47	1605.61
400.67	1558.80
400.86	1668.80
401.05	1603.27
401.24	1636.03
401.44	1561.14
401.63	1629.01
401.82	1549.43
402.01	1624.33
402.21	1638.38
402.40	1666.46
402.59	1643.06
402.78	1652.42
402.97	1626.67
403.17	1748.38
403.36	1694.55
403.55	1741.36
403.74	1750.72
403.93	1760.08
404.13	1757.74
404.32	1795.19
404.51	1682.85
404.70	1781.15
404.89	1809.23
405.09	1898.17
405.28	1952.01
405.47	1909.88
405.66	1923.92
405.85	1837.32
406.05	1860.73
406.24	1898.17
406.43	1935.62
406.62	2031.58
406.81	2101.80
407.00	2005.84
407.20	1834.98
407.39	2050.31
407.58	2118.18
407.77	2197.76
407.96	2106.48
408.15	2188.40
408.34	2183.72
408.54	2216.49
408.73	2279.68
408.92	2186.06
409.11	2225.85
409.30	2193.08
409.49	2127.55
409.68	2118.18
409.87	2204.78
410.07	2256.28
410.26	2251.60
410.45	2253.94
410.64	2377.98
410.83	2310.11
411.02	2406.07
411.21	2480.97
411.40	2443.52
411.59	2466.92
411.78	2490.33
411.98	2569.91
412.17	2523.10
412.36	2462.24
412.55	2663.53
412.74	2530.12
412.93	2640.12
413.12	2679.91
413.31	2722.04
413.50	2637.78
413.69	2691.62
413.88	2761.83
414.07	2867.16
414.26	2874.18
414.45	2935.03
414.64	2902.26
414.83	2841.41
415.02	2979.50
415.22	2909.29
415.41	2942.05
415.60	3075.46
415.79	3070.78
415.98	3073.12
416.17	2958.44
416.36	3005.25
416.55	3126.96
416.74	3056.74
416.93	3124.62
417.12	3038.02
417.31	3351.65
417.50	3096.53
417.69	3293.13
417.88	3412.50
418.07	3267.39
418.26	3403.14
418.45	3183.13
418.64	3449.95
418.83	3300.16
419.02	3424.20
419.21	3571.66
419.39	3356.33
419.58	3403.14
419.77	3414.84
419.96	3459.31
420.15	3520.17
420.34	3585.70
420.53	3499.10
420.72	3627.83
420.91	3578.68
421.10	3698.05
421.29	3801.03
421.48	3630.17
421.67	3850.18
421.86	3665.28
422.05	3684.00
422.24	3618.47
422.43	3686.34
422.61	3698.05
422.80	3702.73
422.99	3866.56
423.18	3735.50
423.37	3878.27
423.56	3810.39
423.75	3613.79
423.94	3693.37
424.13	3574.00
424.32	3723.79
424.50	3819.75
424.69	3801.03
424.88	3894.65
425.07	3632.51
425.26	3836.14
425.45	3817.41
425.64	3723.79
425.83	3833.80
426.01	3847.84
426.20	3836.14
426.39	3918.06
426.58	3843.16
426.77	3794.01
426.96	3861.88
427.15	3864.22
427.33	3901.67
427.52	3978.91
427.71	4093.60
427.90	3932.10
428.09	4098.28
428.28	4117.00
428.46	3960.19
428.65	4114.66
428.84	4201.26
429.03	4065.51
429.22	3953.16
429.40	3967.21
429.59	4058.49
429.78	4014.02
429.97	3789.33
430.16	3995.29
430.34	3988.27
430.53	4077.21
430.72	4142.75
430.91	4250.41
431.10	4147.43
431.28	4322.97
431.47	4475.10
431.66	4414.25
431.85	4262.12
432.03	4496.17
432.22	4510.21
432.41	4449.36
432.60	4468.08
432.79	4496.17
432.97	4484.47
433.16	4631.92
433.35	4557.02
433.54	4465.74
433.72	4575.75
433.91	4425.95
434.10	4676.39
434.28	4660.01
434.47	4720.86
434.66	4498.51
434.85	4751.29
435.03	4748.95
435.22	4688.09
435.41	4786.40
435.59	4849.59
435.78	4830.87
435.97	4964.28
436.16	4924.49
436.34	4919.81
436.53	4940.87
436.72	4964.28
436.90	4908.10
437.09	4915.12
437.28	4847.25
437.46	5064.92
437.65	4978.32
437.84	4947.89
438.02	4973.64
438.21	5104.71
438.40	5039.17
438.58	4961.94
438.77	5235.78
438.96	5090.67
439.14	5359.83
439.33	5385.57
439.52	5535.37
439.70	5490.90
439.89	5593.88
440.08	5547.07
440.26	5437.06
440.45	5408.98
440.63	5565.79
440.82	5757.72
441.01	5673.46
441.19	5841.98
441.38	5884.11
441.57	5837.30
441.75	5923.90
441.94	6076.03
442.12	6010.50
442.31	6097.10
442.50	6146.25
442.68	5949.64
442.87	6132.20
443.05	6106.46
443.24	6242.21
443.43	6291.36
443.61	6120.50
443.80	6457.54
443.98	6106.46
444.17	5984.75
444.35	6289.02
444.54	6251.57
444.73	6176.67
444.91	6148.59
445.10	6319.45
445.28	6174.33
445.47	6164.97
445.65	6188.38
445.84	6221.14
446.02	6356.90
446.21	6326.47
446.39	6256.25
446.58	6317.11
446.77	6485.62
446.95	6286.68
447.14	6246.89
447.32	6478.60
447.51	6349.87
447.69	6392.00
447.88	6473.92
448.06	6392.00
448.25	6544.14
448.43	6527.75
448.62	6530.09
448.80	6490.31
448.99	6555.84
449.17	6572.22
449.36	6572.22
449.54	6628.40
449.73	6810.96
449.91	6853.09
450.10	6679.89
450.28	6878.83
450.46	6930.33
450.65	6885.86
450.83	7131.61
451.02	6717.34
451.20	6967.77
451.39	6991.18
451.57	6904.58
451.76	6993.52
451.94	7000.54
452.13	6869.47
452.31	6890.54
452.49	6825.00
452.68	7131.61
452.86	6935.01
453.05	7103.53
453.23	7028.63
453.42	7321.20
453.60	7145.66
453.78	7187.79
453.97	7124.59
454.15	7215.87
454.34	7148.00
454.52	7445.24
454.70	7260.34
454.89	7152.68
455.07	7253.32
455.26	7323.54
455.44	7431.20
455.62	7506.10
455.81	7442.90
455.99	7473.33
456.17	7562.27
456.36	7566.95
456.54	7669.94
456.73	7709.72
456.91	7934.42
457.09	7857.18
457.28	7829.09
457.46	7831.43
457.64	7889.95
457.83	7735.47
458.01	7744.83
458.19	7948.46
458.38	7899.31
458.56	7992.93
458.74	7906.33
458.93	7896.97
459.11	8252.73
459.29	8056.12
459.48	8006.97
459.66	7964.84
459.84	8109.96
460.03	8285.50
460.21	8208.26
460.39	8107.62
460.57	8212.94
460.76	8341.67
460.94	8327.63
461.12	8409.54
461.31	8351.03
461.49	8369.76
461.67	8308.90
461.85	8519.55
462.04	8381.46
462.22	9006.38
462.40	8744.24
462.59	8542.96
462.77	8638.92
462.95	8737.22
463.13	8734.88
463.32	8641.26
463.50	8739.56
463.68	8821.48
463.86	8784.03
464.05	8528.91
464.23	8676.37
464.41	8706.79
464.59	8587.43
464.78	8980.64
464.96	8961.91
465.14	8702.11
465.32	8826.16
465.50	9039.15
465.69	9020.42
465.87	8903.40
466.05	8720.84
466.23	8938.51
466.41	8856.59
466.60	9144.47
466.78	8814.46
466.96	8767.65
467.14	8959.57
467.32	8971.27
467.51	9102.34
467.69	8744.24
467.87	9027.45
468.05	9170.22
468.23	9114.05
468.41	9198.31
468.60	9022.77
468.78	9298.95
468.96	9202.99
469.14	9415.98
469.32	9420.66
469.50	9430.02
469.69	9383.21
469.87	9635.99
470.05	9600.88
470.23	9427.68
470.41	9603.22
470.59	9748.33
470.77	9423.00
470.95	9643.01
471.14	9926.21
471.32	9610.24
471.50	10085.37
471.68	9877.06
471.86	10108.77
472.04	10101.75
472.22	10310.06
472.40	9898.13
472.58	9970.68
472.77	10167.29
472.95	10190.69
473.13	10504.32
473.31	10186.01
473.49	10300.70
473.67	10134.52
473.85	10352.19
474.03	10628.37
474.21	10710.29
474.39	10775.83
474.57	10771.15
474.75	10832.00
474.93	10635.39
475.12	10782.85
475.30	11082.44
475.48	10860.09
475.66	10815.62
475.84	10925.62
476.02	10951.37
476.20	10946.69
476.38	11082.44
476.56	11548.20
476.74	11454.58
476.92	11485.01
477.10	11253.30
477.28	11559.91
477.46	11786.94
477.64	11740.13
477.82	11910.99
478.00	12100.57
478.18	12156.74
478.36	12205.89
478.54	12320.58
478.72	12329.94
478.90	12404.84
479.08	12702.09
479.26	12681.02
479.44	12858.90
479.62	12819.11
479.80	13032.10
479.98	13099.98
480.16	13163.17
480.34	13305.95
480.52	13341.05
480.70	13497.87
480.88	13352.76
481.06	13476.80
481.24	13476.80
481.41	13757.67
481.59	13853.63
481.77	14193.01
481.95	13795.12
482.13	13877.04
482.31	14085.34
482.49	14483.24
482.67	14434.08
482.85	14422.38
483.03	14672.82
483.21	14829.63
483.39	15026.24
483.57	14977.09
483.74	14991.13
483.92	15002.83
484.10	15152.63
484.28	15466.26
484.46	15541.16
484.64	15899.26
484.82	15534.14
485.00	15712.02
485.18	16058.42
485.35	16149.70
485.53	15754.15
485.71	15815.00
485.89	16130.97
486.07	16126.29
486.25	16388.43
486.43	16418.86
486.61	16655.25
486.78	17102.29
486.96	16943.14
487.14	17202.94
487.32	17097.61
487.50	17689.77
487.68	17558.70
487.85	17701.47
488.03	17891.06
488.21	18204.69
488.39	17926.16
488.57	18230.43
488.75	18515.98
488.92	18710.24
489.10	18518.32
489.28	18841.31
489.46	19194.73
489.64	19262.61
489.81	19503.68
489.99	19690.93
490.17	19428.79
490.35	19913.28
490.53	19894.55
490.70	19812.63
490.88	19917.96
491.06	20170.74
491.24	20016.26
491.41	20634.16
491.59	20217.55
491.77	20161.37
491.95	20547.56
492.13	20968.86
492.30	21209.93
492.48	21142.06
492.66	21137.38
492.84	21308.24
493.01	21326.96
493.19	21458.03
493.37	21570.38
493.54	21668.68
493.72	21919.12
493.90	22024.44
494.08	22223.39
494.25	22724.26
494.43	22328.71
494.61	22534.68
494.79	22630.64
494.96	22850.65
495.14	22944.27
495.32	23021.51
495.49	23080.02
495.67	23199.39
495.85	23463.87
496.02	23702.61
496.20	23534.09
496.38	24037.30
496.55	23772.82
496.73	24491.37
496.91	23924.96
497.09	24617.75
497.26	24643.50
497.44	24273.70
497.62	24802.66
497.79	24889.26
497.97	24503.07
498.14	24844.79
498.32	24858.83
498.50	25071.82
498.67	25708.44
498.85	25198.21
499.03	25928.45
499.20	25663.97
499.38	25813.77
499.56	25731.85
499.73	25895.69
499.91	25930.80
500.08	25916.75
500.26	25809.09
500.44	26120.38
500.61	26096.97
500.79	26012.71
500.97	26469.12
501.14	26806.16
501.32	26590.83
501.49	26590.83
501.67	26536.99
501.84	26871.69
502.02	26890.41
502.20	27070.64
502.37	27346.82
502.55	27159.58
502.72	27370.22
502.90	27154.90
503.07	27328.10
503.25	27384.27
503.43	27510.66
503.60	27566.83
503.78	27784.50
503.95	27615.98
504.13	27971.74
504.30	28077.07
504.48	28287.71
504.65	28395.38
504.83	28580.28
505.01	28367.29
505.18	28694.97
505.36	29247.33
505.53	28863.49
505.71	28978.17
505.88	28924.34
506.06	28816.68
506.23	29039.03
506.41	28744.12
506.58	29181.80
506.76	29078.82
506.93	29160.73
507.11	29497.77
507.28	29240.31
507.46	29397.13
507.63	29851.19
507.81	29848.85
507.98	29528.20
508.16	29804.38
508.33	29841.83
508.50	29907.37
508.68	29902.68
508.85	30143.76
509.03	30464.41
509.20	30426.96
509.38	30801.45
509.55	30551.01
509.73	30305.26
509.90	31040.18
510.08	30639.95
510.25	30787.41
510.42	31269.56
510.60	31063.59
510.77	31115.08
510.95	31693.19
511.12	31510.63
511.30	31756.39
511.47	31421.69
511.64	31428.71
511.82	32196.41
511.99	31562.12
512.17	31768.09
512.34	31852.35
512.51	32023.21
512.69	32025.55
512.86	32175.34
513.04	32477.27
513.21	32219.81
513.38	32336.84
513.56	32334.50
513.73	32070.02
513.90	32594.30
514.08	32634.09
514.25	32835.38
514.43	32613.02
514.60	32945.38
514.77	32601.32
514.95	33177.09
515.12	32835.38
515.29	32968.79
515.47	33294.12
515.64	33450.94
515.81	32718.35
515.99	33369.02
516.16	33209.86
516.33	32978.15
516.51	33268.37
516.68	32795.59
516.85	33216.88
517.03	33310.50
517.20	33453.28
517.37	33251.99
517.54	34003.30
517.72	33855.85
517.89	33687.33
518.06	33427.53
518.24	33897.98
518.41	34054.79
518.58	34244.38
518.75	34120.33
518.93	34167.14
519.10	34225.65
519.27	34504.18
519.45	34328.64
519.62	34759.30
519.79	34625.89
519.96	35314.00
520.14	34754.61
520.31	34979.31
520.48	34876.32
520.65	34848.24
520.83	35250.81
521.00	35608.91
521.17	35072.93
521.34	35201.66
521.52	35321.02
521.69	35541.03
521.86	35831.26
522.03	35700.19
522.20	35894.46
522.38	35683.81
522.55	35758.70
522.72	35889.77
522.89	35644.02
523.07	35885.09
523.24	36051.27
523.41	36222.13
523.58	35751.68
523.75	36596.62
523.92	36629.38
524.10	36706.62
524.27	36514.70
524.44	36760.45
524.61	36746.41
524.78	36797.90
524.96	37125.58
525.13	36800.24
525.30	37256.65
525.47	37118.56
525.64	37043.66
525.81	37230.90
525.98	37160.69
526.16	36533.42
526.33	36842.37
526.50	37006.21
526.67	37230.90
526.84	37195.79
527.01	37144.30
527.18	37773.91
527.36	37558.58
527.53	37645.18
527.70	38195.20
527.87	38260.74
528.04	37607.73
528.21	38071.15
528.38	37916.68
528.55	37993.92
528.72	37895.61
528.89	38511.17
529.07	38054.77
529.24	38113.28
529.41	38466.70
529.58	38160.09
529.75	38436.28
529.92	38742.89
530.09	38263.08
530.26	38696.08
530.43	38873.96
530.60	38352.02
530.77	38679.69
530.94	38927.79
531.11	38520.54
531.28	38682.03
531.46	39295.25
531.63	38841.19
531.80	38946.51
531.97	39187.59
532.14	38885.66
532.31	39124.40
532.48	38904.38
532.65	39145.46
532.82	38951.20
532.99	39225.04
533.16	38763.95
533.33	39133.76
533.50	39470.79
533.67	39880.39
533.84	39339.72
534.01	39611.23
534.18	39679.10
534.35	39966.99
534.52	39826.56
534.69	39608.89
534.86	39915.50
535.03	39969.33
535.20	39941.24
535.37	40847.03
535.54	40779.15
535.71	40275.94
535.88	40151.89
536.05	40158.91
536.22	40397.65
536.38	40226.79
536.55	40418.71
536.72	39873.37
536.89	40399.99
537.06	40182.32
537.23	40739.36
537.40	40495.95
537.57	40694.89
537.74	40540.42
537.91	40835.33
538.08	40961.72
538.25	40605.95
538.42	40891.50
538.59	40947.67
538.75	40552.12
538.92	40643.40
539.09	40442.12
539.26	40648.08
539.43	40531.06
539.60	41200.45
539.77	40870.43
539.94	40884.48
540.11	40992.14
540.28	40954.69
540.44	41223.86
540.61	41092.79
540.78	40594.25
540.95	41221.52
541.12	41237.90
541.29	41233.22
541.46	41507.06
541.62	41514.08
541.79	41680.26
541.96	41450.89
542.13	41284.71
542.30	41195.77
542.47	41640.47
542.63	41427.48
542.80	41624.09
542.97	42403.49
543.14	42466.68
543.31	42466.68
543.48	42127.30
543.64	42672.65
543.81	42567.32
543.98	42553.28
544.15	42422.21
544.32	42553.28
544.48	42677.33
544.65	42394.12
544.82	42464.34
544.99	42066.45
545.16	42733.50
545.32	42204.54
545.49	42880.95
545.66	43147.78
545.83	42955.85
546.00	43178.20
546.16	42700.73
546.33	43283.53
546.50	42162.41
546.67	42735.84
546.83	42284.12
547.00	43232.04
547.17	42686.69
547.34	42951.17
547.50	43016.71
547.67	43508.22
547.84	42801.38
548.00	43119.69
548.17	43578.43
548.34	42873.93
548.51	43405.23
548.67	43260.12
548.84	43508.22
549.01	43140.75
549.18	43159.48
549.34	43206.29
549.51	43522.26
549.68	43318.64
549.84	43414.60
550.01	43814.83
550.18	43407.58
550.34	43753.97
550.51	43440.34
550.68	43496.52
550.84	43358.42
551.01	44051.22
551.18	43618.22
551.34	43871.00
551.51	43845.26
551.68	44020.80
551.84	43845.26
552.01	43662.69
552.18	43634.61
552.34	43772.70
552.51	44229.10
552.68	43955.26
552.84	43861.64
553.01	44516.99
553.18	44191.65
553.34	43971.64
553.51	43934.20
553.67	43908.45
553.84	44481.88
554.01	44175.27
554.17	44098.03
554.34	43887.39
554.51	44329.75
554.67	44460.82
554.84	44261.87
555.00	44383.58
555.17	44364.85
555.33	44729.98
555.50	44626.99
555.67	44980.42
555.83	44828.28
556.00	44542.74
556.16	45141.91
556.33	44318.04
556.50	44107.40
556.66	44582.52
556.83	44266.55
556.99	45043.61
557.16	44671.46
557.32	44472.52
557.49	44954.67
557.65	44573.16
557.82	44430.39
557.98	44767.43
558.15	44732.32
558.32	44814.24
558.48	44903.18
558.65	44722.96
558.81	44458.48
558.98	44666.78
559.14	44999.14
559.31	44690.19
559.47	45181.70
559.64	45111.49
559.80	45422.78
559.97	45305.75
560.13	44760.40
560.30	44891.48
560.46	45071.70
560.63	44832.96
560.79	45528.10
560.96	45174.68
561.12	44809.56
561.29	45006.16
561.45	45368.94
561.61	45200.43
561.78	45429.80
561.94	45338.52
562.11	45352.56
562.27	45151.27
562.44	45226.17
562.60	45453.20
562.77	45902.59
562.93	45422.78
563.10	45453.20
563.26	45184.04
563.42	45317.45
563.59	45198.09
563.75	45305.75
563.92	45483.63
564.08	44992.12
564.24	45713.00
564.41	45565.55
564.57	45984.51
564.74	45347.88
564.90	45844.07
565.07	45544.48
565.23	45326.81
565.39	45329.16
565.56	45478.95
565.72	45518.74
565.88	45647.47
566.05	45595.98
566.21	45504.70
566.38	45727.05
566.54	45322.13
566.70	45773.86
566.87	46040.68
567.03	45766.84
567.19	46061.74
567.36	45610.02
567.52	45160.64
567.68	45752.79
567.85	45539.80
568.01	45633.42
568.17	45588.95
568.34	45612.36
568.50	45996.21
568.66	45605.34
568.83	45696.62
568.99	45481.29
569.15	45605.34
569.32	45584.27
569.48	45518.74
569.64	45769.18
569.81	45633.42
569.97	45827.69
570.13	45598.32
570.30	45191.06
570.46	45481.29
570.62	45153.62
570.78	45567.89
570.95	45607.68
571.11	45598.32
571.27	45324.47
571.43	45490.65
571.60	45780.88
571.76	45832.37
571.92	45918.97
572.09	45823.01
572.25	45933.01
572.41	45811.31
572.57	45773.86
572.74	46499.42
572.90	46146.00
573.06	46136.64
573.22	45907.27
573.38	46014.93
573.55	45581.93
573.71	46375.37
573.87	46007.91
574.03	46040.68
574.20	45888.54
574.36	46277.07
574.52	46349.63
574.68	45979.82
574.84	46241.96
575.01	45755.13
575.17	46157.70
575.33	45436.82
575.49	45120.85
575.65	46321.54
575.82	46043.02
575.98	45727.05
576.14	46274.73
576.30	45879.18
576.46	45645.13
576.62	45830.03
576.79	46197.49
576.95	45179.36
577.11	45862.80
577.27	46005.57
577.43	46080.47
577.59	45413.41
577.75	46129.62
577.92	45724.71
578.08	45500.01
578.24	45553.85
578.40	45937.69
578.56	46031.32
578.72	46064.08
578.88	46211.54
579.04	46110.89
579.21	45764.49
579.37	45935.35
579.53	46178.77
579.69	45621.72
579.85	46127.28
580.01	46394.10
580.17	45944.72
580.33	46277.07
580.49	45925.99
580.65	46117.92
580.82	46050.04
580.98	46096.85
581.14	45904.93
581.30	46419.84
581.46	46218.56
581.62	46515.81
581.78	46071.10
581.94	46705.39
582.10	45687.26
582.26	46298.14
582.42	45918.97
582.58	46270.05
582.74	45958.76
582.90	46054.72
583.06	46108.55
583.22	45937.69
583.38	46581.34
583.54	46204.52
583.70	46370.69
583.86	45904.93
584.02	45481.29
584.18	46117.92
584.34	46143.66
584.50	46340.27
584.66	45923.65
584.82	45956.42
584.98	46281.75
585.14	46230.26
585.30	46199.83
585.46	46103.87
585.62	45673.21
585.78	46073.45
585.94	45801.94
586.10	45886.20
586.26	45993.87
586.42	46429.21
586.58	46546.23
586.74	46569.64
586.90	45649.81
587.06	45698.96
587.22	46241.96
587.38	46024.29
587.54	46010.25
587.70	46447.93
587.86	46361.33
588.02	45965.78
588.18	46225.58
588.34	46272.39
588.49	46033.66
588.65	45734.07
588.81	46040.68
588.97	45581.93
589.13	45436.82
589.29	45736.41
589.45	46157.70
589.61	45979.82
589.77	46174.09
589.93	46396.44
590.08	46520.49
