SpectraSuite Data File
++++++++++++++++++++++++++++++++++++
Date: Fri Oct 25 11:26:29 EDT 2013
User: price-jones
Dark Spectrum Present: No
Reference Spectrum Present: No
Number of Sampled Component Spectra: 1
Spectrometers: USB2+H05261
Integration Time (usec): 100000 (USB2+H05261)
Spectra Averaged: 1 (USB2+H05261)
Boxcar Smoothing: 0 (USB2+H05261)
Correct for Electrical Dark: No (USB2+H05261)
Strobe/Lamp Enabled: No (USB2+H05261)
Correct for Detector Non-linearity: No (USB2+H05261)
Correct for Stray Light: No (USB2+H05261)
Number of Pixels in Processed Spectrum: 2048
>>>>>Begin Processed Spectral Data<<<<<
365.73	227.03
365.92	227.03
366.12	227.03
366.32	154.48
366.52	149.79
366.72	105.32
366.91	117.03
367.11	161.50
367.31	217.67
367.51	180.22
367.70	133.41
367.90	135.75
368.10	81.92
368.30	81.92
368.49	182.56
368.69	191.92
368.89	147.45
369.09	135.75
369.28	208.31
369.48	215.33
369.68	201.29
369.87	227.03
370.07	175.54
370.27	250.44
370.47	337.04
370.66	568.75
370.86	547.69
371.06	671.73
371.25	695.14
371.45	725.57
371.65	755.99
371.84	629.60
372.04	690.46
372.24	767.70
372.44	746.63
372.63	744.29
372.83	809.83
373.03	795.78
373.22	812.17
373.42	791.10
373.62	826.21
373.81	753.65
374.01	851.96
374.21	800.46
374.40	800.46
374.60	861.32
374.79	807.48
374.99	870.68
375.19	788.76
375.38	863.66
375.58	896.43
375.78	898.77
375.97	830.89
376.17	978.34
376.37	847.27
376.56	858.98
376.76	882.38
376.95	854.30
377.15	966.64
377.35	924.51
377.54	889.40
377.74	957.28
377.93	884.72
378.13	931.53
378.33	1001.75
378.52	950.26
378.72	940.90
378.91	936.21
379.11	922.17
379.31	947.92
379.50	952.60
379.70	1050.90
379.89	936.21
380.09	903.45
380.28	990.05
380.48	940.90
380.68	997.07
380.87	940.90
381.07	1046.22
381.26	1076.65
381.46	1067.28
381.65	1034.52
381.85	973.66
382.04	1043.88
382.24	938.55
382.43	1039.20
382.63	1036.86
382.83	1020.47
383.02	1146.86
383.22	1083.67
383.41	1116.44
383.61	1088.35
383.80	1153.88
384.00	1095.37
384.19	1090.69
384.39	1123.46
384.58	1062.60
384.78	1046.22
384.97	1146.86
385.17	1200.69
385.36	1083.67
385.56	1093.03
385.75	1184.31
385.95	1165.59
386.14	1128.14
386.34	1177.29
386.53	1256.87
386.72	1132.82
386.92	1200.69
387.11	1263.89
387.31	1259.21
387.50	1203.04
387.70	1315.38
387.89	1352.83
388.09	1284.95
388.28	1261.55
388.48	1287.29
388.67	1270.91
388.86	1336.45
389.06	1362.19
389.25	1336.45
389.45	1322.40
389.64	1343.47
389.84	1476.88
390.03	1411.34
390.22	1357.51
390.42	1378.58
390.61	1430.07
390.81	1331.76
391.00	1404.32
391.19	1453.47
391.39	1441.77
391.58	1519.01
391.78	1448.79
391.97	1453.47
392.16	1519.01
392.36	1617.31
392.55	1481.56
392.75	1423.05
392.94	1535.39
393.13	1462.83
393.33	1533.05
393.52	1565.82
393.71	1544.75
393.91	1631.35
394.10	1568.16
394.29	1607.95
394.49	1556.46
394.68	1554.12
394.88	1614.97
395.07	1652.42
395.26	1610.29
395.46	1668.80
395.65	1668.80
395.84	1647.74
396.04	1804.55
396.23	1664.12
396.42	1769.44
396.62	1722.63
396.81	1685.19
397.00	1713.27
397.19	1809.23
397.39	1741.36
397.58	1764.76
397.77	1785.83
397.97	1832.64
398.16	1879.45
398.35	1856.04
398.55	1886.47
398.74	1989.46
398.93	1940.30
399.12	1919.24
399.32	1839.66
399.51	1891.15
399.70	2043.29
399.90	2064.35
400.09	2071.37
400.28	2078.40
400.47	1888.81
400.67	2106.48
400.86	2087.76
401.05	2090.10
401.24	2113.50
401.44	2104.14
401.63	2099.46
401.82	2143.93
402.01	2165.00
402.21	2115.84
402.40	2143.93
402.59	2120.53
402.78	2211.81
402.97	2214.15
403.17	2244.57
403.36	2223.51
403.55	2253.94
403.74	2363.94
403.93	2310.11
404.13	2452.88
404.32	2291.38
404.51	2389.69
404.70	2441.18
404.89	2473.95
405.09	2438.84
405.28	2499.69
405.47	2469.27
405.66	2438.84
405.85	2499.69
406.05	2471.61
406.24	2576.93
406.43	2553.52
406.62	2516.08
406.81	2612.04
407.00	2590.97
407.20	2572.25
407.39	2663.53
407.58	2691.62
407.77	2700.98
407.96	2609.70
408.15	2691.62
408.34	2644.81
408.54	2633.10
408.73	2712.68
408.92	2782.90
409.11	2874.18
409.30	2885.88
409.49	2789.92
409.68	2979.50
409.87	2818.00
410.07	2853.11
410.26	2988.86
410.45	3005.25
410.64	3089.51
410.83	2979.50
411.02	3183.13
411.21	3183.13
411.40	3082.49
411.59	3267.39
411.78	3194.83
411.98	3133.98
412.17	3267.39
412.36	3335.26
412.55	3365.69
412.74	3361.01
412.93	3393.78
413.12	3442.93
413.31	3545.91
413.50	3358.67
413.69	3428.88
413.88	3578.68
414.07	3590.38
414.26	3653.58
414.45	3691.02
414.64	3569.32
414.83	3735.50
415.02	3665.28
415.22	3777.62
415.41	3765.92
415.60	3737.84
415.79	3721.45
415.98	3911.04
416.17	3873.59
416.36	3906.35
416.55	4002.32
416.74	4063.17
416.93	4030.40
417.12	3978.91
417.31	4196.58
417.50	4194.24
417.69	4241.05
417.88	4175.52
418.07	4238.71
418.26	4269.14
418.45	4344.03
418.64	4435.32
418.83	4470.42
419.02	4390.84
419.21	4379.14
419.39	4533.62
419.58	4444.68
419.77	4519.57
419.96	4372.12
420.15	4645.96
420.34	4456.38
420.53	4650.64
420.72	4636.60
420.91	4772.35
421.10	4812.14
421.29	4746.61
421.48	4807.46
421.67	4746.61
421.86	4844.91
422.05	4807.46
422.24	4849.59
422.43	4685.75
422.61	4800.44
422.80	4938.53
422.99	4891.72
423.18	4908.10
423.37	5095.35
423.56	4880.02
423.75	4894.06
423.94	4795.76
424.13	4557.02
424.32	4746.61
424.50	5032.15
424.69	5093.01
424.88	5142.16
425.07	4971.30
425.26	4770.01
425.45	4898.74
425.64	4760.65
425.83	4964.28
426.01	5081.30
426.20	5027.47
426.39	4973.64
426.58	4896.40
426.77	5022.79
426.96	5181.95
427.15	5020.45
427.33	5125.77
427.52	5177.26
427.71	5226.42
427.90	5252.16
428.09	5242.80
428.28	5252.16
428.46	5390.25
428.65	5238.12
428.84	5327.06
429.03	5582.18
429.22	5327.06
429.40	5467.49
429.59	5383.23
429.78	5247.48
429.97	5081.30
430.16	5542.39
430.34	5572.82
430.53	5624.31
430.72	5586.86
430.91	5453.45
431.10	5537.71
431.28	5605.58
431.47	5795.17
431.66	5804.53
431.85	5659.42
432.03	5966.03
432.22	5877.09
432.41	5795.17
432.60	5790.49
432.79	5905.17
432.97	6022.20
433.16	6066.67
433.35	6092.41
433.54	5954.32
433.72	5996.45
433.91	6113.48
434.10	6195.40
434.28	6104.12
434.47	6195.40
434.66	6246.89
434.85	6230.51
435.03	6392.00
435.22	6291.36
435.41	6532.44
435.59	6417.75
435.78	6417.75
435.97	6429.45
436.16	6305.40
436.34	6387.32
436.53	6464.56
436.72	6544.14
436.90	6312.42
437.09	6530.09
437.28	6471.58
437.46	6399.02
437.65	6565.20
437.84	6614.35
438.02	6848.41
438.21	6555.84
438.40	6619.04
438.58	6963.09
438.77	7103.53
438.96	6724.36
439.14	7148.00
439.33	7145.66
439.52	7227.57
439.70	7232.26
439.89	7225.23
440.08	7143.32
440.26	7295.45
440.45	7297.79
440.63	7435.88
440.82	7545.89
441.01	7456.95
441.19	7602.06
441.38	7758.88
441.57	7564.61
441.75	7681.64
441.94	7936.76
442.12	7880.58
442.31	7906.33
442.50	8011.65
442.68	8187.19
442.87	8112.30
443.05	7960.16
443.24	8156.77
443.43	8145.06
443.61	8180.17
443.80	8269.11
443.98	8086.55
444.17	7871.22
444.35	8138.04
444.54	8198.90
444.73	8397.84
444.91	8404.86
445.10	8407.20
445.28	8234.00
445.47	8201.24
445.65	8358.05
445.84	8344.01
446.02	8313.58
446.21	8287.84
446.39	8332.31
446.58	8456.36
446.77	8711.47
446.95	8163.79
447.14	8355.71
447.32	8545.30
447.51	8180.17
447.69	8308.90
447.88	8592.11
448.06	8557.00
448.25	8444.65
448.43	8521.89
448.62	8582.74
448.80	8475.08
448.99	8606.15
449.17	8610.83
449.36	8610.83
449.54	8629.56
449.73	8931.48
449.91	8922.12
450.10	9015.74
450.28	9043.83
450.46	8966.59
450.65	8968.93
450.83	9018.08
451.02	9074.26
451.20	9226.39
451.39	9111.71
451.57	8966.59
451.76	8926.80
451.94	9163.20
452.13	9252.14
452.31	9165.54
452.49	9158.52
452.68	9298.95
452.86	9310.65
453.05	9425.34
453.23	9610.24
453.42	9392.57
453.60	9245.12
453.78	9437.04
453.97	9338.74
454.15	9479.17
454.34	9509.60
454.52	9671.09
454.70	9474.49
454.89	9673.43
455.07	9657.05
455.26	9635.99
455.44	9891.10
455.62	9856.00
455.81	9785.78
455.99	9884.08
456.17	9750.67
456.36	9951.96
456.54	9858.34
456.73	10277.29
456.91	10221.12
457.09	10274.95
457.28	10665.82
457.46	10279.63
457.64	10616.67
457.83	10448.15
458.01	10298.36
458.19	10436.45
458.38	10518.37
458.56	10630.71
458.74	10628.37
458.93	10597.95
459.11	10710.29
459.29	10649.44
459.48	10700.93
459.66	10588.58
459.84	10747.74
460.03	10986.47
460.21	11019.24
460.39	10984.13
460.57	10803.91
460.76	11300.11
460.94	11178.40
461.12	11157.33
461.31	11047.33
461.49	11218.19
461.67	11073.07
461.85	11307.13
462.04	11346.92
462.22	11573.95
462.40	11466.28
462.59	11162.01
462.77	11248.61
462.95	11641.82
463.13	11435.86
463.32	11477.99
463.50	11730.76
463.68	11786.94
463.86	11541.18
464.05	11646.51
464.23	11676.93
464.41	11707.36
464.59	11740.13
464.78	12341.64
464.96	12102.91
465.14	11800.98
465.32	11861.84
465.50	12128.66
465.69	11990.56
465.87	12233.98
466.05	12241.00
466.23	12184.83
466.41	12079.50
466.60	12233.98
466.78	12105.25
466.96	12058.44
467.14	12177.81
467.32	12468.03
467.51	12496.12
467.69	12018.65
467.87	12463.35
468.05	12496.12
468.23	12482.08
468.41	12533.57
468.60	12603.78
468.78	12713.79
468.96	12549.95
469.14	12720.81
469.32	12699.75
469.50	12652.94
469.69	12793.37
469.87	12978.27
470.05	13008.70
470.23	12950.18
470.41	13174.88
470.59	13167.85
470.77	13142.11
470.95	13305.95
471.14	13481.49
471.32	13046.15
471.50	13429.99
471.68	13341.05
471.86	13668.73
472.04	13689.79
472.22	14017.47
472.40	13472.12
472.58	13738.94
472.77	13926.19
472.95	13935.55
473.13	14310.04
473.31	13729.58
473.49	14197.69
473.67	14221.10
473.85	13984.70
474.03	14490.26
474.21	14487.92
474.39	14799.21
474.57	14553.45
474.75	14850.70
474.93	14665.80
475.12	14991.13
475.30	14778.14
475.48	14827.29
475.66	15152.63
475.84	14857.72
476.02	14970.07
476.20	15232.21
476.38	15538.82
476.56	15784.57
476.74	15829.04
476.92	15609.03
477.10	15466.26
477.28	16084.16
477.46	15955.43
477.64	16130.97
477.82	16182.46
478.00	16692.70
478.18	16617.80
478.36	16823.77
478.54	17074.21
478.72	17067.19
478.90	17114.00
479.08	17619.55
479.26	17415.93
479.44	17572.74
479.62	17661.68
479.80	17696.79
479.98	18288.95
480.16	18455.12
480.34	18139.15
480.52	18728.97
480.70	18270.22
480.88	18202.35
481.06	18799.18
481.24	18920.89
481.41	19054.30
481.59	19489.64
481.77	19323.46
481.95	19454.53
482.13	19480.28
482.31	19339.85
482.49	20109.88
482.67	20095.84
482.85	20093.50
483.03	20538.20
483.21	20884.60
483.39	20968.86
483.57	20652.89
483.74	21099.93
483.92	21275.47
484.10	20936.09
484.28	21427.60
484.46	21788.05
484.64	22167.21
484.82	21989.33
485.00	22125.08
485.18	22462.12
485.35	22621.28
485.53	22387.22
485.71	23040.23
485.89	23300.03
486.07	23335.14
486.25	23012.15
486.43	23428.76
486.61	23428.76
486.78	23463.87
486.96	24077.09
487.14	24297.10
487.32	24439.87
487.50	24657.54
487.68	24917.34
487.85	24837.76
488.03	25486.09
488.21	25603.12
488.39	25521.20
488.57	25659.29
488.75	26019.74
488.92	26363.79
489.10	26396.56
489.28	26394.22
489.46	26621.25
489.64	26881.05
489.81	27573.85
489.99	27346.82
490.17	27428.74
490.35	27976.42
490.53	28034.94
490.70	28423.47
490.88	28168.35
491.06	28671.56
491.24	28732.42
491.41	29008.60
491.59	28954.77
491.77	28940.72
491.95	29097.54
492.13	29462.66
492.30	29523.52
492.48	30307.60
492.66	30178.87
492.84	29841.83
493.01	30504.20
493.19	30724.21
493.37	30361.43
493.54	30862.30
493.72	31414.67
493.90	31213.38
494.08	31342.11
494.25	31840.65
494.43	31903.84
494.61	32135.56
494.79	31852.35
494.96	32402.38
495.14	32198.75
495.32	33357.32
495.49	32952.40
495.67	32975.81
495.85	33553.92
496.02	33752.87
496.20	33802.02
496.38	33773.93
496.55	34132.03
496.73	34794.40
496.91	34480.77
497.09	34462.05
497.26	34342.68
497.44	34607.16
497.62	34878.66
497.79	35796.15
497.97	35229.74
498.14	35711.89
498.32	35505.93
498.50	35779.77
498.67	36264.26
498.85	36123.83
499.03	36367.24
499.20	36725.35
499.38	36727.69
499.56	36765.14
499.73	36837.69
499.91	37116.22
500.08	37530.49
500.26	36928.97
500.44	37420.48
500.61	37947.11
500.79	37432.19
500.97	37785.61
501.14	38473.73
501.32	38199.88
501.49	38066.47
501.67	38504.15
501.84	38618.84
502.02	38738.21
502.20	38927.79
502.37	38822.47
502.55	38663.31
502.72	38998.01
502.90	39569.10
503.07	39136.10
503.25	39901.45
503.43	39313.98
503.60	39571.44
503.78	39864.00
503.95	39924.86
504.13	40196.36
504.30	40425.73
504.48	39793.79
504.65	40222.11
504.83	40931.29
505.01	41390.03
505.18	41359.61
505.36	41221.52
505.53	40598.93
505.71	41027.25
505.88	41392.37
506.06	41078.74
506.23	41675.58
506.41	41280.03
506.58	41546.85
506.76	42045.38
506.93	42068.79
507.11	42017.30
507.28	42436.25
507.46	42251.35
507.63	42649.24
507.81	42827.12
507.98	42349.65
508.16	42801.38
508.33	43058.84
508.50	43629.93
508.68	43433.32
508.85	43559.71
509.03	43232.04
509.20	43765.68
509.38	44339.11
509.55	44423.37
509.73	44203.36
509.90	44524.01
510.08	44034.84
510.25	44210.38
510.42	44788.49
510.60	44809.56
510.77	44465.50
510.95	45158.30
511.12	44959.35
511.30	44575.50
511.47	45118.51
511.64	45198.09
511.82	45691.94
511.99	45631.08
512.17	45815.99
512.34	45724.71
512.51	45811.31
512.69	46295.80
512.86	46183.45
513.04	46192.81
513.21	46239.62
513.38	46403.46
513.56	46515.81
513.73	46391.76
513.90	46899.65
514.08	46527.51
514.25	47131.37
514.43	47119.66
514.60	47302.23
514.77	47454.36
514.95	47269.46
515.12	47297.55
515.29	47215.63
515.47	47545.64
515.64	47629.90
515.81	47583.09
515.99	48392.92
516.16	47971.62
516.33	48142.48
516.51	48252.48
516.68	48584.84
516.85	48453.77
517.03	48566.12
517.20	48605.91
517.37	48615.27
517.54	48573.14
517.72	48535.69
517.89	48769.74
518.06	48713.57
518.24	49275.30
518.41	49141.89
518.58	49048.27
518.75	48919.54
518.93	49429.77
519.10	49006.14
519.27	49209.76
519.45	49385.30
519.62	49535.10
519.79	49558.50
519.96	49764.47
520.14	50035.97
520.31	50059.38
520.48	50401.10
520.65	49827.66
520.83	50464.29
521.00	50536.85
521.17	50815.37
521.34	50600.04
521.52	50473.65
521.69	50581.32
521.86	50698.34
522.03	51002.61
522.20	50770.90
522.38	51334.97
522.55	50979.21
522.72	51201.56
522.89	50953.46
523.07	51533.92
523.24	51042.40
523.41	51552.64
523.58	51304.54
523.75	51812.44
523.92	51501.15
524.10	51742.22
524.27	51749.24
524.44	51805.42
524.61	51943.51
524.78	51938.83
524.96	51955.21
525.13	52325.02
525.30	51955.21
525.47	52573.11
525.64	52369.49
525.81	52552.05
525.98	52383.53
526.16	52453.75
526.33	52329.70
526.50	52435.02
526.67	52530.98
526.84	52762.70
527.01	52685.46
527.18	52750.99
527.36	52865.68
527.53	52804.83
527.70	53059.94
527.87	53144.20
528.04	52891.43
528.21	53258.89
528.38	53069.31
528.55	53041.22
528.72	53069.31
528.89	53521.03
529.07	53148.88
529.24	52942.92
529.41	53485.92
529.58	53457.84
529.75	53656.78
529.92	53375.92
530.09	53834.66
530.26	53663.80
530.43	53631.04
530.60	53455.50
530.77	53542.10
530.94	54021.90
531.11	53935.30
531.28	53961.05
531.46	54073.40
531.63	54045.31
531.80	53848.71
531.97	54092.12
532.14	54155.32
532.31	54040.63
532.48	54391.71
532.65	54298.09
532.82	54326.17
532.99	54473.63
533.16	54403.41
533.33	54520.44
533.50	54742.79
533.67	54574.27
533.84	54405.75
534.01	54464.27
534.18	54684.28
534.35	55138.34
534.52	55051.74
534.69	54958.12
534.86	54997.91
535.03	54803.64
535.20	55009.61
535.37	55306.86
535.54	55178.13
535.71	55152.38
535.88	55463.67
536.05	55290.48
536.22	55447.29
536.38	55285.79
536.55	55468.36
536.72	55374.73
536.89	54997.91
537.06	55365.37
537.23	55068.12
537.40	55306.86
537.57	55714.11
537.74	55430.91
537.91	55739.86
538.08	55922.42
538.25	55466.02
538.42	55676.66
538.59	56095.62
538.75	55824.12
538.92	55985.61
539.09	55936.46
539.26	55732.84
539.43	55980.93
539.60	56207.97
539.77	56205.62
539.94	56161.15
540.11	56186.90
540.28	56474.79
540.44	56090.94
540.61	56245.41
540.78	56348.40
540.95	56257.12
541.12	56175.20
541.29	56240.73
541.46	56289.88
541.62	56449.04
541.79	56329.67
541.96	56090.94
542.13	56350.74
542.30	56413.93
542.47	56545.00
542.63	56755.65
542.80	56781.40
542.97	56959.28
543.14	57022.47
543.31	56966.30
543.48	57071.62
543.64	57214.40
543.81	57176.95
543.98	57219.08
544.15	57036.51
544.32	57312.70
544.48	57317.38
544.65	57202.69
544.82	57279.93
544.99	57013.11
545.16	57120.77
545.32	57188.65
545.49	57631.01
545.66	57595.90
545.83	57420.36
546.00	57668.46
546.16	57518.67
546.33	57457.81
546.50	57310.36
546.67	57745.70
546.83	57221.42
547.00	57677.82
547.17	57378.23
547.34	57865.06
547.50	57914.22
547.67	57954.00
547.84	57687.18
548.00	57958.69
548.17	57998.48
548.34	58106.14
548.51	57937.62
548.67	58166.99
548.84	57792.51
549.01	58010.18
549.18	57968.05
549.34	58169.33
549.51	58012.52
549.68	58206.78
549.84	58248.91
550.01	58284.02
550.18	58108.48
550.34	58253.59
550.51	58344.87
550.68	58302.74
550.84	58056.99
551.01	58005.50
551.18	58234.87
551.34	58237.21
551.51	58691.27
551.68	58429.13
551.84	58295.72
552.01	58234.87
552.18	58508.71
552.34	58468.92
552.51	58234.87
552.68	58309.77
552.84	58422.11
553.01	58749.79
553.18	58354.24
553.34	58614.04
553.51	58583.61
553.67	58511.05
553.84	58642.12
554.01	58695.95
554.17	58885.54
554.34	58855.11
554.51	58939.37
554.67	58754.47
554.84	58784.90
555.00	58852.77
555.17	58805.96
555.33	58733.40
555.50	58576.59
555.67	58766.17
555.83	58770.85
556.00	58876.18
556.16	59231.94
556.33	59250.66
556.50	58859.79
556.66	59489.40
556.83	58960.44
556.99	59128.95
557.16	59295.13
557.32	59288.11
557.49	59526.84
557.65	59049.38
557.82	59178.10
557.98	59150.02
558.15	59192.15
558.32	59313.86
558.48	59180.45
558.65	59182.79
558.81	59355.99
558.98	59238.96
559.14	59348.96
559.31	59297.47
559.47	59437.90
559.64	59482.37
559.80	59557.27
559.97	59667.28
560.13	59341.94
560.30	59587.70
560.46	59559.61
560.63	59554.93
560.79	59573.66
560.96	59568.97
561.12	59657.91
561.29	59791.33
561.45	59599.40
561.61	59494.08
561.78	59826.43
561.94	59510.46
562.11	59690.68
562.27	59608.76
562.44	59796.01
562.60	59924.74
562.77	59880.27
562.93	59636.85
563.10	59962.18
563.26	59627.49
563.42	60009.00
563.59	59901.33
563.75	59770.26
563.92	59931.76
564.08	59821.75
564.24	60051.12
564.41	60048.78
564.57	59992.61
564.74	59849.84
564.90	60027.72
565.07	59863.88
565.23	60046.44
565.39	59849.84
565.56	60055.81
565.72	59920.05
565.88	60069.85
566.05	60018.36
566.21	60175.17
566.38	59812.39
566.54	59985.59
566.70	60027.72
566.87	60013.68
567.03	60210.28
567.19	60137.72
567.36	60044.10
567.52	60111.98
567.68	60444.33
567.85	60081.55
568.01	60233.69
568.17	60196.24
568.34	60348.37
568.50	60060.49
568.66	60329.65
568.83	60147.09
568.99	60158.79
569.15	60390.50
569.32	60198.58
569.48	60079.21
569.64	60383.48
569.81	60350.71
569.97	60243.05
570.13	60250.07
570.30	60060.49
570.46	60292.20
570.62	60182.19
570.78	60196.24
570.95	60200.92
571.11	60453.70
571.27	60378.80
571.43	60336.67
571.60	60552.00
571.76	60481.78
571.92	60479.44
572.09	60329.65
572.25	60444.33
572.41	60303.90
572.57	60427.95
572.74	60437.31
572.90	60299.22
573.06	60488.80
573.22	60488.80
573.38	60446.68
573.55	60552.00
573.71	60697.11
573.87	60624.56
574.03	60453.70
574.20	60664.35
574.36	60395.18
574.52	60568.38
574.68	60626.90
574.84	60589.45
575.01	60697.11
575.17	60449.02
575.33	60486.46
575.49	60306.24
575.65	60484.12
575.82	60645.62
575.98	60537.96
576.14	60853.93
576.30	60701.79
576.46	60640.94
576.62	60488.80
576.79	60505.19
576.95	60516.89
577.11	60484.12
577.27	60528.59
577.43	60807.12
577.59	60612.85
577.75	60596.47
577.92	60357.74
578.08	60559.02
578.24	60704.13
578.40	60563.70
578.56	60814.14
578.72	60692.43
578.88	60872.65
579.04	60844.57
579.21	60657.32
579.37	60818.82
579.53	61029.47
579.69	60432.63
579.85	60640.94
580.01	60640.94
580.17	60425.61
580.33	60739.24
580.49	60893.72
580.65	60807.12
580.82	60872.65
580.98	60772.01
581.14	60783.71
581.30	60774.35
581.46	60788.39
581.62	60949.89
581.78	60673.71
581.94	60849.25
582.10	60673.71
582.26	60786.05
582.42	60570.72
582.58	60741.58
582.74	60732.22
582.90	60755.63
583.06	60697.11
583.22	60657.32
583.38	60734.56
583.54	60729.88
583.70	60734.56
583.86	60825.84
584.02	60816.48
584.18	60917.12
584.34	60699.45
584.50	60781.37
584.66	60694.77
584.82	60561.36
584.98	60952.23
585.14	60856.27
585.30	60701.79
585.46	60727.54
585.62	60743.92
585.78	61015.43
585.94	60809.46
586.10	60746.26
586.26	60849.25
586.42	60921.80
586.58	60694.77
586.74	60935.85
586.90	60781.37
587.06	60924.14
587.22	61038.83
587.38	61001.38
587.54	60839.89
587.70	61137.13
587.86	60940.53
588.02	60846.91
588.18	60928.83
588.34	61020.11
588.49	60837.54
