SpectraSuite Data File
++++++++++++++++++++++++++++++++++++
Date: Fri Oct 25 11:34:45 EDT 2013
User: price-jones
Dark Spectrum Present: No
Reference Spectrum Present: No
Number of Sampled Component Spectra: 1
Spectrometers: USB2+H05261
Integration Time (usec): 100000 (USB2+H05261)
Spectra Averaged: 1 (USB2+H05261)
Boxcar Smoothing: 0 (USB2+H05261)
Correct for Electrical Dark: No (USB2+H05261)
Strobe/Lamp Enabled: No (USB2+H05261)
Correct for Detector Non-linearity: No (USB2+H05261)
Correct for Stray Light: No (USB2+H05261)
Number of Pixels in Processed Spectrum: 2048
>>>>>Begin Processed Spectral Data<<<<<
365.73	299.59
365.92	299.59
366.12	299.59
366.32	241.08
366.52	208.31
366.72	252.78
366.91	156.82
367.11	135.75
367.31	170.86
367.51	198.95
367.70	231.71
367.90	161.50
368.10	166.18
368.30	215.33
368.49	168.52
368.69	189.58
368.89	201.29
369.09	208.31
369.28	238.73
369.48	236.39
369.68	198.95
369.87	255.12
370.07	269.16
370.27	257.46
370.47	341.72
370.66	503.22
370.86	484.49
371.06	486.83
371.25	475.13
371.45	538.32
371.65	498.53
371.84	517.26
372.04	531.30
372.24	561.73
372.44	559.39
372.63	594.50
372.83	688.12
373.03	608.54
373.22	552.37
373.42	545.34
373.62	613.22
373.81	615.56
374.01	685.78
374.21	657.69
374.40	596.84
374.60	638.97
374.79	617.90
374.99	653.01
375.19	620.24
375.38	594.50
375.58	643.65
375.78	690.46
375.97	664.71
376.17	688.12
376.37	655.35
376.56	688.12
376.76	681.10
376.95	711.52
377.15	624.92
377.35	702.16
377.54	720.88
377.74	690.46
377.93	664.71
378.13	671.73
378.33	678.76
378.52	641.31
378.72	716.20
378.91	716.20
379.11	699.82
379.31	690.46
379.50	702.16
379.70	695.14
379.89	697.48
380.09	704.50
380.28	645.99
380.48	704.50
380.68	737.27
380.87	704.50
381.07	727.91
381.26	753.65
381.46	732.59
381.65	725.57
381.85	763.01
382.04	763.01
382.24	716.20
382.43	763.01
382.63	746.63
382.83	697.48
383.02	779.40
383.22	849.61
383.41	765.36
383.61	770.04
383.80	772.38
384.00	793.44
384.19	779.40
384.39	765.36
384.58	823.87
384.78	880.04
384.97	835.57
385.17	755.99
385.36	807.48
385.56	828.55
385.75	826.21
385.95	840.25
386.14	866.00
386.34	851.96
386.53	854.30
386.72	802.80
386.92	856.64
387.11	800.46
387.31	943.24
387.50	898.77
387.70	854.30
387.89	873.02
388.09	837.91
388.28	875.36
388.48	851.96
388.67	936.21
388.86	980.68
389.06	828.55
389.25	863.66
389.45	1004.09
389.64	884.72
389.84	966.64
390.03	945.58
390.22	903.45
390.42	861.32
390.61	1013.45
390.81	936.21
391.00	947.92
391.19	959.62
391.39	964.30
391.58	870.68
391.78	954.94
391.97	931.53
392.16	1006.43
392.36	1029.84
392.55	1107.07
392.75	1039.20
392.94	994.73
393.13	1043.88
393.33	985.37
393.52	1011.11
393.71	1053.24
393.91	983.02
394.10	1036.86
394.29	1041.54
394.49	987.71
394.68	1144.52
394.88	1060.26
395.07	1151.54
395.26	1046.22
395.46	1041.54
395.65	1132.82
395.84	1048.56
396.04	1174.95
396.23	1144.52
396.42	1090.69
396.62	1221.76
396.81	1214.74
397.00	1177.29
397.19	1153.88
397.39	1153.88
397.58	1240.48
397.77	1210.06
397.97	1329.42
398.16	1200.69
398.35	1217.08
398.55	1254.53
398.74	1287.29
398.93	1259.21
399.12	1252.19
399.32	1299.00
399.51	1270.91
399.70	1191.33
399.90	1254.53
400.09	1296.66
400.28	1289.64
400.47	1343.47
400.67	1287.29
400.86	1320.06
401.05	1369.21
401.24	1448.79
401.44	1394.96
401.63	1373.89
401.82	1327.08
402.01	1481.56
402.21	1315.38
402.40	1465.18
402.59	1432.41
402.78	1495.60
402.97	1526.03
403.17	1479.22
403.36	1476.88
403.55	1416.02
403.74	1526.03
403.93	1488.58
404.13	1596.25
404.32	1586.88
404.51	1626.67
404.70	1556.46
404.89	1687.53
405.09	1603.27
405.28	1629.01
405.47	1598.59
405.66	1621.99
405.85	1603.27
406.05	1572.84
406.24	1645.40
406.43	1657.10
406.62	1680.50
406.81	1748.38
407.00	1689.87
407.20	1701.57
407.39	1788.17
407.58	1710.93
407.77	1809.23
407.96	1818.60
408.15	1743.70
408.34	1760.08
408.54	1898.17
408.73	1874.77
408.92	1856.04
409.11	1900.52
409.30	1839.66
409.49	1928.60
409.68	1982.43
409.87	1916.90
410.07	1902.86
410.26	1987.11
410.45	1970.73
410.64	1973.07
410.83	1989.46
411.02	2022.22
411.21	2148.61
411.40	2024.56
411.59	2101.80
411.78	2090.10
411.98	2085.42
412.17	2122.87
412.36	2073.71
412.55	2284.36
412.74	2296.07
412.93	2207.13
413.12	2179.04
413.31	2347.56
413.50	2258.62
413.69	2317.13
413.88	2394.37
414.07	2345.22
414.26	2382.67
414.45	2445.86
414.64	2450.54
414.83	2361.60
415.02	2490.33
415.22	2497.35
415.41	2581.61
415.60	2546.50
415.79	2534.80
415.98	2696.30
416.17	2569.91
416.36	2588.63
416.55	2558.21
416.74	2729.06
416.93	2668.21
417.12	2644.81
417.31	2609.70
417.50	2752.47
417.69	2834.39
417.88	2796.94
418.07	2682.25
418.26	2885.88
418.45	2850.77
418.64	2960.78
418.83	2846.09
419.02	2806.30
419.21	3045.04
419.39	3061.42
419.58	2892.90
419.77	2916.31
419.96	2953.76
420.15	2993.55
420.34	2963.12
420.53	2946.73
420.72	3089.51
420.91	3105.89
421.10	3108.23
421.29	3091.85
421.48	3150.36
421.67	3112.91
421.86	3129.30
422.05	3206.53
422.24	3180.79
422.43	3185.47
422.61	3155.04
422.80	3267.39
422.99	3187.81
423.18	3316.54
423.37	3267.39
423.56	3293.13
423.75	3164.40
423.94	3211.22
424.13	3047.38
424.32	3122.27
424.50	3148.02
424.69	3372.71
424.88	3295.47
425.07	3269.73
425.26	3176.11
425.45	3309.52
425.64	3283.77
425.83	3239.30
426.01	3361.01
426.20	3337.60
426.39	3290.79
426.58	3382.07
426.77	3403.14
426.96	3438.25
427.15	3503.78
427.33	3353.99
427.52	3353.99
427.71	3517.83
427.90	3365.69
428.09	3473.36
428.28	3620.81
428.46	3435.91
428.65	3513.14
428.84	3623.15
429.03	3688.68
429.22	3609.11
429.40	3709.75
429.59	3590.38
429.78	3506.12
429.97	3438.25
430.16	3684.00
430.34	3623.15
430.53	3712.09
430.72	3606.77
430.91	3691.02
431.10	3765.92
431.28	3784.65
431.47	3761.24
431.66	3950.82
431.85	3597.40
432.03	3676.98
432.22	3936.78
432.41	3840.82
432.60	3939.12
432.79	3941.46
432.97	3852.52
433.16	4028.06
433.35	4023.38
433.54	4018.70
433.72	4159.13
433.91	3976.57
434.10	3904.01
434.28	3892.31
434.47	4023.38
434.66	4163.81
434.85	4121.68
435.03	4114.66
435.22	4128.70
435.41	4227.01
435.59	4276.16
435.78	4119.34
435.97	4208.28
436.16	4222.33
436.34	4166.15
436.53	4252.75
436.72	4278.50
436.90	4145.09
437.09	4341.69
437.28	4159.13
437.46	4269.14
437.65	4461.06
437.84	4320.63
438.02	4454.04
438.21	4423.61
438.40	4458.72
438.58	4491.49
438.77	4517.23
438.96	4507.87
439.14	4542.98
439.33	4774.69
439.52	4760.65
439.70	4468.08
439.89	4802.78
440.08	4718.52
440.26	4805.12
440.45	4826.18
440.63	4798.10
440.82	5060.24
441.01	4861.29
441.19	4903.42
441.38	5008.75
441.57	4959.60
441.75	5172.58
441.94	5163.22
442.12	5128.11
442.31	5200.67
442.50	5142.16
442.68	5107.05
442.87	5240.46
443.05	5247.48
443.24	5280.25
443.43	5387.91
443.61	5287.27
443.80	5425.36
443.98	5338.76
444.17	5027.47
444.35	5221.74
444.54	5345.78
444.73	5252.16
444.91	5357.49
445.10	5399.62
445.28	5261.52
445.47	5371.53
445.65	5582.18
445.84	5518.98
446.02	5320.04
446.21	5327.06
446.39	5214.71
446.58	5364.51
446.77	5329.40
446.95	5453.45
447.14	5371.53
447.32	5551.75
447.51	5472.17
447.69	5488.56
447.88	5301.31
448.06	5511.96
448.25	5385.57
448.43	5488.56
448.62	5378.55
448.80	5444.09
448.99	5638.35
449.17	5579.84
449.36	5563.45
449.54	5636.01
449.73	5621.97
449.91	5804.53
450.10	5746.02
450.28	5963.68
450.46	5755.38
450.65	5741.33
450.83	5830.27
451.02	5851.34
451.20	5839.64
451.39	5872.40
451.57	5860.70
451.76	5872.40
451.94	5987.09
452.13	5856.02
452.31	5902.83
452.49	6033.90
452.68	5921.56
452.86	5891.13
453.05	6054.97
453.23	5923.90
453.42	6057.31
453.60	5987.09
453.78	6207.10
453.97	6134.54
454.15	6115.82
454.34	6078.37
454.52	6216.46
454.70	6010.50
454.89	6120.50
455.07	6284.34
455.26	6225.82
455.44	6370.94
455.62	6335.83
455.81	6342.85
455.99	6321.79
456.17	6487.96
456.36	6384.98
456.54	6396.68
456.73	6525.41
456.91	6691.59
457.09	6647.12
457.28	6637.76
457.46	6581.59
457.64	6576.91
457.83	6597.97
458.01	6623.72
458.19	6682.23
458.38	6796.92
458.56	6817.98
458.74	6920.96
458.93	6808.62
459.11	6771.17
459.29	6862.45
459.48	6871.81
459.66	7014.59
459.84	6911.60
460.03	6927.99
460.21	6998.20
460.39	7080.12
460.57	6904.58
460.76	7096.50
460.94	7110.55
461.12	7068.42
461.31	7026.29
461.49	7199.49
461.67	7225.23
461.85	7307.15
462.04	7213.53
462.22	7414.82
462.40	7456.95
462.59	7433.54
462.77	7466.31
462.95	7386.73
463.13	7265.02
463.32	7428.86
463.50	7438.22
463.68	7588.02
463.86	7599.72
464.05	7262.68
464.23	7515.46
464.41	7613.76
464.59	7330.56
464.78	7595.04
464.96	7672.28
465.14	7466.31
465.32	7737.81
465.50	7728.45
465.69	7726.11
465.87	7604.40
466.05	7873.56
466.23	7592.70
466.41	7616.10
466.60	7784.62
466.78	7529.50
466.96	7639.51
467.14	7740.15
467.32	7698.02
467.51	7976.55
467.69	7765.90
467.87	7754.19
468.05	8021.02
468.23	7705.04
468.41	7840.79
468.60	7967.18
468.78	8016.33
468.96	8168.47
469.14	8035.06
469.32	8208.26
469.50	7852.50
469.69	8287.84
469.87	8351.03
470.05	8252.73
470.23	8379.12
470.41	8255.07
470.59	8580.40
470.77	8285.50
470.95	8379.12
471.14	8589.77
471.32	8355.71
471.50	8418.91
471.68	8489.12
471.86	8718.50
472.04	8720.84
472.22	8809.78
472.40	8681.05
472.58	8741.90
472.77	8732.54
472.95	8788.71
473.13	9158.52
473.31	8915.10
473.49	8947.87
473.67	8889.35
473.85	8926.80
474.03	9399.59
474.21	9252.14
474.39	9085.96
474.57	9301.29
474.75	9327.03
474.93	9324.69
475.12	9205.33
475.30	9378.53
475.48	9483.85
475.66	9631.30
475.84	9488.53
476.02	9371.50
476.20	9769.40
476.38	9837.27
476.56	10303.04
476.74	10106.43
476.92	9853.66
477.10	9881.74
477.28	9949.62
477.46	10064.30
477.64	10160.27
477.82	10520.71
478.00	10747.74
478.18	10373.25
478.36	10499.64
478.54	10904.56
478.72	10824.98
478.90	10677.52
479.08	10949.03
479.26	10944.34
479.44	11056.69
479.62	10988.82
479.80	11208.83
479.98	11314.15
480.16	11421.81
480.34	11363.30
480.52	11609.06
480.70	11688.64
480.88	11592.67
481.06	11829.07
481.24	11632.46
481.41	12009.29
481.59	12091.21
481.77	12065.46
481.95	12091.21
482.13	12306.54
482.31	12362.71
482.49	12472.71
482.67	12500.80
482.85	12896.35
483.03	12753.58
483.21	12905.71
483.39	12961.89
483.57	12936.14
483.74	13186.58
483.92	13308.29
484.10	13195.94
484.28	13635.96
484.46	13554.04
484.64	13853.63
484.82	13675.75
485.00	13816.18
485.18	14143.86
485.35	14560.47
485.53	14101.73
485.71	14265.57
485.89	14558.13
486.07	14466.85
486.25	14670.48
486.43	14630.69
486.61	14848.36
486.78	14839.00
486.96	15016.88
487.14	15267.31
487.32	15379.66
487.50	15515.41
487.68	15721.38
487.85	15709.68
488.03	15992.88
488.21	15782.23
488.39	16311.19
488.57	16006.92
488.75	16154.38
488.92	16643.55
489.10	16519.50
489.28	16556.95
489.46	16643.55
489.64	16779.30
489.81	17158.47
489.99	16901.01
490.17	17287.20
490.35	17350.39
490.53	17497.84
490.70	17495.50
490.88	17547.00
491.06	17975.31
491.24	17745.94
491.41	17989.36
491.59	17954.25
491.77	17898.08
491.95	17991.70
492.13	18326.39
492.30	18368.52
492.48	18801.52
492.66	18569.81
492.84	18539.38
493.01	19012.17
493.19	19026.21
493.37	18967.70
493.54	19037.92
493.72	19585.60
493.90	19548.15
494.08	19655.82
494.25	19777.53
494.43	19807.95
494.61	19976.47
494.79	20095.84
494.96	19887.53
495.14	20198.82
495.32	20266.70
495.49	20734.81
495.67	20758.21
495.85	20549.90
496.02	21076.52
496.20	21345.69
496.38	20947.79
496.55	20877.58
496.73	21600.80
496.91	21525.91
497.09	21617.19
497.26	21757.62
497.44	21722.51
497.62	21774.00
497.79	21781.03
497.97	21865.28
498.14	22134.45
498.32	22244.45
498.50	22396.59
498.67	22679.79
498.85	22572.13
499.03	22867.03
499.20	22567.45
499.38	22658.73
499.56	23044.91
499.73	22932.57
499.91	23040.23
500.08	23344.50
500.26	23197.05
500.44	23215.77
500.61	23323.44
500.79	23012.15
500.97	23250.88
501.14	23821.97
501.32	23852.40
501.49	23920.28
501.67	23992.83
501.84	24318.17
502.02	24018.58
502.20	24166.03
502.37	24250.29
502.55	24182.42
502.72	24601.37
502.90	24465.62
503.07	24187.10
503.25	24570.94
503.43	24610.73
503.60	25003.94
503.78	24912.66
503.95	24975.86
504.13	24987.56
504.30	25366.73
504.48	25195.87
504.65	25184.16
504.83	25399.49
505.01	25614.82
505.18	25516.52
505.36	25715.47
505.53	25415.88
505.71	25893.35
505.88	25867.60
506.06	25720.15
506.23	26005.69
506.41	25720.15
506.58	26047.82
506.76	26352.09
506.93	26558.06
507.11	26429.33
507.28	26448.05
507.46	26611.89
507.63	26455.08
507.81	27091.70
507.98	26628.27
508.16	26639.98
508.33	27159.58
508.50	27077.66
508.68	27204.05
508.85	27410.01
509.03	27136.17
509.20	27566.83
509.38	27536.40
509.55	27625.34
509.73	27833.65
509.90	27377.25
510.08	27222.77
510.25	27704.92
510.42	28201.11
510.60	27714.28
510.77	28210.48
510.95	28657.52
511.12	27880.46
511.30	28158.99
511.47	28367.29
511.64	28383.68
511.82	28467.94
511.99	28458.57
512.17	28936.04
512.34	28573.26
512.51	28952.43
512.69	28896.25
512.86	28833.06
513.04	29563.31
513.21	29228.61
513.38	29385.43
513.56	29357.34
513.73	29406.49
513.90	29228.61
514.08	29294.14
514.25	29713.10
514.43	29806.72
514.60	29865.24
514.77	29467.34
514.95	30080.56
515.12	29841.83
515.29	29696.72
515.47	30017.37
515.64	30188.23
515.81	29986.94
515.99	30206.95
516.16	30562.72
516.33	30471.43
516.51	30422.28
516.68	30462.07
516.85	30834.22
517.03	30618.89
517.20	31084.65
517.37	30696.13
517.54	30916.14
517.72	30986.35
517.89	31042.53
518.06	31044.87
518.24	31229.77
518.41	30993.37
518.58	31246.15
518.75	31147.85
518.93	31150.19
519.10	31339.77
519.27	31517.65
519.45	31978.74
519.62	31566.81
519.79	31906.18
519.96	31892.14
520.14	31924.91
520.31	31782.13
520.48	31983.42
520.65	31606.59
520.83	32493.66
521.00	32371.95
521.17	32781.54
521.34	32692.60
521.52	32486.64
521.69	32329.82
521.86	32638.77
522.03	33015.60
522.20	32802.61
522.38	33013.26
522.55	33111.56
522.72	33083.47
522.89	33298.80
523.07	33385.40
523.24	32994.53
523.41	33399.44
523.58	33149.01
523.75	33450.94
523.92	33455.62
524.10	33493.07
524.27	33809.04
524.44	33406.47
524.61	33493.07
524.78	34036.07
524.96	34050.11
525.13	33956.49
525.30	34017.35
525.47	34218.63
525.64	34663.33
525.81	34040.75
525.98	34239.70
526.16	34045.43
526.33	34443.32
526.50	34433.96
526.67	34113.31
526.84	34445.66
527.01	34501.84
527.18	34031.39
527.36	34817.81
527.53	34759.30
527.70	34998.03
527.87	35009.73
528.04	34534.60
528.21	35187.61
528.38	35262.51
528.55	35014.41
528.72	34771.00
528.89	35225.06
529.07	35196.98
529.24	34567.37
529.41	35276.55
529.58	35119.74
529.75	35255.49
529.92	35496.56
530.09	35377.20
530.26	35498.91
530.43	35974.03
530.60	35562.10
530.77	35360.81
530.94	35747.00
531.11	35456.78
531.28	35634.66
531.46	36053.61
531.63	36142.55
531.80	35849.99
531.97	36100.42
532.14	35999.78
532.31	36037.23
532.48	36521.72
532.65	36652.79
532.82	35971.69
532.99	36280.64
533.16	36343.84
533.33	36837.69
533.50	36275.96
533.67	36575.55
533.84	36348.52
534.01	36732.37
534.18	36833.01
534.35	37301.12
534.52	36917.27
534.69	36987.49
534.86	37202.82
535.03	36938.33
535.20	37034.30
535.37	37064.72
535.54	37577.30
535.71	37134.94
535.88	37727.10
536.05	37677.94
536.22	37266.01
536.38	37345.59
536.55	37247.29
536.72	37642.84
536.89	37605.39
537.06	37888.59
537.23	37528.15
537.40	37598.37
537.57	37691.99
537.74	37294.10
537.91	37621.77
538.08	37792.63
538.25	37961.15
538.42	37792.63
538.59	38359.04
538.75	37249.63
538.92	38579.05
539.09	38005.62
539.26	37853.48
539.43	37928.38
539.60	38469.04
539.77	38345.00
539.94	38239.67
540.11	38555.64
540.28	38602.46
540.44	38534.58
540.61	38745.23
540.78	38199.88
540.95	38630.54
541.12	38593.09
541.29	38773.31
541.46	38146.05
541.62	39241.42
541.79	38923.11
541.96	38649.27
542.13	38817.78
542.30	38410.53
542.47	38888.00
542.63	39173.55
542.80	39201.63
542.97	39533.99
543.14	39229.72
543.31	39250.78
543.48	39344.41
543.64	39924.86
543.81	40004.44
543.98	39601.86
544.15	39636.97
544.32	39302.28
544.48	40245.51
544.65	39683.78
544.82	40093.38
544.99	39770.38
545.16	39632.29
545.32	39573.78
545.49	40175.30
545.66	40318.07
545.83	39978.69
546.00	40568.51
546.16	40416.37
546.33	39936.56
546.50	39826.56
546.67	40634.04
546.83	39882.73
547.00	40282.96
547.17	40130.83
547.34	40048.91
547.50	40350.84
547.67	40533.40
547.84	40313.39
548.00	40570.85
548.17	40690.21
548.34	41036.61
548.51	40875.12
548.67	40896.18
548.84	41008.53
549.01	40961.72
549.18	41036.61
549.34	40767.45
549.51	41235.56
549.68	41062.36
549.84	40744.05
550.01	41036.61
550.18	40741.71
550.34	41361.95
550.51	41172.36
550.68	41750.48
550.84	41336.20
551.01	41411.10
551.18	40830.65
551.34	41490.68
551.51	41401.74
551.68	41549.19
551.84	41273.01
552.01	41247.26
552.18	41638.13
552.34	41380.67
552.51	41474.29
552.68	41392.37
552.84	41624.09
553.01	41734.09
553.18	41659.20
553.34	41813.67
553.51	41663.88
553.67	41792.61
553.84	41916.65
554.01	41928.36
554.17	41750.48
554.34	42415.19
554.51	42017.30
554.67	42120.28
554.84	41961.12
555.00	41586.64
555.17	42314.55
555.33	42431.57
555.50	41883.89
555.67	42263.05
555.83	41771.54
556.00	42359.02
556.16	42586.05
556.33	42204.54
556.50	42356.67
556.66	42462.00
556.83	41951.76
556.99	42838.83
557.16	42918.40
557.32	43005.00
557.49	42522.85
557.65	42157.73
557.82	42492.43
557.98	42745.20
558.15	42543.92
558.32	42525.19
558.48	42895.00
558.65	42724.14
558.81	42749.88
558.98	42438.59
559.14	42326.25
559.31	42279.44
559.47	42810.74
559.64	43107.99
559.80	42792.01
559.97	43309.27
560.13	42773.29
560.30	42951.17
560.46	43353.74
560.63	42869.25
560.79	43351.40
560.96	42953.51
561.12	43529.28
561.29	42773.29
561.45	42918.40
561.61	43210.97
561.78	42801.38
561.94	42995.64
562.11	43349.06
562.27	43065.86
562.44	43718.87
562.60	43475.45
562.77	43559.71
562.93	43356.08
563.10	43386.51
563.26	42925.42
563.42	43489.49
563.59	43051.81
563.75	43009.68
563.92	43634.61
564.08	43475.45
564.24	43594.82
564.41	43166.50
564.57	43863.98
564.74	43456.73
564.90	43604.18
565.07	43267.14
565.23	43075.22
565.39	43302.25
565.56	43737.59
565.72	43548.01
565.88	43814.83
566.05	43573.75
566.21	43358.42
566.38	43594.82
566.54	43856.96
566.70	44044.20
566.87	43665.03
567.03	43772.70
567.19	43880.36
567.36	43447.36
567.52	44062.93
567.68	44189.31
567.85	44058.24
568.01	43962.28
568.17	43840.57
568.34	43838.23
568.50	44023.14
568.66	43777.38
568.83	43973.98
568.99	43910.79
569.15	43913.13
569.32	44140.16
569.48	44133.14
569.64	44205.70
569.81	44151.87
569.97	43821.85
570.13	44320.38
570.30	44161.23
570.46	43976.33
570.62	44598.91
570.78	43803.13
570.95	43796.10
571.11	44575.50
571.27	44095.69
571.43	43997.39
571.60	43868.66
571.76	44198.68
571.92	44261.87
572.09	43957.60
572.25	44142.50
572.41	44088.67
572.57	44212.72
572.74	44533.37
572.90	43985.69
573.06	44114.42
573.22	44404.64
573.38	44608.27
573.55	44119.10
573.71	44818.92
573.87	44231.44
574.03	44119.10
574.20	44533.37
574.36	44294.64
574.52	44140.16
574.68	44201.02
574.84	44570.82
575.01	44931.26
575.17	44357.83
575.33	44240.81
575.49	44069.95
575.65	44804.88
575.82	44568.48
575.98	44224.42
576.14	44933.60
576.30	44964.03
576.46	44893.82
576.62	44245.49
576.79	44619.97
576.95	44325.07
577.11	44332.09
577.27	44453.79
577.43	44154.21
577.59	44814.24
577.75	44516.99
577.92	44105.06
578.08	44556.78
578.24	44781.47
578.40	45113.83
578.56	44746.36
578.72	44479.54
578.88	44463.16
579.04	44708.91
579.21	44289.96
579.37	44804.88
579.53	45088.08
579.69	44404.64
579.85	44545.08
580.01	44685.51
580.17	44734.66
580.33	44959.35
580.49	44765.09
580.65	44516.99
580.82	44474.86
580.98	44701.89
581.14	44083.99
581.30	44657.42
581.46	44465.50
581.62	44130.80
581.78	44390.60
581.94	44907.86
582.10	44725.30
582.26	44758.06
582.42	44423.37
582.58	44839.98
582.74	44631.68
582.90	44308.68
583.06	44978.07
583.22	44545.08
583.38	44711.25
583.54	44790.83
583.70	44797.85
583.86	44832.96
584.02	44624.65
584.18	44854.03
584.34	44985.10
584.50	45132.55
584.66	44968.71
584.82	44945.31
584.98	45345.54
585.14	44928.92
585.30	44774.45
585.46	44727.64
585.62	44755.72
585.78	44610.61
585.94	44577.84
586.10	44919.56
586.26	44465.50
586.42	44725.30
586.58	44919.56
586.74	44800.19
586.90	44907.86
587.06	44584.86
587.22	45162.98
587.38	44617.63
587.54	45277.66
587.70	44903.18
587.86	45139.57
588.02	44959.35
588.18	45022.54
588.34	45319.79
588.49	44900.84
588.65	44608.27
588.81	44926.58
588.97	44870.41
589.13	45118.51
589.29	44907.86
589.45	45525.76
589.61	45385.33
589.77	45071.70
589.93	44966.37
590.08	45301.07
590.24	45551.51
