SpectraSuite Data File
++++++++++++++++++++++++++++++++++++
Date: Fri Oct 25 10:48:11 EDT 2013
User: price-jones
Dark Spectrum Present: No
Reference Spectrum Present: No
Number of Sampled Component Spectra: 1
Spectrometers: USB2+H05261
Integration Time (usec): 100000 (USB2+H05261)
Spectra Averaged: 1 (USB2+H05261)
Boxcar Smoothing: 0 (USB2+H05261)
Correct for Electrical Dark: No (USB2+H05261)
Strobe/Lamp Enabled: No (USB2+H05261)
Correct for Detector Non-linearity: No (USB2+H05261)
Correct for Stray Light: No (USB2+H05261)
Number of Pixels in Processed Spectrum: 2048
>>>>>Begin Processed Spectral Data<<<<<
365.73	161.50
365.92	161.50
366.12	161.50
366.32	121.71
366.52	63.19
366.72	0.00
366.91	16.38
367.11	65.54
367.31	9.36
367.51	25.75
367.70	37.45
367.90	56.17
368.10	51.49
368.30	91.28
368.49	49.15
368.69	86.60
368.89	37.45
369.09	100.64
369.28	114.69
369.48	4.68
369.68	121.71
369.87	142.77
370.07	95.96
370.27	81.92
370.47	231.71
370.66	315.97
370.86	433.00
371.06	444.70
371.25	510.24
371.45	451.72
371.65	442.36
371.84	477.47
372.04	442.36
372.24	449.38
372.44	437.68
372.63	472.79
372.83	585.13
373.03	500.87
373.22	538.32
373.42	496.19
373.62	571.09
373.81	535.98
374.01	531.30
374.21	519.60
374.40	603.86
374.60	540.66
374.79	601.52
374.99	512.58
375.19	498.53
375.38	561.73
375.58	505.56
375.78	482.15
375.97	615.56
376.17	648.33
376.37	550.03
376.56	585.13
376.76	543.00
376.95	655.35
377.15	622.58
377.35	629.60
377.54	608.54
377.74	585.13
377.93	580.45
378.13	664.71
378.33	599.18
378.52	634.29
378.72	608.54
378.91	645.99
379.11	615.56
379.31	627.26
379.50	622.58
379.70	678.76
379.89	587.47
380.09	601.52
380.28	645.99
380.48	678.76
380.68	608.54
380.87	613.22
381.07	638.97
381.26	678.76
381.46	678.76
381.65	587.47
381.85	674.07
382.04	674.07
382.24	664.71
382.43	657.69
382.63	676.41
382.83	683.44
383.02	765.36
383.22	723.23
383.41	660.03
383.61	697.48
383.80	795.78
384.00	641.31
384.19	765.36
384.39	699.82
384.58	758.33
384.78	805.14
384.97	758.33
385.17	755.99
385.36	706.84
385.56	753.65
385.75	819.19
385.95	830.89
386.14	793.44
386.34	819.19
386.53	636.63
386.72	763.01
386.92	835.57
387.11	816.85
387.31	770.04
387.50	734.93
387.70	816.85
387.89	873.02
388.09	905.79
388.28	875.36
388.48	858.98
388.67	849.61
388.86	887.06
389.06	779.40
389.25	800.46
389.45	866.00
389.64	943.24
389.84	901.11
390.03	863.66
390.22	896.43
390.42	954.94
390.61	877.70
390.81	896.43
391.00	976.00
391.19	950.26
391.39	943.24
391.58	1036.86
391.78	950.26
391.97	961.96
392.16	1008.77
392.36	1036.86
392.55	919.83
392.75	1006.43
392.94	922.17
393.13	933.87
393.33	983.02
393.52	1088.35
393.71	1011.11
393.91	1078.99
394.10	1015.79
394.29	1109.41
394.49	1142.18
394.68	1158.57
394.88	1095.37
395.07	1160.91
395.26	1050.90
395.46	1153.88
395.65	1029.84
395.84	1088.35
396.04	1107.07
396.23	1064.94
396.42	1062.60
396.62	1142.18
396.81	1205.38
397.00	1088.35
397.19	1090.69
397.39	1306.02
397.58	1186.65
397.77	1299.00
397.97	1217.08
398.16	1315.38
398.35	1317.72
398.55	1247.51
398.74	1350.49
398.93	1390.28
399.12	1364.53
399.32	1343.47
399.51	1331.76
399.70	1411.34
399.90	1369.21
400.09	1472.20
400.28	1542.41
400.47	1448.79
400.67	1446.45
400.86	1406.66
401.05	1474.54
401.24	1519.01
401.44	1392.62
401.63	1481.56
401.82	1502.62
402.01	1465.18
402.21	1451.13
402.40	1551.78
402.59	1497.94
402.78	1519.01
402.97	1533.05
403.17	1476.88
403.36	1507.30
403.55	1680.50
403.74	1650.08
403.93	1589.22
404.13	1724.97
404.32	1678.16
404.51	1633.69
404.70	1715.61
404.89	1666.46
405.09	1736.68
405.28	1727.32
405.47	1715.61
405.66	1748.38
405.85	1771.79
406.05	1816.26
406.24	1865.41
406.43	1776.47
406.62	1823.28
406.81	1867.75
407.00	1778.81
407.20	1839.66
407.39	1715.61
407.58	1863.07
407.77	1888.81
407.96	1863.07
408.15	2038.61
408.34	1888.81
408.54	2003.50
408.73	2052.65
408.92	2045.63
409.11	1996.48
409.30	2043.29
409.49	1961.37
409.68	2024.56
409.87	2059.67
410.07	2169.68
410.26	2094.78
410.45	2223.51
410.64	2195.42
410.83	2242.23
411.02	2214.15
411.21	2239.89
411.40	2249.25
411.59	2218.83
411.78	2319.47
411.98	2251.60
412.17	2424.80
412.36	2352.24
412.55	2333.51
412.74	2366.28
412.93	2406.07
413.12	2572.25
413.31	2525.44
413.50	2551.18
413.69	2546.50
413.88	2595.65
414.07	2621.40
414.26	2576.93
414.45	2567.57
414.64	2534.80
414.83	2649.49
415.02	2663.53
415.22	2712.68
415.41	2862.48
415.60	2729.06
415.79	2818.00
415.98	2904.60
416.17	2897.58
416.36	2803.96
416.55	2916.31
416.74	2960.78
416.93	2979.50
417.12	2998.23
417.31	3002.91
417.50	2953.76
417.69	3138.66
417.88	3087.17
418.07	3080.14
418.26	3213.56
418.45	3176.11
418.64	3105.89
418.83	3054.40
419.02	3117.59
419.21	3215.90
419.39	3187.81
419.58	3248.66
419.77	3272.07
419.96	3176.11
420.15	3344.63
420.34	3199.51
420.53	3269.73
420.72	3426.54
420.91	3391.44
421.10	3384.41
421.29	3466.33
421.48	3339.94
421.67	3501.44
421.86	3529.53
422.05	3522.51
422.24	3386.76
422.43	3475.70
422.61	3456.97
422.80	3611.45
422.99	3585.70
423.18	3510.80
423.37	3705.07
423.56	3559.95
423.75	3590.38
423.94	3489.74
424.13	3368.03
424.32	3391.44
424.50	3548.25
424.69	3599.74
424.88	3552.93
425.07	3463.99
425.26	3529.53
425.45	3599.74
425.64	3471.01
425.83	3543.57
426.01	3648.90
426.20	3543.57
426.39	3499.10
426.58	3438.25
426.77	3613.79
426.96	3552.93
427.15	3669.96
427.33	3679.32
427.52	3609.11
427.71	3702.73
427.90	3744.86
428.09	3740.18
428.28	3843.16
428.46	3679.32
428.65	3840.82
428.84	3831.46
429.03	3901.67
429.22	3765.92
429.40	3854.86
429.59	3831.46
429.78	3667.62
429.97	3714.43
430.16	3805.71
430.34	3955.51
430.53	3929.76
430.72	3880.61
430.91	3751.88
431.10	3939.12
431.28	4135.73
431.47	4102.96
431.66	4182.54
431.85	4063.17
432.03	4142.75
432.22	4276.16
432.41	4168.49
432.60	4173.18
432.79	4311.27
432.97	4292.54
433.16	4313.61
433.35	4215.30
433.54	4273.82
433.72	4297.22
433.91	4163.81
434.10	4229.35
434.28	4203.60
434.47	4374.46
434.66	4297.22
434.85	4442.34
435.03	4533.62
435.22	4407.23
435.41	4587.45
435.59	4645.96
435.78	4542.98
435.97	4594.47
436.16	4664.69
436.34	4557.02
436.53	4528.94
436.72	4500.85
436.90	4489.15
437.09	4720.86
437.28	4685.75
437.46	4681.07
437.65	4638.94
437.84	4667.03
438.02	4760.65
438.21	4664.69
438.40	4681.07
438.58	4884.70
438.77	4711.50
438.96	5083.64
439.14	4943.21
439.33	5088.32
439.52	5160.88
439.70	5123.43
439.89	5132.79
440.08	5107.05
440.26	5090.67
440.45	5153.86
440.63	5331.74
440.82	5336.42
441.01	5357.49
441.19	5373.87
441.38	5509.62
441.57	5575.16
441.75	5568.13
441.94	5383.23
442.12	5586.86
442.31	5659.42
442.50	5661.76
442.68	5706.23
442.87	5561.11
443.05	5577.50
443.24	5748.36
443.43	5661.76
443.61	5762.40
443.80	5877.09
443.98	5799.85
444.17	5614.95
444.35	5666.44
444.54	5827.93
444.73	5872.40
444.91	5849.00
445.10	5818.57
445.28	5839.64
445.47	5727.29
445.65	5909.85
445.84	5671.12
446.02	5942.62
446.21	5743.67
446.39	5841.98
446.58	6001.13
446.77	5813.89
446.95	5942.62
447.14	6033.90
447.32	6146.25
447.51	5776.44
447.69	6043.26
447.88	6064.33
448.06	5898.15
448.25	6017.52
448.43	6040.92
448.62	6076.03
448.80	6017.52
448.99	6113.48
449.17	6183.70
449.36	6033.90
449.54	6111.14
449.73	6473.92
449.91	6277.32
450.10	6389.66
450.28	6443.49
450.46	6413.07
450.65	6340.51
450.83	6422.43
451.02	6450.52
451.20	6415.41
451.39	6455.20
451.57	6370.94
451.76	6492.65
451.94	6462.22
452.13	6380.30
452.31	6445.84
452.49	6436.47
452.68	6586.27
452.86	6396.68
453.05	6724.36
453.23	6609.67
453.42	6581.59
453.60	6401.37
453.78	6548.82
453.97	6677.55
454.15	6546.48
454.34	6509.03
454.52	6726.70
454.70	6785.21
454.89	6913.94
455.07	6864.79
455.26	6930.33
455.44	6965.43
455.62	7016.93
455.81	6846.07
455.99	7098.84
456.17	6979.48
456.36	7157.36
456.54	7087.14
456.73	7094.16
456.91	7096.50
457.09	7148.00
457.28	7396.09
457.46	7281.41
457.64	7290.77
457.83	7318.86
458.01	7136.29
458.19	7531.84
458.38	7360.98
458.56	7648.87
458.74	7414.82
458.93	7412.48
459.11	7510.78
459.29	7543.55
459.48	7515.46
459.66	7618.44
459.84	7564.61
460.03	7655.89
460.21	7541.21
460.39	7700.36
460.57	7637.17
460.76	7719.09
460.94	7786.96
461.12	7683.98
461.31	7925.05
461.49	7676.96
461.67	7782.28
461.85	7859.52
462.04	7763.56
462.22	8329.97
462.40	8081.87
462.59	7913.35
462.77	8109.96
462.95	7859.52
463.13	8114.64
463.32	8187.19
463.50	8234.00
463.68	8215.28
463.86	8252.73
464.05	8114.64
464.23	7990.59
464.41	8203.58
464.59	8035.06
464.78	8386.14
464.96	8386.14
465.14	8264.43
465.32	8322.94
465.50	8243.37
465.69	8514.87
465.87	8299.54
466.05	8238.69
466.23	8217.62
466.41	8500.83
466.60	8606.15
466.78	8077.19
466.96	8418.91
467.14	8299.54
467.32	8580.40
467.51	8814.46
467.69	8465.72
467.87	8381.46
468.05	8671.68
468.23	8479.76
468.41	8489.12
468.60	8521.89
468.78	8678.71
468.96	8571.04
469.14	8791.05
469.32	8872.97
469.50	8472.74
469.69	8879.99
469.87	8936.17
470.05	8933.82
470.23	8999.36
470.41	8769.99
470.59	8964.25
470.77	8978.30
470.95	9081.28
471.14	9249.80
471.32	9060.21
471.50	9231.07
471.68	9184.26
471.86	9385.55
472.04	9392.57
472.22	9462.79
472.40	9104.68
472.58	9504.92
472.77	9455.76
472.95	9500.23
473.13	10012.81
473.31	9408.95
473.49	9425.34
473.67	9668.75
473.85	9680.46
474.03	9989.41
474.21	9958.98
474.39	10169.63
474.57	10010.47
474.75	9785.78
474.93	10366.23
475.12	10071.33
475.30	10366.23
475.48	10286.65
475.66	10221.12
475.84	10134.52
476.02	10527.73
476.20	10487.94
476.38	10733.70
476.56	10726.68
476.74	10654.12
476.92	10686.89
477.10	10806.25
477.28	10939.66
477.46	11049.67
477.64	11250.96
477.82	11176.06
478.00	11232.23
478.18	11360.96
478.36	11566.93
478.54	11751.83
478.72	11482.67
478.90	11836.09
479.08	11840.77
479.26	11894.60
479.44	12030.35
479.62	12145.04
479.80	11953.12
479.98	12266.75
480.16	12439.95
480.34	12248.02
480.52	12468.03
480.70	12610.81
480.88	12140.36
481.06	12472.71
481.24	12568.68
481.41	12727.83
481.59	13062.53
481.77	13137.43
481.95	13247.43
482.13	12985.29
482.31	13181.90
482.49	13706.18
482.67	13514.25
482.85	13841.93
483.03	13792.78
483.21	14029.17
483.39	14162.58
483.57	13933.21
483.74	14087.68
483.92	14422.38
484.10	14160.24
484.28	14298.33
484.46	14626.01
484.64	15192.42
484.82	14459.83
485.00	14874.10
485.18	14998.15
485.35	15342.21
485.53	14876.44
485.71	15033.26
485.89	15463.92
486.07	15379.66
486.25	15414.77
486.43	15578.61
486.61	15943.73
486.78	16081.82
486.96	16060.76
487.14	16252.68
487.32	16313.53
487.50	16540.57
487.68	16727.81
487.85	16863.56
488.03	16980.59
488.21	17060.16
488.39	17123.36
488.57	16903.35
488.75	17198.26
488.92	17387.84
489.10	17757.64
489.28	17783.39
489.46	17664.02
489.64	17926.16
489.81	18359.16
489.99	18321.71
490.17	18604.92
490.35	18569.81
490.53	18883.44
490.70	18902.17
490.88	18604.92
491.06	19286.01
491.24	19208.78
491.41	19159.63
491.59	19477.94
491.77	18904.51
491.95	19349.21
492.13	19616.03
492.30	19906.26
492.48	19800.93
492.66	20044.35
492.84	20353.30
493.01	20343.94
493.19	20304.15
493.37	20727.78
493.54	20652.89
493.72	20938.43
493.90	20758.21
494.08	20655.23
494.25	21195.89
494.43	21504.84
494.61	21392.50
494.79	21399.52
494.96	21678.04
495.14	21490.80
495.32	21584.42
495.49	21804.43
495.67	21701.45
495.85	21968.27
496.02	22150.83
496.20	22438.72
496.38	22284.24
496.55	22558.08
496.73	23456.85
496.91	23054.28
497.09	23080.02
497.26	23260.24
497.44	23161.94
497.62	23356.21
497.79	23344.50
497.97	23096.41
498.14	23365.57
498.32	23442.81
498.50	23964.75
498.67	24149.65
498.85	24016.24
499.03	24479.66
499.20	24156.67
499.38	24063.05
499.56	24261.99
499.73	24657.54
499.91	24402.43
500.08	24713.72
500.26	24493.71
500.44	24624.78
500.61	24669.25
500.79	24435.19
500.97	24664.57
501.14	25118.63
501.32	25551.63
501.49	25142.03
501.67	25439.28
501.84	25467.37
502.02	25483.75
502.20	25521.20
502.37	25898.03
502.55	25788.02
502.72	25965.90
502.90	25921.43
503.07	25855.90
503.25	25914.41
503.43	25802.07
503.60	26223.36
503.78	26003.35
503.95	26270.17
504.13	26600.19
504.30	26721.90
504.48	26506.57
504.65	26906.80
504.83	27065.96
505.01	27009.78
505.18	27131.49
505.36	27271.92
505.53	27152.55
505.71	27625.34
505.88	27632.36
506.06	27182.98
506.23	27513.00
506.41	27410.01
506.58	27744.71
506.76	27733.01
506.93	27697.90
507.11	27805.56
507.28	27908.55
507.46	28093.45
507.63	28210.48
507.81	28500.70
507.98	27817.27
508.16	28161.33
508.33	28657.52
508.50	28556.88
508.68	28329.84
508.85	28940.72
509.03	28704.33
509.20	29120.95
509.38	29097.54
509.55	28767.52
509.73	29050.73
509.90	28968.81
510.08	29256.70
510.25	29181.80
510.42	29046.05
510.60	29603.10
510.77	29661.61
510.95	29345.64
511.12	29923.75
511.30	29944.81
511.47	30167.16
511.64	30249.08
511.82	30148.44
511.99	29780.98
512.17	30401.22
512.34	29809.06
512.51	30293.55
512.69	30457.39
512.86	30586.12
513.04	30862.30
513.21	30726.55
513.38	30494.84
513.56	30326.32
513.73	30436.33
513.90	30815.49
514.08	30822.51
514.25	31044.87
514.43	31063.59
514.60	31229.77
514.77	31182.96
514.95	31328.07
515.12	31201.68
515.29	31541.06
515.47	31658.09
515.64	31723.62
515.81	31644.04
515.99	31718.94
516.16	31583.19
516.33	31445.10
516.51	31536.38
516.68	31285.94
516.85	31534.04
517.03	31943.63
517.20	31983.42
517.37	32058.32
517.54	32301.73
517.72	32507.70
517.89	31999.80
518.06	32130.87
518.24	32446.85
518.41	31999.80
518.58	32463.23
518.75	32116.83
518.93	32905.59
519.10	32638.77
519.27	32725.37
519.45	32882.19
519.62	32957.08
519.79	32851.76
519.96	32861.12
520.14	33682.65
520.31	33118.58
520.48	33399.44
520.65	33383.06
520.83	33455.62
521.00	33677.97
521.17	33432.21
521.34	33802.02
521.52	34033.73
521.69	33773.93
521.86	33832.44
522.03	34220.97
522.20	34157.78
522.38	34272.46
522.55	34532.26
522.72	34574.39
522.89	34134.37
523.07	34712.49
523.24	34787.38
523.41	34761.64
523.58	34239.70
523.75	34974.63
523.92	34719.51
524.10	34782.70
524.27	35257.83
524.44	35143.14
524.61	35068.25
524.78	35005.05
524.96	35033.14
525.13	35005.05
525.30	35952.97
525.47	35475.50
525.64	35285.92
525.81	35124.42
525.98	35463.80
526.16	35328.05
526.33	35419.33
526.50	36070.00
526.67	35316.34
526.84	35189.95
527.01	35512.95
527.18	35627.63
527.36	36493.63
527.53	36020.84
527.70	36336.82
527.87	36203.41
528.04	36589.59
528.21	35424.01
528.38	36245.54
528.55	36517.04
528.72	36486.61
528.89	36563.85
529.07	36545.12
529.24	36275.96
529.41	36737.05
529.58	36315.75
529.75	36409.37
529.92	36491.29
530.09	36837.69
530.26	36875.14
530.43	36746.41
530.60	36940.68
530.77	36868.12
530.94	37095.15
531.11	36765.14
531.28	37427.51
531.46	37017.91
531.63	37586.66
531.80	37048.34
531.97	37266.01
532.14	37345.59
532.31	37399.42
532.48	37635.81
532.65	37825.40
532.82	37785.61
532.99	38005.62
533.16	37497.72
533.33	37373.67
533.50	38129.67
533.67	37846.46
533.84	37399.42
534.01	38031.36
534.18	37748.16
534.35	38349.68
534.52	37778.59
534.69	38024.34
534.86	38302.87
535.03	38052.43
535.20	38483.09
535.37	38534.58
535.54	38665.65
535.71	38398.83
535.88	38476.07
536.05	38398.83
536.22	38871.62
536.38	38459.68
536.55	38761.61
536.72	38948.85
536.89	38672.67
537.06	38667.99
537.23	38670.33
537.40	38593.09
537.57	39005.03
537.74	38663.31
537.91	39332.70
538.08	39234.40
538.25	38553.30
538.42	38841.19
538.59	39262.49
538.75	38806.08
538.92	39433.35
539.09	39480.16
539.26	39391.22
539.43	39510.58
539.60	39950.60
539.77	39381.85
539.94	39229.72
540.11	39510.58
540.28	39487.18
540.44	39651.02
540.61	39431.01
540.78	39716.55
540.95	39419.30
541.12	39620.59
541.29	39489.52
541.46	39892.09
541.62	39924.86
541.79	39690.80
541.96	40034.86
542.13	40224.45
542.30	40486.59
542.47	40245.51
542.63	40224.45
542.80	40636.38
542.97	40531.06
543.14	40814.26
543.31	40570.85
543.48	40528.72
543.64	40907.88
543.81	40935.97
543.98	40825.96
544.15	40715.96
544.32	40971.08
544.48	40886.82
544.65	40701.92
544.82	41209.81
544.99	40727.66
545.16	40942.99
545.32	40825.96
545.49	41497.70
545.66	41181.73
545.83	41060.02
546.00	41511.74
546.16	41280.03
546.33	41329.18
546.50	41151.30
546.67	40952.35
546.83	40587.23
547.00	41558.55
547.17	41542.17
547.34	41268.33
547.50	41642.81
547.67	41460.25
547.84	41338.54
548.00	41937.72
548.17	41708.35
548.34	41289.39
548.51	42106.24
548.67	42094.53
548.84	41750.48
549.01	41825.37
549.18	41603.02
549.34	41991.55
549.51	42267.73
549.68	41996.23
549.84	41722.39
550.01	42450.30
550.18	41249.60
550.34	41654.51
550.51	42241.99
550.68	41933.04
550.84	41663.88
551.01	42199.86
551.18	42059.43
551.34	42307.52
551.51	42195.18
551.68	42347.31
551.84	42115.60
552.01	42485.40
552.18	42323.91
552.34	41937.72
552.51	42459.66
552.68	42286.46
552.84	42770.95
553.01	42806.06
553.18	42625.84
553.34	42225.60
553.51	42328.59
553.67	42501.79
553.84	42703.07
554.01	42784.99
554.17	42953.51
554.34	43313.95
554.51	42726.48
554.67	42962.87
554.84	42754.57
555.00	43016.71
555.17	42382.42
555.33	42897.34
555.50	43093.94
555.67	42557.96
555.83	43026.07
556.00	43203.95
556.16	43290.55
556.33	43374.81
556.50	43320.98
556.66	43227.35
556.83	43033.09
556.99	43196.93
557.16	43164.16
557.32	43175.86
557.49	43182.88
557.65	42843.51
557.82	43260.12
557.98	43398.21
558.15	43562.05
558.32	43330.34
558.48	43335.02
558.65	43239.06
558.81	43192.25
558.98	43339.70
559.14	43367.79
559.31	42986.28
559.47	43367.79
559.64	43683.76
559.80	43917.81
559.97	43995.05
560.13	43445.02
560.30	43501.20
560.46	43496.52
560.63	43758.66
560.79	44109.74
560.96	43531.62
561.12	43732.91
561.29	43889.73
561.45	43786.74
561.61	43580.78
561.78	44004.41
561.94	43454.39
562.11	43683.76
562.27	43707.16
562.44	43709.50
562.60	44175.27
562.77	43992.71
562.93	43721.21
563.10	44060.58
563.26	44105.06
563.42	44046.54
563.59	43995.05
563.75	43824.19
563.92	44128.46
564.08	43931.86
564.24	44421.03
564.41	44369.54
564.57	43592.48
564.74	44460.82
564.90	44121.44
565.07	44006.75
565.23	44095.69
565.39	43807.81
565.56	44289.96
565.72	43732.91
565.88	44137.82
566.05	44179.95
566.21	44222.08
566.38	43969.30
566.54	43765.68
566.70	44229.10
566.87	44641.04
567.03	44465.50
567.19	44566.14
567.36	44659.76
567.52	44334.43
567.68	44383.58
567.85	44318.04
568.01	44790.83
568.17	44439.75
568.34	44465.50
568.50	44128.46
568.66	44516.99
568.83	44081.65
568.99	44133.14
569.15	44004.41
569.32	44046.54
569.48	43871.00
569.64	44236.12
569.81	44605.93
569.97	44402.30
570.13	44308.68
570.30	44334.43
570.46	44032.50
570.62	43929.51
570.78	44177.61
570.95	44149.53
571.11	44612.95
571.27	44072.29
571.43	44102.71
571.60	44856.37
571.76	44259.53
571.92	44240.81
572.09	44369.54
572.25	44233.78
572.41	44484.22
572.57	44247.83
572.74	45067.02
572.90	44854.03
573.06	44528.69
573.22	44449.11
573.38	44411.67
573.55	44486.56
573.71	44437.41
573.87	44535.71
574.03	43917.81
574.20	44634.02
574.36	44350.81
574.52	44390.60
574.68	44390.60
574.84	44924.24
575.01	44704.23
575.17	44161.23
575.33	44318.04
575.49	44470.18
575.65	44545.08
575.82	44809.56
575.98	44619.97
576.14	44676.15
576.30	44800.19
576.46	44163.57
576.62	44397.62
576.79	44437.41
576.95	43992.71
577.11	44229.10
577.27	44889.13
577.43	44739.34
577.59	44465.50
577.75	44446.77
577.92	44102.71
578.08	44388.26
578.24	44226.76
578.40	44460.82
578.56	44568.48
578.72	44598.91
578.88	44554.44
579.04	44940.63
579.21	44645.72
579.37	44662.10
579.53	44631.68
579.69	44755.72
579.85	44584.86
580.01	44552.10
580.17	44758.06
580.33	45036.59
580.49	44863.39
580.65	45043.61
580.82	45078.72
580.98	44318.04
581.14	44224.42
581.30	44992.12
581.46	44839.98
581.62	44924.24
581.78	44374.22
581.94	44835.30
582.10	44779.13
582.26	44746.36
582.42	44900.84
582.58	44662.10
582.74	44706.57
582.90	44729.98
583.06	44744.02
583.22	45111.49
583.38	44926.58
583.54	44971.05
583.70	44907.86
583.86	44912.54
584.02	44474.86
584.18	44676.15
584.34	44858.71
584.50	44666.78
584.66	44886.79
584.82	44746.36
584.98	45364.26
585.14	44744.02
585.30	44861.05
585.46	44945.31
585.62	44687.85
585.78	44821.26
585.94	44339.11
586.10	44652.74
586.26	44928.92
586.42	45413.41
586.58	44935.95
586.74	44708.91
586.90	44704.23
587.06	44837.64
587.22	44816.58
587.38	44402.30
587.54	45010.84
587.70	45427.46
587.86	45027.23
588.02	44488.90
588.18	44713.59
588.34	44687.85
588.49	45083.40
588.65	44655.08
588.81	44737.00
588.97	44732.32
589.13	45184.04
589.29	44816.58
589.45	45214.47
589.61	45572.57
589.77	45113.83
589.93	45045.95
590.08	45338.52
590.24	45045.95
