SpectraSuite Data File
++++++++++++++++++++++++++++++++++++
Date: Fri Oct 25 11:26:23 EDT 2013
User: price-jones
Dark Spectrum Present: No
Reference Spectrum Present: No
Number of Sampled Component Spectra: 1
Spectrometers: USB2+H05261
Integration Time (usec): 100000 (USB2+H05261)
Spectra Averaged: 1 (USB2+H05261)
Boxcar Smoothing: 0 (USB2+H05261)
Correct for Electrical Dark: No (USB2+H05261)
Strobe/Lamp Enabled: No (USB2+H05261)
Correct for Detector Non-linearity: No (USB2+H05261)
Correct for Stray Light: No (USB2+H05261)
Number of Pixels in Processed Spectrum: 2048
>>>>>Begin Processed Spectral Data<<<<<
365.73	245.76
365.92	245.76
366.12	245.76
366.32	175.54
366.52	140.43
366.72	173.20
366.91	175.54
367.11	119.37
367.31	100.64
367.51	121.71
367.70	112.35
367.90	182.56
368.10	133.41
368.30	105.32
368.49	131.07
368.69	131.07
368.89	217.67
369.09	110.01
369.28	187.24
369.48	112.35
369.68	177.88
369.87	229.37
370.07	266.82
370.27	271.50
370.47	367.46
370.66	564.07
370.86	613.22
371.06	645.99
371.25	725.57
371.45	702.16
371.65	695.14
371.84	681.10
372.04	697.48
372.24	671.73
372.44	704.50
372.63	709.18
372.83	662.37
373.03	720.88
373.22	699.82
373.42	816.85
373.62	753.65
373.81	814.51
374.01	891.74
374.21	823.87
374.40	805.14
374.60	844.93
374.79	840.25
374.99	819.19
375.19	772.38
375.38	847.27
375.58	889.40
375.78	854.30
375.97	851.96
376.17	926.85
376.37	889.40
376.56	870.68
376.76	863.66
376.95	828.55
377.15	826.21
377.35	936.21
377.54	896.43
377.74	882.38
377.93	875.36
378.13	884.72
378.33	898.77
378.52	819.19
378.72	891.74
378.91	954.94
379.11	964.30
379.31	940.90
379.50	940.90
379.70	971.32
379.89	976.00
380.09	1020.47
380.28	971.32
380.48	940.90
380.68	978.34
380.87	915.15
381.07	1069.62
381.26	1088.35
381.46	952.60
381.65	1004.09
381.85	1076.65
382.04	1032.18
382.24	1015.79
382.43	1095.37
382.63	1036.86
382.83	1008.77
383.02	1107.07
383.22	1067.28
383.41	1062.60
383.61	1071.97
383.80	1158.57
384.00	1135.16
384.19	1088.35
384.39	1196.01
384.58	1165.59
384.78	1135.16
384.97	1165.59
385.17	1090.69
385.36	1160.91
385.56	1245.16
385.75	1118.78
385.95	1123.46
386.14	1111.75
386.34	1181.97
386.53	1207.72
386.72	1156.22
386.92	1245.16
387.11	1247.51
387.31	1078.99
387.50	1186.65
387.70	1224.10
387.89	1275.59
388.09	1221.76
388.28	1242.82
388.48	1289.64
388.67	1280.27
388.86	1331.76
389.06	1345.81
389.25	1306.02
389.45	1200.69
389.64	1397.30
389.84	1345.81
390.03	1334.11
390.22	1369.21
390.42	1486.24
390.61	1338.79
390.81	1383.26
391.00	1413.68
391.19	1439.43
391.39	1380.92
391.58	1444.11
391.78	1437.09
391.97	1432.41
392.16	1486.24
392.36	1521.35
392.55	1511.99
392.75	1547.09
392.94	1465.18
393.13	1568.16
393.33	1458.15
393.52	1507.30
393.71	1511.99
393.91	1575.18
394.10	1610.29
394.29	1533.05
394.49	1650.08
394.68	1584.54
394.88	1514.33
395.07	1633.69
395.26	1612.63
395.46	1645.40
395.65	1624.33
395.84	1607.95
396.04	1687.53
396.23	1671.14
396.42	1724.97
396.62	1739.02
396.81	1811.57
397.00	1774.13
397.19	1785.83
397.39	1799.87
397.58	1680.50
397.77	1799.87
397.97	1811.57
398.16	1795.19
398.35	1916.90
398.55	1884.13
398.74	1935.62
398.93	1973.07
399.12	1893.49
399.32	1980.09
399.51	1954.35
399.70	2087.76
399.90	1888.81
400.09	1989.46
400.28	2097.12
400.47	2087.76
400.67	2186.06
400.86	2008.18
401.05	2059.67
401.24	2207.13
401.44	2150.95
401.63	2186.06
401.82	2092.44
402.01	2111.16
402.21	2012.86
402.40	2202.44
402.59	2134.57
402.78	2165.00
402.97	2122.87
403.17	2190.74
403.36	2228.19
403.55	2307.77
403.74	2321.81
403.93	2347.56
404.13	2267.98
404.32	2211.81
404.51	2401.39
404.70	2478.63
404.89	2321.81
405.09	2427.14
405.28	2406.07
405.47	2417.77
405.66	2530.12
405.85	2466.92
406.05	2511.39
406.24	2499.69
406.43	2567.57
406.62	2621.40
406.81	2633.10
407.00	2427.14
407.20	2583.95
407.39	2513.74
407.58	2722.04
407.77	2672.89
407.96	2843.75
408.15	2696.30
408.34	2754.81
408.54	2724.38
408.73	2799.28
408.92	2794.60
409.11	2822.69
409.30	2757.15
409.49	2930.35
409.68	2958.44
409.87	2829.71
410.07	2972.48
410.26	2897.58
410.45	2862.48
410.64	3019.29
410.83	3112.91
411.02	3040.36
411.21	3110.57
411.40	3061.42
411.59	3169.09
411.78	3091.85
411.98	3269.73
412.17	3119.93
412.36	3178.45
412.55	3311.86
412.74	3407.82
412.93	3382.07
413.12	3321.22
413.31	3576.34
413.50	3438.25
413.69	3400.80
413.88	3564.64
414.07	3627.83
414.26	3641.87
414.45	3662.94
414.64	3693.37
414.83	3651.24
415.02	3779.97
415.22	3901.67
415.41	3824.44
415.60	3843.16
415.79	3836.14
415.98	3915.72
416.17	3995.29
416.36	3964.87
416.55	3941.46
416.74	4142.75
416.93	4056.15
417.12	4030.40
417.31	4081.89
417.50	4025.72
417.69	4269.14
417.88	4278.50
418.07	4201.26
418.26	4278.50
418.45	4435.32
418.64	4353.40
418.83	4339.35
419.02	4322.97
419.21	4397.87
419.39	4472.76
419.58	4482.13
419.77	4496.17
419.96	4568.73
420.15	4660.01
420.34	4596.81
420.53	4456.38
420.72	4620.22
420.91	4617.88
421.10	4744.27
421.29	4784.06
421.48	4765.33
421.67	4870.65
421.86	4685.75
422.05	4718.52
422.24	4599.15
422.43	4676.39
422.61	4793.42
422.80	4908.10
422.99	4865.97
423.18	4975.98
423.37	4985.34
423.56	4985.34
423.75	4847.25
423.94	4732.56
424.13	4657.67
424.32	4854.27
424.50	4999.38
424.69	4954.91
424.88	5118.75
425.07	4870.65
425.26	4784.06
425.45	4992.36
425.64	4966.62
425.83	4760.65
426.01	4894.06
426.20	5013.43
426.39	4945.55
426.58	5025.13
426.77	4887.04
426.96	5081.30
427.15	5025.13
427.33	5142.16
427.52	5097.69
427.71	5207.69
427.90	5085.98
428.09	5256.84
428.28	5198.33
428.46	5331.74
428.65	5273.23
428.84	5397.28
429.03	5497.92
429.22	5305.99
429.40	5334.08
429.59	5582.18
429.78	5259.18
429.97	5317.70
430.16	5514.30
430.34	5423.02
430.53	5621.97
430.72	5650.05
430.91	5472.17
431.10	5547.07
431.28	5717.93
431.47	5682.82
431.66	5767.08
431.85	5703.89
432.03	5818.57
432.22	5832.62
432.41	5790.49
432.60	5874.74
432.79	6054.97
432.97	5991.77
433.16	5940.28
433.35	6008.16
433.54	5989.43
433.72	5975.39
433.91	6043.26
434.10	6040.92
434.28	6122.84
434.47	6113.48
434.66	6150.93
434.85	6256.25
435.03	6223.48
435.22	6230.51
435.41	6464.56
435.59	6249.23
435.78	6314.77
435.97	6438.81
436.16	6335.83
436.34	6164.97
436.53	6359.24
436.72	6649.46
436.90	6319.45
437.09	6588.61
437.28	6555.84
437.46	6661.16
437.65	6635.42
437.84	6590.95
438.02	6633.08
438.21	6609.67
438.40	6616.69
438.58	6834.36
438.77	7005.22
438.96	6895.22
439.14	7234.60
439.33	7103.53
439.52	7112.89
439.70	7133.95
439.89	7077.78
440.08	7339.92
440.26	7344.60
440.45	7461.63
440.63	7412.48
440.82	7606.74
441.01	7630.15
441.19	7449.93
441.38	7613.76
441.57	7723.77
441.75	7669.94
441.94	7871.22
442.12	7756.54
442.31	7974.21
442.50	8046.76
442.68	7602.06
442.87	7967.18
443.05	8039.74
443.24	8145.06
443.43	8084.21
443.61	8142.72
443.80	8224.64
443.98	8203.58
444.17	7955.48
444.35	8046.76
444.54	8320.60
444.73	8264.43
444.91	8149.75
445.10	8156.77
445.28	8294.86
445.47	8290.18
445.65	8332.31
445.84	8379.12
446.02	8411.89
446.21	8236.35
446.39	8290.18
446.58	8344.01
446.77	8283.16
446.95	8231.66
447.14	8175.49
447.32	8231.66
447.51	8606.15
447.69	8547.64
447.88	8559.34
448.06	8456.36
448.25	8451.67
448.43	8601.47
448.62	8430.61
448.80	8575.72
448.99	8713.81
449.17	8659.98
449.36	8655.30
449.54	8837.86
449.73	9057.87
449.91	8926.80
450.10	8896.38
450.28	8978.30
450.46	8753.60
450.65	9146.81
450.83	9104.68
451.02	8884.67
451.20	8982.98
451.39	9085.96
451.57	9177.24
451.76	9303.63
451.94	9123.41
452.13	9270.86
452.31	9156.18
452.49	9156.18
452.68	9544.70
452.86	9240.44
453.05	9427.68
453.23	9277.88
453.42	9341.08
453.60	9144.47
453.78	9348.10
453.97	9432.36
454.15	9305.97
454.34	9479.17
454.52	9731.95
454.70	9682.80
454.89	9668.75
455.07	9605.56
455.26	9657.05
455.44	9790.46
455.62	9818.55
455.81	9706.20
455.99	9858.34
456.17	10071.33
456.36	9881.74
456.54	9991.75
456.73	10235.16
456.91	10164.95
457.09	10342.83
457.28	10279.63
457.46	10340.49
457.64	10548.79
457.83	10494.96
458.01	10279.63
458.19	10672.84
458.38	10384.96
458.56	10824.98
458.74	10822.64
458.93	10452.83
459.11	10611.99
459.29	10717.31
459.48	10745.40
459.66	10478.58
459.84	10906.90
460.03	10934.98
460.21	10899.87
460.39	10703.27
460.57	10801.57
460.76	11007.54
460.94	10998.18
461.12	11021.58
461.31	11330.53
461.49	11152.65
461.67	11105.84
461.85	11281.38
462.04	11122.23
462.22	11637.14
462.40	11606.72
462.59	11410.11
462.77	11330.53
462.95	11555.22
463.13	11220.53
463.32	11473.31
463.50	11527.14
463.68	11548.20
463.86	11648.85
464.05	11506.07
464.23	11494.37
464.41	11941.41
464.59	11595.01
464.78	12255.04
464.96	11903.96
465.14	11698.00
465.32	11693.32
465.50	11772.89
465.69	12180.15
465.87	11964.82
466.05	12152.06
466.23	11805.66
466.41	12091.21
466.60	12341.64
466.78	12250.36
466.96	12011.63
467.14	12262.07
467.32	12320.58
467.51	12643.57
467.69	12250.36
467.87	12526.55
468.05	12358.03
468.23	12327.60
468.41	12362.71
468.60	12765.28
468.78	12634.21
468.96	12456.33
469.14	12678.68
469.32	12746.56
469.50	12517.18
469.69	12739.54
469.87	13048.49
470.05	12978.27
470.23	12870.61
470.41	13053.17
470.59	13221.69
470.77	13188.92
470.95	13090.62
471.14	13493.19
471.32	12940.82
471.50	13488.51
471.68	13448.72
471.86	13355.10
472.04	13603.19
472.22	13806.82
472.40	13507.23
472.58	13554.04
472.77	13755.33
472.95	13893.42
473.13	14288.97
473.31	13724.90
473.49	13933.21
473.67	13916.83
473.85	13898.10
474.03	14391.95
474.21	14504.30
474.39	14586.22
474.57	14780.48
474.75	14710.27
474.93	14963.04
475.12	14831.97
475.30	15194.76
475.48	14747.72
475.66	15318.81
475.84	14930.28
476.02	15419.45
476.20	15433.49
476.38	15875.85
476.56	15704.99
476.74	15709.68
476.92	15803.30
477.10	15627.76
477.28	15953.09
477.46	16053.73
477.64	16381.41
477.82	16507.80
478.00	16774.62
478.18	16456.31
478.36	16865.90
478.54	17139.74
478.72	17212.30
478.90	17163.15
479.08	17331.67
479.26	17605.51
479.44	17680.41
479.62	17596.15
479.80	17970.63
479.98	17937.87
480.16	18340.44
480.34	18054.89
480.52	18291.29
480.70	18422.36
480.88	18331.08
481.06	18593.22
481.24	18728.97
481.41	18986.43
481.59	19300.06
481.77	19524.75
481.95	19426.45
482.13	19400.70
482.31	19742.42
482.49	19960.09
482.67	20032.65
482.85	20070.09
483.03	20369.68
483.21	20538.20
483.39	21008.65
483.57	20643.52
483.74	20954.82
483.92	21261.43
484.10	21092.91
484.28	21635.91
484.46	21727.19
484.64	22307.65
484.82	21682.72
485.00	22293.60
485.18	22586.17
485.35	23143.22
485.53	22412.97
485.71	22471.48
485.89	23445.15
486.07	23124.49
486.25	23192.37
486.43	23482.59
486.61	23985.81
486.78	23854.74
486.96	24144.97
487.14	24187.10
487.32	24224.54
487.50	24631.80
487.68	24545.20
487.85	25113.95
488.03	25348.00
488.21	25324.60
488.39	25575.03
488.57	25862.92
488.75	25530.56
488.92	26305.28
489.10	26614.23
489.28	26356.77
489.46	26906.80
489.64	26476.14
489.81	27152.55
489.99	27248.52
490.17	27197.02
490.35	27789.18
490.53	27861.74
490.70	28367.29
490.88	28158.99
491.06	28479.64
491.24	28706.67
491.41	28631.77
491.59	28872.85
491.77	29266.06
491.95	29228.61
492.13	29560.97
492.30	29596.07
492.48	29776.30
492.66	30005.67
492.84	29965.88
493.01	30513.56
493.19	30670.38
493.37	30991.03
493.54	30813.15
493.72	31068.27
493.90	30876.35
494.08	31747.03
494.25	31922.57
494.43	31723.62
494.61	31824.26
494.79	32332.16
494.96	31814.90
495.14	32367.27
495.32	32257.26
495.49	32837.72
495.67	32793.25
495.85	33240.29
496.02	33525.83
496.20	33692.01
496.38	33680.31
496.55	34047.77
496.73	34391.83
496.91	34281.83
497.09	34429.28
497.26	34686.74
497.44	34787.38
497.62	34967.60
497.79	35419.33
497.97	34920.79
498.14	35278.89
498.32	35599.55
498.50	35482.52
498.67	35796.15
498.85	36339.16
499.03	35990.42
499.20	36540.44
499.38	36495.97
499.56	36423.42
499.73	36748.75
499.91	36886.84
500.08	37336.23
500.26	37062.38
500.44	37511.77
500.61	37502.40
500.79	37186.43
500.97	38040.73
501.14	38157.75
501.32	38007.96
501.49	37935.40
501.67	37954.13
501.84	38864.60
502.02	38251.38
502.20	38700.76
502.37	38878.64
502.55	39058.86
502.72	39393.56
502.90	39262.49
503.07	39103.33
503.25	39646.33
503.43	39770.38
503.60	39756.34
503.78	39445.05
503.95	39999.76
504.13	39913.16
504.30	40250.19
504.48	40229.13
504.65	40498.29
504.83	40350.84
505.01	41179.39
505.18	40926.61
505.36	41055.34
505.53	40896.18
505.71	41198.11
505.88	41137.26
506.06	41256.62
506.23	42054.75
506.41	41652.17
506.58	41661.54
506.76	42082.83
506.93	41780.90
507.11	42007.94
507.28	42368.38
507.46	42199.86
507.63	42658.60
507.81	42934.79
507.98	42667.97
508.16	42162.41
508.33	43012.02
508.50	43044.79
508.68	43318.64
508.85	43772.70
509.03	43629.93
509.20	43379.49
509.38	44074.63
509.55	43927.17
509.73	44163.57
509.90	44715.93
510.08	44683.17
510.25	44325.07
510.42	44105.06
510.60	44362.51
510.77	44545.08
510.95	45099.78
511.12	44587.21
511.30	44472.52
511.47	45071.70
511.64	45415.76
511.82	45476.61
511.99	45137.23
512.17	45731.73
512.34	45457.88
512.51	46087.49
512.69	46272.39
512.86	46284.09
513.04	46333.24
513.21	46021.95
513.38	46583.68
513.56	46518.15
513.73	46597.73
513.90	46604.75
514.08	47159.45
514.25	47068.17
514.43	46894.97
514.60	47114.98
514.77	47026.04
514.95	47269.46
515.12	47421.59
515.29	47257.76
515.47	47529.26
515.64	47526.92
515.81	47592.45
515.99	47611.18
516.16	47924.81
516.33	48048.86
516.51	48011.41
516.68	48257.17
516.85	47983.32
517.03	48107.37
517.20	48470.15
517.37	48444.41
517.54	48800.17
517.72	48603.56
517.89	48966.35
518.06	48713.57
518.24	48809.53
518.41	48795.49
518.58	48914.86
518.75	49013.16
518.93	49230.83
519.10	48987.41
519.27	49909.58
519.45	49539.78
519.62	49645.10
519.79	49617.02
519.96	50035.97
520.14	50028.95
520.31	49717.66
520.48	50164.70
520.65	49822.98
520.83	50405.78
521.00	50064.06
521.17	50134.28
521.34	50370.67
521.52	50321.52
521.69	50454.93
521.86	50534.51
522.03	50894.95
522.20	50995.59
522.38	51356.03
522.55	51124.32
522.72	50862.18
522.89	50859.84
523.07	51468.38
523.24	50958.14
523.41	51318.59
523.58	51131.34
523.75	51554.98
523.92	51428.59
524.10	51341.99
524.27	51728.18
524.44	51760.95
524.61	51704.77
524.78	51861.59
524.96	51952.87
525.13	51962.23
525.30	52229.05
525.47	51999.68
525.64	52238.42
525.81	52217.35
525.98	52727.59
526.16	52147.14
526.33	52130.75
526.50	52629.29
526.67	52715.89
526.84	52687.80
527.01	52481.83
527.18	52793.12
527.36	52949.94
527.53	52882.06
527.70	53034.20
527.87	52956.96
528.04	53078.67
528.21	53116.12
528.38	52992.07
528.55	53212.08
528.72	53176.97
528.89	53450.81
529.07	53172.29
529.24	53275.27
529.41	53614.65
529.58	53331.45
529.75	53066.97
529.92	53457.84
530.09	53382.94
530.26	53572.52
530.43	53656.78
530.60	53497.62
530.77	53682.53
530.94	53734.02
531.11	53790.19
531.28	54183.40
531.46	53808.92
531.63	53785.51
531.80	54192.76
531.97	54122.55
532.14	54045.31
532.31	54054.67
532.48	54277.02
532.65	54131.91
532.82	54239.57
532.99	54632.78
533.16	54321.49
533.33	54700.66
533.50	54604.70
533.67	54618.74
533.84	54389.37
534.01	54831.73
534.18	54471.29
534.35	55072.81
534.52	54852.80
534.69	54918.33
534.86	54735.77
535.03	54953.44
535.20	54852.80
535.37	55143.02
535.54	54997.91
535.71	54988.55
535.88	55290.48
536.05	55082.17
536.22	55625.17
536.38	55491.76
536.55	55243.66
536.72	55192.17
536.89	55290.48
537.06	55372.39
537.23	55561.98
537.40	55367.71
537.57	55512.83
537.74	55412.18
537.91	55505.80
538.08	55643.90
538.25	55554.96
538.42	55416.86
538.59	55786.67
538.75	55494.10
538.92	55650.92
539.09	55817.10
539.26	55884.97
539.43	55620.49
539.60	56023.06
539.77	55948.17
539.94	56540.32
540.11	56254.78
540.28	56109.66
540.44	56046.47
540.61	56088.60
540.78	56224.35
540.95	56332.01
541.12	56275.84
541.29	55973.91
541.46	56041.79
541.62	56364.78
541.79	56453.72
541.96	55866.25
542.13	56444.36
542.30	56444.36
542.47	56729.90
542.63	56484.15
542.80	56669.05
542.97	56767.35
543.14	56849.27
543.31	56910.13
543.48	56781.40
543.64	57228.44
543.81	57354.83
543.98	57097.37
544.15	56942.89
544.32	57282.27
544.48	57256.53
544.65	56947.57
544.82	57045.88
544.99	57111.41
545.16	57303.34
545.32	57139.50
545.49	57567.82
545.66	57261.21
545.83	57340.78
546.00	57310.36
546.16	57401.64
546.33	57284.61
546.50	57071.62
546.67	57666.12
546.83	57279.93
547.00	57478.88
547.17	57443.77
547.34	57518.67
547.50	57993.79
547.67	57668.46
547.84	57593.56
548.00	57886.13
548.17	57972.73
548.34	57790.17
548.51	57930.60
548.67	58192.74
548.84	58117.84
549.01	57806.55
549.18	57698.89
549.34	58026.56
549.51	58164.65
549.68	58110.82
549.84	58115.50
550.01	58164.65
550.18	58120.18
550.34	58192.74
550.51	58267.64
550.68	58085.07
550.84	57961.03
551.01	58592.97
551.18	58258.27
551.34	58260.62
551.51	58351.90
551.68	58588.29
551.84	58314.45
552.01	58291.04
552.18	58255.93
552.34	58363.60
552.51	58607.01
552.68	58232.53
552.84	58532.12
553.01	58824.68
553.18	58585.95
553.34	58855.11
553.51	58726.38
553.67	58585.95
553.84	58747.45
554.01	58859.79
554.17	58576.59
554.34	58747.45
554.51	58775.53
554.67	58883.20
554.84	58770.85
555.00	58878.52
555.17	58824.68
555.33	58948.73
555.50	58504.03
555.67	58887.88
555.83	58787.24
556.00	58787.24
556.16	59138.32
556.33	58967.46
556.50	59000.22
556.66	59217.89
556.83	58918.31
556.99	59231.94
557.16	59440.24
557.32	59178.10
557.49	59430.88
557.65	59161.72
557.82	59416.84
557.98	59105.55
558.15	59367.69
558.32	59330.24
558.48	59283.43
558.65	59208.53
558.81	59440.24
558.98	59231.94
559.14	59271.73
559.31	59334.92
559.47	59480.03
559.64	59334.92
559.80	59377.05
559.97	59524.50
560.13	59281.09
560.30	59407.48
560.46	59625.15
560.63	59444.93
560.79	59461.31
560.96	59671.96
561.12	59552.59
561.29	59585.36
561.45	59557.27
561.61	59423.86
561.78	59669.62
561.94	59580.68
562.11	59634.51
562.27	59618.13
562.44	59664.94
562.60	59950.48
562.77	59835.80
562.93	59639.19
563.10	59983.25
563.26	59690.68
563.42	59913.03
563.59	59765.58
563.75	59730.47
563.92	59700.04
564.08	59629.83
564.24	60044.10
564.41	59971.55
564.57	59746.86
564.74	59913.03
564.90	59732.81
565.07	59906.01
565.23	60013.68
565.39	59810.05
565.56	60074.53
565.72	59831.11
565.88	59835.80
566.05	60114.32
566.21	59751.54
566.38	60001.97
566.54	60102.62
566.70	60133.04
566.87	60186.88
567.03	59896.65
567.19	60065.17
567.36	60065.17
567.52	60016.02
567.68	60254.75
567.85	60217.30
568.01	60182.19
568.17	60030.06
568.34	60119.00
568.50	60023.04
568.66	60055.81
568.83	60058.15
568.99	60177.51
569.15	60121.34
569.32	60191.56
569.48	60104.96
569.64	60320.29
569.81	60116.66
569.97	60191.56
570.13	60357.74
570.30	60067.51
570.46	60488.80
570.62	60123.68
570.78	60348.37
570.95	60175.17
571.11	60331.99
571.27	60273.48
571.43	60123.68
571.60	60446.68
571.76	60140.07
571.92	60355.39
572.09	60582.43
572.25	60320.29
572.41	60341.35
572.57	60420.93
572.74	60523.91
572.90	60470.08
573.06	60402.21
573.22	60317.95
573.38	60385.82
573.55	60587.11
573.71	60498.17
573.87	60376.46
574.03	60465.40
574.20	60561.36
574.36	60346.03
574.52	60280.50
574.68	60357.74
574.84	60687.75
575.01	60411.57
575.17	60364.76
575.33	60369.44
575.49	60488.80
575.65	60502.85
575.82	60406.89
575.98	60488.80
576.14	60666.69
576.30	60493.49
576.46	60486.46
576.62	60556.68
576.79	60561.36
576.95	60580.09
577.11	60619.88
577.27	60378.80
577.43	60774.35
577.59	60640.94
577.75	60523.91
577.92	60676.05
578.08	60654.98
578.24	60488.80
578.40	60860.95
578.56	60561.36
578.72	60645.62
578.88	60692.43
579.04	60767.33
579.21	60512.21
579.37	60622.22
579.53	60729.88
579.69	60432.63
579.85	60603.49
580.01	60739.24
580.17	60465.40
580.33	60781.37
580.49	60704.13
580.65	60872.65
580.82	60638.60
580.98	60514.55
581.14	60559.02
581.30	60856.27
581.46	60685.41
581.62	60622.22
581.78	60687.75
581.94	60669.03
582.10	60830.52
582.26	60706.47
582.42	60533.28
582.58	60825.84
582.74	60720.52
582.90	60769.67
583.06	60612.85
583.22	60479.44
583.38	60626.90
583.54	60877.33
583.70	60706.47
583.86	60729.88
584.02	60673.71
584.18	60886.70
584.34	60816.48
584.50	60722.86
584.66	60790.73
584.82	60633.92
584.98	60926.49
585.14	60729.88
585.30	60699.45
585.46	60867.97
585.62	60935.85
585.78	60968.61
585.94	60706.47
586.10	60750.94
586.26	60947.55
586.42	60757.97
586.58	60973.30
586.74	60811.80
586.90	60814.14
587.06	60624.56
587.22	60846.91
587.38	60879.67
587.54	60921.80
587.70	61127.77
587.86	60956.91
588.02	60788.39
588.18	60952.23
588.34	60952.23
588.49	60846.91
