SpectraSuite Data File
++++++++++++++++++++++++++++++++++++
Date: Fri Oct 25 11:25:06 EDT 2013
User: price-jones
Dark Spectrum Present: No
Reference Spectrum Present: No
Number of Sampled Component Spectra: 1
Spectrometers: USB2+H05261
Integration Time (usec): 100000 (USB2+H05261)
Spectra Averaged: 1 (USB2+H05261)
Boxcar Smoothing: 0 (USB2+H05261)
Correct for Electrical Dark: No (USB2+H05261)
Strobe/Lamp Enabled: No (USB2+H05261)
Correct for Detector Non-linearity: No (USB2+H05261)
Correct for Stray Light: No (USB2+H05261)
Number of Pixels in Processed Spectrum: 2048
>>>>>Begin Processed Spectral Data<<<<<
365.73	285.55
365.92	285.55
366.12	285.55
366.32	198.95
366.52	105.32
366.72	149.79
366.91	114.69
367.11	156.82
367.31	65.54
367.51	114.69
367.70	114.69
367.90	217.67
368.10	77.24
368.30	128.73
368.49	112.35
368.69	93.62
368.89	128.73
369.09	154.48
369.28	191.92
369.48	231.71
369.68	142.77
369.87	163.84
370.07	252.78
370.27	187.24
370.47	285.55
370.66	580.45
370.86	585.13
371.06	645.99
371.25	662.37
371.45	674.07
371.65	699.82
371.84	653.01
372.04	711.52
372.24	730.25
372.44	660.03
372.63	816.85
372.83	819.19
373.03	718.54
373.22	763.01
373.42	777.06
373.62	753.65
373.81	812.17
374.01	795.78
374.21	809.83
374.40	720.88
374.60	851.96
374.79	917.49
374.99	814.51
375.19	819.19
375.38	854.30
375.58	847.27
375.78	826.21
375.97	826.21
376.17	910.47
376.37	823.87
376.56	861.32
376.76	950.26
376.95	889.40
377.15	873.02
377.35	917.49
377.54	896.43
377.74	882.38
377.93	889.40
378.13	924.51
378.33	943.24
378.52	931.53
378.72	957.28
378.91	936.21
379.11	1004.09
379.31	957.28
379.50	926.85
379.70	971.32
379.89	1060.26
380.09	1022.81
380.28	931.53
380.48	905.79
380.68	999.41
380.87	990.05
381.07	931.53
381.26	985.37
381.46	954.94
381.65	992.39
381.85	1022.81
382.04	1074.31
382.24	968.98
382.43	1064.94
382.63	1062.60
382.83	1025.15
383.02	1053.24
383.22	1107.07
383.41	1062.60
383.61	1142.18
383.80	1160.91
384.00	1135.16
384.19	1130.48
384.39	1132.82
384.58	1203.04
384.78	1179.63
384.97	1156.22
385.17	1277.93
385.36	1151.54
385.56	1170.27
385.75	1104.73
385.95	1167.93
386.14	1207.72
386.34	1224.10
386.53	1256.87
386.72	1196.01
386.92	1299.00
387.11	1242.82
387.31	1191.33
387.50	1259.21
387.70	1299.00
387.89	1343.47
388.09	1231.12
388.28	1174.95
388.48	1308.36
388.67	1273.25
388.86	1341.13
389.06	1348.15
389.25	1324.74
389.45	1355.17
389.64	1313.04
389.84	1355.17
390.03	1441.77
390.22	1444.11
390.42	1373.89
390.61	1324.74
390.81	1364.53
391.00	1341.13
391.19	1343.47
391.39	1437.09
391.58	1444.11
391.78	1387.94
391.97	1500.28
392.16	1446.45
392.36	1575.18
392.55	1516.67
392.75	1509.65
392.94	1495.60
393.13	1577.52
393.33	1558.80
393.52	1476.88
393.71	1563.48
393.91	1596.25
394.10	1605.61
394.29	1549.43
394.49	1643.06
394.68	1671.14
394.88	1631.35
395.07	1579.86
395.26	1596.25
395.46	1678.16
395.65	1706.25
395.84	1778.81
396.04	1760.08
396.23	1774.13
396.42	1743.70
396.62	1746.04
396.81	1706.25
397.00	1750.72
397.19	1760.08
397.39	1893.49
397.58	1760.08
397.77	1884.13
397.97	1879.45
398.16	1867.75
398.35	1893.49
398.55	1837.32
398.74	2033.93
398.93	1888.81
399.12	1879.45
399.32	1888.81
399.51	1933.28
399.70	2134.57
399.90	2015.20
400.09	2031.58
400.28	1975.41
400.47	2031.58
400.67	2064.35
400.86	2069.03
401.05	2069.03
401.24	2129.89
401.44	2038.61
401.63	2162.66
401.82	2143.93
402.01	2047.97
402.21	2026.90
402.40	2204.78
402.59	2190.74
402.78	2298.41
402.97	2190.74
403.17	2253.94
403.36	2221.17
403.55	2284.36
403.74	2284.36
403.93	2282.02
404.13	2272.66
404.32	2368.62
404.51	2284.36
404.70	2375.64
404.89	2352.24
405.09	2452.88
405.28	2415.43
405.47	2410.75
405.66	2551.18
405.85	2450.54
406.05	2450.54
406.24	2490.33
406.43	2466.92
406.62	2651.83
406.81	2759.49
407.00	2637.78
407.20	2647.15
407.39	2609.70
407.58	2679.91
407.77	2628.42
407.96	2766.51
408.15	2612.04
408.34	2825.03
408.54	2799.28
408.73	2843.75
408.92	2789.92
409.11	2832.05
409.30	2808.64
409.49	2935.03
409.68	2974.82
409.87	2967.80
410.07	3016.95
410.26	3026.31
410.45	3030.99
410.64	3112.91
410.83	3038.02
411.02	3059.08
411.21	3126.96
411.40	3105.89
411.59	3330.58
411.78	3073.12
411.98	3232.28
412.17	3171.43
412.36	3304.84
412.55	3368.03
412.74	3365.69
412.93	3358.67
413.12	3293.13
413.31	3571.66
413.50	3449.95
413.69	3550.59
413.88	3648.90
414.07	3571.66
414.26	3482.72
414.45	3655.92
414.64	3620.81
414.83	3641.87
415.02	3784.65
415.22	3887.63
415.41	3786.99
415.60	3941.46
415.79	3950.82
415.98	3892.31
416.17	3929.76
416.36	3988.27
416.55	4067.85
416.74	4098.28
416.93	3978.91
417.12	4035.08
417.31	4170.83
417.50	4060.83
417.69	4325.31
417.88	4241.05
418.07	4362.76
418.26	4329.99
418.45	4241.05
418.64	4498.51
418.83	4376.80
419.02	4360.42
419.21	4585.11
419.39	4435.32
419.58	4517.23
419.77	4479.79
419.96	4608.51
420.15	4578.09
420.34	4482.13
420.53	4440.00
420.72	4578.09
420.91	4711.50
421.10	4634.26
421.29	4809.80
421.48	4674.05
421.67	4702.14
421.86	4704.48
422.05	4753.63
422.24	4798.10
422.43	4774.69
422.61	4823.84
422.80	4777.03
422.99	4823.84
423.18	4844.91
423.37	5008.75
423.56	4826.18
423.75	4882.36
423.94	4858.95
424.13	4610.86
424.32	4807.46
424.50	4954.91
424.69	5015.77
424.88	5156.20
425.07	4959.60
425.26	4854.27
425.45	4994.70
425.64	4943.21
425.83	5095.35
426.01	5231.10
426.20	4945.55
426.39	5116.41
426.58	5186.63
426.77	4999.38
426.96	5191.31
427.15	5071.94
427.33	5186.63
427.52	5090.67
427.71	5174.92
427.90	5219.39
428.09	5341.10
428.28	5270.89
428.46	5371.53
428.65	5104.71
428.84	5572.82
429.03	5408.98
429.22	5425.36
429.40	5460.47
429.59	5453.45
429.78	5203.01
429.97	5217.05
430.16	5607.92
430.34	5540.05
430.53	5673.46
430.72	5682.82
430.91	5638.35
431.10	5563.45
431.28	5626.65
431.47	5762.40
431.66	5820.91
431.85	5774.10
432.03	5888.79
432.22	6043.26
432.41	5865.38
432.60	5891.13
432.79	5933.26
432.97	6069.01
433.16	6085.39
433.35	6024.54
433.54	6015.18
433.72	6143.91
433.91	6090.07
434.10	6132.20
434.28	6080.71
434.47	6090.07
434.66	6202.42
434.85	6228.17
435.03	6303.06
435.22	6260.93
435.41	6436.47
435.59	6204.76
435.78	6518.39
435.97	6314.77
436.16	6338.17
436.34	6478.60
436.53	6258.59
436.72	6644.78
436.90	6260.93
437.09	6459.88
437.28	6321.79
437.46	6623.72
437.65	6649.46
437.84	6553.50
438.02	6569.88
438.21	6724.36
438.40	6583.93
438.58	6806.28
438.77	7030.97
438.96	6806.28
439.14	7089.48
439.33	7030.97
439.52	7021.61
439.70	7061.40
439.89	7171.40
440.08	7314.17
440.26	7321.20
440.45	7365.67
440.63	7454.61
440.82	7583.34
441.01	7398.43
441.19	7604.40
441.38	7637.17
441.57	7784.62
441.75	7840.79
441.94	7967.18
442.12	8077.19
442.31	7997.61
442.50	7852.50
442.68	7866.54
442.87	7999.95
443.05	8051.44
443.24	8271.45
443.43	8121.66
443.61	8175.49
443.80	8449.33
443.98	7957.82
444.17	7709.72
444.35	8248.05
444.54	8329.97
444.73	8201.24
444.91	8248.05
445.10	8224.64
445.28	8212.94
445.47	8212.94
445.65	8210.60
445.84	8425.93
446.02	8278.47
446.21	8379.12
446.39	8198.90
446.58	8549.98
446.77	8491.46
446.95	8248.05
447.14	8329.97
447.32	8468.06
447.51	8327.63
447.69	8428.27
447.88	8549.98
448.06	8470.40
448.25	8542.96
448.43	8699.77
448.62	8554.66
448.80	8313.58
448.99	8655.30
449.17	8573.38
449.36	8564.02
449.54	8688.07
449.73	8872.97
449.91	8971.27
450.10	8952.55
450.28	9109.36
450.46	9022.77
450.65	8973.61
450.83	8905.74
451.02	9174.90
451.20	9071.92
451.39	9057.87
451.57	9053.19
451.76	9097.66
451.94	9095.32
452.13	9327.03
452.31	9383.21
452.49	9034.47
452.68	9217.03
452.86	9399.59
453.05	9310.65
453.23	9390.23
453.42	9291.93
453.60	9366.82
453.78	9465.13
453.97	9308.31
454.15	9334.06
454.34	9476.83
454.52	9671.09
454.70	9872.38
454.89	9701.52
455.07	9802.16
455.26	9853.66
455.44	9809.19
455.62	10078.35
455.81	9860.68
455.99	10129.84
456.17	10036.22
456.36	10026.86
456.54	10174.31
456.73	10331.12
456.91	10356.87
457.09	10415.38
457.28	10562.84
457.46	10232.82
457.64	10464.54
457.83	10406.02
458.01	10317.08
458.19	10590.92
458.38	10581.56
458.56	10581.56
458.74	10733.70
458.93	10785.19
459.11	10647.10
459.29	10581.56
459.48	10665.82
459.66	10600.29
459.84	10820.30
460.03	11145.63
460.21	10876.47
460.39	10726.68
460.57	10916.26
460.76	11084.78
460.94	11239.25
461.12	11232.23
461.31	11075.42
461.49	10860.09
461.67	11089.46
461.85	11508.41
462.04	11080.10
462.22	11728.42
462.40	11510.75
462.59	11641.82
462.77	11382.03
462.95	11681.61
463.13	11384.37
463.32	11630.12
463.50	11559.91
463.68	11733.11
463.86	11796.30
464.05	11707.36
464.23	11566.93
464.41	11932.05
464.59	11913.33
464.78	12046.74
464.96	11910.99
465.14	11836.09
465.32	11831.41
465.50	12231.64
465.69	12002.27
465.87	12056.10
466.05	12152.06
466.23	12105.25
466.41	12458.67
466.60	12334.62
466.78	12039.72
466.96	12180.15
467.14	12166.10
467.32	12173.13
467.51	12643.57
467.69	12138.02
467.87	12400.16
468.05	12510.16
468.23	12449.31
468.41	12376.75
468.60	12372.07
468.78	12561.66
468.96	12669.32
469.14	12980.61
469.32	13008.70
469.50	12720.81
469.69	12765.28
469.87	13177.22
470.05	12910.40
470.23	13259.13
470.41	13036.78
470.59	13149.13
470.77	13177.22
470.95	13111.68
471.14	13731.92
471.32	13004.02
471.50	13535.32
471.68	13598.51
471.86	13731.92
472.04	13518.93
472.22	13947.25
472.40	13621.92
472.58	14101.73
472.77	13865.33
472.95	14441.11
473.13	14478.55
473.31	13898.10
473.49	14197.69
473.67	13989.38
473.85	14274.93
474.03	14567.49
474.21	14464.51
474.39	14794.53
474.57	14534.73
474.75	14806.23
474.93	14874.10
475.12	14827.29
475.30	14946.66
475.48	14927.94
475.66	15321.15
475.84	15438.17
476.02	15393.70
476.20	15304.76
476.38	15489.67
476.56	15922.66
476.74	16163.74
476.92	15620.74
477.10	15597.33
477.28	16266.72
477.46	16215.23
477.64	16210.55
477.82	16444.60
478.00	16929.09
478.18	16449.28
478.36	16720.79
478.54	16898.67
478.72	16945.48
478.90	17310.60
479.08	17336.35
479.26	17523.59
479.44	17699.13
479.62	17788.07
479.80	18087.66
479.98	17956.59
480.16	18803.86
480.34	18066.60
480.52	18548.75
480.70	18862.38
480.88	18361.50
481.06	18530.02
481.24	18853.02
481.41	19131.54
481.59	19374.95
481.77	19316.44
481.95	19379.64
482.13	19934.34
482.31	19868.81
482.49	19995.20
482.67	20013.92
482.85	20453.94
483.03	20671.61
483.21	20592.03
483.39	21032.05
483.57	20755.87
483.74	21317.60
483.92	21216.96
484.10	21174.83
484.28	21553.99
484.46	21893.37
484.64	22211.68
484.82	21827.84
485.00	22281.90
485.18	22719.58
485.35	22778.09
485.53	22623.62
485.71	23131.51
485.89	23187.69
486.07	23101.09
486.25	23000.44
486.43	23332.80
486.61	23459.19
486.78	23775.16
486.96	24067.73
487.14	24292.42
487.32	24467.96
487.50	24634.14
487.68	24823.72
487.85	24854.15
488.03	25245.02
488.21	25748.23
488.39	25722.49
488.57	25888.67
488.75	26143.78
488.92	26448.05
489.10	26455.08
489.28	26647.00
489.46	26991.06
489.64	27049.57
489.81	27505.98
489.99	27800.88
490.17	27433.42
490.35	27899.19
490.53	27976.42
490.70	28252.61
490.88	28187.07
491.06	28746.46
491.24	28568.58
491.41	28470.28
491.59	29006.26
491.77	28999.24
491.95	29106.90
492.13	29331.59
492.30	29984.60
492.48	29759.91
492.66	30223.34
492.84	30171.85
493.01	30712.51
493.19	30576.76
493.37	30792.09
493.54	30778.04
493.72	31545.74
493.90	31367.86
494.08	31974.06
494.25	32095.77
494.43	32257.26
494.61	32439.82
494.79	32053.64
494.96	32510.04
495.14	32594.30
495.32	32921.98
495.49	33223.90
495.67	33312.84
495.85	33219.22
496.02	33373.70
496.20	34007.98
496.38	34052.45
496.55	33958.83
496.73	34513.54
496.91	34471.41
497.09	34644.61
497.26	34789.72
497.44	34906.75
497.62	34878.66
497.79	35613.59
497.97	34565.03
498.14	36329.80
498.32	35761.05
498.50	36027.87
498.67	36390.65
498.85	36395.33
499.03	36545.12
499.20	36467.89
499.38	36701.94
499.56	36725.35
499.73	36933.65
499.91	37317.50
500.08	37399.42
500.26	37291.76
500.44	37525.81
500.61	37720.07
500.79	37420.48
500.97	37935.40
501.14	38469.04
501.32	38071.15
501.49	38445.64
501.67	38352.02
501.84	38883.32
502.02	38916.09
502.20	38817.78
502.37	38923.11
502.55	39262.49
502.72	39304.62
502.90	39365.47
503.07	39328.02
503.25	39613.57
503.43	39868.69
503.60	39814.85
503.78	39695.49
503.95	40397.65
504.13	40603.61
504.30	40521.69
504.48	40753.41
504.65	40659.79
504.83	40720.64
505.01	41038.95
505.18	40418.71
505.36	41394.71
505.53	40877.46
505.71	41406.42
505.88	41696.64
506.06	41301.09
506.23	42129.64
506.41	41624.09
506.58	41565.57
506.76	41879.21
506.93	42073.47
507.11	42019.64
507.28	42096.88
507.46	42792.01
507.63	42394.12
507.81	43283.53
507.98	42892.66
508.16	42548.60
508.33	43512.90
508.50	43086.92
508.68	43739.93
508.85	43576.09
509.03	43468.43
509.20	43765.68
509.38	44002.07
509.55	44072.29
509.73	44100.37
509.90	44240.81
510.08	44381.24
510.25	44439.75
510.42	44767.43
510.60	45020.20
510.77	44905.52
510.95	45146.59
511.12	44725.30
511.30	44753.38
511.47	45078.72
511.64	45200.43
511.82	45408.73
511.99	45139.57
512.17	45722.37
512.34	45588.95
512.51	46211.54
512.69	45986.85
512.86	46057.06
513.04	46398.78
513.21	46562.62
513.38	46483.04
513.56	46469.00
513.73	46288.77
513.90	47004.98
514.08	46721.77
514.25	47189.88
514.43	47131.37
514.60	47091.58
514.77	47189.88
514.95	47655.65
515.12	47227.33
515.29	46946.47
515.47	47559.69
515.64	47908.43
515.81	47686.07
515.99	47665.01
516.16	48252.48
516.33	48428.02
516.51	48463.13
516.68	48603.56
516.85	48341.42
517.03	48732.29
517.20	48676.12
517.37	48772.08
517.54	48413.98
517.72	48776.76
517.89	48940.60
518.06	48839.96
518.24	48816.55
518.41	48800.17
518.58	48992.09
518.75	48982.73
518.93	49371.26
519.10	49052.95
519.27	49324.45
519.45	49766.81
519.62	49614.68
519.79	49675.53
519.96	49783.19
520.14	50035.97
520.31	49895.54
520.48	50279.39
520.65	50145.98
520.83	50347.26
521.00	50597.70
521.17	50192.79
521.34	50529.83
521.52	50901.97
521.69	50483.01
521.86	51075.17
522.03	50944.10
522.20	51217.94
522.38	51480.08
522.55	51077.51
522.72	50859.84
522.89	51288.16
523.07	51353.69
523.24	51353.69
523.41	51704.77
523.58	51388.80
523.75	51704.77
523.92	51634.56
524.10	51854.57
524.27	51877.97
524.44	51562.00
524.61	52123.73
524.78	51728.18
524.96	52030.11
525.13	52327.36
525.30	51995.00
525.47	52495.88
525.64	52371.83
525.81	52451.41
525.98	52577.79
526.16	52589.50
526.33	52772.06
526.50	52905.47
526.67	52580.13
526.84	52790.78
527.01	52603.54
527.18	52765.04
527.36	53001.43
527.53	52884.40
527.70	53368.90
527.87	53441.45
528.04	52945.26
528.21	53186.33
528.38	53010.79
528.55	53584.22
528.72	53425.07
528.89	53329.11
529.07	53076.33
529.24	53137.18
529.41	53506.99
529.58	53621.67
529.75	53619.33
529.92	53687.21
530.09	53778.49
530.26	53829.98
530.43	54047.65
530.60	53712.95
530.77	53904.88
530.94	53918.92
531.11	54028.93
531.28	53914.24
531.46	54031.27
531.63	53900.20
531.80	54157.66
531.97	54239.57
532.14	54267.66
532.31	54445.54
532.48	54649.17
532.65	54328.52
532.82	54541.50
532.99	54471.29
533.16	54478.31
533.33	54543.84
533.50	54939.39
533.67	54906.63
533.84	54515.76
534.01	54827.05
534.18	54490.01
534.35	55353.67
534.52	54883.22
534.69	54899.61
534.86	55033.02
535.03	54951.10
535.20	55035.36
535.37	55208.56
535.54	55206.22
535.71	55339.63
535.88	55407.50
536.05	55110.25
536.22	55400.48
536.38	55461.33
536.55	55618.15
536.72	55412.18
536.89	55297.50
537.06	55255.37
537.23	55681.34
537.40	55451.97
537.57	55716.45
537.74	55629.85
537.91	55810.07
538.08	55957.53
538.25	55664.96
538.42	55917.74
538.59	55824.12
538.75	55781.99
538.92	56046.47
539.09	56137.75
539.26	56030.08
539.43	55920.08
539.60	56051.15
539.77	56135.41
539.94	56458.40
540.11	56413.93
540.28	56399.89
540.44	56257.12
540.61	56285.20
540.78	56402.23
540.95	56292.22
541.12	56163.50
541.29	56697.14
541.46	56399.89
541.62	56332.01
541.79	56530.96
541.96	56341.38
542.13	56409.25
542.30	56545.00
542.47	56629.26
542.63	56765.01
542.80	56678.41
542.97	56931.19
543.14	57151.20
543.31	57095.03
543.48	57052.90
543.64	57427.38
543.81	57436.75
543.98	57146.52
544.15	57331.42
544.32	57237.80
544.48	57352.49
544.65	57331.42
544.82	57464.83
544.99	57036.51
545.16	57403.98
545.32	57518.67
545.49	57560.79
545.66	57586.54
545.83	57408.66
546.00	57537.39
546.16	57462.49
546.33	57455.47
546.50	57226.10
546.67	57387.60
546.83	57298.65
547.00	57731.65
547.17	57588.88
547.34	57804.21
547.50	58012.52
547.67	57911.88
547.84	58019.54
548.00	57954.00
548.17	58124.86
548.34	58028.90
548.51	58169.33
548.67	58061.67
548.84	58061.67
549.01	58010.18
549.18	58174.02
549.34	58085.07
549.51	58099.12
549.68	58047.63
549.84	58431.47
550.01	58288.70
550.18	58143.59
550.34	58237.21
550.51	58401.05
550.68	58349.56
550.84	58073.37
551.01	58335.51
551.18	58279.34
551.34	58436.16
551.51	58506.37
551.68	58408.07
551.84	58492.33
552.01	58134.23
552.18	58344.87
552.34	58471.26
552.51	58595.31
552.68	58340.19
552.84	58417.43
553.01	58965.12
553.18	58724.04
553.34	58700.64
553.51	58578.93
553.67	58855.11
553.84	58820.00
554.01	58981.50
554.17	58941.71
554.34	58878.52
554.51	58951.07
554.67	59138.32
554.84	58789.58
555.00	58890.22
555.17	58820.00
555.33	59054.06
555.50	58829.37
555.67	58700.64
555.83	58899.58
556.00	58941.71
556.16	59388.75
556.33	58997.88
556.50	59206.19
556.66	59475.35
556.83	59084.48
556.99	59150.02
557.16	59412.16
557.32	59454.29
557.49	59395.77
557.65	59192.15
557.82	59150.02
557.98	59290.45
558.15	59367.69
558.32	59494.08
558.48	59313.86
558.65	59456.63
558.81	59533.87
558.98	59288.11
559.14	59316.20
559.31	59210.87
559.47	59636.85
559.64	59592.38
559.80	59721.11
559.97	59538.55
560.13	59606.42
560.30	59433.22
560.46	59622.81
560.63	59746.86
560.79	59751.54
560.96	59592.38
561.12	59788.98
561.29	59718.77
561.45	59896.65
561.61	59908.35
561.78	59604.08
561.94	59791.33
562.11	59742.17
562.27	59681.32
562.44	59957.50
562.60	59917.71
562.77	59821.75
562.93	59601.74
563.10	59950.48
563.26	59470.67
563.42	60060.49
563.59	59868.56
563.75	59866.22
563.92	59898.99
564.08	59896.65
564.24	60034.74
564.41	59952.82
564.57	60233.69
564.74	59922.40
564.90	60128.36
565.07	60198.58
565.23	60065.17
565.39	60067.51
565.56	60198.58
565.72	60011.34
565.88	59938.78
566.05	59931.76
566.21	59805.37
566.38	59980.91
566.54	60200.92
566.70	60121.34
566.87	59943.46
567.03	60032.40
567.19	60282.84
567.36	60243.05
567.52	59882.61
567.68	60678.39
567.85	60392.84
568.01	60299.22
568.17	60362.42
568.34	60411.57
568.50	60320.29
568.66	60111.98
568.83	60392.84
568.99	60313.26
569.15	60371.78
569.32	60257.09
569.48	60212.62
569.64	60238.37
569.81	60416.25
569.97	60369.44
570.13	60533.28
570.30	60065.17
570.46	60472.42
570.62	60390.50
570.78	60261.77
570.95	60334.33
571.11	60395.18
571.27	60374.12
571.43	60196.24
571.60	60556.68
571.76	60434.97
571.92	60402.21
572.09	60706.47
572.25	60657.32
572.41	60294.54
572.57	60331.99
572.74	60463.06
572.90	60509.87
573.06	60650.30
573.22	60622.22
573.38	60542.64
573.55	60591.79
573.71	60776.69
573.87	60313.26
574.03	60493.49
574.20	60706.47
574.36	60561.36
574.52	60603.49
574.68	60741.58
574.84	60671.37
575.01	60708.82
575.17	60540.30
575.33	60470.08
575.49	60336.67
575.65	60566.04
575.82	60786.05
575.98	60779.03
576.14	60760.31
576.30	60786.05
576.46	60608.17
576.62	60383.48
576.79	60640.94
576.95	60591.79
577.11	60549.66
577.27	60741.58
577.43	60779.03
577.59	60629.24
577.75	60631.58
577.92	60748.60
578.08	60617.53
578.24	60825.84
578.40	60837.54
578.56	60802.44
578.72	60783.71
578.88	60987.34
579.04	60863.29
579.21	60800.10
579.37	60945.21
579.53	61003.72
579.69	60521.57
579.85	60549.66
580.01	60474.76
580.17	60746.26
580.33	60587.11
580.49	60949.89
580.65	60886.70
580.82	60783.71
580.98	60603.49
581.14	60608.17
581.30	61073.94
581.46	60734.56
581.62	60917.12
581.78	60797.76
581.94	60879.67
582.10	60743.92
582.26	60760.31
582.42	60690.09
582.58	60921.80
582.74	60786.05
582.90	60793.07
583.06	60949.89
583.22	60605.83
583.38	60952.23
583.54	60999.04
583.70	60921.80
583.86	60804.78
584.02	60694.77
584.18	61095.00
584.34	60757.97
584.50	60835.20
584.66	60629.24
584.82	60669.03
584.98	61045.85
585.14	61141.81
585.30	60818.82
585.46	60853.93
585.62	60947.55
585.78	61104.37
585.94	60647.96
586.10	60942.87
586.26	60811.80
586.42	60912.44
586.58	60882.02
586.74	60949.89
586.90	60849.25
587.06	60865.63
587.22	61155.86
587.38	60938.19
587.54	61069.26
587.70	61160.54
587.86	61038.83
588.02	60882.02
588.18	61095.00
588.34	60837.54
588.49	60999.04
