SpectraSuite Data File
++++++++++++++++++++++++++++++++++++
Date: Fri Oct 25 11:26:17 EDT 2013
User: price-jones
Dark Spectrum Present: No
Reference Spectrum Present: No
Number of Sampled Component Spectra: 1
Spectrometers: USB2+H05261
Integration Time (usec): 100000 (USB2+H05261)
Spectra Averaged: 1 (USB2+H05261)
Boxcar Smoothing: 0 (USB2+H05261)
Correct for Electrical Dark: No (USB2+H05261)
Strobe/Lamp Enabled: No (USB2+H05261)
Correct for Detector Non-linearity: No (USB2+H05261)
Correct for Stray Light: No (USB2+H05261)
Number of Pixels in Processed Spectrum: 2048
>>>>>Begin Processed Spectral Data<<<<<
365.73	238.73
365.92	238.73
366.12	238.73
366.32	114.69
366.52	154.48
366.72	102.98
366.91	166.18
367.11	175.54
367.31	140.43
367.51	72.56
367.70	156.82
367.90	102.98
368.10	131.07
368.30	98.30
368.49	189.58
368.69	119.37
368.89	128.73
369.09	175.54
369.28	142.77
369.48	224.69
369.68	154.48
369.87	217.67
370.07	205.97
370.27	212.99
370.47	344.06
370.66	517.26
370.86	620.24
371.06	676.41
371.25	669.39
371.45	685.78
371.65	685.78
371.84	617.90
372.04	678.76
372.24	699.82
372.44	709.18
372.63	727.91
372.83	755.99
373.03	791.10
373.22	793.44
373.42	826.21
373.62	861.32
373.81	807.48
374.01	887.06
374.21	788.76
374.40	805.14
374.60	816.85
374.79	760.67
374.99	828.55
375.19	842.59
375.38	809.83
375.58	849.61
375.78	947.92
375.97	889.40
376.17	964.30
376.37	866.00
376.56	926.85
376.76	823.87
376.95	894.08
377.15	894.08
377.35	936.21
377.54	868.34
377.74	908.13
377.93	884.72
378.13	915.15
378.33	826.21
378.52	936.21
378.72	940.90
378.91	910.47
379.11	912.81
379.31	873.02
379.50	926.85
379.70	968.98
379.89	987.71
380.09	936.21
380.28	1001.75
380.48	957.28
380.68	978.34
380.87	1041.54
381.07	976.00
381.26	1083.67
381.46	985.37
381.65	1022.81
381.85	1064.94
382.04	1029.84
382.24	1041.54
382.43	1050.90
382.63	1006.43
382.83	1130.48
383.02	1114.10
383.22	1193.67
383.41	1135.16
383.61	1121.12
383.80	1224.10
384.00	1128.14
384.19	1270.91
384.39	1170.27
384.58	1083.67
384.78	1123.46
384.97	1135.16
385.17	1109.41
385.36	1118.78
385.56	1132.82
385.75	1160.91
385.95	1203.04
386.14	1259.21
386.34	1174.95
386.53	1104.73
386.72	1306.02
386.92	1203.04
387.11	1214.74
387.31	1228.78
387.50	1245.16
387.70	1231.12
387.89	1345.81
388.09	1252.19
388.28	1345.81
388.48	1331.76
388.67	1238.14
388.86	1324.74
389.06	1294.32
389.25	1334.11
389.45	1303.68
389.64	1357.51
389.84	1401.98
390.03	1317.72
390.22	1399.64
390.42	1306.02
390.61	1329.42
390.81	1416.02
391.00	1418.36
391.19	1455.81
391.39	1411.34
391.58	1474.54
391.78	1488.58
391.97	1497.94
392.16	1458.15
392.36	1488.58
392.55	1432.41
392.75	1533.05
392.94	1465.18
393.13	1589.22
393.33	1556.46
393.52	1488.58
393.71	1589.22
393.91	1603.27
394.10	1563.48
394.29	1570.50
394.49	1568.16
394.68	1664.12
394.88	1605.61
395.07	1792.85
395.26	1596.25
395.46	1703.91
395.65	1617.31
395.84	1724.97
396.04	1846.68
396.23	1769.44
396.42	1834.98
396.62	1750.72
396.81	1856.04
397.00	1851.36
397.19	1952.01
397.39	1799.87
397.58	1849.02
397.77	1802.21
397.97	1867.75
398.16	1806.89
398.35	1851.36
398.55	1806.89
398.74	1872.43
398.93	1947.33
399.12	1865.41
399.32	1837.32
399.51	1921.58
399.70	1987.11
399.90	1996.48
400.09	1923.92
400.28	2104.14
400.47	2064.35
400.67	2008.18
400.86	2008.18
401.05	2026.90
401.24	2162.66
401.44	2136.91
401.63	2052.65
401.82	2153.29
402.01	2174.36
402.21	2160.31
402.40	2132.23
402.59	2136.91
402.78	2216.49
402.97	2260.96
403.17	2200.10
403.36	2186.06
403.55	2363.94
403.74	2387.35
403.93	2265.64
404.13	2333.51
404.32	2394.37
404.51	2403.73
404.70	2448.20
404.89	2464.58
405.09	2424.80
405.28	2457.56
405.47	2511.39
405.66	2553.52
405.85	2466.92
406.05	2497.35
406.24	2537.14
406.43	2572.25
406.62	2705.66
406.81	2539.48
407.00	2560.55
407.20	2588.63
407.39	2656.51
407.58	2724.38
407.77	2614.38
407.96	2745.45
408.15	2827.37
408.34	2736.09
408.54	2740.77
408.73	2766.51
408.92	2745.45
409.11	2794.60
409.30	2857.79
409.49	2956.10
409.68	3038.02
409.87	2916.31
410.07	3023.97
410.26	3075.46
410.45	3035.67
410.64	3016.95
410.83	3133.98
411.02	3033.33
411.21	3176.11
411.40	3094.19
411.59	3206.53
411.78	3197.17
411.98	3304.84
412.17	3239.30
412.36	3281.43
412.55	3393.78
412.74	3361.01
412.93	3258.03
413.12	3370.37
413.31	3562.30
413.50	3361.01
413.69	3494.42
413.88	3471.01
414.07	3545.91
414.26	3562.30
414.45	3679.32
414.64	3789.33
414.83	3763.58
415.02	3728.47
415.22	3693.37
415.41	3742.52
415.60	3777.62
415.79	3873.59
415.98	3915.72
416.17	3861.88
416.36	3857.20
416.55	3925.08
416.74	3936.78
416.93	3990.61
417.12	4147.43
417.31	4138.07
417.50	4318.29
417.69	4219.99
417.88	4257.43
418.07	4231.69
418.26	4386.16
418.45	4285.52
418.64	4374.46
418.83	4353.40
419.02	4395.53
419.21	4545.32
419.39	4358.08
419.58	4381.48
419.77	4414.25
419.96	4575.75
420.15	4540.64
420.34	4505.53
420.53	4524.26
420.72	4643.62
420.91	4648.30
421.10	4741.93
421.29	4636.60
421.48	4732.56
421.67	4727.88
421.86	4699.80
422.05	4898.74
422.24	4727.88
422.43	4833.21
422.61	4786.40
422.80	4821.50
422.99	4887.04
423.18	4938.53
423.37	4999.38
423.56	4917.47
423.75	4945.55
423.94	4847.25
424.13	4507.87
424.32	4594.47
424.50	4954.91
424.69	5069.60
424.88	5191.31
425.07	5116.41
425.26	4758.31
425.45	4854.27
425.64	4954.91
425.83	5020.45
426.01	5027.47
426.20	4997.04
426.39	5029.81
426.58	5020.45
426.77	5149.18
426.96	4994.70
427.15	5179.61
427.33	5294.29
427.52	5146.84
427.71	5352.81
427.90	5071.94
428.09	5282.59
428.28	5446.43
428.46	5348.12
428.65	5437.06
428.84	5472.17
429.03	5547.07
429.22	5198.33
429.40	5261.52
429.59	5500.26
429.78	5303.65
429.97	5200.67
430.16	5404.30
430.34	5479.19
430.53	5486.22
430.72	5678.14
430.91	5696.86
431.10	5575.16
431.28	5722.61
431.47	5734.31
431.66	5724.95
431.85	5710.91
432.03	5853.68
432.22	5921.56
432.41	5893.47
432.60	5809.21
432.79	5811.55
432.97	5851.34
433.16	6003.47
433.35	5830.27
433.54	5954.32
433.72	6249.23
433.91	6045.60
434.10	6141.57
434.28	6146.25
434.47	6090.07
434.66	6146.25
434.85	6274.98
435.03	6298.38
435.22	6298.38
435.41	6523.07
435.59	6349.87
435.78	6483.28
435.97	6356.90
436.16	6324.13
436.34	6361.58
436.53	6452.86
436.72	6548.82
436.90	6328.81
437.09	6715.00
437.28	6513.71
437.46	6703.29
437.65	6450.52
437.84	6644.78
438.02	6745.42
438.21	6944.37
438.40	6654.14
438.58	6876.49
438.77	7061.40
438.96	6707.98
439.14	7073.10
439.33	7143.32
439.52	7138.63
439.70	7110.55
439.89	7358.64
440.08	7398.43
440.26	7407.80
440.45	7297.79
440.63	7339.92
440.82	7536.52
441.01	7466.31
441.19	7424.18
441.38	7606.74
441.57	7627.81
441.75	7733.13
441.94	7868.88
442.12	7772.92
442.31	8084.21
442.50	7964.84
442.68	7950.80
442.87	7859.52
443.05	8109.96
443.24	8294.86
443.43	8116.98
443.61	8147.40
443.80	8568.70
443.98	7810.37
444.17	7754.19
444.35	8140.38
444.54	8203.58
444.73	8245.71
444.91	8159.11
445.10	8372.10
445.28	8124.00
445.47	8177.83
445.65	8374.44
445.84	8367.42
446.02	8346.35
446.21	8393.16
446.39	8491.46
446.58	8390.82
446.77	8482.10
446.95	8091.23
447.14	8386.14
447.32	8351.03
447.51	8376.78
447.69	8542.96
447.88	8496.14
448.06	8264.43
448.25	8297.20
448.43	8505.51
448.62	8610.83
448.80	8355.71
448.99	8676.37
449.17	8514.87
449.36	8631.90
449.54	8753.60
449.73	8858.93
449.91	9111.71
450.10	8793.39
450.28	8912.76
450.46	9006.38
450.65	8884.67
450.83	9135.11
451.02	8987.66
451.20	9167.88
451.39	8957.23
451.57	9233.41
451.76	8945.53
451.94	9128.09
452.13	9287.25
452.31	9142.13
452.49	9238.09
452.68	9294.27
452.86	9329.38
453.05	9219.37
453.23	9563.43
453.42	9369.16
453.60	9455.76
453.78	9476.83
453.97	9240.44
454.15	9329.38
454.34	9397.25
454.52	9771.74
454.70	9633.64
454.89	9591.52
455.07	9809.19
455.26	9844.29
455.44	9940.26
455.62	9745.99
455.81	9774.08
455.99	9710.88
456.17	10012.81
456.36	10026.86
456.54	10008.13
456.73	10239.84
456.91	10401.34
457.09	10403.68
457.28	10764.12
457.46	10396.66
457.64	10516.03
457.83	10462.19
458.01	10452.83
458.19	10560.50
458.38	10452.83
458.56	10544.11
458.74	10471.56
458.93	10761.78
459.11	10649.44
459.29	10513.69
459.48	10789.87
459.66	10691.57
459.84	10909.24
460.03	11026.26
460.21	10729.02
460.39	11021.58
460.57	10930.30
460.76	11019.24
460.94	11044.99
461.12	11375.00
461.31	11066.05
461.49	11314.15
461.67	11089.46
461.85	11304.79
462.04	11183.08
462.22	11948.43
462.40	11506.07
462.59	11215.85
462.77	11468.62
462.95	11513.10
463.13	11545.86
463.32	11754.17
463.50	11679.27
463.68	11740.13
463.86	11784.60
464.05	11487.35
464.23	11543.52
464.41	11913.33
464.59	11775.24
464.78	11908.65
464.96	11833.75
465.14	11859.49
465.32	11927.37
465.50	12147.38
465.69	12020.99
465.87	11976.52
466.05	12081.85
466.23	12236.32
466.41	12205.89
466.60	12533.57
466.78	12079.50
466.96	12131.00
467.14	12442.29
467.32	12547.61
467.51	12613.15
467.69	11990.56
467.87	12400.16
468.05	12545.27
468.23	12739.54
468.41	12528.89
468.60	12517.18
468.78	12840.18
468.96	12599.10
469.14	12856.56
469.32	12952.52
469.50	12594.42
469.69	12713.79
469.87	12896.35
470.05	12938.48
470.23	13088.28
470.41	13172.54
470.59	13177.22
470.77	13097.64
470.95	13270.84
471.14	13619.58
471.32	13137.43
471.50	13448.72
471.68	13497.87
471.86	13453.40
472.04	13614.90
472.22	13834.91
472.40	13446.38
472.58	13947.25
472.77	13987.04
472.95	14129.81
473.13	14567.49
473.31	13949.59
473.49	14157.90
473.67	13994.06
473.85	14132.15
474.03	14391.95
474.21	14401.32
474.39	14438.76
474.57	14719.63
474.75	14885.81
474.93	14848.36
475.12	14834.32
475.30	15012.20
475.48	14862.40
475.66	14927.94
475.84	14984.11
476.02	15147.95
476.20	15304.76
476.38	15541.16
476.56	16107.57
476.74	15658.18
476.92	15742.44
477.10	15517.75
477.28	16020.97
477.46	16198.85
477.64	16318.22
477.82	16318.22
478.00	16891.65
478.18	16444.60
478.36	16692.70
478.54	17060.16
478.72	16938.46
478.90	17245.07
479.08	17469.76
479.26	17280.18
479.44	17654.66
479.62	17802.11
479.80	18050.21
479.98	18106.38
480.16	18565.13
480.34	18075.96
480.52	18508.96
480.70	18607.26
480.88	18466.83
481.06	18370.86
481.24	18403.63
481.41	18820.25
481.59	19269.63
481.77	19351.55
481.95	19304.74
482.13	19707.31
482.31	19599.65
482.49	19964.77
482.67	20287.76
482.85	20037.33
483.03	20428.20
483.21	20538.20
483.39	20879.92
483.57	20617.78
483.74	20987.58
483.92	21205.25
484.10	21125.68
484.28	21607.83
484.46	21963.59
484.64	22068.91
484.82	21879.33
485.00	22244.45
485.18	22597.87
485.35	22904.48
485.53	22799.16
485.71	23005.13
485.89	23484.94
486.07	23218.11
486.25	23274.29
486.43	23328.12
486.61	23674.52
486.78	24013.90
486.96	24084.11
487.14	24465.62
487.32	23948.36
487.50	24755.85
487.68	24840.11
487.85	24741.80
488.03	25432.26
488.21	25577.37
488.39	25776.32
488.57	25982.29
488.75	25930.80
488.92	26473.80
489.10	26621.25
489.28	26459.76
489.46	26927.86
489.64	26962.97
489.81	27721.30
489.99	27166.60
490.17	27803.22
490.35	27974.08
490.53	27908.55
490.70	27953.02
490.88	28243.24
491.06	28830.72
491.24	28528.79
491.41	28599.01
491.59	29064.77
491.77	28919.66
491.95	29291.80
492.13	29617.14
492.30	29965.88
492.48	29956.52
492.66	30113.33
492.84	30595.48
493.01	30728.89
493.19	30265.47
493.37	31033.16
493.54	31133.81
493.72	31129.12
493.90	31208.70
494.08	31487.23
494.25	31744.69
494.43	31763.41
494.61	32388.33
494.79	32540.47
494.96	32404.72
495.14	32180.03
495.32	32821.33
495.49	32875.16
495.67	33022.62
495.85	33008.58
496.02	34061.82
496.20	33773.93
496.38	33769.25
496.55	33926.07
496.73	34466.73
496.91	34246.72
497.09	34686.74
497.26	34731.21
497.44	34878.66
497.62	35040.16
497.79	35459.12
497.97	35302.30
498.14	35562.10
498.32	35842.96
498.50	35969.35
498.67	36360.22
498.85	35999.78
499.03	36196.38
499.20	36451.50
499.38	36266.60
499.56	36762.79
499.73	37266.01
499.91	36917.27
500.08	37256.65
500.26	37057.70
500.44	37301.12
500.61	37605.39
500.79	38054.77
500.97	37968.17
501.14	38747.57
501.32	38590.75
501.49	38164.78
501.67	38759.27
501.84	38782.68
502.02	38431.60
502.20	39131.42
502.37	38981.62
502.55	39058.86
502.72	39374.83
502.90	39480.16
503.07	39175.89
503.25	39297.59
503.43	39477.82
503.60	39842.94
503.78	39866.34
503.95	39847.62
504.13	40210.40
504.30	40701.92
504.48	40268.92
504.65	40268.92
504.83	40811.92
505.01	40491.27
505.18	40809.58
505.36	41584.30
505.53	41277.69
505.71	41581.96
505.88	41343.22
506.06	41291.73
506.23	41504.72
506.41	41352.58
506.58	41902.61
506.76	41890.91
506.93	42834.14
507.11	41858.14
507.28	42567.32
507.46	42391.78
507.63	42600.09
507.81	42787.33
507.98	42462.00
508.16	42609.45
508.33	43517.58
508.50	43105.65
508.68	43295.23
508.85	44020.80
509.03	43615.88
509.20	44423.37
509.38	44268.89
509.55	44215.06
509.73	44179.95
509.90	44322.72
510.08	44362.51
510.25	44435.07
510.42	44404.64
510.60	44795.51
510.77	44837.64
510.95	45256.60
511.12	44905.52
511.30	44830.62
511.47	45207.45
511.64	44715.93
511.82	45811.31
511.99	45886.20
512.17	45656.83
512.34	45855.78
512.51	46127.28
512.69	46330.90
512.86	46171.75
513.04	46476.02
513.21	46237.28
513.38	46611.77
513.56	46363.67
513.73	46309.84
513.90	46925.40
514.08	46504.10
514.25	46838.80
514.43	46960.51
514.60	47143.07
514.77	47023.70
514.95	47395.85
515.12	47033.07
515.29	47250.74
515.47	47800.76
515.64	47777.36
515.81	47545.64
515.99	47938.85
516.16	48011.41
516.33	48353.13
516.51	48573.14
516.68	47959.92
516.85	48479.52
517.03	48474.84
517.20	48797.83
517.37	48514.62
517.54	48479.52
517.72	48491.22
517.89	48638.67
518.06	49050.61
518.24	49394.67
518.41	48832.94
518.58	49111.46
518.75	48734.63
518.93	49354.88
519.10	49116.14
519.27	49698.94
519.45	49418.07
519.62	49631.06
519.79	49844.05
519.96	49698.94
520.14	49844.05
520.31	49574.89
520.48	50312.16
520.65	50005.55
520.83	50508.76
521.00	50548.55
521.17	50490.04
521.34	50494.72
521.52	50412.80
521.69	50630.47
521.86	50710.05
522.03	50892.61
522.20	51248.37
522.38	51325.61
522.55	50890.27
522.72	51208.58
522.89	51332.63
523.07	51297.52
523.24	51192.20
523.41	51433.27
523.58	51222.62
523.75	51704.77
523.92	51231.99
524.10	51735.20
524.27	51971.60
524.44	51578.39
524.61	51819.46
524.78	51812.44
524.96	51873.29
525.13	52222.03
525.30	52233.74
525.47	52399.91
525.64	52268.84
525.81	52413.96
525.98	52535.66
526.16	52112.03
526.33	52505.24
526.50	52861.00
526.67	52694.82
526.84	53106.76
527.01	52685.46
527.18	52629.29
527.36	52900.79
527.53	52898.45
527.70	53345.49
527.87	52893.77
528.04	53036.54
528.21	52884.40
528.38	53530.39
528.55	53284.64
528.72	53235.48
528.89	53572.52
529.07	53347.83
529.24	53212.08
529.41	53476.56
529.58	53626.35
529.75	53682.53
529.92	53694.23
530.09	53392.30
530.26	53848.71
530.43	53495.28
530.60	53556.14
530.77	53780.83
530.94	53846.36
531.11	53666.14
531.28	54003.18
531.46	54099.14
531.63	54092.12
531.80	54145.95
531.97	54120.21
532.14	54274.68
532.31	54202.13
532.48	54349.58
532.65	54389.37
532.82	54253.62
532.99	54396.39
533.16	54398.73
533.33	54574.27
533.50	54719.38
533.67	54787.26
533.84	54363.62
534.01	54646.83
534.18	54567.25
534.35	55241.32
534.52	54899.61
534.69	55150.04
534.86	54958.12
535.03	54583.63
535.20	55011.95
535.37	55311.54
535.54	55215.58
535.71	54937.05
535.88	55187.49
536.05	55402.82
536.22	55407.50
536.38	55557.30
536.55	55227.28
536.72	55590.06
536.89	55480.06
537.06	55337.29
537.23	55683.69
537.40	55299.84
537.57	55206.22
537.74	55487.08
537.91	55936.46
538.08	55847.52
538.25	55381.76
538.42	55716.45
538.59	55868.59
538.75	55695.39
538.92	55831.14
539.09	56081.58
539.26	56013.70
539.43	56093.28
539.60	56133.07
539.77	56013.70
539.94	56289.88
540.11	56348.40
540.28	56364.78
540.44	56406.91
540.61	56140.09
540.78	56051.15
540.95	56552.02
541.12	56156.47
541.29	56381.16
541.46	56348.40
541.62	56512.23
541.79	56479.47
541.96	56004.34
542.13	56446.70
542.30	56254.78
542.47	56612.88
542.63	56849.27
542.80	56739.27
542.97	56947.57
543.14	57265.89
543.31	57120.77
543.48	56928.85
543.64	57460.15
543.81	57071.62
543.98	57207.37
544.15	57151.20
544.32	57003.75
544.48	57305.68
544.65	57095.03
544.82	57111.41
544.99	56903.10
545.16	57326.74
545.32	57240.14
545.49	57801.87
545.66	57513.98
545.83	57310.36
546.00	57680.16
546.16	57591.22
546.33	57623.99
546.50	57256.53
546.67	57755.06
546.83	57382.91
547.00	57633.35
547.17	57556.11
547.34	57785.49
547.50	57818.25
547.67	58061.67
547.84	57930.60
548.00	57827.62
548.17	57876.77
548.34	57719.95
548.51	57979.75
548.67	58047.63
548.84	58068.69
549.01	57813.57
549.18	57907.19
549.34	58028.90
549.51	58129.54
549.68	58124.86
549.84	57956.35
550.01	58237.21
550.18	58241.89
550.34	58209.12
550.51	58309.77
550.68	58204.44
550.84	58223.17
551.01	58426.79
551.18	58230.19
551.34	58391.68
551.51	58267.64
551.68	58508.71
551.84	58398.71
552.01	58337.85
552.18	58445.52
552.34	58419.77
552.51	58492.33
552.68	58302.74
552.84	58557.86
553.01	58672.55
553.18	58578.93
553.34	58728.72
553.51	58539.14
553.67	58796.60
553.84	58827.02
554.01	58859.79
554.17	58876.18
554.34	58766.17
554.51	58768.51
554.67	59014.27
554.84	59131.29
555.00	58885.54
555.17	58801.28
555.33	58993.20
555.50	58859.79
555.67	58749.79
555.83	59042.35
556.00	59157.04
556.16	59110.23
556.33	59051.72
556.50	59334.92
556.66	59025.97
556.83	59040.01
556.99	59332.58
557.16	59395.77
557.32	59353.65
557.49	59337.26
557.65	59201.51
557.82	59381.73
557.98	59348.96
558.15	59210.87
558.32	59323.22
558.48	59166.40
558.65	59526.84
558.81	59192.15
558.98	59554.93
559.14	59274.07
559.31	59374.71
559.47	59606.42
559.64	59723.45
559.80	59618.13
559.97	59470.67
560.13	59355.99
560.30	59505.78
560.46	59482.37
560.63	59758.56
560.79	59538.55
560.96	59835.80
561.12	59781.96
561.29	59767.92
561.45	59877.93
561.61	59920.05
561.78	59641.53
561.94	59580.68
562.11	59653.23
562.27	59826.43
562.44	59833.46
562.60	59924.74
562.77	59807.71
562.93	59765.58
563.10	59863.88
563.26	59611.10
563.42	60067.51
563.59	59735.15
563.75	59774.94
563.92	59882.61
564.08	59583.02
564.24	59948.14
564.41	60065.17
564.57	60069.85
564.74	59966.87
564.90	59728.13
565.07	59758.56
565.23	59852.18
565.39	59812.39
565.56	60034.74
565.72	60020.70
565.88	60030.06
566.05	60062.83
566.21	60067.51
566.38	60093.25
566.54	60090.91
566.70	60353.05
566.87	60292.20
567.03	60067.51
567.19	60214.96
567.36	60315.61
567.52	60331.99
567.68	60278.16
567.85	60273.48
568.01	60200.92
568.17	59957.50
568.34	60299.22
568.50	60137.72
568.66	60348.37
568.83	60231.35
568.99	60203.26
569.15	60292.20
569.32	60205.60
569.48	60179.85
569.64	60495.83
569.81	60217.30
569.97	60100.28
570.13	60301.56
570.30	60184.54
570.46	60257.09
570.62	60275.82
570.78	60158.79
570.95	60374.12
571.11	60264.11
571.27	60259.43
571.43	60423.27
571.60	60509.87
571.76	60519.23
571.92	60460.72
572.09	60552.00
572.25	60563.70
572.41	60273.48
572.57	60292.20
572.74	60582.43
572.90	60449.02
573.06	60591.79
573.22	60331.99
573.38	60582.43
573.55	60458.38
573.71	60772.01
573.87	60486.46
574.03	60406.89
574.20	60505.19
574.36	60465.40
574.52	60690.09
574.68	60420.93
574.84	60434.97
575.01	60633.92
575.17	60584.77
575.33	60542.64
575.49	60605.83
575.65	60629.24
575.82	60900.74
575.98	60577.75
576.14	60647.96
576.30	60669.03
576.46	60432.63
576.62	60598.81
576.79	60694.77
576.95	60418.59
577.11	60683.07
577.27	60554.34
577.43	60626.90
577.59	60652.64
577.75	60584.77
577.92	60547.32
578.08	60456.04
578.24	60645.62
578.40	60818.82
578.56	60921.80
578.72	60776.69
578.88	60685.41
579.04	60809.46
579.21	60711.16
579.37	60757.97
579.53	60896.06
579.69	60500.51
579.85	60790.73
580.01	60741.58
580.17	60584.77
580.33	60804.78
580.49	60676.05
580.65	60657.32
580.82	60629.24
580.98	60776.69
581.14	60629.24
581.30	60699.45
581.46	60760.31
581.62	60788.39
581.78	60757.97
581.94	60905.42
582.10	60814.14
582.26	60657.32
582.42	60811.80
582.58	60919.46
582.74	60743.92
582.90	60767.33
583.06	60769.67
583.22	60622.22
583.38	60779.03
583.54	60790.73
583.70	60872.65
583.86	60935.85
584.02	60809.46
584.18	60956.91
584.34	60654.98
584.50	60931.17
584.66	60741.58
584.82	60685.41
584.98	60846.91
585.14	60928.83
585.30	60907.76
585.46	61029.47
585.62	60837.54
585.78	61146.50
585.94	60818.82
586.10	60844.57
586.26	60900.74
586.42	60926.49
586.58	60945.21
586.74	60905.42
586.90	60772.01
587.06	60816.48
587.22	60994.36
587.38	61015.43
587.54	60999.04
587.70	61029.47
587.86	60992.02
588.02	60928.83
588.18	60977.98
588.34	60849.25
588.49	60935.85
