SpectraSuite Data File
++++++++++++++++++++++++++++++++++++
Date: Fri Oct 25 10:44:03 EDT 2013
User: price-jones
Dark Spectrum Present: No
Reference Spectrum Present: No
Number of Sampled Component Spectra: 1
Spectrometers: USB2+H05261
Integration Time (usec): 100000 (USB2+H05261)
Spectra Averaged: 1 (USB2+H05261)
Boxcar Smoothing: 0 (USB2+H05261)
Correct for Electrical Dark: No (USB2+H05261)
Strobe/Lamp Enabled: No (USB2+H05261)
Correct for Detector Non-linearity: No (USB2+H05261)
Correct for Stray Light: No (USB2+H05261)
Number of Pixels in Processed Spectrum: 2048
>>>>>Begin Processed Spectral Data<<<<<
365.73	95.96
365.92	95.96
366.12	95.96
366.32	23.41
366.52	98.30
366.72	49.15
366.91	0.00
367.11	65.54
367.31	0.00
367.51	35.11
367.70	0.00
367.90	60.85
368.10	42.13
368.30	21.06
368.49	0.00
368.69	86.60
368.89	51.49
369.09	30.43
369.28	79.58
369.48	65.54
369.68	77.24
369.87	70.22
370.07	119.37
370.27	126.39
370.47	203.63
370.66	351.08
370.86	454.06
371.06	482.15
371.25	440.02
371.45	475.13
371.65	477.47
371.84	379.17
372.04	447.04
372.24	500.87
372.44	486.83
372.63	543.00
372.83	533.64
373.03	554.71
373.22	486.83
373.42	552.37
373.62	550.03
373.81	580.45
374.01	535.98
374.21	564.07
374.40	517.26
374.60	543.00
374.79	585.13
374.99	578.11
375.19	608.54
375.38	645.99
375.58	592.16
375.78	674.07
375.97	622.58
376.17	760.67
376.37	641.31
376.56	629.60
376.76	592.16
376.95	610.88
377.15	589.82
377.35	643.65
377.54	648.33
377.74	671.73
377.93	671.73
378.13	667.05
378.33	678.76
378.52	674.07
378.72	706.84
378.91	734.93
379.11	653.01
379.31	683.44
379.50	603.86
379.70	739.61
379.89	725.57
380.09	669.39
380.28	781.74
380.48	763.01
380.68	655.35
380.87	718.54
381.07	716.20
381.26	697.48
381.46	760.67
381.65	730.25
381.85	734.93
382.04	723.23
382.24	713.86
382.43	744.29
382.63	732.59
382.83	734.93
383.02	753.65
383.22	765.36
383.41	688.12
383.61	748.97
383.80	734.93
384.00	793.44
384.19	739.61
384.39	868.34
384.58	807.48
384.78	887.06
384.97	798.12
385.17	795.78
385.36	763.01
385.56	842.59
385.75	819.19
385.95	807.48
386.14	870.68
386.34	870.68
386.53	809.83
386.72	866.00
386.92	966.64
387.11	922.17
387.31	896.43
387.50	926.85
387.70	915.15
387.89	943.24
388.09	987.71
388.28	964.30
388.48	999.41
388.67	980.68
388.86	1041.54
389.06	957.28
389.25	990.05
389.45	990.05
389.64	1088.35
389.84	1029.84
390.03	1048.56
390.22	1041.54
390.42	1153.88
390.61	1053.24
390.81	1025.15
391.00	1018.13
391.19	1057.92
391.39	1142.18
391.58	1102.39
391.78	1088.35
391.97	1104.73
392.16	1123.46
392.36	1034.52
392.55	1064.94
392.75	1053.24
392.94	1076.65
393.13	1062.60
393.33	1011.11
393.52	1144.52
393.71	1095.37
393.91	1165.59
394.10	1196.01
394.29	1263.89
394.49	1193.67
394.68	1284.95
394.88	1252.19
395.07	1289.64
395.26	1275.59
395.46	1273.25
395.65	1306.02
395.84	1287.29
396.04	1362.19
396.23	1144.52
396.42	1214.74
396.62	1228.78
396.81	1287.29
397.00	1334.11
397.19	1397.30
397.39	1334.11
397.58	1427.73
397.77	1467.52
397.97	1619.65
398.16	1542.41
398.35	1488.58
398.55	1514.33
398.74	1453.47
398.93	1621.99
399.12	1619.65
399.32	1497.94
399.51	1526.03
399.70	1572.84
399.90	1558.80
400.09	1636.03
400.28	1717.95
400.47	1802.21
400.67	1741.36
400.86	1645.40
401.05	1710.93
401.24	1661.78
401.44	1750.72
401.63	1804.55
401.82	1760.08
402.01	1781.15
402.21	1865.41
402.40	1905.20
402.59	1795.19
402.78	1905.20
402.97	1886.47
403.17	1893.49
403.36	1860.73
403.55	1928.60
403.74	2033.93
403.93	2045.63
404.13	2022.22
404.32	1813.92
404.51	1998.82
404.70	1928.60
404.89	1963.71
405.09	2127.55
405.28	2043.29
405.47	2040.95
405.66	2073.71
405.85	2104.14
406.05	2010.52
406.24	2148.61
406.43	2186.06
406.62	2204.78
406.81	2291.38
407.00	2188.40
407.20	2150.95
407.39	2118.18
407.58	2197.76
407.77	2265.64
407.96	2408.41
408.15	2293.72
408.34	2218.83
408.54	2352.24
408.73	2420.11
408.92	2408.41
409.11	2427.14
409.30	2459.90
409.49	2328.83
409.68	2392.03
409.87	2363.94
410.07	2410.75
410.26	2436.50
410.45	2434.16
410.64	2586.29
410.83	2633.10
411.02	2626.08
411.21	2729.06
411.40	2726.72
411.59	2614.38
411.78	2712.68
411.98	2717.36
412.17	2778.22
412.36	2825.03
412.55	2871.84
412.74	2881.20
412.93	2869.50
413.12	2731.41
413.31	2841.41
413.50	2890.56
413.69	2986.52
413.88	3047.38
414.07	3038.02
414.26	2984.18
414.45	3084.83
414.64	3002.91
414.83	3265.05
415.02	3126.96
415.22	3243.98
415.41	3246.32
415.60	3220.58
415.79	3396.12
415.98	3335.26
416.17	3346.97
416.36	3295.47
416.55	3426.54
416.74	3501.44
416.93	3403.14
417.12	3548.25
417.31	3566.98
417.50	3536.55
417.69	3574.00
417.88	3487.40
418.07	3576.34
418.26	3665.28
418.45	3651.24
418.64	3639.53
418.83	3744.86
419.02	3716.77
419.21	3775.28
419.39	3880.61
419.58	3852.52
419.77	3562.30
419.96	3791.67
420.15	3934.44
420.34	3889.97
420.53	3815.07
420.72	4009.34
420.91	4042.11
421.10	3918.06
421.29	3988.27
421.48	3925.08
421.67	4046.79
421.86	3978.91
422.05	3866.56
422.24	3770.60
422.43	3882.95
422.61	3981.25
422.80	4180.20
422.99	4091.26
423.18	4229.35
423.37	4187.22
423.56	4124.02
423.75	4133.39
423.94	4077.21
424.13	3971.89
424.32	3929.76
424.50	4198.92
424.69	4056.15
424.88	4180.20
425.07	4234.03
425.26	4072.53
425.45	4049.13
425.64	4074.87
425.83	4070.19
426.01	4147.43
426.20	4257.43
426.39	4219.99
426.58	4065.51
426.77	4154.45
426.96	4170.83
427.15	4131.05
427.33	4177.86
427.52	4161.47
427.71	4287.86
427.90	4318.29
428.09	4503.19
428.28	4327.65
428.46	4306.59
428.65	4393.19
428.84	4322.97
429.03	4538.30
429.22	4262.12
429.40	4257.43
429.59	4262.12
429.78	3995.29
429.97	3971.89
430.16	4161.47
430.34	4224.67
430.53	4381.48
430.72	4257.43
430.91	4362.76
431.10	4367.44
431.28	4411.91
431.47	4760.65
431.66	4851.93
431.85	4793.42
432.03	4777.03
432.22	4847.25
432.41	4711.50
432.60	4809.80
432.79	4947.89
432.97	4887.04
433.16	4905.76
433.35	4755.97
433.54	4807.46
433.72	4917.47
433.91	4896.40
434.10	4978.32
434.28	4980.66
434.47	5060.24
434.66	5130.45
434.85	5200.67
435.03	5273.23
435.22	5064.92
435.41	5334.08
435.59	5320.04
435.78	5301.31
435.97	5249.82
436.16	5313.02
436.34	5291.95
436.53	5305.99
436.72	5563.45
436.90	5327.06
437.09	5486.22
437.28	5252.16
437.46	5329.40
437.65	5411.32
437.84	5462.81
438.02	5280.25
438.21	5245.14
438.40	5352.81
438.58	5490.90
438.77	5783.46
438.96	5820.91
439.14	5820.91
439.33	5813.89
439.52	5844.32
439.70	5593.88
439.89	5863.04
440.08	5895.81
440.26	5799.85
440.45	5891.13
440.63	5893.47
440.82	6258.59
441.01	6001.13
441.19	6204.76
441.38	6305.40
441.57	6389.66
441.75	6274.98
441.94	6761.81
442.12	6392.00
442.31	6672.87
442.50	6415.41
442.68	6602.65
442.87	6619.04
443.05	6619.04
443.24	6665.85
443.43	6768.83
443.61	6750.10
443.80	6913.94
443.98	6647.12
444.17	6452.86
444.35	6731.38
444.54	6778.19
444.73	6686.91
444.91	6707.98
445.10	6796.92
445.28	6590.95
445.47	6565.20
445.65	6513.71
445.84	6689.25
446.02	6916.28
446.21	6745.42
446.39	6705.63
446.58	6892.88
446.77	6946.71
446.95	6757.13
447.14	6967.77
447.32	7136.29
447.51	6953.73
447.69	6895.22
447.88	7045.01
448.06	6902.24
448.25	7019.27
448.43	6883.52
448.62	7126.93
448.80	6977.14
448.99	6956.07
449.17	7101.19
449.36	7049.69
449.54	7115.23
449.73	7150.34
449.91	7459.29
450.10	7386.73
450.28	7719.09
450.46	7653.55
450.65	7548.23
450.83	7779.94
451.02	7370.35
451.20	7618.44
451.39	7566.95
451.57	7571.63
451.76	7470.99
451.94	7382.05
452.13	7552.91
452.31	7634.83
452.49	7253.32
452.68	7543.55
452.86	7470.99
453.05	7604.40
453.23	7733.13
453.42	7611.42
453.60	7641.85
453.78	7847.82
453.97	7552.91
454.15	7702.70
454.34	7639.51
454.52	7808.03
454.70	7854.84
454.89	7728.45
455.07	7929.74
455.26	8025.70
455.44	8044.42
455.62	8119.32
455.81	7901.65
455.99	8091.23
456.17	8021.02
456.36	8369.76
456.54	8149.75
456.73	8329.97
456.91	8479.76
457.09	8622.53
457.28	8657.64
457.46	8432.95
457.64	8423.59
457.83	8549.98
458.01	8336.99
458.19	8402.52
458.38	8428.27
458.56	8676.37
458.74	8517.21
458.93	8280.82
459.11	8418.91
459.29	8446.99
459.48	8821.48
459.66	8662.32
459.84	8554.66
460.03	8779.35
460.21	8807.44
460.39	8807.44
460.57	8849.57
460.76	9057.87
460.94	9092.98
461.12	8980.64
461.31	9006.38
461.49	8919.78
461.67	8966.59
461.85	9294.27
462.04	9210.01
462.22	9706.20
462.40	9202.99
462.59	9153.84
462.77	9355.12
462.95	9371.50
463.13	9385.55
463.32	9179.58
463.50	9549.39
463.68	9320.01
463.86	9633.64
464.05	9221.71
464.23	9261.50
464.41	9472.15
464.59	9324.69
464.78	9469.81
464.96	9483.85
465.14	9411.29
465.32	9685.14
465.50	9610.24
465.69	9848.97
465.87	9521.30
466.05	9437.04
466.23	9425.34
466.41	9631.30
466.60	9715.56
466.78	9439.38
466.96	9706.20
467.14	9565.77
467.32	9682.80
467.51	9834.93
467.69	9748.33
467.87	9837.27
468.05	10043.24
468.23	9858.34
468.41	9954.30
468.60	9991.75
468.78	10164.95
468.96	9727.27
469.14	10230.48
469.32	10267.93
469.50	9811.53
469.69	10176.65
469.87	10148.56
470.05	10085.37
470.23	10169.63
470.41	10146.22
470.59	10527.73
470.77	10157.92
470.95	10333.47
471.14	10604.97
471.32	10305.38
471.50	10707.95
471.68	10705.61
471.86	10810.93
472.04	10878.81
472.22	10998.18
472.40	10787.53
472.58	10752.42
472.77	11007.54
472.95	10794.55
473.13	11047.33
473.31	10909.24
473.49	10951.37
473.67	11194.78
473.85	10988.82
474.03	11442.88
474.21	11576.29
474.39	11372.66
474.57	11445.22
474.75	11566.93
474.93	11562.25
475.12	11557.57
475.30	11716.72
475.48	11534.16
475.66	11831.41
475.84	11690.98
476.02	11779.92
476.20	11735.45
476.38	12180.15
476.56	12123.98
476.74	12510.16
476.92	12168.45
477.10	12194.19
477.28	12755.92
477.46	12540.59
477.64	12847.20
477.82	12688.04
478.00	13085.94
478.18	13069.55
478.36	12924.44
478.54	13107.00
478.72	13137.43
478.90	13350.42
479.08	13612.56
479.26	13699.16
479.44	13572.77
479.62	13720.22
479.80	13572.77
479.98	14059.60
480.16	14120.45
480.34	14195.35
480.52	14167.26
480.70	14272.59
480.88	14101.73
481.06	14270.25
481.24	14466.85
481.41	14897.51
481.59	15096.46
481.77	15178.37
481.95	15119.86
482.13	14857.72
482.31	15026.24
482.49	15367.96
482.67	15316.47
482.85	15735.42
483.03	15772.87
483.21	15936.71
483.39	16051.39
483.57	16042.03
483.74	16339.28
483.92	16238.64
484.10	15974.16
484.28	16397.79
484.46	16561.63
484.64	16814.41
484.82	16645.89
485.00	16772.28
485.18	17081.23
485.35	17055.48
485.53	16805.05
485.71	16891.65
485.89	17020.38
486.07	17139.74
486.25	17240.39
486.43	17488.48
486.61	17720.20
486.78	17666.36
486.96	18221.07
487.14	18487.89
487.32	18366.18
487.50	18752.37
487.68	18855.36
487.85	19087.07
488.03	18951.32
488.21	19328.14
488.39	19358.57
488.57	19381.98
488.75	19566.88
488.92	19793.91
489.10	20229.25
489.28	20119.24
489.46	20353.30
489.64	20416.49
489.81	21039.08
489.99	20936.09
490.17	20627.14
490.35	21153.76
490.53	20973.54
490.70	21099.93
490.88	21120.99
491.06	21706.13
491.24	21392.50
491.41	21551.65
491.59	21727.19
491.77	21558.67
491.95	21664.00
492.13	21933.16
492.30	22256.15
492.48	22450.42
492.66	22560.42
492.84	22464.46
493.01	22806.18
493.19	22649.36
493.37	22937.25
493.54	23152.58
493.72	23695.58
493.90	23461.53
494.08	23892.19
494.25	23843.04
494.43	23957.72
494.61	24334.55
494.79	24411.79
494.96	24474.98
495.14	24210.50
495.32	24608.39
495.49	24732.44
495.67	24772.23
495.85	25041.39
496.02	24879.89
496.20	25294.17
496.38	25025.01
496.55	25472.05
496.73	25984.63
496.91	25661.63
497.09	26167.19
497.26	25930.80
497.44	25914.41
497.62	25942.50
497.79	26260.81
497.97	26031.44
498.14	26426.99
498.32	26583.80
498.50	26443.37
498.67	26986.38
498.85	27005.10
499.03	26820.20
499.20	27314.05
499.38	27122.13
499.56	27009.78
499.73	27484.91
499.91	27290.65
500.08	27501.29
500.26	27054.25
500.44	27711.94
500.61	27339.80
500.79	27363.20
500.97	27751.73
501.14	28056.00
501.32	27873.44
501.49	28004.51
501.67	28133.24
501.84	28521.77
502.02	28547.51
502.20	28304.10
502.37	28587.30
502.55	28774.55
502.72	28608.37
502.90	29015.62
503.07	28968.81
503.25	28999.24
503.43	28985.19
503.60	28811.99
503.78	29092.86
503.95	29116.26
504.13	29436.92
504.30	29301.17
504.48	29177.12
504.65	30012.69
504.83	29965.88
505.01	30267.81
505.18	30071.20
505.36	30415.26
505.53	30216.32
505.71	30754.64
505.88	30670.38
506.06	30546.33
506.23	30848.26
506.41	30433.99
506.58	30696.13
506.76	30698.47
506.93	30972.31
507.11	31049.55
507.28	31243.81
507.46	30824.86
507.63	31124.44
507.81	31152.53
507.98	31218.07
508.16	31096.36
508.33	31559.78
508.50	31630.00
508.68	31924.91
508.85	31896.82
509.03	32020.87
509.20	32156.62
509.38	32472.59
509.55	32180.03
509.73	32353.23
509.90	32421.10
510.08	32299.39
510.25	32606.00
510.42	32435.14
510.60	32446.85
510.77	32664.52
510.95	32971.13
511.12	32779.20
511.30	33338.59
511.47	33240.29
511.64	33350.29
511.82	33521.15
511.99	33404.13
512.17	33434.55
512.34	32936.02
512.51	33362.00
512.69	33432.21
512.86	33640.52
513.04	34237.36
513.21	34103.95
513.38	33621.80
513.56	33993.94
513.73	33757.55
513.90	34237.36
514.08	34066.50
514.25	34246.72
514.43	34120.33
514.60	34078.20
514.77	34595.46
514.95	34429.28
515.12	34291.19
515.29	34623.54
515.47	35023.78
515.64	34909.09
515.81	35112.72
515.99	35115.06
516.16	34878.66
516.33	34120.33
516.51	34656.31
516.68	34457.37
516.85	33956.49
517.03	34253.74
517.20	34726.53
517.37	35091.65
517.54	35243.79
517.72	35487.20
517.89	34897.39
518.06	35065.91
518.24	34672.70
518.41	35299.96
518.58	35564.44
518.75	35449.75
518.93	36229.15
519.10	35824.24
519.27	35974.03
519.45	35985.74
519.62	36376.61
519.79	35779.77
519.96	36360.22
520.14	36802.58
520.31	36292.35
520.48	36306.39
520.65	36769.82
520.83	36914.93
521.00	36973.44
521.17	36926.63
521.34	36650.45
521.52	36856.42
521.69	37134.94
521.86	37565.60
522.03	37191.11
522.20	37076.43
522.38	37057.70
522.55	37659.22
522.72	37399.42
522.89	37378.36
523.07	37703.69
523.24	37596.03
523.41	37757.52
523.58	37844.12
523.75	38480.75
523.92	37984.55
524.10	38644.59
524.27	38740.55
524.44	38703.10
524.61	38459.68
524.78	38492.45
524.96	39047.16
525.13	39100.99
525.30	38979.28
525.47	39126.74
525.64	38745.23
525.81	38337.98
525.98	38756.93
526.16	38094.56
526.33	38075.84
526.50	38291.16
526.67	37951.79
526.84	38012.64
527.01	38085.20
527.18	38923.11
527.36	39229.72
527.53	39276.53
527.70	39313.98
527.87	39414.62
528.04	39473.13
528.21	39276.53
528.38	39367.81
528.55	39503.56
528.72	39709.53
528.89	40304.02
529.07	39777.40
529.24	39405.26
529.41	40247.85
529.58	39686.12
529.75	40004.44
529.92	40189.34
530.09	39934.22
530.26	40016.14
530.43	40762.77
530.60	40711.28
530.77	40439.78
530.94	40708.94
531.11	40456.16
531.28	40474.88
531.46	40622.34
531.63	40620.00
531.80	40657.45
531.97	40439.78
532.14	40680.85
532.31	40098.06
532.48	40783.83
532.65	40311.05
532.82	40713.62
532.99	40982.78
533.16	40793.20
533.33	40921.93
533.50	41151.30
533.67	41146.62
533.84	41027.25
534.01	41043.63
534.18	41298.75
534.35	41193.43
534.52	41443.87
534.69	41493.02
534.86	41720.05
535.03	41706.01
535.20	42007.94
535.37	42150.71
535.54	41617.07
535.71	41904.95
535.88	41928.36
536.05	42071.13
536.22	42160.07
536.38	42178.79
536.55	41944.74
536.72	41654.51
536.89	41722.39
537.06	41823.03
537.23	42143.69
537.40	42328.59
537.57	42249.01
537.74	42237.31
537.91	42747.54
538.08	42267.73
538.25	42082.83
538.42	42129.64
538.59	42183.48
538.75	42309.86
538.92	42227.95
539.09	42618.81
539.26	42307.52
539.43	42398.80
539.60	42398.80
539.77	42354.33
539.94	42328.59
540.11	42356.67
540.28	42618.81
540.44	42302.84
540.61	42220.92
540.78	42328.59
540.95	43082.24
541.12	42777.97
541.29	42646.90
541.46	42623.50
541.62	42803.72
541.79	43150.12
541.96	42672.65
542.13	43332.68
542.30	43267.14
542.47	42859.89
542.63	43093.94
542.80	43239.06
542.97	43620.56
543.14	43660.35
543.31	43564.39
543.48	43473.11
543.64	44275.91
543.81	44233.78
543.98	43667.37
544.15	43826.53
544.32	44133.14
544.48	44432.73
544.65	43915.47
544.82	44025.48
544.99	43952.92
545.16	43611.20
545.32	43901.43
545.49	44133.14
545.66	44804.88
545.83	44418.69
546.00	44547.42
546.16	44198.68
546.33	44273.57
546.50	43824.19
546.67	44353.15
546.83	43863.98
547.00	44233.78
547.17	44009.09
547.34	44360.17
547.50	44430.39
547.67	44601.25
547.84	44751.04
548.00	44802.53
548.17	44858.71
548.34	44559.12
548.51	45198.09
548.67	44755.72
548.84	44800.19
549.01	45057.65
549.18	44896.16
549.34	45095.10
549.51	45064.67
549.68	45258.94
549.84	44903.18
550.01	45237.87
550.18	45287.03
550.34	44999.14
550.51	45179.36
550.68	45160.64
550.84	44744.02
551.01	45277.66
551.18	45357.24
551.34	45378.31
551.51	45354.90
551.68	45483.63
551.84	45373.63
552.01	44900.84
552.18	45469.59
552.34	45055.31
552.51	45420.44
552.68	45284.68
552.84	45359.58
553.01	45771.52
553.18	45720.02
553.34	45471.93
553.51	45345.54
553.67	45748.11
553.84	45897.91
554.01	45904.93
554.17	45745.77
554.34	45879.18
554.51	45689.60
554.67	46160.05
554.84	45610.02
555.00	45509.38
555.17	46019.61
555.33	45570.23
555.50	45944.72
555.67	45841.73
555.83	46164.73
556.00	45900.25
556.16	46351.97
556.33	45558.53
556.50	46021.95
556.66	46078.13
556.83	45914.29
556.99	45834.71
557.16	46106.21
557.32	46110.89
557.49	46061.74
557.65	45851.09
557.82	46319.20
557.98	46031.32
558.15	46054.72
558.32	46188.13
558.48	45832.37
558.65	45549.17
558.81	45844.07
558.98	45666.19
559.14	45935.35
559.31	46108.55
559.47	46328.56
559.64	45890.88
559.80	46211.54
559.97	46169.41
560.13	45799.60
560.30	46476.02
560.46	46422.19
560.63	46801.35
560.79	46679.64
560.96	46562.62
561.12	46239.62
561.29	46469.00
561.45	46256.01
561.61	46450.27
561.78	46590.70
561.94	46476.02
562.11	46557.94
562.27	46220.90
562.44	46363.67
562.60	46787.31
562.77	46616.45
562.93	46553.26
563.10	46677.30
563.26	46227.92
563.42	46791.99
563.59	46674.96
563.75	46506.44
563.92	46738.16
564.08	46780.29
564.24	46684.33
564.41	46469.00
564.57	46527.51
564.74	46443.25
564.90	46319.20
565.07	46447.93
565.23	46728.80
565.39	46314.52
565.56	46593.04
565.72	46571.98
565.88	46600.07
566.05	46831.78
566.21	46333.24
566.38	46136.64
566.54	46639.86
566.70	47002.64
566.87	46745.18
567.03	46997.96
567.19	47297.55
567.36	47016.68
567.52	46782.63
567.68	46789.65
567.85	46464.32
568.01	46941.78
568.17	46515.81
568.34	47306.91
568.50	46663.26
568.66	46925.40
568.83	46649.22
568.99	46401.12
569.15	46508.79
569.32	46724.11
569.48	46272.39
569.64	46885.61
569.81	46731.14
569.97	46815.40
570.13	46731.14
570.30	46639.86
570.46	46099.19
570.62	46146.00
570.78	46487.72
570.95	46637.51
571.11	46958.17
571.27	46735.82
571.43	46543.89
571.60	46782.63
571.76	46794.33
571.92	46663.26
572.09	47409.89
572.25	46799.01
572.41	47002.64
572.57	47047.11
572.74	47365.42
572.90	46728.80
573.06	46639.86
573.22	47302.23
573.38	46684.33
573.55	46862.21
573.71	47016.68
573.87	47164.14
574.03	46909.02
574.20	46855.18
574.36	46801.35
574.52	46827.10
574.68	46855.18
574.84	47002.64
575.01	47112.64
575.17	46953.49
575.33	46466.66
575.49	46394.10
575.65	47276.48
575.82	47201.58
575.98	46639.86
576.14	47583.09
576.30	47257.76
576.46	46925.40
576.62	46871.57
576.79	46560.28
576.95	47014.34
577.11	47171.16
577.27	46958.17
577.43	46820.08
577.59	46703.05
577.75	46541.55
577.92	46548.57
578.08	46408.14
578.24	46487.72
578.40	47133.71
578.56	46349.63
578.72	46810.71
578.88	46997.96
579.04	47466.06
579.21	47234.35
579.37	47033.07
579.53	46703.05
579.69	46665.60
579.85	46681.98
580.01	47166.48
580.17	47049.45
580.33	47182.86
580.49	46981.57
580.65	47519.90
580.82	47234.35
580.98	46438.57
581.14	46953.49
581.30	47327.97
581.46	47079.88
581.62	47182.86
581.78	47161.79
581.94	47210.95
582.10	46925.40
582.26	47342.02
582.42	46871.57
582.58	46951.15
582.74	47196.90
582.90	47386.49
583.06	47227.33
583.22	46955.83
583.38	47051.79
583.54	47147.75
583.70	47089.24
583.86	47379.46
584.02	47016.68
584.18	46983.91
584.34	46990.94
584.50	47138.39
584.66	46724.11
584.82	47061.15
584.98	47192.22
585.14	47012.00
585.30	46934.76
585.46	46913.70
585.62	46887.95
585.78	46962.85
585.94	46726.46
586.10	47168.82
586.26	46955.83
586.42	46801.35
586.58	47269.46
586.74	47449.68
586.90	47065.83
587.06	47133.71
587.22	47414.57
587.38	46822.42
587.54	47463.72
587.70	47597.13
587.86	47313.93
588.02	47014.34
588.18	47325.63
588.34	47065.83
588.49	46667.94
588.65	46651.56
588.81	46429.21
588.97	46539.21
589.13	46513.47
589.29	46450.27
589.45	47175.84
589.61	46871.57
589.77	47033.07
