SpectraSuite Data File
++++++++++++++++++++++++++++++++++++
Date: Fri Oct 25 10:43:16 EDT 2013
User: price-jones
Dark Spectrum Present: No
Reference Spectrum Present: No
Number of Sampled Component Spectra: 1
Spectrometers: USB2+H05261
Integration Time (usec): 100000 (USB2+H05261)
Spectra Averaged: 1 (USB2+H05261)
Boxcar Smoothing: 0 (USB2+H05261)
Correct for Electrical Dark: No (USB2+H05261)
Strobe/Lamp Enabled: No (USB2+H05261)
Correct for Detector Non-linearity: No (USB2+H05261)
Correct for Stray Light: No (USB2+H05261)
Number of Pixels in Processed Spectrum: 2048
>>>>>Begin Processed Spectral Data<<<<<
365.73	147.45
365.92	147.45
366.12	147.45
366.32	77.24
366.52	46.81
366.72	35.11
366.91	28.09
367.11	2.34
367.31	9.36
367.51	81.92
367.70	21.06
367.90	14.04
368.10	30.43
368.30	0.00
368.49	0.00
368.69	110.01
368.89	28.09
369.09	56.17
369.28	37.45
369.48	0.00
369.68	91.28
369.87	81.92
370.07	88.94
370.27	93.62
370.47	187.24
370.66	411.93
370.86	440.02
371.06	510.24
371.25	524.28
371.45	402.57
371.65	519.60
371.84	472.79
372.04	472.79
372.24	486.83
372.44	573.43
372.63	512.58
372.83	468.11
373.03	456.40
373.22	510.24
373.42	456.40
373.62	468.11
373.81	514.92
374.01	613.22
374.21	585.13
374.40	547.69
374.60	620.24
374.79	580.45
374.99	538.32
375.19	617.90
375.38	606.20
375.58	596.84
375.78	561.73
375.97	582.79
376.17	594.50
376.37	465.77
376.56	653.01
376.76	526.62
376.95	589.82
377.15	610.88
377.35	660.03
377.54	723.23
377.74	671.73
377.93	582.79
378.13	601.52
378.33	692.80
378.52	613.22
378.72	683.44
378.91	641.31
379.11	617.90
379.31	587.47
379.50	601.52
379.70	615.56
379.89	674.07
380.09	674.07
380.28	678.76
380.48	617.90
380.68	638.97
380.87	627.26
381.07	718.54
381.26	739.61
381.46	690.46
381.65	699.82
381.85	641.31
382.04	643.65
382.24	678.76
382.43	697.48
382.63	589.82
382.83	664.71
383.02	678.76
383.22	723.23
383.41	737.27
383.61	671.73
383.80	751.31
384.00	716.20
384.19	777.06
384.39	772.38
384.58	795.78
384.78	732.59
384.97	858.98
385.17	737.27
385.36	758.33
385.56	795.78
385.75	781.74
385.95	786.42
386.14	837.91
386.34	814.51
386.53	784.08
386.72	866.00
386.92	821.53
387.11	842.59
387.31	896.43
387.50	889.40
387.70	861.32
387.89	898.77
388.09	868.34
388.28	842.59
388.48	917.49
388.67	802.80
388.86	926.85
389.06	954.94
389.25	966.64
389.45	1006.43
389.64	933.87
389.84	1015.79
390.03	1027.50
390.22	1015.79
390.42	980.68
390.61	945.58
390.81	1025.15
391.00	1104.73
391.19	1071.97
391.39	1055.58
391.58	1025.15
391.78	1008.77
391.97	1100.05
392.16	990.05
392.36	1074.31
392.55	966.64
392.75	1039.20
392.94	992.39
393.13	1053.24
393.33	931.53
393.52	1022.81
393.71	1128.14
393.91	1095.37
394.10	1142.18
394.29	1093.03
394.49	1158.57
394.68	1144.52
394.88	1350.49
395.07	1268.57
395.26	1228.78
395.46	1228.78
395.65	1273.25
395.84	1188.99
396.04	1249.85
396.23	1137.50
396.42	1188.99
396.62	1210.06
396.81	1270.91
397.00	1249.85
397.19	1233.46
397.39	1306.02
397.58	1313.04
397.77	1348.15
397.97	1455.81
398.16	1511.99
398.35	1387.94
398.55	1451.13
398.74	1493.26
398.93	1561.14
399.12	1488.58
399.32	1488.58
399.51	1490.92
399.70	1502.62
399.90	1544.75
400.09	1521.35
400.28	1544.75
400.47	1526.03
400.67	1689.87
400.86	1694.55
401.05	1535.39
401.24	1614.97
401.44	1715.61
401.63	1703.91
401.82	1614.97
402.01	1746.04
402.21	1699.23
402.40	1776.47
402.59	1795.19
402.78	1764.76
402.97	1811.57
403.17	1839.66
403.36	1839.66
403.55	1844.34
403.74	1853.70
403.93	1926.26
404.13	1937.96
404.32	1895.83
404.51	1804.55
404.70	1949.67
404.89	1961.37
405.09	2071.37
405.28	1916.90
405.47	1966.05
405.66	1998.82
405.85	2001.16
406.05	2052.65
406.24	2038.61
406.43	2026.90
406.62	2085.42
406.81	2122.87
407.00	1970.73
407.20	1994.14
407.39	2146.27
407.58	2153.29
407.77	2183.72
407.96	2176.70
408.15	2174.36
408.34	2230.53
408.54	2328.83
408.73	2303.09
408.92	2253.94
409.11	2265.64
409.30	2361.60
409.49	2190.74
409.68	2246.91
409.87	2267.98
410.07	2373.30
410.26	2422.45
410.45	2307.77
410.64	2499.69
410.83	2504.37
411.02	2443.52
411.21	2530.12
411.40	2579.27
411.59	2679.91
411.78	2616.72
411.98	2593.31
412.17	2747.79
412.36	2679.91
412.55	2661.19
412.74	2796.94
412.93	2775.88
413.12	2785.24
413.31	2888.22
413.50	2722.04
413.69	2899.92
413.88	2867.16
414.07	2810.98
414.26	2944.39
414.45	2892.90
414.64	2988.86
414.83	2897.58
415.02	3122.27
415.22	3082.49
415.41	3169.09
415.60	3115.25
415.79	3204.19
415.98	3307.18
416.17	3239.30
416.36	3295.47
416.55	3133.98
416.74	3307.18
416.93	3234.62
417.12	3213.56
417.31	3403.14
417.50	3276.75
417.69	3449.95
417.88	3426.54
418.07	3421.86
418.26	3370.37
418.45	3529.53
418.64	3536.55
418.83	3737.84
419.02	3562.30
419.21	3737.84
419.39	3552.93
419.58	3494.42
419.77	3712.09
419.96	3761.24
420.15	3705.07
420.34	3765.92
420.53	3712.09
420.72	3932.10
420.91	3803.37
421.10	3812.73
421.29	3915.72
421.48	3817.41
421.67	3906.35
421.86	3843.16
422.05	3786.99
422.24	3737.84
422.43	3791.67
422.61	3829.12
422.80	3925.08
422.99	3889.97
423.18	3936.78
423.37	3859.54
423.56	4042.11
423.75	3974.23
423.94	3913.38
424.13	3627.83
424.32	3618.47
424.50	4021.04
424.69	4072.53
424.88	3990.61
425.07	4004.66
425.26	3889.97
425.45	3901.67
425.64	3896.99
425.83	3946.14
426.01	4107.64
426.20	4007.00
426.39	3964.87
426.58	3911.04
426.77	3953.16
426.96	3946.14
427.15	3955.51
427.33	4124.02
427.52	4014.02
427.71	4142.75
427.90	4145.09
428.09	4081.89
428.28	4067.85
428.46	4227.01
428.65	4203.60
428.84	4360.42
429.03	4175.52
429.22	3990.61
429.40	4131.05
429.59	4112.32
429.78	3997.64
429.97	3836.14
430.16	4121.68
430.34	4149.77
430.53	4210.62
430.72	4100.62
430.91	4294.88
431.10	4287.86
431.28	4512.55
431.47	4517.23
431.66	4669.37
431.85	4566.39
432.03	4610.86
432.22	4709.16
432.41	4573.41
432.60	4875.34
432.79	4706.82
432.97	4723.20
433.16	4760.65
433.35	4636.60
433.54	4535.96
433.72	4709.16
433.91	4737.24
434.10	4774.69
434.28	4781.71
434.47	4798.10
434.66	4842.57
434.85	4903.42
435.03	4966.62
435.22	4865.97
435.41	5114.07
435.59	5132.79
435.78	5107.05
435.97	5064.92
436.16	5186.63
436.34	5048.54
436.53	5085.98
436.72	5366.85
436.90	5177.26
437.09	5200.67
437.28	5167.90
437.46	5118.75
437.65	5097.69
437.84	5046.20
438.02	5130.45
438.21	5284.93
438.40	5036.83
438.58	5434.72
438.77	5284.93
438.96	5439.40
439.14	5490.90
439.33	5645.37
439.52	5514.30
439.70	5392.59
439.89	5617.29
440.08	5540.05
440.26	5596.22
440.45	5605.58
440.63	5858.36
440.82	6052.63
441.01	6120.50
441.19	6113.48
441.38	6122.84
441.57	6017.52
441.75	6066.67
441.94	6230.51
442.12	6363.92
442.31	6368.60
442.50	6223.48
442.68	6169.65
442.87	6413.07
443.05	6333.49
443.24	6597.97
443.43	6445.84
443.61	6574.56
443.80	6523.07
443.98	6289.02
444.17	6256.25
444.35	6469.24
444.54	6621.38
444.73	6392.00
444.91	6382.64
445.10	6406.05
445.28	6394.34
445.47	6406.05
445.65	6567.54
445.84	6368.60
446.02	6513.71
446.21	6619.04
446.39	6600.31
446.58	6520.73
446.77	6672.87
446.95	6700.95
447.14	6670.53
447.32	6764.15
447.51	6576.91
447.69	6607.33
447.88	6569.88
448.06	6710.32
448.25	6682.23
448.43	6848.41
448.62	6682.23
448.80	6658.82
448.99	6843.73
449.17	6874.15
449.36	6817.98
449.54	6860.11
449.73	7180.76
449.91	7101.19
450.10	7094.16
450.28	7190.13
450.46	7309.49
450.65	7307.15
450.83	7309.49
451.02	7386.73
451.20	7337.58
451.39	7265.02
451.57	7349.28
451.76	7307.15
451.94	7243.96
452.13	7178.42
452.31	7232.26
452.49	7084.80
452.68	7391.41
452.86	7143.32
453.05	7232.26
453.23	7468.65
453.42	7162.04
453.60	7424.18
453.78	7433.54
453.97	7459.29
454.15	7363.33
454.34	7243.96
454.52	7456.95
454.70	7531.84
454.89	7499.08
455.07	7705.04
455.26	7735.47
455.44	7779.94
455.62	7815.05
455.81	7702.70
455.99	7791.64
456.17	7953.14
456.36	7997.61
456.54	8086.55
456.73	8203.58
456.91	8294.86
457.09	8133.36
457.28	8252.73
457.46	8065.49
457.64	8131.02
457.83	8322.94
458.01	8025.70
458.19	8163.79
458.38	8109.96
458.56	8285.50
458.74	8163.79
458.93	8072.51
459.11	8411.89
459.29	8116.98
459.48	8355.71
459.66	8411.89
459.84	8468.06
460.03	8491.46
460.21	8334.65
460.39	8533.59
460.57	8507.85
460.76	8580.40
460.94	8777.01
461.12	8737.22
461.31	8758.28
461.49	8524.23
461.67	8592.11
461.85	8994.68
462.04	8681.05
462.22	9315.33
462.40	9018.08
462.59	8784.03
462.77	9067.24
462.95	8865.95
463.13	8924.46
463.32	9011.06
463.50	8957.23
463.68	9123.41
463.86	9146.81
464.05	8851.91
464.23	9074.26
464.41	9128.09
464.59	8884.67
464.78	9254.48
464.96	9348.10
465.14	9102.34
465.32	9132.77
465.50	9188.94
465.69	9280.22
465.87	9177.24
466.05	9212.35
466.23	9172.56
466.41	9275.54
466.60	9355.12
466.78	9198.31
466.96	9114.05
467.14	9366.82
467.32	9305.97
467.51	9483.85
467.69	9200.65
467.87	9219.37
468.05	9486.19
468.23	9521.30
468.41	9542.36
468.60	9584.49
468.78	9294.27
468.96	9430.02
469.14	9736.63
469.32	9846.63
469.50	9385.55
469.69	9851.31
469.87	9757.69
470.05	9865.36
470.23	9774.08
470.41	9991.75
470.59	10073.67
470.77	9844.29
470.95	10193.03
471.14	10106.43
471.32	9769.40
471.50	10427.09
471.68	10132.18
471.86	10284.31
472.04	10352.19
472.22	10347.51
472.40	10328.78
472.58	10291.34
472.77	10602.63
472.95	10572.20
473.13	10988.82
473.31	10595.61
473.49	10431.77
473.67	10567.52
473.85	10771.15
474.03	10970.09
474.21	10925.62
474.39	11133.93
474.57	11016.90
474.75	11159.67
474.93	11049.67
475.12	11180.74
475.30	11288.40
475.48	11227.55
475.66	11328.19
475.84	11131.59
476.02	11218.19
476.20	11733.11
476.38	11508.41
476.56	11946.09
476.74	11700.34
476.92	11623.10
477.10	12058.44
477.28	11971.84
477.46	12086.53
477.64	12346.33
477.82	12374.41
478.00	12741.88
478.18	12468.03
478.36	12561.66
478.54	12556.97
478.72	12718.47
478.90	12938.48
479.08	12929.12
479.26	12886.99
479.44	13074.23
479.62	13392.55
479.80	13317.65
479.98	13561.06
480.16	13745.97
480.34	13432.33
480.52	13654.69
480.70	13713.20
480.88	13394.89
481.06	13748.31
481.24	14071.30
481.41	14288.97
481.59	14277.27
481.77	14363.87
481.95	14265.57
482.13	14246.84
482.31	14391.95
482.49	15075.39
482.67	14810.91
482.85	14946.66
483.03	15243.91
483.21	15283.70
483.39	15300.08
483.57	15372.64
483.74	15583.29
483.92	15515.41
484.10	15587.97
484.28	15815.00
484.46	16009.26
484.64	16484.39
484.82	15782.23
485.00	15990.54
485.18	16381.41
485.35	16343.96
485.53	15831.38
485.71	16198.85
485.89	16423.54
486.07	16372.05
486.25	16697.38
486.43	17013.35
486.61	16891.65
486.78	17479.12
486.96	17181.87
487.14	17738.92
487.32	17633.60
487.50	17998.72
487.68	17956.59
487.85	18288.95
488.03	18326.39
488.21	18541.72
488.39	18436.40
488.57	18375.55
488.75	18792.16
488.92	18988.77
489.10	19379.64
489.28	19459.21
489.46	19716.67
489.64	19428.79
489.81	20336.91
489.99	20112.22
490.17	20100.52
490.35	20252.66
490.53	20315.85
490.70	20596.71
490.88	20219.89
491.06	20826.09
491.24	20870.56
491.41	20620.12
491.59	20652.89
491.77	20959.50
491.95	21181.85
492.13	21193.55
492.30	21596.12
492.48	21902.73
492.66	21399.52
492.84	21961.25
493.01	22094.66
493.19	22129.77
493.37	22291.26
493.54	22101.68
493.72	22602.55
493.90	22651.70
494.08	22845.97
494.25	23028.53
494.43	23407.70
494.61	23323.44
494.79	23325.78
494.96	23484.94
495.14	23723.67
495.32	23473.23
495.49	23545.79
495.67	23798.57
495.85	24095.82
496.02	24301.78
496.20	24292.42
496.38	24397.74
496.55	24503.07
496.73	25102.25
496.91	24844.79
497.09	24793.29
497.26	24575.62
497.44	25029.69
497.62	25195.87
497.79	25462.69
497.97	25317.57
498.14	24987.56
498.32	25532.90
498.50	25378.43
498.67	25748.23
498.85	25933.14
499.03	25991.65
499.20	26298.26
499.38	26001.01
499.56	26363.79
499.73	26438.69
499.91	26085.27
500.08	26579.12
500.26	26125.06
500.44	26476.14
500.61	26946.59
500.79	26483.16
500.97	26712.53
501.14	27112.77
501.32	27115.11
501.49	26988.72
501.67	26916.16
501.84	27667.47
502.02	27522.36
502.20	27618.32
502.37	27751.73
502.55	27782.16
502.72	28048.98
502.90	28353.25
503.07	27901.53
503.25	28100.47
503.43	27976.42
503.60	28180.05
503.78	28079.41
503.95	28383.68
504.13	28641.14
504.30	28304.10
504.48	28367.29
504.65	29050.73
504.83	28772.21
505.01	28975.83
505.18	29076.48
505.36	29371.38
505.53	29303.51
505.71	29546.92
505.88	29556.28
506.06	29371.38
506.23	29504.79
506.41	29734.17
506.58	29673.31
506.76	29696.72
506.93	29813.74
507.11	29989.28
507.28	30167.16
507.46	30022.05
507.63	29729.48
507.81	30125.04
507.98	29972.90
508.16	30228.02
508.33	30756.98
508.50	30354.41
508.68	30782.73
508.85	31082.31
509.03	30969.97
509.20	30974.65
509.38	31283.60
509.55	31140.83
509.73	31316.37
509.90	30930.18
510.08	31250.83
510.25	31424.03
510.42	31351.48
510.60	31770.43
510.77	31871.07
510.95	31620.64
511.12	31896.82
511.30	31906.18
511.47	32404.72
511.64	32231.52
511.82	32421.10
511.99	31775.11
512.17	32449.19
512.34	31791.50
512.51	32802.61
512.69	32613.02
512.86	32643.45
513.04	32938.36
513.21	32823.67
513.38	32861.12
513.56	32622.39
513.73	32818.99
513.90	33046.02
514.08	33273.06
514.25	32950.06
514.43	32910.27
514.60	33020.28
514.77	32964.10
514.95	33621.80
515.12	33247.31
515.29	33570.30
515.47	33930.75
515.64	34213.95
515.81	33916.70
515.99	33642.86
516.16	33692.01
516.33	33820.74
516.51	33820.74
516.68	33184.12
516.85	33064.75
517.03	33584.35
517.20	33743.50
517.37	34089.90
517.54	34279.49
517.72	34323.96
517.89	33851.17
518.06	33979.90
518.24	33846.49
518.41	34155.44
518.58	34316.93
518.75	34389.49
518.93	34628.23
519.10	34464.39
519.27	35281.24
519.45	34869.30
519.62	35739.98
519.79	35201.66
519.96	35178.25
520.14	35613.59
520.31	34899.73
520.48	35470.82
520.65	35159.53
520.83	35747.00
521.00	35751.68
521.17	35576.14
521.34	35529.33
521.52	35952.97
521.69	35967.01
521.86	36261.92
522.03	35983.40
522.20	35894.46
522.38	36439.80
522.55	36449.16
522.72	36025.53
522.89	36156.60
523.07	36650.45
523.24	36018.50
523.41	37001.53
523.58	36474.91
523.75	37083.45
523.92	37046.00
524.10	37170.05
524.27	37319.84
524.44	37361.97
524.61	37399.42
524.78	36912.59
524.96	37560.92
525.13	37331.54
525.30	37399.42
525.47	38136.69
525.64	37008.55
525.81	37570.28
525.98	37425.17
526.16	37251.97
526.33	36854.08
526.50	37799.65
526.67	36730.03
526.84	37130.26
527.01	37024.93
527.18	37745.82
527.36	37780.93
527.53	38043.07
527.70	38295.85
527.87	38178.82
528.04	38007.96
528.21	38143.71
528.38	38326.27
528.55	38852.89
528.72	38785.02
528.89	38941.83
529.07	38775.66
529.24	38586.07
529.41	38855.23
529.58	38534.58
529.75	38689.06
529.92	39236.74
530.09	39159.50
530.26	39100.99
530.43	38873.96
530.60	38962.90
530.77	39098.65
530.94	39234.40
531.11	39105.67
531.28	38859.91
531.46	39372.49
531.63	39124.40
531.80	39328.02
531.97	39365.47
532.14	39227.38
532.31	38948.85
532.48	39213.34
532.65	39328.02
532.82	39470.79
532.99	39751.66
533.16	39365.47
533.33	40084.01
533.50	39765.70
533.67	40378.92
533.84	39810.17
534.01	39894.43
534.18	39763.36
534.35	40491.27
534.52	40165.93
534.69	40297.00
534.86	40318.07
535.03	40175.30
535.20	40369.56
535.37	41216.83
535.54	40603.61
535.71	40524.04
535.88	40694.89
536.05	40622.34
536.22	40830.65
536.38	40570.85
536.55	40414.03
536.72	40580.21
536.89	40226.79
537.06	40734.68
537.23	41134.92
537.40	40542.76
537.57	40947.67
537.74	40751.07
537.91	41464.93
538.08	40797.88
538.25	40994.48
538.42	41127.89
538.59	41462.59
538.75	40650.42
538.92	41017.89
539.09	41104.49
539.26	41591.32
539.43	41324.50
539.60	41088.10
539.77	41113.85
539.94	41301.09
540.11	41118.53
540.28	41401.74
540.44	41413.44
540.61	41317.48
540.78	41029.59
540.95	41507.06
541.12	41284.71
541.29	41427.48
541.46	41652.17
541.62	41619.41
541.79	41940.06
541.96	41837.08
542.13	41357.27
542.30	41900.27
542.47	41539.83
542.63	41804.31
542.80	42036.02
542.97	42356.67
543.14	42368.38
543.31	42007.94
543.48	42501.79
543.64	42801.38
543.81	43107.99
543.98	42892.66
544.15	42370.72
544.32	42733.50
544.48	42892.66
544.65	42932.45
544.82	42719.46
544.99	42564.98
545.16	42679.67
545.32	42382.42
545.49	43063.52
545.66	42916.06
545.83	42855.21
546.00	43374.81
546.16	42930.11
546.33	43065.86
546.50	42459.66
546.67	43065.86
546.83	42843.51
547.00	42553.28
547.17	43199.27
547.34	43019.05
547.50	43330.34
547.67	43136.07
547.84	43325.66
548.00	43709.50
548.17	43665.03
548.34	43316.29
548.51	43871.00
548.67	43775.04
548.84	43459.07
549.01	42948.83
549.18	43550.35
549.34	43288.21
549.51	43594.82
549.68	43936.54
549.84	43784.40
550.01	44222.08
550.18	43681.42
550.34	43573.75
550.51	43681.42
550.68	43765.68
550.84	43182.88
551.01	43749.29
551.18	43789.08
551.34	43903.77
551.51	43840.57
551.68	43856.96
551.84	43896.75
552.01	43978.67
552.18	44250.17
552.34	43758.66
552.51	44261.87
552.68	44524.01
552.84	44299.32
553.01	44257.19
553.18	43999.73
553.34	44205.70
553.51	44069.95
553.67	44638.70
553.84	44779.13
554.01	44676.15
554.17	45237.87
554.34	44430.39
554.51	44231.44
554.67	45006.16
554.84	44336.77
555.00	44308.68
555.17	44643.38
555.33	44795.51
555.50	44781.47
555.67	44582.52
555.83	44528.69
556.00	44968.71
556.16	44804.88
556.33	44687.85
556.50	44634.02
556.66	44720.62
556.83	44491.24
556.99	44886.79
557.16	44729.98
557.32	44875.09
557.49	45015.52
557.65	44308.68
557.82	44624.65
557.98	44877.43
558.15	44905.52
558.32	45303.41
558.48	44715.93
558.65	44985.10
558.81	44994.46
558.98	44882.11
559.14	44655.08
559.31	44966.37
559.47	44919.56
559.64	45155.96
559.80	45141.91
559.97	45308.09
560.13	44753.38
560.30	45186.38
560.46	45167.66
560.63	45436.82
560.79	45394.69
560.96	45528.10
561.12	45371.28
561.29	45254.26
561.45	44999.14
561.61	45361.92
561.78	45113.83
561.94	44608.27
562.11	44795.51
562.27	44839.98
562.44	45303.41
562.60	45544.48
562.77	45277.66
562.93	45055.31
563.10	45881.52
563.26	45635.77
563.42	45453.20
563.59	45237.87
563.75	45125.53
563.92	45497.67
564.08	45897.91
564.24	45490.65
564.41	45265.96
564.57	45244.90
564.74	45476.61
564.90	45610.02
565.07	45588.95
565.23	45207.45
565.39	45488.31
565.56	45525.76
565.72	45228.51
565.88	45429.80
566.05	45741.09
566.21	45099.78
566.38	45588.95
566.54	45364.26
566.70	45797.26
566.87	45748.11
567.03	45673.21
567.19	45914.29
567.36	45815.99
567.52	45242.56
567.68	45853.44
567.85	45490.65
568.01	45972.80
568.17	45764.49
568.34	45895.56
568.50	45378.31
568.66	45385.33
568.83	46164.73
568.99	45446.18
569.15	45741.09
569.32	45509.38
569.48	45404.05
569.64	46108.55
569.81	45844.07
569.97	45343.20
570.13	45872.16
570.30	45181.70
570.46	45109.14
570.62	45041.27
570.78	44863.39
570.95	45263.62
571.11	45563.21
571.27	45261.28
571.43	45708.32
571.60	45666.19
571.76	45392.35
571.92	45460.23
572.09	45631.08
572.25	46010.25
572.41	45343.20
572.57	46033.66
572.74	45720.02
572.90	45907.27
573.06	45862.80
573.22	46026.63
573.38	45918.97
573.55	45467.25
573.71	46136.64
573.87	46082.81
574.03	45762.15
574.20	45729.39
574.36	45338.52
574.52	45837.05
574.68	45689.60
574.84	45544.48
575.01	45738.75
575.17	45542.14
575.33	45387.67
575.49	45895.56
575.65	46143.66
575.82	46059.40
575.98	45235.53
576.14	46248.99
576.30	46000.89
576.46	45694.28
576.62	45820.67
576.79	45949.40
576.95	45876.84
577.11	45996.21
577.27	45605.34
577.43	45553.85
577.59	45549.17
577.75	45881.52
577.92	45544.48
578.08	45258.94
578.24	45312.77
578.40	45518.74
578.56	45556.19
578.72	45841.73
578.88	46312.18
579.04	45951.74
579.21	45535.12
579.37	45830.03
579.53	45958.76
579.69	45361.92
579.85	45710.66
580.01	46019.61
580.17	45968.12
580.33	46068.76
580.49	45600.66
580.65	45813.65
580.82	45869.82
580.98	45883.86
581.14	45780.88
581.30	46202.18
581.46	45940.04
581.62	46014.93
581.78	45785.56
581.94	46094.51
582.10	46068.76
582.26	45727.05
582.42	45961.10
582.58	46010.25
582.74	45965.78
582.90	46054.72
583.06	46232.60
583.22	45947.06
583.38	46763.90
583.54	46089.83
583.70	46089.83
583.86	45485.97
584.02	45713.00
584.18	46094.51
584.34	46183.45
584.50	46185.79
584.66	45874.50
584.82	45703.64
584.98	46387.08
585.14	46246.65
585.30	46384.74
585.46	45874.50
585.62	45434.48
585.78	45827.69
585.94	45792.58
586.10	45422.78
586.26	45418.10
586.42	45921.31
586.58	46017.27
586.74	46277.07
586.90	45659.17
587.06	46043.02
587.22	45930.67
587.38	46012.59
587.54	46260.69
587.70	46155.36
587.86	45731.73
588.02	45902.59
588.18	45865.14
588.34	45928.33
588.49	45551.51
588.65	45680.24
588.81	45551.51
588.97	45720.02
589.13	45614.70
589.29	45521.08
589.45	45303.41
589.61	45258.94
589.77	46078.13
589.93	46148.34
