SpectraSuite Data File
++++++++++++++++++++++++++++++++++++
Date: Fri Oct 25 11:23:58 EDT 2013
User: price-jones
Dark Spectrum Present: No
Reference Spectrum Present: No
Number of Sampled Component Spectra: 1
Spectrometers: USB2+H05261
Integration Time (usec): 100000 (USB2+H05261)
Spectra Averaged: 1 (USB2+H05261)
Boxcar Smoothing: 0 (USB2+H05261)
Correct for Electrical Dark: No (USB2+H05261)
Strobe/Lamp Enabled: No (USB2+H05261)
Correct for Detector Non-linearity: No (USB2+H05261)
Correct for Stray Light: No (USB2+H05261)
Number of Pixels in Processed Spectrum: 2048
>>>>>Begin Processed Spectral Data<<<<<
365.73	259.80
365.92	259.80
366.12	259.80
366.32	201.29
366.52	124.05
366.72	180.22
366.91	175.54
367.11	135.75
367.31	105.32
367.51	182.56
367.70	88.94
367.90	177.88
368.10	105.32
368.30	110.01
368.49	93.62
368.69	201.29
368.89	168.52
369.09	142.77
369.28	217.67
369.48	229.37
369.68	220.01
369.87	124.05
370.07	191.92
370.27	175.54
370.47	379.17
370.66	526.62
370.86	617.90
371.06	732.59
371.25	655.35
371.45	678.76
371.65	765.36
371.84	690.46
372.04	690.46
372.24	660.03
372.44	643.65
372.63	725.57
372.83	763.01
373.03	690.46
373.22	779.40
373.42	800.46
373.62	751.31
373.81	800.46
374.01	868.34
374.21	788.76
374.40	912.81
374.60	910.47
374.79	786.42
374.99	695.14
375.19	800.46
375.38	786.42
375.58	847.27
375.78	816.85
375.97	905.79
376.17	875.36
376.37	877.70
376.56	828.55
376.76	917.49
376.95	875.36
377.15	835.57
377.35	884.72
377.54	908.13
377.74	940.90
377.93	856.64
378.13	896.43
378.33	891.74
378.52	828.55
378.72	933.87
378.91	898.77
379.11	945.58
379.31	931.53
379.50	903.45
379.70	957.28
379.89	971.32
380.09	952.60
380.28	924.51
380.48	880.04
380.68	985.37
380.87	987.71
381.07	1036.86
381.26	1111.75
381.46	1022.81
381.65	987.71
381.85	1015.79
382.04	1032.18
382.24	1041.54
382.43	1069.62
382.63	931.53
382.83	1071.97
383.02	1097.71
383.22	1032.18
383.41	1128.14
383.61	1165.59
383.80	1097.71
384.00	1125.80
384.19	1062.60
384.39	1123.46
384.58	1219.42
384.78	1235.80
384.97	1181.97
385.17	1121.12
385.36	1245.16
385.56	1198.35
385.75	1163.25
385.95	1198.35
386.14	1172.61
386.34	1153.88
386.53	1196.01
386.72	1266.23
386.92	1249.85
387.11	1263.89
387.31	1196.01
387.50	1252.19
387.70	1287.29
387.89	1240.48
388.09	1181.97
388.28	1299.00
388.48	1299.00
388.67	1291.98
388.86	1317.72
389.06	1294.32
389.25	1373.89
389.45	1282.61
389.64	1397.30
389.84	1362.19
390.03	1458.15
390.22	1373.89
390.42	1479.22
390.61	1376.24
390.81	1439.43
391.00	1380.92
391.19	1455.81
391.39	1418.36
391.58	1488.58
391.78	1589.22
391.97	1434.75
392.16	1378.58
392.36	1535.39
392.55	1451.13
392.75	1561.14
392.94	1441.77
393.13	1526.03
393.33	1521.35
393.52	1504.96
393.71	1577.52
393.91	1495.60
394.10	1647.74
394.29	1575.18
394.49	1680.50
394.68	1629.01
394.88	1497.94
395.07	1631.35
395.26	1668.80
395.46	1612.63
395.65	1708.59
395.84	1741.36
396.04	1774.13
396.23	1846.68
396.42	1867.75
396.62	1753.06
396.81	1755.40
397.00	1689.87
397.19	1874.77
397.39	1792.85
397.58	1851.36
397.77	1689.87
397.97	1839.66
398.16	1734.34
398.35	1832.64
398.55	1891.15
398.74	1914.56
398.93	1907.54
399.12	2017.54
399.32	1762.42
399.51	1921.58
399.70	1989.46
399.90	2038.61
400.09	2045.63
400.28	1980.09
400.47	2038.61
400.67	2118.18
400.86	1966.05
401.05	2054.99
401.24	1968.39
401.44	2111.16
401.63	2122.87
401.82	2169.68
402.01	2150.95
402.21	2204.78
402.40	2232.87
402.59	2193.08
402.78	2181.38
402.97	2179.04
403.17	2190.74
403.36	2272.66
403.55	2335.85
403.74	2282.02
403.93	2310.11
404.13	2417.77
404.32	2312.45
404.51	2363.94
404.70	2417.77
404.89	2385.01
405.09	2497.35
405.28	2392.03
405.47	2525.44
405.66	2436.50
405.85	2490.33
406.05	2471.61
406.24	2583.95
406.43	2480.97
406.62	2562.89
406.81	2698.64
407.00	2642.46
407.20	2642.46
407.39	2656.51
407.58	2621.40
407.77	2771.19
407.96	2710.34
408.15	2738.43
408.34	2750.13
408.54	2806.30
408.73	2782.90
408.92	2733.75
409.11	2780.56
409.30	2782.90
409.49	2902.26
409.68	2892.90
409.87	2991.20
410.07	2916.31
410.26	3000.57
410.45	3082.49
410.64	3023.97
410.83	3045.04
411.02	3136.32
411.21	3197.17
411.40	3089.51
411.59	3300.16
411.78	3101.21
411.98	3251.00
412.17	3297.81
412.36	3396.12
412.55	3323.56
412.74	3487.40
412.93	3447.61
413.12	3377.39
413.31	3625.49
413.50	3625.49
413.69	3555.27
413.88	3559.95
414.07	3669.96
414.26	3604.42
414.45	3707.41
414.64	3684.00
414.83	3744.86
415.02	3822.09
415.22	3768.26
415.41	3892.31
415.60	3824.44
415.79	3864.22
415.98	4028.06
416.17	4028.06
416.36	3997.64
416.55	4084.23
416.74	4091.26
416.93	4128.70
417.12	4051.47
417.31	4161.47
417.50	4086.58
417.69	4304.25
417.88	4280.84
418.07	4269.14
418.26	4360.42
418.45	4348.72
418.64	4344.03
418.83	4531.28
419.02	4397.87
419.21	4557.02
419.39	4472.76
419.58	4535.96
419.77	4456.38
419.96	4620.22
420.15	4601.49
420.34	4617.88
420.53	4634.26
420.72	4620.22
420.91	4671.71
421.10	4704.48
421.29	4800.44
421.48	4723.20
421.67	4695.11
421.86	4657.67
422.05	4847.25
422.24	4851.93
422.43	4809.80
422.61	4980.66
422.80	4943.21
422.99	4910.44
423.18	5034.49
423.37	5018.11
423.56	4905.76
423.75	4933.85
423.94	4861.29
424.13	4542.98
424.32	4828.53
424.50	5004.07
424.69	5027.47
424.88	5142.16
425.07	5006.41
425.26	4870.65
425.45	5060.24
425.64	4882.36
425.83	4931.51
426.01	5006.41
426.20	5071.94
426.39	5104.71
426.58	4964.28
426.77	4943.21
426.96	5071.94
427.15	5102.37
427.33	5165.56
427.52	5231.10
427.71	5266.21
427.90	5249.82
428.09	5357.49
428.28	5406.64
428.46	5444.09
428.65	5282.59
428.84	5568.13
429.03	5528.35
429.22	5219.39
429.40	5568.13
429.59	5654.73
429.78	5256.84
429.97	5378.55
430.16	5310.68
430.34	5565.79
430.53	5706.23
430.72	5582.18
430.91	5809.21
431.10	5619.63
431.28	5832.62
431.47	5856.02
431.66	5888.79
431.85	5795.17
432.03	5834.96
432.22	5987.09
432.41	5973.05
432.60	5937.94
432.79	5989.43
432.97	5891.13
433.16	5914.53
433.35	6057.31
433.54	6038.58
433.72	6132.20
433.91	6260.93
434.10	6193.06
434.28	6190.72
434.47	6282.00
434.66	6282.00
434.85	6312.42
435.03	6324.13
435.22	6424.77
435.41	6410.73
435.59	6324.13
435.78	6356.90
435.97	6600.31
436.16	6457.54
436.34	6420.09
436.53	6544.14
436.72	6434.13
436.90	6317.11
437.09	6633.08
437.28	6494.99
437.46	6609.67
437.65	6764.15
437.84	6834.36
438.02	6810.96
438.21	6768.83
438.40	6633.08
438.58	7124.59
438.77	7159.70
438.96	6944.37
439.14	7082.46
439.33	7148.00
439.52	7260.34
439.70	7342.26
439.89	7419.50
440.08	7300.13
440.26	7295.45
440.45	7407.80
440.63	7344.60
440.82	7606.74
441.01	7602.06
441.19	7602.06
441.38	7686.32
441.57	7763.56
441.75	7791.64
441.94	8084.21
442.12	7995.27
442.31	8025.70
442.50	8009.31
442.68	7988.25
442.87	8093.57
443.05	8100.59
443.24	8297.20
443.43	8269.11
443.61	8198.90
443.80	8566.36
443.98	8131.02
444.17	7871.22
444.35	8381.46
444.54	8358.05
444.73	8329.97
444.91	8273.79
445.10	8432.95
445.28	8528.91
445.47	8383.80
445.65	8093.57
445.84	8486.78
446.02	8571.04
446.21	8262.09
446.39	8336.99
446.58	8521.89
446.77	8432.95
446.95	8102.93
447.14	8311.24
447.32	8547.64
447.51	8472.74
447.69	8468.06
447.88	8355.71
448.06	8444.65
448.25	8685.73
448.43	8739.56
448.62	8659.98
448.80	8557.00
448.99	8655.30
449.17	8624.87
449.36	8667.00
449.54	8938.51
449.73	9043.83
449.91	8910.42
450.10	8758.28
450.28	9275.54
450.46	8961.91
450.65	9083.62
450.83	9039.15
451.02	8835.52
451.20	9275.54
451.39	9210.01
451.57	9228.73
451.76	9015.74
451.94	9411.29
452.13	9437.04
452.31	9455.76
452.49	9029.79
452.68	9301.29
452.86	9210.01
453.05	9359.80
453.23	9329.38
453.42	9434.70
453.60	9481.51
453.78	9561.09
453.97	9357.46
454.15	9631.30
454.34	9399.59
454.52	9607.90
454.70	9525.98
454.89	9687.48
455.07	9551.73
455.26	9701.52
455.44	9951.96
455.62	9942.60
455.81	9944.94
455.99	9818.55
456.17	10054.94
456.36	10401.34
456.54	10160.27
456.73	10127.50
456.91	10391.98
457.09	10415.38
457.28	10759.44
457.46	10157.92
457.64	10607.31
457.83	10520.71
458.01	10506.66
458.19	10764.12
458.38	10448.15
458.56	10867.11
458.74	10731.36
458.93	10743.06
459.11	10768.80
459.29	10876.47
459.48	10810.93
459.66	10656.46
459.84	10829.66
460.03	11077.76
460.21	10977.11
460.39	10988.82
460.57	11082.44
460.76	11232.23
460.94	11152.65
461.12	11080.10
461.31	11140.95
461.49	10965.41
461.67	11183.08
461.85	11325.85
462.04	11389.05
462.22	11475.65
462.40	11578.63
462.59	11557.57
462.77	11494.37
462.95	11702.68
463.13	11833.75
463.32	11838.43
463.50	11609.06
463.68	11824.39
463.86	11758.85
464.05	11580.97
464.23	11559.91
464.41	12013.97
464.59	11754.17
464.78	12152.06
464.96	12067.80
465.14	11857.15
465.32	11793.96
465.50	12128.66
465.69	12154.40
465.87	12250.36
466.05	12180.15
466.23	12187.17
466.41	12224.62
466.60	12512.50
466.78	12287.81
466.96	12271.43
467.14	12320.58
467.32	12510.16
467.51	12475.06
467.69	12315.90
467.87	12432.93
468.05	12461.01
468.23	12456.33
468.41	12470.37
468.60	12538.25
468.78	12732.51
468.96	12760.60
469.14	12657.62
469.32	12959.55
469.50	12503.14
469.69	13170.19
469.87	13226.37
470.05	13284.88
470.23	13219.35
470.41	13107.00
470.59	13312.97
470.77	13062.53
470.95	13177.22
471.14	13738.94
471.32	13233.39
471.50	13708.52
471.68	13614.90
471.86	13790.44
472.04	13685.11
472.22	13827.88
472.40	13776.39
472.58	13778.73
472.77	13980.02
472.95	14193.01
473.13	14633.03
473.31	14136.84
473.49	14396.64
473.67	14216.41
473.85	14317.06
474.03	14427.06
474.21	14469.19
474.39	15021.56
474.57	14890.49
474.75	15044.96
474.93	15089.43
475.12	14993.47
475.30	15021.56
475.48	15332.85
475.66	15470.94
475.84	15269.66
476.02	15503.71
476.20	15358.60
476.38	15735.42
476.56	16278.43
476.74	15985.86
476.92	16044.37
477.10	15852.45
477.28	15843.09
477.46	16149.70
477.64	16482.05
477.82	16641.21
478.00	17025.06
478.18	16978.25
478.36	16552.27
478.54	17247.41
478.72	17256.77
478.90	17355.07
479.08	17544.66
479.26	17645.30
479.44	17858.29
479.62	18143.83
479.80	18703.22
479.98	18190.64
480.16	18675.13
480.34	18314.69
480.52	18537.04
480.70	18614.28
480.88	18347.46
481.06	18672.79
481.24	18810.89
481.41	19288.35
481.59	19461.55
481.77	19496.66
481.95	19700.29
482.13	19913.28
482.31	19910.94
482.49	20217.55
482.67	20147.33
482.85	20585.01
483.03	21041.42
483.21	20863.54
483.39	20900.98
483.57	20645.87
483.74	21235.68
483.92	21287.17
484.10	21060.14
484.28	21734.21
484.46	22029.12
484.64	22511.27
484.82	22164.87
485.00	22295.94
485.18	22637.66
485.35	22951.29
485.53	22813.20
485.71	22827.24
485.89	23730.69
486.07	23620.69
486.25	23398.34
486.43	23330.46
486.61	23976.45
486.78	24135.60
486.96	24407.11
487.14	24826.06
487.32	24549.88
487.50	24816.70
487.68	24938.41
487.85	25282.47
488.03	25612.48
488.21	25879.30
488.39	26183.57
488.57	25935.48
488.75	26448.05
488.92	26511.25
489.10	27171.28
489.28	26441.03
489.46	26918.50
489.64	26801.47
489.81	27428.74
489.99	27807.90
490.17	27480.23
490.35	28184.73
490.53	28142.60
490.70	28315.80
490.88	28161.33
491.06	29160.73
491.24	28783.91
491.41	29172.44
491.59	29303.51
491.77	29298.83
491.95	29729.48
492.13	29759.91
492.30	30155.46
492.48	30110.99
492.66	30506.54
492.84	30698.47
493.01	30553.35
493.19	30551.01
493.37	31536.38
493.54	31232.11
493.72	31627.66
493.90	31510.63
494.08	31580.85
494.25	31971.72
494.43	32538.13
494.61	32472.59
494.79	32425.78
494.96	32549.83
495.14	32872.82
495.32	33090.49
495.49	33244.97
495.67	33050.70
495.85	33457.96
496.02	33795.00
496.20	33823.08
496.38	34183.52
496.55	34031.39
496.73	34660.99
496.91	34693.76
497.09	35133.78
497.26	34909.09
497.44	35072.93
497.62	35651.04
497.79	35721.26
497.97	35604.23
498.14	36079.36
498.32	36142.55
498.50	36318.09
498.67	36421.08
498.85	36666.83
499.03	36701.94
499.20	37048.34
499.38	36943.02
499.56	36479.59
499.73	37141.96
499.91	37364.31
500.08	37710.71
500.26	37020.25
500.44	38019.66
500.61	38022.00
500.79	38113.28
500.97	38562.67
501.14	38742.89
501.32	38569.69
501.49	38518.20
501.67	38639.90
501.84	39178.23
502.02	39143.12
502.20	39456.75
502.37	39054.18
502.55	39260.15
502.72	39697.83
502.90	39494.20
503.07	39508.24
503.25	39899.11
503.43	39763.36
503.60	40095.72
503.78	40502.97
503.95	40219.77
504.13	40758.09
504.30	40774.47
504.48	40477.22
504.65	40811.92
504.83	41275.35
505.01	41434.50
505.18	41193.43
505.36	41460.25
505.53	41640.47
505.71	41574.94
505.88	42021.98
506.06	41298.75
506.23	42459.66
506.41	41926.02
506.58	42183.48
506.76	42043.04
506.93	42354.33
507.11	42256.03
507.28	42424.55
507.46	42792.01
507.63	42492.43
507.81	43257.78
507.98	42799.04
508.16	42885.64
508.33	43707.16
508.50	43548.01
508.68	43786.74
508.85	43948.24
509.03	43950.58
509.20	44037.18
509.38	44540.39
509.55	44526.35
509.73	44416.35
509.90	44945.31
510.08	44816.58
510.25	44713.59
510.42	44666.78
510.60	45017.86
510.77	45167.66
510.95	45240.21
511.12	44940.63
511.30	45404.05
511.47	45794.92
511.64	45556.19
511.82	46122.60
511.99	45574.91
512.17	46438.57
512.34	45815.99
512.51	46567.30
512.69	46782.63
512.86	46347.29
513.04	46700.71
513.21	46330.90
513.38	46845.82
513.56	47114.98
513.73	46902.00
513.90	46735.82
514.08	47100.94
514.25	47777.36
514.43	47395.85
514.60	47676.71
514.77	47110.30
514.95	47714.16
515.12	47545.64
515.29	47669.69
515.47	47892.04
515.64	48367.17
515.81	47899.06
515.99	48296.95
516.16	48582.50
516.33	47831.19
516.51	48837.62
516.68	48463.13
516.85	48652.72
517.03	48776.76
517.20	49001.46
517.37	48832.94
517.54	49137.21
517.72	48736.98
517.89	49308.07
518.06	49275.30
518.24	49488.29
518.41	49420.41
518.58	49352.54
518.75	49497.65
518.93	50101.51
519.10	49680.21
519.27	49804.26
519.45	49951.71
519.62	50131.93
519.79	49921.29
519.96	50263.00
520.14	50138.96
520.31	50124.91
520.48	50656.21
520.65	50251.30
520.83	50574.30
521.00	50911.33
521.17	50899.63
521.34	50887.93
521.52	50670.26
521.69	51096.24
521.86	51068.15
522.03	51236.67
522.20	51669.67
522.38	51824.14
522.55	51522.21
522.72	51283.48
522.89	51709.46
523.07	51948.19
523.24	51655.62
523.41	51966.91
523.58	51782.01
523.75	52240.76
523.92	52079.26
524.10	51765.63
524.27	51856.91
524.44	52121.39
524.61	51889.68
524.78	52229.05
524.96	52402.25
525.13	52453.75
525.30	52467.79
525.47	52420.98
525.64	52690.14
525.81	52671.42
525.98	52898.45
526.16	52643.33
526.33	52800.15
526.50	53062.29
526.67	52842.27
526.84	53312.72
527.01	53174.63
527.18	53109.10
527.36	53076.33
527.53	52994.41
527.70	53408.68
527.87	53319.74
528.04	53165.27
528.21	53518.69
528.38	53268.25
528.55	53670.82
528.72	53301.02
528.89	53404.00
529.07	53460.18
529.24	53434.43
529.41	53801.89
529.58	53628.69
529.75	53572.52
529.92	53647.42
530.09	53703.59
530.26	53858.07
530.43	54101.48
530.60	53904.88
530.77	53942.33
530.94	54270.00
531.11	54094.46
531.28	54150.63
531.46	54286.39
531.63	54330.86
531.80	54323.83
531.97	54452.56
532.14	54461.93
532.31	54307.45
532.48	54459.58
532.65	54740.45
532.82	54260.64
532.99	54628.10
533.16	54913.65
533.33	54703.00
533.50	54901.95
533.67	54958.12
533.84	54850.45
534.01	55044.72
534.18	54932.37
534.35	55388.78
534.52	55454.31
534.69	55224.94
534.86	55299.84
535.03	55138.34
535.20	55634.53
535.37	55407.50
535.54	55309.20
535.71	55278.77
535.88	55498.78
536.05	55365.37
536.22	55763.26
536.38	55880.29
536.55	55601.77
536.72	55913.06
536.89	55622.83
537.06	55529.21
537.23	55831.14
537.40	55732.84
537.57	55763.26
537.74	55915.40
537.91	56114.34
538.08	55819.44
538.25	55859.23
538.42	55875.61
538.59	56289.88
538.75	56027.74
538.92	56315.63
539.09	56273.50
539.26	56126.05
539.43	56320.31
539.60	56423.29
539.77	56072.21
539.94	56495.85
540.11	56409.25
540.28	56280.52
540.44	56582.45
540.61	56589.47
540.78	56404.57
540.95	56556.70
541.12	56596.49
541.29	56399.89
541.46	56659.69
541.62	56615.22
541.79	56694.80
541.96	56526.28
542.13	56720.54
542.30	56626.92
542.47	56989.70
542.63	56739.27
542.80	56947.57
542.97	57109.07
543.14	57235.46
543.31	57179.29
543.48	57158.22
543.64	57495.26
543.81	57443.77
543.98	57392.28
544.15	57153.54
544.32	57275.25
544.48	57623.99
544.65	57382.91
544.82	57511.64
544.99	57532.71
545.16	57694.21
545.32	57326.74
545.49	57771.44
545.66	57886.13
545.83	57511.64
546.00	57523.35
546.16	57621.65
546.33	57822.93
546.50	57579.52
546.67	57715.27
546.83	57595.90
547.00	57635.69
547.17	57729.31
547.34	57989.11
547.50	58131.89
547.67	58040.60
547.84	58068.69
548.00	58277.00
548.17	58382.32
548.34	58099.12
548.51	58354.24
548.67	58478.28
548.84	58541.48
549.01	58323.81
549.18	58162.31
549.34	58478.28
549.51	58162.31
549.68	58637.44
549.84	58384.66
550.01	58457.22
550.18	58358.92
550.34	58227.85
550.51	58508.71
550.68	58564.88
550.84	58419.77
551.01	58305.09
551.18	58695.95
551.34	58560.20
551.51	58607.01
551.68	58508.71
551.84	58658.51
552.01	58803.62
552.18	58674.89
552.34	58578.93
552.51	58628.08
552.68	58637.44
552.84	58599.99
553.01	59025.97
553.18	59011.93
553.34	59021.29
553.51	58855.11
553.67	58843.41
553.84	58965.12
554.01	58934.69
554.17	59091.51
554.34	59093.85
554.51	59002.56
554.67	59103.21
554.84	59025.97
555.00	59189.81
555.17	59124.27
555.33	59236.62
555.50	59056.40
555.67	59072.78
555.83	59138.32
556.00	59131.29
556.16	59353.65
556.33	59377.05
556.50	59192.15
556.66	59281.09
556.83	59341.94
556.99	59348.96
557.16	59374.71
557.32	59641.53
557.49	59686.00
557.65	59501.10
557.82	59498.76
557.98	59250.66
558.15	59377.05
558.32	59428.54
558.48	59414.50
558.65	59407.48
558.81	59508.12
558.98	59627.49
559.14	59709.41
559.31	59781.96
559.47	59784.30
559.64	59482.37
559.80	59749.20
559.97	59889.63
560.13	59634.51
560.30	59828.77
560.46	59620.47
560.63	59868.56
560.79	59955.16
560.96	59868.56
561.12	59707.07
561.29	59817.07
561.45	59917.71
561.61	59847.50
561.78	59861.54
561.94	59683.66
562.11	59814.73
562.27	60032.40
562.44	59987.93
562.60	60100.28
562.77	59992.61
562.93	59959.84
563.10	60027.72
563.26	60102.62
563.42	60285.18
563.59	60111.98
563.75	60011.34
563.92	60100.28
564.08	60039.42
564.24	60020.70
564.41	60240.71
564.57	60128.36
564.74	60182.19
564.90	60182.19
565.07	60200.92
565.23	60231.35
565.39	60133.04
565.56	60135.38
565.72	60147.09
565.88	60191.56
566.05	60229.01
566.21	60266.45
566.38	60308.58
566.54	60339.01
566.70	60423.27
566.87	60406.89
567.03	60168.15
567.19	60605.83
567.36	60336.67
567.52	60257.09
567.68	60484.12
567.85	60392.84
568.01	60378.80
568.17	60409.23
568.34	60432.63
568.50	60477.10
568.66	60348.37
568.83	60622.22
568.99	60472.42
569.15	60399.86
569.32	60477.10
569.48	60552.00
569.64	60346.03
569.81	60481.78
569.97	60395.18
570.13	60575.40
570.30	60308.58
570.46	60753.29
570.62	60631.58
570.78	60605.83
570.95	60537.96
571.11	60594.13
571.27	60619.88
571.43	60453.70
571.60	60713.50
571.76	60619.88
571.92	60556.68
572.09	60615.19
572.25	60772.01
572.41	60664.35
572.57	60718.18
572.74	60914.78
572.90	60666.69
573.06	60816.48
573.22	60678.39
573.38	60772.01
573.55	60556.68
573.71	60814.14
573.87	60685.41
574.03	60676.05
574.20	60896.06
574.36	60650.30
574.52	60860.95
574.68	60750.94
574.84	60779.03
575.01	60844.57
575.17	60807.12
575.33	60704.13
575.49	60624.56
575.65	60790.73
575.82	60598.81
575.98	60800.10
576.14	60973.30
576.30	60919.46
576.46	60828.18
576.62	60832.86
576.79	60814.14
576.95	60725.20
577.11	60839.89
577.27	60858.61
577.43	61083.30
577.59	60741.58
577.75	60493.49
577.92	60610.51
578.08	60800.10
578.24	60814.14
578.40	60886.70
578.56	61015.43
578.72	60734.56
578.88	60963.93
579.04	61193.31
579.21	60860.95
579.37	61031.81
579.53	61127.77
579.69	60722.86
579.85	60999.04
580.01	60926.49
580.17	60863.29
580.33	61097.34
580.49	60938.19
580.65	61006.06
580.82	61043.51
580.98	60970.96
581.14	60896.06
581.30	61139.47
581.46	60970.96
581.62	61055.21
581.78	60963.93
581.94	61013.08
582.10	60940.53
582.26	60900.74
582.42	61027.13
582.58	61017.77
582.74	60788.39
582.90	61050.53
583.06	60877.33
583.22	60851.59
583.38	61029.47
583.54	61169.90
583.70	60996.70
583.86	60931.17
584.02	60774.35
584.18	61029.47
584.34	61008.40
584.50	61087.98
584.66	61001.38
584.82	60938.19
584.98	61102.03
585.14	61031.81
585.30	60734.56
585.46	61244.80
585.62	61034.15
585.78	61153.52
585.94	60860.95
586.10	61165.22
586.26	61155.86
586.42	61134.79
586.58	61162.88
586.74	61300.97
586.90	61174.58
587.06	61048.19
587.22	61345.44
587.38	61139.47
587.54	61176.92
587.70	61352.46
587.86	60989.68
588.02	61254.16
588.18	61216.71
588.34	60949.89
588.49	61003.72
