SpectraSuite Data File
++++++++++++++++++++++++++++++++++++
Date: Fri Oct 25 11:25:34 EDT 2013
User: price-jones
Dark Spectrum Present: No
Reference Spectrum Present: No
Number of Sampled Component Spectra: 1
Spectrometers: USB2+H05261
Integration Time (usec): 100000 (USB2+H05261)
Spectra Averaged: 1 (USB2+H05261)
Boxcar Smoothing: 0 (USB2+H05261)
Correct for Electrical Dark: No (USB2+H05261)
Strobe/Lamp Enabled: No (USB2+H05261)
Correct for Detector Non-linearity: No (USB2+H05261)
Correct for Stray Light: No (USB2+H05261)
Number of Pixels in Processed Spectrum: 2048
>>>>>Begin Processed Spectral Data<<<<<
365.73	238.73
365.92	238.73
366.12	238.73
366.32	138.09
366.52	126.39
366.72	126.39
366.91	135.75
367.11	74.90
367.31	117.03
367.51	117.03
367.70	93.62
367.90	159.16
368.10	133.41
368.30	51.49
368.49	119.37
368.69	142.77
368.89	131.07
369.09	168.52
369.28	149.79
369.48	173.20
369.68	198.95
369.87	217.67
370.07	234.05
370.27	222.35
370.47	341.72
370.66	664.71
370.86	566.41
371.06	737.27
371.25	777.06
371.45	685.78
371.65	723.23
371.84	678.76
372.04	627.26
372.24	706.84
372.44	678.76
372.63	690.46
372.83	758.33
373.03	638.97
373.22	758.33
373.42	727.91
373.62	751.31
373.81	812.17
374.01	798.12
374.21	830.89
374.40	800.46
374.60	837.91
374.79	889.40
374.99	884.72
375.19	854.30
375.38	760.67
375.58	753.65
375.78	915.15
375.97	894.08
376.17	842.59
376.37	868.34
376.56	898.77
376.76	800.46
376.95	910.47
377.15	830.89
377.35	957.28
377.54	903.45
377.74	870.68
377.93	896.43
378.13	917.49
378.33	863.66
378.52	882.38
378.72	936.21
378.91	964.30
379.11	933.87
379.31	924.51
379.50	875.36
379.70	999.41
379.89	924.51
380.09	945.58
380.28	961.96
380.48	915.15
380.68	985.37
380.87	943.24
381.07	1032.18
381.26	980.68
381.46	990.05
381.65	997.07
381.85	1086.01
382.04	1008.77
382.24	1053.24
382.43	1071.97
382.63	1029.84
382.83	1095.37
383.02	1238.14
383.22	1102.39
383.41	1114.10
383.61	985.37
383.80	1156.22
384.00	1139.84
384.19	1153.88
384.39	1078.99
384.58	1100.05
384.78	1090.69
384.97	1149.20
385.17	1132.82
385.36	1151.54
385.56	1102.39
385.75	1137.50
385.95	1217.08
386.14	1181.97
386.34	1158.57
386.53	1233.46
386.72	1086.01
386.92	1254.53
387.11	1238.14
387.31	1238.14
387.50	1130.48
387.70	1247.51
387.89	1238.14
388.09	1249.85
388.28	1331.76
388.48	1240.48
388.67	1336.45
388.86	1385.60
389.06	1294.32
389.25	1280.27
389.45	1355.17
389.64	1282.61
389.84	1369.21
390.03	1315.38
390.22	1401.98
390.42	1441.77
390.61	1317.72
390.81	1369.21
391.00	1399.64
391.19	1465.18
391.39	1441.77
391.58	1390.28
391.78	1479.22
391.97	1497.94
392.16	1472.20
392.36	1598.59
392.55	1481.56
392.75	1472.20
392.94	1397.30
393.13	1481.56
393.33	1490.92
393.52	1540.07
393.71	1495.60
393.91	1481.56
394.10	1593.90
394.29	1621.99
394.49	1640.72
394.68	1631.35
394.88	1577.52
395.07	1715.61
395.26	1636.03
395.46	1666.46
395.65	1694.55
395.84	1629.01
396.04	1692.21
396.23	1757.74
396.42	1685.19
396.62	1715.61
396.81	1799.87
397.00	1865.41
397.19	1657.10
397.39	1778.81
397.58	1788.17
397.77	1820.94
397.97	1916.90
398.16	1820.94
398.35	1879.45
398.55	1834.98
398.74	1865.41
398.93	1919.24
399.12	1802.21
399.32	1858.39
399.51	1984.77
399.70	1994.14
399.90	1975.41
400.09	2101.80
400.28	2029.24
400.47	2024.56
400.67	2083.08
400.86	1984.77
401.05	1961.37
401.24	2031.58
401.44	2132.23
401.63	2125.21
401.82	2111.16
402.01	2108.82
402.21	2258.62
402.40	2275.00
402.59	2172.02
402.78	2221.17
402.97	2214.15
403.17	2157.97
403.36	2246.91
403.55	2232.87
403.74	2403.73
403.93	2270.32
404.13	2253.94
404.32	2377.98
404.51	2267.98
404.70	2473.95
404.89	2401.39
405.09	2424.80
405.28	2431.82
405.47	2410.75
405.66	2548.84
405.85	2567.57
406.05	2495.01
406.24	2551.18
406.43	2621.40
406.62	2546.50
406.81	2682.25
407.00	2544.16
407.20	2602.68
407.39	2626.08
407.58	2724.38
407.77	2843.75
407.96	2822.69
408.15	2736.09
408.34	2658.85
408.54	2860.13
408.73	2796.94
408.92	2815.66
409.11	2906.95
409.30	2869.50
409.49	2682.25
409.68	2988.86
409.87	2864.82
410.07	3040.36
410.26	2970.14
410.45	2970.14
410.64	3026.31
410.83	3108.23
411.02	3180.79
411.21	3166.74
411.40	3201.85
411.59	3159.72
411.78	3112.91
411.98	3138.66
412.17	3288.45
412.36	3307.18
412.55	3274.41
412.74	3421.86
412.93	3456.97
413.12	3475.70
413.31	3475.70
413.50	3496.76
413.69	3515.48
413.88	3623.15
414.07	3529.53
414.26	3538.89
414.45	3730.81
414.64	3693.37
414.83	3716.77
415.02	3768.26
415.22	3838.48
415.41	3817.41
415.60	3929.76
415.79	3808.05
415.98	3911.04
416.17	3990.61
416.36	3922.74
416.55	3983.59
416.74	4098.28
416.93	3943.80
417.12	4056.15
417.31	4140.41
417.50	4011.68
417.69	4334.67
417.88	4255.09
418.07	4318.29
418.26	4245.73
418.45	4198.92
418.64	4580.43
418.83	4271.48
419.02	4358.08
419.21	4468.08
419.39	4557.02
419.58	4535.96
419.77	4346.37
419.96	4582.77
420.15	4599.15
420.34	4489.15
420.53	4706.82
420.72	4762.99
420.91	4629.58
421.10	4777.03
421.29	4840.23
421.48	4744.27
421.67	4732.56
421.86	4718.52
422.05	4919.81
422.24	4793.42
422.43	4755.97
422.61	4812.14
422.80	4957.25
422.99	4863.63
423.18	4851.93
423.37	5060.24
423.56	4882.36
423.75	4950.23
423.94	4823.84
424.13	4559.36
424.32	4657.67
424.50	4833.21
424.69	5004.07
424.88	5142.16
425.07	4943.21
425.26	5018.11
425.45	4987.68
425.64	4770.01
425.83	4964.28
426.01	4985.34
426.20	5048.54
426.39	5006.41
426.58	5102.37
426.77	4922.15
426.96	5064.92
427.15	5029.81
427.33	5137.48
427.52	5181.95
427.71	5259.18
427.90	5383.23
428.09	5303.65
428.28	5392.59
428.46	5324.72
428.65	5280.25
428.84	5476.85
429.03	5430.04
429.22	5355.15
429.40	5586.86
429.59	5416.00
429.78	5350.46
429.97	5345.78
430.16	5296.63
430.34	5626.65
430.53	5486.22
430.72	5734.31
430.91	5659.42
431.10	5596.22
431.28	5607.92
431.47	5675.80
431.66	5748.36
431.85	5762.40
432.03	5851.34
432.22	5989.43
432.41	5837.30
432.60	5806.87
432.79	5874.74
432.97	6001.13
433.16	6029.22
433.35	5865.38
433.54	5804.53
433.72	6174.33
433.91	6033.90
434.10	6022.20
434.28	5982.41
434.47	6303.06
434.66	6183.70
434.85	6321.79
435.03	6209.44
435.22	6031.56
435.41	6502.01
435.59	6366.26
435.78	6260.93
435.97	6450.52
436.16	6445.84
436.34	6427.11
436.53	6499.67
436.72	6450.52
436.90	6410.73
437.09	6539.46
437.28	6499.67
437.46	6523.07
437.65	6682.23
437.84	6771.17
438.02	6614.35
438.21	6656.48
438.40	6583.93
438.58	6902.24
438.77	7075.44
438.96	6902.24
439.14	7014.59
439.33	7215.87
439.52	7250.98
439.70	7098.84
439.89	7370.35
440.08	7440.56
440.26	7370.35
440.45	7417.16
440.63	7346.94
440.82	7508.44
441.01	7550.57
441.19	7391.41
441.38	7599.72
441.57	7756.54
441.75	7744.83
441.94	8013.99
442.12	7793.98
442.31	8002.29
442.50	7964.84
442.68	8077.19
442.87	7903.99
443.05	7915.69
443.24	8065.49
443.43	8049.10
443.61	8280.82
443.80	8091.23
443.98	8037.40
444.17	7777.60
444.35	8119.32
444.54	8163.79
444.73	8262.09
444.91	8299.54
445.10	8262.09
445.28	8383.80
445.47	8100.59
445.65	8276.13
445.84	8138.04
446.02	8304.22
446.21	8454.02
446.39	8299.54
446.58	8648.28
446.77	8650.62
446.95	8259.75
447.14	8308.90
447.32	8486.78
447.51	8643.60
447.69	8470.40
447.88	8411.89
448.06	8624.87
448.25	8409.54
448.43	8657.64
448.62	8526.57
448.80	8573.38
448.99	8432.95
449.17	8695.09
449.36	8568.70
449.54	8608.49
449.73	8762.97
449.91	9135.11
450.10	8908.08
450.28	8910.42
450.46	8884.67
450.65	8760.63
450.83	9231.07
451.02	9008.72
451.20	8968.93
451.39	9142.13
451.57	9041.49
451.76	9130.43
451.94	9090.64
452.13	9100.00
452.31	9387.89
452.49	9069.58
452.68	9504.92
452.86	9149.15
453.05	9301.29
453.23	9549.39
453.42	9228.73
453.60	9245.12
453.78	9460.45
453.97	9383.21
454.15	9408.95
454.34	9343.42
454.52	9605.56
454.70	9643.01
454.89	9394.91
455.07	9781.10
455.26	9654.71
455.44	10017.49
455.62	9757.69
455.81	9839.61
455.99	9867.70
456.17	10071.33
456.36	9944.94
456.54	10073.67
456.73	10303.04
456.91	10375.59
457.09	10216.44
457.28	10267.93
457.46	10438.79
457.64	10672.84
457.83	10518.37
458.01	10565.18
458.19	10527.73
458.38	10424.75
458.56	10684.55
458.74	10878.81
458.93	10628.37
459.11	10656.46
459.29	10693.91
459.48	10745.40
459.66	10677.52
459.84	10853.06
460.03	11136.27
460.21	10890.51
460.39	10881.15
460.57	10803.91
460.76	10956.05
460.94	11094.14
461.12	11173.72
461.31	11075.42
461.49	11274.36
461.67	11131.59
461.85	11286.06
462.04	11393.73
462.22	11747.15
462.40	11578.63
462.59	11522.46
462.77	11510.75
462.95	11623.10
463.13	11419.47
463.32	11559.91
463.50	11648.85
463.68	11880.56
463.86	11719.06
464.05	11655.87
464.23	11674.59
464.41	12149.72
464.59	11548.20
464.78	11915.67
464.96	11833.75
465.14	11808.00
465.32	11822.05
465.50	12250.36
465.69	11894.60
465.87	12236.32
466.05	11918.01
466.23	12177.81
466.41	12266.75
466.60	12444.63
466.78	12149.72
466.96	12250.36
467.14	12203.55
467.32	12025.67
467.51	12535.91
467.69	11976.52
467.87	12432.93
468.05	12411.86
468.23	12322.92
468.41	12556.97
468.60	12496.12
468.78	12652.94
468.96	12622.51
469.14	12784.01
469.32	12938.48
469.50	12725.49
469.69	12898.69
469.87	13064.87
470.05	13015.72
470.23	13095.30
470.41	13036.78
470.59	13219.35
470.77	13029.76
470.95	13125.72
471.14	13406.59
471.32	13247.43
471.50	13633.62
471.68	13254.45
471.86	13525.96
472.04	13547.02
472.22	13968.32
472.40	13654.69
472.58	13818.52
472.77	14078.32
472.95	13848.95
473.13	14684.52
473.31	13858.31
473.49	13968.32
473.67	13886.40
473.85	14197.69
474.03	14717.29
474.21	14555.79
474.39	14693.88
474.57	14560.47
474.75	14860.06
474.93	15194.76
475.12	14740.69
475.30	15026.24
475.48	15066.03
475.66	15084.75
475.84	15300.08
476.02	15353.91
476.20	15211.14
476.38	15475.62
476.56	15969.48
476.74	15882.88
476.92	15592.65
477.10	15740.10
477.28	16105.23
477.46	16161.40
477.64	16257.36
477.82	16503.12
478.00	16922.07
478.18	16739.51
478.36	16919.73
478.54	17156.13
478.72	17195.92
478.90	17259.11
479.08	17451.03
479.26	17345.71
479.44	17270.81
479.62	17900.42
479.80	17820.84
479.98	18019.78
480.16	18663.43
480.34	18345.12
480.52	18544.06
480.70	18712.58
480.88	18490.23
481.06	18513.64
481.24	19037.92
481.41	19026.21
481.59	19379.64
481.77	19227.50
481.95	19756.46
482.13	19459.21
482.31	19400.70
482.49	20070.09
482.67	20187.12
482.85	20482.03
483.03	20594.37
483.21	20549.90
483.39	20519.48
483.57	20900.98
483.74	21135.04
483.92	21120.99
484.10	20727.78
484.28	21542.29
484.46	21891.03
484.64	22052.53
484.82	21912.10
485.00	22331.05
485.18	22824.90
485.35	23035.55
485.53	22710.22
485.71	22747.67
485.89	23108.11
486.07	23283.65
486.25	23260.24
486.43	23426.42
486.61	23541.11
486.78	24079.43
486.96	23878.15
487.14	24531.15
487.32	24652.86
487.50	25202.89
487.68	24797.98
487.85	24989.90
488.03	25153.74
488.21	25593.76
488.39	25734.19
488.57	25752.91
488.75	25771.64
488.92	26300.60
489.10	26466.78
489.28	26862.33
489.46	26986.38
489.64	27103.40
489.81	27229.79
489.99	27311.71
490.17	27447.46
490.35	27903.87
490.53	28088.77
490.70	28245.58
490.88	28278.35
491.06	28704.33
491.24	28758.16
491.41	28474.96
491.59	28814.34
491.77	29422.87
491.95	29181.80
492.13	29511.81
492.30	29862.90
492.48	29687.36
492.66	29951.84
492.84	30199.93
493.01	30424.62
493.19	30438.67
493.37	31117.42
493.54	30792.09
493.72	31213.38
493.90	31330.41
494.08	31487.23
494.25	31580.85
494.43	32032.57
494.61	32074.70
494.79	32161.30
494.96	32378.97
495.14	32292.37
495.32	33259.01
495.49	33179.43
495.67	33469.66
495.85	33202.84
496.02	33638.18
496.20	33633.50
496.38	33853.51
496.55	33537.54
496.73	34436.30
496.91	34279.49
497.09	34529.92
497.26	34562.69
497.44	34857.60
497.62	34918.45
497.79	35805.52
497.97	35309.32
498.14	35810.20
498.32	35969.35
498.50	36156.60
498.67	36268.94
498.85	35763.39
499.03	36367.24
499.20	36715.98
499.38	36631.72
499.56	36582.57
499.73	36512.36
499.91	37177.07
500.08	37120.90
500.26	37127.92
500.44	37619.43
500.61	37926.04
500.79	37427.51
500.97	37638.15
501.14	38150.73
501.32	38174.14
501.49	38335.63
501.67	38550.96
501.84	38646.93
502.02	38794.38
502.20	38913.75
502.37	39203.97
502.55	39035.45
502.72	38930.13
502.90	39187.59
503.07	39218.02
503.25	39473.13
503.43	39356.11
503.60	40100.40
503.78	39952.94
503.95	40172.96
504.13	40428.07
504.30	40374.24
504.48	40535.74
504.65	40669.15
504.83	40479.57
505.01	41504.72
505.18	40608.29
505.36	41130.23
505.53	40978.10
505.71	41366.63
505.88	41586.64
506.06	41684.94
506.23	41883.89
506.41	41539.83
506.58	41801.97
506.76	42066.45
506.93	42256.03
507.11	42036.02
507.28	42122.62
507.46	42548.60
507.63	42389.44
507.81	43054.15
507.98	42424.55
508.16	42895.00
508.33	43026.07
508.50	43136.07
508.68	43152.46
508.85	43901.43
509.03	43416.94
509.20	43648.65
509.38	44140.16
509.55	43976.33
509.73	44025.48
509.90	44149.53
510.08	44243.15
510.25	44533.37
510.42	44680.83
510.60	44545.08
510.77	44865.73
510.95	44905.52
511.12	44868.07
511.30	44872.75
511.47	45382.99
511.64	45177.02
511.82	45797.26
511.99	45258.94
512.17	45380.65
512.34	45439.16
512.51	46403.46
512.69	46223.24
512.86	46169.41
513.04	46377.72
513.21	46712.41
513.38	46351.97
513.56	46686.67
513.73	46267.71
513.90	46791.99
514.08	46691.35
514.25	47124.35
514.43	47253.08
514.60	47103.28
514.77	47093.92
514.95	47117.32
515.12	47318.61
515.29	47557.35
515.47	47824.17
515.64	48093.33
515.81	47817.14
515.99	48051.20
516.16	48179.93
516.33	48119.07
516.51	48261.85
516.68	48273.55
516.85	48346.11
517.03	48535.69
517.20	48940.60
517.37	48245.46
517.54	48498.24
517.72	48893.79
517.89	48711.23
518.06	49186.36
518.24	49095.08
518.41	49141.89
518.58	49052.95
518.75	48692.50
518.93	49083.37
519.10	49258.91
519.27	49502.33
519.45	49495.31
519.62	49773.83
519.79	49935.33
519.96	49722.34
520.14	50216.19
520.31	50108.53
520.48	50511.10
520.65	49958.73
520.83	50614.08
521.00	50478.33
521.17	50384.71
521.34	50614.08
521.52	50719.41
521.69	50681.96
521.86	50983.89
522.03	51150.07
522.20	51363.06
522.38	51320.93
522.55	51365.40
522.72	51213.26
522.89	50862.18
523.07	51679.03
523.24	51484.76
523.41	51365.40
523.58	51152.41
523.75	51976.28
523.92	51491.79
524.10	51927.13
524.27	51950.53
524.44	51842.87
524.61	52046.49
524.78	52069.90
524.96	52126.07
525.13	52507.58
525.30	52009.04
525.47	52435.02
525.64	52093.30
525.81	52388.21
525.98	52416.30
526.16	52420.98
526.33	52378.85
526.50	52961.64
526.67	52432.68
526.84	52645.67
527.01	52662.05
527.18	52748.65
527.36	52528.64
527.53	52811.85
527.70	53324.43
527.87	53134.84
528.04	52919.51
528.21	53146.54
528.38	52853.98
528.55	53439.11
528.72	53415.71
528.89	53387.62
529.07	53263.57
529.24	53216.76
529.41	53584.22
529.58	53876.79
529.75	53649.76
529.92	53474.22
530.09	53710.61
530.26	53769.13
530.43	53862.75
530.60	53705.93
530.77	53514.01
530.94	54174.04
531.11	53827.64
531.28	53757.42
531.46	54042.97
531.63	54049.99
531.80	54007.86
531.97	54431.50
532.14	54195.10
532.31	54415.11
532.48	54206.81
532.65	54567.25
532.82	54417.46
532.99	54372.99
533.16	54391.71
533.33	54815.35
533.50	54901.95
533.67	54738.11
533.84	54499.37
534.01	54618.74
534.18	54653.85
534.35	55203.88
534.52	54876.20
534.69	54988.55
534.86	55318.56
535.03	55033.02
535.20	55145.36
535.37	55105.57
535.54	55402.82
535.71	55145.36
535.88	55348.99
536.05	55164.09
536.22	55552.62
536.38	55524.53
536.55	55344.31
536.72	55522.19
536.89	55138.34
537.06	55655.60
537.23	55744.54
537.40	55536.23
537.57	55728.16
537.74	55646.24
537.91	55866.25
538.08	55704.75
538.25	55449.63
538.42	55590.06
538.59	55922.42
538.75	55463.67
538.92	55938.80
539.09	56104.98
539.26	55957.53
539.43	56072.21
539.60	55922.42
539.77	56016.04
539.94	56168.18
540.11	56306.27
540.28	56395.21
540.44	56165.84
540.61	56339.04
540.78	56210.31
540.95	56252.44
541.12	56367.12
541.29	56320.31
541.46	56430.32
541.62	56458.40
541.79	56451.38
541.96	56158.81
542.13	56612.88
542.30	56437.34
542.47	56872.68
542.63	56849.27
542.80	56669.05
542.97	56903.10
543.14	57256.53
543.31	56987.36
543.48	57102.05
543.64	57401.64
543.81	57144.18
543.98	57233.12
544.15	57020.13
544.32	57315.04
544.48	57577.18
544.65	57120.77
544.82	57324.40
544.99	56980.34
545.16	57329.08
545.32	57296.31
545.49	57567.82
545.66	57691.86
545.83	57212.06
546.00	57736.34
546.16	57427.38
546.33	57408.66
546.50	57434.41
546.67	57677.82
546.83	57338.44
547.00	57612.29
547.17	57556.11
547.34	57621.65
547.50	57839.32
547.67	58019.54
547.84	57996.13
548.00	58026.56
548.17	58164.65
548.34	58096.78
548.51	57925.92
548.67	58127.20
548.84	57928.26
549.01	57970.39
549.18	58045.29
549.34	58239.55
549.51	58035.92
549.68	58227.85
549.84	58209.12
550.01	58181.04
550.18	58087.42
550.34	58192.74
550.51	58368.28
550.68	58246.57
550.84	58295.72
551.01	58461.90
551.18	58124.86
551.34	58450.20
551.51	58548.50
551.68	58653.82
551.84	58351.90
552.01	58464.24
552.18	58592.97
552.34	58312.11
552.51	58667.87
552.68	58499.35
552.84	58592.97
553.01	58775.53
553.18	58717.02
553.34	58801.28
553.51	58789.58
553.67	58864.47
553.84	58688.93
554.01	58820.00
554.17	58745.11
554.34	58941.71
554.51	58707.66
554.67	59077.46
554.84	58974.48
555.00	58922.99
555.17	59014.27
555.33	58974.48
555.50	58976.82
555.67	59044.69
555.83	58927.67
556.00	59056.40
556.16	59164.06
556.33	59063.42
556.50	59042.35
556.66	59253.00
556.83	58927.67
556.99	59433.22
557.16	59365.35
557.32	59306.83
557.49	59482.37
557.65	59154.70
557.82	59091.51
557.98	59309.18
558.15	59049.38
558.32	59473.01
558.48	59309.18
558.65	59262.36
558.81	59451.95
558.98	59414.50
559.14	59461.31
559.31	59402.80
559.47	59552.59
559.64	59634.51
559.80	59606.42
559.97	59576.00
560.13	59508.12
560.30	59395.77
560.46	59744.51
560.63	59547.91
560.79	59629.83
560.96	59913.03
561.12	59866.22
561.29	59639.19
561.45	59723.45
561.61	59756.22
561.78	59845.16
561.94	59517.48
562.11	59540.89
562.27	59821.75
562.44	59796.01
562.60	60001.97
562.77	59803.03
562.93	59639.19
563.10	59824.09
563.26	59765.58
563.42	60163.47
563.59	59866.22
563.75	59891.97
563.92	59992.61
564.08	59901.33
564.24	60018.36
564.41	60044.10
564.57	60090.91
564.74	60144.75
564.90	59945.80
565.07	60067.51
565.23	59870.90
565.39	60016.02
565.56	60142.41
565.72	59987.93
565.88	60266.45
566.05	59985.59
566.21	59941.12
566.38	59913.03
566.54	60083.89
566.70	60121.34
566.87	60371.78
567.03	60051.12
567.19	60175.17
567.36	60278.16
567.52	60041.76
567.68	60465.40
567.85	60339.01
568.01	60353.05
568.17	60100.28
568.34	60418.59
568.50	60210.28
568.66	60353.05
568.83	60280.50
568.99	60076.87
569.15	60339.01
569.32	60334.33
569.48	60388.16
569.64	60416.25
569.81	60336.67
569.97	60240.71
570.13	60418.59
570.30	60268.79
570.46	60212.62
570.62	60310.92
570.78	60395.18
570.95	60425.61
571.11	60392.84
571.27	60191.56
571.43	60259.43
571.60	60329.65
571.76	60301.56
571.92	60392.84
572.09	60334.33
572.25	60533.28
572.41	60451.36
572.57	60664.35
572.74	60739.24
572.90	60303.90
573.06	60743.92
573.22	60444.33
573.38	60608.17
573.55	60547.32
573.71	60556.68
573.87	60575.40
574.03	60331.99
574.20	60566.04
574.36	60488.80
574.52	60699.45
574.68	60615.19
574.84	60645.62
575.01	60580.09
575.17	60544.98
575.33	60603.49
575.49	60573.06
575.65	60732.22
575.82	60575.40
575.98	60570.72
576.14	60837.54
576.30	60699.45
576.46	60694.77
576.62	60650.30
576.79	60640.94
576.95	60430.29
577.11	60580.09
577.27	60662.00
577.43	60669.03
577.59	60547.32
577.75	60755.63
577.92	60659.66
578.08	60669.03
578.24	60645.62
578.40	60797.76
578.56	60727.54
578.72	60905.42
578.88	60814.14
579.04	60966.27
579.21	60816.48
579.37	60940.53
579.53	60938.19
579.69	60371.78
579.85	60718.18
580.01	60807.12
580.17	60713.50
580.33	60832.86
580.49	61038.83
580.65	60865.63
580.82	60650.30
580.98	60795.42
581.14	60933.51
581.30	60940.53
581.46	60882.02
581.62	60807.12
581.78	60549.66
581.94	60807.12
582.10	60842.23
582.26	60807.12
582.42	60629.24
582.58	60977.98
582.74	60624.56
582.90	60837.54
583.06	61013.08
583.22	60736.90
583.38	60935.85
583.54	60781.37
583.70	60945.21
583.86	60729.88
584.02	60704.13
584.18	60755.63
584.34	60774.35
584.50	60931.17
584.66	60835.20
584.82	60526.25
584.98	60814.14
585.14	61031.81
585.30	60832.86
585.46	60739.24
585.62	60907.76
585.78	61125.43
585.94	60823.50
586.10	60711.16
586.26	60985.00
586.42	61076.28
586.58	60931.17
586.74	61045.85
586.90	61041.17
587.06	60816.48
587.22	60938.19
587.38	60809.46
587.54	61076.28
587.70	61062.24
587.86	60884.36
588.02	60872.65
588.18	61132.45
588.34	60867.97
588.49	61048.19
