SpectraSuite Data File
++++++++++++++++++++++++++++++++++++
Date: Fri Oct 25 11:23:14 EDT 2013
User: price-jones
Dark Spectrum Present: No
Reference Spectrum Present: No
Number of Sampled Component Spectra: 1
Spectrometers: USB2+H05261
Integration Time (usec): 100000 (USB2+H05261)
Spectra Averaged: 1 (USB2+H05261)
Boxcar Smoothing: 0 (USB2+H05261)
Correct for Electrical Dark: No (USB2+H05261)
Strobe/Lamp Enabled: No (USB2+H05261)
Correct for Detector Non-linearity: No (USB2+H05261)
Correct for Stray Light: No (USB2+H05261)
Number of Pixels in Processed Spectrum: 2048
>>>>>Begin Processed Spectral Data<<<<<
365.73	196.60
365.92	196.60
366.12	196.60
366.32	161.50
366.52	74.90
366.72	196.60
366.91	42.13
367.11	102.98
367.31	133.41
367.51	175.54
367.70	100.64
367.90	145.11
368.10	93.62
368.30	138.09
368.49	126.39
368.69	100.64
368.89	163.84
369.09	131.07
369.28	173.20
369.48	198.95
369.68	163.84
369.87	191.92
370.07	140.43
370.27	191.92
370.47	320.65
370.66	606.20
370.86	582.79
371.06	636.63
371.25	706.84
371.45	711.52
371.65	702.16
371.84	671.73
372.04	690.46
372.24	671.73
372.44	720.88
372.63	685.78
372.83	849.61
373.03	791.10
373.22	777.06
373.42	732.59
373.62	770.04
373.81	814.51
374.01	849.61
374.21	875.36
374.40	828.55
374.60	882.38
374.79	814.51
374.99	847.27
375.19	791.10
375.38	777.06
375.58	849.61
375.78	856.64
375.97	896.43
376.17	943.24
376.37	835.57
376.56	877.70
376.76	868.34
376.95	866.00
377.15	844.93
377.35	926.85
377.54	870.68
377.74	917.49
377.93	896.43
378.13	950.26
378.33	903.45
378.52	922.17
378.72	943.24
378.91	926.85
379.11	938.55
379.31	870.68
379.50	884.72
379.70	1041.54
379.89	973.66
380.09	1048.56
380.28	903.45
380.48	1057.92
380.68	952.60
380.87	1074.31
381.07	994.73
381.26	1011.11
381.46	1048.56
381.65	994.73
381.85	1004.09
382.04	1015.79
382.24	1025.15
382.43	1076.65
382.63	1109.41
382.83	1069.62
383.02	1109.41
383.22	1184.31
383.41	1095.37
383.61	1071.97
383.80	1100.05
384.00	1177.29
384.19	1081.33
384.39	1102.39
384.58	1266.23
384.78	1207.72
384.97	1167.93
385.17	1128.14
385.36	1114.10
385.56	1196.01
385.75	1191.33
385.95	1174.95
386.14	1247.51
386.34	1252.19
386.53	1270.91
386.72	1282.61
386.92	1214.74
387.11	1247.51
387.31	1261.55
387.50	1235.80
387.70	1231.12
387.89	1235.80
388.09	1383.26
388.28	1242.82
388.48	1219.42
388.67	1352.83
388.86	1331.76
389.06	1338.79
389.25	1313.04
389.45	1327.08
389.64	1359.85
389.84	1385.60
390.03	1401.98
390.22	1341.13
390.42	1373.89
390.61	1273.25
390.81	1404.32
391.00	1385.60
391.19	1469.86
391.39	1416.02
391.58	1425.39
391.78	1481.56
391.97	1645.40
392.16	1502.62
392.36	1472.20
392.55	1430.07
392.75	1462.83
392.94	1465.18
393.13	1420.71
393.33	1593.90
393.52	1591.56
393.71	1579.86
393.91	1488.58
394.10	1544.75
394.29	1598.59
394.49	1530.71
394.68	1607.95
394.88	1668.80
395.07	1591.56
395.26	1706.25
395.46	1687.53
395.65	1685.19
395.84	1785.83
396.04	1776.47
396.23	1685.19
396.42	1715.61
396.62	1729.66
396.81	1776.47
397.00	1741.36
397.19	1839.66
397.39	1797.53
397.58	1834.98
397.77	1879.45
397.97	1806.89
398.16	1715.61
398.35	1987.11
398.55	2015.20
398.74	1937.96
398.93	1940.30
399.12	1956.69
399.32	1900.52
399.51	1914.56
399.70	1989.46
399.90	1893.49
400.09	2010.52
400.28	2115.84
400.47	2083.08
400.67	2019.88
400.86	2181.38
401.05	2090.10
401.24	2106.48
401.44	2129.89
401.63	2207.13
401.82	2186.06
402.01	2097.12
402.21	2153.29
402.40	2270.32
402.59	2225.85
402.78	2108.82
402.97	2289.04
403.17	2415.43
403.36	2347.56
403.55	2256.28
403.74	2291.38
403.93	2424.80
404.13	2399.05
404.32	2555.86
404.51	2375.64
404.70	2413.09
404.89	2424.80
405.09	2436.50
405.28	2506.71
405.47	2621.40
405.66	2532.46
405.85	2626.08
406.05	2558.21
406.24	2579.27
406.43	2581.61
406.62	2717.36
406.81	2722.04
407.00	2583.95
407.20	2523.10
407.39	2651.83
407.58	2686.94
407.77	2785.24
407.96	2883.54
408.15	2836.73
408.34	2829.71
408.54	2808.64
408.73	2822.69
408.92	2979.50
409.11	2937.37
409.30	2937.37
409.49	2984.18
409.68	2913.97
409.87	3000.57
410.07	2928.01
410.26	3089.51
410.45	3091.85
410.64	3089.51
410.83	3192.49
411.02	3131.64
411.21	3229.94
411.40	3173.77
411.59	3265.05
411.78	3239.30
411.98	3166.74
412.17	3253.34
412.36	3356.33
412.55	3356.33
412.74	3536.55
412.93	3501.44
413.12	3358.67
413.31	3583.36
413.50	3480.38
413.69	3559.95
413.88	3648.90
414.07	3623.15
414.26	3761.24
414.45	3686.34
414.64	3770.60
414.83	3723.79
415.02	3899.33
415.22	3840.82
415.41	3969.55
415.60	3838.48
415.79	3810.39
415.98	4002.32
416.17	3971.89
416.36	3960.19
416.55	3995.29
416.74	4168.49
416.93	4067.85
417.12	4039.76
417.31	4210.62
417.50	4269.14
417.69	4191.90
417.88	4367.44
418.07	4280.84
418.26	4257.43
418.45	4372.12
418.64	4603.83
418.83	4484.47
419.02	4400.21
419.21	4517.23
419.39	4645.96
419.58	4524.26
419.77	4531.28
419.96	4554.68
420.15	4634.26
420.34	4669.37
420.53	4727.88
420.72	4814.48
420.91	4678.73
421.10	4758.31
421.29	4774.69
421.48	4877.68
421.67	4802.78
421.86	4868.31
422.05	4816.82
422.24	4873.00
422.43	4952.57
422.61	4980.66
422.80	4975.98
422.99	4840.23
423.18	4863.63
423.37	5039.17
423.56	4877.68
423.75	4957.25
423.94	4837.89
424.13	4755.97
424.32	4922.15
424.50	5018.11
424.69	5130.45
424.88	5107.05
425.07	4917.47
425.26	4905.76
425.45	5043.85
425.64	4905.76
425.83	4968.96
426.01	5104.71
426.20	5275.57
426.39	5104.71
426.58	5041.51
426.77	5100.03
426.96	5313.02
427.15	5158.54
427.33	5298.97
427.52	5287.27
427.71	5287.27
427.90	5469.83
428.09	5280.25
428.28	5401.96
428.46	5486.22
428.65	5455.79
428.84	5614.95
429.03	5577.50
429.22	5434.72
429.40	5355.15
429.59	5514.30
429.78	5408.98
429.97	5427.70
430.16	5511.96
430.34	5727.29
430.53	5680.48
430.72	5701.54
430.91	5621.97
431.10	5703.89
431.28	5755.38
431.47	5902.83
431.66	5790.49
431.85	5909.85
432.03	6076.03
432.22	6134.54
432.41	6050.28
432.60	5944.96
432.79	5937.94
432.97	5973.05
433.16	6181.35
433.35	6106.46
433.54	6160.29
433.72	6279.66
433.91	6085.39
434.10	6078.37
434.28	6134.54
434.47	6429.45
434.66	6272.64
434.85	6384.98
435.03	6497.33
435.22	6174.33
435.41	6511.37
435.59	6368.60
435.78	6626.06
435.97	6448.18
436.16	6614.35
436.34	6616.69
436.53	6455.20
436.72	6782.87
436.90	6534.78
437.09	6808.62
437.28	6541.80
437.46	6569.88
437.65	6696.27
437.84	6998.20
438.02	6801.60
438.21	6850.75
438.40	6691.59
438.58	6998.20
438.77	7056.72
438.96	7068.42
439.14	7171.40
439.33	7080.12
439.52	7138.63
439.70	7178.42
439.89	7358.64
440.08	7527.16
440.26	7611.42
440.45	7475.67
440.63	7438.22
440.82	7667.60
441.01	7712.07
441.19	7588.02
441.38	7756.54
441.57	7751.85
441.75	7918.03
441.94	7840.79
442.12	7927.39
442.31	7999.95
442.50	8114.64
442.68	8135.70
442.87	8189.53
443.05	8203.58
443.24	8241.03
443.43	8177.83
443.61	8128.68
443.80	8631.90
443.98	8051.44
444.17	7985.91
444.35	8271.45
444.54	8329.97
444.73	8421.25
444.91	8299.54
445.10	8507.85
445.28	8248.05
445.47	8208.26
445.65	8259.75
445.84	8784.03
446.02	8552.32
446.21	8465.72
446.39	8552.32
446.58	8549.98
446.77	8629.56
446.95	8210.60
447.14	8517.21
447.32	8695.09
447.51	8538.27
447.69	8418.91
447.88	8688.07
448.06	8730.20
448.25	8669.34
448.43	8585.08
448.62	8741.90
448.80	8613.17
448.99	8725.52
449.17	8725.52
449.36	8636.58
449.54	8854.25
449.73	9329.38
449.91	9167.88
450.10	8980.64
450.28	9221.71
450.46	9135.11
450.65	9088.30
450.83	9114.05
451.02	8999.36
451.20	9392.57
451.39	9235.75
451.57	9343.42
451.76	9090.64
451.94	9320.01
452.13	9390.23
452.31	9502.58
452.49	9317.67
452.68	9233.41
452.86	9430.02
453.05	9497.89
453.23	9692.16
453.42	9364.48
453.60	9310.65
453.78	9823.23
453.97	9476.83
454.15	9591.52
454.34	9582.15
454.52	9813.87
454.70	9687.48
454.89	9872.38
455.07	9809.19
455.26	10083.03
455.44	10078.35
455.62	10197.71
455.81	10258.57
455.99	10108.77
456.17	10162.61
456.36	10263.25
456.54	10399.00
456.73	10349.85
456.91	10408.36
457.09	10356.87
457.28	10600.29
457.46	10576.88
457.64	10649.44
457.83	10445.81
458.01	10291.34
458.19	10857.75
458.38	10619.01
458.56	10848.38
458.74	10934.98
458.93	10850.72
459.11	10902.22
459.29	10796.89
459.48	11159.67
459.66	10932.64
459.84	10890.51
460.03	11234.57
460.21	10956.05
460.39	11052.01
460.57	11386.71
460.76	11225.21
460.94	11253.30
461.12	11147.97
461.31	11150.31
461.49	11269.68
461.67	11440.54
461.85	11580.97
462.04	11192.44
462.22	11695.66
462.40	11597.35
462.59	11620.76
462.77	11501.39
462.95	11873.54
463.13	11693.32
463.32	11847.79
463.50	11864.18
463.68	11927.37
463.86	11903.96
464.05	11861.84
464.23	11908.65
464.41	11903.96
464.59	11606.72
464.78	12421.22
464.96	12042.06
465.14	12006.95
465.32	12098.23
465.50	12046.74
465.69	12203.55
465.87	12273.77
466.05	12100.57
466.23	12102.91
466.41	12212.92
466.60	12512.50
466.78	12395.48
466.96	12388.46
467.14	12491.44
467.32	12636.55
467.51	12737.20
467.69	12184.83
467.87	12636.55
468.05	12519.53
468.23	12489.10
468.41	12526.55
468.60	12901.03
468.78	12774.64
468.96	12657.62
469.14	12851.88
469.32	12978.27
469.50	12734.85
469.69	13186.58
469.87	13350.42
470.05	13060.19
470.23	13390.20
470.41	13172.54
470.59	13516.59
470.77	13343.39
470.95	13542.34
471.14	13582.13
471.32	13355.10
471.50	13776.39
471.68	14054.92
471.86	13867.67
472.04	13984.70
472.22	14071.30
472.40	13928.53
472.58	13764.69
472.77	14162.58
472.95	14363.87
473.13	14782.82
473.31	13984.70
473.49	14246.84
473.67	14164.92
473.85	14548.77
474.03	14881.13
474.21	14820.27
474.39	14738.35
474.57	14743.03
474.75	14848.36
474.93	15044.96
475.12	15089.43
475.30	15157.31
475.48	15154.97
475.66	15466.26
475.84	15138.58
476.02	15480.30
476.20	15707.34
476.38	15936.71
476.56	16084.16
476.74	15920.32
476.92	15815.00
477.10	15765.85
477.28	16306.51
477.46	16355.66
477.64	16601.42
477.82	16767.60
478.00	17348.05
478.18	17064.85
478.36	17247.41
478.54	17348.05
478.72	17436.99
478.90	17366.78
479.08	17865.31
479.26	17771.69
479.44	17912.12
479.62	17935.53
479.80	18202.35
479.98	18279.58
480.16	18698.54
480.34	18405.97
480.52	18710.24
480.70	18768.76
480.88	18642.37
481.06	19101.11
481.24	19337.51
481.41	19356.23
481.59	19644.12
481.77	19777.53
481.95	19681.56
482.13	20210.53
482.31	20173.08
482.49	20585.01
482.67	20360.32
482.85	20760.55
483.03	21003.97
483.21	21074.18
483.39	21081.21
483.57	20805.02
483.74	21270.79
483.92	21619.53
484.10	21577.40
484.28	22010.40
484.46	22157.85
484.64	22635.32
484.82	22022.10
485.00	22518.29
485.18	22883.42
485.35	23606.64
485.53	23159.60
485.71	23346.84
485.89	23779.84
486.07	23702.61
486.25	23929.64
486.43	23639.41
486.61	24318.17
486.78	24528.81
486.96	24369.66
487.14	24856.49
487.32	24847.13
487.50	25472.05
487.68	25186.50
487.85	25366.73
488.03	26244.43
488.21	26157.83
488.39	25937.82
488.57	26359.11
488.75	26632.96
488.92	26728.92
489.10	26995.74
489.28	26852.97
489.46	27370.22
489.64	27070.64
489.81	27747.05
489.99	27864.08
490.17	28004.51
490.35	28105.15
490.53	28283.03
490.70	28826.04
490.88	28402.40
491.06	29095.20
491.24	29104.56
491.41	29008.60
491.59	29483.73
491.77	29806.72
491.95	30174.19
492.13	29942.47
492.30	30525.27
492.48	30424.62
492.66	30829.54
492.84	30630.59
493.01	31222.75
493.19	30941.88
493.37	31634.68
493.54	31674.47
493.72	31620.64
493.90	31945.97
494.08	32306.41
494.25	32327.48
494.43	32395.35
494.61	32760.48
494.79	33141.99
494.96	32858.78
495.14	33223.90
495.32	33376.04
495.49	33432.21
495.67	33385.40
495.85	33404.13
496.02	33902.66
496.20	34567.37
496.38	34607.16
496.55	34508.86
496.73	35541.03
496.91	35049.52
497.09	35232.08
497.26	35222.72
497.44	35761.05
497.62	35674.45
497.79	36172.98
497.97	35765.73
498.14	36559.17
498.32	36620.02
498.50	36835.35
498.67	36959.40
498.85	36605.98
499.03	37088.13
499.20	37233.24
499.38	37256.65
499.56	37186.43
499.73	37624.11
499.91	37741.14
500.08	37893.27
500.26	38026.68
500.44	38319.25
500.61	38293.50
500.79	38267.76
500.97	38698.42
501.14	39218.02
501.32	38691.40
501.49	39079.92
501.67	39061.20
501.84	39220.36
502.02	39466.11
502.20	39735.27
502.37	39945.92
502.55	39599.52
502.72	39522.29
502.90	40142.53
503.07	39779.74
503.25	40367.22
503.43	40116.78
503.60	40350.84
503.78	40568.51
503.95	40528.72
504.13	41298.75
504.30	40999.16
504.48	40730.00
504.65	41553.87
504.83	41429.82
505.01	41521.10
505.18	41734.09
505.36	42080.49
505.53	41734.09
505.71	42122.62
505.88	42099.22
506.06	42082.83
506.23	42447.96
506.41	42249.01
506.58	42932.45
506.76	42590.73
506.93	43110.33
507.11	42979.26
507.28	42852.87
507.46	43168.84
507.63	42593.07
507.81	43592.48
507.98	43583.12
508.16	43505.88
508.33	43964.62
508.50	43594.82
508.68	43798.44
508.85	44329.75
509.03	44350.81
509.20	44219.74
509.38	44645.72
509.55	45059.99
509.73	45237.87
509.90	44980.42
510.08	44648.06
510.25	45120.85
510.42	44945.31
510.60	45572.57
510.77	45380.65
510.95	45815.99
511.12	45560.87
511.30	45659.17
511.47	45666.19
511.64	46050.04
511.82	46394.10
511.99	46321.54
512.17	46117.92
512.34	46567.30
512.51	46553.26
512.69	46651.56
512.86	46560.28
513.04	47182.86
513.21	47201.58
513.38	47002.64
513.56	47395.85
513.73	47323.29
513.90	47145.41
514.08	47201.58
514.25	47665.01
514.43	47676.71
514.60	48060.56
514.77	47599.47
514.95	47723.52
515.12	48128.44
515.29	47807.78
515.47	48245.46
515.64	48811.87
515.81	47863.96
515.99	48390.58
516.16	49006.14
516.33	48940.60
516.51	49235.51
516.68	48968.69
516.85	48861.02
517.03	49336.15
517.20	49191.04
517.37	49254.23
517.54	49265.94
517.72	49389.98
517.89	49284.66
518.06	49635.74
518.24	49275.30
518.41	49822.98
518.58	49951.71
518.75	49918.95
518.93	50120.23
519.10	49776.17
519.27	50028.95
519.45	49846.39
519.62	50155.34
519.79	49998.52
519.96	50497.06
520.14	50632.81
520.31	50188.11
520.48	51187.52
520.65	50646.85
520.83	51049.42
521.00	51033.04
521.17	51126.66
521.34	50794.31
521.52	51150.07
521.69	51117.30
521.86	51309.22
522.03	51416.89
522.20	51683.71
522.38	52123.73
522.55	51639.24
522.72	51833.50
522.89	51583.07
523.07	51903.72
523.24	51700.09
523.41	51964.57
523.58	51606.47
523.75	52076.92
523.92	52299.27
524.10	52212.67
524.27	52371.83
524.44	52580.13
524.61	52191.61
524.78	52659.71
524.96	52357.78
525.13	52573.11
525.30	53059.94
525.47	52769.72
525.64	52807.17
525.81	52949.94
525.98	53017.82
526.16	52884.40
526.33	52982.71
526.50	53261.23
526.67	52743.97
526.84	53343.15
527.01	53411.02
527.18	53270.59
527.36	53235.48
527.53	53317.40
527.70	53614.65
527.87	53460.18
528.04	53453.15
528.21	53717.64
528.38	53670.82
528.55	53794.87
528.72	53521.03
528.89	53659.12
529.07	53560.82
529.24	53813.60
529.41	54115.53
529.58	54445.54
529.75	54071.06
529.92	54129.57
530.09	54262.98
530.26	54197.44
530.43	54246.60
530.60	54087.44
530.77	53916.58
530.94	54438.52
531.11	54260.64
531.28	54501.71
531.46	54241.92
531.63	54817.69
531.80	54412.77
531.97	54759.17
532.14	54693.64
532.31	54789.60
532.48	55112.59
532.65	54986.21
532.82	54630.44
532.99	55014.29
533.16	55030.68
533.33	54789.60
533.50	55201.53
533.67	55042.38
533.84	55014.29
534.01	54981.52
534.18	55093.87
534.35	55505.80
534.52	55475.38
534.69	55559.64
534.86	55662.62
535.03	55325.58
535.20	55458.99
535.37	55676.66
535.54	55700.07
535.71	55664.96
535.88	55753.90
536.05	56002.00
536.22	55955.19
536.38	55882.63
536.55	55824.12
536.72	56032.42
536.89	55824.12
537.06	55803.05
537.23	56041.79
537.40	55704.75
537.57	56069.87
537.74	55877.95
537.91	56324.99
538.08	56175.20
538.25	55870.93
538.42	55955.19
538.59	56392.87
538.75	56339.04
538.92	56463.08
539.09	56177.54
539.26	56519.26
539.43	56362.44
539.60	56409.25
539.77	56465.42
539.94	56788.42
540.11	56470.11
540.28	56844.59
540.44	56444.36
540.61	56502.87
540.78	56617.56
540.95	56631.60
541.12	56666.71
541.29	56591.81
541.46	56835.23
541.62	56882.04
541.79	57031.83
541.96	56729.90
542.13	56849.27
542.30	56924.17
542.47	57095.03
542.63	57092.69
542.80	57186.31
542.97	57385.25
543.14	57436.75
543.31	57574.84
543.48	57502.28
543.64	57668.46
543.81	57523.35
543.98	57546.75
544.15	57745.70
544.32	57792.51
544.48	57811.23
544.65	57623.99
544.82	57860.38
544.99	57600.58
545.16	57764.42
545.32	57741.02
545.49	57965.71
545.66	58178.70
545.83	57942.30
546.00	57982.09
546.16	57853.36
546.33	57832.30
546.50	57649.74
546.67	57893.15
546.83	57944.64
547.00	58064.01
547.17	57991.45
547.34	58054.65
547.50	58204.44
547.67	58501.69
547.84	58333.17
548.00	58356.58
548.17	58494.67
548.34	58227.85
548.51	58557.86
548.67	58398.71
548.84	58255.93
549.01	58688.93
549.18	58473.60
549.34	58553.18
549.51	58590.63
549.68	58649.14
549.84	58590.63
550.01	58717.02
550.18	58604.67
550.34	58607.01
550.51	58445.52
550.68	58557.86
550.84	58534.46
551.01	58714.68
551.18	58852.77
551.34	58798.94
551.51	58808.30
551.68	58700.64
551.84	58871.49
552.01	58717.02
552.18	59051.72
552.34	58583.61
552.51	58960.44
552.68	58848.09
552.84	59004.91
553.01	59110.23
553.18	59140.66
553.34	59030.65
553.51	59112.57
553.67	59260.02
553.84	59260.02
554.01	59192.15
554.17	59196.83
554.34	59150.02
554.51	59224.92
554.67	59302.15
554.84	59353.65
555.00	59337.26
555.17	59274.07
555.33	59171.08
555.50	59180.45
555.67	59117.25
555.83	59166.40
556.00	59388.75
556.16	59585.36
556.33	59678.98
556.50	59578.34
556.66	59669.62
556.83	59213.21
556.99	59650.89
557.16	59688.34
557.32	59620.47
557.49	59847.50
557.65	59477.69
557.82	59512.80
557.98	59770.26
558.15	59681.32
558.32	59847.50
558.48	59536.21
558.65	59810.05
558.81	59695.36
558.98	59678.98
559.14	59992.61
559.31	59849.84
559.47	59999.63
559.64	60109.64
559.80	59817.07
559.97	60004.31
560.13	59934.10
560.30	59796.01
560.46	59863.88
560.63	60027.72
560.79	60020.70
560.96	60184.54
561.12	60149.43
561.29	59941.12
561.45	60069.85
561.61	60072.19
561.78	59994.95
561.94	60053.47
562.11	60004.31
562.27	60123.68
562.44	60282.84
562.60	60229.01
562.77	60285.18
562.93	60191.56
563.10	60360.08
563.26	60074.53
563.42	60460.72
563.59	60231.35
563.75	60257.09
563.92	60549.66
564.08	60142.41
564.24	60526.25
564.41	60299.22
564.57	60388.16
564.74	60472.42
564.90	60397.52
565.07	60371.78
565.23	60219.64
565.39	60339.01
565.56	60465.40
565.72	60535.62
565.88	60329.65
566.05	60353.05
566.21	60346.03
566.38	60584.77
566.54	60491.15
566.70	60561.36
566.87	60570.72
567.03	60544.98
567.19	60708.82
567.36	60657.32
567.52	60577.75
567.68	60748.60
567.85	60652.64
568.01	60790.73
568.17	60608.17
568.34	60523.91
568.50	60617.53
568.66	60495.83
568.83	60772.01
568.99	60537.96
569.15	60814.14
569.32	60598.81
569.48	60664.35
569.64	60837.54
569.81	60537.96
569.97	60650.30
570.13	60685.41
570.30	60657.32
570.46	60570.72
570.62	60736.90
570.78	60687.75
570.95	60821.16
571.11	60849.25
571.27	60601.15
571.43	60891.38
571.60	61132.45
571.76	60788.39
571.92	60905.42
572.09	60926.49
572.25	60741.58
572.41	60900.74
572.57	60669.03
572.74	61083.30
572.90	60999.04
573.06	60975.64
573.22	60783.71
573.38	60877.33
573.55	60755.63
573.71	61109.05
573.87	60982.66
574.03	60694.77
574.20	61045.85
574.36	60837.54
574.52	61127.77
574.68	61043.51
574.84	61052.87
575.01	60963.93
575.17	60924.14
575.33	60816.48
575.49	60867.97
575.65	61064.58
575.82	61116.07
575.98	61139.47
576.14	61130.11
576.30	61080.96
576.46	60865.63
576.62	61034.15
576.79	60947.55
576.95	60772.01
577.11	61048.19
577.27	60961.59
577.43	61090.32
577.59	60856.27
577.75	60783.71
577.92	60846.91
578.08	61015.43
578.24	61090.32
578.40	61116.07
578.56	61256.50
578.72	61031.81
578.88	61230.75
579.04	61279.91
579.21	61235.44
579.37	61242.46
579.53	61003.72
579.69	60973.30
579.85	61073.94
580.01	60949.89
580.17	61106.71
580.33	61132.45
580.49	61141.81
580.65	61102.03
580.82	61221.39
580.98	60938.19
581.14	60999.04
581.30	61272.88
581.46	61027.13
581.62	61324.38
581.78	61127.77
581.94	61258.84
582.10	61214.37
582.26	61251.82
582.42	61010.74
582.58	61024.79
582.74	61254.16
582.90	61169.90
583.06	61134.79
583.22	61041.17
583.38	61193.31
583.54	61013.08
583.70	61242.46
583.86	61258.84
584.02	61017.77
584.18	61244.80
584.34	61186.28
584.50	61441.40
584.66	61104.37
584.82	61008.40
584.98	61188.63
585.14	61205.01
585.30	61022.45
585.46	61223.73
585.62	61336.08
585.78	61258.84
585.94	60996.70
586.10	61230.75
586.26	61286.93
586.42	61396.93
586.58	61197.99
586.74	61127.77
586.90	61172.24
587.06	61223.73
587.22	61490.55
587.38	61247.14
587.54	61291.61
587.70	61408.64
587.86	61347.78
588.02	61410.98
588.18	61319.70
588.34	61282.25
