SpectraSuite Data File
++++++++++++++++++++++++++++++++++++
Date: Fri Oct 25 11:34:39 EDT 2013
User: price-jones
Dark Spectrum Present: No
Reference Spectrum Present: No
Number of Sampled Component Spectra: 1
Spectrometers: USB2+H05261
Integration Time (usec): 100000 (USB2+H05261)
Spectra Averaged: 1 (USB2+H05261)
Boxcar Smoothing: 0 (USB2+H05261)
Correct for Electrical Dark: No (USB2+H05261)
Strobe/Lamp Enabled: No (USB2+H05261)
Correct for Detector Non-linearity: No (USB2+H05261)
Correct for Stray Light: No (USB2+H05261)
Number of Pixels in Processed Spectrum: 2048
>>>>>Begin Processed Spectral Data<<<<<
365.73	266.82
365.92	266.82
366.12	266.82
366.32	145.11
366.52	191.92
366.72	243.42
366.91	187.24
367.11	215.33
367.31	229.37
367.51	154.48
367.70	177.88
367.90	156.82
368.10	93.62
368.30	215.33
368.49	166.18
368.69	175.54
368.89	231.71
369.09	220.01
369.28	198.95
369.48	243.42
369.68	145.11
369.87	198.95
370.07	217.67
370.27	353.42
370.47	304.27
370.66	400.23
370.86	493.85
371.06	535.98
371.25	573.43
371.45	503.22
371.65	547.69
371.84	484.49
372.04	507.90
372.24	517.26
372.44	613.22
372.63	606.20
372.83	594.50
373.03	557.05
373.22	599.18
373.42	603.86
373.62	629.60
373.81	571.09
374.01	571.09
374.21	627.26
374.40	681.10
374.60	657.69
374.79	669.39
374.99	589.82
375.19	641.31
375.38	594.50
375.58	653.01
375.78	648.33
375.97	617.90
376.17	671.73
376.37	704.50
376.56	664.71
376.76	716.20
376.95	638.97
377.15	653.01
377.35	713.86
377.54	702.16
377.74	671.73
377.93	617.90
378.13	674.07
378.33	706.84
378.52	624.92
378.72	734.93
378.91	739.61
379.11	730.25
379.31	671.73
379.50	702.16
379.70	753.65
379.89	732.59
380.09	706.84
380.28	699.82
380.48	720.88
380.68	788.76
380.87	723.23
381.07	760.67
381.26	767.70
381.46	791.10
381.65	744.29
381.85	737.27
382.04	751.31
382.24	812.17
382.43	784.08
382.63	737.27
382.83	709.18
383.02	858.98
383.22	791.10
383.41	748.97
383.61	795.78
383.80	823.87
384.00	779.40
384.19	779.40
384.39	763.01
384.58	737.27
384.78	809.83
384.97	741.95
385.17	746.63
385.36	763.01
385.56	805.14
385.75	748.97
385.95	854.30
386.14	884.72
386.34	830.89
386.53	763.01
386.72	847.27
386.92	805.14
387.11	889.40
387.31	851.96
387.50	828.55
387.70	866.00
387.89	898.77
388.09	837.91
388.28	819.19
388.48	851.96
388.67	966.64
388.86	858.98
389.06	950.26
389.25	887.06
389.45	875.36
389.64	990.05
389.84	933.87
390.03	933.87
390.22	987.71
390.42	929.19
390.61	901.11
390.81	957.28
391.00	933.87
391.19	997.07
391.39	1004.09
391.58	966.64
391.78	950.26
391.97	1001.75
392.16	1069.62
392.36	1029.84
392.55	1060.26
392.75	1041.54
392.94	1029.84
393.13	1053.24
393.33	1029.84
393.52	1004.09
393.71	1067.28
393.91	1027.50
394.10	1114.10
394.29	1006.43
394.49	1062.60
394.68	1149.20
394.88	1100.05
395.07	1088.35
395.26	1128.14
395.46	1022.81
395.65	1174.95
395.84	1064.94
396.04	1210.06
396.23	1114.10
396.42	1111.75
396.62	1167.93
396.81	1193.67
397.00	1233.46
397.19	1247.51
397.39	1193.67
397.58	1125.80
397.77	1207.72
397.97	1235.80
398.16	1242.82
398.35	1254.53
398.55	1212.40
398.74	1226.44
398.93	1315.38
399.12	1275.59
399.32	1308.36
399.51	1310.70
399.70	1357.51
399.90	1268.57
400.09	1329.42
400.28	1284.95
400.47	1263.89
400.67	1336.45
400.86	1404.32
401.05	1406.66
401.24	1310.70
401.44	1317.72
401.63	1350.49
401.82	1369.21
402.01	1245.16
402.21	1465.18
402.40	1371.55
402.59	1469.86
402.78	1455.81
402.97	1502.62
403.17	1427.73
403.36	1451.13
403.55	1465.18
403.74	1504.96
403.93	1516.67
404.13	1516.67
404.32	1549.43
404.51	1537.73
404.70	1558.80
404.89	1554.12
405.09	1654.76
405.28	1638.38
405.47	1563.48
405.66	1598.59
405.85	1558.80
406.05	1511.99
406.24	1612.63
406.43	1696.89
406.62	1694.55
406.81	1736.68
407.00	1636.03
407.20	1680.50
407.39	1710.93
407.58	1806.89
407.77	1830.30
407.96	1739.02
408.15	1940.30
408.34	1853.70
408.54	1825.62
408.73	1748.38
408.92	1902.86
409.11	1832.64
409.30	1898.17
409.49	1912.22
409.68	1846.68
409.87	1961.37
410.07	1921.58
410.26	1980.09
410.45	1921.58
410.64	2019.88
410.83	2078.40
411.02	1996.48
411.21	1998.82
411.40	2010.52
411.59	1961.37
411.78	2043.29
411.98	1996.48
412.17	2120.53
412.36	2122.87
412.55	2279.68
412.74	2263.30
412.93	2275.00
413.12	2176.70
413.31	2272.66
413.50	2296.07
413.69	2279.68
413.88	2401.39
414.07	2403.73
414.26	2361.60
414.45	2382.67
414.64	2471.61
414.83	2469.27
415.02	2466.92
415.22	2593.31
415.41	2609.70
415.60	2410.75
415.79	2579.27
415.98	2553.52
416.17	2551.18
416.36	2525.44
416.55	2621.40
416.74	2644.81
416.93	2715.02
417.12	2705.66
417.31	2841.41
417.50	2708.00
417.69	2796.94
417.88	2731.41
418.07	2754.81
418.26	2757.15
418.45	2810.98
418.64	2897.58
418.83	2937.37
419.02	2986.52
419.21	2937.37
419.39	2869.50
419.58	2925.67
419.77	2899.92
419.96	3038.02
420.15	2946.73
420.34	2888.22
420.53	3033.33
420.72	3047.38
420.91	2991.20
421.10	3126.96
421.29	3112.91
421.48	3115.25
421.67	3101.21
421.86	3016.95
422.05	3157.38
422.24	3087.17
422.43	3213.56
422.61	3258.03
422.80	3260.37
422.99	3307.18
423.18	3199.51
423.37	3302.50
423.56	3248.66
423.75	3239.30
423.94	3084.83
424.13	3033.33
424.32	3117.59
424.50	3274.41
424.69	3459.31
424.88	3267.39
425.07	3325.90
425.26	3297.81
425.45	3318.88
425.64	3274.41
425.83	3255.69
426.01	3283.77
426.20	3194.83
426.39	3304.84
426.58	3358.67
426.77	3227.60
426.96	3400.80
427.15	3400.80
427.33	3466.33
427.52	3391.44
427.71	3424.20
427.90	3414.84
428.09	3419.52
428.28	3562.30
428.46	3346.97
428.65	3576.34
428.84	3684.00
429.03	3536.55
429.22	3611.45
429.40	3538.89
429.59	3613.79
429.78	3597.40
429.97	3335.26
430.16	3606.77
430.34	3602.08
430.53	3606.77
430.72	3695.71
430.91	3684.00
431.10	3845.50
431.28	3775.28
431.47	3801.03
431.66	3950.82
431.85	3749.54
432.03	3822.09
432.22	3939.12
432.41	3754.22
432.60	3873.59
432.79	3929.76
432.97	3899.33
433.16	3911.04
433.35	3922.74
433.54	3992.95
433.72	3920.40
433.91	4072.53
434.10	3950.82
434.28	4025.72
434.47	4042.11
434.66	4016.36
434.85	3953.16
435.03	4112.32
435.22	4117.00
435.41	4203.60
435.59	4028.06
435.78	4224.67
435.97	4205.94
436.16	4236.37
436.34	4175.52
436.53	4159.13
436.72	4337.01
436.90	4337.01
437.09	4088.92
437.28	4219.99
437.46	4283.18
437.65	4381.48
437.84	4358.08
438.02	4383.82
438.21	4381.48
438.40	4301.90
438.58	4524.26
438.77	4528.94
438.96	4606.17
439.14	4702.14
439.33	4571.07
439.52	4521.92
439.70	4678.73
439.89	4762.99
440.08	4905.76
440.26	4760.65
440.45	4812.14
440.63	4716.18
440.82	4884.70
441.01	4849.59
441.19	4802.78
441.38	5039.17
441.57	5055.56
441.75	5188.97
441.94	5210.03
442.12	5144.50
442.31	5088.32
442.50	5170.24
442.68	5233.44
442.87	5137.48
443.05	5252.16
443.24	5397.28
443.43	5238.12
443.61	5207.69
443.80	5355.15
443.98	5224.08
444.17	4983.00
444.35	5277.91
444.54	5327.06
444.73	5343.44
444.91	5376.21
445.10	5404.30
445.28	5327.06
445.47	5221.74
445.65	5469.83
445.84	5359.83
446.02	5371.53
446.21	5535.37
446.39	5441.75
446.58	5273.23
446.77	5465.15
446.95	5205.35
447.14	5416.00
447.32	5439.40
447.51	5315.36
447.69	5495.58
447.88	5383.23
448.06	5619.63
448.25	5547.07
448.43	5469.83
448.62	5523.66
448.80	5413.66
448.99	5514.30
449.17	5645.37
449.36	5540.05
449.54	5762.40
449.73	5867.72
449.91	5750.70
450.10	5720.27
450.28	5699.20
450.46	5743.67
450.65	5879.43
450.83	5982.41
451.02	5916.87
451.20	5708.57
451.39	5820.91
451.57	5914.53
451.76	5830.27
451.94	5982.41
452.13	5996.45
452.31	5949.64
452.49	6061.99
452.68	5944.96
452.86	5895.81
453.05	6024.54
453.23	6183.70
453.42	5827.93
453.60	5935.60
453.78	6087.73
453.97	6141.57
454.15	6031.56
454.34	6223.48
454.52	6139.23
454.70	6260.93
454.89	6054.97
455.07	6328.81
455.26	6230.51
455.44	6195.40
455.62	6251.57
455.81	6300.72
455.99	6387.32
456.17	6279.66
456.36	6413.07
456.54	6394.34
456.73	6590.95
456.91	6604.99
457.09	6520.73
457.28	6663.51
457.46	6572.22
457.64	6693.93
457.83	6689.25
458.01	6551.16
458.19	6700.95
458.38	6792.23
458.56	6768.83
458.74	7007.56
458.93	6860.11
459.11	6768.83
459.29	6782.87
459.48	6927.99
459.66	7035.65
459.84	6836.70
460.03	7108.21
460.21	7171.40
460.39	7066.08
460.57	7110.55
460.76	7082.46
460.94	7131.61
461.12	7068.42
461.31	7157.36
461.49	7344.60
461.67	7117.57
461.85	7445.24
462.04	7155.02
462.22	7679.30
462.40	7377.37
462.59	7403.11
462.77	7314.17
462.95	7548.23
463.13	7260.34
463.32	7391.41
463.50	7398.43
463.68	7569.29
463.86	7555.25
464.05	7370.35
464.23	7258.00
464.41	7557.59
464.59	7323.54
464.78	7747.17
464.96	7588.02
465.14	7396.09
465.32	7590.36
465.50	7728.45
465.69	7747.17
465.87	7473.33
466.05	7651.21
466.23	7772.92
466.41	7761.22
466.60	7906.33
466.78	7854.84
466.96	7712.07
467.14	7880.58
467.32	7838.45
467.51	7981.23
467.69	7606.74
467.87	7735.47
468.05	8152.09
468.23	8030.38
468.41	7810.37
468.60	7906.33
468.78	8112.30
468.96	7857.18
469.14	7922.71
469.32	8091.23
469.50	8067.83
469.69	8374.44
469.87	8217.62
470.05	8290.18
470.23	8332.31
470.41	8287.84
470.59	8409.54
470.77	8418.91
470.95	8435.29
471.14	8355.71
471.32	8271.45
471.50	8662.32
471.68	8430.61
471.86	8564.02
472.04	8826.16
472.22	8781.69
472.40	8634.24
472.58	8905.74
472.77	8898.72
472.95	8919.78
473.13	9387.89
473.31	9046.17
473.49	8828.50
473.67	8744.24
473.85	9076.60
474.03	9104.68
474.21	8985.32
474.39	9132.77
474.57	9373.85
474.75	9411.29
474.93	9245.12
475.12	9467.47
475.30	9338.74
475.48	9582.15
475.66	9635.99
475.84	9399.59
476.02	9610.24
476.20	9589.17
476.38	10024.51
476.56	10113.45
476.74	10141.54
476.92	9792.80
477.10	9848.97
477.28	10092.39
477.46	10010.47
477.64	10244.52
477.82	10356.87
478.00	10551.14
478.18	10314.74
478.36	10593.26
478.54	10757.10
478.72	10726.68
478.90	10906.90
479.08	10736.04
479.26	11035.63
479.44	11201.80
479.62	11052.01
479.80	11108.18
479.98	11346.92
480.16	11321.17
480.34	11449.90
480.52	11552.88
480.70	11698.00
480.88	11367.98
481.06	11758.85
481.24	11901.62
481.41	11920.35
481.59	11896.94
481.77	12177.81
481.95	12400.16
482.13	12203.55
482.31	12250.36
482.49	12844.86
482.67	12517.18
482.85	12765.28
483.03	12800.39
483.21	12732.51
483.39	13013.38
483.57	12858.90
483.74	13123.38
483.92	13263.82
484.10	13132.75
484.28	13483.83
484.46	14111.09
484.64	13654.69
484.82	13460.42
485.00	13872.36
485.18	13888.74
485.35	13965.98
485.53	14143.86
485.71	14422.38
485.89	14544.09
486.07	14478.55
486.25	14508.98
486.43	14600.26
486.61	14782.82
486.78	15051.99
486.96	15157.31
487.14	15201.78
487.32	15239.23
487.50	15337.53
487.68	15470.94
487.85	15559.88
488.03	15726.06
488.21	15983.52
488.39	15981.18
488.57	16098.20
488.75	16203.53
488.92	16442.26
489.10	16547.59
489.28	16563.97
489.46	16842.50
489.64	16641.21
489.81	17212.30
489.99	16819.09
490.17	17287.20
490.35	17516.57
490.53	17535.29
490.70	17713.17
490.88	17268.47
491.06	18073.62
491.24	17797.43
491.41	17743.60
491.59	17898.08
491.77	18256.18
491.95	18391.93
492.13	18387.25
492.30	18607.26
492.48	18450.44
492.66	18703.22
492.84	18738.33
493.01	19110.47
493.19	18881.10
493.37	19159.63
493.54	19201.76
493.72	19496.66
493.90	19426.45
494.08	19405.38
494.25	19578.58
494.43	19864.13
494.61	19906.26
494.79	19847.74
494.96	20105.20
495.14	20102.86
495.32	20430.54
495.49	20521.82
495.67	20460.96
495.85	20781.62
496.02	20678.63
496.20	20730.12
496.38	21027.37
496.55	21390.16
496.73	21551.65
496.91	21322.28
497.09	21516.54
497.26	21539.95
497.44	21432.29
497.62	21668.68
497.79	22405.95
497.97	22232.75
498.14	22272.54
498.32	22111.04
498.50	22419.99
498.67	22581.49
498.85	22244.45
499.03	22469.14
499.20	22696.17
499.38	22473.82
499.56	22848.31
499.73	22871.72
499.91	23257.90
500.08	23377.27
500.26	22984.06
500.44	23243.86
500.61	23035.55
500.79	23405.36
500.97	23782.18
501.14	23866.44
501.32	23845.38
501.49	23569.19
501.67	23718.99
501.84	24383.70
502.02	24163.69
502.20	24226.89
502.37	24065.39
502.55	24238.59
502.72	24685.63
502.90	24659.88
503.07	24467.96
503.25	24992.24
503.43	24659.88
503.60	24755.85
503.78	24795.64
503.95	24926.71
504.13	24748.82
504.30	25205.23
504.48	25193.53
504.65	25371.41
504.83	25535.24
505.01	25408.86
505.18	25722.49
505.36	25923.77
505.53	25743.55
505.71	25659.29
505.88	26026.76
506.06	25968.24
506.23	25923.77
506.41	26136.76
506.58	25956.54
506.76	26122.72
506.93	26312.30
507.11	26553.38
507.28	26602.53
507.46	26352.09
507.63	26562.74
507.81	27002.76
507.98	26696.15
508.16	26909.14
508.33	26698.49
508.50	27014.46
508.68	27213.41
508.85	27449.80
509.03	27227.45
509.20	27489.59
509.38	27648.75
509.55	27459.16
509.73	27920.25
509.90	27365.54
510.08	27679.18
510.25	27494.27
510.42	27690.88
510.60	28142.60
510.77	28231.54
510.95	28290.06
511.12	28491.34
511.30	28030.26
511.47	28545.17
511.64	28184.73
511.82	28662.20
511.99	28456.23
512.17	28460.91
512.34	28554.54
512.51	28964.13
512.69	29032.00
512.86	29137.33
513.04	28807.31
513.21	29343.30
513.38	29537.56
513.56	29200.52
513.73	29074.13
513.90	29783.32
514.08	29525.86
514.25	29450.96
514.43	29633.52
514.60	29434.58
514.77	29577.35
514.95	30043.12
515.12	30047.80
515.29	29883.96
515.47	29937.79
515.64	30433.99
515.81	30132.06
515.99	29851.19
516.16	30572.08
516.33	30375.47
516.51	30782.73
516.68	30270.15
516.85	30246.74
517.03	30843.58
517.20	30862.30
517.37	30670.38
517.54	30862.30
517.72	30560.37
517.89	30937.20
518.06	31138.49
518.24	31318.71
518.41	30801.45
518.58	30955.93
518.75	31204.02
518.93	31880.44
519.10	31131.47
519.27	31695.53
519.45	31431.05
519.62	31637.02
519.79	31768.09
519.96	31758.73
520.14	31688.51
520.31	31512.97
520.48	31889.80
520.65	31936.61
520.83	32456.21
521.00	32652.81
521.17	32327.48
521.34	32411.74
521.52	32606.00
521.69	32889.21
521.86	32727.71
522.03	33200.50
522.20	33003.89
522.38	32947.72
522.55	33069.43
522.72	32816.65
522.89	32790.91
523.07	33343.27
523.24	33205.18
523.41	33149.01
523.58	33237.95
523.75	33612.43
523.92	33160.71
524.10	33579.67
524.27	33511.79
524.44	33453.28
524.61	33846.49
524.78	33905.00
524.96	33663.93
525.13	33951.81
525.30	34146.08
525.47	34005.64
525.64	34003.30
525.81	34120.33
525.98	34382.47
526.16	34155.44
526.33	34476.09
526.50	34735.89
526.67	33991.60
526.84	34499.50
527.01	34237.36
527.18	34789.72
527.36	34768.66
527.53	34675.04
527.70	34902.07
527.87	34983.99
528.04	34696.10
528.21	35309.32
528.38	34721.85
528.55	34763.98
528.72	34967.60
528.89	35112.72
529.07	35002.71
529.24	34955.90
529.41	35545.72
529.58	35227.40
529.75	35510.61
529.92	35782.11
530.09	35428.69
530.26	35892.12
530.43	35676.79
530.60	35524.65
530.77	35620.61
530.94	35861.69
531.11	35388.90
531.28	36212.77
531.46	35887.43
531.63	35857.01
531.80	35962.33
531.97	35885.09
532.14	36151.91
532.31	36318.09
532.48	36245.54
532.65	36287.67
532.82	36182.34
532.99	36472.57
533.16	35995.10
533.33	36587.25
533.50	36238.51
533.67	36098.08
533.84	36851.73
534.01	36343.84
534.18	36458.52
534.35	36893.86
534.52	36919.61
534.69	37282.39
534.86	37223.88
535.03	36816.63
535.20	37280.05
535.37	37570.28
535.54	36954.72
535.71	37497.72
535.88	37397.08
536.05	37289.42
536.22	37345.59
536.38	37450.91
536.55	37483.68
536.72	37453.25
536.89	37586.66
537.06	37708.37
537.23	37399.42
537.40	37450.91
537.57	37624.11
537.74	38061.79
537.91	37902.64
538.08	37937.74
538.25	37507.08
538.42	38043.07
538.59	38073.49
538.75	38293.50
538.92	37972.85
539.09	38717.14
539.26	38192.86
539.43	38265.42
539.60	38689.06
539.77	38471.39
539.94	38281.80
540.11	38667.99
540.28	38543.94
540.44	38536.92
540.61	38550.96
540.78	38363.72
540.95	38630.54
541.12	38494.79
541.29	38375.42
541.46	38888.00
541.62	38904.38
541.79	39026.09
541.96	38539.26
542.13	38689.06
542.30	38925.45
542.47	38923.11
542.63	38852.89
542.80	39431.01
542.97	39215.68
543.14	39688.46
543.31	39100.99
543.48	39449.73
543.64	39817.19
543.81	39611.23
543.98	39566.76
544.15	39913.16
544.32	39468.45
544.48	40161.25
544.65	40023.16
544.82	40065.29
544.99	39143.12
545.16	40004.44
545.32	39873.37
545.49	40154.23
545.66	40311.05
545.83	40273.60
546.00	40313.39
546.16	40023.16
546.33	40194.02
546.50	39842.94
546.67	40023.16
546.83	39959.97
547.00	40346.15
547.17	39971.67
547.34	40128.48
547.50	40666.81
547.67	41013.21
547.84	40521.69
548.00	40694.89
548.17	40832.99
548.34	41064.70
548.51	40900.86
548.67	40608.29
548.84	40158.91
549.01	40896.18
549.18	40739.36
549.34	40722.98
549.51	40779.15
549.68	41146.62
549.84	41036.61
550.01	41263.64
550.18	40889.16
550.34	41268.33
550.51	41053.00
550.68	41244.92
550.84	40947.67
551.01	41603.02
551.18	41265.99
551.34	41024.91
551.51	41720.05
551.68	41237.90
551.84	41106.83
552.01	41294.07
552.18	41329.18
552.34	41057.68
552.51	41408.76
552.68	41319.82
552.84	41532.81
553.01	41759.84
553.18	41724.73
553.34	41532.81
553.51	41834.74
553.67	41813.67
553.84	41846.44
554.01	42043.04
554.17	41708.35
554.34	42300.50
554.51	42038.36
554.67	42635.20
554.84	42014.96
555.00	41982.19
555.17	41986.87
555.33	42106.24
555.50	42106.24
555.67	42176.45
555.83	42131.98
556.00	42209.22
556.16	42630.52
556.33	42696.05
556.50	42703.07
556.66	42089.85
556.83	42391.78
556.99	42962.87
557.16	42412.85
557.32	42473.70
557.49	42773.29
557.65	42433.91
557.82	42452.64
557.98	42775.63
558.15	42391.78
558.32	42602.43
558.48	42249.01
558.65	42682.01
558.81	42700.73
558.98	42515.83
559.14	42754.57
559.31	43035.43
559.47	42726.48
559.64	42906.70
559.80	42939.47
559.97	43236.72
560.13	42628.18
560.30	43189.91
560.46	43454.39
560.63	43320.98
560.79	43093.94
560.96	43281.19
561.12	43089.26
561.29	43096.28
561.45	43374.81
561.61	43187.56
561.78	43157.14
561.94	42909.04
562.11	43449.70
562.27	43288.21
562.44	43349.06
562.60	43255.44
562.77	43749.29
562.93	43442.68
563.10	43753.97
563.26	43531.62
563.42	43538.65
563.59	43295.23
563.75	43344.38
563.92	43585.46
564.08	43107.99
564.24	43636.95
564.41	43753.97
564.57	43480.13
564.74	43791.42
564.90	43650.99
565.07	43650.99
565.23	44065.27
565.39	43969.30
565.56	43618.22
565.72	43421.62
565.88	43550.35
566.05	43583.12
566.21	43885.04
566.38	43344.38
566.54	43761.00
566.70	43885.04
566.87	44135.48
567.03	43679.08
567.19	44020.80
567.36	43889.73
567.52	43988.03
567.68	43873.34
567.85	44238.47
568.01	43945.90
568.17	43786.74
568.34	43690.78
568.50	44011.43
568.66	43761.00
568.83	44116.76
568.99	43861.64
569.15	44320.38
569.32	43913.13
569.48	43622.90
569.64	44552.10
569.81	44030.16
569.97	44093.35
570.13	44189.31
570.30	44233.78
570.46	44091.01
570.62	43878.02
570.78	44133.14
570.95	44037.18
571.11	44119.10
571.27	43508.22
571.43	43959.94
571.60	44079.31
571.76	44009.09
571.92	44575.50
572.09	43695.46
572.25	43995.05
572.41	43962.28
572.57	43840.57
572.74	44744.02
572.90	44226.76
573.06	44304.00
573.22	44765.09
573.38	44790.83
573.55	44713.59
573.71	44769.77
573.87	44533.37
574.03	44516.99
574.20	44577.84
574.36	44402.30
574.52	44612.95
574.68	44416.35
574.84	44463.16
575.01	44800.19
575.17	44744.02
575.33	44685.51
575.49	44439.75
575.65	44184.63
575.82	44626.99
575.98	44226.76
576.14	44163.57
576.30	44619.97
576.46	44437.41
576.62	44825.94
576.79	44535.71
576.95	44065.27
577.11	44257.19
577.27	44561.46
577.43	44617.63
577.59	44917.22
577.75	44549.76
577.92	44683.17
578.08	44414.01
578.24	44868.07
578.40	44699.55
578.56	44584.86
578.72	44854.03
578.88	44748.70
579.04	44509.97
579.21	44545.08
579.37	44392.94
579.53	44832.96
579.69	44783.81
579.85	44584.86
580.01	44381.24
580.17	44416.35
580.33	44715.93
580.49	44940.63
580.65	44751.04
580.82	44533.37
580.98	44285.28
581.14	44261.87
581.30	44722.96
581.46	44374.22
581.62	44748.70
581.78	44577.84
581.94	44751.04
582.10	44477.20
582.26	44875.09
582.42	44671.46
582.58	44762.75
582.74	44493.58
582.90	44926.58
583.06	44886.79
583.22	44533.37
583.38	44996.80
583.54	44933.60
583.70	44942.97
583.86	45118.51
584.02	45280.00
584.18	44608.27
584.34	45179.36
584.50	45064.67
584.66	44980.42
584.82	44851.69
584.98	45181.70
585.14	45113.83
585.30	44931.26
585.46	45326.81
585.62	44739.34
585.78	45284.68
585.94	44610.61
586.10	44856.37
586.26	44673.81
586.42	45090.42
586.58	44790.83
586.74	44725.30
586.90	44381.24
587.06	44985.10
587.22	45057.65
587.38	44697.21
587.54	44669.12
587.70	45319.79
587.86	44790.83
588.02	44985.10
588.18	44622.31
588.34	44933.60
588.49	45244.90
588.65	44847.00
588.81	45184.04
588.97	45193.40
589.13	45059.99
589.29	44982.76
589.45	45188.72
589.61	45069.36
589.77	45305.75
589.93	45277.66
590.08	45017.86
