SpectraSuite Data File
++++++++++++++++++++++++++++++++++++
Date: Fri Oct 25 10:43:16 EDT 2013
User: price-jones
Dark Spectrum Present: No
Reference Spectrum Present: No
Number of Sampled Component Spectra: 1
Spectrometers: USB2+H05261
Integration Time (usec): 100000 (USB2+H05261)
Spectra Averaged: 1 (USB2+H05261)
Boxcar Smoothing: 0 (USB2+H05261)
Correct for Electrical Dark: No (USB2+H05261)
Strobe/Lamp Enabled: No (USB2+H05261)
Correct for Detector Non-linearity: No (USB2+H05261)
Correct for Stray Light: No (USB2+H05261)
Number of Pixels in Processed Spectrum: 2048
>>>>>Begin Processed Spectral Data<<<<<
365.73	91.28
365.92	91.28
366.12	91.28
366.32	65.54
366.52	25.75
366.72	63.19
366.91	32.77
367.11	0.00
367.31	44.47
367.51	0.00
367.70	37.45
367.90	37.45
368.10	74.90
368.30	67.88
368.49	86.60
368.69	53.83
368.89	49.15
369.09	28.09
369.28	93.62
369.48	0.00
369.68	4.68
369.87	119.37
370.07	121.71
370.27	147.45
370.47	196.60
370.66	330.02
370.86	440.02
371.06	479.81
371.25	383.85
371.45	444.70
371.65	547.69
371.84	423.64
372.04	437.68
372.24	416.62
372.44	418.96
372.63	475.13
372.83	449.38
373.03	545.34
373.22	461.09
373.42	493.85
373.62	533.64
373.81	582.79
374.01	571.09
374.21	500.87
374.40	575.77
374.60	470.45
374.79	547.69
374.99	624.92
375.19	603.86
375.38	575.77
375.58	594.50
375.78	585.13
375.97	643.65
376.17	613.22
376.37	669.39
376.56	601.52
376.76	601.52
376.95	601.52
377.15	641.31
377.35	624.92
377.54	695.14
377.74	643.65
377.93	685.78
378.13	683.44
378.33	657.69
378.52	662.37
378.72	671.73
378.91	732.59
379.11	709.18
379.31	692.80
379.50	671.73
379.70	713.86
379.89	760.67
380.09	692.80
380.28	627.26
380.48	706.84
380.68	629.60
380.87	650.67
381.07	730.25
381.26	660.03
381.46	681.10
381.65	716.20
381.85	676.41
382.04	725.57
382.24	681.10
382.43	634.29
382.63	716.20
382.83	678.76
383.02	730.25
383.22	709.18
383.41	695.14
383.61	711.52
383.80	828.55
384.00	847.27
384.19	678.76
384.39	716.20
384.58	716.20
384.78	746.63
384.97	821.53
385.17	873.02
385.36	842.59
385.56	830.89
385.75	833.23
385.95	716.20
386.14	835.57
386.34	826.21
386.53	821.53
386.72	849.61
386.92	959.62
387.11	880.04
387.31	816.85
387.50	854.30
387.70	842.59
387.89	840.25
388.09	947.92
388.28	847.27
388.48	784.08
388.67	851.96
388.86	940.90
389.06	966.64
389.25	1011.11
389.45	1036.86
389.64	976.00
389.84	861.32
390.03	1022.81
390.22	1050.90
390.42	1008.77
390.61	976.00
390.81	1001.75
391.00	1015.79
391.19	978.34
391.39	1109.41
391.58	1090.69
391.78	1034.52
391.97	990.05
392.16	990.05
392.36	1062.60
392.55	1050.90
392.75	1004.09
392.94	1006.43
393.13	947.92
393.33	973.66
393.52	990.05
393.71	1078.99
393.91	1198.35
394.10	1074.31
394.29	1125.80
394.49	1153.88
394.68	1196.01
394.88	1135.16
395.07	1221.76
395.26	1268.57
395.46	1193.67
395.65	1310.70
395.84	1149.20
396.04	1217.08
396.23	1231.12
396.42	1128.14
396.62	1205.38
396.81	1198.35
397.00	1275.59
397.19	1191.33
397.39	1200.69
397.58	1364.53
397.77	1394.96
397.97	1387.94
398.16	1453.47
398.35	1418.36
398.55	1490.92
398.74	1467.52
398.93	1526.03
399.12	1439.43
399.32	1488.58
399.51	1483.90
399.70	1579.86
399.90	1563.48
400.09	1568.16
400.28	1523.69
400.47	1645.40
400.67	1643.06
400.86	1542.41
401.05	1703.91
401.24	1629.01
401.44	1715.61
401.63	1612.63
401.82	1774.13
402.01	1710.93
402.21	1668.80
402.40	1645.40
402.59	1783.49
402.78	1818.60
402.97	1717.95
403.17	1647.74
403.36	1877.11
403.55	1900.52
403.74	1874.77
403.93	1760.08
404.13	1860.73
404.32	1863.07
404.51	1806.89
404.70	1989.46
404.89	1806.89
405.09	1933.28
405.28	1895.83
405.47	1944.99
405.66	1902.86
405.85	1856.04
406.05	1961.37
406.24	1954.35
406.43	2017.54
406.62	2050.31
406.81	2172.02
407.00	2033.93
407.20	1954.35
407.39	2036.27
407.58	2125.21
407.77	2111.16
407.96	2279.68
408.15	2286.70
408.34	2153.29
408.54	2232.87
408.73	2340.54
408.92	2263.30
409.11	2352.24
409.30	2361.60
409.49	2321.81
409.68	2338.20
409.87	2221.17
410.07	2331.17
410.26	2349.90
410.45	2452.88
410.64	2455.22
410.83	2455.22
411.02	2539.48
411.21	2579.27
411.40	2595.65
411.59	2658.85
411.78	2630.76
411.98	2583.95
412.17	2574.59
412.36	2684.59
412.55	2642.46
412.74	2764.17
412.93	2759.49
413.12	2722.04
413.31	2920.99
413.50	2750.13
413.69	2874.18
413.88	2932.69
414.07	2920.99
414.26	2984.18
414.45	2904.60
414.64	3096.53
414.83	3122.27
415.02	3049.72
415.22	3038.02
415.41	3052.06
415.60	3117.59
415.79	3162.06
415.98	3293.13
416.17	3110.57
416.36	3204.19
416.55	3274.41
416.74	3335.26
416.93	3225.26
417.12	3407.82
417.31	3339.94
417.50	3419.52
417.69	3494.42
417.88	3564.64
418.07	3400.80
418.26	3365.69
418.45	3302.50
418.64	3590.38
418.83	3728.47
419.02	3569.32
419.21	3578.68
419.39	3634.85
419.58	3506.12
419.77	3571.66
419.96	3644.21
420.15	3648.90
420.34	3791.67
420.53	3698.05
420.72	3836.14
420.91	3817.41
421.10	3829.12
421.29	3901.67
421.48	3957.85
421.67	3892.31
421.86	3864.22
422.05	3735.50
422.24	3908.69
422.43	3719.11
422.61	3836.14
422.80	4063.17
422.99	3885.29
423.18	3913.38
423.37	3960.19
423.56	3911.04
423.75	3906.35
423.94	4032.74
424.13	3763.58
424.32	3801.03
424.50	4009.34
424.69	4049.13
424.88	3978.91
425.07	3948.48
425.26	3782.31
425.45	3925.08
425.64	3840.82
425.83	3920.40
426.01	3934.44
426.20	3974.23
426.39	4086.58
426.58	4039.76
426.77	3854.86
426.96	4016.36
427.15	3999.98
427.33	4189.56
427.52	4023.38
427.71	4004.66
427.90	4095.94
428.09	4184.88
428.28	4063.17
428.46	4238.71
428.65	4135.73
428.84	4315.95
429.03	4248.07
429.22	4060.83
429.40	4135.73
429.59	4159.13
429.78	3932.10
429.97	3950.82
430.16	4014.02
430.34	4105.30
430.53	4086.58
430.72	4219.99
430.91	4273.82
431.10	4393.19
431.28	4596.81
431.47	4741.93
431.66	4734.90
431.85	4367.44
432.03	4564.04
432.22	4734.90
432.41	4643.62
432.60	4674.05
432.79	4596.81
432.97	4744.27
433.16	4688.09
433.35	4608.51
433.54	4613.20
433.72	4678.73
433.91	4711.50
434.10	4557.02
434.28	4711.50
434.47	4870.65
434.66	4873.00
434.85	4840.23
435.03	4842.57
435.22	4947.89
435.41	5032.15
435.59	5053.22
435.78	5132.79
435.97	5132.79
436.16	5172.58
436.34	5170.24
436.53	5172.58
436.72	5167.90
436.90	5135.14
437.09	5320.04
437.28	5146.84
437.46	5156.20
437.65	5231.10
437.84	5270.89
438.02	5158.54
438.21	5074.28
438.40	5111.73
438.58	5348.12
438.77	5439.40
438.96	5385.57
439.14	5598.56
439.33	5584.52
439.52	5568.13
439.70	5570.48
439.89	5671.12
440.08	5619.63
440.26	5736.65
440.45	5628.99
440.63	5870.06
440.82	6052.63
441.01	5980.07
441.19	6050.28
441.38	6071.35
441.57	6054.97
441.75	6167.31
441.94	6179.01
442.12	6363.92
442.31	6324.13
442.50	6403.71
442.68	6305.40
442.87	6265.61
443.05	6436.47
443.24	6375.62
443.43	6406.05
443.61	6525.41
443.80	6597.97
443.98	6310.08
444.17	6146.25
444.35	6438.81
444.54	6663.51
444.73	6499.67
444.91	6289.02
445.10	6459.88
445.28	6408.39
445.47	6331.15
445.65	6415.41
445.84	6370.94
446.02	6647.12
446.21	6682.23
446.39	6658.82
446.58	6487.96
446.77	6647.12
446.95	6551.16
447.14	6670.53
447.32	6684.57
447.51	6637.76
447.69	6588.61
447.88	6796.92
448.06	6761.81
448.25	6691.59
448.43	6710.32
448.62	6670.53
448.80	6693.93
448.99	6878.83
449.17	6729.04
449.36	6778.19
449.54	6867.13
449.73	6913.94
449.91	7218.21
450.10	6867.13
450.28	7309.49
450.46	7145.66
450.65	7393.75
450.83	7222.89
451.02	7098.84
451.20	7272.04
451.39	7194.81
451.57	7281.41
451.76	7183.10
451.94	7068.42
452.13	7194.81
452.31	7030.97
452.49	7101.19
452.68	7229.91
452.86	7080.12
453.05	7297.79
453.23	7300.13
453.42	7194.81
453.60	7365.67
453.78	7398.43
453.97	7129.27
454.15	7566.95
454.34	7431.20
454.52	7688.66
454.70	7300.13
454.89	7382.05
455.07	7503.76
455.26	7641.85
455.44	7798.66
455.62	7796.32
455.81	7833.77
455.99	7808.03
456.17	7679.30
456.36	7765.90
456.54	8100.59
456.73	7927.39
456.91	7981.23
457.09	8098.25
457.28	8217.62
457.46	8205.92
457.64	8334.65
457.83	8081.87
458.01	8189.53
458.19	8229.32
458.38	8147.40
458.56	8351.03
458.74	8133.36
458.93	8222.30
459.11	8308.90
459.29	8173.15
459.48	8269.11
459.66	8271.45
459.84	8549.98
460.03	8500.83
460.21	8456.36
460.39	8407.20
460.57	8683.39
460.76	8498.49
460.94	8566.36
461.12	8634.24
461.31	8784.03
461.49	8400.18
461.67	8479.76
461.85	8910.42
462.04	8929.14
462.22	9308.31
462.40	9008.72
462.59	9018.08
462.77	8772.33
462.95	9015.74
463.13	8968.93
463.32	8861.27
463.50	9020.42
463.68	9146.81
463.86	8856.59
464.05	8823.82
464.23	8896.38
464.41	9172.56
464.59	8861.27
464.78	9090.64
464.96	9015.74
465.14	9116.39
465.32	9149.15
465.50	9261.50
465.69	9341.08
465.87	9308.31
466.05	9210.01
466.23	9151.49
466.41	9263.84
466.60	9518.96
466.78	9413.63
466.96	9231.07
467.14	9301.29
467.32	9338.74
467.51	9259.16
467.69	9317.67
467.87	9334.06
468.05	9441.72
468.23	9334.06
468.41	9509.60
468.60	9448.74
468.78	9565.77
468.96	9502.58
469.14	9785.78
469.32	9792.80
469.50	9420.66
469.69	9717.90
469.87	9802.16
470.05	9687.48
470.23	9635.99
470.41	9811.53
470.59	9825.57
470.77	10064.30
470.95	9926.21
471.14	10146.22
471.32	9947.28
471.50	10347.51
471.68	10375.59
471.86	10244.52
472.04	10326.44
472.22	10600.29
472.40	10246.87
472.58	10289.00
472.77	10473.90
472.95	10611.99
473.13	10864.77
473.31	10382.62
473.49	10478.58
473.67	10518.37
473.85	10630.71
474.03	11042.65
474.21	11063.71
474.39	11124.57
474.57	10981.79
474.75	11035.63
474.93	11286.06
475.12	11122.23
475.30	11126.91
475.48	11056.69
475.66	11412.45
475.84	11279.04
476.02	11573.95
476.20	11318.83
476.38	11534.16
476.56	11693.32
476.74	11662.89
476.92	11775.24
477.10	11791.62
477.28	12070.14
477.46	12063.12
477.64	12212.92
477.82	12437.61
478.00	12517.18
478.18	12390.80
478.36	12528.89
478.54	12592.08
478.72	12786.35
478.90	12685.70
479.08	13064.87
479.26	12938.48
479.44	13205.30
479.62	13282.54
479.80	13107.00
479.98	13231.05
480.16	13769.37
480.34	13572.77
480.52	13996.40
480.70	13799.80
480.88	13657.03
481.06	13771.71
481.24	13905.12
481.41	14195.35
481.59	14080.66
481.77	14490.26
481.95	14445.79
482.13	14438.76
482.31	14417.70
482.49	14871.76
482.67	15030.92
482.85	14771.12
483.03	15094.11
483.21	15297.74
483.39	15232.21
483.57	15367.96
483.74	15538.82
483.92	15576.27
484.10	15747.12
484.28	15955.43
484.46	16273.74
484.64	16102.89
484.82	16088.84
485.00	16231.62
485.18	16067.78
485.35	16472.69
485.53	16060.76
485.71	16032.67
485.89	16320.56
486.07	16416.52
486.25	16678.66
486.43	16610.78
486.61	16727.81
486.78	17114.00
486.96	17296.56
487.14	17408.90
487.32	17776.37
487.50	17991.70
487.68	18223.41
487.85	18382.57
488.03	18537.04
488.21	18616.62
488.39	18625.98
488.57	18537.04
488.75	18693.86
488.92	18883.44
489.10	19269.63
489.28	19597.31
489.46	19793.91
489.64	20044.35
489.81	20044.35
489.99	20421.17
490.17	20322.87
490.35	20601.40
490.53	20252.66
490.70	20156.69
490.88	20306.49
491.06	20692.68
491.24	20617.78
491.41	20613.10
491.59	20566.29
491.77	20891.62
491.95	20936.09
492.13	21359.73
492.30	21853.58
492.48	21855.92
492.66	21497.82
492.84	21947.20
493.01	21769.32
493.19	21869.97
493.37	22293.60
493.54	22295.94
493.72	22448.08
493.90	22485.53
494.08	22572.13
494.25	22981.72
494.43	22916.19
494.61	23431.10
494.79	23346.84
494.96	23370.25
495.14	23431.10
495.32	23864.10
495.49	23627.71
495.67	23674.52
495.85	23964.75
496.02	24315.83
496.20	24477.32
496.38	24369.66
496.55	24201.14
496.73	25230.98
496.91	24734.78
497.09	24945.43
497.26	24994.58
497.44	25032.03
497.62	25071.82
497.79	25273.10
497.97	25324.60
498.14	25221.61
498.32	25493.12
498.50	25703.76
498.67	25729.51
498.85	25923.77
499.03	26237.41
499.20	25968.24
499.38	26075.91
499.56	26155.49
499.73	26544.02
499.91	26354.43
500.08	26850.63
500.26	26375.50
500.44	26422.31
500.61	26661.04
500.79	26843.60
500.97	26796.79
501.14	27281.28
501.32	26845.94
501.49	26986.38
501.67	27255.54
501.84	27309.37
502.02	27393.63
502.20	27232.13
502.37	27777.48
502.55	27646.41
502.72	27864.08
502.90	28210.48
503.07	27824.29
503.25	27833.65
503.43	27854.72
503.60	28226.86
503.78	28147.28
503.95	28168.35
504.13	28453.89
504.30	28659.86
504.48	28634.11
504.65	28631.77
504.83	28510.07
505.01	29067.11
505.18	28851.78
505.36	29558.63
505.53	29301.17
505.71	29750.55
505.88	29628.84
506.06	28905.62
506.23	29399.47
506.41	29614.80
506.58	29692.04
506.76	29876.94
506.93	30043.12
507.11	29876.94
507.28	30141.42
507.46	29858.21
507.63	29876.94
507.81	30087.59
507.98	29813.74
508.16	30511.22
508.33	30213.98
508.50	30604.84
508.68	30611.87
508.85	31096.36
509.03	30820.17
509.20	31098.70
509.38	31079.97
509.55	31117.42
509.73	30876.35
509.90	31777.45
510.08	31281.26
510.25	31424.03
510.42	31527.02
510.60	31674.47
510.77	31821.92
510.95	31943.63
511.12	31704.90
511.30	32093.43
511.47	32051.30
511.64	32002.14
511.82	32554.51
511.99	31974.06
512.17	32247.90
512.34	31838.31
512.51	32378.97
512.69	32634.09
512.86	32755.80
513.04	32701.96
513.21	32460.89
513.38	32535.79
513.56	32959.42
513.73	32606.00
513.90	33067.09
514.08	32964.10
514.25	32692.60
514.43	33167.73
514.60	33347.95
514.77	33165.39
514.95	33612.43
515.12	33792.65
515.29	33362.00
515.47	33844.15
515.64	34190.55
515.81	33656.90
515.99	34202.25
516.16	33610.09
516.33	33542.22
516.51	33186.46
516.68	33193.48
516.85	33441.57
517.03	33446.26
517.20	34061.82
517.37	33912.02
517.54	34487.79
517.72	33926.07
517.89	34242.04
518.06	33715.42
518.24	33773.93
518.41	34209.27
518.58	34309.91
518.75	34417.58
518.93	34284.17
519.10	34508.86
519.27	35070.59
519.45	34909.09
519.62	34983.99
519.79	35248.47
519.96	35433.37
520.14	35278.89
520.31	34930.16
520.48	35206.34
520.65	35346.77
520.83	35655.72
521.00	35817.22
521.17	35854.67
521.34	36095.74
521.52	35950.63
521.69	36257.24
521.86	35857.01
522.03	36147.23
522.20	36271.28
522.38	35950.63
522.55	36341.50
522.72	36559.17
522.89	35985.74
523.07	36825.99
523.24	36219.79
523.41	36711.30
523.58	36439.80
523.75	37411.12
523.92	36697.26
524.10	36847.05
524.27	36931.31
524.44	37415.80
524.61	37450.91
524.78	37184.09
524.96	37280.05
525.13	37558.58
525.30	37525.81
525.47	37661.56
525.64	37530.49
525.81	37558.58
525.98	37205.16
526.16	37017.91
526.33	37226.22
526.50	37432.19
526.67	36954.72
526.84	37214.52
527.01	37366.65
527.18	37383.04
527.36	37844.12
527.53	37738.80
527.70	38457.34
527.87	38139.03
528.04	37764.54
528.21	38232.65
528.38	38361.38
528.55	38960.56
528.72	38923.11
528.89	38712.46
529.07	38731.18
529.24	38581.39
529.41	38550.96
529.58	38548.62
529.75	38831.83
529.92	39005.03
530.09	38642.24
530.26	38892.68
530.43	38925.45
530.60	38852.89
530.77	39328.02
530.94	39210.99
531.11	39477.82
531.28	39255.46
531.46	39672.08
531.63	39529.31
531.80	39323.34
531.97	39243.76
532.14	38883.32
532.31	38686.71
532.48	39100.99
532.65	39269.51
532.82	39550.37
532.99	39842.94
533.16	39426.32
533.33	39718.89
533.50	39852.30
533.67	39784.43
533.84	39845.28
534.01	40074.65
534.18	39831.24
534.35	40229.13
534.52	39828.90
534.69	40208.06
534.86	40414.03
535.03	40280.62
535.20	40655.11
535.37	40683.19
535.54	40793.20
535.71	40449.14
535.88	40533.40
536.05	40715.96
536.22	40275.94
536.38	40650.42
536.55	40645.74
536.72	40825.96
536.89	40252.53
537.06	40535.74
537.23	40622.34
537.40	40542.76
537.57	40992.14
537.74	41198.11
537.91	41340.88
538.08	41139.60
538.25	40971.08
538.42	41331.52
538.59	41291.73
538.75	40814.26
538.92	40725.32
539.09	41464.93
539.26	40910.22
539.43	41415.78
539.60	41425.14
539.77	40797.88
539.94	41317.48
540.11	40964.06
540.28	41429.82
540.44	41324.50
540.61	41343.22
540.78	40952.35
540.95	41504.72
541.12	41148.96
541.29	41462.59
541.46	41586.64
541.62	41600.68
541.79	42405.83
541.96	41628.77
542.13	41780.90
542.30	41797.29
542.47	41797.29
542.63	41441.53
542.80	42103.90
542.97	42499.45
543.14	42593.07
543.31	42225.60
543.48	42415.19
543.64	42459.66
543.81	42958.19
543.98	42902.02
544.15	42452.64
544.32	42770.95
544.48	42700.73
544.65	42906.70
544.82	42536.90
544.99	42401.14
545.16	42457.32
545.32	42848.19
545.49	43077.56
545.66	42946.49
545.83	43227.35
546.00	42740.52
546.16	42909.04
546.33	42768.61
546.50	42466.68
546.67	42864.57
546.83	42717.12
547.00	42726.48
547.17	42937.13
547.34	43145.44
547.50	43182.88
547.67	43632.27
547.84	43583.12
548.00	43632.27
548.17	43503.54
548.34	43438.00
548.51	43536.30
548.67	43615.88
548.84	43838.23
549.01	43157.14
549.18	43587.80
549.34	43573.75
549.51	43445.02
549.68	43395.87
549.84	43756.32
550.01	43810.15
550.18	43470.77
550.34	43557.37
550.51	43828.87
550.68	43775.04
550.84	43225.01
551.01	43959.94
551.18	43887.39
551.34	43131.39
551.51	44287.62
551.68	44217.40
551.84	43976.33
552.01	43728.23
552.18	43810.15
552.34	43672.06
552.51	43948.24
552.68	43826.53
552.84	44275.91
553.01	43936.54
553.18	43936.54
553.34	44273.57
553.51	44123.78
553.67	44039.52
553.84	44421.03
554.01	44554.44
554.17	44753.38
554.34	44449.11
554.51	44933.60
554.67	44662.10
554.84	44561.46
555.00	44282.94
555.17	44465.50
555.33	44795.51
555.50	44212.72
555.67	44535.71
555.83	44634.02
556.00	44584.86
556.16	44975.73
556.33	44781.47
556.50	44722.96
556.66	44591.89
556.83	44645.72
556.99	44486.56
557.16	45118.51
557.32	44739.34
557.49	45043.61
557.65	44708.91
557.82	44751.04
557.98	44786.15
558.15	45619.38
558.32	44741.68
558.48	44409.32
558.65	44708.91
558.81	44783.81
558.98	44795.51
559.14	44842.32
559.31	44739.34
559.47	44900.84
559.64	45272.98
559.80	45216.81
559.97	45062.33
560.13	44385.92
560.30	45179.36
560.46	45036.59
560.63	45177.02
560.79	45097.44
560.96	45481.29
561.12	45272.98
561.29	45284.68
561.45	45200.43
561.61	44968.71
561.78	45249.58
561.94	44900.84
562.11	45209.79
562.27	45181.70
562.44	45244.90
562.60	45530.44
562.77	45202.77
562.93	45207.45
563.10	45544.48
563.26	44924.24
563.42	45624.06
563.59	45092.76
563.75	45528.10
563.92	45118.51
564.08	45471.93
564.24	45780.88
564.41	45202.77
564.57	45333.84
564.74	45137.23
564.90	45441.50
565.07	45584.27
565.23	45663.85
565.39	45392.35
565.56	45469.59
565.72	45043.61
565.88	45186.38
566.05	45305.75
566.21	45366.60
566.38	45177.02
566.54	45565.55
566.70	46078.13
566.87	46073.45
567.03	45624.06
567.19	45659.17
567.36	45624.06
567.52	45397.03
567.68	45668.53
567.85	45502.35
568.01	45844.07
568.17	45439.16
568.34	46185.79
568.50	45312.77
568.66	45207.45
568.83	45429.80
568.99	45226.17
569.15	45673.21
569.32	45603.00
569.48	45422.78
569.64	46038.34
569.81	45925.99
569.97	45261.28
570.13	45593.64
570.30	45425.12
570.46	45551.51
570.62	44924.24
570.78	45612.36
570.95	45144.25
571.11	45911.95
571.27	45626.40
571.43	45624.06
571.60	45804.28
571.76	45858.12
571.92	45830.03
572.09	45991.53
572.25	45797.26
572.41	45883.86
572.57	45584.27
572.74	46251.33
572.90	45893.22
573.06	45956.42
573.22	45865.14
573.38	45687.26
573.55	45488.31
573.71	46167.07
573.87	45998.55
574.03	45605.34
574.20	45392.35
574.36	45682.58
574.52	46171.75
574.68	45895.56
574.84	45914.29
575.01	45783.22
575.17	45626.40
575.33	45748.11
575.49	45488.31
575.65	45614.70
575.82	45982.16
575.98	45542.14
576.14	45598.32
576.30	45722.37
576.46	45806.62
576.62	45818.33
576.79	45799.60
576.95	45542.14
577.11	45965.78
577.27	45956.42
577.43	45666.19
577.59	45324.47
577.75	45874.50
577.92	45661.51
578.08	45457.88
578.24	45261.28
578.40	45537.46
578.56	45986.85
578.72	45881.52
578.88	46066.42
579.04	46122.60
579.21	45860.46
579.37	45879.18
579.53	45904.93
579.69	45815.99
579.85	45565.55
580.01	46344.95
580.17	45673.21
580.33	45904.93
580.49	45851.09
580.65	46089.83
580.82	45696.62
580.98	45734.07
581.14	45696.62
581.30	46071.10
581.46	45839.39
581.62	46274.73
581.78	45631.08
581.94	45930.67
582.10	45888.54
582.26	45759.81
582.42	45600.66
582.58	46007.91
582.74	45815.99
582.90	46354.31
583.06	46146.00
583.22	46153.02
583.38	46021.95
583.54	46234.94
583.70	45933.01
583.86	46202.18
584.02	45600.66
584.18	45755.13
584.34	46087.49
584.50	45963.44
584.66	46302.82
584.82	45392.35
584.98	46036.00
585.14	45808.96
585.30	46007.91
585.46	45858.12
585.62	45462.57
585.78	45539.80
585.94	45418.10
586.10	45799.60
586.26	45925.99
586.42	45769.18
586.58	46213.88
586.74	46260.69
586.90	45954.08
587.06	45776.20
587.22	46241.96
587.38	45958.76
587.54	46068.76
587.70	45827.69
587.86	45771.52
588.02	45865.14
588.18	46129.62
588.34	45586.61
588.49	45483.63
588.65	45315.11
588.81	45382.99
588.97	45439.16
589.13	45874.50
589.29	45247.24
589.45	45586.61
589.61	45448.52
589.77	45823.01
589.93	46274.73
590.08	45717.68
