SpectraSuite Data File
++++++++++++++++++++++++++++++++++++
Date: Fri Oct 25 11:24:08 EDT 2013
User: price-jones
Dark Spectrum Present: No
Reference Spectrum Present: No
Number of Sampled Component Spectra: 1
Spectrometers: USB2+H05261
Integration Time (usec): 100000 (USB2+H05261)
Spectra Averaged: 1 (USB2+H05261)
Boxcar Smoothing: 0 (USB2+H05261)
Correct for Electrical Dark: No (USB2+H05261)
Strobe/Lamp Enabled: No (USB2+H05261)
Correct for Detector Non-linearity: No (USB2+H05261)
Correct for Stray Light: No (USB2+H05261)
Number of Pixels in Processed Spectrum: 2048
>>>>>Begin Processed Spectral Data<<<<<
365.73	222.35
365.92	222.35
366.12	222.35
366.32	128.73
366.52	131.07
366.72	114.69
366.91	180.22
367.11	135.75
367.31	105.32
367.51	84.26
367.70	74.90
367.90	135.75
368.10	152.13
368.30	95.96
368.49	105.32
368.69	194.26
368.89	152.13
369.09	201.29
369.28	102.98
369.48	166.18
369.68	154.48
369.87	187.24
370.07	149.79
370.27	182.56
370.47	355.76
370.66	627.26
370.86	685.78
371.06	737.27
371.25	723.23
371.45	608.54
371.65	744.29
371.84	704.50
372.04	702.16
372.24	758.33
372.44	664.71
372.63	706.84
372.83	697.48
373.03	727.91
373.22	744.29
373.42	833.23
373.62	807.48
373.81	884.72
374.01	833.23
374.21	770.04
374.40	828.55
374.60	849.61
374.79	875.36
374.99	840.25
375.19	837.91
375.38	795.78
375.58	816.85
375.78	847.27
375.97	910.47
376.17	837.91
376.37	964.30
376.56	896.43
376.76	875.36
376.95	837.91
377.15	875.36
377.35	840.25
377.54	922.17
377.74	931.53
377.93	950.26
378.13	912.81
378.33	954.94
378.52	999.41
378.72	966.64
378.91	983.02
379.11	945.58
379.31	1004.09
379.50	931.53
379.70	1001.75
379.89	1011.11
380.09	964.30
380.28	1006.43
380.48	971.32
380.68	917.49
380.87	994.73
381.07	1029.84
381.26	933.87
381.46	924.51
381.65	1013.45
381.85	1032.18
382.04	1071.97
382.24	1018.13
382.43	1006.43
382.63	1055.58
382.83	1100.05
383.02	1191.33
383.22	1139.84
383.41	1153.88
383.61	1132.82
383.80	1167.93
384.00	1081.33
384.19	1167.93
384.39	1172.61
384.58	1118.78
384.78	1123.46
384.97	1200.69
385.17	1203.04
385.36	1167.93
385.56	1203.04
385.75	1053.24
385.95	1193.67
386.14	1207.72
386.34	1172.61
386.53	1203.04
386.72	1261.55
386.92	1221.76
387.11	1233.46
387.31	1270.91
387.50	1238.14
387.70	1235.80
387.89	1289.64
388.09	1301.34
388.28	1270.91
388.48	1240.48
388.67	1327.08
388.86	1266.23
389.06	1434.75
389.25	1266.23
389.45	1387.94
389.64	1308.36
389.84	1380.92
390.03	1383.26
390.22	1423.05
390.42	1409.00
390.61	1411.34
390.81	1371.55
391.00	1416.02
391.19	1441.77
391.39	1427.73
391.58	1439.43
391.78	1490.92
391.97	1507.30
392.16	1483.90
392.36	1591.56
392.55	1549.43
392.75	1472.20
392.94	1509.65
393.13	1561.14
393.33	1521.35
393.52	1645.40
393.71	1598.59
393.91	1605.61
394.10	1528.37
394.29	1596.25
394.49	1605.61
394.68	1626.67
394.88	1617.31
395.07	1706.25
395.26	1621.99
395.46	1579.86
395.65	1607.95
395.84	1692.21
396.04	1753.06
396.23	1748.38
396.42	1746.04
396.62	1837.32
396.81	1769.44
397.00	1750.72
397.19	1891.15
397.39	1827.96
397.58	1823.28
397.77	1813.92
397.97	1919.24
398.16	1727.32
398.35	1891.15
398.55	1834.98
398.74	2038.61
398.93	2001.16
399.12	1886.47
399.32	1888.81
399.51	2005.84
399.70	1975.41
399.90	1912.22
400.09	2031.58
400.28	1966.05
400.47	2069.03
400.67	2122.87
400.86	2076.06
401.05	2040.95
401.24	1980.09
401.44	2071.37
401.63	2129.89
401.82	2104.14
402.01	2132.23
402.21	2242.23
402.40	2090.10
402.59	2202.44
402.78	2172.02
402.97	2204.78
403.17	2237.55
403.36	2326.49
403.55	2310.11
403.74	2370.96
403.93	2422.45
404.13	2347.56
404.32	2415.43
404.51	2354.58
404.70	2438.84
404.89	2413.09
405.09	2434.16
405.28	2595.65
405.47	2555.86
405.66	2644.81
405.85	2513.74
406.05	2586.29
406.24	2567.57
406.43	2593.31
406.62	2703.32
406.81	2759.49
407.00	2583.95
407.20	2747.79
407.39	2605.02
407.58	2724.38
407.77	2623.74
407.96	2686.94
408.15	2808.64
408.34	2801.62
408.54	2803.96
408.73	2696.30
408.92	2911.63
409.11	2878.86
409.30	2925.67
409.49	2871.84
409.68	2834.39
409.87	2911.63
410.07	2909.29
410.26	3040.36
410.45	3089.51
410.64	2906.95
410.83	3073.12
411.02	3208.87
411.21	3143.34
411.40	3243.98
411.59	3265.05
411.78	3133.98
411.98	3178.45
412.17	3110.57
412.36	3283.77
412.55	3440.59
412.74	3276.75
412.93	3382.07
413.12	3297.81
413.31	3487.40
413.50	3405.48
413.69	3562.30
413.88	3609.11
414.07	3597.40
414.26	3660.60
414.45	3758.90
414.64	3590.38
414.83	3637.19
415.02	3803.37
415.22	3803.37
415.41	3871.25
415.60	3906.35
415.79	4056.15
415.98	3892.31
416.17	3894.65
416.36	4063.17
416.55	3981.25
416.74	4168.49
416.93	3932.10
417.12	4182.54
417.31	4198.92
417.50	4294.88
417.69	4278.50
417.88	4334.67
418.07	4236.37
418.26	4465.74
418.45	4458.72
418.64	4503.19
418.83	4393.19
419.02	4278.50
419.21	4404.89
419.39	4606.17
419.58	4358.08
419.77	4512.55
419.96	4636.60
420.15	4477.44
420.34	4615.54
420.53	4493.83
420.72	4695.11
420.91	4718.52
421.10	4699.80
421.29	4795.76
421.48	4713.84
421.67	4779.37
421.86	4819.16
422.05	4823.84
422.24	4655.33
422.43	4854.27
422.61	4880.02
422.80	5027.47
422.99	5006.41
423.18	4971.30
423.37	5093.01
423.56	4901.08
423.75	4809.80
423.94	4896.40
424.13	4545.32
424.32	4695.11
424.50	5217.05
424.69	5055.56
424.88	5036.83
425.07	4973.64
425.26	4830.87
425.45	4987.68
425.64	4954.91
425.83	4849.59
426.01	4961.94
426.20	5064.92
426.39	5093.01
426.58	4926.83
426.77	4971.30
426.96	5163.22
427.15	5114.07
427.33	5331.74
427.52	5203.01
427.71	5392.59
427.90	5069.60
428.09	5313.02
428.28	5352.81
428.46	5418.34
428.65	5322.38
428.84	5348.12
429.03	5528.35
429.22	5298.97
429.40	5439.40
429.59	5636.01
429.78	5338.76
429.97	5240.46
430.16	5432.38
430.34	5554.09
430.53	5746.02
430.72	5619.63
430.91	5579.84
431.10	5626.65
431.28	5994.11
431.47	5851.34
431.66	5757.72
431.85	5844.32
432.03	5907.51
432.22	6005.81
432.41	5870.06
432.60	5760.06
432.79	5998.79
432.97	6134.54
433.16	6017.52
433.35	6015.18
433.54	6127.52
433.72	6122.84
433.91	6115.82
434.10	6223.48
434.28	6228.17
434.47	6244.55
434.66	6338.17
434.85	6333.49
435.03	6436.47
435.22	6291.36
435.41	6553.50
435.59	6441.15
435.78	6551.16
435.97	6333.49
436.16	6548.82
436.34	6403.71
436.53	6494.99
436.72	6686.91
436.90	6534.78
437.09	6684.57
437.28	6665.85
437.46	6642.44
437.65	6518.39
437.84	6684.57
438.02	6780.53
438.21	6754.79
438.40	6658.82
438.58	7122.25
438.77	6998.20
438.96	6972.46
439.14	7117.57
439.33	7068.42
439.52	7197.15
439.70	7215.87
439.89	7377.37
440.08	7309.49
440.26	7428.86
440.45	7304.81
440.63	7433.54
440.82	7648.87
441.01	7475.67
441.19	7583.34
441.38	7740.15
441.57	7868.88
441.75	7566.95
441.94	8018.68
442.12	7990.59
442.31	7964.84
442.50	8044.42
442.68	8102.93
442.87	8126.34
443.05	8065.49
443.24	8177.83
443.43	8161.45
443.61	8135.70
443.80	8421.25
443.98	8086.55
444.17	7892.29
444.35	8236.35
444.54	8189.53
444.73	8407.20
444.91	8332.31
445.10	8486.78
445.28	8287.84
445.47	8297.20
445.65	8177.83
445.84	8344.01
446.02	8468.06
446.21	8557.00
446.39	8332.31
446.58	8599.13
446.77	8470.40
446.95	8379.12
447.14	8498.49
447.32	8641.26
447.51	8610.83
447.69	8458.70
447.88	8578.06
448.06	8706.79
448.25	8519.55
448.43	8575.72
448.62	8645.94
448.80	8484.44
448.99	8791.05
449.17	8908.08
449.36	8741.90
449.54	9050.85
449.73	9242.78
449.91	9228.73
450.10	9135.11
450.28	9128.09
450.46	9217.03
450.65	9085.96
450.83	9018.08
451.02	9167.88
451.20	9092.98
451.39	9088.30
451.57	9497.89
451.76	9181.92
451.94	9118.73
452.13	9217.03
452.31	9364.48
452.49	9315.33
452.68	9411.29
452.86	9518.96
453.05	9327.03
453.23	9563.43
453.42	9341.08
453.60	9458.10
453.78	9647.69
453.97	9427.68
454.15	9596.20
454.34	9619.60
454.52	9809.19
454.70	9900.47
454.89	9860.68
455.07	9778.76
455.26	9851.31
455.44	9820.89
455.62	9839.61
455.81	9994.09
455.99	10202.40
456.17	10284.31
456.36	10127.50
456.54	10235.16
456.73	10267.93
456.91	10518.37
457.09	10555.82
457.28	10649.44
457.46	10497.30
457.64	10572.20
457.83	10501.98
458.01	10464.54
458.19	10719.65
458.38	10469.22
458.56	10801.57
458.74	10820.30
458.93	10752.42
459.11	10801.57
459.29	10675.18
459.48	10902.22
459.66	10862.43
459.84	11030.94
460.03	11276.70
460.21	10988.82
460.39	11229.89
460.57	11108.18
460.76	11234.57
460.94	11384.37
461.12	11061.37
461.31	11222.87
461.49	11384.37
461.67	11157.33
461.85	11473.31
462.04	11213.51
462.22	11590.33
462.40	11587.99
462.59	11730.76
462.77	11653.53
462.95	11473.31
463.13	11779.92
463.32	11829.07
463.50	11660.55
463.68	11875.88
463.86	12081.85
464.05	11765.87
464.23	11620.76
464.41	12131.00
464.59	11637.14
464.78	12119.29
464.96	12128.66
465.14	11896.94
465.32	12147.38
465.50	12091.21
465.69	12198.87
465.87	12255.04
466.05	12147.38
466.23	12313.56
466.41	12318.24
466.60	12554.63
466.78	12390.80
466.96	12341.64
467.14	12294.83
467.32	12353.35
467.51	12636.55
467.69	11960.14
467.87	12278.45
468.05	12538.25
468.23	12521.87
468.41	12662.30
468.60	12678.68
468.78	12802.73
468.96	12926.78
469.14	12844.86
469.32	12938.48
469.50	12716.13
469.69	13090.62
469.87	13076.57
470.05	13200.62
470.23	13221.69
470.41	13137.43
470.59	13439.36
470.77	13219.35
470.95	13429.99
471.14	13525.96
471.32	13425.31
471.50	13514.25
471.68	13912.14
471.86	13593.83
472.04	13607.87
472.22	14073.64
472.40	13788.10
472.58	13652.34
472.77	14134.50
472.95	14075.98
473.13	14768.78
473.31	14391.95
473.49	14281.95
473.67	14293.65
473.85	14373.23
474.03	14675.16
474.21	14630.69
474.39	14771.12
474.57	14677.50
474.75	15187.74
474.93	15115.18
475.12	15077.73
475.30	15232.21
475.48	15293.06
475.66	15330.51
475.84	15330.51
476.02	15276.68
476.20	15452.22
476.38	15775.21
476.56	16020.97
476.74	16135.65
476.92	16086.50
477.10	15749.46
477.28	15943.73
477.46	16257.36
477.64	16332.26
477.82	16690.36
478.00	17186.55
478.18	16812.07
478.36	17186.55
478.54	17266.13
478.72	17523.59
478.90	17774.03
479.08	17811.48
479.26	17774.03
479.44	17942.55
479.62	18022.12
479.80	18134.47
479.98	18487.89
480.16	18862.38
480.34	18640.03
480.52	18920.89
480.70	18464.49
480.88	18527.68
481.06	18953.66
481.24	19082.39
481.41	19257.93
481.59	19506.02
481.77	19587.94
481.95	19679.22
482.13	19950.73
482.31	19831.36
482.49	20634.16
482.67	20395.43
482.85	20549.90
483.03	20769.91
483.21	20828.43
483.39	21170.15
483.57	20851.83
483.74	21296.53
483.92	21535.27
484.10	21357.39
484.28	21914.44
484.46	22132.11
484.64	22630.64
484.82	22052.53
485.00	22228.07
485.18	22759.37
485.35	22925.55
485.53	23070.66
485.71	22771.07
485.89	23627.71
486.07	23566.85
486.25	23611.32
486.43	24109.86
486.61	23807.93
486.78	24123.90
486.96	24304.12
487.14	24627.12
487.32	24849.47
487.50	24919.68
487.68	25205.23
487.85	25207.57
488.03	25584.40
488.21	25750.57
488.39	26246.77
488.57	26345.07
488.75	26209.32
488.92	26331.03
489.10	26799.13
489.28	27115.11
489.46	27445.12
489.64	27335.12
489.81	27723.65
489.99	27999.83
490.17	27800.88
490.35	28318.14
490.53	28222.18
490.70	28531.13
490.88	28514.75
491.06	28678.58
491.24	29020.30
491.41	29413.51
491.59	29172.44
491.77	29898.00
491.95	29867.58
492.13	30094.61
492.30	30223.34
492.48	30022.05
492.66	30534.63
492.84	30331.00
493.01	31211.04
493.19	30717.19
493.37	31218.07
493.54	31480.21
493.72	31644.04
493.90	31548.08
494.08	32027.89
494.25	32484.30
494.43	32238.54
494.61	32397.70
494.79	33041.34
494.96	32933.68
495.14	32875.16
495.32	33352.63
495.49	33331.57
495.67	33441.57
495.85	33762.23
496.02	33771.59
496.20	34419.92
496.38	33977.56
496.55	34567.37
496.73	35077.61
496.91	34588.44
497.09	34850.58
497.26	35363.15
497.44	35096.33
497.62	35145.48
497.79	36208.09
497.97	35552.74
498.14	36353.20
498.32	36769.82
498.50	36458.52
498.67	36863.44
498.85	36851.73
499.03	36903.23
499.20	37106.85
499.38	36950.04
499.56	37633.47
499.73	37549.21
499.91	37542.19
500.08	37942.42
500.26	37429.85
500.44	37748.16
500.61	38115.62
500.79	37628.79
500.97	38003.28
501.14	38665.65
501.32	39026.09
501.49	38525.22
501.67	38450.32
501.84	39431.01
502.02	38829.49
502.20	38988.64
502.37	39587.82
502.55	39494.20
502.72	39683.78
502.90	40292.32
503.07	39941.24
503.25	40039.54
503.43	39903.79
503.60	40217.43
503.78	40563.82
503.95	40240.83
504.13	40627.02
504.30	40734.68
504.48	41027.25
504.65	40744.05
504.83	41265.99
505.01	41734.09
505.18	41539.83
505.36	41614.72
505.53	41734.09
505.71	41780.90
505.88	41811.33
506.06	41830.05
506.23	42160.07
506.41	42057.09
506.58	42483.06
506.76	42195.18
506.93	42419.87
507.11	42642.22
507.28	42845.85
507.46	42948.83
507.63	43054.15
507.81	43847.60
507.98	43110.33
508.16	43559.71
508.33	43812.49
508.50	43648.65
508.68	44086.33
508.85	43863.98
509.03	44142.50
509.20	43990.37
509.38	44491.24
509.55	44626.99
509.73	44697.21
509.90	45294.05
510.08	44692.53
510.25	44804.88
510.42	44933.60
510.60	45083.40
510.77	45170.00
510.95	45443.84
511.12	45347.88
511.30	45462.57
511.47	45638.11
511.64	45457.88
511.82	45827.69
511.99	45717.68
512.17	46026.63
512.34	46230.26
512.51	46555.60
512.69	46618.79
512.86	46656.24
513.04	46759.22
513.21	46855.18
513.38	46979.23
513.56	47035.41
513.73	46550.91
513.90	47196.90
514.08	47276.48
514.25	47145.41
514.43	47704.80
514.60	47880.34
514.77	47421.59
514.95	47908.43
515.12	47482.45
515.29	47945.87
515.47	48229.08
515.64	48736.98
515.81	47880.34
515.99	48413.98
516.16	48851.66
516.33	48849.32
516.51	49165.29
516.68	48119.07
516.85	48435.05
517.03	49022.52
517.20	49521.05
517.37	49446.16
517.54	49013.16
517.72	49265.94
517.89	49214.44
518.06	49361.90
518.24	49696.59
518.41	49277.64
518.58	49469.56
518.75	49139.55
518.93	49415.73
519.10	49654.47
519.27	49600.63
519.45	49766.81
519.62	50356.63
519.79	50260.66
519.96	50052.36
520.14	50391.73
520.31	50319.18
520.48	50569.61
520.65	50267.69
520.83	50997.93
521.00	50674.94
521.17	50951.12
521.34	51023.68
521.52	51166.45
521.69	50752.18
521.86	51229.65
522.03	51147.73
522.20	51606.47
522.38	51632.22
522.55	51559.66
522.72	51367.74
522.89	51814.78
523.07	51601.79
523.24	51718.82
523.41	51728.18
523.58	51716.48
523.75	51971.60
523.92	51901.38
524.10	52547.37
524.27	52371.83
524.44	52137.77
524.61	52388.21
524.78	52589.50
524.96	52112.03
525.13	52638.65
525.30	52942.92
525.47	52858.66
525.64	52622.26
525.81	52886.74
525.98	53001.43
526.16	52690.14
526.33	53118.46
526.50	53188.67
526.67	52825.89
526.84	52924.19
527.01	53017.82
527.18	53169.95
527.36	53165.27
527.53	53111.44
527.70	53570.18
527.87	53628.69
528.04	53373.58
528.21	53399.32
528.38	53577.20
528.55	53804.24
528.72	53532.73
528.89	53708.27
529.07	53853.39
529.24	53879.13
529.41	54019.56
529.58	53876.79
529.75	53879.13
529.92	53930.62
530.09	53881.47
530.26	54230.21
530.43	54012.54
530.60	53982.12
530.77	53813.60
530.94	54305.11
531.11	54284.04
531.28	54513.42
531.46	54262.98
531.63	54305.11
531.80	54347.24
531.97	54625.76
532.14	54815.35
532.31	54752.15
532.48	54864.50
532.65	54712.36
532.82	54616.40
532.99	55021.31
533.16	54733.43
533.33	55033.02
533.50	54997.91
533.67	54906.63
533.84	54864.50
534.01	54965.14
534.18	55278.77
534.35	55540.91
534.52	55440.27
534.69	55447.29
534.86	55365.37
535.03	55033.02
535.20	55246.00
535.37	55538.57
535.54	55622.83
535.71	55384.10
535.88	55608.79
536.05	55449.63
536.22	55704.75
536.38	55554.96
536.55	55664.96
536.72	55430.91
536.89	55601.77
537.06	55693.05
537.23	56097.96
537.40	55639.22
537.57	55800.71
537.74	56191.58
537.91	56020.72
538.08	55976.25
538.25	55664.96
538.42	56037.11
538.59	56147.11
538.75	55833.48
538.92	56226.69
539.09	56231.37
539.26	56271.16
539.43	56383.51
539.60	56612.88
539.77	56416.27
539.94	56561.39
540.11	56430.32
540.28	56388.19
540.44	56622.24
540.61	56444.36
540.78	56533.30
540.95	56956.94
541.12	56624.58
541.29	56655.01
541.46	56631.60
541.62	56678.41
541.79	56853.95
541.96	56470.11
542.13	56589.47
542.30	57139.50
542.47	56839.91
542.63	56900.76
542.80	57013.11
542.97	57317.38
543.14	57354.83
543.31	57368.87
543.48	57457.81
543.64	57593.56
543.81	57560.79
543.98	57532.71
544.15	57469.51
544.32	57691.86
544.48	57771.44
544.65	57516.32
544.82	57633.35
544.99	57446.11
545.16	57623.99
545.32	57467.17
545.49	57895.49
545.66	57925.92
545.83	57682.50
546.00	57914.22
546.16	57811.23
546.33	57750.38
546.50	57731.65
546.67	57874.43
546.83	57586.54
547.00	58035.92
547.17	58152.95
547.34	58014.86
547.50	58099.12
547.67	58176.36
547.84	58150.61
548.00	58192.74
548.17	58391.68
548.34	58234.87
548.51	58295.72
548.67	58408.07
548.84	58340.19
549.01	58188.06
549.18	58473.60
549.34	58288.70
549.51	58412.75
549.68	58611.70
549.84	58564.88
550.01	58422.11
550.18	58321.47
550.34	58473.60
550.51	58719.36
550.68	58536.80
550.84	58464.24
551.01	58602.33
551.18	58466.58
551.34	58461.90
551.51	58583.61
551.68	58808.30
551.84	58681.91
552.01	58787.24
552.18	58700.64
552.34	58756.81
552.51	58960.44
552.68	58628.08
552.84	58766.17
553.01	59121.93
553.18	58885.54
553.34	59065.76
553.51	58637.44
553.67	59037.67
553.84	59152.36
554.01	59075.12
554.17	59271.73
554.34	59023.63
554.51	59110.23
554.67	59047.04
554.84	58922.99
555.00	59004.91
555.17	58995.54
555.33	59180.45
555.50	58997.88
555.67	59215.55
555.83	59138.32
556.00	59292.79
556.16	59515.14
556.33	59419.18
556.50	59320.88
556.66	59344.28
556.83	59306.83
556.99	59608.76
557.16	59583.02
557.32	59580.68
557.49	59854.52
557.65	59604.08
557.82	59564.29
557.98	59498.76
558.15	59348.96
558.32	59758.56
558.48	59597.06
558.65	59664.94
558.81	59590.04
558.98	59618.13
559.14	59817.07
559.31	59674.30
559.47	59674.30
559.64	59702.38
559.80	59969.21
559.97	60009.00
560.13	59859.20
560.30	59704.73
560.46	59725.79
560.63	60006.65
560.79	59964.52
560.96	59753.88
561.12	59891.97
561.29	59969.21
561.45	59863.88
561.61	60090.91
561.78	60058.15
561.94	60076.87
562.11	60095.60
562.27	60039.42
562.44	59969.21
562.60	60189.22
562.77	60116.66
562.93	59763.24
563.10	60135.38
563.26	59777.28
563.42	60149.43
563.59	60065.17
563.75	60231.35
563.92	60100.28
564.08	60051.12
564.24	60147.09
564.41	60285.18
564.57	60299.22
564.74	60196.24
564.90	60177.51
565.07	60144.75
565.23	59980.91
565.39	60231.35
565.56	60308.58
565.72	60273.48
565.88	60226.66
566.05	60278.16
566.21	60406.89
566.38	60402.21
566.54	60395.18
566.70	60154.11
566.87	60587.11
567.03	60172.83
567.19	60654.98
567.36	60456.04
567.52	60355.39
567.68	60715.84
567.85	60301.56
568.01	60636.26
568.17	60383.48
568.34	60610.51
568.50	60367.10
568.66	60364.76
568.83	60580.09
568.99	60486.46
569.15	60552.00
569.32	60505.19
569.48	60608.17
569.64	60554.34
569.81	60418.59
569.97	60409.23
570.13	60561.36
570.30	60486.46
570.46	60580.09
570.62	60722.86
570.78	60687.75
570.95	60477.10
571.11	60825.84
571.27	60624.56
571.43	60622.22
571.60	60720.52
571.76	60598.81
571.92	60694.77
572.09	60715.84
572.25	60633.92
572.41	60633.92
572.57	60746.26
572.74	60928.83
572.90	60603.49
573.06	60772.01
573.22	60720.52
573.38	60853.93
573.55	60807.12
573.71	60879.67
573.87	60786.05
574.03	60926.49
574.20	60800.10
574.36	60596.47
574.52	60928.83
574.68	60772.01
574.84	60884.36
575.01	60832.86
575.17	60903.08
575.33	60867.97
575.49	60685.41
575.65	60879.67
575.82	60779.03
575.98	61027.13
576.14	61055.21
576.30	61219.05
576.46	60786.05
576.62	60896.06
576.79	60692.43
576.95	60952.23
577.11	60844.57
577.27	60860.95
577.43	60954.57
577.59	60839.89
577.75	60968.61
577.92	60748.60
578.08	60727.54
578.24	60938.19
578.40	61272.88
578.56	61095.00
578.72	60921.80
578.88	61104.37
579.04	61254.16
579.21	61111.39
579.37	61230.75
579.53	61113.73
579.69	60718.18
579.85	60882.02
580.01	61034.15
580.17	60912.44
580.33	60985.00
580.49	61043.51
580.65	61151.18
580.82	61073.94
580.98	60846.91
581.14	60884.36
581.30	60879.67
581.46	60989.68
581.62	61202.67
581.78	60973.30
581.94	60874.99
582.10	61069.26
582.26	60851.59
582.42	61087.98
582.58	60952.23
582.74	61013.08
582.90	60863.29
583.06	61013.08
583.22	60914.78
583.38	60919.46
583.54	60959.25
583.70	61146.50
583.86	61205.01
584.02	60872.65
584.18	61275.22
584.34	60882.02
584.50	61212.03
584.66	61017.77
584.82	60828.18
584.98	61141.81
585.14	61329.06
585.30	60980.32
585.46	61249.48
585.62	61118.41
585.78	61305.65
585.94	61038.83
586.10	61216.71
586.26	61256.50
586.42	61216.71
586.58	61357.14
586.74	60966.27
586.90	61031.81
587.06	61153.52
587.22	61212.03
587.38	61066.92
587.54	61375.87
587.70	61361.82
587.86	61003.72
588.02	61162.88
588.18	61284.59
588.34	61212.03
588.49	61172.24
