SpectraSuite Data File
++++++++++++++++++++++++++++++++++++
Date: Fri Oct 25 11:23:30 EDT 2013
User: price-jones
Dark Spectrum Present: No
Reference Spectrum Present: No
Number of Sampled Component Spectra: 1
Spectrometers: USB2+H05261
Integration Time (usec): 100000 (USB2+H05261)
Spectra Averaged: 1 (USB2+H05261)
Boxcar Smoothing: 0 (USB2+H05261)
Correct for Electrical Dark: No (USB2+H05261)
Strobe/Lamp Enabled: No (USB2+H05261)
Correct for Detector Non-linearity: No (USB2+H05261)
Correct for Stray Light: No (USB2+H05261)
Number of Pixels in Processed Spectrum: 2048
>>>>>Begin Processed Spectral Data<<<<<
365.73	184.90
365.92	184.90
366.12	184.90
366.32	149.79
366.52	124.05
366.72	154.48
366.91	70.22
367.11	145.11
367.31	145.11
367.51	98.30
367.70	191.92
367.90	152.13
368.10	145.11
368.30	72.56
368.49	95.96
368.69	133.41
368.89	203.63
369.09	119.37
369.28	166.18
369.48	88.94
369.68	175.54
369.87	194.26
370.07	173.20
370.27	259.80
370.47	311.29
370.66	568.75
370.86	664.71
371.06	683.44
371.25	664.71
371.45	648.33
371.65	599.18
371.84	674.07
372.04	620.24
372.24	690.46
372.44	753.65
372.63	716.20
372.83	784.08
373.03	734.93
373.22	683.44
373.42	744.29
373.62	821.53
373.81	816.85
374.01	854.30
374.21	800.46
374.40	849.61
374.60	805.14
374.79	835.57
374.99	809.83
375.19	777.06
375.38	861.32
375.58	868.34
375.78	847.27
375.97	833.23
376.17	910.47
376.37	791.10
376.56	882.38
376.76	882.38
376.95	877.70
377.15	945.58
377.35	863.66
377.54	809.83
377.74	894.08
377.93	936.21
378.13	929.19
378.33	856.64
378.52	896.43
378.72	933.87
378.91	945.58
379.11	968.98
379.31	908.13
379.50	901.11
379.70	961.96
379.89	1069.62
380.09	1050.90
380.28	931.53
380.48	1008.77
380.68	908.13
380.87	968.98
381.07	966.64
381.26	1062.60
381.46	985.37
381.65	1008.77
381.85	1027.50
382.04	1074.31
382.24	1102.39
382.43	1039.20
382.63	1053.24
382.83	1118.78
383.02	1067.28
383.22	1160.91
383.41	1064.94
383.61	1149.20
383.80	1090.69
384.00	1186.65
384.19	1214.74
384.39	1151.54
384.58	1132.82
384.78	1174.95
384.97	1205.38
385.17	1125.80
385.36	1160.91
385.56	1212.40
385.75	1181.97
385.95	1121.12
386.14	1163.25
386.34	1186.65
386.53	1231.12
386.72	1212.40
386.92	1200.69
387.11	1184.31
387.31	1198.35
387.50	1296.66
387.70	1205.38
387.89	1301.34
388.09	1224.10
388.28	1235.80
388.48	1324.74
388.67	1416.02
388.86	1226.44
389.06	1350.49
389.25	1411.34
389.45	1418.36
389.64	1322.40
389.84	1465.18
390.03	1465.18
390.22	1331.76
390.42	1359.85
390.61	1430.07
390.81	1359.85
391.00	1411.34
391.19	1411.34
391.39	1409.00
391.58	1380.92
391.78	1542.41
391.97	1462.83
392.16	1401.98
392.36	1540.07
392.55	1511.99
392.75	1514.33
392.94	1465.18
393.13	1481.56
393.33	1598.59
393.52	1511.99
393.71	1549.43
393.91	1542.41
394.10	1441.77
394.29	1565.82
394.49	1537.73
394.68	1544.75
394.88	1584.54
395.07	1593.90
395.26	1575.18
395.46	1661.78
395.65	1757.74
395.84	1661.78
396.04	1753.06
396.23	1860.73
396.42	1762.42
396.62	1699.23
396.81	1781.15
397.00	1764.76
397.19	1818.60
397.39	1813.92
397.58	1748.38
397.77	1748.38
397.97	1905.20
398.16	1977.75
398.35	1942.64
398.55	1816.26
398.74	1839.66
398.93	1973.07
399.12	2033.93
399.32	1907.54
399.51	1895.83
399.70	2090.10
399.90	1921.58
400.09	1942.64
400.28	1947.33
400.47	2017.54
400.67	2106.48
400.86	2167.34
401.05	1994.14
401.24	2024.56
401.44	2134.57
401.63	2167.34
401.82	2165.00
402.01	2172.02
402.21	2132.23
402.40	2139.25
402.59	2165.00
402.78	2263.30
402.97	2232.87
403.17	2239.89
403.36	2256.28
403.55	2279.68
403.74	2314.79
403.93	2331.17
404.13	2403.73
404.32	2340.54
404.51	2317.13
404.70	2375.64
404.89	2368.62
405.09	2565.23
405.28	2452.88
405.47	2548.84
405.66	2490.33
405.85	2532.46
406.05	2349.90
406.24	2436.50
406.43	2530.12
406.62	2497.35
406.81	2703.32
407.00	2597.99
407.20	2532.46
407.39	2579.27
407.58	2717.36
407.77	2689.28
407.96	2733.75
408.15	2686.94
408.34	2722.04
408.54	2827.37
408.73	2808.64
408.92	2796.94
409.11	2855.45
409.30	2916.31
409.49	2909.29
409.68	2937.37
409.87	2829.71
410.07	2984.18
410.26	3026.31
410.45	2979.50
410.64	3070.78
410.83	3169.09
411.02	3000.57
411.21	3187.81
411.40	3155.04
411.59	3253.34
411.78	3087.17
411.98	3185.47
412.17	3215.90
412.36	3293.13
412.55	3414.84
412.74	3452.29
412.93	3412.50
413.12	3424.20
413.31	3662.94
413.50	3485.06
413.69	3506.12
413.88	3564.64
414.07	3674.64
414.26	3604.42
414.45	3698.05
414.64	3674.64
414.83	3674.64
415.02	3742.52
415.22	3845.50
415.41	3882.95
415.60	3859.54
415.79	3946.14
415.98	4098.28
416.17	3904.01
416.36	3901.67
416.55	4037.42
416.74	4119.34
416.93	4007.00
417.12	3936.78
417.31	4194.24
417.50	4276.16
417.69	4234.03
417.88	4250.41
418.07	4325.31
418.26	4437.66
418.45	4320.63
418.64	4564.04
418.83	4425.95
419.02	4418.93
419.21	4440.00
419.39	4444.68
419.58	4390.84
419.77	4346.37
419.96	4596.81
420.15	4578.09
420.34	4657.67
420.53	4678.73
420.72	4683.41
420.91	4704.48
421.10	4627.24
421.29	4786.40
421.48	4741.93
421.67	4767.67
421.86	4762.99
422.05	4767.67
422.24	4894.06
422.43	4947.89
422.61	4887.04
422.80	4973.64
422.99	4950.23
423.18	4856.61
423.37	5008.75
423.56	4964.28
423.75	4770.01
423.94	4849.59
424.13	4610.86
424.32	4641.28
424.50	4952.57
424.69	4943.21
424.88	5095.35
425.07	5011.09
425.26	4983.00
425.45	5020.45
425.64	5013.43
425.83	4854.27
426.01	5053.22
426.20	5186.63
426.39	5191.31
426.58	5125.77
426.77	5015.77
426.96	5048.54
427.15	5029.81
427.33	5081.30
427.52	5214.71
427.71	5203.01
427.90	5348.12
428.09	5226.42
428.28	5294.29
428.46	5301.31
428.65	5345.78
428.84	5507.28
429.03	5357.49
429.22	5376.21
429.40	5462.81
429.59	5486.22
429.78	5420.68
429.97	5240.46
430.16	5474.51
430.34	5542.39
430.53	5692.18
430.72	5823.25
430.91	5652.39
431.10	5689.84
431.28	5776.44
431.47	5778.78
431.66	5863.04
431.85	5736.65
432.03	5930.92
432.22	6026.88
432.41	5851.34
432.60	5898.15
432.79	5830.27
432.97	6031.56
433.16	6090.07
433.35	5963.68
433.54	6097.10
433.72	6162.63
433.91	6141.57
434.10	6106.46
434.28	6263.27
434.47	6134.54
434.66	6300.72
434.85	6347.53
435.03	6296.04
435.22	6127.52
435.41	6583.93
435.59	6387.32
435.78	6384.98
435.97	6473.92
436.16	6494.99
436.34	6539.46
436.53	6668.19
436.72	6754.79
436.90	6623.72
437.09	6656.48
437.28	6588.61
437.46	6628.40
437.65	6654.14
437.84	6813.30
438.02	6686.91
438.21	7007.56
438.40	6743.08
438.58	7169.06
438.77	6920.96
438.96	6897.56
439.14	7185.44
439.33	7171.40
439.52	7229.91
439.70	7140.97
439.89	7368.01
440.08	7318.86
440.26	7309.49
440.45	7304.81
440.63	7599.72
440.82	7459.29
441.01	7529.50
441.19	7559.93
441.38	7726.11
441.57	7683.98
441.75	7669.94
441.94	7969.52
442.12	8051.44
442.31	8044.42
442.50	7969.52
442.68	7812.71
442.87	8060.80
443.05	8088.89
443.24	8266.77
443.43	8116.98
443.61	8154.43
443.80	8266.77
443.98	8166.13
444.17	7850.16
444.35	8170.81
444.54	8432.95
444.73	8231.66
444.91	8196.56
445.10	8241.03
445.28	8329.97
445.47	8540.61
445.65	8198.90
445.84	8613.17
446.02	8671.68
446.21	8336.99
446.39	8329.97
446.58	8652.96
446.77	8339.33
446.95	8456.36
447.14	8463.38
447.32	8369.76
447.51	8510.19
447.69	8425.93
447.88	8355.71
448.06	8479.76
448.25	8484.44
448.43	8442.31
448.62	8545.30
448.80	8486.78
448.99	8720.84
449.17	8702.11
449.36	8655.30
449.54	8762.97
449.73	9057.87
449.91	9034.47
450.10	8971.27
450.28	9064.89
450.46	8980.64
450.65	8987.66
450.83	9029.79
451.02	8936.17
451.20	9289.59
451.39	9062.55
451.57	9158.52
451.76	9212.35
451.94	8980.64
452.13	9226.39
452.31	9355.12
452.49	9057.87
452.68	9446.40
452.86	9348.10
453.05	9535.34
453.23	9305.97
453.42	9437.04
453.60	9376.19
453.78	9575.13
453.97	9383.21
454.15	9561.09
454.34	9497.89
454.52	9551.73
454.70	9626.62
454.89	9643.01
455.07	9423.00
455.26	9809.19
455.44	9961.32
455.62	9926.21
455.81	10059.62
455.99	9956.64
456.17	10125.16
456.36	10012.81
456.54	10146.22
456.73	10359.21
456.91	10546.45
457.09	10331.12
457.28	10544.11
457.46	10464.54
457.64	10572.20
457.83	10485.60
458.01	10303.04
458.19	10733.70
458.38	10604.97
458.56	10817.96
458.74	10560.50
458.93	10677.52
459.11	10637.73
459.29	10724.33
459.48	10766.46
459.66	10672.84
459.84	10668.16
460.03	11019.24
460.21	10998.18
460.39	10953.71
460.57	10998.18
460.76	11052.01
460.94	11138.61
461.12	11311.81
461.31	11110.52
461.49	11255.64
461.67	11314.15
461.85	11470.97
462.04	11194.78
462.22	11599.70
462.40	11674.59
462.59	11398.41
462.77	11353.94
462.95	11616.08
463.13	11616.08
463.32	11637.14
463.50	11719.06
463.68	11808.00
463.86	11822.05
464.05	11569.27
464.23	11756.51
464.41	11967.16
464.59	11583.31
464.78	12114.61
464.96	12009.29
465.14	12006.95
465.32	11976.52
465.50	12283.13
465.69	12278.45
465.87	12058.44
466.05	12222.28
466.23	11857.15
466.41	12187.17
466.60	12439.95
466.78	12098.23
466.96	12154.40
467.14	12451.65
467.32	12519.53
467.51	12594.42
467.69	12217.60
467.87	12439.95
468.05	12613.15
468.23	12451.65
468.41	12397.82
468.60	12606.13
468.78	12835.50
468.96	12688.04
469.14	12741.88
469.32	13011.04
469.50	12788.69
469.69	12776.98
469.87	13053.17
470.05	13025.08
470.23	13291.90
470.41	13181.90
470.59	13369.14
470.77	13329.35
470.95	13209.98
471.14	13537.66
471.32	13348.08
471.50	13345.73
471.68	13729.58
471.86	13708.52
472.04	13624.26
472.22	14132.15
472.40	13586.81
472.58	13813.84
472.77	14012.79
472.95	14108.75
473.13	14736.01
473.31	14171.94
473.49	14403.66
473.67	14169.60
473.85	14244.50
474.03	14775.80
474.21	14443.45
474.39	14663.46
474.57	14764.10
474.75	14445.79
474.93	15037.94
475.12	14839.00
475.30	15309.44
475.48	15080.07
475.66	15314.13
475.84	15360.94
476.02	15211.14
476.20	15681.59
476.38	15419.45
476.56	16119.27
476.74	15955.43
476.92	15866.49
477.10	15983.52
477.28	16109.91
477.46	16166.08
477.64	16159.06
477.82	16439.92
478.00	17008.67
478.18	16734.83
478.36	16746.53
478.54	17191.23
478.72	17050.80
478.90	17446.35
479.08	17537.63
479.26	17671.04
479.44	17804.46
479.62	17891.06
479.80	18005.74
479.98	18134.47
480.16	18588.53
480.34	18314.69
480.52	18623.64
480.70	18604.92
480.88	18338.10
481.06	18728.97
481.24	18911.53
481.41	19066.00
481.59	19384.32
481.77	19510.71
481.95	19538.79
482.13	19803.27
482.31	19786.89
482.49	20353.30
482.67	20451.60
482.85	20538.20
483.03	20442.24
483.21	20746.51
483.39	20910.35
483.57	20931.41
483.74	21025.03
483.92	21434.63
484.10	21020.35
484.28	21619.53
484.46	21795.07
484.64	22431.69
484.82	21769.32
485.00	22583.83
485.18	22881.08
485.35	22925.55
485.53	22998.10
485.71	23035.55
485.89	23653.45
486.07	23318.76
486.25	23562.17
486.43	23449.83
486.61	23824.31
486.78	23681.54
486.96	23948.36
487.14	24659.88
487.32	24552.22
487.50	24634.14
487.68	24961.81
487.85	25390.13
488.03	25865.26
488.21	25764.62
488.39	25788.02
488.57	25914.41
488.75	26113.36
488.92	26335.71
489.10	26658.70
489.28	26764.03
489.46	27318.73
489.64	27030.85
489.81	27814.93
489.99	27688.54
490.17	27864.08
490.35	28187.07
490.53	28421.13
490.70	28793.27
490.88	28428.15
491.06	28828.38
491.24	29017.96
491.41	29046.05
491.59	29472.03
491.77	29221.59
491.95	29626.50
492.13	29701.40
492.30	30164.82
492.48	30253.76
492.66	30082.91
492.84	30258.45
493.01	30457.39
493.19	30738.26
493.37	30731.23
493.54	31009.76
493.72	31545.74
493.90	31569.15
494.08	32116.83
494.25	32327.48
494.43	31929.59
494.61	32587.28
494.79	32563.87
494.96	32554.51
495.14	32865.80
495.32	32856.44
495.49	33088.15
495.67	33041.34
495.85	33259.01
496.02	33876.91
496.20	34375.45
496.38	34408.22
496.55	34309.91
496.73	35101.01
496.91	34487.79
497.09	34789.72
497.26	35040.16
497.44	35077.61
497.62	35332.73
497.79	35681.47
497.97	35391.24
498.14	35978.72
498.32	36187.02
498.50	36432.78
498.67	36737.05
498.85	36119.15
499.03	36924.29
499.20	36414.05
499.38	36765.14
499.56	37102.17
499.73	37471.98
499.91	37050.68
500.08	37986.89
500.26	37436.87
500.44	37502.40
500.61	37621.77
500.79	37656.88
500.97	38370.74
501.14	38466.70
501.32	38473.73
501.49	38581.39
501.67	38946.51
501.84	38941.83
502.02	38450.32
502.20	39232.06
502.37	39337.38
502.55	39079.92
502.72	39810.17
502.90	39744.64
503.07	39480.16
503.25	39861.66
503.43	39887.41
503.60	40102.74
503.78	40371.90
503.95	40030.18
504.13	40388.28
504.30	40741.71
504.48	40629.36
504.65	40737.02
504.83	41371.31
505.01	41546.85
505.18	41432.16
505.36	41184.07
505.53	41085.76
505.71	41951.76
505.88	41951.76
506.06	41497.70
506.23	41993.89
506.41	41825.37
506.58	42349.65
506.76	42230.29
506.93	42490.09
507.11	42251.35
507.28	42864.57
507.46	42712.44
507.63	43124.37
507.81	43126.71
507.98	43187.56
508.16	43222.67
508.33	43487.15
508.50	43360.76
508.68	44275.91
508.85	43950.58
509.03	43768.02
509.20	43791.42
509.38	44526.35
509.55	44411.67
509.73	44821.26
509.90	44732.32
510.08	44580.18
510.25	44856.37
510.42	44758.06
510.60	45043.61
510.77	45401.71
510.95	45904.93
511.12	45127.87
511.30	45106.80
511.47	45373.63
511.64	45661.51
511.82	46113.23
511.99	45935.35
512.17	46277.07
512.34	45757.47
512.51	46532.19
512.69	46532.19
512.86	46525.17
513.04	46625.81
513.21	46857.52
513.38	46885.61
513.56	47063.49
513.73	46703.05
513.90	47159.45
514.08	46873.91
514.25	47227.33
514.43	47393.51
514.60	47281.16
514.77	47569.05
514.95	47779.70
515.12	47641.60
515.29	47349.04
515.47	48105.03
515.64	47775.02
515.81	48287.59
515.99	48264.19
516.16	48509.94
516.33	48320.36
516.51	48528.67
516.68	48184.61
516.85	48734.63
517.03	48846.98
517.20	49209.76
517.37	48872.73
517.54	48973.37
517.72	49090.40
517.89	48910.17
518.06	49401.69
518.24	49551.48
518.41	49357.22
518.58	49521.05
518.75	49256.57
518.93	49743.41
519.10	49579.57
519.27	49581.91
519.45	49579.57
519.62	49914.26
519.79	49954.05
519.96	50010.23
520.14	49965.76
520.31	50351.94
520.48	50373.01
520.65	50089.80
520.83	51068.15
521.00	50843.46
521.17	50497.06
521.34	50796.65
521.52	50763.88
521.69	51138.36
521.86	50817.71
522.03	50986.23
522.20	51208.58
522.38	51508.17
522.55	51147.73
522.72	51370.08
522.89	51370.08
523.07	51833.50
523.24	51597.11
523.41	51929.47
523.58	51693.07
523.75	51688.39
523.92	51636.90
524.10	51861.59
524.27	52254.80
524.44	52107.35
524.61	52079.26
524.78	52664.39
524.96	52217.35
525.13	52659.71
525.30	52406.94
525.47	52594.18
525.64	52612.90
525.81	52678.44
525.98	52940.58
526.16	52481.83
526.33	52921.85
526.50	52910.15
526.67	52921.85
526.84	53125.48
527.01	52673.76
527.18	53106.76
527.36	52942.92
527.53	52928.87
527.70	53478.90
527.87	53301.02
528.04	53130.16
528.21	53244.85
528.38	53198.04
528.55	53467.20
528.72	53462.52
528.89	53485.92
529.07	53408.68
529.24	53509.33
529.41	53972.75
529.58	53820.62
529.75	53455.50
529.92	53944.67
530.09	53928.28
530.26	53829.98
530.43	54094.46
530.60	53867.43
530.77	54232.55
530.94	54319.15
531.11	54035.95
531.28	54195.10
531.46	54497.03
531.63	54536.82
531.80	54321.49
531.97	54192.76
532.14	54600.02
532.31	54714.70
532.48	54658.53
532.65	54646.83
532.82	54401.07
532.99	54817.69
533.16	54581.29
533.33	55023.65
533.50	55110.25
533.67	54831.73
533.84	54618.74
534.01	55126.64
534.18	54644.49
534.35	55433.25
534.52	55388.78
534.69	55143.02
534.86	55370.05
535.03	55152.38
535.20	55299.84
535.37	55241.32
535.54	55400.48
535.71	55348.99
535.88	55519.85
536.05	55501.12
536.22	55772.63
536.38	55758.58
536.55	55578.36
536.72	55550.27
536.89	55592.40
537.06	55627.51
537.23	55777.31
537.40	55615.81
537.57	55959.87
537.74	55838.16
537.91	56222.01
538.08	56013.70
538.25	55629.85
538.42	56025.40
538.59	56292.22
538.75	55959.87
538.92	56039.45
539.09	56425.64
539.26	55931.78
539.43	56034.77
539.60	56399.89
539.77	56446.70
539.94	56367.12
540.11	56285.20
540.28	56470.11
540.44	56699.48
540.61	56638.62
540.78	56449.04
540.95	56722.88
541.12	56582.45
541.29	56435.00
541.46	56652.67
541.62	56552.02
541.79	56697.14
541.96	56502.87
542.13	56612.88
542.30	56715.86
542.47	56837.57
542.63	56713.52
542.80	56886.72
542.97	56903.10
543.14	57240.14
543.31	57198.01
543.48	57162.90
543.64	57567.82
543.81	57303.34
543.98	57521.01
544.15	57324.40
544.32	57567.82
544.48	57609.95
544.65	57467.17
544.82	57476.54
544.99	57209.71
545.16	57722.29
545.32	57427.38
545.49	57633.35
545.66	57841.66
545.83	57696.55
546.00	57827.62
546.16	57708.25
546.33	57680.16
546.50	57422.70
546.67	57844.00
546.83	57422.70
547.00	57694.21
547.17	57762.08
547.34	57827.62
547.50	58080.39
547.67	58056.99
547.84	58059.33
548.00	58159.97
548.17	58286.36
548.34	58071.03
548.51	58293.38
548.67	58274.66
548.84	58174.02
549.01	58152.95
549.18	58218.49
549.34	58056.99
549.51	58305.09
549.68	58569.57
549.84	58026.56
550.01	58433.81
550.18	58473.60
550.34	58511.05
550.51	58515.73
550.68	58609.35
550.84	58323.81
551.01	58782.55
551.18	58576.59
551.34	58553.18
551.51	58738.08
551.68	58829.37
551.84	58702.98
552.01	58677.23
552.18	58726.38
552.34	58550.84
552.51	58759.15
552.68	58637.44
552.84	58618.72
553.01	58932.35
553.18	58646.80
553.34	58932.35
553.51	58817.66
553.67	59077.46
553.84	58908.94
554.01	58986.18
554.17	59079.80
554.34	59044.69
554.51	59049.38
554.67	59274.07
554.84	58944.05
555.00	58974.48
555.17	58897.24
555.33	59025.97
555.50	59164.06
555.67	58887.88
555.83	59196.83
556.00	59112.57
556.16	59465.99
556.33	59423.86
556.50	59138.32
556.66	59358.33
556.83	59166.40
556.99	59646.21
557.16	59583.02
557.32	59660.26
557.49	59735.15
557.65	59463.65
557.82	59494.08
557.98	59629.83
558.15	59402.80
558.32	59409.82
558.48	59496.42
558.65	59318.54
558.81	59505.78
558.98	59613.44
559.14	59686.00
559.31	59742.17
559.47	59842.82
559.64	59739.83
559.80	59765.58
559.97	59812.39
560.13	59489.40
560.30	59831.11
560.46	59693.02
560.63	59641.53
560.79	59735.15
560.96	59992.61
561.12	59807.71
561.29	59657.91
561.45	59821.75
561.61	59805.37
561.78	59868.56
561.94	59594.72
562.11	59997.29
562.27	59859.20
562.44	60191.56
562.60	60086.23
562.77	60067.51
562.93	59765.58
563.10	60247.73
563.26	59880.27
563.42	60322.63
563.59	60198.58
563.75	60179.85
563.92	60111.98
564.08	60076.87
564.24	60168.15
564.41	60165.81
564.57	60055.81
564.74	60130.70
564.90	60451.36
565.07	60109.64
565.23	60243.05
565.39	60243.05
565.56	60294.54
565.72	60151.77
565.88	60154.11
566.05	60175.17
566.21	60264.11
566.38	60191.56
566.54	60355.39
566.70	60561.36
566.87	60481.78
567.03	60369.44
567.19	60369.44
567.36	60233.69
567.52	60369.44
567.68	60423.27
567.85	60406.89
568.01	60563.70
568.17	60364.76
568.34	60575.40
568.50	60353.05
568.66	60306.24
568.83	60434.97
568.99	60507.53
569.15	60416.25
569.32	60369.44
569.48	60416.25
569.64	60528.59
569.81	60418.59
569.97	60493.49
570.13	60544.98
570.30	60369.44
570.46	60617.53
570.62	60470.08
570.78	60615.19
570.95	60704.13
571.11	60828.18
571.27	60530.93
571.43	60561.36
571.60	60779.03
571.76	60526.25
571.92	60743.92
572.09	60544.98
572.25	60533.28
572.41	60500.51
572.57	60788.39
572.74	60853.93
572.90	60722.86
573.06	60654.98
573.22	60605.83
573.38	60746.26
573.55	60643.28
573.71	60898.40
573.87	60788.39
574.03	60416.25
574.20	60662.00
574.36	60533.28
574.52	60680.73
574.68	60612.85
574.84	60844.57
575.01	60842.23
575.17	60762.65
575.33	60605.83
575.49	60685.41
575.65	60959.25
575.82	60874.99
575.98	60874.99
576.14	61006.06
576.30	60935.85
576.46	60566.04
576.62	60645.62
576.79	60713.50
576.95	60619.88
577.11	60729.88
577.27	60940.53
577.43	60734.56
577.59	60856.27
577.75	60692.43
577.92	60697.11
578.08	60987.34
578.24	60980.32
578.40	60963.93
578.56	61001.38
578.72	60823.50
578.88	61092.66
579.04	61240.12
579.21	60905.42
579.37	61209.69
579.53	61099.68
579.69	60816.48
579.85	60919.46
580.01	60701.79
580.17	60802.44
580.33	60999.04
580.49	61095.00
580.65	60886.70
580.82	60898.40
580.98	60860.95
581.14	60863.29
581.30	61006.06
581.46	61113.73
581.62	60977.98
581.78	60877.33
581.94	60910.10
582.10	60893.72
582.26	60921.80
582.42	60872.65
582.58	60886.70
582.74	60947.55
582.90	60914.78
583.06	60949.89
583.22	60921.80
583.38	60952.23
583.54	60994.36
583.70	61134.79
583.86	60858.61
584.02	60863.29
584.18	61078.62
584.34	61036.49
584.50	60992.02
584.66	61017.77
584.82	60662.00
584.98	61027.13
585.14	60933.51
585.30	60910.10
585.46	61183.94
585.62	61284.59
585.78	61272.88
585.94	60793.07
586.10	61003.72
586.26	61095.00
586.42	61256.50
586.58	61031.81
586.74	61289.27
586.90	60970.96
587.06	61052.87
587.22	61275.22
587.38	61097.34
587.54	61322.04
587.70	61403.95
587.86	61151.18
588.02	61139.47
588.18	61216.71
588.34	61158.20
588.49	61127.77
